05/20/2022	16:48:43	Ver.	4.1	UNKNOWN
Optical Delay	639.982744	Delta X		0.078125	Sweeps	1	Scan Rate	0/0
Coordinates	Axis 1	NaN	Axis 2	NaN	Axis 3	NaN	Axis 4	NaN	Axis 5	NaN	Axis 6	0.000000
TX Power	0.000000	RX Power	0.000000

639.983	0.0154578
640.061	0.0151407
640.139	0.0152192
640.217	0.0152264
640.295	0.0151909
640.373	0.0151940
640.451	0.0153236
640.530	0.0153842
640.608	0.0152267
640.686	0.0152003
640.764	0.0153689
640.842	0.0152113
640.920	0.0151336
640.998	0.0152982
641.076	0.0153110
641.155	0.0151839
641.233	0.0152850
641.311	0.0152916
641.389	0.0152785
641.467	0.0153526
641.545	0.0152789
641.623	0.0152965
641.701	0.0154192
641.780	0.0151466
641.858	0.0152888
641.936	0.0152789
642.014	0.0153716
642.092	0.0152617
642.170	0.0153597
642.248	0.0153496
642.326	0.0152120
642.405	0.0152654
642.483	0.0152947
642.561	0.0152969
642.639	0.0153626
642.717	0.0153468
642.795	0.0153406
642.873	0.0151710
642.951	0.0152132
643.030	0.0155078
643.108	0.0153301
643.186	0.0154541
643.264	0.0153881
643.342	0.0152620
643.420	0.0155280
643.498	0.0153763
643.576	0.0155190
643.655	0.0154105
643.733	0.0153193
643.811	0.0155161
643.889	0.0154729
643.967	0.0154367
644.045	0.0153558
644.123	0.0155509
644.201	0.0154671
644.280	0.0154661
644.358	0.0155035
644.436	0.0156247
644.514	0.0155005
644.592	0.0155391
644.670	0.0154351
644.748	0.0154389
644.826	0.0153677
644.905	0.0154110
644.983	0.0152511
645.061	0.0155106
645.139	0.0154772
645.217	0.0154227
645.295	0.0154916
645.373	0.0153508
645.451	0.0154546
645.530	0.0153643
645.608	0.0153745
645.686	0.0154188
645.764	0.0152938
645.842	0.0152404
645.920	0.0153988
645.998	0.0153391
646.076	0.0154744
646.155	0.0154488
646.233	0.0154343
646.311	0.0154224
646.389	0.0154323
646.467	0.0154733
646.545	0.0153761
646.623	0.0153571
646.701	0.0155436
646.780	0.0153974
646.858	0.0156620
646.936	0.0155180
647.014	0.0155694
647.092	0.0156145
647.170	0.0157359
647.248	0.0156691
647.326	0.0156573
647.405	0.0155685
647.483	0.0155816
647.561	0.0155601
647.639	0.0156094
647.717	0.0157125
647.795	0.0156283
647.873	0.0155727
647.951	0.0155177
648.030	0.0157057
648.108	0.0156347
648.186	0.0157294
648.264	0.0157266
648.342	0.0157514
648.420	0.0157716
648.498	0.0158117
648.576	0.0156603
648.655	0.0158230
648.733	0.0157854
648.811	0.0158462
648.889	0.0158678
648.967	0.0157088
649.045	0.0159132
649.123	0.0158544
649.201	0.0158746
649.280	0.0159007
649.358	0.0157542
649.436	0.0158762
649.514	0.0158733
649.592	0.0157550
649.670	0.0157944
649.748	0.0158166
649.826	0.0157921
649.905	0.0157462
649.983	0.0157276
650.061	0.0157511
650.139	0.0157188
650.217	0.0157497
650.295	0.0156756
650.373	0.0156011
650.451	0.0156650
650.530	0.0155809
650.608	0.0156308
650.686	0.0154049
650.764	0.0154343
650.842	0.0155140
650.920	0.0154722
650.998	0.0155083
651.076	0.0153568
651.155	0.0154173
651.233	0.0152754
651.311	0.0152625
651.389	0.0153704
651.467	0.0152859
651.545	0.0152509
651.623	0.0153144
651.701	0.0152299
651.780	0.0152542
651.858	0.0151505
651.936	0.0151968
652.014	0.0152785
652.092	0.0151828
652.170	0.0153319
652.248	0.0151876
652.326	0.0152518
652.405	0.0152055
652.483	0.0150217
652.561	0.0152225
652.639	0.0152183
652.717	0.0150904
652.795	0.0151939
652.873	0.0152595
652.951	0.0152338
653.030	0.0151003
653.108	0.0150751
653.186	0.0151361
653.264	0.0152886
653.342	0.0151340
653.420	0.0151707
653.498	0.0152599
653.576	0.0151865
653.655	0.0151826
653.733	0.0151710
653.811	0.0152203
653.889	0.0151675
653.967	0.0152236
654.045	0.0152118
654.123	0.0153261
654.201	0.0153803
654.280	0.0154904
654.358	0.0153539
654.436	0.0153076
654.514	0.0153267
654.592	0.0153264
654.670	0.0153693
654.748	0.0154698
654.826	0.0154671
654.905	0.0153043
654.983	0.0155731
655.061	0.0154817
655.139	0.0154957
655.217	0.0157104
655.295	0.0155251
655.373	0.0154691
655.451	0.0155489
655.530	0.0154890
655.608	0.0154346
655.686	0.0154092
655.764	0.0154007
655.842	0.0154267
655.920	0.0155238
655.998	0.0153519
656.076	0.0154150
656.155	0.0154449
656.233	0.0153672
656.311	0.0154349
656.389	0.0153674
656.467	0.0153997
656.545	0.0153014
656.623	0.0152792
656.701	0.0152225
656.780	0.0153809
656.858	0.0154631
656.936	0.0153545
657.014	0.0151578
657.092	0.0152370
657.170	0.0152504
657.248	0.0153411
657.326	0.0152281
657.405	0.0151760
657.483	0.0153030
657.561	0.0154563
657.639	0.0154158
657.717	0.0154117
657.795	0.0153335
657.873	0.0153528
657.951	0.0153055
658.030	0.0153649
658.108	0.0155063
658.186	0.0152244
658.264	0.0152941
658.342	0.0154043
658.420	0.0154717
658.498	0.0152506
658.576	0.0153418
658.655	0.0154469
658.733	0.0153570
658.811	0.0153832
658.889	0.0153255
658.967	0.0153224
659.045	0.0153196
659.123	0.0153194
659.201	0.0152866
659.280	0.0153524
659.358	0.0152946
659.436	0.0153375
659.514	0.0153493
659.592	0.0153091
659.670	0.0153954
659.748	0.0153996
659.826	0.0153648
659.905	0.0153538
659.983	0.0154784
660.061	0.0153822
660.139	0.0153632
660.217	0.0154555
660.295	0.0155260
660.373	0.0155156
660.451	0.0154289
660.530	0.0155545
660.608	0.0155704
660.686	0.0155222
660.764	0.0155274
660.842	0.0154563
660.920	0.0155241
660.998	0.0155026
661.076	0.0156123
661.155	0.0155193
661.233	0.0154682
661.311	0.0153593
661.389	0.0153554
661.467	0.0154539
661.545	0.0151936
661.623	0.0153107
661.701	0.0153946
661.780	0.0154160
661.858	0.0153733
661.936	0.0153471
662.014	0.0153969
662.092	0.0154719
662.170	0.0154922
662.248	0.0155394
662.326	0.0154388
662.405	0.0155580
662.483	0.0155317
662.561	0.0154768
662.639	0.0156250
662.717	0.0155892
662.795	0.0154411
662.873	0.0153887
662.951	0.0154241
663.030	0.0153642
663.108	0.0152970
663.186	0.0153371
663.264	0.0153353
663.342	0.0153886
663.420	0.0153830
663.498	0.0153727
663.576	0.0153548
663.655	0.0152053
663.733	0.0153213
663.811	0.0154723
663.889	0.0155011
663.967	0.0153764
664.045	0.0154623
664.123	0.0154002
664.201	0.0154333
664.280	0.0154274
664.358	0.0153091
664.436	0.0152676
664.514	0.0154591
664.592	0.0153568
664.670	0.0152408
664.748	0.0152711
664.826	0.0154276
664.905	0.0153838
664.983	0.0154769
665.061	0.0155563
665.139	0.0153826
665.217	0.0153587
665.295	0.0154256
665.373	0.0154836
665.451	0.0156026
665.530	0.0155996
665.608	0.0155233
665.686	0.0155679
665.764	0.0155867
665.842	0.0157003
665.920	0.0156855
665.998	0.0157736
666.076	0.0157964
666.155	0.0158286
666.233	0.0157894
666.311	0.0158613
666.389	0.0157807
666.467	0.0158869
666.545	0.0158448
666.623	0.0158969
666.701	0.0158247
666.780	0.0157159
666.858	0.0158463
666.936	0.0156584
667.014	0.0157901
667.092	0.0155854
667.170	0.0156435
667.248	0.0158047
667.326	0.0156567
667.405	0.0155458
667.483	0.0155273
667.561	0.0154465
667.639	0.0154128
667.717	0.0153194
667.795	0.0152503
667.873	0.0151398
667.951	0.0151366
668.030	0.0150714
668.108	0.0149911
668.186	0.0149557
668.264	0.0150468
668.342	0.0150404
668.420	0.0150186
668.498	0.0149902
668.576	0.0149673
668.655	0.0151526
668.733	0.0152552
668.811	0.0152645
668.889	0.0154031
668.967	0.0155454
669.045	0.0155888
669.123	0.0156940
669.201	0.0157613
669.280	0.0156993
669.358	0.0158960
669.436	0.0161047
669.514	0.0159943
669.592	0.0160831
669.670	0.0161941
669.748	0.0163969
669.826	0.0163464
669.905	0.0164144
669.983	0.0163885
670.061	0.0163998
670.139	0.0165879
670.217	0.0165215
670.295	0.0164608
670.373	0.0165337
670.451	0.0165462
670.530	0.0162861
670.608	0.0162502
670.686	0.0161989
670.764	0.0162003
670.842	0.0160228
670.920	0.0159519
670.998	0.0158013
671.076	0.0156176
671.155	0.0155774
671.233	0.0153267
671.311	0.0151750
671.389	0.0151092
671.467	0.0149656
671.545	0.0147467
671.623	0.0147490
671.701	0.0146082
671.780	0.0145087
671.858	0.0143826
671.936	0.0145274
672.014	0.0144855
672.092	0.0145351
672.170	0.0144550
672.248	0.0146639
672.326	0.0146467
672.405	0.0148563
672.483	0.0149274
672.561	0.0149380
672.639	0.0150906
672.717	0.0152016
672.795	0.0152952
672.873	0.0154363
672.951	0.0155264
673.030	0.0155513
673.108	0.0156652
673.186	0.0158192
673.264	0.0160161
673.342	0.0160564
673.420	0.0161205
673.498	0.0162644
673.576	0.0162505
673.655	0.0163031
673.733	0.0165411
673.811	0.0165387
673.889	0.0164758
673.967	0.0163979
674.045	0.0164314
674.123	0.0164737
674.201	0.0163004
674.280	0.0162598
674.358	0.0160469
674.436	0.0158263
674.514	0.0158054
674.592	0.0156549
674.670	0.0154957
674.748	0.0154529
674.826	0.0151951
674.905	0.0151155
674.983	0.0150464
675.061	0.0147951
675.139	0.0147341
675.217	0.0144932
675.295	0.0144998
675.373	0.0142663
675.451	0.0143590
675.530	0.0141311
675.608	0.0141567
675.686	0.0140480
675.764	0.0141130
675.842	0.0141250
675.920	0.0142178
675.998	0.0142888
676.076	0.0142415
676.155	0.0144482
676.233	0.0145208
676.311	0.0147467
676.389	0.0148299
676.467	0.0150243
676.545	0.0151523
676.623	0.0153902
676.701	0.0155228
676.780	0.0156349
676.858	0.0158720
676.936	0.0161198
677.014	0.0160677
677.092	0.0162130
677.170	0.0163544
677.248	0.0163748
677.326	0.0165009
677.405	0.0165286
677.483	0.0165953
677.561	0.0164651
677.639	0.0164359
677.717	0.0166176
677.795	0.0164592
677.873	0.0163544
677.951	0.0164209
678.030	0.0164126
678.108	0.0162083
678.186	0.0160145
678.264	0.0160155
678.342	0.0159173
678.420	0.0159220
678.498	0.0155520
678.576	0.0156503
678.655	0.0154792
678.733	0.0155176
678.811	0.0156845
678.889	0.0153961
678.967	0.0153262
679.045	0.0153031
679.123	0.0151907
679.201	0.0151080
679.280	0.0150931
679.358	0.0150796
679.436	0.0152579
679.514	0.0149995
679.592	0.0148843
679.670	0.0150371
679.748	0.0149891
679.826	0.0148263
679.905	0.0148847
679.983	0.0149399
680.061	0.0148429
680.139	0.0147897
680.217	0.0149461
680.295	0.0147289
680.373	0.0148595
680.451	0.0150090
680.530	0.0150105
680.608	0.0150176
680.686	0.0151271
680.764	0.0151824
680.842	0.0150479
680.920	0.0150848
680.998	0.0151775
681.076	0.0151848
681.155	0.0150652
681.233	0.0150726
681.311	0.0152574
681.389	0.0153320
681.467	0.0153526
681.545	0.0154726
681.623	0.0154987
681.701	0.0156399
681.780	0.0158694
681.858	0.0159074
681.936	0.0159383
682.014	0.0162083
682.092	0.0161692
682.170	0.0161347
682.248	0.0164934
682.326	0.0162321
682.405	0.0163066
682.483	0.0163880
682.561	0.0164667
682.639	0.0163288
682.717	0.0163744
682.795	0.0162174
682.873	0.0161983
682.951	0.0163120
683.030	0.0161355
683.108	0.0160309
683.186	0.0159247
683.264	0.0158517
683.342	0.0157787
683.420	0.0156010
683.498	0.0153923
683.576	0.0153718
683.655	0.0151332
683.733	0.0151205
683.811	0.0150990
683.889	0.0148962
683.967	0.0148369
684.045	0.0147580
684.123	0.0149279
684.201	0.0149035
684.280	0.0149774
684.358	0.0150378
684.436	0.0149055
684.514	0.0149166
684.592	0.0152510
684.670	0.0149485
684.748	0.0151455
684.826	0.0153220
684.905	0.0151883
684.983	0.0151559
685.061	0.0152419
685.139	0.0151463
685.217	0.0150666
685.295	0.0151923
685.373	0.0154404
685.451	0.0154604
685.530	0.0152443
685.608	0.0153319
685.686	0.0155270
685.764	0.0153226
685.842	0.0152738
685.920	0.0153014
685.998	0.0152307
686.076	0.0153630
686.155	0.0152817
686.233	0.0151782
686.311	0.0152380
686.389	0.0150661
686.467	0.0149624
686.545	0.0151147
686.623	0.0150885
686.701	0.0151978
686.780	0.0152686
686.858	0.0153931
686.936	0.0153645
687.014	0.0154100
687.092	0.0157236
687.170	0.0157603
687.248	0.0158854
687.326	0.0160061
687.405	0.0160556
687.483	0.0160555
687.561	0.0162285
687.639	0.0164903
687.717	0.0163609
687.795	0.0164146
687.873	0.0163367
687.951	0.0164629
688.030	0.0163354
688.108	0.0163317
688.186	0.0161167
688.264	0.0161163
688.342	0.0160353
688.420	0.0158067
688.498	0.0157652
688.576	0.0155482
688.655	0.0152870
688.733	0.0152319
688.811	0.0150372
688.889	0.0147838
688.967	0.0145747
689.045	0.0145023
689.123	0.0144885
689.201	0.0143607
689.280	0.0141930
689.358	0.0143207
689.436	0.0141852
689.514	0.0143420
689.592	0.0141863
689.670	0.0142360
689.748	0.0143163
689.826	0.0144872
689.905	0.0145052
689.983	0.0146326
690.061	0.0147957
690.139	0.0150083
690.217	0.0150928
690.295	0.0154634
690.373	0.0156533
690.451	0.0158083
690.530	0.0161781
690.608	0.0163954
690.686	0.0164806
690.764	0.0166351
690.842	0.0167294
690.920	0.0168827
690.998	0.0169772
691.076	0.0168819
691.155	0.0169984
691.233	0.0169448
691.311	0.0167312
691.389	0.0166409
691.467	0.0166132
691.545	0.0164347
691.623	0.0161295
691.701	0.0161189
691.780	0.0160047
691.858	0.0155841
691.936	0.0154555
692.014	0.0152531
692.092	0.0150968
692.170	0.0149947
692.248	0.0148920
692.326	0.0148173
692.405	0.0146593
692.483	0.0144398
692.561	0.0143692
692.639	0.0142142
692.717	0.0141660
692.795	0.0141675
692.873	0.0141593
692.951	0.0141749
693.030	0.0141994
693.108	0.0144384
693.186	0.0144593
693.264	0.0144311
693.342	0.0145414
693.420	0.0148591
693.498	0.0149404
693.576	0.0150686
693.655	0.0152575
693.733	0.0154593
693.811	0.0154948
693.889	0.0157343
693.967	0.0157084
694.045	0.0158978
694.123	0.0159393
694.201	0.0158773
694.280	0.0159273
694.358	0.0160716
694.436	0.0161354
694.514	0.0159921
694.592	0.0160303
694.670	0.0158858
694.748	0.0159097
694.826	0.0160131
694.905	0.0159225
694.983	0.0158908
695.061	0.0156934
695.139	0.0158100
695.217	0.0157204
695.295	0.0158248
695.373	0.0155278
695.451	0.0155891
695.530	0.0155505
695.608	0.0153963
695.686	0.0154869
695.764	0.0154593
695.842	0.0153555
695.920	0.0154941
695.998	0.0154452
696.076	0.0154193
696.155	0.0154987
696.233	0.0154977
696.311	0.0154295
696.389	0.0153687
696.467	0.0155103
696.545	0.0155170
696.623	0.0153880
696.701	0.0154118
696.780	0.0153417
696.858	0.0153157
696.936	0.0152037
697.014	0.0152631
697.092	0.0151273
697.170	0.0152020
697.248	0.0151493
697.326	0.0149823
697.405	0.0149370
697.483	0.0149632
697.561	0.0148441
697.639	0.0148053
697.717	0.0147538
697.795	0.0147667
697.873	0.0146494
697.951	0.0146255
698.030	0.0146670
698.108	0.0148615
698.186	0.0148205
698.264	0.0149337
698.342	0.0150867
698.420	0.0149331
698.498	0.0150900
698.576	0.0151460
698.655	0.0152380
698.733	0.0152106
698.811	0.0154760
698.889	0.0158346
698.967	0.0158165
699.045	0.0158611
699.123	0.0160587
699.201	0.0160104
699.280	0.0163203
699.358	0.0164112
699.436	0.0163438
699.514	0.0165496
699.592	0.0165429
699.670	0.0165057
699.748	0.0165242
699.826	0.0167005
699.905	0.0166628
699.983	0.0164632
700.061	0.0164577
700.139	0.0164972
700.217	0.0163397
700.295	0.0162642
700.373	0.0161227
700.451	0.0159834
700.530	0.0159014
700.608	0.0157604
700.686	0.0155359
700.764	0.0155762
700.842	0.0153185
700.920	0.0151830
700.998	0.0151929
701.076	0.0150337
701.155	0.0148029
701.233	0.0147167
701.311	0.0145267
701.389	0.0145477
701.467	0.0144481
701.545	0.0143704
701.623	0.0141785
701.701	0.0142918
701.780	0.0142747
701.858	0.0144172
701.936	0.0142181
702.014	0.0141434
702.092	0.0143331
702.170	0.0142921
702.248	0.0144863
702.326	0.0146632
702.405	0.0147046
702.483	0.0146226
702.561	0.0148604
702.639	0.0151519
702.717	0.0154546
702.795	0.0153997
702.873	0.0156828
702.951	0.0160551
703.030	0.0161580
703.108	0.0162860
703.186	0.0165147
703.264	0.0165487
703.342	0.0165366
703.420	0.0168070
703.498	0.0169217
703.576	0.0171053
703.655	0.0171096
703.733	0.0173097
703.811	0.0172836
703.889	0.0174217
703.967	0.0173088
704.045	0.0169946
704.123	0.0169811
704.201	0.0169585
704.280	0.0170704
704.358	0.0168928
704.436	0.0166138
704.514	0.0163491
704.592	0.0161939
704.670	0.0159939
704.748	0.0157641
704.826	0.0158382
704.905	0.0154488
704.983	0.0152593
705.061	0.0152794
705.139	0.0151038
705.217	0.0148518
705.295	0.0147372
705.373	0.0147054
705.451	0.0145356
705.530	0.0144019
705.608	0.0144577
705.686	0.0143825
705.764	0.0142492
705.842	0.0142990
705.920	0.0142447
705.998	0.0141582
706.076	0.0141258
706.155	0.0141626
706.233	0.0142175
706.311	0.0142700
706.389	0.0143230
706.467	0.0143283
706.545	0.0145699
706.623	0.0146005
706.701	0.0146732
706.780	0.0147537
706.858	0.0147866
706.936	0.0150223
707.014	0.0150108
707.092	0.0152012
707.170	0.0153011
707.248	0.0154144
707.326	0.0155341
707.405	0.0154463
707.483	0.0155293
707.561	0.0157032
707.639	0.0159199
707.717	0.0158907
707.795	0.0160550
707.873	0.0160751
707.951	0.0160622
708.030	0.0161681
708.108	0.0162970
708.186	0.0162769
708.264	0.0164628
708.342	0.0164899
708.420	0.0164306
708.498	0.0163639
708.576	0.0165101
708.655	0.0165459
708.733	0.0165467
708.811	0.0163776
708.889	0.0163822
708.967	0.0163921
709.045	0.0161568
709.123	0.0161029
709.201	0.0162482
709.280	0.0160636
709.358	0.0158321
709.436	0.0158008
709.514	0.0157539
709.592	0.0156284
709.670	0.0156205
709.748	0.0153493
709.826	0.0152595
709.905	0.0151653
709.983	0.0150912
710.061	0.0149850
710.139	0.0148253
710.217	0.0147422
710.295	0.0146053
710.373	0.0146966
710.451	0.0146101
710.530	0.0146675
710.608	0.0145839
710.686	0.0146628
710.764	0.0146210
710.842	0.0148303
710.920	0.0148302
710.998	0.0147630
711.076	0.0148006
711.155	0.0150343
711.233	0.0150812
711.311	0.0151456
711.389	0.0152050
711.467	0.0154816
711.545	0.0154257
711.623	0.0154566
711.701	0.0155908
711.780	0.0157847
711.858	0.0158386
711.936	0.0160661
712.014	0.0161387
712.092	0.0161045
712.170	0.0161669
712.248	0.0161016
712.326	0.0161922
712.405	0.0161689
712.483	0.0161325
712.561	0.0160215
712.639	0.0159684
712.717	0.0159908
712.795	0.0157790
712.873	0.0158009
712.951	0.0157649
713.030	0.0156625
713.108	0.0155737
713.186	0.0154685
713.264	0.0154673
713.342	0.0154093
713.420	0.0153004
713.498	0.0153334
713.576	0.0152505
713.655	0.0152100
713.733	0.0150359
713.811	0.0150591
713.889	0.0151615
713.967	0.0151591
714.045	0.0151682
714.123	0.0149387
714.201	0.0150078
714.280	0.0148827
714.358	0.0149138
714.436	0.0147443
714.514	0.0148228
714.592	0.0149509
714.670	0.0149165
714.748	0.0148907
714.826	0.0147976
714.905	0.0148753
714.983	0.0150934
715.061	0.0150402
715.139	0.0151379
715.217	0.0151710
715.295	0.0150620
715.373	0.0152844
715.451	0.0152570
715.530	0.0152011
715.608	0.0153907
715.686	0.0151096
715.764	0.0151937
715.842	0.0152178
715.920	0.0152815
715.998	0.0153098
716.076	0.0154425
716.155	0.0154266
716.233	0.0153123
716.311	0.0155254
716.389	0.0156441
716.467	0.0157114
716.545	0.0157064
716.623	0.0158539
716.701	0.0157527
716.780	0.0157770
716.858	0.0158076
716.936	0.0157727
717.014	0.0159441
717.092	0.0158832
717.170	0.0157381
717.248	0.0158442
717.326	0.0159843
717.405	0.0158282
717.483	0.0158279
717.561	0.0157287
717.639	0.0156030
717.717	0.0155164
717.795	0.0155775
717.873	0.0154646
717.951	0.0153514
718.030	0.0153547
718.108	0.0152370
718.186	0.0151459
718.264	0.0150897
718.342	0.0150355
718.420	0.0148910
718.498	0.0147737
718.576	0.0147184
718.655	0.0146329
718.733	0.0146043
718.811	0.0146730
718.889	0.0145666
718.967	0.0145076
719.045	0.0145907
719.123	0.0145095
719.201	0.0145287
719.280	0.0146240
719.358	0.0146293
719.436	0.0146453
719.514	0.0146605
719.592	0.0147507
719.670	0.0147636
719.748	0.0147721
719.826	0.0148001
719.905	0.0147771
719.983	0.0149958
720.061	0.0151111
720.139	0.0150185
720.217	0.0152139
720.295	0.0151582
720.373	0.0151912
720.451	0.0152132
720.530	0.0153243
720.608	0.0151866
720.686	0.0154519
720.764	0.0154823
720.842	0.0154595
720.920	0.0154578
720.998	0.0155215
721.076	0.0155266
721.155	0.0154495
721.233	0.0154059
721.311	0.0155054
721.389	0.0155257
721.467	0.0154663
721.545	0.0157613
721.623	0.0155518
721.701	0.0157043
721.780	0.0156969
721.858	0.0155779
721.936	0.0157751
722.014	0.0157877
722.092	0.0157419
722.170	0.0157771
722.248	0.0158263
722.326	0.0159925
722.405	0.0159628
722.483	0.0159827
722.561	0.0159946
722.639	0.0160004
722.717	0.0160415
722.795	0.0159676
722.873	0.0160287
722.951	0.0161201
723.030	0.0160284
723.108	0.0160686
723.186	0.0159228
723.264	0.0159788
723.342	0.0160409
723.420	0.0160491
723.498	0.0161216
723.576	0.0161191
723.655	0.0159476
723.733	0.0159019
723.811	0.0157956
723.889	0.0159627
723.967	0.0158160
724.045	0.0157068
724.123	0.0156873
724.201	0.0157020
724.280	0.0153844
724.358	0.0153746
724.436	0.0153454
724.514	0.0151288
724.592	0.0150601
724.670	0.0149954
724.748	0.0147594
724.826	0.0146297
724.905	0.0147964
724.983	0.0145801
725.061	0.0146765
725.139	0.0147329
725.217	0.0148276
725.295	0.0148376
725.373	0.0148842
725.451	0.0148461
725.530	0.0151562
725.608	0.0151452
725.686	0.0152125
725.764	0.0153225
725.842	0.0154934
725.920	0.0157265
725.998	0.0158363
726.076	0.0158521
726.155	0.0160036
726.233	0.0161026
726.311	0.0161408
726.389	0.0162270
726.467	0.0162708
726.545	0.0163623
726.623	0.0164979
726.701	0.0163837
726.780	0.0163838
726.858	0.0163136
726.936	0.0163309
727.014	0.0162112
727.092	0.0160413
727.170	0.0161711
727.248	0.0160374
727.326	0.0158032
727.405	0.0158544
727.483	0.0158929
727.561	0.0156292
727.639	0.0156986
727.717	0.0157134
727.795	0.0156172
727.873	0.0156609
727.951	0.0155979
728.030	0.0155822
728.108	0.0153392
728.186	0.0153980
728.264	0.0153719
728.342	0.0153510
728.420	0.0151616
728.498	0.0153088
728.576	0.0152612
728.655	0.0151883
728.733	0.0151650
728.811	0.0151563
728.889	0.0149930
728.967	0.0150819
729.045	0.0149872
729.123	0.0150035
729.201	0.0149714
729.280	0.0151547
729.358	0.0151284
729.436	0.0150974
729.514	0.0151701
729.592	0.0152774
729.670	0.0152927
729.748	0.0151028
729.826	0.0154001
729.905	0.0153431
729.983	0.0154962
730.061	0.0156158
730.139	0.0156563
730.217	0.0157385
730.295	0.0158548
730.373	0.0157909
730.451	0.0158777
730.530	0.0160325
730.608	0.0160691
730.686	0.0161036
730.764	0.0160791
730.842	0.0160913
730.920	0.0160019
730.998	0.0160078
731.076	0.0159588
731.155	0.0157937
731.233	0.0158739
731.311	0.0158570
731.389	0.0159075
731.467	0.0157763
731.545	0.0157669
731.623	0.0156506
731.701	0.0157822
731.780	0.0158063
731.858	0.0157646
731.936	0.0156590
732.014	0.0156020
732.092	0.0155198
732.170	0.0153716
732.248	0.0154016
732.326	0.0153437
732.405	0.0151370
732.483	0.0150491
732.561	0.0150990
732.639	0.0149469
732.717	0.0148170
732.795	0.0147141
732.873	0.0147980
732.951	0.0146011
733.030	0.0147897
733.108	0.0148631
733.186	0.0147467
733.264	0.0148313
733.342	0.0148431
733.420	0.0147799
733.498	0.0149218
733.576	0.0150726
733.655	0.0152066
733.733	0.0151928
733.811	0.0152975
733.889	0.0153317
733.967	0.0153722
734.045	0.0153955
734.123	0.0154831
734.201	0.0153808
734.280	0.0154684
734.358	0.0156301
734.436	0.0155270
734.514	0.0156514
734.592	0.0157970
734.670	0.0156607
734.748	0.0157029
734.826	0.0157450
734.905	0.0156510
734.983	0.0156506
735.061	0.0155158
735.139	0.0156321
735.217	0.0158680
735.295	0.0156336
735.373	0.0156139
735.451	0.0156908
735.530	0.0158309
735.608	0.0156846
735.686	0.0156086
735.764	0.0157726
735.842	0.0156636
735.920	0.0157338
735.998	0.0157655
736.076	0.0158042
736.155	0.0159271
736.233	0.0157347
736.311	0.0155840
736.389	0.0157227
736.467	0.0156628
736.545	0.0155453
736.623	0.0155393
736.701	0.0153297
736.780	0.0153391
736.858	0.0151810
736.936	0.0152149
737.014	0.0150699
737.092	0.0150679
737.170	0.0151025
737.248	0.0149075
737.326	0.0148618
737.405	0.0148727
737.483	0.0149261
737.561	0.0148335
737.639	0.0150360
737.717	0.0150810
737.795	0.0149261
737.873	0.0149881
737.951	0.0150894
738.030	0.0150665
738.108	0.0153650
738.186	0.0153287
738.264	0.0152487
738.342	0.0152998
738.420	0.0154182
738.498	0.0153526
738.576	0.0153533
738.655	0.0154414
738.733	0.0154380
738.811	0.0152595
738.889	0.0154607
738.967	0.0151920
739.045	0.0153173
739.123	0.0153877
739.201	0.0154546
739.280	0.0152560
739.358	0.0153802
739.436	0.0154078
739.514	0.0154753
739.592	0.0155293
739.670	0.0154388
739.748	0.0154523
739.826	0.0155654
739.905	0.0155292
739.983	0.0155340
740.061	0.0153414
740.139	0.0154116
740.217	0.0154908
740.295	0.0152696
740.373	0.0153757
740.451	0.0152601
740.530	0.0151243
740.608	0.0151254
740.686	0.0151772
740.764	0.0152612
740.842	0.0152893
740.920	0.0151900
740.998	0.0153646
741.076	0.0152511
741.155	0.0151104
741.233	0.0151998
741.311	0.0152693
741.389	0.0152459
741.467	0.0151127
741.545	0.0153635
741.623	0.0151739
741.701	0.0151418
741.780	0.0151314
741.858	0.0150625
741.936	0.0151655
742.014	0.0152657
742.092	0.0151958
742.170	0.0152563
742.248	0.0152833
742.326	0.0154861
742.405	0.0152839
742.483	0.0152162
742.561	0.0153455
742.639	0.0154705
742.717	0.0154787
742.795	0.0154298
742.873	0.0154514
742.951	0.0156625
743.030	0.0155967
743.108	0.0156635
743.186	0.0156229
743.264	0.0156194
743.342	0.0156040
743.420	0.0156986
743.498	0.0155627
743.576	0.0156089
743.655	0.0157446
743.733	0.0155923
743.811	0.0156689
743.889	0.0155943
743.967	0.0155374
744.045	0.0155161
744.123	0.0155702
744.201	0.0155664
744.280	0.0155255
744.358	0.0156648
744.436	0.0155746
744.514	0.0155016
744.592	0.0155286
744.670	0.0153950
744.748	0.0154711
744.826	0.0155093
744.905	0.0155573
744.983	0.0155361
745.061	0.0154823
745.139	0.0154353
745.217	0.0154812
745.295	0.0153688
745.373	0.0154970
745.451	0.0154631
745.530	0.0155436
745.608	0.0155786
745.686	0.0155825
745.764	0.0154719
745.842	0.0155530
745.920	0.0156369
745.998	0.0155547
746.076	0.0156557
746.155	0.0156578
746.233	0.0156367
746.311	0.0155411
746.389	0.0155299
746.467	0.0155401
746.545	0.0154974
746.623	0.0153006
746.701	0.0153803
746.780	0.0155074
746.858	0.0155230
746.936	0.0154874
747.014	0.0155580
747.092	0.0155428
747.170	0.0154504
747.248	0.0154985
747.326	0.0154382
747.405	0.0155878
747.483	0.0154994
747.561	0.0154942
747.639	0.0154218
747.717	0.0153654
747.795	0.0154540
747.873	0.0153336
747.951	0.0154536
748.030	0.0152343
748.108	0.0152847
748.186	0.0153970
748.264	0.0155108
748.342	0.0154246
748.420	0.0152902
748.498	0.0155141
748.576	0.0154801
748.655	0.0155458
748.733	0.0156631
748.811	0.0158232
748.889	0.0157093
748.967	0.0156528
749.045	0.0159208
749.123	0.0158006
749.201	0.0158128
749.280	0.0158736
749.358	0.0160696
749.436	0.0158984
749.514	0.0158387
749.592	0.0158195
749.670	0.0158018
749.748	0.0158090
749.826	0.0156441
749.905	0.0155871
749.983	0.0157419
750.061	0.0154599
750.139	0.0154099
750.217	0.0154143
750.295	0.0154419
750.373	0.0153043
750.451	0.0151073
750.530	0.0150916
750.608	0.0151035
750.686	0.0151418
750.764	0.0150374
750.842	0.0151293
750.920	0.0150271
750.998	0.0150247
751.076	0.0150432
751.155	0.0151299
751.233	0.0152802
751.311	0.0152357
751.389	0.0151765
751.467	0.0152383
751.545	0.0153889
751.623	0.0153801
751.701	0.0152799
751.780	0.0153581
751.858	0.0155595
751.936	0.0154754
752.014	0.0154967
752.092	0.0156303
752.170	0.0155028
752.248	0.0156401
752.326	0.0154734
752.405	0.0154652
752.483	0.0154382
752.561	0.0156643
752.639	0.0156026
752.717	0.0155521
752.795	0.0155366
752.873	0.0156271
752.951	0.0157464
753.030	0.0156236
753.108	0.0155799
753.186	0.0155383
753.264	0.0156339
753.342	0.0156041
753.420	0.0156374
753.498	0.0156329
753.576	0.0156580
753.655	0.0155964
753.733	0.0155392
753.811	0.0153951
753.889	0.0153816
753.967	0.0154945
754.045	0.0154562
754.123	0.0154636
754.201	0.0153778
754.280	0.0153724
754.358	0.0151212
754.436	0.0153152
754.514	0.0151215
754.592	0.0153274
754.670	0.0151202
754.748	0.0150903
754.826	0.0149957
754.905	0.0151019
754.983	0.0151286
755.061	0.0150138
755.139	0.0151142
755.217	0.0149143
755.295	0.0149528
755.373	0.0149219
755.451	0.0150551
755.530	0.0149500
755.608	0.0150205
755.686	0.0149040
755.764	0.0149300
755.842	0.0152009
755.920	0.0150385
755.998	0.0150566
756.076	0.0149978
756.155	0.0151732
756.233	0.0152233
756.311	0.0151683
756.389	0.0153104
756.467	0.0153880
756.545	0.0153178
756.623	0.0152930
756.701	0.0153381
756.780	0.0154092
756.858	0.0154420
756.936	0.0155969
757.014	0.0154792
757.092	0.0154985
757.170	0.0156264
757.248	0.0155709
757.326	0.0156056
757.405	0.0154450
757.483	0.0154465
757.561	0.0156260
757.639	0.0155820
757.717	0.0155523
757.795	0.0155873
757.873	0.0155183
757.951	0.0154797
758.030	0.0153421
758.108	0.0155396
758.186	0.0155309
758.264	0.0154700
758.342	0.0153147
758.420	0.0154590
758.498	0.0153836
758.576	0.0153430
758.655	0.0154044
758.733	0.0151990
758.811	0.0152985
758.889	0.0151716
758.967	0.0152662
759.045	0.0154297
759.123	0.0154522
759.201	0.0153901
759.280	0.0154854
759.358	0.0156274
759.436	0.0155074
759.514	0.0155882
759.592	0.0156434
759.670	0.0154719
759.748	0.0155981
759.826	0.0157168
759.905	0.0156123
759.983	0.0155034
760.061	0.0154904
760.139	0.0155304
760.217	0.0154940
760.295	0.0155453
760.373	0.0154907
760.451	0.0155362
760.530	0.0156335
760.608	0.0154967
760.686	0.0154402
760.764	0.0155660
760.842	0.0155209
760.920	0.0154756
760.998	0.0155692
761.076	0.0155965
761.155	0.0155914
761.233	0.0155301
761.311	0.0156133
761.389	0.0156115
761.467	0.0157141
761.545	0.0157551
761.623	0.0156262
761.701	0.0156548
761.780	0.0157255
761.858	0.0157446
761.936	0.0157776
762.014	0.0158099
762.092	0.0156534
762.170	0.0157233
762.248	0.0157812
762.326	0.0157773
762.405	0.0156493
762.483	0.0156876
762.561	0.0157170
762.639	0.0155502
762.717	0.0154604
762.795	0.0154848
762.873	0.0154752
762.951	0.0153625
763.030	0.0154227
763.108	0.0152520
763.186	0.0151477
763.264	0.0153336
763.342	0.0153233
763.420	0.0151807
763.498	0.0151733
763.576	0.0151475
763.655	0.0152510
763.733	0.0153218
763.811	0.0151910
763.889	0.0152930
763.967	0.0152635
764.045	0.0153223
764.123	0.0153661
764.201	0.0153265
764.280	0.0153891
764.358	0.0153521
764.436	0.0153368
764.514	0.0153159
764.592	0.0154672
764.670	0.0155595
764.748	0.0154992
764.826	0.0154063
764.905	0.0153748
764.983	0.0154308
765.061	0.0155347
765.139	0.0153634
765.217	0.0154205
765.295	0.0154724
765.373	0.0154836
765.451	0.0154369
765.530	0.0153937
765.608	0.0155920
765.686	0.0155025
765.764	0.0153847
765.842	0.0154400
765.920	0.0154430
765.998	0.0154124
766.076	0.0154746
766.155	0.0153954
766.233	0.0153477
766.311	0.0154495
766.389	0.0155713
766.467	0.0154899
766.545	0.0153045
766.623	0.0153035
766.701	0.0153177
766.780	0.0152900
766.858	0.0153576
766.936	0.0152483
767.014	0.0153513
767.092	0.0153044
767.170	0.0153243
767.248	0.0152538
767.326	0.0153719
767.405	0.0152250
767.483	0.0151963
767.561	0.0154062
767.639	0.0152432
767.717	0.0154476
767.795	0.0153352
767.873	0.0153248
767.951	0.0153947
768.030	0.0153033
768.108	0.0153373
768.186	0.0153894
768.264	0.0152450
768.342	0.0153774
768.420	0.0153009
768.498	0.0152746
768.576	0.0153171
768.655	0.0152719
768.733	0.0153085
768.811	0.0153338
768.889	0.0153122
768.967	0.0154588
769.045	0.0155492
769.123	0.0154766
769.201	0.0156094
769.280	0.0155598
769.358	0.0155426
769.436	0.0155039
769.514	0.0155354
769.592	0.0155526
769.670	0.0156424
769.748	0.0155634
769.826	0.0156913
769.905	0.0156518
769.983	0.0156190
770.061	0.0155063
770.139	0.0157082
770.217	0.0156632
770.295	0.0154549
770.373	0.0155420
770.451	0.0156008
770.530	0.0154542
770.608	0.0154536
770.686	0.0154102
770.764	0.0154398
770.842	0.0154404
770.920	0.0153173
770.998	0.0153652
771.076	0.0154196
771.155	0.0154204
771.233	0.0154670
771.311	0.0153994
771.389	0.0153613
771.467	0.0154412
771.545	0.0154219
771.623	0.0154054
771.701	0.0155265
771.780	0.0154370
771.858	0.0153429
771.936	0.0156444
772.014	0.0156102
772.092	0.0157092
772.170	0.0155833
772.248	0.0156654
772.326	0.0154841
772.405	0.0154242
772.483	0.0157310
772.561	0.0154945
772.639	0.0154248
772.717	0.0154771
772.795	0.0155747
772.873	0.0155824
772.951	0.0155707
773.030	0.0154525
773.108	0.0154741
773.186	0.0153761
773.264	0.0153032
773.342	0.0153675
773.420	0.0152948
773.498	0.0153142
773.576	0.0154458
773.655	0.0153944
773.733	0.0153593
773.811	0.0152892
773.889	0.0152651
773.967	0.0153550
774.045	0.0152537
774.123	0.0151777
774.201	0.0152753
774.280	0.0154122
774.358	0.0152884
774.436	0.0153077
774.514	0.0153558
774.592	0.0152610
774.670	0.0154089
774.748	0.0154218
774.826	0.0153671
774.905	0.0152735
774.983	0.0154024
775.061	0.0153313
775.139	0.0152859
775.217	0.0154037
775.295	0.0154500
775.373	0.0154472
775.451	0.0154360
775.530	0.0155027
775.608	0.0154373
775.686	0.0155334
775.764	0.0155739
775.842	0.0155039
775.920	0.0156287
775.998	0.0154425
776.076	0.0154272
776.155	0.0154260
776.233	0.0154712
776.311	0.0154755
776.389	0.0155104
776.467	0.0154044
776.545	0.0154236
776.623	0.0152831
776.701	0.0151994
776.780	0.0152063
776.858	0.0152291
776.936	0.0151416
777.014	0.0150912
777.092	0.0150994
777.170	0.0153234
777.248	0.0152917
777.326	0.0152772
777.405	0.0153226
777.483	0.0153705
777.561	0.0152439
777.639	0.0152620
777.717	0.0152920
777.795	0.0154561
777.873	0.0153558
777.951	0.0154368
778.030	0.0155470
778.108	0.0153783
778.186	0.0155032
778.264	0.0154288
778.342	0.0156693
778.420	0.0154647
778.498	0.0156120
778.576	0.0155006
778.655	0.0154565
778.733	0.0154240
778.811	0.0155018
778.889	0.0153427
778.967	0.0153950
779.045	0.0154893
779.123	0.0154893
779.201	0.0153053
779.280	0.0154011
779.358	0.0154212
779.436	0.0153989
779.514	0.0154322
779.592	0.0154983
779.670	0.0153923
779.748	0.0152264
779.826	0.0154063
779.905	0.0154073
779.983	0.0154067
780.061	0.0153294
780.139	0.0152408
780.217	0.0152931
780.295	0.0153416
780.373	0.0153078
780.451	0.0153201
780.530	0.0152303
780.608	0.0152273
780.686	0.0151402
780.764	0.0152405
780.842	0.0151346
780.920	0.0151994
780.998	0.0150457
781.076	0.0150808
781.155	0.0150938
781.233	0.0151523
781.311	0.0151678
781.389	0.0151585
781.467	0.0150904
781.545	0.0152471
781.623	0.0152995
781.701	0.0153086
781.780	0.0152750
781.858	0.0154061
781.936	0.0154206
782.014	0.0154013
782.092	0.0154942
782.170	0.0154591
782.248	0.0155975
782.326	0.0154993
782.405	0.0155871
782.483	0.0155903
782.561	0.0155620
782.639	0.0156487
782.717	0.0155990
782.795	0.0155196
782.873	0.0155895
782.951	0.0155399
783.030	0.0156215
783.108	0.0156188
783.186	0.0156535
783.264	0.0156592
783.342	0.0155141
783.420	0.0156433
783.498	0.0156795
783.576	0.0154807
783.655	0.0156712
783.733	0.0155373
783.811	0.0155060
783.889	0.0154977
783.967	0.0155574
784.045	0.0155811
784.123	0.0155584
784.201	0.0155202
784.280	0.0154487
784.358	0.0154604
784.436	0.0155273
784.514	0.0153864
784.592	0.0153182
784.670	0.0154756
784.748	0.0154990
784.826	0.0155592
784.905	0.0153446
784.983	0.0154789
785.061	0.0156506
785.139	0.0155262
785.217	0.0153062
785.295	0.0155780
785.373	0.0154420
785.451	0.0153670
785.530	0.0153287
785.608	0.0154680
785.686	0.0155306
785.764	0.0154501
785.842	0.0154610
785.920	0.0154996
785.998	0.0154866
786.076	0.0154993
786.155	0.0155729
786.233	0.0155199
786.311	0.0154552
786.389	0.0154668
786.467	0.0154398
786.545	0.0155277
786.623	0.0155508
786.701	0.0155550
786.780	0.0155133
786.858	0.0153577
786.936	0.0153509
787.014	0.0154083
787.092	0.0154278
787.170	0.0153120
787.248	0.0153255
787.326	0.0152270
787.405	0.0154580
787.483	0.0155072
787.561	0.0154562
787.639	0.0154922
787.717	0.0154984
787.795	0.0153874
787.873	0.0156200
787.951	0.0154652
788.030	0.0154111
788.108	0.0155901
788.186	0.0155512
788.264	0.0154820
788.342	0.0155385
788.420	0.0155299
788.498	0.0155539
788.576	0.0154718
788.655	0.0154128
788.733	0.0154031
788.811	0.0153621
788.889	0.0153113
788.967	0.0152815
789.045	0.0152779
789.123	0.0152863
789.201	0.0151503
789.280	0.0151591
789.358	0.0152969
789.436	0.0151558
789.514	0.0151199
789.592	0.0152620
789.670	0.0152460
789.748	0.0151474
789.826	0.0151873
789.905	0.0152702
789.983	0.0153706
790.061	0.0154713
790.139	0.0154403
790.217	0.0155212
790.295	0.0155377
790.373	0.0155541
790.451	0.0154332
790.530	0.0156062
790.608	0.0156979
790.686	0.0156113
790.764	0.0155353
790.842	0.0157290
790.920	0.0155541
790.998	0.0156590
791.076	0.0156220
791.155	0.0156571
791.233	0.0157081
791.311	0.0156895
791.389	0.0157440
791.467	0.0155655
791.545	0.0154165
791.623	0.0155357
791.701	0.0157220
791.780	0.0157793
791.858	0.0157134
791.936	0.0154821
792.014	0.0156125
792.092	0.0155847
792.170	0.0156399
792.248	0.0156113
792.326	0.0154771
792.405	0.0155182
792.483	0.0156276
792.561	0.0155865
792.639	0.0155793
792.717	0.0157264
792.795	0.0156876
792.873	0.0156296
792.951	0.0155396
793.030	0.0154420
793.108	0.0154887
793.186	0.0155374
793.264	0.0155416
793.342	0.0154746
793.420	0.0156046
793.498	0.0155972
793.576	0.0155200
793.655	0.0154600
793.733	0.0155479
793.811	0.0154856
793.889	0.0155615
793.967	0.0154225
794.045	0.0154674
794.123	0.0154552
794.201	0.0154753
794.280	0.0152528
794.358	0.0153583
794.436	0.0154904
794.514	0.0153725
794.592	0.0150739
794.670	0.0153760
794.748	0.0152351
794.826	0.0152528
794.905	0.0151279
794.983	0.0152531
795.061	0.0152460
795.139	0.0153455
795.217	0.0153138
795.295	0.0153104
795.373	0.0152505
795.451	0.0152863
795.530	0.0152880
795.608	0.0153495
795.686	0.0154939
795.764	0.0154560
795.842	0.0153851
795.920	0.0152605
795.998	0.0153585
796.076	0.0153220
796.155	0.0153431
796.233	0.0154143
796.311	0.0154465
796.389	0.0153081
796.467	0.0154186
796.545	0.0153510
796.623	0.0153532
796.701	0.0153918
796.780	0.0153716
796.858	0.0154089
796.936	0.0154348
797.014	0.0152679
797.092	0.0153052
797.170	0.0152688
797.248	0.0155079
797.326	0.0152332
797.405	0.0151945
797.483	0.0151985
797.561	0.0153051
797.639	0.0152137
797.717	0.0151590
797.795	0.0150314
797.873	0.0153144
797.951	0.0153449
798.030	0.0151323
798.108	0.0151329
798.186	0.0152479
798.264	0.0153206
798.342	0.0152924
798.420	0.0150889
798.498	0.0151195
798.576	0.0152147
798.655	0.0152373
798.733	0.0152735
798.811	0.0152242
798.889	0.0153426
798.967	0.0153181
799.045	0.0153802
799.123	0.0154030
799.201	0.0153493
799.280	0.0153484
799.358	0.0154903
799.436	0.0152782
799.514	0.0152737
799.592	0.0154494
799.670	0.0155392
799.748	0.0154221
799.826	0.0154105
799.905	0.0155181
799.983	0.0155052
800.061	0.0154347
800.139	0.0155975
800.217	0.0156934
800.295	0.0157129
800.373	0.0157334
800.451	0.0157482
800.530	0.0158450
800.608	0.0158379
800.686	0.0156707
800.764	0.0156564
800.842	0.0158353
800.920	0.0157486
800.998	0.0156013
801.076	0.0155798
801.155	0.0156181
801.233	0.0156413
801.311	0.0156337
801.389	0.0155690
801.467	0.0154931
801.545	0.0154531
801.623	0.0153928
801.701	0.0154949
801.780	0.0153338
801.858	0.0153679
801.936	0.0153478
802.014	0.0154092
802.092	0.0154077
802.170	0.0153145
802.248	0.0152136
802.326	0.0153055
802.405	0.0153944
802.483	0.0154151
802.561	0.0153658
802.639	0.0153239
802.717	0.0152002
802.795	0.0152658
802.873	0.0154034
802.951	0.0154456
803.030	0.0154502
803.108	0.0153936
803.186	0.0155513
803.264	0.0154460
803.342	0.0154919
803.420	0.0155390
803.498	0.0155724
803.576	0.0157193
803.655	0.0156415
803.733	0.0155303
803.811	0.0156129
803.889	0.0157287
803.967	0.0157522
804.045	0.0155829
804.123	0.0157599
804.201	0.0158866
804.280	0.0156921
804.358	0.0157179
804.436	0.0157755
804.514	0.0157938
804.592	0.0156242
804.670	0.0157240
804.748	0.0157318
804.826	0.0157325
804.905	0.0158684
804.983	0.0157153
805.061	0.0157093
805.139	0.0155939
805.217	0.0157236
805.295	0.0155078
805.373	0.0156712
805.451	0.0157133
805.530	0.0156960
805.608	0.0156187
805.686	0.0155585
805.764	0.0155609
805.842	0.0156745
805.920	0.0154546
805.998	0.0155331
806.076	0.0156704
806.155	0.0155824
806.233	0.0156457
806.311	0.0154601
806.389	0.0153713
806.467	0.0156017
806.545	0.0155331
806.623	0.0155114
806.701	0.0154748
806.780	0.0154491
806.858	0.0156019
806.936	0.0154922
807.014	0.0153428
807.092	0.0155437
807.170	0.0154754
807.248	0.0154374
807.326	0.0154130
807.405	0.0154205
807.483	0.0155036
807.561	0.0152862
807.639	0.0153094
807.717	0.0152114
807.795	0.0153296
807.873	0.0152240
807.951	0.0152112
808.030	0.0152942
808.108	0.0152893
808.186	0.0152763
808.264	0.0153401
808.342	0.0154649
808.420	0.0153304
808.498	0.0152779
808.576	0.0154131
808.655	0.0152672
808.733	0.0153437
808.811	0.0152241
808.889	0.0153335
808.967	0.0153333
809.045	0.0152679
809.123	0.0154627
809.201	0.0155216
809.280	0.0155798
809.358	0.0154533
809.436	0.0154633
809.514	0.0154118
809.592	0.0154492
809.670	0.0154845
809.748	0.0155251
809.826	0.0155811
809.905	0.0155005
809.983	0.0155104
810.061	0.0154738
810.139	0.0153815
810.217	0.0154663
810.295	0.0156268
810.373	0.0155128
810.451	0.0153915
810.530	0.0153365
810.608	0.0154282
810.686	0.0153449
810.764	0.0155470
810.842	0.0154984
810.920	0.0152834
810.998	0.0153023
811.076	0.0153438
811.155	0.0152602
811.233	0.0152918
811.311	0.0155047
811.389	0.0152375
811.467	0.0153018
811.545	0.0154893
811.623	0.0153893
811.701	0.0154208
811.780	0.0153681
811.858	0.0154270
811.936	0.0154197
812.014	0.0153822
812.092	0.0153921
812.170	0.0154451
812.248	0.0153382
812.326	0.0154990
812.405	0.0156316
812.483	0.0155543
812.561	0.0153674
812.639	0.0154874
812.717	0.0155138
812.795	0.0153965
812.873	0.0157155
812.951	0.0156087
813.030	0.0155379
813.108	0.0155998
813.186	0.0155889
813.264	0.0154381
813.342	0.0154290
813.420	0.0153838
813.498	0.0154228
813.576	0.0155978
813.655	0.0153667
813.733	0.0155676
813.811	0.0154914
813.889	0.0154047
813.967	0.0153823
814.045	0.0154573
814.123	0.0154081
814.201	0.0154008
814.280	0.0154585
814.358	0.0153332
814.436	0.0154787
814.514	0.0153493
814.592	0.0153336
814.670	0.0153557
814.748	0.0154144
814.826	0.0153513
814.905	0.0153938
814.983	0.0155944
815.061	0.0154588
815.139	0.0156942
815.217	0.0155029
815.295	0.0154726
815.373	0.0154874
815.451	0.0154430
815.530	0.0154032
815.608	0.0154479
815.686	0.0155466
815.764	0.0154316
815.842	0.0154422
815.920	0.0154173
815.998	0.0153803
816.076	0.0152415
816.155	0.0154440
816.233	0.0154617
816.311	0.0154044
816.389	0.0154469
816.467	0.0152036
816.545	0.0152785
816.623	0.0154417
816.701	0.0153399
816.780	0.0152467
816.858	0.0154097
816.936	0.0153754
817.014	0.0156023
817.092	0.0153233
817.170	0.0153066
817.248	0.0154762
817.326	0.0155002
817.405	0.0154259
817.483	0.0154541
817.561	0.0154437
817.639	0.0156007
817.717	0.0155698
817.795	0.0153662
817.873	0.0155627
817.951	0.0155541
818.030	0.0154820
818.108	0.0153762
818.186	0.0153853
818.264	0.0154089
818.342	0.0154511
818.420	0.0153492
818.498	0.0153824
818.576	0.0152579
818.655	0.0154234
818.733	0.0154926
818.811	0.0155687
818.889	0.0155396
818.967	0.0154081
819.045	0.0154770
819.123	0.0155746
819.201	0.0153907
819.280	0.0153989
819.358	0.0154378
819.436	0.0155333
819.514	0.0155630
819.592	0.0155889
819.670	0.0155599
819.748	0.0154388
819.826	0.0154268
819.905	0.0155808
819.983	0.0156050
820.061	0.0157089
820.139	0.0156168
820.217	0.0156055
820.295	0.0155739
820.373	0.0155671
820.451	0.0155544
820.530	0.0156097
820.608	0.0154879
820.686	0.0153930
820.764	0.0154681
820.842	0.0153811
820.920	0.0154668
820.998	0.0153582
821.076	0.0152679
821.155	0.0154118
821.233	0.0153757
821.311	0.0153497
821.389	0.0153135
821.467	0.0154601
821.545	0.0152587
821.623	0.0153236
821.701	0.0153049
821.780	0.0153708
821.858	0.0153229
821.936	0.0151496
822.014	0.0152838
822.092	0.0152866
822.170	0.0151591
822.248	0.0153642
822.326	0.0152032
822.405	0.0153598
822.483	0.0152761
822.561	0.0153503
822.639	0.0153678
822.717	0.0153728
822.795	0.0153780
822.873	0.0153525
822.951	0.0154062
823.030	0.0154590
823.108	0.0154274
823.186	0.0155244
823.264	0.0155063
823.342	0.0154544
823.420	0.0155334
823.498	0.0155310
823.576	0.0155569
823.655	0.0154679
823.733	0.0154765
823.811	0.0154238
823.889	0.0155493
823.967	0.0156823
824.045	0.0155439
824.123	0.0155157
824.201	0.0156165
824.280	0.0155112
824.358	0.0154725
824.436	0.0155502
824.514	0.0155447
824.592	0.0155186
824.670	0.0153732
824.748	0.0154338
824.826	0.0154095
824.905	0.0154352
824.983	0.0154516
825.061	0.0153936
825.139	0.0154109
825.217	0.0153266
825.295	0.0154778
825.373	0.0154955
825.451	0.0154529
825.530	0.0153699
825.608	0.0153889
825.686	0.0154601
825.764	0.0152470
825.842	0.0153852
825.920	0.0154613
825.998	0.0154176
826.076	0.0155441
826.155	0.0154900
826.233	0.0155489
826.311	0.0154716
826.389	0.0154642
826.467	0.0154553
826.545	0.0155338
826.623	0.0154881
826.701	0.0153266
826.780	0.0154659
826.858	0.0154355
826.936	0.0154253
827.014	0.0155403
827.092	0.0156272
827.170	0.0154433
827.248	0.0154774
827.326	0.0155158
827.405	0.0155964
827.483	0.0154949
827.561	0.0155320
827.639	0.0155670
827.717	0.0156139
827.795	0.0157092
827.873	0.0156539
827.951	0.0156438
828.030	0.0155462
828.108	0.0155333
828.186	0.0157349
828.264	0.0157160
828.342	0.0157401
828.420	0.0156478
828.498	0.0155521
828.576	0.0157114
828.655	0.0157335
828.733	0.0156876
828.811	0.0155570
828.889	0.0156882
828.967	0.0154242
829.045	0.0154908
829.123	0.0155627
829.201	0.0155708
829.280	0.0155318
829.358	0.0156161
829.436	0.0155453
829.514	0.0154275
829.592	0.0154994
829.670	0.0154847
829.748	0.0153880
829.826	0.0155553
829.905	0.0154406
829.983	0.0153928
830.061	0.0154790
830.139	0.0155762
830.217	0.0153869
830.295	0.0153790
830.373	0.0154780
830.451	0.0154426
830.530	0.0154536
830.608	0.0155204
830.686	0.0154243
830.764	0.0154642
830.842	0.0153783
830.920	0.0153415
830.998	0.0153284
831.076	0.0154061
831.155	0.0154180
831.233	0.0154039
831.311	0.0152304
831.389	0.0153887
831.467	0.0154300
831.545	0.0153668
831.623	0.0152952
831.701	0.0153640
831.780	0.0153288
831.858	0.0153537
831.936	0.0154288
832.014	0.0153672
832.092	0.0153245
832.170	0.0154768
832.248	0.0155339
832.326	0.0153418
832.405	0.0154994
832.483	0.0154207
832.561	0.0154255
832.639	0.0156734
832.717	0.0154189
832.795	0.0152873
832.873	0.0153944
832.951	0.0154926
833.030	0.0154076
833.108	0.0155536
833.186	0.0154456
833.264	0.0154420
833.342	0.0154588
833.420	0.0152994
833.498	0.0155015
833.576	0.0154407
833.655	0.0153706
833.733	0.0153989
833.811	0.0154747
833.889	0.0153452
833.967	0.0152786
834.045	0.0153787
834.123	0.0153547
834.201	0.0153712
834.280	0.0152406
834.358	0.0153896
834.436	0.0153056
834.514	0.0153667
834.592	0.0152950
834.670	0.0152978
834.748	0.0153832
834.826	0.0151629
834.905	0.0152574
834.983	0.0153365
835.061	0.0154419
835.139	0.0152660
835.217	0.0153172
835.295	0.0153515
835.373	0.0153841
835.451	0.0153625
835.530	0.0154385
835.608	0.0154330
835.686	0.0152731
835.764	0.0153876
835.842	0.0153368
835.920	0.0154105
835.998	0.0154788
836.076	0.0154613
836.155	0.0155478
836.233	0.0155153
836.311	0.0155861
836.389	0.0154131
836.467	0.0155954
836.545	0.0154397
836.623	0.0154060
836.701	0.0155273
836.780	0.0154534
836.858	0.0156165
836.936	0.0155270
837.014	0.0155970
837.092	0.0154574
837.170	0.0155400
837.248	0.0153291
837.326	0.0154921
837.405	0.0154609
837.483	0.0154768
837.561	0.0155266
837.639	0.0154224
837.717	0.0155696
837.795	0.0154742
837.873	0.0154324
837.951	0.0155118
838.030	0.0154231
838.108	0.0154590
838.186	0.0155231
838.264	0.0155865
838.342	0.0155067
838.420	0.0153928
838.498	0.0153989
838.576	0.0155981
838.655	0.0153937
838.733	0.0154669
838.811	0.0152419
838.889	0.0154063
838.967	0.0153899
839.045	0.0153531
839.123	0.0154266
839.201	0.0154379
839.280	0.0154730
839.358	0.0153300
839.436	0.0154091
839.514	0.0153847
839.592	0.0153440
839.670	0.0153630
839.748	0.0153990
839.826	0.0152561
839.905	0.0153101
839.983	0.0152596
840.061	0.0153786
840.139	0.0153288
840.217	0.0153448
840.295	0.0153411
840.373	0.0152310
840.451	0.0154494
840.530	0.0154964
840.608	0.0151411
840.686	0.0152938
840.764	0.0153882
840.842	0.0153554
840.920	0.0153880
840.998	0.0154051
841.076	0.0152035
841.155	0.0152487
841.233	0.0154444
841.311	0.0155001
841.389	0.0153078
841.467	0.0153852
841.545	0.0151426
841.623	0.0152350
841.701	0.0152641
841.780	0.0152950
841.858	0.0152858
841.936	0.0151778
842.014	0.0151504
842.092	0.0152687
842.170	0.0152267
842.248	0.0151686
842.326	0.0152639
842.405	0.0153737
842.483	0.0152009
842.561	0.0152733
842.639	0.0152632
842.717	0.0152686
842.795	0.0152558
842.873	0.0152055
842.951	0.0152631
843.030	0.0152523
843.108	0.0152665
843.186	0.0153037
843.264	0.0153130
843.342	0.0152480
843.420	0.0153535
843.498	0.0153651
843.576	0.0154354
843.655	0.0153761
843.733	0.0154414
843.811	0.0153837
843.889	0.0154071
843.967	0.0153944
844.045	0.0154423
844.123	0.0154041
844.201	0.0153347
844.280	0.0154813
844.358	0.0153529
844.436	0.0153564
844.514	0.0153522
844.592	0.0154489
844.670	0.0153162
844.748	0.0153333
844.826	0.0155222
844.905	0.0155328
844.983	0.0155334
845.061	0.0155528
845.139	0.0155118
845.217	0.0153167
845.295	0.0154496
845.373	0.0154564
845.451	0.0154984
845.530	0.0155440
845.608	0.0155688
845.686	0.0156007
845.764	0.0156091
845.842	0.0155833
845.920	0.0155704
845.998	0.0156363
846.076	0.0155997
846.155	0.0156008
846.233	0.0157485
846.311	0.0156342
846.389	0.0156068
846.467	0.0156348
846.545	0.0154382
846.623	0.0156346
846.701	0.0155709
846.780	0.0156161
846.858	0.0157225
846.936	0.0155772
847.014	0.0157524
847.092	0.0156953
847.170	0.0155350
847.248	0.0156028
847.326	0.0156120
847.405	0.0154019
847.483	0.0155984
847.561	0.0154426
847.639	0.0155198
847.717	0.0155020
847.795	0.0155062
847.873	0.0154811
847.951	0.0154272
848.030	0.0154519
848.108	0.0154926
848.186	0.0154088
848.264	0.0154039
848.342	0.0154920
848.420	0.0154507
848.498	0.0154033
848.576	0.0156200
848.655	0.0155193
848.733	0.0155093
848.811	0.0155553
848.889	0.0155514
848.967	0.0155787
849.045	0.0155257
849.123	0.0152890
849.201	0.0154665
849.280	0.0155600
849.358	0.0153910
849.436	0.0154359
849.514	0.0154549
849.592	0.0154541
849.670	0.0154931
849.748	0.0155534
849.826	0.0154534
849.905	0.0153748
849.983	0.0155407
850.061	0.0154065
850.139	0.0153838
850.217	0.0155107
850.295	0.0154456
850.373	0.0154132
850.451	0.0155255
850.530	0.0154601
850.608	0.0153940
850.686	0.0154784
850.764	0.0154130
850.842	0.0154558
850.920	0.0152870
850.998	0.0155058
851.076	0.0154050
851.155	0.0154368
851.233	0.0154411
851.311	0.0154170
851.389	0.0154749
851.467	0.0154200
851.545	0.0154346
851.623	0.0154292
851.701	0.0154122
851.780	0.0154222
851.858	0.0153454
851.936	0.0154218
852.014	0.0155647
852.092	0.0154244
852.170	0.0152779
852.248	0.0152704
852.326	0.0153423
852.405	0.0152219
852.483	0.0152587
852.561	0.0152880
852.639	0.0151797
852.717	0.0151296
852.795	0.0152106
852.873	0.0152627
852.951	0.0151581
853.030	0.0153006
853.108	0.0151747
853.186	0.0151881
853.264	0.0153337
853.342	0.0152507
853.420	0.0153082
853.498	0.0152055
853.576	0.0153726
853.655	0.0154189
853.733	0.0153761
853.811	0.0152731
853.889	0.0153735
853.967	0.0153318
854.045	0.0153361
854.123	0.0153915
854.201	0.0152876
854.280	0.0154179
854.358	0.0153788
854.436	0.0152653
854.514	0.0153808
854.592	0.0154398
854.670	0.0154767
854.748	0.0155580
854.826	0.0154744
854.905	0.0155955
854.983	0.0153870
855.061	0.0153736
855.139	0.0154461
855.217	0.0154641
855.295	0.0155414
855.373	0.0155778
855.451	0.0154843
855.530	0.0156908
855.608	0.0154855
855.686	0.0154138
855.764	0.0155212
855.842	0.0154490
855.920	0.0153773
855.998	0.0153944
856.076	0.0153754
856.155	0.0153694
856.233	0.0151402
856.311	0.0154791
856.389	0.0154118
856.467	0.0154143
856.545	0.0154160
856.623	0.0152940
856.701	0.0152951
856.780	0.0153761
856.858	0.0153370
856.936	0.0154510
857.014	0.0153741
857.092	0.0153123
857.170	0.0152596
857.248	0.0153245
857.326	0.0153799
857.405	0.0152904
857.483	0.0153214
857.561	0.0154314
857.639	0.0154246
857.717	0.0153850
857.795	0.0155098
857.873	0.0155067
857.951	0.0155093
858.030	0.0155405
858.108	0.0154926
858.186	0.0155364
858.264	0.0152689
858.342	0.0156364
858.420	0.0156215
858.498	0.0154754
858.576	0.0157238
858.655	0.0155096
858.733	0.0154864
858.811	0.0154978
858.889	0.0155750
858.967	0.0155518
859.045	0.0155383
859.123	0.0155231
859.201	0.0156452
859.280	0.0155793
859.358	0.0155357
859.436	0.0155275
859.514	0.0155081
859.592	0.0156170
859.670	0.0154040
859.748	0.0154613
859.826	0.0154351
859.905	0.0155560
859.983	0.0154723
860.061	0.0153919
860.139	0.0153941
860.217	0.0155196
860.295	0.0155840
860.373	0.0154465
860.451	0.0154269
860.530	0.0154106
860.608	0.0155172
860.686	0.0155002
860.764	0.0154153
860.842	0.0154846
860.920	0.0153951
860.998	0.0155010
861.076	0.0154483
861.155	0.0153800
861.233	0.0154084
861.311	0.0154960
861.389	0.0154103
861.467	0.0155238
861.545	0.0153526
861.623	0.0154226
861.701	0.0154208
861.780	0.0153911
861.858	0.0152850
861.936	0.0155185
862.014	0.0155910
862.092	0.0155618
862.170	0.0155141
862.248	0.0155196
862.326	0.0155196
862.405	0.0155853
862.483	0.0154039
862.561	0.0154649
862.639	0.0154543
862.717	0.0154234
862.795	0.0154639
862.873	0.0153938
862.951	0.0153426
863.030	0.0153873
863.108	0.0153214
863.186	0.0154364
863.264	0.0153189
863.342	0.0153214
863.420	0.0152985
863.498	0.0154604
863.576	0.0153899
863.655	0.0153485
863.733	0.0153970
863.811	0.0153135
863.889	0.0153233
863.967	0.0154518
864.045	0.0154224
864.123	0.0153866
864.201	0.0154499
864.280	0.0154218
864.358	0.0152468
864.436	0.0154203
864.514	0.0153661
864.592	0.0154211
864.670	0.0153605
864.748	0.0154834
864.826	0.0153703
864.905	0.0154667
864.983	0.0154194
865.061	0.0156181
865.139	0.0154599
865.217	0.0154735
865.295	0.0157177
865.373	0.0156792
865.451	0.0156085
865.530	0.0155083
865.608	0.0156071
865.686	0.0156639
865.764	0.0156181
865.842	0.0156810
865.920	0.0155569
865.998	0.0155582
866.076	0.0155753
866.155	0.0157122
866.233	0.0157003
866.311	0.0155136
866.389	0.0155904
866.467	0.0156995
866.545	0.0157014
866.623	0.0155216
866.701	0.0154800
866.780	0.0155484
866.858	0.0156496
866.936	0.0153865
867.014	0.0153773
867.092	0.0154557
867.170	0.0154816
867.248	0.0155085
867.326	0.0153581
867.405	0.0156224
867.483	0.0155549
867.561	0.0153598
867.639	0.0155222
867.717	0.0154723
867.795	0.0154372
867.873	0.0156463
867.951	0.0154551
868.030	0.0153928
868.108	0.0155576
868.186	0.0155367
868.264	0.0155121
868.342	0.0155204
868.420	0.0155705
868.498	0.0155824
868.576	0.0155521
868.655	0.0155291
868.733	0.0155141
868.811	0.0156502
868.889	0.0155554
868.967	0.0155708
869.045	0.0155156
869.123	0.0155485
869.201	0.0154993
869.280	0.0154200
869.358	0.0156377
869.436	0.0156908
869.514	0.0155042
869.592	0.0155239
869.670	0.0155346
869.748	0.0155111
869.826	0.0156858
869.905	0.0154220
869.983	0.0153539
870.061	0.0154757
870.139	0.0154314
870.217	0.0154748
870.295	0.0154033
870.373	0.0153584
870.451	0.0155337
870.530	0.0154579
870.608	0.0153900
870.686	0.0153852
870.764	0.0153494
870.842	0.0153200
870.920	0.0153770
870.998	0.0154533
871.076	0.0153127
871.155	0.0153942
871.233	0.0153808
871.311	0.0154215
871.389	0.0154533
871.467	0.0152618
871.545	0.0153015
871.623	0.0153790
871.701	0.0153499
871.780	0.0152845
871.858	0.0154834
871.936	0.0153726
872.014	0.0153887
872.092	0.0153343
872.170	0.0153453
872.248	0.0154140
872.326	0.0153068
872.405	0.0153133
872.483	0.0152724
872.561	0.0150735
872.639	0.0153191
872.717	0.0152305
872.795	0.0152895
872.873	0.0153023
872.951	0.0152178
873.030	0.0151982
873.108	0.0152796
873.186	0.0153368
873.264	0.0154607
873.342	0.0152032
873.420	0.0153122
873.498	0.0152841
873.576	0.0153263
873.655	0.0154421
873.733	0.0154497
873.811	0.0154224
873.889	0.0154560
873.967	0.0154682
874.045	0.0155753
874.123	0.0154873
874.201	0.0154350
874.280	0.0155084
874.358	0.0153699
874.436	0.0154441
874.514	0.0154300
874.592	0.0154191
874.670	0.0154446
874.748	0.0155833
874.826	0.0154211
874.905	0.0154116
874.983	0.0154481
875.061	0.0154702
875.139	0.0154340
875.217	0.0154426
875.295	0.0154840
875.373	0.0154733
875.451	0.0152331
875.530	0.0153211
875.608	0.0154384
875.686	0.0154535
875.764	0.0154752
875.842	0.0153860
875.920	0.0153140
875.998	0.0153465
876.076	0.0154904
876.155	0.0152842
876.233	0.0153418
876.311	0.0152962
876.389	0.0155331
876.467	0.0154131
876.545	0.0153167
876.623	0.0153594
876.701	0.0154549
876.780	0.0153262
876.858	0.0154543
876.936	0.0154561
877.014	0.0154454
877.092	0.0154278
877.170	0.0153709
877.248	0.0153684
877.326	0.0152924
877.405	0.0153501
877.483	0.0155584
877.561	0.0153752
877.639	0.0152010
877.717	0.0153028
877.795	0.0152674
877.873	0.0153243
877.951	0.0154208
878.030	0.0153907
878.108	0.0152882
878.186	0.0154264
878.264	0.0152749
878.342	0.0152813
878.420	0.0153225
878.498	0.0153486
878.576	0.0153236
878.655	0.0154629
878.733	0.0155180
878.811	0.0154997
878.889	0.0152847
878.967	0.0155167
879.045	0.0153855
879.123	0.0153696
879.201	0.0154961
879.280	0.0155291
879.358	0.0154931
879.436	0.0154166
879.514	0.0153832
879.592	0.0153310
879.670	0.0155088
879.748	0.0154405
879.826	0.0153963
879.905	0.0153911
879.983	0.0154245
880.061	0.0153606
880.139	0.0153062
880.217	0.0153165
880.295	0.0153570
880.373	0.0153466
880.451	0.0153397
880.530	0.0153610
880.608	0.0152741
880.686	0.0151453
880.764	0.0154264
880.842	0.0154254
880.920	0.0153815
880.998	0.0151678
881.076	0.0154071
881.155	0.0153105
881.233	0.0153784
881.311	0.0153893
881.389	0.0153297
881.467	0.0154445
881.545	0.0154895
881.623	0.0155193
881.701	0.0155905
881.780	0.0156081
881.858	0.0155717
881.936	0.0156569
882.014	0.0155046
882.092	0.0155913
882.170	0.0156244
882.248	0.0156216
882.326	0.0157696
882.405	0.0156661
882.483	0.0156443
882.561	0.0156786
882.639	0.0157169
882.717	0.0155223
882.795	0.0156680
882.873	0.0156478
882.951	0.0156473
883.030	0.0156326
883.108	0.0155142
883.186	0.0154726
883.264	0.0155733
883.342	0.0154185
883.420	0.0154095
883.498	0.0154714
883.576	0.0153665
883.655	0.0152869
883.733	0.0153134
883.811	0.0153032
883.889	0.0151846
883.967	0.0153496
884.045	0.0154789
884.123	0.0152401
884.201	0.0152452
884.280	0.0152493
884.358	0.0152044
884.436	0.0152377
884.514	0.0151146
884.592	0.0152563
884.670	0.0151150
884.748	0.0152038
884.826	0.0153193
884.905	0.0152538
884.983	0.0152140
885.061	0.0152361
885.139	0.0154977
885.217	0.0153808
885.295	0.0152196
885.373	0.0153511
885.451	0.0153576
885.530	0.0155138
885.608	0.0154449
885.686	0.0154810
885.764	0.0153714
885.842	0.0154388
885.920	0.0153837
885.998	0.0153648
886.076	0.0153429
886.155	0.0154003
886.233	0.0155154
886.311	0.0154391
886.389	0.0153851
886.467	0.0156289
886.545	0.0154946
886.623	0.0153841
886.701	0.0155641
886.780	0.0155897
886.858	0.0155744
886.936	0.0154572
887.014	0.0154498
887.092	0.0154952
887.170	0.0155677
887.248	0.0154130
887.326	0.0155858
887.405	0.0155084
887.483	0.0154428
887.561	0.0154974
887.639	0.0154024
887.717	0.0155944
887.795	0.0154511
887.873	0.0155396
887.951	0.0155217
888.030	0.0154872
888.108	0.0156162
888.186	0.0155521
888.264	0.0154599
888.342	0.0153493
888.420	0.0155923
888.498	0.0156452
888.576	0.0153700
888.655	0.0155597
888.733	0.0153505
888.811	0.0154752
888.889	0.0155108
888.967	0.0153739
889.045	0.0153150
889.123	0.0155089
889.201	0.0154247
889.280	0.0152848
889.358	0.0154117
889.436	0.0152393
889.514	0.0153571
889.592	0.0153553
889.670	0.0152590
889.748	0.0152703
889.826	0.0154516
889.905	0.0153174
889.983	0.0154058
890.061	0.0153777
890.139	0.0155082
890.217	0.0153466
890.295	0.0152947
890.373	0.0153370
890.451	0.0155547
890.530	0.0155190
890.608	0.0153022
890.686	0.0153871
890.764	0.0154310
890.842	0.0154655
890.920	0.0153725
890.998	0.0154839
891.076	0.0155311
891.155	0.0155879
891.233	0.0156197
891.311	0.0155172
891.389	0.0155455
891.467	0.0156020
891.545	0.0155621
891.623	0.0155832
891.701	0.0155410
891.780	0.0155560
891.858	0.0155347
891.936	0.0154998
892.014	0.0155132
892.092	0.0154946
892.170	0.0156516
892.248	0.0155042
892.326	0.0155928
892.405	0.0154102
892.483	0.0154630
892.561	0.0155412
892.639	0.0154340
892.717	0.0153239
892.795	0.0153793
892.873	0.0152966
892.951	0.0153355
893.030	0.0154089
893.108	0.0153330
893.186	0.0152716
893.264	0.0152845
893.342	0.0153265
893.420	0.0153924
893.498	0.0153088
893.576	0.0153305
893.655	0.0151974
893.733	0.0152502
893.811	0.0154173
893.889	0.0153497
893.967	0.0153800
894.045	0.0153725
894.123	0.0154113
894.201	0.0153334
894.280	0.0155208
894.358	0.0154881
894.436	0.0154451
894.514	0.0155286
894.592	0.0156693
894.670	0.0155168
894.748	0.0154745
894.826	0.0156108
894.905	0.0155647
894.983	0.0154129
895.061	0.0154649
895.139	0.0155003
895.217	0.0155019
895.295	0.0153432
895.373	0.0155617
895.451	0.0155486
895.530	0.0156053
895.608	0.0154760
895.686	0.0154004
895.764	0.0154691
895.842	0.0155179
895.920	0.0154309
895.998	0.0152375
896.076	0.0154618
896.155	0.0153205
896.233	0.0154422
896.311	0.0153978
896.389	0.0152866
896.467	0.0152266
896.545	0.0152992
896.623	0.0153474
896.701	0.0154132
896.780	0.0153302
896.858	0.0153058
896.936	0.0151908
897.014	0.0154367
897.092	0.0153683
897.170	0.0152230
897.248	0.0153349
897.326	0.0154247
897.405	0.0152303
897.483	0.0153113
897.561	0.0153507
897.639	0.0154309
897.717	0.0154941
897.795	0.0154552
897.873	0.0153760
897.951	0.0153357
898.030	0.0154853
898.108	0.0152727
898.186	0.0155331
898.264	0.0154639
898.342	0.0154602
898.420	0.0156139
898.498	0.0155261
898.576	0.0154424
898.655	0.0154499
898.733	0.0155048
898.811	0.0153671
898.889	0.0153770
898.967	0.0153492
899.045	0.0153276
899.123	0.0153497
899.201	0.0154126
899.280	0.0154101
899.358	0.0153170
899.436	0.0152122
899.514	0.0154105
899.592	0.0153790
899.670	0.0153749
899.748	0.0151924
899.826	0.0152133
899.905	0.0152995
899.983	0.0153876
900.061	0.0153788
900.139	0.0152626
900.217	0.0153831
900.295	0.0153777
900.373	0.0152449
900.451	0.0154660
900.530	0.0153381
900.608	0.0154689
900.686	0.0153539
900.764	0.0153153
900.842	0.0152161
900.920	0.0153132
900.998	0.0153189
901.076	0.0153207
901.155	0.0154282
901.233	0.0153255
901.311	0.0151891
901.389	0.0152245
901.467	0.0152020
901.545	0.0152448
901.623	0.0151879
901.701	0.0152003
901.780	0.0153091
901.858	0.0152483
901.936	0.0154008
902.014	0.0151898
902.092	0.0150694
902.170	0.0152075
902.248	0.0153628
902.326	0.0154137
902.405	0.0153532
902.483	0.0153254
902.561	0.0153344
902.639	0.0153617
902.717	0.0153584
902.795	0.0153242
902.873	0.0152333
902.951	0.0154648
903.030	0.0154803
903.108	0.0155473
903.186	0.0153425
903.264	0.0153677
903.342	0.0154357
903.420	0.0153996
903.498	0.0154296
903.576	0.0154079
903.655	0.0154373
903.733	0.0154596
903.811	0.0155152
903.889	0.0153275
903.967	0.0154400
904.045	0.0155115
904.123	0.0155372
904.201	0.0154211
904.280	0.0153108
904.358	0.0153541
904.436	0.0153241
904.514	0.0152892
904.592	0.0154005
904.670	0.0152848
904.748	0.0154150
904.826	0.0153162
904.905	0.0152848
904.983	0.0153486
905.061	0.0152717
905.139	0.0154217
905.217	0.0152460
905.295	0.0152706
905.373	0.0153555
905.451	0.0154158
905.530	0.0153228
905.608	0.0153461
905.686	0.0152993
905.764	0.0152494
905.842	0.0152057
905.920	0.0153425
905.998	0.0153094
906.076	0.0153382
906.155	0.0153824
906.233	0.0153795
906.311	0.0153183
906.389	0.0154218
906.467	0.0153753
906.545	0.0153278
906.623	0.0152881
906.701	0.0152959
906.780	0.0154602
906.858	0.0154853
906.936	0.0154762
907.014	0.0155058
907.092	0.0154641
907.170	0.0155546
907.248	0.0156186
907.326	0.0154583
907.405	0.0156223
907.483	0.0156693
907.561	0.0154275
907.639	0.0155704
907.717	0.0156136
907.795	0.0153762
907.873	0.0155181
907.951	0.0155906
908.030	0.0154387
908.108	0.0154430
908.186	0.0154093
908.264	0.0155194
908.342	0.0154556
908.420	0.0155204
908.498	0.0156561
908.576	0.0154316
908.655	0.0154505
908.733	0.0154867
908.811	0.0153831
908.889	0.0155051
908.967	0.0155563
909.045	0.0153281
909.123	0.0154761
909.201	0.0155781
909.280	0.0154544
909.358	0.0154735
909.436	0.0153591
909.514	0.0155094
909.592	0.0154247
909.670	0.0153925
909.748	0.0154192
909.826	0.0154015
909.905	0.0154346
909.983	0.0152212
910.061	0.0153830
910.139	0.0155131
910.217	0.0154833
910.295	0.0153658
910.373	0.0154286
910.451	0.0154153
910.530	0.0155148
910.608	0.0153587
910.686	0.0155858
910.764	0.0155180
910.842	0.0153214
910.920	0.0155975
910.998	0.0156397
911.076	0.0155714
911.155	0.0156715
911.233	0.0155463
911.311	0.0156975
911.389	0.0157139
911.467	0.0155817
911.545	0.0154141
911.623	0.0155848
911.701	0.0155968
911.780	0.0156312
911.858	0.0155688
911.936	0.0154887
912.014	0.0155830
912.092	0.0155084
912.170	0.0154920
912.248	0.0156012
912.326	0.0154996
912.405	0.0156246
912.483	0.0155955
912.561	0.0156344
912.639	0.0155696
912.717	0.0156371
912.795	0.0156203
912.873	0.0157816
912.951	0.0154826
913.030	0.0155471
913.108	0.0155056
913.186	0.0155627
913.264	0.0155891
913.342	0.0156116
913.420	0.0156019
913.498	0.0156052
913.576	0.0155641
913.655	0.0155537
913.733	0.0156758
913.811	0.0155637
913.889	0.0154673
913.967	0.0154798
914.045	0.0155191
914.123	0.0157194
914.201	0.0156681
914.280	0.0155669
914.358	0.0155550
914.436	0.0156982
914.514	0.0157577
914.592	0.0156413
914.670	0.0156468
914.748	0.0156735
914.826	0.0155893
914.905	0.0156603
914.983	0.0157783
915.061	0.0157923
915.139	0.0155802
915.217	0.0156909
915.295	0.0157285
915.373	0.0157484
915.451	0.0156116
915.530	0.0158712
915.608	0.0157983
915.686	0.0156226
915.764	0.0157636
915.842	0.0158244
915.920	0.0156728
915.998	0.0156306
916.076	0.0156095
916.155	0.0157037
916.233	0.0157253
916.311	0.0156931
916.389	0.0156476
916.467	0.0157008
916.545	0.0156214
916.623	0.0156757
916.701	0.0156546
916.780	0.0156171
916.858	0.0154862
916.936	0.0156226
917.014	0.0156583
917.092	0.0155874
917.170	0.0156075
917.248	0.0156078
917.326	0.0155691
917.405	0.0154523
917.483	0.0156355
917.561	0.0155313
917.639	0.0154678
917.717	0.0155209
917.795	0.0155549
917.873	0.0154027
917.951	0.0156055
918.030	0.0155699
918.108	0.0155292
918.186	0.0155651
918.264	0.0154823
918.342	0.0154653
918.420	0.0153907
918.498	0.0154676
918.576	0.0154028
918.655	0.0153952
918.733	0.0154665
918.811	0.0153813
918.889	0.0154417
918.967	0.0153383
919.045	0.0155053
919.123	0.0153909
919.201	0.0153329
919.280	0.0155659
919.358	0.0153845
919.436	0.0155128
919.514	0.0154736
919.592	0.0155154
919.670	0.0153800
919.748	0.0154248
919.826	0.0154208
919.905	0.0154941
919.983	0.0154198
920.061	0.0153014
920.139	0.0154327
920.217	0.0153336
920.295	0.0153314
920.373	0.0153049
920.451	0.0154038
920.530	0.0156198
920.608	0.0155801
920.686	0.0155070
920.764	0.0156507
920.842	0.0154234
920.920	0.0155021
920.998	0.0155258
921.076	0.0154740
921.155	0.0153999
921.233	0.0154933
921.311	0.0154282
921.389	0.0154311
921.467	0.0154085
921.545	0.0154331
921.623	0.0154269
921.701	0.0154180
921.780	0.0153725
921.858	0.0154016
921.936	0.0154767
922.014	0.0153808
922.092	0.0154317
922.170	0.0153708
922.248	0.0153748
922.326	0.0154437
922.405	0.0154590
922.483	0.0153793
922.561	0.0154149
922.639	0.0153431
922.717	0.0153293
922.795	0.0153812
922.873	0.0153030
922.951	0.0153276
923.030	0.0154105
923.108	0.0153603
923.186	0.0153193
923.264	0.0153568
923.342	0.0155302
923.420	0.0155207
923.498	0.0153159
923.576	0.0152951
923.655	0.0155448
923.733	0.0154581
923.811	0.0154918
923.889	0.0154771
923.967	0.0155798
924.045	0.0153568
924.123	0.0154337
924.201	0.0154813
924.280	0.0155813
924.358	0.0154939
924.436	0.0153764
924.514	0.0155077
924.592	0.0154640
924.670	0.0154033
924.748	0.0153763
924.826	0.0154897
924.905	0.0154287
924.983	0.0153478
925.061	0.0153671
925.139	0.0153500
925.217	0.0154391
925.295	0.0154305
925.373	0.0154751
925.451	0.0153907
925.530	0.0155797
925.608	0.0155181
925.686	0.0155064
925.764	0.0154159
925.842	0.0153480
925.920	0.0153861
925.998	0.0154316
926.076	0.0154899
926.155	0.0153617
926.233	0.0153685
926.311	0.0153171
926.389	0.0154481
926.467	0.0155491
926.545	0.0153790
926.623	0.0152480
926.701	0.0154449
926.780	0.0155739
926.858	0.0153924
926.936	0.0153571
927.014	0.0152821
927.092	0.0154105
927.170	0.0154742
927.248	0.0155692
927.326	0.0154362
927.405	0.0153732
927.483	0.0153967
927.561	0.0154332
927.639	0.0153899
927.717	0.0153506
927.795	0.0155013
927.873	0.0153588
927.951	0.0154270
928.030	0.0154864
928.108	0.0154867
928.186	0.0154455
928.264	0.0155783
928.342	0.0154556
928.420	0.0155212
928.498	0.0154139
928.576	0.0154420
928.655	0.0154635
928.733	0.0152636
928.811	0.0154449
928.889	0.0154149
928.967	0.0154381
929.045	0.0153993
929.123	0.0154118
929.201	0.0152904
929.280	0.0153418
929.358	0.0152949
929.436	0.0155077
929.514	0.0154443
929.592	0.0154604
929.670	0.0154024
929.748	0.0154377
929.826	0.0154362
929.905	0.0154378
929.983	0.0155108
930.061	0.0155479
930.139	0.0154865
930.217	0.0156096
930.295	0.0154307
930.373	0.0154981
930.451	0.0154877
930.530	0.0153824
930.608	0.0154124
930.686	0.0155086
930.764	0.0156107
930.842	0.0154025
930.920	0.0153585
930.998	0.0154795
931.076	0.0155154
931.155	0.0154679
931.233	0.0154234
931.311	0.0153972
931.389	0.0154502
931.467	0.0155309
931.545	0.0153223
931.623	0.0154898
931.701	0.0155513
931.780	0.0153891
931.858	0.0154393
931.936	0.0155201
932.014	0.0153497
932.092	0.0155149
932.170	0.0153475
932.248	0.0153965
932.326	0.0153197
932.405	0.0154411
932.483	0.0153584
932.561	0.0153427
932.639	0.0154733
932.717	0.0152932
932.795	0.0154206
932.873	0.0154667
932.951	0.0153771
933.030	0.0152953
933.108	0.0154858
933.186	0.0154105
933.264	0.0155053
933.342	0.0152341
933.420	0.0153489
933.498	0.0153366
933.576	0.0153571
933.655	0.0154484
933.733	0.0154808
933.811	0.0153889
933.889	0.0154327
933.967	0.0154044
934.045	0.0155713
934.123	0.0155126
934.201	0.0154610
934.280	0.0155612
934.358	0.0155499
934.436	0.0155511
934.514	0.0156157
934.592	0.0156786
934.670	0.0156448
934.748	0.0157501
934.826	0.0155753
934.905	0.0154817
934.983	0.0155619
935.061	0.0155284
935.139	0.0155280
935.217	0.0155770
935.295	0.0155326
935.373	0.0155733
935.451	0.0155889
935.530	0.0155856
935.608	0.0155150
935.686	0.0154907
935.764	0.0154845
935.842	0.0155063
935.920	0.0155470
935.998	0.0154592
936.076	0.0154818
936.155	0.0155395
936.233	0.0156013
936.311	0.0154994
936.389	0.0155404
936.467	0.0155073
936.545	0.0154803
936.623	0.0156045
936.701	0.0155605
936.780	0.0155418
936.858	0.0154398
936.936	0.0155720
937.014	0.0155535
937.092	0.0156792
937.170	0.0157048
937.248	0.0156190
937.326	0.0157582
937.405	0.0158003
937.483	0.0157011
937.561	0.0156858
937.639	0.0156522
937.717	0.0156648
937.795	0.0157442
937.873	0.0157305
937.951	0.0156360
938.030	0.0156341
938.108	0.0158432
938.186	0.0158518
938.264	0.0157026
938.342	0.0157624
938.420	0.0156015
938.498	0.0156667
938.576	0.0155038
938.655	0.0154449
938.733	0.0155902
938.811	0.0156940
938.889	0.0155996
938.967	0.0156378
939.045	0.0157330
939.123	0.0156339
939.201	0.0156068
939.280	0.0156257
939.358	0.0154518
939.436	0.0156252
939.514	0.0154903
939.592	0.0154008
939.670	0.0154899
939.748	0.0154936
939.826	0.0155756
939.905	0.0155872
939.983	0.0156113
940.061	0.0154494
940.139	0.0154462
940.217	0.0155670
940.295	0.0154386
940.373	0.0156567
940.451	0.0154950
940.530	0.0155878
940.608	0.0155681
940.686	0.0155894
940.764	0.0155830
940.842	0.0156493
940.920	0.0154453
940.998	0.0155986
941.076	0.0155451
941.155	0.0155148
941.233	0.0155634
941.311	0.0153870
941.389	0.0155738
941.467	0.0153608
941.545	0.0153752
941.623	0.0155804
941.701	0.0154718
941.780	0.0155646
941.858	0.0153603
941.936	0.0154810
942.014	0.0155088
942.092	0.0154739
942.170	0.0153870
942.248	0.0154259
942.326	0.0155476
942.405	0.0155721
942.483	0.0156116
942.561	0.0155173
942.639	0.0155344
942.717	0.0155476
942.795	0.0155151
942.873	0.0157005
942.951	0.0155965
943.030	0.0154450
943.108	0.0155402
943.186	0.0155737
943.264	0.0154449
943.342	0.0156457
943.420	0.0156302
943.498	0.0155606
943.576	0.0156495
943.655	0.0156575
943.733	0.0155909
943.811	0.0154651
943.889	0.0156034
943.967	0.0156516
944.045	0.0155898
944.123	0.0155673
944.201	0.0156474
944.280	0.0155902
944.358	0.0155583
944.436	0.0156165
944.514	0.0155695
944.592	0.0155568
944.670	0.0156019
944.748	0.0155209
944.826	0.0154929
944.905	0.0154941
944.983	0.0154177
945.061	0.0154199
945.139	0.0154253
945.217	0.0155360
945.295	0.0153780
945.373	0.0154345
945.451	0.0154674
945.530	0.0153878
945.608	0.0154461
945.686	0.0153982
945.764	0.0153817
945.842	0.0154421
945.920	0.0153790
945.998	0.0155111
946.076	0.0154309
946.155	0.0154615
946.233	0.0156063
946.311	0.0154480
946.389	0.0154701
946.467	0.0153983
946.545	0.0154314
946.623	0.0153764
946.701	0.0154351
946.780	0.0154999
946.858	0.0154573
946.936	0.0154591
947.014	0.0154475
947.092	0.0154227
947.170	0.0154451
947.248	0.0155219
947.326	0.0154472
947.405	0.0154437
947.483	0.0154154
947.561	0.0155730
947.639	0.0156052
947.717	0.0155169
947.795	0.0156693
947.873	0.0156506
947.951	0.0154978
948.030	0.0155569
948.108	0.0155476
948.186	0.0155166
948.264	0.0155938
948.342	0.0155663
948.420	0.0153673
948.498	0.0153580
948.576	0.0155189
948.655	0.0155264
948.733	0.0154792
948.811	0.0155425
948.889	0.0156078
948.967	0.0154688
949.045	0.0154973
949.123	0.0154969
949.201	0.0153969
949.280	0.0153981
949.358	0.0153975
949.436	0.0154839
949.514	0.0155003
949.592	0.0152724
949.670	0.0153793
949.748	0.0154843
949.826	0.0154884
949.905	0.0153813
949.983	0.0153260
950.061	0.0153936
950.139	0.0153862
950.217	0.0152174
950.295	0.0153069
950.373	0.0153861
950.451	0.0154059
950.530	0.0152794
950.608	0.0153448
950.686	0.0154363
950.764	0.0154099
950.842	0.0154204
950.920	0.0151653
950.998	0.0153394
951.076	0.0152533
951.155	0.0154021
951.233	0.0153175
951.311	0.0152661
951.389	0.0151851
951.467	0.0153758
951.545	0.0152671
951.623	0.0152571
951.701	0.0152948
951.780	0.0152853
951.858	0.0150959
951.936	0.0152426
952.014	0.0153144
952.092	0.0153542
952.170	0.0152313
952.248	0.0152214
952.326	0.0154183
952.405	0.0153958
952.483	0.0152531
952.561	0.0153053
952.639	0.0154567
952.717	0.0154444
952.795	0.0153775
952.873	0.0153739
952.951	0.0153244
953.030	0.0152894
953.108	0.0154041
953.186	0.0154758
953.264	0.0152869
953.342	0.0154569
953.420	0.0154887
953.498	0.0154029
953.576	0.0153278
953.655	0.0153500
953.733	0.0154192
953.811	0.0153905
953.889	0.0153987
953.967	0.0153870
954.045	0.0153445
954.123	0.0153761
954.201	0.0153287
954.280	0.0153377
954.358	0.0154557
954.436	0.0153813
954.514	0.0152965
954.592	0.0152606
954.670	0.0153656
954.748	0.0154134
954.826	0.0152802
954.905	0.0152856
954.983	0.0154212
955.061	0.0152689
955.139	0.0154439
955.217	0.0154272
955.295	0.0152176
955.373	0.0153102
955.451	0.0153091
955.530	0.0152131
955.608	0.0153521
955.686	0.0152238
955.764	0.0154065
955.842	0.0154031
955.920	0.0153390
955.998	0.0152808
956.076	0.0152681
956.155	0.0152550
956.233	0.0153546
956.311	0.0153257
956.389	0.0153363
956.467	0.0153574
956.545	0.0153476
956.623	0.0155020
956.701	0.0154237
956.780	0.0153294
956.858	0.0152670
956.936	0.0153994
957.014	0.0152171
957.092	0.0152579
957.170	0.0153527
957.248	0.0153035
957.326	0.0152985
957.405	0.0153250
957.483	0.0154178
957.561	0.0153530
957.639	0.0152548
957.717	0.0153713
957.795	0.0153736
957.873	0.0154640
957.951	0.0153741
958.030	0.0154563
958.108	0.0154906
958.186	0.0153539
958.264	0.0153889
958.342	0.0154427
958.420	0.0154920
958.498	0.0155553
958.576	0.0155546
958.655	0.0154023
958.733	0.0154203
958.811	0.0155036
958.889	0.0154721
958.967	0.0154629
959.045	0.0155808
959.123	0.0154807
959.201	0.0154467
959.280	0.0154453
959.358	0.0154636
959.436	0.0154575
959.514	0.0153225
959.592	0.0154556
959.670	0.0154500
959.748	0.0153947
959.826	0.0154581
959.905	0.0155172
