05/20/2022	16:51:38	Ver.	4.1	UNKNOWN
Optical Delay	639.982744	Delta X		0.078125	Sweeps	1	Scan Rate	0/0
Coordinates	Axis 1	NaN	Axis 2	NaN	Axis 3	NaN	Axis 4	NaN	Axis 5	NaN	Axis 6	0.000000
TX Power	0.000000	RX Power	0.000000

639.983	0.0150854
640.061	0.0150326
640.139	0.0151158
640.217	0.0151314
640.295	0.0150571
640.373	0.0150658
640.451	0.0150761
640.530	0.0150819
640.608	0.0152300
640.686	0.0150356
640.764	0.0150368
640.842	0.0152337
640.920	0.0150565
640.998	0.0150820
641.076	0.0152584
641.155	0.0150627
641.233	0.0150845
641.311	0.0149967
641.389	0.0152555
641.467	0.0152219
641.545	0.0152232
641.623	0.0151391
641.701	0.0150837
641.780	0.0152452
641.858	0.0150463
641.936	0.0150962
642.014	0.0152179
642.092	0.0151570
642.170	0.0150600
642.248	0.0152759
642.326	0.0151767
642.405	0.0149982
642.483	0.0151173
642.561	0.0150806
642.639	0.0151448
642.717	0.0151521
642.795	0.0151364
642.873	0.0150523
642.951	0.0150317
643.030	0.0151189
643.108	0.0151086
643.186	0.0150574
643.264	0.0150771
643.342	0.0150813
643.420	0.0150767
643.498	0.0149593
643.576	0.0150074
643.655	0.0150700
643.733	0.0149632
643.811	0.0149919
643.889	0.0149992
643.967	0.0150526
644.045	0.0150905
644.123	0.0151184
644.201	0.0150539
644.280	0.0149301
644.358	0.0151096
644.436	0.0149333
644.514	0.0150362
644.592	0.0149694
644.670	0.0151176
644.748	0.0150999
644.826	0.0152187
644.905	0.0150482
644.983	0.0151914
645.061	0.0150918
645.139	0.0151010
645.217	0.0152173
645.295	0.0151562
645.373	0.0150793
645.451	0.0150857
645.530	0.0151519
645.608	0.0152296
645.686	0.0152151
645.764	0.0151440
645.842	0.0150826
645.920	0.0152691
645.998	0.0152722
646.076	0.0152055
646.155	0.0151233
646.233	0.0151818
646.311	0.0151728
646.389	0.0150345
646.467	0.0149550
646.545	0.0149669
646.623	0.0150828
646.701	0.0150399
646.780	0.0151617
646.858	0.0150127
646.936	0.0151244
647.014	0.0150850
647.092	0.0151501
647.170	0.0150883
647.248	0.0151840
647.326	0.0152832
647.405	0.0152999
647.483	0.0153700
647.561	0.0153352
647.639	0.0152409
647.717	0.0152245
647.795	0.0153986
647.873	0.0153877
647.951	0.0153294
648.030	0.0152726
648.108	0.0152269
648.186	0.0153063
648.264	0.0152733
648.342	0.0151958
648.420	0.0151453
648.498	0.0152608
648.576	0.0152541
648.655	0.0151826
648.733	0.0150304
648.811	0.0151363
648.889	0.0151286
648.967	0.0152673
649.045	0.0151235
649.123	0.0151191
649.201	0.0151065
649.280	0.0151714
649.358	0.0151352
649.436	0.0152021
649.514	0.0150970
649.592	0.0150947
649.670	0.0151742
649.748	0.0150919
649.826	0.0151102
649.905	0.0151077
649.983	0.0150893
650.061	0.0149687
650.139	0.0150903
650.217	0.0150217
650.295	0.0150783
650.373	0.0150849
650.451	0.0150343
650.530	0.0150291
650.608	0.0150484
650.686	0.0149847
650.764	0.0149353
650.842	0.0150784
650.920	0.0149912
650.998	0.0150319
651.076	0.0150526
651.155	0.0150497
651.233	0.0151075
651.311	0.0151398
651.389	0.0150224
651.467	0.0150584
651.545	0.0150437
651.623	0.0150689
651.701	0.0150768
651.780	0.0150145
651.858	0.0150112
651.936	0.0153062
652.014	0.0150980
652.092	0.0152692
652.170	0.0152156
652.248	0.0150260
652.326	0.0152595
652.405	0.0152867
652.483	0.0153110
652.561	0.0152000
652.639	0.0151048
652.717	0.0150848
652.795	0.0150645
652.873	0.0152001
652.951	0.0152368
653.030	0.0153021
653.108	0.0150967
653.186	0.0151396
653.264	0.0152291
653.342	0.0152348
653.420	0.0151991
653.498	0.0152069
653.576	0.0153767
653.655	0.0152642
653.733	0.0151462
653.811	0.0151651
653.889	0.0153289
653.967	0.0151824
654.045	0.0150684
654.123	0.0151369
654.201	0.0150878
654.280	0.0152519
654.358	0.0151931
654.436	0.0152040
654.514	0.0152335
654.592	0.0151977
654.670	0.0152254
654.748	0.0151321
654.826	0.0151693
654.905	0.0151180
654.983	0.0151295
655.061	0.0150644
655.139	0.0151324
655.217	0.0151260
655.295	0.0150850
655.373	0.0150039
655.451	0.0151138
655.530	0.0151980
655.608	0.0151067
655.686	0.0148672
655.764	0.0150929
655.842	0.0151921
655.920	0.0152085
655.998	0.0150384
656.076	0.0149751
656.155	0.0151655
656.233	0.0150896
656.311	0.0150185
656.389	0.0150600
656.467	0.0152840
656.545	0.0152290
656.623	0.0152056
656.701	0.0152818
656.780	0.0151691
656.858	0.0151819
656.936	0.0151775
657.014	0.0151794
657.092	0.0150345
657.170	0.0150884
657.248	0.0150249
657.326	0.0150713
657.405	0.0150224
657.483	0.0150488
657.561	0.0149606
657.639	0.0150257
657.717	0.0150547
657.795	0.0149647
657.873	0.0149564
657.951	0.0149411
658.030	0.0150124
658.108	0.0151212
658.186	0.0150636
658.264	0.0151926
658.342	0.0151900
658.420	0.0151067
658.498	0.0152893
658.576	0.0152525
658.655	0.0151075
658.733	0.0152567
658.811	0.0152613
658.889	0.0151215
658.967	0.0151933
659.045	0.0151321
659.123	0.0150134
659.201	0.0149943
659.280	0.0150124
659.358	0.0149639
659.436	0.0149805
659.514	0.0148462
659.592	0.0149182
659.670	0.0148155
659.748	0.0148658
659.826	0.0149899
659.905	0.0150474
659.983	0.0150037
660.061	0.0149075
660.139	0.0150468
660.217	0.0149899
660.295	0.0150215
660.373	0.0150684
660.451	0.0150475
660.530	0.0151232
660.608	0.0150446
660.686	0.0149919
660.764	0.0150581
660.842	0.0149871
660.920	0.0151799
660.998	0.0150394
661.076	0.0151666
661.155	0.0150571
661.233	0.0151424
661.311	0.0152500
661.389	0.0152430
661.467	0.0152154
661.545	0.0151177
661.623	0.0150840
661.701	0.0151948
661.780	0.0154259
661.858	0.0150938
661.936	0.0151292
662.014	0.0151227
662.092	0.0152064
662.170	0.0151519
662.248	0.0151928
662.326	0.0153226
662.405	0.0152674
662.483	0.0151630
662.561	0.0150681
662.639	0.0151307
662.717	0.0152300
662.795	0.0152113
662.873	0.0153395
662.951	0.0151604
663.030	0.0151852
663.108	0.0151471
663.186	0.0150362
663.264	0.0150634
663.342	0.0149500
663.420	0.0150269
663.498	0.0150049
663.576	0.0148039
663.655	0.0148514
663.733	0.0148012
663.811	0.0147454
663.889	0.0147947
663.967	0.0146739
664.045	0.0146777
664.123	0.0146719
664.201	0.0148043
664.280	0.0146164
664.358	0.0146739
664.436	0.0147926
664.514	0.0146725
664.592	0.0147544
664.670	0.0148175
664.748	0.0148611
664.826	0.0148878
664.905	0.0148232
664.983	0.0148127
665.061	0.0149569
665.139	0.0149528
665.217	0.0148811
665.295	0.0150208
665.373	0.0150645
665.451	0.0150922
665.530	0.0153161
665.608	0.0151874
665.686	0.0152582
665.764	0.0154852
665.842	0.0154633
665.920	0.0155458
665.998	0.0156643
666.076	0.0157452
666.155	0.0158240
666.233	0.0157036
666.311	0.0156639
666.389	0.0157317
666.467	0.0157531
666.545	0.0155726
666.623	0.0156649
666.701	0.0155248
666.780	0.0154776
666.858	0.0155841
666.936	0.0154230
667.014	0.0153329
667.092	0.0153786
667.170	0.0152694
667.248	0.0150343
667.326	0.0150632
667.405	0.0150953
667.483	0.0148274
667.561	0.0146414
667.639	0.0145664
667.717	0.0145248
667.795	0.0144837
667.873	0.0142007
667.951	0.0139583
668.030	0.0141283
668.108	0.0139835
668.186	0.0139220
668.264	0.0140150
668.342	0.0139713
668.420	0.0139191
668.498	0.0140458
668.576	0.0141909
668.655	0.0141254
668.733	0.0141406
668.811	0.0141741
668.889	0.0143681
668.967	0.0146590
669.045	0.0147225
669.123	0.0148640
669.201	0.0148479
669.280	0.0151826
669.358	0.0150277
669.436	0.0152702
669.514	0.0153335
669.592	0.0155537
669.670	0.0157007
669.748	0.0159740
669.826	0.0160655
669.905	0.0160500
669.983	0.0162661
670.061	0.0163107
670.139	0.0163227
670.217	0.0164788
670.295	0.0165228
670.373	0.0165498
670.451	0.0164113
670.530	0.0163103
670.608	0.0162369
670.686	0.0161822
670.764	0.0160259
670.842	0.0158656
670.920	0.0157341
670.998	0.0156979
671.076	0.0154465
671.155	0.0154523
671.233	0.0152799
671.311	0.0151889
671.389	0.0150535
671.467	0.0148487
671.545	0.0146751
671.623	0.0145631
671.701	0.0145200
671.780	0.0143746
671.858	0.0141831
671.936	0.0141446
672.014	0.0142048
672.092	0.0140791
672.170	0.0141767
672.248	0.0140970
672.326	0.0140490
672.405	0.0140646
672.483	0.0141597
672.561	0.0141961
672.639	0.0141470
672.717	0.0142138
672.795	0.0145329
672.873	0.0144963
672.951	0.0144641
673.030	0.0147499
673.108	0.0148450
673.186	0.0149495
673.264	0.0150246
673.342	0.0151811
673.420	0.0152893
673.498	0.0154996
673.576	0.0158397
673.655	0.0158775
673.733	0.0158798
673.811	0.0161171
673.889	0.0162881
673.967	0.0164321
674.045	0.0166145
674.123	0.0167893
674.201	0.0166563
674.280	0.0167266
674.358	0.0167799
674.436	0.0167473
674.514	0.0165925
674.592	0.0167010
674.670	0.0165108
674.748	0.0165228
674.826	0.0164635
674.905	0.0161676
674.983	0.0160413
675.061	0.0158758
675.139	0.0157698
675.217	0.0154891
675.295	0.0152747
675.373	0.0151667
675.451	0.0151667
675.530	0.0147950
675.608	0.0145661
675.686	0.0146849
675.764	0.0142415
675.842	0.0142419
675.920	0.0142385
675.998	0.0140932
676.076	0.0141412
676.155	0.0140871
676.233	0.0141119
676.311	0.0140726
676.389	0.0141836
676.467	0.0143858
676.545	0.0144060
676.623	0.0146044
676.701	0.0145718
676.780	0.0146199
676.858	0.0146465
676.936	0.0149373
677.014	0.0151016
677.092	0.0152966
677.170	0.0153035
677.248	0.0152671
677.326	0.0155333
677.405	0.0155075
677.483	0.0154934
677.561	0.0156566
677.639	0.0157601
677.717	0.0157525
677.795	0.0158237
677.873	0.0158399
677.951	0.0158141
678.030	0.0157803
678.108	0.0157825
678.186	0.0156760
678.264	0.0156919
678.342	0.0157337
678.420	0.0156242
678.498	0.0156813
678.576	0.0153927
678.655	0.0153069
678.733	0.0152542
678.811	0.0153680
678.889	0.0152158
678.967	0.0152320
679.045	0.0149847
679.123	0.0150864
679.201	0.0149937
679.280	0.0148930
679.358	0.0149080
679.436	0.0148867
679.514	0.0148653
679.592	0.0148179
679.670	0.0147537
679.748	0.0148183
679.826	0.0149046
679.905	0.0147552
679.983	0.0150304
680.061	0.0150169
680.139	0.0151437
680.217	0.0151299
680.295	0.0152605
680.373	0.0153465
680.451	0.0154223
680.530	0.0156047
680.608	0.0154934
680.686	0.0154543
680.764	0.0154810
680.842	0.0155712
680.920	0.0156106
680.998	0.0153982
681.076	0.0154585
681.155	0.0154149
681.233	0.0153496
681.311	0.0153096
681.389	0.0152637
681.467	0.0152886
681.545	0.0153024
681.623	0.0151970
681.701	0.0150446
681.780	0.0150703
681.858	0.0151649
681.936	0.0149583
682.014	0.0150819
682.092	0.0149800
682.170	0.0148411
682.248	0.0149505
682.326	0.0148763
682.405	0.0149565
682.483	0.0147371
682.561	0.0147651
682.639	0.0147997
682.717	0.0147608
682.795	0.0147327
682.873	0.0147605
682.951	0.0147227
683.030	0.0145867
683.108	0.0146252
683.186	0.0146157
683.264	0.0145514
683.342	0.0145488
683.420	0.0144932
683.498	0.0144507
683.576	0.0145298
683.655	0.0145983
683.733	0.0147675
683.811	0.0148335
683.889	0.0147580
683.967	0.0149710
684.045	0.0149730
684.123	0.0149399
684.201	0.0149733
684.280	0.0151541
684.358	0.0152871
684.436	0.0153297
684.514	0.0153073
684.592	0.0155107
684.670	0.0154784
684.748	0.0155360
684.826	0.0156475
684.905	0.0155626
684.983	0.0157588
685.061	0.0157177
685.139	0.0156219
685.217	0.0156065
685.295	0.0156778
685.373	0.0157597
685.451	0.0157586
685.530	0.0157725
685.608	0.0157633
685.686	0.0156076
685.764	0.0155885
685.842	0.0156699
685.920	0.0157006
685.998	0.0156101
686.076	0.0155257
686.155	0.0155412
686.233	0.0155082
686.311	0.0153027
686.389	0.0152962
686.467	0.0154831
686.545	0.0153095
686.623	0.0152029
686.701	0.0150794
686.780	0.0149903
686.858	0.0147996
686.936	0.0146593
687.014	0.0145684
687.092	0.0144593
687.170	0.0143167
687.248	0.0139928
687.326	0.0140269
687.405	0.0140791
687.483	0.0138278
687.561	0.0137281
687.639	0.0137572
687.717	0.0138332
687.795	0.0138647
687.873	0.0139758
687.951	0.0140466
688.030	0.0140137
688.108	0.0141964
688.186	0.0143436
688.264	0.0141832
688.342	0.0145432
688.420	0.0146158
688.498	0.0146807
688.576	0.0148935
688.655	0.0149366
688.733	0.0151321
688.811	0.0152631
688.889	0.0154482
688.967	0.0156862
689.045	0.0157502
689.123	0.0159060
689.201	0.0160300
689.280	0.0161934
689.358	0.0162491
689.436	0.0162655
689.514	0.0163914
689.592	0.0164096
689.670	0.0164055
689.748	0.0164355
689.826	0.0164326
689.905	0.0163243
689.983	0.0161571
690.061	0.0161253
690.139	0.0161266
690.217	0.0158477
690.295	0.0157931
690.373	0.0155756
690.451	0.0154599
690.530	0.0154124
690.608	0.0150825
690.686	0.0149661
690.764	0.0147086
690.842	0.0144573
690.920	0.0143216
690.998	0.0142454
691.076	0.0140760
691.155	0.0140282
691.233	0.0141229
691.311	0.0139607
691.389	0.0138021
691.467	0.0140977
691.545	0.0139857
691.623	0.0139814
691.701	0.0139409
691.780	0.0141020
691.858	0.0142165
691.936	0.0143283
692.014	0.0144263
692.092	0.0144947
692.170	0.0145194
692.248	0.0146014
692.326	0.0145625
692.405	0.0147013
692.483	0.0148389
692.561	0.0149354
692.639	0.0149199
692.717	0.0151100
692.795	0.0149956
692.873	0.0152727
692.951	0.0154229
693.030	0.0153819
693.108	0.0154402
693.186	0.0155141
693.264	0.0156705
693.342	0.0157141
693.420	0.0157315
693.498	0.0157575
693.576	0.0157072
693.655	0.0157269
693.733	0.0155543
693.811	0.0155737
693.889	0.0156208
693.967	0.0154031
694.045	0.0152388
694.123	0.0153855
694.201	0.0152637
694.280	0.0151031
694.358	0.0151333
694.436	0.0151923
694.514	0.0151337
694.592	0.0150731
694.670	0.0150675
694.748	0.0149704
694.826	0.0149838
694.905	0.0147734
694.983	0.0147608
695.061	0.0148298
695.139	0.0146976
695.217	0.0145439
695.295	0.0145714
695.373	0.0146664
695.451	0.0147294
695.530	0.0147035
695.608	0.0147409
695.686	0.0149441
695.764	0.0148345
695.842	0.0149931
695.920	0.0151855
695.998	0.0152139
696.076	0.0152238
696.155	0.0153767
696.233	0.0155395
696.311	0.0154716
696.389	0.0154832
696.467	0.0157221
696.545	0.0156631
696.623	0.0157135
696.701	0.0157419
696.780	0.0157005
696.858	0.0158965
696.936	0.0156702
697.014	0.0156737
697.092	0.0157175
697.170	0.0157995
697.248	0.0156182
697.326	0.0156563
697.405	0.0155257
697.483	0.0154671
697.561	0.0153750
697.639	0.0153553
697.717	0.0152948
697.795	0.0151680
697.873	0.0151710
697.951	0.0151023
698.030	0.0151449
698.108	0.0150686
698.186	0.0149828
698.264	0.0149733
698.342	0.0149268
698.420	0.0149370
698.498	0.0147652
698.576	0.0146845
698.655	0.0146208
698.733	0.0146244
698.811	0.0146519
698.889	0.0146181
698.967	0.0144335
699.045	0.0144879
699.123	0.0146789
699.201	0.0146185
699.280	0.0145590
699.358	0.0146897
699.436	0.0148044
699.514	0.0148152
699.592	0.0149516
699.670	0.0150077
699.748	0.0151951
699.826	0.0152475
699.905	0.0152722
699.983	0.0153815
700.061	0.0154562
700.139	0.0155386
700.217	0.0156744
700.295	0.0155103
700.373	0.0154894
700.451	0.0156312
700.530	0.0156400
700.608	0.0156158
700.686	0.0156178
700.764	0.0155607
700.842	0.0155921
700.920	0.0157386
700.998	0.0154720
701.076	0.0155843
701.155	0.0155696
701.233	0.0155916
701.311	0.0154447
701.389	0.0152799
701.467	0.0153680
701.545	0.0152982
701.623	0.0151356
701.701	0.0151276
701.780	0.0150718
701.858	0.0150645
701.936	0.0149739
702.014	0.0148413
702.092	0.0149781
702.170	0.0148756
702.248	0.0148885
702.326	0.0148003
702.405	0.0149954
702.483	0.0149108
702.561	0.0149971
702.639	0.0150526
702.717	0.0149179
702.795	0.0149906
702.873	0.0150890
702.951	0.0150469
703.030	0.0149599
703.108	0.0151061
703.186	0.0151842
703.264	0.0151188
703.342	0.0151118
703.420	0.0154594
703.498	0.0153922
703.576	0.0154652
703.655	0.0153899
703.733	0.0155733
703.811	0.0154574
703.889	0.0155467
703.967	0.0155721
704.045	0.0155772
704.123	0.0154302
704.201	0.0155515
704.280	0.0155122
704.358	0.0153291
704.436	0.0152666
704.514	0.0152377
704.592	0.0153426
704.670	0.0151094
704.748	0.0149935
704.826	0.0148482
704.905	0.0147272
704.983	0.0148142
705.061	0.0146323
705.139	0.0147130
705.217	0.0145847
705.295	0.0146768
705.373	0.0146476
705.451	0.0146915
705.530	0.0146774
705.608	0.0147638
705.686	0.0148801
705.764	0.0147530
705.842	0.0147514
705.920	0.0149689
705.998	0.0149153
706.076	0.0149187
706.155	0.0149634
706.233	0.0149046
706.311	0.0149465
706.389	0.0151283
706.467	0.0152491
706.545	0.0152109
706.623	0.0154182
706.701	0.0154116
706.780	0.0154665
706.858	0.0156432
706.936	0.0157783
707.014	0.0157784
707.092	0.0159745
707.170	0.0160184
707.248	0.0160176
707.326	0.0160194
707.405	0.0160033
707.483	0.0158117
707.561	0.0158645
707.639	0.0158063
707.717	0.0156068
707.795	0.0155962
707.873	0.0153506
707.951	0.0151852
708.030	0.0153986
708.108	0.0153102
708.186	0.0151399
708.264	0.0151102
708.342	0.0151255
708.420	0.0149107
708.498	0.0150684
708.576	0.0149866
708.655	0.0148329
708.733	0.0146129
708.811	0.0146574
708.889	0.0145303
708.967	0.0144194
709.045	0.0144345
709.123	0.0143491
709.201	0.0143458
709.280	0.0143350
709.358	0.0143270
709.436	0.0143588
709.514	0.0143853
709.592	0.0144432
709.670	0.0144067
709.748	0.0144980
709.826	0.0144028
709.905	0.0145493
709.983	0.0144802
710.061	0.0146249
710.139	0.0145842
710.217	0.0145660
710.295	0.0146690
710.373	0.0146921
710.451	0.0147836
710.530	0.0147308
710.608	0.0147423
710.686	0.0149714
710.764	0.0149819
710.842	0.0147701
710.920	0.0149580
710.998	0.0149559
711.076	0.0151480
711.155	0.0150780
711.233	0.0151675
711.311	0.0152522
711.389	0.0152248
711.467	0.0154812
711.545	0.0153030
711.623	0.0153799
711.701	0.0153368
711.780	0.0154836
711.858	0.0155315
711.936	0.0154742
712.014	0.0154636
712.092	0.0155482
712.170	0.0154434
712.248	0.0155251
712.326	0.0155106
712.405	0.0154800
712.483	0.0155067
712.561	0.0154945
712.639	0.0153535
712.717	0.0153416
712.795	0.0153264
712.873	0.0152888
712.951	0.0151190
713.030	0.0151748
713.108	0.0151732
713.186	0.0151279
713.264	0.0151505
713.342	0.0150294
713.420	0.0149603
713.498	0.0147247
713.576	0.0147236
713.655	0.0149478
713.733	0.0148335
713.811	0.0146997
713.889	0.0146866
713.967	0.0146469
714.045	0.0147833
714.123	0.0148220
714.201	0.0147625
714.280	0.0147575
714.358	0.0147878
714.436	0.0148710
714.514	0.0148898
714.592	0.0147478
714.670	0.0147253
714.748	0.0149079
714.826	0.0149815
714.905	0.0149783
714.983	0.0149845
715.061	0.0149963
715.139	0.0150984
715.217	0.0151547
715.295	0.0151663
715.373	0.0151955
715.451	0.0151088
715.530	0.0152122
715.608	0.0153076
715.686	0.0153489
715.764	0.0153417
715.842	0.0152531
715.920	0.0153301
715.998	0.0153819
716.076	0.0154179
716.155	0.0153833
716.233	0.0152374
716.311	0.0153674
716.389	0.0152637
716.467	0.0151321
716.545	0.0151595
716.623	0.0149006
716.701	0.0150002
716.780	0.0148780
716.858	0.0148074
716.936	0.0149191
717.014	0.0148593
717.092	0.0149435
717.170	0.0147200
717.248	0.0147948
717.326	0.0149666
717.405	0.0149585
717.483	0.0149181
717.561	0.0149907
717.639	0.0150033
717.717	0.0149293
717.795	0.0149828
717.873	0.0149548
717.951	0.0150480
718.030	0.0149765
718.108	0.0148763
718.186	0.0149716
718.264	0.0151003
718.342	0.0150320
718.420	0.0150224
718.498	0.0149844
718.576	0.0151773
718.655	0.0150303
718.733	0.0150126
718.811	0.0152312
718.889	0.0152851
718.967	0.0151909
719.045	0.0153876
719.123	0.0153445
719.201	0.0153581
719.280	0.0153396
719.358	0.0154536
719.436	0.0156372
719.514	0.0157492
719.592	0.0155982
719.670	0.0156188
719.748	0.0157578
719.826	0.0157091
719.905	0.0156146
719.983	0.0156779
720.061	0.0158416
720.139	0.0158224
720.217	0.0155541
720.295	0.0153590
720.373	0.0154994
720.451	0.0154055
720.530	0.0154107
720.608	0.0152795
720.686	0.0150735
720.764	0.0151850
720.842	0.0151579
720.920	0.0149104
720.998	0.0148026
721.076	0.0148149
721.155	0.0148343
721.233	0.0148270
721.311	0.0146886
721.389	0.0147612
721.467	0.0146418
721.545	0.0147387
721.623	0.0147354
721.701	0.0146004
721.780	0.0145662
721.858	0.0146095
721.936	0.0146136
722.014	0.0146206
722.092	0.0145164
722.170	0.0144534
722.248	0.0146453
722.326	0.0147041
722.405	0.0146830
722.483	0.0146809
722.561	0.0147913
722.639	0.0146832
722.717	0.0147523
722.795	0.0147529
722.873	0.0146595
722.951	0.0147810
723.030	0.0147829
723.108	0.0149709
723.186	0.0151215
723.264	0.0150380
723.342	0.0151984
723.420	0.0150582
723.498	0.0152550
723.576	0.0153804
723.655	0.0152345
723.733	0.0153913
723.811	0.0154591
723.889	0.0154803
723.967	0.0154246
724.045	0.0153825
724.123	0.0153426
724.201	0.0153369
724.280	0.0152138
724.358	0.0153680
724.436	0.0152559
724.514	0.0151321
724.592	0.0150546
724.670	0.0151266
724.748	0.0150862
724.826	0.0149835
724.905	0.0149249
724.983	0.0149608
725.061	0.0147588
725.139	0.0146976
725.217	0.0146482
725.295	0.0148038
725.373	0.0146372
725.451	0.0146458
725.530	0.0146907
725.608	0.0147346
725.686	0.0148390
725.764	0.0146845
725.842	0.0146509
725.920	0.0148248
725.998	0.0149739
726.076	0.0148198
726.155	0.0149714
726.233	0.0150791
726.311	0.0150970
726.389	0.0151726
726.467	0.0151603
726.545	0.0151677
726.623	0.0153221
726.701	0.0153239
726.780	0.0152068
726.858	0.0154212
726.936	0.0154958
727.014	0.0153920
727.092	0.0155162
727.170	0.0156555
727.248	0.0153736
727.326	0.0154513
727.405	0.0153739
727.483	0.0153860
727.561	0.0153916
727.639	0.0155056
727.717	0.0153633
727.795	0.0152934
727.873	0.0152240
727.951	0.0152496
728.030	0.0152142
728.108	0.0152894
728.186	0.0151055
728.264	0.0151225
728.342	0.0150179
728.420	0.0149716
728.498	0.0150742
728.576	0.0151141
728.655	0.0150694
728.733	0.0150869
728.811	0.0149362
728.889	0.0149860
728.967	0.0150235
729.045	0.0150761
729.123	0.0149737
729.201	0.0150439
729.280	0.0149811
729.358	0.0149363
729.436	0.0151083
729.514	0.0149979
729.592	0.0150332
729.670	0.0151564
729.748	0.0152111
729.826	0.0150079
729.905	0.0151441
729.983	0.0150263
730.061	0.0151167
730.139	0.0150436
730.217	0.0150497
730.295	0.0148830
730.373	0.0147839
730.451	0.0148592
730.530	0.0147964
730.608	0.0148058
730.686	0.0148602
730.764	0.0147517
730.842	0.0148316
730.920	0.0148532
730.998	0.0149313
731.076	0.0148228
731.155	0.0148102
731.233	0.0149402
731.311	0.0148421
731.389	0.0149377
731.467	0.0149769
731.545	0.0149788
731.623	0.0149117
731.701	0.0148474
731.780	0.0148330
731.858	0.0148003
731.936	0.0148409
732.014	0.0147980
732.092	0.0150204
732.170	0.0149770
732.248	0.0148477
732.326	0.0151084
732.405	0.0151864
732.483	0.0149834
732.561	0.0151549
732.639	0.0151731
732.717	0.0152945
732.795	0.0153940
732.873	0.0153677
732.951	0.0153258
733.030	0.0152782
733.108	0.0154256
733.186	0.0153841
733.264	0.0153695
733.342	0.0153681
733.420	0.0153036
733.498	0.0154109
733.576	0.0155106
733.655	0.0154126
733.733	0.0152428
733.811	0.0153308
733.889	0.0154400
733.967	0.0154432
734.045	0.0154230
734.123	0.0154277
734.201	0.0155074
734.280	0.0154014
734.358	0.0154478
734.436	0.0154591
734.514	0.0154202
734.592	0.0152901
734.670	0.0152479
734.748	0.0152462
734.826	0.0151527
734.905	0.0151367
734.983	0.0150573
735.061	0.0149397
735.139	0.0148557
735.217	0.0147723
735.295	0.0149129
735.373	0.0148689
735.451	0.0147520
735.530	0.0146947
735.608	0.0147380
735.686	0.0147469
735.764	0.0147443
735.842	0.0146809
735.920	0.0146072
735.998	0.0145649
736.076	0.0145708
736.155	0.0146011
736.233	0.0146319
736.311	0.0146918
736.389	0.0147564
736.467	0.0147884
736.545	0.0148256
736.623	0.0147894
736.701	0.0149659
736.780	0.0151656
736.858	0.0151034
736.936	0.0152035
737.014	0.0151713
737.092	0.0153223
737.170	0.0155233
737.248	0.0153927
737.326	0.0153951
737.405	0.0153850
737.483	0.0153103
737.561	0.0151917
737.639	0.0153178
737.717	0.0153999
737.795	0.0153132
737.873	0.0151846
737.951	0.0152222
738.030	0.0151646
738.108	0.0151167
738.186	0.0151412
738.264	0.0151036
738.342	0.0150699
738.420	0.0151017
738.498	0.0151505
738.576	0.0151318
738.655	0.0152396
738.733	0.0152803
738.811	0.0152425
738.889	0.0152126
738.967	0.0152407
739.045	0.0152140
739.123	0.0152110
739.201	0.0152024
739.280	0.0152390
739.358	0.0152451
739.436	0.0151898
739.514	0.0151750
739.592	0.0153020
739.670	0.0153150
739.748	0.0154243
739.826	0.0154860
739.905	0.0154182
739.983	0.0154532
740.061	0.0155893
740.139	0.0154686
740.217	0.0154589
740.295	0.0154171
740.373	0.0154972
740.451	0.0155135
740.530	0.0156097
740.608	0.0156652
740.686	0.0155834
740.764	0.0156397
740.842	0.0155851
740.920	0.0155590
740.998	0.0154462
741.076	0.0153193
741.155	0.0152621
741.233	0.0151683
741.311	0.0150996
741.389	0.0150884
741.467	0.0149286
741.545	0.0149020
741.623	0.0147913
741.701	0.0148801
741.780	0.0147858
741.858	0.0147752
741.936	0.0147492
742.014	0.0145946
742.092	0.0148037
742.170	0.0146746
742.248	0.0147382
742.326	0.0148629
742.405	0.0148453
742.483	0.0148701
742.561	0.0148843
742.639	0.0150203
742.717	0.0149754
742.795	0.0150044
742.873	0.0151473
742.951	0.0151189
743.030	0.0152100
743.108	0.0151568
743.186	0.0151010
743.264	0.0150558
743.342	0.0151654
743.420	0.0150546
743.498	0.0150327
743.576	0.0150591
743.655	0.0151177
743.733	0.0148894
743.811	0.0150210
743.889	0.0148016
743.967	0.0148061
744.045	0.0148784
744.123	0.0149205
744.201	0.0150142
744.280	0.0148866
744.358	0.0149103
744.436	0.0148547
744.514	0.0148494
744.592	0.0148969
744.670	0.0150152
744.748	0.0149968
744.826	0.0148248
744.905	0.0150216
744.983	0.0150536
745.061	0.0149647
745.139	0.0150468
745.217	0.0150660
745.295	0.0148928
745.373	0.0151368
745.451	0.0152827
745.530	0.0151267
745.608	0.0150259
745.686	0.0150668
745.764	0.0151286
745.842	0.0150604
745.920	0.0151965
745.998	0.0152629
746.076	0.0151651
746.155	0.0149348
746.233	0.0150851
746.311	0.0150314
746.389	0.0149896
746.467	0.0150700
746.545	0.0151073
746.623	0.0150453
746.701	0.0150990
746.780	0.0151007
746.858	0.0151326
746.936	0.0150429
747.014	0.0150922
747.092	0.0151357
747.170	0.0152831
747.248	0.0152219
747.326	0.0150784
747.405	0.0151845
747.483	0.0153275
747.561	0.0152413
747.639	0.0151309
747.717	0.0151242
747.795	0.0152500
747.873	0.0151003
747.951	0.0151356
748.030	0.0151167
748.108	0.0151653
748.186	0.0151987
748.264	0.0152466
748.342	0.0151961
748.420	0.0153404
748.498	0.0153945
748.576	0.0153806
748.655	0.0153589
748.733	0.0152375
748.811	0.0153595
748.889	0.0153638
748.967	0.0154155
749.045	0.0154598
749.123	0.0154785
749.201	0.0154196
749.280	0.0154790
749.358	0.0152917
749.436	0.0152007
749.514	0.0151498
749.592	0.0153069
749.670	0.0151270
749.748	0.0151379
749.826	0.0152268
749.905	0.0153174
749.983	0.0150127
750.061	0.0149458
750.139	0.0150283
750.217	0.0149812
750.295	0.0150486
750.373	0.0150481
750.451	0.0149507
750.530	0.0150967
750.608	0.0151090
750.686	0.0151749
750.764	0.0150577
750.842	0.0151673
750.920	0.0151955
750.998	0.0150338
751.076	0.0152590
751.155	0.0150886
751.233	0.0151578
751.311	0.0150711
751.389	0.0149983
751.467	0.0150949
751.545	0.0150506
751.623	0.0150372
751.701	0.0149415
751.780	0.0147906
751.858	0.0148109
751.936	0.0148425
752.014	0.0148679
752.092	0.0149423
752.170	0.0147873
752.248	0.0148865
752.326	0.0148061
752.405	0.0148582
752.483	0.0147555
752.561	0.0149006
752.639	0.0148591
752.717	0.0148759
752.795	0.0149556
752.873	0.0149969
752.951	0.0149765
753.030	0.0150211
753.108	0.0151261
753.186	0.0151601
753.264	0.0151807
753.342	0.0151242
753.420	0.0151059
753.498	0.0152716
753.576	0.0153824
753.655	0.0153004
753.733	0.0152797
753.811	0.0151787
753.889	0.0151414
753.967	0.0152478
754.045	0.0151908
754.123	0.0152025
754.201	0.0150844
754.280	0.0151796
754.358	0.0152740
754.436	0.0151186
754.514	0.0149905
754.592	0.0150582
754.670	0.0150325
754.748	0.0150453
754.826	0.0150527
754.905	0.0150269
754.983	0.0149789
755.061	0.0150963
755.139	0.0150320
755.217	0.0151433
755.295	0.0151814
755.373	0.0150512
755.451	0.0150211
755.530	0.0150854
755.608	0.0150944
755.686	0.0151585
755.764	0.0153026
755.842	0.0152190
755.920	0.0152334
755.998	0.0153707
756.076	0.0154032
756.155	0.0153281
756.233	0.0154274
756.311	0.0153622
756.389	0.0154361
756.467	0.0154214
756.545	0.0155335
756.623	0.0153745
756.701	0.0155591
756.780	0.0154836
756.858	0.0154236
756.936	0.0156202
757.014	0.0154513
757.092	0.0155408
757.170	0.0155044
757.248	0.0153860
757.326	0.0153088
757.405	0.0153699
757.483	0.0152798
757.561	0.0151226
757.639	0.0151789
757.717	0.0151000
757.795	0.0149934
757.873	0.0150838
757.951	0.0148611
758.030	0.0148331
758.108	0.0149089
758.186	0.0147392
758.264	0.0147193
758.342	0.0148302
758.420	0.0147661
758.498	0.0148805
758.576	0.0147257
758.655	0.0146687
758.733	0.0148495
758.811	0.0148814
758.889	0.0147559
758.967	0.0147736
759.045	0.0148046
759.123	0.0146298
759.201	0.0148798
759.280	0.0147484
759.358	0.0147242
759.436	0.0146894
759.514	0.0147885
759.592	0.0148424
759.670	0.0148796
759.748	0.0147897
759.826	0.0149054
759.905	0.0149344
759.983	0.0150529
760.061	0.0150624
760.139	0.0151828
760.217	0.0151658
760.295	0.0151898
760.373	0.0152408
760.451	0.0152245
760.530	0.0153823
760.608	0.0153244
760.686	0.0152901
760.764	0.0152392
760.842	0.0153689
760.920	0.0152842
760.998	0.0154369
761.076	0.0154716
761.155	0.0154340
761.233	0.0154122
761.311	0.0153762
761.389	0.0153802
761.467	0.0153716
761.545	0.0152240
761.623	0.0152752
761.701	0.0152480
761.780	0.0152271
761.858	0.0150955
761.936	0.0150982
762.014	0.0153584
762.092	0.0151691
762.170	0.0152088
762.248	0.0152618
762.326	0.0151067
762.405	0.0151665
762.483	0.0150808
762.561	0.0151283
762.639	0.0151514
762.717	0.0151854
762.795	0.0151946
762.873	0.0153386
762.951	0.0153255
763.030	0.0152417
763.108	0.0151968
763.186	0.0153740
763.264	0.0154439
763.342	0.0154120
763.420	0.0153456
763.498	0.0155928
763.576	0.0155413
763.655	0.0155218
763.733	0.0156435
763.811	0.0155569
763.889	0.0154207
763.967	0.0155892
764.045	0.0154078
764.123	0.0152354
764.201	0.0152631
764.280	0.0153355
764.358	0.0149856
764.436	0.0151729
764.514	0.0150671
764.592	0.0149863
764.670	0.0148614
764.748	0.0148572
764.826	0.0147889
764.905	0.0147301
764.983	0.0147983
765.061	0.0148259
765.139	0.0148448
765.217	0.0148749
765.295	0.0148209
765.373	0.0148843
765.451	0.0149329
765.530	0.0148969
765.608	0.0150060
765.686	0.0150607
765.764	0.0150777
765.842	0.0150147
765.920	0.0150208
765.998	0.0150329
766.076	0.0150707
766.155	0.0151452
766.233	0.0151676
766.311	0.0152686
766.389	0.0153194
766.467	0.0151431
766.545	0.0152080
766.623	0.0151625
766.701	0.0153984
766.780	0.0153046
766.858	0.0152850
766.936	0.0153714
767.014	0.0153046
767.092	0.0153885
767.170	0.0154855
767.248	0.0153664
767.326	0.0152180
767.405	0.0151608
767.483	0.0152045
767.561	0.0151331
767.639	0.0150977
767.717	0.0151229
767.795	0.0150787
767.873	0.0150681
767.951	0.0149200
768.030	0.0150308
768.108	0.0149656
768.186	0.0149326
768.264	0.0148888
768.342	0.0148652
768.420	0.0148719
768.498	0.0150579
768.576	0.0148615
768.655	0.0149559
768.733	0.0149493
768.811	0.0148071
768.889	0.0149863
768.967	0.0151052
769.045	0.0151893
769.123	0.0151385
769.201	0.0152295
769.280	0.0151453
769.358	0.0151646
769.436	0.0152419
769.514	0.0152838
769.592	0.0152133
769.670	0.0153101
769.748	0.0153425
769.826	0.0153470
769.905	0.0153155
769.983	0.0153269
770.061	0.0153143
770.139	0.0153379
770.217	0.0154749
770.295	0.0151510
770.373	0.0152596
770.451	0.0154640
770.530	0.0153448
770.608	0.0156028
770.686	0.0154148
770.764	0.0154224
770.842	0.0154773
770.920	0.0153014
770.998	0.0154033
771.076	0.0153427
771.155	0.0152427
771.233	0.0152794
771.311	0.0153279
771.389	0.0153263
771.467	0.0153794
771.545	0.0151929
771.623	0.0150481
771.701	0.0151198
771.780	0.0151547
771.858	0.0151926
771.936	0.0152189
772.014	0.0150503
772.092	0.0151234
772.170	0.0150651
772.248	0.0150167
772.326	0.0149783
772.405	0.0150082
772.483	0.0150483
772.561	0.0151141
772.639	0.0150507
772.717	0.0150153
772.795	0.0151069
772.873	0.0149921
772.951	0.0151389
773.030	0.0151273
773.108	0.0151634
773.186	0.0152032
773.264	0.0150890
773.342	0.0150439
773.420	0.0151013
773.498	0.0152480
773.576	0.0151869
773.655	0.0152094
773.733	0.0152054
773.811	0.0151693
773.889	0.0152412
773.967	0.0151812
774.045	0.0152303
774.123	0.0152445
774.201	0.0154166
774.280	0.0152710
774.358	0.0151173
774.436	0.0152724
774.514	0.0153369
774.592	0.0152703
774.670	0.0153116
774.748	0.0152606
774.826	0.0152786
774.905	0.0152825
774.983	0.0153585
775.061	0.0152666
775.139	0.0152283
775.217	0.0151688
775.295	0.0152074
775.373	0.0151864
775.451	0.0150502
775.530	0.0151192
775.608	0.0149460
775.686	0.0150367
775.764	0.0149950
775.842	0.0150783
775.920	0.0150189
775.998	0.0148535
776.076	0.0150019
776.155	0.0150654
776.233	0.0149720
776.311	0.0150125
776.389	0.0150224
776.467	0.0151826
776.545	0.0150320
776.623	0.0149815
776.701	0.0150174
776.780	0.0150706
776.858	0.0149045
776.936	0.0149097
777.014	0.0150525
777.092	0.0148595
777.170	0.0147948
777.248	0.0150697
777.326	0.0150123
777.405	0.0150848
777.483	0.0150940
777.561	0.0149171
777.639	0.0150130
777.717	0.0150994
777.795	0.0149075
777.873	0.0150407
777.951	0.0150718
778.030	0.0150005
778.108	0.0150864
778.186	0.0150481
778.264	0.0148925
778.342	0.0150565
778.420	0.0149937
778.498	0.0150990
778.576	0.0150272
778.655	0.0149726
778.733	0.0150413
778.811	0.0149043
778.889	0.0150946
778.967	0.0150886
779.045	0.0150751
779.123	0.0152277
779.201	0.0151611
779.280	0.0152628
779.358	0.0152331
779.436	0.0151181
779.514	0.0150893
779.592	0.0151833
779.670	0.0150983
779.748	0.0151488
779.826	0.0151083
779.905	0.0150449
779.983	0.0149635
780.061	0.0150241
780.139	0.0150130
780.217	0.0151253
780.295	0.0150025
780.373	0.0150069
780.451	0.0151670
780.530	0.0151293
780.608	0.0151073
780.686	0.0149796
780.764	0.0149113
780.842	0.0150138
780.920	0.0149252
780.998	0.0151509
781.076	0.0150399
781.155	0.0150728
781.233	0.0149220
781.311	0.0151050
781.389	0.0150766
781.467	0.0150670
781.545	0.0150717
781.623	0.0150394
781.701	0.0150486
781.780	0.0150688
781.858	0.0150508
781.936	0.0150480
782.014	0.0151933
782.092	0.0151862
782.170	0.0152415
782.248	0.0151366
782.326	0.0152303
782.405	0.0151841
782.483	0.0150407
782.561	0.0151750
782.639	0.0151736
782.717	0.0151842
782.795	0.0152369
782.873	0.0151608
782.951	0.0150347
783.030	0.0150163
783.108	0.0151483
783.186	0.0150265
783.264	0.0148748
783.342	0.0150028
783.420	0.0151991
783.498	0.0150536
783.576	0.0151119
783.655	0.0148726
783.733	0.0149380
783.811	0.0149529
783.889	0.0148151
783.967	0.0148036
784.045	0.0149251
784.123	0.0148914
784.201	0.0147865
784.280	0.0149450
784.358	0.0149471
784.436	0.0147620
784.514	0.0150301
784.592	0.0150250
784.670	0.0149662
784.748	0.0150652
784.826	0.0151660
784.905	0.0151237
784.983	0.0152000
785.061	0.0152087
785.139	0.0153587
785.217	0.0153869
785.295	0.0154200
785.373	0.0152383
785.451	0.0153706
785.530	0.0153898
785.608	0.0154768
785.686	0.0154006
785.764	0.0154667
785.842	0.0154102
785.920	0.0155682
785.998	0.0154170
786.076	0.0155495
786.155	0.0154574
786.233	0.0153878
786.311	0.0154250
786.389	0.0154607
786.467	0.0154232
786.545	0.0153141
786.623	0.0153642
786.701	0.0153776
786.780	0.0154330
786.858	0.0152960
786.936	0.0152458
787.014	0.0151301
787.092	0.0151006
787.170	0.0151360
787.248	0.0150659
787.326	0.0150574
787.405	0.0150197
787.483	0.0150658
787.561	0.0149681
787.639	0.0149350
787.717	0.0149260
787.795	0.0150138
787.873	0.0150252
787.951	0.0149166
788.030	0.0149610
788.108	0.0148765
788.186	0.0149483
788.264	0.0150925
788.342	0.0150510
788.420	0.0150896
788.498	0.0150005
788.576	0.0150864
788.655	0.0150771
788.733	0.0151602
788.811	0.0153616
788.889	0.0153029
788.967	0.0152242
789.045	0.0152927
789.123	0.0152461
789.201	0.0152793
789.280	0.0151365
789.358	0.0154494
789.436	0.0154185
789.514	0.0153524
789.592	0.0153484
789.670	0.0152533
789.748	0.0154064
789.826	0.0154072
789.905	0.0152702
789.983	0.0152443
790.061	0.0152951
790.139	0.0153210
790.217	0.0153256
790.295	0.0152692
790.373	0.0152405
790.451	0.0151322
790.530	0.0152415
790.608	0.0152355
790.686	0.0152351
790.764	0.0150902
790.842	0.0151289
790.920	0.0152346
790.998	0.0149863
791.076	0.0149816
791.155	0.0150785
791.233	0.0150580
791.311	0.0149728
791.389	0.0149914
791.467	0.0150658
791.545	0.0149515
791.623	0.0149818
791.701	0.0150649
791.780	0.0149305
791.858	0.0151122
791.936	0.0150299
792.014	0.0151223
792.092	0.0151584
792.170	0.0150917
792.248	0.0149229
792.326	0.0149902
792.405	0.0150541
792.483	0.0150705
792.561	0.0151766
792.639	0.0151393
792.717	0.0152139
792.795	0.0150564
792.873	0.0151845
792.951	0.0151492
793.030	0.0152987
793.108	0.0151543
793.186	0.0152151
793.264	0.0151472
793.342	0.0151267
793.420	0.0151109
793.498	0.0150592
793.576	0.0150162
793.655	0.0151453
793.733	0.0150817
793.811	0.0149837
793.889	0.0149626
793.967	0.0148557
794.045	0.0149954
794.123	0.0149758
794.201	0.0149460
794.280	0.0149155
794.358	0.0149316
794.436	0.0148870
794.514	0.0149545
794.592	0.0149511
794.670	0.0149635
794.748	0.0150533
794.826	0.0150311
794.905	0.0148872
794.983	0.0149641
795.061	0.0149310
795.139	0.0150347
795.217	0.0149879
795.295	0.0150778
795.373	0.0150208
795.451	0.0149779
795.530	0.0149902
795.608	0.0150193
795.686	0.0149425
795.764	0.0150683
795.842	0.0151391
795.920	0.0150716
795.998	0.0149283
796.076	0.0149377
796.155	0.0149748
796.233	0.0149852
796.311	0.0149638
796.389	0.0150559
796.467	0.0150234
796.545	0.0151381
796.623	0.0150760
796.701	0.0149641
796.780	0.0150589
796.858	0.0150127
796.936	0.0149975
797.014	0.0149995
797.092	0.0150237
797.170	0.0149625
797.248	0.0149674
797.326	0.0150264
797.405	0.0149755
797.483	0.0148933
797.561	0.0149208
797.639	0.0148768
797.717	0.0150140
797.795	0.0152084
797.873	0.0150985
797.951	0.0151159
798.030	0.0150237
798.108	0.0149478
798.186	0.0151617
798.264	0.0150612
798.342	0.0150279
798.420	0.0149199
798.498	0.0149537
798.576	0.0150674
798.655	0.0149845
798.733	0.0150966
798.811	0.0151171
798.889	0.0149154
798.967	0.0150811
799.045	0.0149998
799.123	0.0149165
799.201	0.0150092
799.280	0.0149283
799.358	0.0150120
799.436	0.0149324
799.514	0.0149757
799.592	0.0150962
799.670	0.0149814
799.748	0.0149933
799.826	0.0149401
799.905	0.0150783
799.983	0.0150983
800.061	0.0150314
800.139	0.0150024
800.217	0.0149004
800.295	0.0148926
800.373	0.0151192
800.451	0.0151787
800.530	0.0150101
800.608	0.0151002
800.686	0.0150430
800.764	0.0150935
800.842	0.0151918
800.920	0.0151270
800.998	0.0150249
801.076	0.0150472
801.155	0.0150758
801.233	0.0151012
801.311	0.0151560
801.389	0.0150905
801.467	0.0151389
801.545	0.0151413
801.623	0.0150391
801.701	0.0150486
801.780	0.0150199
801.858	0.0151856
801.936	0.0150291
802.014	0.0148965
802.092	0.0150115
802.170	0.0151703
802.248	0.0151212
802.326	0.0149356
802.405	0.0151030
802.483	0.0149927
802.561	0.0151261
802.639	0.0150402
802.717	0.0151881
802.795	0.0152122
802.873	0.0151023
802.951	0.0152580
803.030	0.0151621
803.108	0.0151912
803.186	0.0152368
803.264	0.0153333
803.342	0.0154031
803.420	0.0151869
803.498	0.0152080
803.576	0.0154583
803.655	0.0153384
803.733	0.0152094
803.811	0.0153629
803.889	0.0153481
803.967	0.0153685
804.045	0.0154485
804.123	0.0153072
804.201	0.0152352
804.280	0.0153249
804.358	0.0152562
804.436	0.0152057
804.514	0.0153367
804.592	0.0152344
804.670	0.0152071
804.748	0.0151612
804.826	0.0152088
804.905	0.0152937
804.983	0.0152462
805.061	0.0151255
805.139	0.0150846
805.217	0.0149876
805.295	0.0150073
805.373	0.0150541
805.451	0.0150457
805.530	0.0151518
805.608	0.0150645
805.686	0.0148651
805.764	0.0149091
805.842	0.0150528
805.920	0.0151454
805.998	0.0149826
806.076	0.0149364
806.155	0.0149654
806.233	0.0150860
806.311	0.0150197
806.389	0.0150279
806.467	0.0151189
806.545	0.0151500
806.623	0.0151996
806.701	0.0152079
806.780	0.0150830
806.858	0.0151963
806.936	0.0150903
807.014	0.0149285
807.092	0.0149883
807.170	0.0150207
807.248	0.0150028
807.326	0.0149953
807.405	0.0151430
807.483	0.0150974
807.561	0.0150729
807.639	0.0150592
807.717	0.0152130
807.795	0.0151749
807.873	0.0151019
807.951	0.0151189
808.030	0.0151485
808.108	0.0150662
808.186	0.0152828
808.264	0.0151604
808.342	0.0150668
808.420	0.0152325
808.498	0.0151634
808.576	0.0151584
808.655	0.0153519
808.733	0.0151843
808.811	0.0151639
808.889	0.0151262
808.967	0.0152000
809.045	0.0151483
809.123	0.0152066
809.201	0.0151153
809.280	0.0149802
809.358	0.0149615
809.436	0.0151138
809.514	0.0149883
809.592	0.0149491
809.670	0.0150018
809.748	0.0148640
809.826	0.0149222
809.905	0.0149928
809.983	0.0148927
810.061	0.0149052
810.139	0.0149287
810.217	0.0148797
810.295	0.0148579
810.373	0.0148988
810.451	0.0148255
810.530	0.0148753
810.608	0.0147089
810.686	0.0147764
810.764	0.0149051
810.842	0.0148003
810.920	0.0147717
810.998	0.0147945
811.076	0.0149229
811.155	0.0149177
811.233	0.0150135
811.311	0.0150291
811.389	0.0149992
811.467	0.0149219
811.545	0.0150338
811.623	0.0151735
811.701	0.0150130
811.780	0.0150294
811.858	0.0151595
811.936	0.0151064
812.014	0.0150856
812.092	0.0150443
812.170	0.0150355
812.248	0.0149994
812.326	0.0149516
812.405	0.0150362
812.483	0.0149811
812.561	0.0149538
812.639	0.0149294
812.717	0.0149533
812.795	0.0149896
812.873	0.0149258
812.951	0.0149123
813.030	0.0149560
813.108	0.0149281
813.186	0.0148997
813.264	0.0150830
813.342	0.0150562
813.420	0.0149849
813.498	0.0150450
813.576	0.0149670
813.655	0.0150189
813.733	0.0150191
813.811	0.0151200
813.889	0.0149724
813.967	0.0150350
814.045	0.0149116
814.123	0.0151035
814.201	0.0150784
814.280	0.0150085
814.358	0.0150247
814.436	0.0150790
814.514	0.0150294
814.592	0.0150350
814.670	0.0151649
814.748	0.0150771
814.826	0.0150894
814.905	0.0150034
814.983	0.0150410
815.061	0.0151688
815.139	0.0151945
815.217	0.0149935
815.295	0.0150896
815.373	0.0152037
815.451	0.0150393
815.530	0.0149970
815.608	0.0150749
815.686	0.0151829
815.764	0.0148798
815.842	0.0151289
815.920	0.0150060
815.998	0.0151099
816.076	0.0151459
816.155	0.0150665
816.233	0.0153112
816.311	0.0152134
816.389	0.0152232
816.467	0.0153059
816.545	0.0151494
816.623	0.0151995
816.701	0.0153062
816.780	0.0153687
816.858	0.0151376
816.936	0.0152480
817.014	0.0152133
817.092	0.0150980
817.170	0.0151942
817.248	0.0154254
817.326	0.0150993
817.405	0.0150563
817.483	0.0151897
817.561	0.0151048
817.639	0.0149815
817.717	0.0151862
817.795	0.0149628
817.873	0.0149559
817.951	0.0150644
818.030	0.0149562
818.108	0.0148897
818.186	0.0149223
818.264	0.0149186
818.342	0.0149792
818.420	0.0150221
818.498	0.0149258
818.576	0.0149992
818.655	0.0149358
818.733	0.0147888
818.811	0.0150208
818.889	0.0150594
818.967	0.0149215
819.045	0.0148842
819.123	0.0149318
819.201	0.0149432
819.280	0.0149366
819.358	0.0150410
819.436	0.0150628
819.514	0.0149593
819.592	0.0150639
819.670	0.0151246
819.748	0.0151087
819.826	0.0150782
819.905	0.0150598
819.983	0.0151156
820.061	0.0150667
820.139	0.0152082
820.217	0.0149970
820.295	0.0151527
820.373	0.0151353
820.451	0.0150253
820.530	0.0152023
820.608	0.0150837
820.686	0.0151972
820.764	0.0152940
820.842	0.0151599
820.920	0.0149940
820.998	0.0150692
821.076	0.0150056
821.155	0.0149942
821.233	0.0151542
821.311	0.0151021
821.389	0.0150227
821.467	0.0149596
821.545	0.0150049
821.623	0.0149957
821.701	0.0149297
821.780	0.0151817
821.858	0.0150925
821.936	0.0150553
822.014	0.0149964
822.092	0.0150405
822.170	0.0148888
822.248	0.0148950
822.326	0.0149930
822.405	0.0151096
822.483	0.0149575
822.561	0.0150192
822.639	0.0150731
822.717	0.0149960
822.795	0.0149665
822.873	0.0150246
822.951	0.0150302
823.030	0.0150595
823.108	0.0151376
823.186	0.0150989
823.264	0.0151023
823.342	0.0149013
823.420	0.0150220
823.498	0.0150928
823.576	0.0151556
823.655	0.0149271
823.733	0.0150153
823.811	0.0149970
823.889	0.0148885
823.967	0.0148975
824.045	0.0148746
824.123	0.0148788
824.201	0.0148935
824.280	0.0149229
824.358	0.0148394
824.436	0.0149161
824.514	0.0150922
824.592	0.0149481
824.670	0.0148452
824.748	0.0150635
824.826	0.0149431
824.905	0.0150052
824.983	0.0150657
825.061	0.0149857
825.139	0.0149902
825.217	0.0150229
825.295	0.0150578
825.373	0.0149749
825.451	0.0150051
825.530	0.0150906
825.608	0.0150235
825.686	0.0151575
825.764	0.0149699
825.842	0.0151220
825.920	0.0150156
825.998	0.0150552
826.076	0.0150189
826.155	0.0149305
826.233	0.0148428
826.311	0.0149819
826.389	0.0149721
826.467	0.0149879
826.545	0.0149378
826.623	0.0149612
826.701	0.0148589
826.780	0.0148629
826.858	0.0148385
826.936	0.0149854
827.014	0.0148322
827.092	0.0149116
827.170	0.0151028
827.248	0.0149842
827.326	0.0150713
827.405	0.0151514
827.483	0.0150468
827.561	0.0150092
827.639	0.0152126
827.717	0.0149864
827.795	0.0150475
827.873	0.0150729
827.951	0.0151949
828.030	0.0152162
828.108	0.0151720
828.186	0.0152122
828.264	0.0151944
828.342	0.0150179
828.420	0.0151297
828.498	0.0152368
828.576	0.0152516
828.655	0.0151776
828.733	0.0153291
828.811	0.0151720
828.889	0.0151874
828.967	0.0151176
829.045	0.0151731
829.123	0.0150989
829.201	0.0151517
829.280	0.0151400
829.358	0.0151061
829.436	0.0150709
829.514	0.0151105
829.592	0.0150462
829.670	0.0150954
829.748	0.0151485
829.826	0.0152042
829.905	0.0152335
829.983	0.0150673
830.061	0.0151337
830.139	0.0151231
830.217	0.0152431
830.295	0.0152088
830.373	0.0149812
830.451	0.0150989
830.530	0.0150951
830.608	0.0150736
830.686	0.0150777
830.764	0.0151922
830.842	0.0151720
830.920	0.0153038
830.998	0.0150838
831.076	0.0151717
831.155	0.0152098
831.233	0.0151693
831.311	0.0152162
831.389	0.0152069
831.467	0.0151648
831.545	0.0151350
831.623	0.0152524
831.701	0.0151698
831.780	0.0151650
831.858	0.0151349
831.936	0.0152575
832.014	0.0152195
832.092	0.0150815
832.170	0.0151666
832.248	0.0151619
832.326	0.0150198
832.405	0.0150632
832.483	0.0152122
832.561	0.0152482
832.639	0.0151501
832.717	0.0150958
832.795	0.0151681
832.873	0.0150758
832.951	0.0151088
833.030	0.0151247
833.108	0.0150616
833.186	0.0150890
833.264	0.0149025
833.342	0.0151077
833.420	0.0151066
833.498	0.0150905
833.576	0.0152509
833.655	0.0150753
833.733	0.0150416
833.811	0.0151366
833.889	0.0152190
833.967	0.0151167
834.045	0.0151395
834.123	0.0151717
834.201	0.0151718
834.280	0.0152402
834.358	0.0150957
834.436	0.0152151
834.514	0.0153175
834.592	0.0150523
834.670	0.0150949
834.748	0.0151835
834.826	0.0151128
834.905	0.0150836
834.983	0.0150671
835.061	0.0151799
835.139	0.0151797
835.217	0.0150027
835.295	0.0151263
835.373	0.0152035
835.451	0.0152853
835.530	0.0151521
835.608	0.0152579
835.686	0.0152131
835.764	0.0152656
835.842	0.0150406
835.920	0.0152290
835.998	0.0152013
836.076	0.0151894
836.155	0.0152053
836.233	0.0153220
836.311	0.0152802
836.389	0.0151102
836.467	0.0152476
836.545	0.0152826
836.623	0.0152964
836.701	0.0151546
836.780	0.0151231
836.858	0.0152289
836.936	0.0151070
837.014	0.0152110
837.092	0.0152693
837.170	0.0151383
837.248	0.0151398
837.326	0.0150851
837.405	0.0151181
837.483	0.0152786
837.561	0.0151144
837.639	0.0151740
837.717	0.0150523
837.795	0.0150179
837.873	0.0150737
837.951	0.0150863
838.030	0.0149699
838.108	0.0150099
838.186	0.0148887
838.264	0.0151070
838.342	0.0149906
838.420	0.0150331
838.498	0.0151241
838.576	0.0151127
838.655	0.0150220
838.733	0.0150919
838.811	0.0152062
838.889	0.0150907
838.967	0.0151272
839.045	0.0151665
839.123	0.0151880
839.201	0.0152883
839.280	0.0151221
839.358	0.0150906
839.436	0.0150884
839.514	0.0151595
839.592	0.0150990
839.670	0.0151426
839.748	0.0149797
839.826	0.0151127
839.905	0.0152851
839.983	0.0151919
840.061	0.0148944
840.139	0.0151456
840.217	0.0153242
840.295	0.0151852
840.373	0.0149650
840.451	0.0151631
840.530	0.0151215
840.608	0.0150970
840.686	0.0150450
840.764	0.0150978
840.842	0.0152829
840.920	0.0150769
840.998	0.0150438
841.076	0.0151259
841.155	0.0150867
841.233	0.0149821
841.311	0.0149748
841.389	0.0151182
841.467	0.0151102
841.545	0.0151212
841.623	0.0152003
841.701	0.0152121
841.780	0.0150216
841.858	0.0150246
841.936	0.0150793
842.014	0.0151707
842.092	0.0151244
842.170	0.0150481
842.248	0.0150291
842.326	0.0151076
842.405	0.0151804
842.483	0.0150589
842.561	0.0150742
842.639	0.0150937
842.717	0.0151191
842.795	0.0151733
842.873	0.0151839
842.951	0.0150848
843.030	0.0153041
843.108	0.0150810
843.186	0.0150872
843.264	0.0152449
843.342	0.0151275
843.420	0.0152019
843.498	0.0152470
843.576	0.0151212
843.655	0.0152129
843.733	0.0152705
843.811	0.0152430
843.889	0.0153079
843.967	0.0152383
844.045	0.0151507
844.123	0.0152903
844.201	0.0151270
844.280	0.0151881
844.358	0.0150183
844.436	0.0152412
844.514	0.0152003
844.592	0.0151900
844.670	0.0153028
844.748	0.0152945
844.826	0.0152602
844.905	0.0153173
844.983	0.0153247
845.061	0.0152095
845.139	0.0152744
845.217	0.0152261
845.295	0.0151518
845.373	0.0151877
845.451	0.0153553
845.530	0.0152145
845.608	0.0152694
845.686	0.0151382
845.764	0.0152148
845.842	0.0152954
845.920	0.0152220
845.998	0.0151447
846.076	0.0152269
846.155	0.0152254
846.233	0.0152041
846.311	0.0152827
846.389	0.0151891
846.467	0.0150906
846.545	0.0151397
846.623	0.0150970
846.701	0.0152211
846.780	0.0151302
846.858	0.0151175
846.936	0.0150950
847.014	0.0151630
847.092	0.0150816
847.170	0.0150964
847.248	0.0150570
847.326	0.0150498
847.405	0.0149935
847.483	0.0149918
847.561	0.0151514
847.639	0.0151723
847.717	0.0149689
847.795	0.0149938
847.873	0.0150752
847.951	0.0149694
848.030	0.0148222
848.108	0.0149535
848.186	0.0149066
848.264	0.0149878
848.342	0.0149229
848.420	0.0148714
848.498	0.0149485
848.576	0.0148824
848.655	0.0149297
848.733	0.0149077
848.811	0.0148979
848.889	0.0148764
848.967	0.0149135
849.045	0.0148417
849.123	0.0148418
849.201	0.0148974
849.280	0.0149197
849.358	0.0149205
849.436	0.0149049
849.514	0.0148911
849.592	0.0148660
849.670	0.0149212
849.748	0.0150272
849.826	0.0150217
849.905	0.0149770
849.983	0.0150353
850.061	0.0150283
850.139	0.0149387
850.217	0.0151742
850.295	0.0150088
850.373	0.0150365
850.451	0.0150240
850.530	0.0150125
850.608	0.0150906
850.686	0.0150085
850.764	0.0149705
850.842	0.0150578
850.920	0.0149879
850.998	0.0150967
851.076	0.0151218
851.155	0.0150416
851.233	0.0149774
851.311	0.0152092
851.389	0.0150855
851.467	0.0151210
851.545	0.0151069
851.623	0.0150502
851.701	0.0151598
851.780	0.0151469
851.858	0.0150822
851.936	0.0152814
852.014	0.0152039
852.092	0.0151807
852.170	0.0151997
852.248	0.0151475
852.326	0.0150832
852.405	0.0151225
852.483	0.0151482
852.561	0.0150692
852.639	0.0149950
852.717	0.0151270
852.795	0.0150978
852.873	0.0150433
852.951	0.0150889
853.030	0.0151054
853.108	0.0151801
853.186	0.0152275
853.264	0.0150491
853.342	0.0152078
853.420	0.0152162
853.498	0.0152151
853.576	0.0152056
853.655	0.0151554
853.733	0.0151820
853.811	0.0150989
853.889	0.0151147
853.967	0.0151688
854.045	0.0151821
854.123	0.0151826
854.201	0.0152306
854.280	0.0151250
854.358	0.0152090
854.436	0.0152625
854.514	0.0151768
854.592	0.0151860
854.670	0.0151183
854.748	0.0151684
854.826	0.0151808
854.905	0.0150433
854.983	0.0151335
855.061	0.0150682
855.139	0.0149949
855.217	0.0149092
855.295	0.0148912
855.373	0.0150238
855.451	0.0149494
855.530	0.0149780
855.608	0.0149193
855.686	0.0149673
855.764	0.0149676
855.842	0.0150514
855.920	0.0150513
855.998	0.0151121
856.076	0.0151067
856.155	0.0150676
856.233	0.0150305
856.311	0.0150559
856.389	0.0149944
856.467	0.0151098
856.545	0.0151038
856.623	0.0150500
856.701	0.0149684
856.780	0.0150619
856.858	0.0150912
856.936	0.0150465
857.014	0.0149679
857.092	0.0152598
857.170	0.0150986
857.248	0.0150618
857.326	0.0150666
857.405	0.0151591
857.483	0.0150446
857.561	0.0151034
857.639	0.0150951
857.717	0.0150695
857.795	0.0149521
857.873	0.0149685
857.951	0.0150100
858.030	0.0149566
858.108	0.0150714
858.186	0.0151836
858.264	0.0150450
858.342	0.0149635
858.420	0.0150427
858.498	0.0151434
858.576	0.0151862
858.655	0.0151152
858.733	0.0148864
858.811	0.0150330
858.889	0.0151128
858.967	0.0150790
859.045	0.0150220
859.123	0.0150529
859.201	0.0151872
859.280	0.0150439
859.358	0.0150665
859.436	0.0151799
859.514	0.0151008
859.592	0.0151851
859.670	0.0151514
859.748	0.0150682
859.826	0.0150021
859.905	0.0151175
859.983	0.0150813
860.061	0.0151044
860.139	0.0150068
860.217	0.0151486
860.295	0.0150208
860.373	0.0152135
860.451	0.0150340
860.530	0.0150155
860.608	0.0149821
860.686	0.0152256
860.764	0.0152115
860.842	0.0151281
860.920	0.0150664
860.998	0.0152374
861.076	0.0150285
861.155	0.0151713
861.233	0.0152396
861.311	0.0152964
861.389	0.0152007
861.467	0.0150814
861.545	0.0151130
861.623	0.0153756
861.701	0.0152534
861.780	0.0153086
861.858	0.0153300
861.936	0.0153230
862.014	0.0152719
862.092	0.0151968
862.170	0.0152507
862.248	0.0154102
862.326	0.0151732
862.405	0.0151840
862.483	0.0153415
862.561	0.0152269
862.639	0.0152505
862.717	0.0153168
862.795	0.0154372
862.873	0.0154062
862.951	0.0152191
863.030	0.0151768
863.108	0.0152843
863.186	0.0152666
863.264	0.0151710
863.342	0.0151868
863.420	0.0151635
863.498	0.0151842
863.576	0.0151920
863.655	0.0152634
863.733	0.0152051
863.811	0.0150689
863.889	0.0151453
863.967	0.0150818
864.045	0.0150629
864.123	0.0151738
864.201	0.0150777
864.280	0.0150523
864.358	0.0151762
864.436	0.0151817
864.514	0.0151864
864.592	0.0151852
864.670	0.0151331
864.748	0.0151764
864.826	0.0152007
864.905	0.0152061
864.983	0.0153877
865.061	0.0151830
865.139	0.0153448
865.217	0.0151750
865.295	0.0153311
865.373	0.0151236
865.451	0.0152346
865.530	0.0152978
865.608	0.0152837
865.686	0.0153406
865.764	0.0152361
865.842	0.0152333
865.920	0.0152495
865.998	0.0151735
866.076	0.0151357
866.155	0.0151737
866.233	0.0151565
866.311	0.0151515
866.389	0.0151872
866.467	0.0152012
866.545	0.0152150
866.623	0.0152276
866.701	0.0152206
866.780	0.0151666
866.858	0.0151421
866.936	0.0153235
867.014	0.0151601
867.092	0.0151173
867.170	0.0152536
867.248	0.0152083
867.326	0.0150879
867.405	0.0150557
867.483	0.0150902
867.561	0.0150618
867.639	0.0152468
867.717	0.0151723
867.795	0.0149680
867.873	0.0151957
867.951	0.0151609
868.030	0.0152055
868.108	0.0151505
868.186	0.0151973
868.264	0.0150349
868.342	0.0149817
868.420	0.0151508
868.498	0.0150319
868.576	0.0151817
868.655	0.0151220
868.733	0.0149887
868.811	0.0150275
868.889	0.0149660
868.967	0.0151267
869.045	0.0151302
869.123	0.0150198
869.201	0.0150350
869.280	0.0150777
869.358	0.0150980
869.436	0.0150077
869.514	0.0152090
869.592	0.0152119
869.670	0.0151445
869.748	0.0150320
869.826	0.0152382
869.905	0.0150779
869.983	0.0149997
870.061	0.0151547
870.139	0.0151093
870.217	0.0152502
870.295	0.0152563
870.373	0.0152343
870.451	0.0152137
870.530	0.0151896
870.608	0.0151549
870.686	0.0152302
870.764	0.0152808
870.842	0.0153085
870.920	0.0152435
870.998	0.0151897
871.076	0.0152650
871.155	0.0150716
871.233	0.0152032
871.311	0.0151881
871.389	0.0151543
871.467	0.0151006
871.545	0.0150413
871.623	0.0151141
871.701	0.0150917
871.780	0.0153103
871.858	0.0152026
871.936	0.0150561
872.014	0.0151598
872.092	0.0151385
872.170	0.0151450
872.248	0.0151858
872.326	0.0151898
872.405	0.0150341
872.483	0.0150996
872.561	0.0150861
872.639	0.0152403
872.717	0.0150233
872.795	0.0149773
872.873	0.0150992
872.951	0.0151783
873.030	0.0150320
873.108	0.0152395
873.186	0.0150130
873.264	0.0150536
873.342	0.0151628
873.420	0.0151865
873.498	0.0150718
873.576	0.0151350
873.655	0.0150921
873.733	0.0150579
873.811	0.0150700
873.889	0.0149964
873.967	0.0150507
874.045	0.0150482
874.123	0.0150478
874.201	0.0150375
874.280	0.0150537
874.358	0.0151814
874.436	0.0149953
874.514	0.0149635
874.592	0.0149923
874.670	0.0150448
874.748	0.0148065
874.826	0.0151189
874.905	0.0149565
874.983	0.0149848
875.061	0.0150562
875.139	0.0150353
875.217	0.0149670
875.295	0.0150942
875.373	0.0150550
875.451	0.0150669
875.530	0.0150841
875.608	0.0151077
875.686	0.0149979
875.764	0.0150098
875.842	0.0151060
875.920	0.0150456
875.998	0.0150116
876.076	0.0148911
876.155	0.0149918
876.233	0.0149830
876.311	0.0150620
876.389	0.0150478
876.467	0.0150066
876.545	0.0149512
876.623	0.0149640
876.701	0.0149607
876.780	0.0149451
876.858	0.0149895
876.936	0.0149709
877.014	0.0150561
877.092	0.0150499
877.170	0.0149514
877.248	0.0149251
877.326	0.0149992
877.405	0.0150815
877.483	0.0150595
877.561	0.0151263
877.639	0.0150246
877.717	0.0148910
877.795	0.0148604
877.873	0.0151027
877.951	0.0150465
878.030	0.0149836
878.108	0.0149701
878.186	0.0149429
878.264	0.0150242
878.342	0.0150651
878.420	0.0150500
878.498	0.0149850
878.576	0.0150048
878.655	0.0148930
878.733	0.0149771
878.811	0.0150677
878.889	0.0151527
878.967	0.0149255
879.045	0.0150354
879.123	0.0150570
879.201	0.0150746
879.280	0.0149800
879.358	0.0151424
879.436	0.0150807
879.514	0.0150710
879.592	0.0151955
879.670	0.0150880
879.748	0.0151099
879.826	0.0150599
879.905	0.0151097
879.983	0.0151175
880.061	0.0149419
880.139	0.0150817
880.217	0.0149628
880.295	0.0150903
880.373	0.0151125
880.451	0.0150851
880.530	0.0150505
880.608	0.0150144
880.686	0.0149855
880.764	0.0150663
880.842	0.0151454
880.920	0.0150236
880.998	0.0150752
881.076	0.0150111
881.155	0.0150045
881.233	0.0151245
881.311	0.0150706
881.389	0.0149129
881.467	0.0150317
881.545	0.0150555
881.623	0.0149879
881.701	0.0150582
881.780	0.0149123
881.858	0.0150172
881.936	0.0149834
882.014	0.0150214
882.092	0.0150607
882.170	0.0149051
882.248	0.0149875
882.326	0.0151376
882.405	0.0150916
882.483	0.0150050
882.561	0.0148837
882.639	0.0149104
882.717	0.0150060
882.795	0.0150615
882.873	0.0150696
882.951	0.0150381
883.030	0.0152097
883.108	0.0150351
883.186	0.0151840
883.264	0.0152606
883.342	0.0151541
883.420	0.0152225
883.498	0.0152024
883.576	0.0151080
883.655	0.0151427
883.733	0.0152798
883.811	0.0152893
883.889	0.0151581
883.967	0.0150476
884.045	0.0150782
884.123	0.0152773
884.201	0.0151566
884.280	0.0150688
884.358	0.0151103
884.436	0.0152316
884.514	0.0151704
884.592	0.0152003
884.670	0.0152520
884.748	0.0151541
884.826	0.0153161
884.905	0.0152249
884.983	0.0151986
885.061	0.0151051
885.139	0.0153036
885.217	0.0152211
885.295	0.0151328
885.373	0.0151904
885.451	0.0151728
885.530	0.0151405
885.608	0.0151711
885.686	0.0152425
885.764	0.0152350
885.842	0.0151656
885.920	0.0151892
885.998	0.0152351
886.076	0.0151507
886.155	0.0152559
886.233	0.0153094
886.311	0.0150880
886.389	0.0152398
886.467	0.0152967
886.545	0.0152353
886.623	0.0153499
886.701	0.0151756
886.780	0.0153061
886.858	0.0153274
886.936	0.0152561
887.014	0.0152448
887.092	0.0153852
887.170	0.0153673
887.248	0.0153838
887.326	0.0153716
887.405	0.0154307
887.483	0.0155665
887.561	0.0154312
887.639	0.0154523
887.717	0.0155534
887.795	0.0155805
887.873	0.0153849
887.951	0.0153475
888.030	0.0153531
888.108	0.0153415
888.186	0.0153992
888.264	0.0154711
888.342	0.0153351
888.420	0.0154570
888.498	0.0154171
888.576	0.0152682
888.655	0.0152914
888.733	0.0152702
888.811	0.0153088
888.889	0.0153101
888.967	0.0152457
889.045	0.0152634
889.123	0.0151585
889.201	0.0152101
889.280	0.0151818
889.358	0.0152309
889.436	0.0151324
889.514	0.0152202
889.592	0.0152221
889.670	0.0151840
889.748	0.0150921
889.826	0.0152619
889.905	0.0151774
889.983	0.0152571
890.061	0.0151639
890.139	0.0152357
890.217	0.0152772
890.295	0.0152529
890.373	0.0152637
890.451	0.0152362
890.530	0.0151560
890.608	0.0152657
890.686	0.0152960
890.764	0.0152238
890.842	0.0152553
890.920	0.0152438
890.998	0.0152719
891.076	0.0151976
891.155	0.0152417
891.233	0.0154249
891.311	0.0152837
891.389	0.0152345
891.467	0.0153420
891.545	0.0152583
891.623	0.0152931
891.701	0.0152158
891.780	0.0151817
891.858	0.0152168
891.936	0.0152491
892.014	0.0152811
892.092	0.0151718
892.170	0.0152616
892.248	0.0151053
892.326	0.0151512
892.405	0.0149836
892.483	0.0151310
892.561	0.0151925
892.639	0.0151945
892.717	0.0151234
892.795	0.0152105
892.873	0.0151525
892.951	0.0151311
893.030	0.0151765
893.108	0.0151051
893.186	0.0150189
893.264	0.0151270
893.342	0.0150368
893.420	0.0151842
893.498	0.0151357
893.576	0.0152003
893.655	0.0151637
893.733	0.0152297
893.811	0.0152200
893.889	0.0153102
893.967	0.0151974
894.045	0.0151827
894.123	0.0152561
894.201	0.0153001
894.280	0.0151578
894.358	0.0152039
894.436	0.0152664
894.514	0.0151815
894.592	0.0152347
894.670	0.0153152
894.748	0.0152513
894.826	0.0152164
894.905	0.0152293
894.983	0.0151351
895.061	0.0152316
895.139	0.0152095
895.217	0.0150737
895.295	0.0150832
895.373	0.0150945
895.451	0.0151933
895.530	0.0151057
895.608	0.0150984
895.686	0.0151264
895.764	0.0150955
895.842	0.0151074
895.920	0.0151057
895.998	0.0151331
896.076	0.0152040
896.155	0.0150266
896.233	0.0150997
896.311	0.0150336
896.389	0.0151003
896.467	0.0151377
896.545	0.0151811
896.623	0.0150959
896.701	0.0150368
896.780	0.0150711
896.858	0.0150033
896.936	0.0151012
897.014	0.0151185
897.092	0.0151073
897.170	0.0151025
897.248	0.0150479
897.326	0.0150533
897.405	0.0151841
897.483	0.0149005
897.561	0.0151713
897.639	0.0149551
897.717	0.0150018
897.795	0.0150851
897.873	0.0151350
897.951	0.0150006
898.030	0.0149915
898.108	0.0150903
898.186	0.0152203
898.264	0.0151673
898.342	0.0150772
898.420	0.0150249
898.498	0.0152016
898.576	0.0151289
898.655	0.0151495
898.733	0.0150744
898.811	0.0150195
898.889	0.0150315
898.967	0.0149803
899.045	0.0150771
899.123	0.0151321
899.201	0.0151897
899.280	0.0150986
899.358	0.0151187
899.436	0.0150697
899.514	0.0150086
899.592	0.0150866
899.670	0.0148743
899.748	0.0150228
899.826	0.0150908
899.905	0.0149726
899.983	0.0150610
900.061	0.0149791
900.139	0.0150154
900.217	0.0149736
900.295	0.0149620
900.373	0.0150515
900.451	0.0149899
900.530	0.0150900
900.608	0.0149597
900.686	0.0149784
900.764	0.0148828
900.842	0.0150319
900.920	0.0149109
900.998	0.0150203
901.076	0.0151558
901.155	0.0149914
901.233	0.0149728
901.311	0.0149930
901.389	0.0149891
901.467	0.0149148
901.545	0.0148320
901.623	0.0149155
901.701	0.0150291
901.780	0.0150023
901.858	0.0149921
901.936	0.0149952
902.014	0.0150008
902.092	0.0149284
902.170	0.0150642
902.248	0.0150081
902.326	0.0149876
902.405	0.0148838
902.483	0.0150867
902.561	0.0149957
902.639	0.0149882
902.717	0.0149998
902.795	0.0149561
902.873	0.0150700
902.951	0.0150029
903.030	0.0150399
903.108	0.0150262
903.186	0.0148843
903.264	0.0149483
903.342	0.0149809
903.420	0.0151068
903.498	0.0150088
903.576	0.0149674
903.655	0.0149178
903.733	0.0150268
903.811	0.0151622
903.889	0.0150834
903.967	0.0149070
904.045	0.0149791
904.123	0.0149876
904.201	0.0149801
904.280	0.0150999
904.358	0.0151029
904.436	0.0149702
904.514	0.0150827
904.592	0.0150735
904.670	0.0151244
904.748	0.0151788
904.826	0.0151407
904.905	0.0150047
904.983	0.0151382
905.061	0.0151910
905.139	0.0151659
905.217	0.0152016
905.295	0.0150394
905.373	0.0151645
905.451	0.0151113
905.530	0.0153234
905.608	0.0151759
905.686	0.0152325
905.764	0.0152147
905.842	0.0151223
905.920	0.0150584
905.998	0.0151348
906.076	0.0152027
906.155	0.0151768
906.233	0.0151606
906.311	0.0152121
906.389	0.0151330
906.467	0.0151745
906.545	0.0151418
906.623	0.0151447
906.701	0.0152176
906.780	0.0151748
906.858	0.0151266
906.936	0.0150853
907.014	0.0151280
907.092	0.0150227
907.170	0.0150979
907.248	0.0152100
907.326	0.0151238
907.405	0.0151891
907.483	0.0151286
907.561	0.0150674
907.639	0.0151486
907.717	0.0151750
907.795	0.0152264
907.873	0.0151649
907.951	0.0151177
908.030	0.0150735
908.108	0.0151573
908.186	0.0152277
908.264	0.0152000
908.342	0.0151056
908.420	0.0152650
908.498	0.0153096
908.576	0.0150951
908.655	0.0152447
908.733	0.0152656
908.811	0.0151884
908.889	0.0152189
908.967	0.0151733
909.045	0.0152297
909.123	0.0152225
909.201	0.0152493
909.280	0.0151607
909.358	0.0152232
909.436	0.0153016
909.514	0.0152660
909.592	0.0151342
909.670	0.0150880
909.748	0.0150355
909.826	0.0151269
909.905	0.0150217
909.983	0.0151502
910.061	0.0150960
910.139	0.0150733
910.217	0.0150710
910.295	0.0151051
910.373	0.0151761
910.451	0.0150008
910.530	0.0149590
910.608	0.0150695
910.686	0.0150372
910.764	0.0152078
910.842	0.0150990
910.920	0.0150020
910.998	0.0151356
911.076	0.0150774
911.155	0.0149450
911.233	0.0150322
911.311	0.0150928
911.389	0.0150537
911.467	0.0149693
911.545	0.0151318
911.623	0.0150163
911.701	0.0150343
911.780	0.0149401
911.858	0.0150749
911.936	0.0149877
912.014	0.0149894
912.092	0.0149274
912.170	0.0149134
912.248	0.0150642
912.326	0.0150101
912.405	0.0149985
912.483	0.0150407
912.561	0.0150379
912.639	0.0150282
912.717	0.0150502
912.795	0.0151125
912.873	0.0151308
912.951	0.0150422
913.030	0.0151621
913.108	0.0151665
913.186	0.0151691
913.264	0.0151710
913.342	0.0151919
913.420	0.0151849
913.498	0.0151730
913.576	0.0151660
913.655	0.0152057
913.733	0.0151212
913.811	0.0152688
913.889	0.0151732
913.967	0.0153596
914.045	0.0152941
914.123	0.0151928
914.201	0.0151672
914.280	0.0153714
914.358	0.0152842
914.436	0.0150689
914.514	0.0151760
914.592	0.0153444
914.670	0.0153149
914.748	0.0152124
914.826	0.0154224
914.905	0.0152811
914.983	0.0152342
915.061	0.0152663
915.139	0.0152912
915.217	0.0153202
915.295	0.0154362
915.373	0.0154477
915.451	0.0151347
915.530	0.0153664
915.608	0.0153050
915.686	0.0154090
915.764	0.0153667
915.842	0.0153004
915.920	0.0154427
915.998	0.0152777
916.076	0.0154360
916.155	0.0153468
916.233	0.0152629
916.311	0.0152428
916.389	0.0152573
916.467	0.0153735
916.545	0.0152437
916.623	0.0152069
916.701	0.0153531
916.780	0.0153706
916.858	0.0151550
916.936	0.0151524
917.014	0.0152172
917.092	0.0151881
917.170	0.0151768
917.248	0.0151943
917.326	0.0151311
917.405	0.0152753
917.483	0.0150438
917.561	0.0151933
917.639	0.0151877
917.717	0.0152132
917.795	0.0152164
917.873	0.0151521
917.951	0.0151455
918.030	0.0150022
918.108	0.0151433
918.186	0.0152863
918.264	0.0150652
918.342	0.0152184
918.420	0.0150102
918.498	0.0149492
918.576	0.0151804
918.655	0.0151357
918.733	0.0151373
918.811	0.0153828
918.889	0.0151974
918.967	0.0151831
919.045	0.0152425
919.123	0.0152042
919.201	0.0150018
919.280	0.0152021
919.358	0.0152142
919.436	0.0150612
919.514	0.0152229
919.592	0.0150796
919.670	0.0151440
919.748	0.0151087
919.826	0.0150793
919.905	0.0150650
919.983	0.0152792
920.061	0.0150530
920.139	0.0151249
920.217	0.0151832
920.295	0.0151699
920.373	0.0151194
920.451	0.0152205
920.530	0.0151595
920.608	0.0151154
920.686	0.0152087
920.764	0.0152429
920.842	0.0151060
920.920	0.0150633
920.998	0.0150372
921.076	0.0149632
921.155	0.0150725
921.233	0.0149662
921.311	0.0150269
921.389	0.0150167
921.467	0.0150240
921.545	0.0151434
921.623	0.0149564
921.701	0.0150263
921.780	0.0150414
921.858	0.0147697
921.936	0.0149895
922.014	0.0149560
922.092	0.0149944
922.170	0.0148033
922.248	0.0149375
922.326	0.0149019
922.405	0.0149065
922.483	0.0149922
922.561	0.0149564
922.639	0.0150360
922.717	0.0149076
922.795	0.0148723
922.873	0.0149528
922.951	0.0151399
923.030	0.0150815
923.108	0.0151331
923.186	0.0151138
923.264	0.0151325
923.342	0.0150383
923.420	0.0151524
923.498	0.0151099
923.576	0.0151197
923.655	0.0151907
923.733	0.0150146
923.811	0.0153231
923.889	0.0151584
923.967	0.0152150
924.045	0.0153206
924.123	0.0153823
924.201	0.0152553
924.280	0.0152908
924.358	0.0151019
924.436	0.0149407
924.514	0.0153684
924.592	0.0151814
924.670	0.0152773
924.748	0.0152604
924.826	0.0152190
924.905	0.0152280
924.983	0.0152560
925.061	0.0151855
925.139	0.0150629
925.217	0.0150325
925.295	0.0150022
925.373	0.0150861
925.451	0.0150679
925.530	0.0150279
925.608	0.0148820
925.686	0.0149441
925.764	0.0150304
925.842	0.0149130
925.920	0.0149401
925.998	0.0150608
926.076	0.0150588
926.155	0.0149059
926.233	0.0150125
926.311	0.0149619
926.389	0.0149680
926.467	0.0149700
926.545	0.0149838
926.623	0.0150261
926.701	0.0150174
926.780	0.0149581
926.858	0.0149475
926.936	0.0150266
927.014	0.0150037
927.092	0.0149529
927.170	0.0150243
927.248	0.0149714
927.326	0.0150880
927.405	0.0151258
927.483	0.0149999
927.561	0.0150327
927.639	0.0151284
927.717	0.0150540
927.795	0.0149881
927.873	0.0151340
927.951	0.0150708
928.030	0.0149638
928.108	0.0149039
928.186	0.0150056
928.264	0.0151045
928.342	0.0150891
928.420	0.0149940
928.498	0.0149379
928.576	0.0150843
928.655	0.0149858
928.733	0.0150709
928.811	0.0149570
928.889	0.0149814
928.967	0.0149467
929.045	0.0149870
929.123	0.0150642
929.201	0.0149078
929.280	0.0149065
929.358	0.0148644
929.436	0.0150961
929.514	0.0151350
929.592	0.0151188
929.670	0.0149796
929.748	0.0150000
929.826	0.0151479
929.905	0.0150224
929.983	0.0151471
930.061	0.0152360
930.139	0.0151021
930.217	0.0151847
930.295	0.0151079
930.373	0.0151663
930.451	0.0151730
930.530	0.0151286
930.608	0.0151962
930.686	0.0152601
930.764	0.0152177
930.842	0.0152380
930.920	0.0153569
930.998	0.0153015
931.076	0.0152129
931.155	0.0152513
931.233	0.0152348
931.311	0.0152948
931.389	0.0153297
931.467	0.0151716
931.545	0.0152610
931.623	0.0151898
931.701	0.0152622
931.780	0.0151360
931.858	0.0151897
931.936	0.0152034
932.014	0.0150835
932.092	0.0150782
932.170	0.0150745
932.248	0.0152448
932.326	0.0151788
932.405	0.0150401
932.483	0.0148956
932.561	0.0150082
932.639	0.0150393
932.717	0.0152017
932.795	0.0150588
932.873	0.0150321
932.951	0.0150352
933.030	0.0151226
933.108	0.0150642
933.186	0.0150724
933.264	0.0151144
933.342	0.0153268
933.420	0.0151832
933.498	0.0150467
933.576	0.0150714
933.655	0.0151045
933.733	0.0150657
933.811	0.0149718
933.889	0.0151688
933.967	0.0150931
934.045	0.0149987
934.123	0.0149817
934.201	0.0149998
934.280	0.0151273
934.358	0.0150181
934.436	0.0151221
934.514	0.0148737
934.592	0.0149944
934.670	0.0150049
934.748	0.0150533
934.826	0.0150762
934.905	0.0149699
934.983	0.0149392
935.061	0.0149239
935.139	0.0150317
935.217	0.0149958
935.295	0.0148137
935.373	0.0148956
935.451	0.0149810
935.530	0.0149387
935.608	0.0150980
935.686	0.0148981
935.764	0.0149313
935.842	0.0149729
935.920	0.0150175
935.998	0.0151002
936.076	0.0151218
936.155	0.0152584
936.233	0.0152980
936.311	0.0151481
936.389	0.0152308
936.467	0.0153532
936.545	0.0151601
936.623	0.0151717
936.701	0.0152109
936.780	0.0152339
936.858	0.0151868
936.936	0.0151928
937.014	0.0152252
937.092	0.0153772
937.170	0.0151968
937.248	0.0151402
937.326	0.0151461
937.405	0.0151702
937.483	0.0152290
937.561	0.0151829
937.639	0.0151609
937.717	0.0152328
937.795	0.0151860
937.873	0.0151444
937.951	0.0151776
938.030	0.0152145
938.108	0.0152402
938.186	0.0152266
938.264	0.0151661
938.342	0.0153366
938.420	0.0152024
938.498	0.0152376
938.576	0.0153908
938.655	0.0153273
938.733	0.0153425
938.811	0.0152239
938.889	0.0152667
938.967	0.0151753
939.045	0.0154012
939.123	0.0153082
939.201	0.0152043
939.280	0.0154829
939.358	0.0152955
939.436	0.0151791
939.514	0.0152813
939.592	0.0152588
939.670	0.0152743
939.748	0.0153018
939.826	0.0152672
939.905	0.0151512
939.983	0.0151679
940.061	0.0152799
940.139	0.0151988
940.217	0.0153037
940.295	0.0151762
940.373	0.0153351
940.451	0.0152096
940.530	0.0152000
940.608	0.0151758
940.686	0.0152671
940.764	0.0154103
940.842	0.0152416
940.920	0.0151632
940.998	0.0151209
941.076	0.0152740
941.155	0.0151136
941.233	0.0152170
941.311	0.0152377
941.389	0.0152344
941.467	0.0151340
941.545	0.0153100
941.623	0.0152077
941.701	0.0151170
941.780	0.0151663
941.858	0.0151926
941.936	0.0150776
942.014	0.0150560
942.092	0.0150918
942.170	0.0151590
942.248	0.0152020
942.326	0.0150829
942.405	0.0151965
942.483	0.0150976
942.561	0.0151401
942.639	0.0150721
942.717	0.0151311
942.795	0.0149987
942.873	0.0151121
942.951	0.0150633
943.030	0.0150111
943.108	0.0149555
943.186	0.0150202
943.264	0.0151572
943.342	0.0149803
943.420	0.0149425
943.498	0.0150799
943.576	0.0151286
943.655	0.0150412
943.733	0.0150658
943.811	0.0152043
943.889	0.0150512
943.967	0.0150198
944.045	0.0150476
944.123	0.0150941
944.201	0.0151868
944.280	0.0150946
944.358	0.0152831
944.436	0.0151617
944.514	0.0151457
944.592	0.0151482
944.670	0.0151988
944.748	0.0151731
944.826	0.0150808
944.905	0.0151447
944.983	0.0151256
945.061	0.0151933
945.139	0.0153115
945.217	0.0151011
945.295	0.0150295
945.373	0.0151234
945.451	0.0152333
945.530	0.0152288
945.608	0.0151183
945.686	0.0151682
945.764	0.0152820
945.842	0.0152276
945.920	0.0152039
945.998	0.0151097
946.076	0.0152290
946.155	0.0150654
946.233	0.0151338
946.311	0.0152776
946.389	0.0151707
946.467	0.0150042
946.545	0.0150990
946.623	0.0151272
946.701	0.0151839
946.780	0.0150677
946.858	0.0149782
946.936	0.0150845
947.014	0.0152670
947.092	0.0151016
947.170	0.0151601
947.248	0.0152217
947.326	0.0150092
947.405	0.0151246
947.483	0.0151015
947.561	0.0150717
947.639	0.0150832
947.717	0.0150095
947.795	0.0151216
947.873	0.0152470
947.951	0.0151469
948.030	0.0150127
948.108	0.0150757
948.186	0.0150354
948.264	0.0150474
948.342	0.0151000
948.420	0.0150730
948.498	0.0150027
948.576	0.0150546
948.655	0.0151998
948.733	0.0150121
948.811	0.0150747
948.889	0.0150388
948.967	0.0150846
949.045	0.0151104
949.123	0.0150897
949.201	0.0150817
949.280	0.0150376
949.358	0.0150207
949.436	0.0151024
949.514	0.0150883
949.592	0.0151996
949.670	0.0150612
949.748	0.0150383
949.826	0.0151295
949.905	0.0152652
949.983	0.0152542
950.061	0.0150986
950.139	0.0151847
950.217	0.0151867
950.295	0.0152802
950.373	0.0153293
950.451	0.0151341
950.530	0.0151709
950.608	0.0152670
950.686	0.0152251
950.764	0.0151096
950.842	0.0152851
950.920	0.0153185
950.998	0.0153170
951.076	0.0153541
951.155	0.0151833
951.233	0.0151091
951.311	0.0152180
951.389	0.0153928
951.467	0.0153907
951.545	0.0152061
951.623	0.0151595
951.701	0.0152809
951.780	0.0151259
951.858	0.0152367
951.936	0.0152722
952.014	0.0151317
952.092	0.0151962
952.170	0.0152854
952.248	0.0150072
952.326	0.0152402
952.405	0.0150896
952.483	0.0149805
952.561	0.0151188
952.639	0.0150748
952.717	0.0151671
952.795	0.0150596
952.873	0.0151734
952.951	0.0151748
953.030	0.0150765
953.108	0.0151051
953.186	0.0150838
953.264	0.0150857
953.342	0.0150265
953.420	0.0150185
953.498	0.0151490
953.576	0.0151577
953.655	0.0151759
953.733	0.0151726
953.811	0.0152477
953.889	0.0151804
953.967	0.0151260
954.045	0.0151146
954.123	0.0152376
954.201	0.0151360
954.280	0.0151206
954.358	0.0151067
954.436	0.0151181
954.514	0.0151583
954.592	0.0151182
954.670	0.0150890
954.748	0.0151210
954.826	0.0151481
954.905	0.0151207
954.983	0.0151957
955.061	0.0150824
955.139	0.0149631
955.217	0.0150991
955.295	0.0149900
955.373	0.0149550
955.451	0.0150293
955.530	0.0148883
955.608	0.0149057
955.686	0.0150064
955.764	0.0148708
955.842	0.0148711
955.920	0.0148687
955.998	0.0147900
956.076	0.0148328
956.155	0.0149380
956.233	0.0148229
956.311	0.0147166
956.389	0.0149199
956.467	0.0148994
956.545	0.0148687
956.623	0.0149265
956.701	0.0149263
956.780	0.0148598
956.858	0.0149928
956.936	0.0148534
957.014	0.0150338
957.092	0.0150896
957.170	0.0151237
957.248	0.0149776
957.326	0.0151211
957.405	0.0150619
957.483	0.0151009
957.561	0.0150960
957.639	0.0150942
957.717	0.0150579
957.795	0.0150983
957.873	0.0150362
957.951	0.0150275
958.030	0.0152537
958.108	0.0151298
958.186	0.0150967
958.264	0.0152541
958.342	0.0149999
958.420	0.0151455
958.498	0.0150839
958.576	0.0150864
958.655	0.0152515
958.733	0.0152233
958.811	0.0151249
958.889	0.0150512
958.967	0.0151964
959.045	0.0152229
959.123	0.0151263
959.201	0.0151999
959.280	0.0151637
959.358	0.0151540
959.436	0.0151693
959.514	0.0149517
959.592	0.0150977
959.670	0.0150506
959.748	0.0151301
959.826	0.0150112
959.905	0.0151341
