05/20/2022	17:08:14	Ver.	4.1	UNKNOWN
Optical Delay	639.982744	Delta X		0.078125	Sweeps	1	Scan Rate	0/0
Coordinates	Axis 1	NaN	Axis 2	NaN	Axis 3	NaN	Axis 4	NaN	Axis 5	NaN	Axis 6	0.000000
TX Power	0.000000	RX Power	0.000000

639.983	0.0153998
640.061	0.0151871
640.139	0.0152628
640.217	0.0154000
640.295	0.0153009
640.373	0.0152271
640.451	0.0154063
640.530	0.0152171
640.608	0.0151691
640.686	0.0151488
640.764	0.0152424
640.842	0.0152906
640.920	0.0151404
640.998	0.0152948
641.076	0.0152406
641.155	0.0152679
641.233	0.0153712
641.311	0.0152599
641.389	0.0151419
641.467	0.0152232
641.545	0.0151882
641.623	0.0153472
641.701	0.0152190
641.780	0.0152374
641.858	0.0151279
641.936	0.0153530
642.014	0.0152391
642.092	0.0153333
642.170	0.0152499
642.248	0.0152638
642.326	0.0151949
642.405	0.0152863
642.483	0.0153313
642.561	0.0153238
642.639	0.0153352
642.717	0.0153172
642.795	0.0153271
642.873	0.0152148
642.951	0.0152364
643.030	0.0153375
643.108	0.0155350
643.186	0.0152809
643.264	0.0152366
643.342	0.0154443
643.420	0.0153915
643.498	0.0153450
643.576	0.0153649
643.655	0.0152811
643.733	0.0152897
643.811	0.0152377
643.889	0.0153669
643.967	0.0152686
644.045	0.0151875
644.123	0.0153422
644.201	0.0153807
644.280	0.0153149
644.358	0.0153593
644.436	0.0153111
644.514	0.0152647
644.592	0.0153226
644.670	0.0153983
644.748	0.0153831
644.826	0.0152811
644.905	0.0152775
644.983	0.0152529
645.061	0.0153277
645.139	0.0153333
645.217	0.0153796
645.295	0.0152539
645.373	0.0152449
645.451	0.0152432
645.530	0.0153349
645.608	0.0152983
645.686	0.0151925
645.764	0.0153363
645.842	0.0153401
645.920	0.0151913
645.998	0.0152058
646.076	0.0153658
646.155	0.0153424
646.233	0.0152035
646.311	0.0151882
646.389	0.0152446
646.467	0.0151640
646.545	0.0152711
646.623	0.0151789
646.701	0.0153524
646.780	0.0153107
646.858	0.0152698
646.936	0.0152157
647.014	0.0152080
647.092	0.0152264
647.170	0.0152629
647.248	0.0152127
647.326	0.0153229
647.405	0.0153035
647.483	0.0152411
647.561	0.0150456
647.639	0.0151312
647.717	0.0152572
647.795	0.0151273
647.873	0.0151002
647.951	0.0151792
648.030	0.0152557
648.108	0.0152735
648.186	0.0150966
648.264	0.0150657
648.342	0.0152194
648.420	0.0151562
648.498	0.0152260
648.576	0.0151652
648.655	0.0151159
648.733	0.0150967
648.811	0.0151819
648.889	0.0151360
648.967	0.0150770
649.045	0.0149720
649.123	0.0150991
649.201	0.0151614
649.280	0.0150712
649.358	0.0150061
649.436	0.0151838
649.514	0.0151249
649.592	0.0151144
649.670	0.0151537
649.748	0.0151474
649.826	0.0151961
649.905	0.0150842
649.983	0.0150937
650.061	0.0150800
650.139	0.0150896
650.217	0.0152451
650.295	0.0151456
650.373	0.0151083
650.451	0.0151623
650.530	0.0150029
650.608	0.0150709
650.686	0.0150546
650.764	0.0148616
650.842	0.0151015
650.920	0.0151337
650.998	0.0150562
651.076	0.0151826
651.155	0.0151338
651.233	0.0152196
651.311	0.0151891
651.389	0.0151205
651.467	0.0152811
651.545	0.0152129
651.623	0.0152880
651.701	0.0151410
651.780	0.0150812
651.858	0.0152389
651.936	0.0152636
652.014	0.0151385
652.092	0.0152822
652.170	0.0150703
652.248	0.0149821
652.326	0.0150780
652.405	0.0151042
652.483	0.0149699
652.561	0.0151968
652.639	0.0150943
652.717	0.0152869
652.795	0.0151089
652.873	0.0152193
652.951	0.0151335
653.030	0.0151970
653.108	0.0152558
653.186	0.0151933
653.264	0.0152331
653.342	0.0151923
653.420	0.0152477
653.498	0.0152730
653.576	0.0153164
653.655	0.0153177
653.733	0.0151273
653.811	0.0152052
653.889	0.0152737
653.967	0.0153157
654.045	0.0153053
654.123	0.0152323
654.201	0.0152233
654.280	0.0151862
654.358	0.0150675
654.436	0.0151158
654.514	0.0150796
654.592	0.0151561
654.670	0.0151963
654.748	0.0152905
654.826	0.0152055
654.905	0.0151984
654.983	0.0152055
655.061	0.0152573
655.139	0.0152507
655.217	0.0151239
655.295	0.0152282
655.373	0.0150930
655.451	0.0152311
655.530	0.0151765
655.608	0.0152531
655.686	0.0152916
655.764	0.0152459
655.842	0.0154058
655.920	0.0153920
655.998	0.0153279
656.076	0.0152316
656.155	0.0154015
656.233	0.0154643
656.311	0.0153845
656.389	0.0155849
656.467	0.0156189
656.545	0.0154032
656.623	0.0153642
656.701	0.0153872
656.780	0.0152516
656.858	0.0152248
656.936	0.0152055
657.014	0.0152678
657.092	0.0152727
657.170	0.0152087
657.248	0.0151228
657.326	0.0152103
657.405	0.0151792
657.483	0.0151581
657.561	0.0151405
657.639	0.0151429
657.717	0.0151166
657.795	0.0152473
657.873	0.0152487
657.951	0.0152218
658.030	0.0153586
658.108	0.0153756
658.186	0.0154250
658.264	0.0154568
658.342	0.0153120
658.420	0.0153146
658.498	0.0152746
658.576	0.0155013
658.655	0.0154611
658.733	0.0152887
658.811	0.0152783
658.889	0.0152988
658.967	0.0153130
659.045	0.0151669
659.123	0.0152486
659.201	0.0152175
659.280	0.0151848
659.358	0.0150440
659.436	0.0152026
659.514	0.0152907
659.592	0.0151998
659.670	0.0153696
659.748	0.0152352
659.826	0.0152864
659.905	0.0153000
659.983	0.0153102
660.061	0.0153651
660.139	0.0153418
660.217	0.0154408
660.295	0.0153020
660.373	0.0154359
660.451	0.0155274
660.530	0.0154194
660.608	0.0154468
660.686	0.0154322
660.764	0.0154544
660.842	0.0153749
660.920	0.0154376
660.998	0.0153967
661.076	0.0152769
661.155	0.0154829
661.233	0.0154206
661.311	0.0154122
661.389	0.0154909
661.467	0.0154359
661.545	0.0153647
661.623	0.0154002
661.701	0.0153191
661.780	0.0153288
661.858	0.0152917
661.936	0.0152808
662.014	0.0152981
662.092	0.0153597
662.170	0.0153233
662.248	0.0152235
662.326	0.0152515
662.405	0.0154420
662.483	0.0152515
662.561	0.0153371
662.639	0.0154461
662.717	0.0154675
662.795	0.0153304
662.873	0.0154893
662.951	0.0153096
663.030	0.0153011
663.108	0.0153357
663.186	0.0154295
663.264	0.0153657
663.342	0.0151921
663.420	0.0152045
663.498	0.0151102
663.576	0.0151131
663.655	0.0150140
663.733	0.0150243
663.811	0.0150014
663.889	0.0149611
663.967	0.0149572
664.045	0.0151208
664.123	0.0152222
664.201	0.0152367
664.280	0.0153037
664.358	0.0151986
664.436	0.0154665
664.514	0.0155360
664.592	0.0153046
664.670	0.0152444
664.748	0.0153539
664.826	0.0154578
664.905	0.0153388
664.983	0.0154291
665.061	0.0154605
665.139	0.0155581
665.217	0.0155765
665.295	0.0156118
665.373	0.0156458
665.451	0.0157022
665.530	0.0156948
665.608	0.0158534
665.686	0.0157845
665.764	0.0158205
665.842	0.0158463
665.920	0.0159253
665.998	0.0159890
666.076	0.0158457
666.155	0.0157677
666.233	0.0157495
666.311	0.0157233
666.389	0.0155905
666.467	0.0157265
666.545	0.0155740
666.623	0.0155149
666.701	0.0153127
666.780	0.0155618
666.858	0.0153127
666.936	0.0153471
667.014	0.0151978
667.092	0.0148624
667.170	0.0150506
667.248	0.0149886
667.326	0.0148602
667.405	0.0147433
667.483	0.0147887
667.561	0.0146933
667.639	0.0145715
667.717	0.0145930
667.795	0.0145866
667.873	0.0142884
667.951	0.0144379
668.030	0.0144270
668.108	0.0143775
668.186	0.0144453
668.264	0.0144455
668.342	0.0143250
668.420	0.0145693
668.498	0.0148048
668.576	0.0147652
668.655	0.0148292
668.733	0.0149867
668.811	0.0149750
668.889	0.0151646
668.967	0.0153176
669.045	0.0152199
669.123	0.0154848
669.201	0.0156086
669.280	0.0156920
669.358	0.0156458
669.436	0.0158091
669.514	0.0158993
669.592	0.0161829
669.670	0.0161824
669.748	0.0161831
669.826	0.0163137
669.905	0.0163637
669.983	0.0162968
670.061	0.0164188
670.139	0.0163459
670.217	0.0163588
670.295	0.0162882
670.373	0.0163283
670.451	0.0163165
670.530	0.0160474
670.608	0.0158262
670.686	0.0157703
670.764	0.0155299
670.842	0.0154289
670.920	0.0154552
670.998	0.0152090
671.076	0.0149020
671.155	0.0147932
671.233	0.0147670
671.311	0.0146067
671.389	0.0144854
671.467	0.0144254
671.545	0.0141382
671.623	0.0141132
671.701	0.0141045
671.780	0.0140008
671.858	0.0140639
671.936	0.0138358
672.014	0.0139167
672.092	0.0139614
672.170	0.0139310
672.248	0.0139255
672.326	0.0139175
672.405	0.0139787
672.483	0.0141281
672.561	0.0141589
672.639	0.0144183
672.717	0.0144095
672.795	0.0146131
672.873	0.0147540
672.951	0.0148385
673.030	0.0148542
673.108	0.0149996
673.186	0.0151939
673.264	0.0152158
673.342	0.0152380
673.420	0.0154300
673.498	0.0156027
673.576	0.0156985
673.655	0.0157358
673.733	0.0158049
673.811	0.0159274
673.889	0.0160091
673.967	0.0161951
674.045	0.0162760
674.123	0.0163223
674.201	0.0164926
674.280	0.0165335
674.358	0.0166424
674.436	0.0164272
674.514	0.0163342
674.592	0.0162553
674.670	0.0162939
674.748	0.0162920
674.826	0.0160672
674.905	0.0159192
674.983	0.0157343
675.061	0.0155753
675.139	0.0153114
675.217	0.0153030
675.295	0.0150789
675.373	0.0150030
675.451	0.0146772
675.530	0.0145647
675.608	0.0143243
675.686	0.0142699
675.764	0.0141422
675.842	0.0140175
675.920	0.0139375
675.998	0.0138221
676.076	0.0138216
676.155	0.0138477
676.233	0.0138383
676.311	0.0137392
676.389	0.0137706
676.467	0.0140511
676.545	0.0139495
676.623	0.0140359
676.701	0.0142611
676.780	0.0143023
676.858	0.0145770
676.936	0.0146609
677.014	0.0146571
677.092	0.0148488
677.170	0.0152663
677.248	0.0151702
677.326	0.0154647
677.405	0.0155824
677.483	0.0154653
677.561	0.0157343
677.639	0.0160243
677.717	0.0159166
677.795	0.0160065
677.873	0.0159514
677.951	0.0161207
678.030	0.0161924
678.108	0.0162007
678.186	0.0161739
678.264	0.0159886
678.342	0.0160436
678.420	0.0159411
678.498	0.0157585
678.576	0.0159074
678.655	0.0157238
678.733	0.0155776
678.811	0.0156182
678.889	0.0155392
678.967	0.0154430
679.045	0.0150797
679.123	0.0150474
679.201	0.0150217
679.280	0.0149363
679.358	0.0148919
679.436	0.0148231
679.514	0.0147527
679.592	0.0146430
679.670	0.0147379
679.748	0.0146737
679.826	0.0146641
679.905	0.0148266
679.983	0.0148372
680.061	0.0147852
680.139	0.0148952
680.217	0.0149931
680.295	0.0150828
680.373	0.0151551
680.451	0.0151354
680.530	0.0154212
680.608	0.0153606
680.686	0.0154685
680.764	0.0155631
680.842	0.0155328
680.920	0.0156430
680.998	0.0155929
681.076	0.0156702
681.155	0.0157635
681.233	0.0155789
681.311	0.0155633
681.389	0.0155140
681.467	0.0154456
681.545	0.0155206
681.623	0.0152773
681.701	0.0152129
681.780	0.0152302
681.858	0.0151707
681.936	0.0150713
682.014	0.0151015
682.092	0.0150504
682.170	0.0149804
682.248	0.0149453
682.326	0.0149043
682.405	0.0148011
682.483	0.0148227
682.561	0.0147603
682.639	0.0146786
682.717	0.0145113
682.795	0.0144835
682.873	0.0144317
682.951	0.0144308
683.030	0.0144961
683.108	0.0145837
683.186	0.0145511
683.264	0.0144584
683.342	0.0144566
683.420	0.0145007
683.498	0.0147405
683.576	0.0147572
683.655	0.0147920
683.733	0.0148669
683.811	0.0149656
683.889	0.0152485
683.967	0.0153304
684.045	0.0154076
684.123	0.0154926
684.201	0.0155202
684.280	0.0157745
684.358	0.0157224
684.436	0.0157656
684.514	0.0158116
684.592	0.0158772
684.670	0.0159290
684.748	0.0159395
684.826	0.0160262
684.905	0.0158474
684.983	0.0159442
685.061	0.0160162
685.139	0.0159620
685.217	0.0159727
685.295	0.0159684
685.373	0.0160043
685.451	0.0158508
685.530	0.0157839
685.608	0.0157313
685.686	0.0156654
685.764	0.0157339
685.842	0.0155437
685.920	0.0154990
685.998	0.0154771
686.076	0.0152399
686.155	0.0152708
686.233	0.0152716
686.311	0.0153497
686.389	0.0153547
686.467	0.0152392
686.545	0.0149781
686.623	0.0150474
686.701	0.0150685
686.780	0.0151706
686.858	0.0150391
686.936	0.0148714
687.014	0.0148740
687.092	0.0147272
687.170	0.0146298
687.248	0.0145760
687.326	0.0145865
687.405	0.0144478
687.483	0.0143577
687.561	0.0142609
687.639	0.0141906
687.717	0.0141802
687.795	0.0142758
687.873	0.0142957
687.951	0.0142752
688.030	0.0142564
688.108	0.0143358
688.186	0.0143846
688.264	0.0144511
688.342	0.0144709
688.420	0.0146066
688.498	0.0147155
688.576	0.0147102
688.655	0.0147272
688.733	0.0147590
688.811	0.0148808
688.889	0.0151563
688.967	0.0151802
689.045	0.0152249
689.123	0.0154309
689.201	0.0154412
689.280	0.0157018
689.358	0.0157789
689.436	0.0161004
689.514	0.0161941
689.592	0.0162885
689.670	0.0163737
689.748	0.0166644
689.826	0.0167074
689.905	0.0168752
689.983	0.0169233
690.061	0.0167561
690.139	0.0166779
690.217	0.0168472
690.295	0.0167838
690.373	0.0167632
690.451	0.0166055
690.530	0.0165418
690.608	0.0164684
690.686	0.0163905
690.764	0.0162027
690.842	0.0160995
690.920	0.0158472
690.998	0.0156182
691.076	0.0156216
691.155	0.0154234
691.233	0.0152219
691.311	0.0150133
691.389	0.0148865
691.467	0.0145220
691.545	0.0143661
691.623	0.0142233
691.701	0.0141708
691.780	0.0139529
691.858	0.0138649
691.936	0.0138961
692.014	0.0139348
692.092	0.0137441
692.170	0.0138163
692.248	0.0139184
692.326	0.0140424
692.405	0.0141779
692.483	0.0142717
692.561	0.0142395
692.639	0.0145049
692.717	0.0144879
692.795	0.0147186
692.873	0.0147980
692.951	0.0147574
693.030	0.0149419
693.108	0.0149998
693.186	0.0150386
693.264	0.0149217
693.342	0.0151656
693.420	0.0152373
693.498	0.0153516
693.576	0.0154749
693.655	0.0155167
693.733	0.0156027
693.811	0.0156850
693.889	0.0157622
693.967	0.0158550
694.045	0.0158918
694.123	0.0159966
694.201	0.0160385
694.280	0.0160580
694.358	0.0159748
694.436	0.0159464
694.514	0.0159225
694.592	0.0158252
694.670	0.0157509
694.748	0.0158199
694.826	0.0157414
694.905	0.0154902
694.983	0.0154626
695.061	0.0153324
695.139	0.0153531
695.217	0.0152843
695.295	0.0152717
695.373	0.0150809
695.451	0.0151643
695.530	0.0150687
695.608	0.0149864
695.686	0.0148711
695.764	0.0148473
695.842	0.0149151
695.920	0.0148792
695.998	0.0147421
696.076	0.0146624
696.155	0.0147005
696.233	0.0147289
696.311	0.0146980
696.389	0.0146879
696.467	0.0149044
696.545	0.0147054
696.623	0.0147777
696.701	0.0148499
696.780	0.0148712
696.858	0.0149821
696.936	0.0149995
697.014	0.0150151
697.092	0.0150461
697.170	0.0149241
697.248	0.0152135
697.326	0.0151952
697.405	0.0152770
697.483	0.0154472
697.561	0.0153941
697.639	0.0154288
697.717	0.0154298
697.795	0.0154668
697.873	0.0154722
697.951	0.0153484
698.030	0.0154560
698.108	0.0152699
698.186	0.0153634
698.264	0.0152413
698.342	0.0151928
698.420	0.0151899
698.498	0.0151241
698.576	0.0149803
698.655	0.0149349
698.733	0.0148827
698.811	0.0146820
698.889	0.0147462
698.967	0.0147977
699.045	0.0148287
699.123	0.0146157
699.201	0.0146329
699.280	0.0147539
699.358	0.0148385
699.436	0.0148859
699.514	0.0147610
699.592	0.0146954
699.670	0.0149112
699.748	0.0151007
699.826	0.0150915
699.905	0.0150635
699.983	0.0150235
700.061	0.0151647
700.139	0.0151443
700.217	0.0152090
700.295	0.0151500
700.373	0.0153311
700.451	0.0153532
700.530	0.0153011
700.608	0.0152559
700.686	0.0153191
700.764	0.0155109
700.842	0.0153997
700.920	0.0154102
700.998	0.0154876
701.076	0.0154671
701.155	0.0155646
701.233	0.0155846
701.311	0.0153386
701.389	0.0152618
701.467	0.0153101
701.545	0.0153612
701.623	0.0153359
701.701	0.0152254
701.780	0.0151963
701.858	0.0150859
701.936	0.0151665
702.014	0.0152264
702.092	0.0151873
702.170	0.0152766
702.248	0.0152241
702.326	0.0152972
702.405	0.0151257
702.483	0.0153619
702.561	0.0154267
702.639	0.0151636
702.717	0.0152529
702.795	0.0151793
702.873	0.0152814
702.951	0.0152692
703.030	0.0151344
703.108	0.0151089
703.186	0.0149341
703.264	0.0149753
703.342	0.0149845
703.420	0.0148849
703.498	0.0148428
703.576	0.0147485
703.655	0.0147804
703.733	0.0146211
703.811	0.0146676
703.889	0.0147483
703.967	0.0145441
704.045	0.0146939
704.123	0.0147565
704.201	0.0148114
704.280	0.0147020
704.358	0.0148550
704.436	0.0147781
704.514	0.0149660
704.592	0.0151021
704.670	0.0151636
704.748	0.0151897
704.826	0.0152465
704.905	0.0153248
704.983	0.0154861
705.061	0.0155877
705.139	0.0156653
705.217	0.0156197
705.295	0.0158731
705.373	0.0159700
705.451	0.0159992
705.530	0.0159344
705.608	0.0160203
705.686	0.0159936
705.764	0.0160360
705.842	0.0159521
705.920	0.0159259
705.998	0.0158994
706.076	0.0157605
706.155	0.0157728
706.233	0.0157283
706.311	0.0155484
706.389	0.0153787
706.467	0.0153160
706.545	0.0152644
706.623	0.0150097
706.701	0.0151334
706.780	0.0149586
706.858	0.0147426
706.936	0.0147240
707.014	0.0146664
707.092	0.0145359
707.170	0.0145416
707.248	0.0144226
707.326	0.0144955
707.405	0.0143240
707.483	0.0144051
707.561	0.0144155
707.639	0.0145213
707.717	0.0144894
707.795	0.0146136
707.873	0.0147509
707.951	0.0148111
708.030	0.0148383
708.108	0.0149126
708.186	0.0152568
708.264	0.0151125
708.342	0.0152169
708.420	0.0153766
708.498	0.0155614
708.576	0.0157001
708.655	0.0156826
708.733	0.0156316
708.811	0.0158349
708.889	0.0159269
708.967	0.0160556
709.045	0.0158450
709.123	0.0159191
709.201	0.0161073
709.280	0.0159348
709.358	0.0159345
709.436	0.0157961
709.514	0.0159563
709.592	0.0158446
709.670	0.0157892
709.748	0.0157777
709.826	0.0155993
709.905	0.0155574
709.983	0.0155410
710.061	0.0155636
710.139	0.0153996
710.217	0.0153032
710.295	0.0152250
710.373	0.0151749
710.451	0.0152251
710.530	0.0151340
710.608	0.0148506
710.686	0.0148470
710.764	0.0149872
710.842	0.0147423
710.920	0.0147517
710.998	0.0146163
711.076	0.0147061
711.155	0.0146619
711.233	0.0144414
711.311	0.0144835
711.389	0.0144831
711.467	0.0146307
711.545	0.0143558
711.623	0.0143347
711.701	0.0144736
711.780	0.0144465
711.858	0.0144203
711.936	0.0146156
712.014	0.0145063
712.092	0.0145740
712.170	0.0146120
712.248	0.0145507
712.326	0.0148361
712.405	0.0147845
712.483	0.0149435
712.561	0.0148248
712.639	0.0149776
712.717	0.0151735
712.795	0.0152946
712.873	0.0152890
712.951	0.0156031
713.030	0.0158513
713.108	0.0158340
713.186	0.0158371
713.264	0.0159096
713.342	0.0160977
713.420	0.0161861
713.498	0.0162656
713.576	0.0162350
713.655	0.0161871
713.733	0.0163009
713.811	0.0162341
713.889	0.0162023
713.967	0.0163321
714.045	0.0162969
714.123	0.0161099
714.201	0.0160202
714.280	0.0160987
714.358	0.0159638
714.436	0.0159097
714.514	0.0155805
714.592	0.0155522
714.670	0.0154494
714.748	0.0153896
714.826	0.0151127
714.905	0.0149098
714.983	0.0149644
715.061	0.0148601
715.139	0.0145863
715.217	0.0146265
715.295	0.0145185
715.373	0.0144845
715.451	0.0143973
715.530	0.0145899
715.608	0.0145329
715.686	0.0144184
715.764	0.0145671
715.842	0.0145786
715.920	0.0146574
715.998	0.0147816
716.076	0.0147198
716.155	0.0146763
716.233	0.0148742
716.311	0.0148819
716.389	0.0149354
716.467	0.0150327
716.545	0.0152058
716.623	0.0151193
716.701	0.0152501
716.780	0.0152560
716.858	0.0153214
716.936	0.0155004
717.014	0.0156047
717.092	0.0156862
717.170	0.0156568
717.248	0.0156677
717.326	0.0157407
717.405	0.0157734
717.483	0.0157684
717.561	0.0157646
717.639	0.0158533
717.717	0.0156546
717.795	0.0158035
717.873	0.0157572
717.951	0.0155995
718.030	0.0155713
718.108	0.0153629
718.186	0.0153809
718.264	0.0152688
718.342	0.0151120
718.420	0.0149955
718.498	0.0149151
718.576	0.0148353
718.655	0.0148753
718.733	0.0147819
718.811	0.0146249
718.889	0.0145194
718.967	0.0144497
719.045	0.0146851
719.123	0.0146357
719.201	0.0145982
719.280	0.0148005
719.358	0.0148438
719.436	0.0148655
719.514	0.0150157
719.592	0.0149940
719.670	0.0153177
719.748	0.0153433
719.826	0.0153070
719.905	0.0155396
719.983	0.0155640
720.061	0.0157121
720.139	0.0158211
720.217	0.0158445
720.295	0.0159262
720.373	0.0158894
720.451	0.0159395
720.530	0.0159386
720.608	0.0160264
720.686	0.0160393
720.764	0.0158418
720.842	0.0159268
720.920	0.0159052
720.998	0.0158843
721.076	0.0157790
721.155	0.0156886
721.233	0.0155280
721.311	0.0155779
721.389	0.0153548
721.467	0.0151217
721.545	0.0150793
721.623	0.0148154
721.701	0.0147085
721.780	0.0144946
721.858	0.0145125
721.936	0.0144786
722.014	0.0142630
722.092	0.0142545
722.170	0.0142527
722.248	0.0141865
722.326	0.0141963
722.405	0.0144247
722.483	0.0143047
722.561	0.0143613
722.639	0.0144814
722.717	0.0145332
722.795	0.0146126
722.873	0.0147223
722.951	0.0147054
723.030	0.0147097
723.108	0.0148473
723.186	0.0149221
723.264	0.0150654
723.342	0.0151940
723.420	0.0150655
723.498	0.0152145
723.576	0.0152935
723.655	0.0153695
723.733	0.0155006
723.811	0.0153706
723.889	0.0154424
723.967	0.0154902
724.045	0.0156509
724.123	0.0155882
724.201	0.0155220
724.280	0.0155385
724.358	0.0155013
724.436	0.0155930
724.514	0.0155335
724.592	0.0155374
724.670	0.0155541
724.748	0.0154180
724.826	0.0154192
724.905	0.0155672
724.983	0.0153765
725.061	0.0155810
725.139	0.0153493
725.217	0.0155523
725.295	0.0155457
725.373	0.0155485
725.451	0.0154260
725.530	0.0154742
725.608	0.0154102
725.686	0.0154018
725.764	0.0154438
725.842	0.0154288
725.920	0.0153671
725.998	0.0153529
726.076	0.0152626
726.155	0.0151620
726.233	0.0152254
726.311	0.0151381
726.389	0.0151656
726.467	0.0152713
726.545	0.0152213
726.623	0.0152298
726.701	0.0151898
726.780	0.0151701
726.858	0.0151842
726.936	0.0152850
727.014	0.0151840
727.092	0.0152315
727.170	0.0152452
727.248	0.0151522
727.326	0.0152229
727.405	0.0153183
727.483	0.0153282
727.561	0.0151819
727.639	0.0151988
727.717	0.0151484
727.795	0.0151902
727.873	0.0151939
727.951	0.0153001
728.030	0.0152692
728.108	0.0152958
728.186	0.0153690
728.264	0.0152677
728.342	0.0152481
728.420	0.0152425
728.498	0.0152914
728.576	0.0153893
728.655	0.0152839
728.733	0.0152048
728.811	0.0154059
728.889	0.0153239
728.967	0.0154691
729.045	0.0150960
729.123	0.0152145
729.201	0.0152431
729.280	0.0151807
729.358	0.0151963
729.436	0.0151089
729.514	0.0152757
729.592	0.0152755
729.670	0.0152560
729.748	0.0152525
729.826	0.0152271
729.905	0.0151460
729.983	0.0153381
730.061	0.0153912
730.139	0.0154511
730.217	0.0154189
730.295	0.0155493
730.373	0.0153764
730.451	0.0153459
730.530	0.0155097
730.608	0.0152847
730.686	0.0153134
730.764	0.0152602
730.842	0.0153342
730.920	0.0153069
730.998	0.0152101
731.076	0.0153268
731.155	0.0151616
731.233	0.0152118
731.311	0.0152206
731.389	0.0153210
731.467	0.0154330
731.545	0.0152936
731.623	0.0153127
731.701	0.0151460
731.780	0.0151797
731.858	0.0152316
731.936	0.0150818
732.014	0.0150255
732.092	0.0150284
732.170	0.0149180
732.248	0.0148504
732.326	0.0149032
732.405	0.0149094
732.483	0.0149062
732.561	0.0147332
732.639	0.0146207
732.717	0.0145774
732.795	0.0146312
732.873	0.0144920
732.951	0.0146293
733.030	0.0147169
733.108	0.0148545
733.186	0.0148672
733.264	0.0147962
733.342	0.0148244
733.420	0.0149246
733.498	0.0152013
733.576	0.0151692
733.655	0.0153484
733.733	0.0153487
733.811	0.0153901
733.889	0.0154677
733.967	0.0154558
734.045	0.0156371
734.123	0.0156832
734.201	0.0155980
734.280	0.0155779
734.358	0.0156937
734.436	0.0157410
734.514	0.0158966
734.592	0.0158487
734.670	0.0158382
734.748	0.0159689
734.826	0.0159308
734.905	0.0159184
734.983	0.0159557
735.061	0.0157658
735.139	0.0157507
735.217	0.0157582
735.295	0.0157252
735.373	0.0156383
735.451	0.0155887
735.530	0.0154653
735.608	0.0153563
735.686	0.0154458
735.764	0.0152598
735.842	0.0152263
735.920	0.0153558
735.998	0.0151439
736.076	0.0151343
736.155	0.0152087
736.233	0.0151782
736.311	0.0150825
736.389	0.0150224
736.467	0.0149287
736.545	0.0149959
736.623	0.0149451
736.701	0.0147865
736.780	0.0148498
736.858	0.0148587
736.936	0.0150324
737.014	0.0147913
737.092	0.0146872
737.170	0.0148566
737.248	0.0148100
737.326	0.0149393
737.405	0.0150434
737.483	0.0150288
737.561	0.0149347
737.639	0.0150189
737.717	0.0150880
737.795	0.0151493
737.873	0.0150974
737.951	0.0150877
738.030	0.0152657
738.108	0.0153252
738.186	0.0153165
738.264	0.0150833
738.342	0.0152269
738.420	0.0151138
738.498	0.0152790
738.576	0.0151116
738.655	0.0153208
738.733	0.0152099
738.811	0.0151299
738.889	0.0152600
738.967	0.0152960
739.045	0.0151995
739.123	0.0151824
739.201	0.0152674
739.280	0.0152865
739.358	0.0153033
739.436	0.0153860
739.514	0.0153085
739.592	0.0153100
739.670	0.0154543
739.748	0.0154332
739.826	0.0155264
739.905	0.0155500
739.983	0.0155987
740.061	0.0157555
740.139	0.0157405
740.217	0.0157504
740.295	0.0156480
740.373	0.0158105
740.451	0.0158661
740.530	0.0156233
740.608	0.0156750
740.686	0.0155842
740.764	0.0156481
740.842	0.0155820
740.920	0.0155373
740.998	0.0156705
741.076	0.0154758
741.155	0.0154316
741.233	0.0154915
741.311	0.0155406
741.389	0.0155410
741.467	0.0155063
741.545	0.0155355
741.623	0.0155813
741.701	0.0154013
741.780	0.0154317
741.858	0.0156001
741.936	0.0156342
742.014	0.0153899
742.092	0.0152813
742.170	0.0152578
742.248	0.0151543
742.326	0.0152350
742.405	0.0152455
742.483	0.0152176
742.561	0.0151577
742.639	0.0150171
742.717	0.0149669
742.795	0.0149927
742.873	0.0150112
742.951	0.0148447
743.030	0.0149716
743.108	0.0149539
743.186	0.0150893
743.264	0.0152277
743.342	0.0151283
743.420	0.0151617
743.498	0.0153386
743.576	0.0154018
743.655	0.0153854
743.733	0.0153904
743.811	0.0156106
743.889	0.0155420
743.967	0.0155341
744.045	0.0155316
744.123	0.0155962
744.201	0.0155170
744.280	0.0154891
744.358	0.0154718
744.436	0.0153030
744.514	0.0153716
744.592	0.0153551
744.670	0.0151476
744.748	0.0152454
744.826	0.0149904
744.905	0.0150690
744.983	0.0150295
745.061	0.0150466
745.139	0.0149863
745.217	0.0150681
745.295	0.0150491
745.373	0.0150140
745.451	0.0148477
745.530	0.0150018
745.608	0.0150230
745.686	0.0150537
745.764	0.0150016
745.842	0.0150286
745.920	0.0149873
745.998	0.0149992
746.076	0.0151999
746.155	0.0150551
746.233	0.0151149
746.311	0.0151118
746.389	0.0151056
746.467	0.0152775
746.545	0.0151839
746.623	0.0152995
746.701	0.0152128
746.780	0.0153860
746.858	0.0151375
746.936	0.0154568
747.014	0.0153825
747.092	0.0153803
747.170	0.0153224
747.248	0.0153459
747.326	0.0154536
747.405	0.0155251
747.483	0.0156429
747.561	0.0155280
747.639	0.0155068
747.717	0.0156277
747.795	0.0155979
747.873	0.0155874
747.951	0.0156320
748.030	0.0156550
748.108	0.0157374
748.186	0.0156096
748.264	0.0155056
748.342	0.0155163
748.420	0.0155620
748.498	0.0156766
748.576	0.0154937
748.655	0.0155187
748.733	0.0153870
748.811	0.0153780
748.889	0.0153939
748.967	0.0153433
749.045	0.0152155
749.123	0.0152730
749.201	0.0151445
749.280	0.0152244
749.358	0.0152007
749.436	0.0150944
749.514	0.0151198
749.592	0.0150491
749.670	0.0150450
749.748	0.0150944
749.826	0.0151949
749.905	0.0150868
749.983	0.0149819
750.061	0.0149461
750.139	0.0149293
750.217	0.0150415
750.295	0.0151363
750.373	0.0151888
750.451	0.0151450
750.530	0.0152915
750.608	0.0153238
750.686	0.0153343
750.764	0.0152136
750.842	0.0152491
750.920	0.0154211
750.998	0.0153992
751.076	0.0153189
751.155	0.0155185
751.233	0.0154559
751.311	0.0154795
751.389	0.0155412
751.467	0.0153063
751.545	0.0154165
751.623	0.0154419
751.701	0.0152766
751.780	0.0152938
751.858	0.0153164
751.936	0.0154071
752.014	0.0153062
752.092	0.0152579
752.170	0.0153426
752.248	0.0151699
752.326	0.0151857
752.405	0.0152824
752.483	0.0152732
752.561	0.0151554
752.639	0.0152648
752.717	0.0154177
752.795	0.0152674
752.873	0.0153642
752.951	0.0153679
753.030	0.0152779
753.108	0.0152988
753.186	0.0153584
753.264	0.0154375
753.342	0.0153988
753.420	0.0153879
753.498	0.0153516
753.576	0.0153065
753.655	0.0151750
753.733	0.0151415
753.811	0.0151451
753.889	0.0151844
753.967	0.0151971
754.045	0.0151528
754.123	0.0153058
754.201	0.0152174
754.280	0.0153490
754.358	0.0150990
754.436	0.0152472
754.514	0.0152244
754.592	0.0152753
754.670	0.0151929
754.748	0.0153577
754.826	0.0152336
754.905	0.0152950
754.983	0.0154359
755.061	0.0155151
755.139	0.0154163
755.217	0.0152452
755.295	0.0153674
755.373	0.0154083
755.451	0.0154446
755.530	0.0153234
755.608	0.0153042
755.686	0.0154388
755.764	0.0153478
755.842	0.0154332
755.920	0.0154028
755.998	0.0155242
756.076	0.0154732
756.155	0.0154217
756.233	0.0155937
756.311	0.0154182
756.389	0.0153695
756.467	0.0154756
756.545	0.0154836
756.623	0.0152947
756.701	0.0153120
756.780	0.0153890
756.858	0.0154505
756.936	0.0155000
757.014	0.0153240
757.092	0.0153130
757.170	0.0153812
757.248	0.0151914
757.326	0.0150174
757.405	0.0151939
757.483	0.0150348
757.561	0.0151793
757.639	0.0151523
757.717	0.0151569
757.795	0.0150349
757.873	0.0151198
757.951	0.0151051
758.030	0.0150982
758.108	0.0152656
758.186	0.0152310
758.264	0.0153767
758.342	0.0153068
758.420	0.0154116
758.498	0.0152466
758.576	0.0154165
758.655	0.0153707
758.733	0.0153680
758.811	0.0154935
758.889	0.0154445
758.967	0.0154185
759.045	0.0154829
759.123	0.0154509
759.201	0.0154088
759.280	0.0154034
759.358	0.0153320
759.436	0.0154957
759.514	0.0153941
759.592	0.0154042
759.670	0.0153710
759.748	0.0154052
759.826	0.0153511
759.905	0.0153009
759.983	0.0152180
760.061	0.0153677
760.139	0.0153829
760.217	0.0154089
760.295	0.0153164
760.373	0.0153194
760.451	0.0152625
760.530	0.0153066
760.608	0.0154250
760.686	0.0153648
760.764	0.0154611
760.842	0.0154226
760.920	0.0154334
760.998	0.0154728
761.076	0.0153493
761.155	0.0153930
761.233	0.0153784
761.311	0.0155888
761.389	0.0153574
761.467	0.0152560
761.545	0.0152762
761.623	0.0154193
761.701	0.0152872
761.780	0.0152055
761.858	0.0151929
761.936	0.0152240
762.014	0.0152594
762.092	0.0151794
762.170	0.0150282
762.248	0.0152509
762.326	0.0151923
762.405	0.0151335
762.483	0.0151411
762.561	0.0152586
762.639	0.0152055
762.717	0.0150726
762.795	0.0152795
762.873	0.0152519
762.951	0.0151811
763.030	0.0150376
763.108	0.0151815
763.186	0.0152119
763.264	0.0151181
763.342	0.0152772
763.420	0.0152776
763.498	0.0151967
763.576	0.0152306
763.655	0.0152824
763.733	0.0152039
763.811	0.0153223
763.889	0.0152054
763.967	0.0153221
764.045	0.0152621
764.123	0.0152396
764.201	0.0152071
764.280	0.0152785
764.358	0.0151659
764.436	0.0150891
764.514	0.0150453
764.592	0.0151601
764.670	0.0151780
764.748	0.0149912
764.826	0.0151606
764.905	0.0150417
764.983	0.0150179
765.061	0.0150697
765.139	0.0150337
765.217	0.0148884
765.295	0.0150677
765.373	0.0150581
765.451	0.0150301
765.530	0.0149685
765.608	0.0150459
765.686	0.0152802
765.764	0.0150855
765.842	0.0151548
765.920	0.0151146
765.998	0.0150784
766.076	0.0152140
766.155	0.0152054
766.233	0.0151854
766.311	0.0153301
766.389	0.0152842
766.467	0.0153484
766.545	0.0153448
766.623	0.0152319
766.701	0.0152310
766.780	0.0152593
766.858	0.0151604
766.936	0.0151599
767.014	0.0152308
767.092	0.0152876
767.170	0.0152866
767.248	0.0150685
767.326	0.0150620
767.405	0.0151196
767.483	0.0150426
767.561	0.0150163
767.639	0.0150668
767.717	0.0149300
767.795	0.0149290
767.873	0.0148535
767.951	0.0148952
768.030	0.0149302
768.108	0.0150156
768.186	0.0148460
768.264	0.0148606
768.342	0.0150117
768.420	0.0151261
768.498	0.0151752
768.576	0.0149477
768.655	0.0151888
768.733	0.0151444
768.811	0.0152973
768.889	0.0152962
768.967	0.0151892
769.045	0.0153008
769.123	0.0153636
769.201	0.0152786
769.280	0.0154885
769.358	0.0155066
769.436	0.0154752
769.514	0.0153772
769.592	0.0155219
769.670	0.0153866
769.748	0.0155044
769.826	0.0155546
769.905	0.0154345
769.983	0.0153445
770.061	0.0153010
770.139	0.0154869
770.217	0.0154400
770.295	0.0153941
770.373	0.0155507
770.451	0.0154234
770.530	0.0155398
770.608	0.0158252
770.686	0.0156026
770.764	0.0155013
770.842	0.0155614
770.920	0.0155263
770.998	0.0156239
771.076	0.0155360
771.155	0.0156311
771.233	0.0155462
771.311	0.0155685
771.389	0.0156593
771.467	0.0156076
771.545	0.0155505
771.623	0.0154900
771.701	0.0157287
771.780	0.0155193
771.858	0.0154281
771.936	0.0155102
772.014	0.0155054
772.092	0.0154438
772.170	0.0154797
772.248	0.0154385
772.326	0.0154427
772.405	0.0153584
772.483	0.0153220
772.561	0.0151560
772.639	0.0151224
772.717	0.0150949
772.795	0.0149387
772.873	0.0151035
772.951	0.0151035
773.030	0.0150425
773.108	0.0150452
773.186	0.0151673
773.264	0.0150125
773.342	0.0150265
773.420	0.0149715
773.498	0.0149574
773.576	0.0150143
773.655	0.0151919
773.733	0.0152289
773.811	0.0151553
773.889	0.0152052
773.967	0.0151706
774.045	0.0151929
774.123	0.0153667
774.201	0.0152745
774.280	0.0153923
774.358	0.0153920
774.436	0.0153793
774.514	0.0155108
774.592	0.0154858
774.670	0.0153938
774.748	0.0154876
774.826	0.0156157
774.905	0.0155901
774.983	0.0154755
775.061	0.0155615
775.139	0.0155141
775.217	0.0155267
775.295	0.0155067
775.373	0.0154550
775.451	0.0154356
775.530	0.0154755
775.608	0.0153765
775.686	0.0154311
775.764	0.0153416
775.842	0.0151271
775.920	0.0151886
775.998	0.0152058
776.076	0.0152100
776.155	0.0151847
776.233	0.0153484
776.311	0.0153275
776.389	0.0151742
776.467	0.0151552
776.545	0.0152148
776.623	0.0152028
776.701	0.0151909
776.780	0.0151781
776.858	0.0153509
776.936	0.0152201
777.014	0.0153413
777.092	0.0153696
777.170	0.0152950
777.248	0.0153538
777.326	0.0153202
777.405	0.0153519
777.483	0.0155363
777.561	0.0154436
777.639	0.0154140
777.717	0.0153417
777.795	0.0153232
777.873	0.0152860
777.951	0.0154049
778.030	0.0153280
778.108	0.0152557
778.186	0.0151572
778.264	0.0152680
778.342	0.0153258
778.420	0.0151064
778.498	0.0150665
778.576	0.0149352
778.655	0.0152025
778.733	0.0150880
778.811	0.0151083
778.889	0.0151846
778.967	0.0151311
779.045	0.0150893
779.123	0.0149326
779.201	0.0149833
779.280	0.0150014
779.358	0.0149702
779.436	0.0150357
779.514	0.0151184
779.592	0.0150991
779.670	0.0150234
779.748	0.0151139
779.826	0.0151236
779.905	0.0150640
779.983	0.0151408
780.061	0.0151805
780.139	0.0152300
780.217	0.0152281
780.295	0.0151625
780.373	0.0150639
780.451	0.0151057
780.530	0.0152289
780.608	0.0151649
780.686	0.0150593
780.764	0.0153696
780.842	0.0152177
780.920	0.0151036
780.998	0.0152388
781.076	0.0151389
781.155	0.0152058
781.233	0.0151356
781.311	0.0151384
781.389	0.0151613
781.467	0.0152796
781.545	0.0152021
781.623	0.0152003
781.701	0.0152444
781.780	0.0153452
781.858	0.0152817
781.936	0.0153073
782.014	0.0153156
782.092	0.0154166
782.170	0.0153207
782.248	0.0151160
782.326	0.0152414
782.405	0.0152480
782.483	0.0151643
782.561	0.0151047
782.639	0.0153545
782.717	0.0150816
782.795	0.0151046
782.873	0.0149763
782.951	0.0151251
783.030	0.0151319
783.108	0.0151029
783.186	0.0150260
783.264	0.0150697
783.342	0.0151332
783.420	0.0149862
783.498	0.0148228
783.576	0.0149611
783.655	0.0148800
783.733	0.0148624
783.811	0.0148575
783.889	0.0149638
783.967	0.0148381
784.045	0.0148608
784.123	0.0148549
784.201	0.0149028
784.280	0.0149986
784.358	0.0148470
784.436	0.0150296
784.514	0.0148638
784.592	0.0149770
784.670	0.0151581
784.748	0.0150238
784.826	0.0149077
784.905	0.0150473
784.983	0.0151533
785.061	0.0148536
785.139	0.0150266
785.217	0.0150411
785.295	0.0151155
785.373	0.0150188
785.451	0.0150372
785.530	0.0150023
785.608	0.0150355
785.686	0.0150330
785.764	0.0151284
785.842	0.0152530
785.920	0.0152104
785.998	0.0149894
786.076	0.0152540
786.155	0.0153278
786.233	0.0151566
786.311	0.0152276
786.389	0.0152320
786.467	0.0153193
786.545	0.0153130
786.623	0.0153790
786.701	0.0152470
786.780	0.0153400
786.858	0.0153884
786.936	0.0153712
787.014	0.0154562
787.092	0.0155269
787.170	0.0152772
787.248	0.0153217
787.326	0.0153172
787.405	0.0155205
787.483	0.0152672
787.561	0.0154257
787.639	0.0154011
787.717	0.0152689
787.795	0.0152962
787.873	0.0155089
787.951	0.0152281
788.030	0.0152100
788.108	0.0153034
788.186	0.0153072
788.264	0.0152787
788.342	0.0151226
788.420	0.0151253
788.498	0.0152582
788.576	0.0150420
788.655	0.0150487
788.733	0.0150127
788.811	0.0149857
788.889	0.0149307
788.967	0.0148198
789.045	0.0149149
789.123	0.0148937
789.201	0.0149406
789.280	0.0149538
789.358	0.0149913
789.436	0.0148785
789.514	0.0148331
789.592	0.0150058
789.670	0.0149770
789.748	0.0150193
789.826	0.0151740
789.905	0.0151814
789.983	0.0152980
790.061	0.0152295
790.139	0.0153174
790.217	0.0153833
790.295	0.0153205
790.373	0.0153074
790.451	0.0153991
790.530	0.0153918
790.608	0.0154756
790.686	0.0153460
790.764	0.0154295
790.842	0.0153703
790.920	0.0153632
790.998	0.0154437
791.076	0.0155279
791.155	0.0153634
791.233	0.0153640
791.311	0.0154987
791.389	0.0153138
791.467	0.0153405
791.545	0.0154622
791.623	0.0153289
791.701	0.0153107
791.780	0.0153847
791.858	0.0154758
791.936	0.0153114
792.014	0.0152671
792.092	0.0153562
792.170	0.0151032
792.248	0.0153447
792.326	0.0152586
792.405	0.0153574
792.483	0.0152258
792.561	0.0153517
792.639	0.0155424
792.717	0.0153681
792.795	0.0152799
792.873	0.0154031
792.951	0.0154569
793.030	0.0154518
793.108	0.0155088
793.186	0.0154195
793.264	0.0154417
793.342	0.0156107
793.420	0.0155260
793.498	0.0154001
793.576	0.0153735
793.655	0.0154779
793.733	0.0155229
793.811	0.0153979
793.889	0.0153153
793.967	0.0154247
794.045	0.0154049
794.123	0.0153445
794.201	0.0154852
794.280	0.0154597
794.358	0.0153263
794.436	0.0152849
794.514	0.0153546
794.592	0.0153740
794.670	0.0153058
794.748	0.0153351
794.826	0.0151600
794.905	0.0154286
794.983	0.0152892
795.061	0.0152266
795.139	0.0151894
795.217	0.0154040
795.295	0.0151300
795.373	0.0151675
795.451	0.0149672
795.530	0.0151456
795.608	0.0150866
795.686	0.0149966
795.764	0.0150222
795.842	0.0150726
795.920	0.0151498
795.998	0.0150906
796.076	0.0149628
796.155	0.0149008
796.233	0.0150309
796.311	0.0150388
796.389	0.0149564
796.467	0.0150253
796.545	0.0150158
796.623	0.0150008
796.701	0.0150875
796.780	0.0150431
796.858	0.0149950
796.936	0.0150970
797.014	0.0151147
797.092	0.0150352
797.170	0.0150952
797.248	0.0150488
797.326	0.0151148
797.405	0.0151201
797.483	0.0150726
797.561	0.0151027
797.639	0.0149983
797.717	0.0150649
797.795	0.0151811
797.873	0.0150435
797.951	0.0151019
798.030	0.0151501
798.108	0.0152357
798.186	0.0150700
798.264	0.0150428
798.342	0.0150455
798.420	0.0151627
798.498	0.0150972
798.576	0.0150777
798.655	0.0149935
798.733	0.0150291
798.811	0.0149562
798.889	0.0149844
798.967	0.0149080
799.045	0.0149828
799.123	0.0150628
799.201	0.0149345
799.280	0.0150258
799.358	0.0150480
799.436	0.0149391
799.514	0.0152552
799.592	0.0150554
799.670	0.0149451
799.748	0.0151066
799.826	0.0152074
799.905	0.0151641
799.983	0.0150990
800.061	0.0152319
800.139	0.0151602
800.217	0.0152287
800.295	0.0151788
800.373	0.0151447
800.451	0.0151656
800.530	0.0152334
800.608	0.0152646
800.686	0.0152498
800.764	0.0152486
800.842	0.0152480
800.920	0.0152281
800.998	0.0153226
801.076	0.0153507
801.155	0.0151273
801.233	0.0152886
801.311	0.0153795
801.389	0.0153532
801.467	0.0151851
801.545	0.0153444
801.623	0.0153090
801.701	0.0151522
801.780	0.0153954
801.858	0.0151951
801.936	0.0153259
802.014	0.0152937
802.092	0.0152573
802.170	0.0152291
802.248	0.0152538
802.326	0.0152000
802.405	0.0153197
802.483	0.0153824
802.561	0.0152228
802.639	0.0153159
802.717	0.0152325
802.795	0.0151559
802.873	0.0152230
802.951	0.0151331
803.030	0.0152827
803.108	0.0153120
803.186	0.0152260
803.264	0.0151465
803.342	0.0151236
803.420	0.0151672
803.498	0.0150693
803.576	0.0149625
803.655	0.0150001
803.733	0.0151802
803.811	0.0150914
803.889	0.0150541
803.967	0.0150338
804.045	0.0151112
804.123	0.0149911
804.201	0.0151475
804.280	0.0151127
804.358	0.0151230
804.436	0.0149807
804.514	0.0151891
804.592	0.0150786
804.670	0.0150740
804.748	0.0151038
804.826	0.0150809
804.905	0.0152251
804.983	0.0151619
805.061	0.0151567
805.139	0.0150675
805.217	0.0151093
805.295	0.0151023
805.373	0.0151645
805.451	0.0151614
805.530	0.0151424
805.608	0.0153154
805.686	0.0152199
805.764	0.0153142
805.842	0.0152477
805.920	0.0151992
805.998	0.0153281
806.076	0.0153957
806.155	0.0152747
806.233	0.0153900
806.311	0.0153930
806.389	0.0153816
806.467	0.0153548
806.545	0.0153474
806.623	0.0152064
806.701	0.0153302
806.780	0.0153442
806.858	0.0154502
806.936	0.0151858
807.014	0.0151814
807.092	0.0151175
807.170	0.0152798
807.248	0.0151202
807.326	0.0151398
807.405	0.0152166
807.483	0.0149956
807.561	0.0151047
807.639	0.0149932
807.717	0.0151494
807.795	0.0151417
807.873	0.0150481
807.951	0.0149777
808.030	0.0151411
808.108	0.0151053
808.186	0.0150310
808.264	0.0151405
808.342	0.0149917
808.420	0.0149287
808.498	0.0151045
808.576	0.0151123
808.655	0.0151755
808.733	0.0151881
808.811	0.0150720
808.889	0.0151130
808.967	0.0151440
809.045	0.0150890
809.123	0.0151701
809.201	0.0151078
809.280	0.0151704
809.358	0.0151377
809.436	0.0151429
809.514	0.0151697
809.592	0.0152135
809.670	0.0152399
809.748	0.0152139
809.826	0.0151343
809.905	0.0151761
809.983	0.0152307
810.061	0.0152882
810.139	0.0152853
810.217	0.0153978
810.295	0.0152266
810.373	0.0153131
810.451	0.0153981
810.530	0.0153806
810.608	0.0153462
810.686	0.0153819
810.764	0.0153574
810.842	0.0153517
810.920	0.0153417
810.998	0.0152198
811.076	0.0153513
811.155	0.0152285
811.233	0.0152454
811.311	0.0152048
811.389	0.0152758
811.467	0.0153597
811.545	0.0153888
811.623	0.0152734
811.701	0.0153477
811.780	0.0152357
811.858	0.0151756
811.936	0.0151311
812.014	0.0151504
812.092	0.0151472
812.170	0.0152424
812.248	0.0151171
812.326	0.0152660
812.405	0.0152678
812.483	0.0153448
812.561	0.0152356
812.639	0.0152081
812.717	0.0151808
812.795	0.0151100
812.873	0.0150842
812.951	0.0151521
813.030	0.0150903
813.108	0.0151081
813.186	0.0151362
813.264	0.0151310
813.342	0.0150335
813.420	0.0151786
813.498	0.0152521
813.576	0.0151543
813.655	0.0151506
813.733	0.0151501
813.811	0.0151598
813.889	0.0152621
813.967	0.0151083
814.045	0.0153126
814.123	0.0151733
814.201	0.0151366
814.280	0.0153404
814.358	0.0152043
814.436	0.0152258
814.514	0.0153155
814.592	0.0152004
814.670	0.0152995
814.748	0.0152391
814.826	0.0151151
814.905	0.0152650
814.983	0.0151839
815.061	0.0152863
815.139	0.0151206
815.217	0.0151937
815.295	0.0150655
815.373	0.0150803
815.451	0.0150809
815.530	0.0149877
815.608	0.0151340
815.686	0.0150810
815.764	0.0151495
815.842	0.0151994
815.920	0.0152003
815.998	0.0152015
816.076	0.0152380
816.155	0.0150617
816.233	0.0151627
816.311	0.0153287
816.389	0.0152110
816.467	0.0152998
816.545	0.0152290
816.623	0.0153799
816.701	0.0152719
816.780	0.0154216
816.858	0.0153029
816.936	0.0153009
817.014	0.0153694
817.092	0.0154274
817.170	0.0154738
817.248	0.0155117
817.326	0.0154286
817.405	0.0154034
817.483	0.0154421
817.561	0.0153327
817.639	0.0152827
817.717	0.0154282
817.795	0.0152875
817.873	0.0153053
817.951	0.0151933
818.030	0.0151349
818.108	0.0150395
818.186	0.0150950
818.264	0.0151138
818.342	0.0149403
818.420	0.0150343
818.498	0.0151475
818.576	0.0149483
818.655	0.0149189
818.733	0.0151579
818.811	0.0151303
818.889	0.0150093
818.967	0.0150697
819.045	0.0150310
819.123	0.0150698
819.201	0.0149594
819.280	0.0151747
819.358	0.0151192
819.436	0.0150890
819.514	0.0151334
819.592	0.0150196
819.670	0.0150110
819.748	0.0150401
819.826	0.0152969
819.905	0.0152367
819.983	0.0152153
820.061	0.0154736
820.139	0.0152364
820.217	0.0153628
820.295	0.0152875
820.373	0.0153036
820.451	0.0153812
820.530	0.0154080
820.608	0.0152317
820.686	0.0152966
820.764	0.0152763
820.842	0.0153889
820.920	0.0152059
820.998	0.0151290
821.076	0.0152069
821.155	0.0152435
821.233	0.0153061
821.311	0.0152582
821.389	0.0152415
821.467	0.0153175
821.545	0.0152420
821.623	0.0152627
821.701	0.0152297
821.780	0.0151837
821.858	0.0153059
821.936	0.0153355
822.014	0.0152502
822.092	0.0152883
822.170	0.0153075
822.248	0.0152006
822.326	0.0152541
822.405	0.0152306
822.483	0.0152071
822.561	0.0153701
822.639	0.0151426
822.717	0.0151120
822.795	0.0152431
822.873	0.0152418
822.951	0.0153726
823.030	0.0153374
823.108	0.0152684
823.186	0.0153078
823.264	0.0153345
823.342	0.0152787
823.420	0.0152365
823.498	0.0153546
823.576	0.0154150
823.655	0.0152935
823.733	0.0152731
823.811	0.0152892
823.889	0.0152449
823.967	0.0155351
824.045	0.0153934
824.123	0.0151989
824.201	0.0152357
824.280	0.0152422
824.358	0.0153324
824.436	0.0152920
824.514	0.0152892
824.592	0.0152540
824.670	0.0152041
824.748	0.0154543
824.826	0.0153362
824.905	0.0153039
824.983	0.0152654
825.061	0.0153187
825.139	0.0153457
825.217	0.0152891
825.295	0.0153487
825.373	0.0153933
825.451	0.0153535
825.530	0.0153587
825.608	0.0152926
825.686	0.0153328
825.764	0.0153246
825.842	0.0154234
825.920	0.0152801
825.998	0.0153941
826.076	0.0153233
826.155	0.0152004
826.233	0.0153848
826.311	0.0152839
826.389	0.0153727
826.467	0.0152941
826.545	0.0152467
826.623	0.0153705
826.701	0.0152837
826.780	0.0152480
826.858	0.0153254
826.936	0.0153199
827.014	0.0153475
827.092	0.0152998
827.170	0.0152709
827.248	0.0152768
827.326	0.0152816
827.405	0.0152773
827.483	0.0152724
827.561	0.0153136
827.639	0.0152508
827.717	0.0152254
827.795	0.0152981
827.873	0.0153436
827.951	0.0153932
828.030	0.0154729
828.108	0.0153023
828.186	0.0151620
828.264	0.0152119
828.342	0.0154247
828.420	0.0153291
828.498	0.0154356
828.576	0.0153005
828.655	0.0152779
828.733	0.0151871
828.811	0.0153583
828.889	0.0153134
828.967	0.0152596
829.045	0.0152321
829.123	0.0152081
829.201	0.0151772
829.280	0.0150664
829.358	0.0152095
829.436	0.0152765
829.514	0.0153479
829.592	0.0152558
829.670	0.0152147
829.748	0.0153062
829.826	0.0152827
829.905	0.0153613
829.983	0.0154628
830.061	0.0155952
830.139	0.0154938
830.217	0.0153821
830.295	0.0154768
830.373	0.0155463
830.451	0.0155371
830.530	0.0155040
830.608	0.0155296
830.686	0.0153519
830.764	0.0154002
830.842	0.0155202
830.920	0.0154162
830.998	0.0154469
831.076	0.0154504
831.155	0.0153756
831.233	0.0153762
831.311	0.0153743
831.389	0.0155457
831.467	0.0155094
831.545	0.0154259
831.623	0.0154994
831.701	0.0154321
831.780	0.0155090
831.858	0.0155170
831.936	0.0155421
832.014	0.0154409
832.092	0.0155432
832.170	0.0155590
832.248	0.0155357
832.326	0.0155330
832.405	0.0154478
832.483	0.0155058
832.561	0.0154327
832.639	0.0154215
832.717	0.0155594
832.795	0.0153736
832.873	0.0155269
832.951	0.0155019
833.030	0.0155640
833.108	0.0154250
833.186	0.0154601
833.264	0.0154758
833.342	0.0155146
833.420	0.0154794
833.498	0.0154978
833.576	0.0153954
833.655	0.0153205
833.733	0.0153116
833.811	0.0153175
833.889	0.0152142
833.967	0.0153508
834.045	0.0153860
834.123	0.0153248
834.201	0.0153645
834.280	0.0153770
834.358	0.0151889
834.436	0.0152479
834.514	0.0151207
834.592	0.0152073
834.670	0.0153192
834.748	0.0152565
834.826	0.0151494
834.905	0.0151246
834.983	0.0151437
835.061	0.0150909
835.139	0.0152650
835.217	0.0153162
835.295	0.0152416
835.373	0.0151865
835.451	0.0151717
835.530	0.0153152
835.608	0.0152338
835.686	0.0151926
835.764	0.0152402
835.842	0.0152356
835.920	0.0150220
835.998	0.0151820
836.076	0.0152035
836.155	0.0153235
836.233	0.0152457
836.311	0.0152257
836.389	0.0151201
836.467	0.0151692
836.545	0.0151558
836.623	0.0152089
836.701	0.0152361
836.780	0.0152122
836.858	0.0152570
836.936	0.0151654
837.014	0.0151206
837.092	0.0151034
837.170	0.0152602
837.248	0.0151276
837.326	0.0151833
837.405	0.0153161
837.483	0.0152172
837.561	0.0151980
837.639	0.0151838
837.717	0.0154168
837.795	0.0153162
837.873	0.0151588
837.951	0.0151671
838.030	0.0151914
838.108	0.0151802
838.186	0.0151981
838.264	0.0152464
838.342	0.0153272
838.420	0.0152131
838.498	0.0152179
838.576	0.0152350
838.655	0.0151315
838.733	0.0152215
838.811	0.0151046
838.889	0.0151192
838.967	0.0150984
839.045	0.0150256
839.123	0.0151060
839.201	0.0150636
839.280	0.0149932
839.358	0.0149914
839.436	0.0150038
839.514	0.0149226
839.592	0.0151730
839.670	0.0152057
839.748	0.0151214
839.826	0.0151195
839.905	0.0150979
839.983	0.0150756
840.061	0.0150140
840.139	0.0151964
840.217	0.0152031
840.295	0.0152430
840.373	0.0150674
840.451	0.0152065
840.530	0.0151258
840.608	0.0152419
840.686	0.0153905
840.764	0.0151725
840.842	0.0152197
840.920	0.0151304
840.998	0.0152053
841.076	0.0151859
841.155	0.0153331
841.233	0.0152199
841.311	0.0152303
841.389	0.0152886
841.467	0.0152045
841.545	0.0151964
841.623	0.0152441
841.701	0.0152535
841.780	0.0152640
841.858	0.0152496
841.936	0.0152834
842.014	0.0151666
842.092	0.0152576
842.170	0.0152290
842.248	0.0151456
842.326	0.0152052
842.405	0.0150957
842.483	0.0151866
842.561	0.0152005
842.639	0.0153068
842.717	0.0151173
842.795	0.0151991
842.873	0.0153046
842.951	0.0152453
843.030	0.0151032
843.108	0.0150977
843.186	0.0153648
843.264	0.0152375
843.342	0.0152663
843.420	0.0153458
843.498	0.0152326
843.576	0.0152834
843.655	0.0152866
843.733	0.0153339
843.811	0.0152680
843.889	0.0152161
843.967	0.0152930
844.045	0.0153557
844.123	0.0153436
844.201	0.0153017
844.280	0.0152978
844.358	0.0153068
844.436	0.0152775
844.514	0.0152396
844.592	0.0152702
844.670	0.0153168
844.748	0.0152541
844.826	0.0151949
844.905	0.0152242
844.983	0.0152930
845.061	0.0153683
845.139	0.0153242
845.217	0.0150674
845.295	0.0153432
845.373	0.0154342
845.451	0.0153081
845.530	0.0152526
845.608	0.0152143
845.686	0.0153403
845.764	0.0152451
845.842	0.0152695
845.920	0.0153387
845.998	0.0152221
846.076	0.0152031
846.155	0.0152586
846.233	0.0153651
846.311	0.0153347
846.389	0.0152823
846.467	0.0151750
846.545	0.0152799
846.623	0.0153299
846.701	0.0152285
846.780	0.0152457
846.858	0.0151573
846.936	0.0152122
847.014	0.0152088
847.092	0.0153178
847.170	0.0152266
847.248	0.0153017
847.326	0.0152708
847.405	0.0152036
847.483	0.0153755
847.561	0.0153163
847.639	0.0152719
847.717	0.0153284
847.795	0.0151651
847.873	0.0152880
847.951	0.0151730
848.030	0.0152934
848.108	0.0153012
848.186	0.0152351
848.264	0.0152258
848.342	0.0153267
848.420	0.0151714
848.498	0.0151981
848.576	0.0152641
848.655	0.0152722
848.733	0.0152261
848.811	0.0152260
848.889	0.0152637
848.967	0.0152380
849.045	0.0151868
849.123	0.0152917
849.201	0.0152914
849.280	0.0153108
849.358	0.0152477
849.436	0.0151516
849.514	0.0151889
849.592	0.0153042
849.670	0.0152911
849.748	0.0152560
849.826	0.0151916
849.905	0.0152193
849.983	0.0153198
850.061	0.0153555
850.139	0.0153876
850.217	0.0152314
850.295	0.0152917
850.373	0.0153236
850.451	0.0154729
850.530	0.0153904
850.608	0.0154797
850.686	0.0153586
850.764	0.0153801
850.842	0.0154145
850.920	0.0154671
850.998	0.0153444
851.076	0.0154874
851.155	0.0153922
851.233	0.0154560
851.311	0.0155042
851.389	0.0155064
851.467	0.0155543
851.545	0.0155015
851.623	0.0155586
851.701	0.0155040
851.780	0.0155889
851.858	0.0154393
851.936	0.0154205
852.014	0.0154623
852.092	0.0154398
852.170	0.0154942
852.248	0.0153754
852.326	0.0153424
852.405	0.0152569
852.483	0.0153638
852.561	0.0152921
852.639	0.0153877
852.717	0.0152720
852.795	0.0154675
852.873	0.0153434
852.951	0.0153178
853.030	0.0151963
853.108	0.0152881
853.186	0.0153586
853.264	0.0152618
853.342	0.0153037
853.420	0.0153708
853.498	0.0153253
853.576	0.0152975
853.655	0.0152559
853.733	0.0152187
853.811	0.0151993
853.889	0.0152347
853.967	0.0153169
854.045	0.0153442
854.123	0.0152452
854.201	0.0153008
854.280	0.0153689
854.358	0.0154050
854.436	0.0153938
854.514	0.0154106
854.592	0.0152676
854.670	0.0154266
854.748	0.0152947
854.826	0.0153648
854.905	0.0153674
854.983	0.0154964
855.061	0.0153593
855.139	0.0153333
855.217	0.0154295
855.295	0.0153745
855.373	0.0153519
855.451	0.0153378
855.530	0.0154604
855.608	0.0154130
855.686	0.0154429
855.764	0.0155244
855.842	0.0153559
855.920	0.0152933
855.998	0.0152945
856.076	0.0154874
856.155	0.0154990
856.233	0.0155282
856.311	0.0153226
856.389	0.0154116
856.467	0.0155194
856.545	0.0154350
856.623	0.0155263
856.701	0.0154272
856.780	0.0154643
856.858	0.0153922
856.936	0.0153537
857.014	0.0155450
857.092	0.0155704
857.170	0.0154012
857.248	0.0154238
857.326	0.0153621
857.405	0.0154407
857.483	0.0153050
857.561	0.0153265
857.639	0.0155270
857.717	0.0152879
857.795	0.0153179
857.873	0.0153823
857.951	0.0153608
858.030	0.0153178
858.108	0.0152296
858.186	0.0151875
858.264	0.0152147
858.342	0.0152016
858.420	0.0152296
858.498	0.0153586
858.576	0.0152267
858.655	0.0150826
858.733	0.0151981
858.811	0.0152151
858.889	0.0153765
858.967	0.0153340
859.045	0.0152037
859.123	0.0151717
859.201	0.0152674
859.280	0.0152271
859.358	0.0151707
859.436	0.0152972
859.514	0.0153506
859.592	0.0153018
859.670	0.0151012
859.748	0.0151711
859.826	0.0152364
859.905	0.0152948
859.983	0.0151528
860.061	0.0152874
860.139	0.0153940
860.217	0.0152289
860.295	0.0150515
860.373	0.0150301
860.451	0.0150611
860.530	0.0152686
860.608	0.0152077
860.686	0.0151344
860.764	0.0150520
860.842	0.0151077
860.920	0.0151223
860.998	0.0150384
861.076	0.0150591
861.155	0.0151548
861.233	0.0151445
861.311	0.0149964
861.389	0.0151244
861.467	0.0151676
861.545	0.0150804
861.623	0.0150372
861.701	0.0150803
861.780	0.0150634
861.858	0.0151773
861.936	0.0150171
862.014	0.0150983
862.092	0.0150778
862.170	0.0150773
862.248	0.0150327
862.326	0.0150805
862.405	0.0151566
862.483	0.0151440
862.561	0.0150741
862.639	0.0150121
862.717	0.0150748
862.795	0.0151360
862.873	0.0152267
862.951	0.0151585
863.030	0.0150957
863.108	0.0151169
863.186	0.0150877
863.264	0.0150542
863.342	0.0150686
863.420	0.0149989
863.498	0.0151340
863.576	0.0151517
863.655	0.0150458
863.733	0.0151365
863.811	0.0151128
863.889	0.0150060
863.967	0.0152334
864.045	0.0152192
864.123	0.0152099
864.201	0.0150225
864.280	0.0151956
864.358	0.0153175
864.436	0.0151173
864.514	0.0150594
864.592	0.0151438
864.670	0.0151887
864.748	0.0152423
864.826	0.0152046
864.905	0.0152721
864.983	0.0152862
865.061	0.0151788
865.139	0.0153312
865.217	0.0151910
865.295	0.0152271
865.373	0.0152718
865.451	0.0151778
865.530	0.0150077
865.608	0.0152681
865.686	0.0151783
865.764	0.0151439
865.842	0.0151608
865.920	0.0151559
865.998	0.0152123
866.076	0.0153931
866.155	0.0152266
866.233	0.0150705
866.311	0.0151847
866.389	0.0152867
866.467	0.0150923
866.545	0.0151420
866.623	0.0149958
866.701	0.0151437
866.780	0.0151935
866.858	0.0151327
866.936	0.0151400
867.014	0.0151544
867.092	0.0151194
867.170	0.0149524
867.248	0.0151022
867.326	0.0150944
867.405	0.0151409
867.483	0.0151469
867.561	0.0151033
867.639	0.0151976
867.717	0.0152142
867.795	0.0151475
867.873	0.0152367
867.951	0.0152142
868.030	0.0150150
868.108	0.0150703
868.186	0.0151547
868.264	0.0152537
868.342	0.0152243
868.420	0.0151668
868.498	0.0151667
868.576	0.0152428
868.655	0.0152581
868.733	0.0152371
868.811	0.0152480
868.889	0.0152892
868.967	0.0151558
869.045	0.0151938
869.123	0.0152533
869.201	0.0149873
869.280	0.0151167
869.358	0.0153670
869.436	0.0153348
869.514	0.0152834
869.592	0.0151478
869.670	0.0152390
869.748	0.0153329
869.826	0.0153770
869.905	0.0151639
869.983	0.0152966
870.061	0.0152702
870.139	0.0152647
870.217	0.0152261
870.295	0.0152869
870.373	0.0152690
870.451	0.0151561
870.530	0.0152671
870.608	0.0153385
870.686	0.0153560
870.764	0.0152660
870.842	0.0152798
870.920	0.0152728
870.998	0.0151984
871.076	0.0151427
871.155	0.0152419
871.233	0.0153509
871.311	0.0152026
871.389	0.0152856
871.467	0.0152764
871.545	0.0153077
871.623	0.0152122
871.701	0.0153484
871.780	0.0153194
871.858	0.0152222
871.936	0.0152274
872.014	0.0152654
872.092	0.0154368
872.170	0.0153549
872.248	0.0153674
872.326	0.0154145
872.405	0.0153491
872.483	0.0151889
872.561	0.0153242
872.639	0.0152946
872.717	0.0152918
872.795	0.0153598
872.873	0.0152866
872.951	0.0152964
873.030	0.0153360
873.108	0.0154062
873.186	0.0153320
873.264	0.0154182
873.342	0.0153786
873.420	0.0151678
873.498	0.0151742
873.576	0.0153000
873.655	0.0153510
873.733	0.0152882
873.811	0.0153443
873.889	0.0152839
873.967	0.0152987
874.045	0.0152467
874.123	0.0153540
874.201	0.0153879
874.280	0.0151653
874.358	0.0153677
874.436	0.0152843
874.514	0.0151490
874.592	0.0151978
874.670	0.0153245
874.748	0.0151190
874.826	0.0152222
874.905	0.0151801
874.983	0.0150929
875.061	0.0151998
875.139	0.0152191
875.217	0.0151308
875.295	0.0151906
875.373	0.0153286
875.451	0.0150712
875.530	0.0151015
875.608	0.0152347
875.686	0.0152209
875.764	0.0151611
875.842	0.0150908
875.920	0.0151407
875.998	0.0153545
876.076	0.0152506
876.155	0.0151689
876.233	0.0152362
876.311	0.0152108
876.389	0.0151478
876.467	0.0152201
876.545	0.0150795
876.623	0.0152738
876.701	0.0152201
876.780	0.0154332
876.858	0.0153739
876.936	0.0153584
877.014	0.0153124
877.092	0.0153340
877.170	0.0153745
877.248	0.0154353
877.326	0.0153470
877.405	0.0154089
877.483	0.0153614
877.561	0.0154713
877.639	0.0151871
877.717	0.0153371
877.795	0.0153677
877.873	0.0153131
877.951	0.0152663
878.030	0.0153915
878.108	0.0153616
878.186	0.0154356
878.264	0.0154330
878.342	0.0153796
878.420	0.0153241
878.498	0.0152678
878.576	0.0153212
878.655	0.0154535
878.733	0.0153566
878.811	0.0153687
878.889	0.0154212
878.967	0.0153516
879.045	0.0153344
879.123	0.0153719
879.201	0.0153605
879.280	0.0153427
879.358	0.0153465
879.436	0.0152344
879.514	0.0152791
879.592	0.0151413
879.670	0.0152783
879.748	0.0152641
879.826	0.0153551
879.905	0.0151814
879.983	0.0152713
880.061	0.0153412
880.139	0.0153699
880.217	0.0152435
880.295	0.0153245
880.373	0.0151471
880.451	0.0152200
880.530	0.0153288
880.608	0.0151324
880.686	0.0151816
880.764	0.0150958
880.842	0.0151733
880.920	0.0151391
880.998	0.0152943
881.076	0.0152691
881.155	0.0151712
881.233	0.0152235
881.311	0.0153098
881.389	0.0153849
881.467	0.0152113
881.545	0.0153160
881.623	0.0152583
881.701	0.0152296
881.780	0.0152000
881.858	0.0152415
881.936	0.0152233
882.014	0.0152393
882.092	0.0152312
882.170	0.0152451
882.248	0.0153725
882.326	0.0151719
882.405	0.0151730
882.483	0.0152271
882.561	0.0152674
882.639	0.0153370
882.717	0.0152265
882.795	0.0151445
882.873	0.0153293
882.951	0.0153468
883.030	0.0152642
883.108	0.0152725
883.186	0.0151583
883.264	0.0151759
883.342	0.0152363
883.420	0.0150903
883.498	0.0153869
883.576	0.0153507
883.655	0.0151916
883.733	0.0152676
883.811	0.0153168
883.889	0.0155057
883.967	0.0153605
884.045	0.0151926
884.123	0.0151604
884.201	0.0152784
884.280	0.0152641
884.358	0.0153825
884.436	0.0154036
884.514	0.0153300
884.592	0.0153422
884.670	0.0151931
884.748	0.0154322
884.826	0.0153551
884.905	0.0152509
884.983	0.0152418
885.061	0.0152119
885.139	0.0152363
885.217	0.0153944
885.295	0.0152792
885.373	0.0151642
885.451	0.0152200
885.530	0.0153880
885.608	0.0152871
885.686	0.0151267
885.764	0.0150931
885.842	0.0151314
885.920	0.0152132
885.998	0.0151235
886.076	0.0152274
886.155	0.0151921
886.233	0.0151424
886.311	0.0153153
886.389	0.0151842
886.467	0.0152473
886.545	0.0152821
886.623	0.0152130
886.701	0.0152000
886.780	0.0152564
886.858	0.0152668
886.936	0.0152599
887.014	0.0152822
887.092	0.0152475
887.170	0.0153111
887.248	0.0153391
887.326	0.0152206
887.405	0.0152185
887.483	0.0151650
887.561	0.0151936
887.639	0.0152295
887.717	0.0152788
887.795	0.0152895
887.873	0.0152403
887.951	0.0151571
888.030	0.0152028
888.108	0.0151760
888.186	0.0151619
888.264	0.0151625
888.342	0.0152480
888.420	0.0152821
888.498	0.0152066
888.576	0.0151183
888.655	0.0150259
888.733	0.0153237
888.811	0.0153141
888.889	0.0151437
888.967	0.0151047
889.045	0.0150951
889.123	0.0152945
889.201	0.0151057
889.280	0.0151258
889.358	0.0152468
889.436	0.0152921
889.514	0.0151247
889.592	0.0151019
889.670	0.0153743
889.748	0.0152978
889.826	0.0152717
889.905	0.0152158
889.983	0.0151161
890.061	0.0154200
890.139	0.0152644
890.217	0.0152164
890.295	0.0153010
890.373	0.0152709
890.451	0.0151289
890.530	0.0151198
890.608	0.0151570
890.686	0.0153117
890.764	0.0152641
890.842	0.0150983
890.920	0.0151738
890.998	0.0153851
891.076	0.0153141
891.155	0.0153140
891.233	0.0152504
891.311	0.0154021
891.389	0.0153498
891.467	0.0153352
891.545	0.0152300
891.623	0.0151665
891.701	0.0152168
891.780	0.0153469
891.858	0.0152006
891.936	0.0151941
892.014	0.0153144
892.092	0.0151637
892.170	0.0152563
892.248	0.0151839
892.326	0.0152472
892.405	0.0152442
892.483	0.0151989
892.561	0.0151918
892.639	0.0151582
892.717	0.0152262
892.795	0.0152545
892.873	0.0151614
892.951	0.0150392
893.030	0.0151305
893.108	0.0151212
893.186	0.0151888
893.264	0.0151302
893.342	0.0151538
893.420	0.0152772
893.498	0.0151415
893.576	0.0152576
893.655	0.0152610
893.733	0.0152374
893.811	0.0154476
893.889	0.0153611
893.967	0.0152495
894.045	0.0153240
894.123	0.0153885
894.201	0.0154483
894.280	0.0152746
894.358	0.0153145
894.436	0.0154601
894.514	0.0154577
894.592	0.0152902
894.670	0.0152502
894.748	0.0153668
894.826	0.0153706
894.905	0.0154435
894.983	0.0154009
895.061	0.0152388
895.139	0.0152977
895.217	0.0152252
895.295	0.0152782
895.373	0.0151846
895.451	0.0151397
895.530	0.0151402
895.608	0.0152607
895.686	0.0151487
895.764	0.0151160
895.842	0.0151108
895.920	0.0151624
895.998	0.0151145
896.076	0.0150848
896.155	0.0151865
896.233	0.0151941
896.311	0.0152061
896.389	0.0152132
896.467	0.0152245
896.545	0.0152013
896.623	0.0151849
896.701	0.0152778
896.780	0.0151121
896.858	0.0151846
896.936	0.0150882
897.014	0.0153806
897.092	0.0153081
897.170	0.0152647
897.248	0.0151228
897.326	0.0151187
897.405	0.0152975
897.483	0.0152658
897.561	0.0153854
897.639	0.0153061
897.717	0.0151885
897.795	0.0153013
897.873	0.0152370
897.951	0.0152654
898.030	0.0151153
898.108	0.0152014
898.186	0.0150704
898.264	0.0152274
898.342	0.0151796
898.420	0.0150965
898.498	0.0151226
898.576	0.0151912
898.655	0.0151788
898.733	0.0153236
898.811	0.0151734
898.889	0.0151311
898.967	0.0152286
899.045	0.0152207
899.123	0.0150584
899.201	0.0150011
899.280	0.0152014
899.358	0.0151882
899.436	0.0151167
899.514	0.0151965
899.592	0.0152416
899.670	0.0151871
899.748	0.0150296
899.826	0.0152227
899.905	0.0151405
899.983	0.0152195
900.061	0.0150258
900.139	0.0152713
900.217	0.0152806
900.295	0.0152258
900.373	0.0151093
900.451	0.0150535
900.530	0.0152721
900.608	0.0151534
900.686	0.0152306
900.764	0.0152442
900.842	0.0152113
900.920	0.0152719
900.998	0.0150513
901.076	0.0150579
901.155	0.0150064
901.233	0.0151363
901.311	0.0151706
901.389	0.0151542
901.467	0.0152441
901.545	0.0152348
901.623	0.0151456
901.701	0.0152602
901.780	0.0151474
901.858	0.0152567
901.936	0.0154202
902.014	0.0152029
902.092	0.0153165
902.170	0.0154359
902.248	0.0153829
902.326	0.0152790
902.405	0.0154197
902.483	0.0154939
902.561	0.0155219
902.639	0.0154354
902.717	0.0154089
902.795	0.0153822
902.873	0.0153053
902.951	0.0154581
903.030	0.0153913
903.108	0.0153974
903.186	0.0154172
903.264	0.0155013
903.342	0.0153594
903.420	0.0153445
903.498	0.0153699
903.576	0.0153532
903.655	0.0155003
903.733	0.0154384
903.811	0.0153368
903.889	0.0155035
903.967	0.0154340
904.045	0.0154068
904.123	0.0155273
904.201	0.0153572
904.280	0.0152917
904.358	0.0156155
904.436	0.0154865
904.514	0.0154171
904.592	0.0154585
904.670	0.0155163
904.748	0.0153616
904.826	0.0154210
904.905	0.0154678
904.983	0.0155389
905.061	0.0154143
905.139	0.0154534
905.217	0.0153881
905.295	0.0154070
905.373	0.0154062
905.451	0.0152592
905.530	0.0154033
905.608	0.0153107
905.686	0.0153696
905.764	0.0152252
905.842	0.0153356
905.920	0.0152650
905.998	0.0153471
906.076	0.0152965
906.155	0.0151520
906.233	0.0152623
906.311	0.0152996
906.389	0.0153262
906.467	0.0151642
906.545	0.0152889
906.623	0.0152358
906.701	0.0152614
906.780	0.0151385
906.858	0.0152452
906.936	0.0152992
907.014	0.0152559
907.092	0.0153184
907.170	0.0151752
907.248	0.0151028
907.326	0.0152244
907.405	0.0153153
907.483	0.0151828
907.561	0.0153280
907.639	0.0153972
907.717	0.0153224
907.795	0.0151920
907.873	0.0154404
907.951	0.0152045
908.030	0.0153376
908.108	0.0152587
908.186	0.0152589
908.264	0.0151933
908.342	0.0152519
908.420	0.0152755
908.498	0.0154008
908.576	0.0153878
908.655	0.0152719
908.733	0.0152197
908.811	0.0151730
908.889	0.0152142
908.967	0.0151852
909.045	0.0151267
909.123	0.0152929
909.201	0.0154493
909.280	0.0153442
909.358	0.0151547
909.436	0.0152934
909.514	0.0152032
909.592	0.0151909
909.670	0.0151910
909.748	0.0152303
909.826	0.0152466
909.905	0.0152604
909.983	0.0152724
910.061	0.0151800
910.139	0.0153863
910.217	0.0153757
910.295	0.0152786
910.373	0.0152706
910.451	0.0151539
910.530	0.0150842
910.608	0.0152077
910.686	0.0153273
910.764	0.0152982
910.842	0.0152273
910.920	0.0152938
910.998	0.0151804
911.076	0.0153389
911.155	0.0153574
911.233	0.0154128
911.311	0.0153070
911.389	0.0151485
911.467	0.0153883
911.545	0.0154131
911.623	0.0151701
911.701	0.0152978
911.780	0.0152080
911.858	0.0151811
911.936	0.0153414
912.014	0.0152798
912.092	0.0152460
912.170	0.0152431
912.248	0.0152296
912.326	0.0150598
912.405	0.0151221
912.483	0.0152635
912.561	0.0151267
912.639	0.0152112
912.717	0.0152567
912.795	0.0151622
912.873	0.0151363
912.951	0.0152355
913.030	0.0153957
913.108	0.0153278
913.186	0.0150357
913.264	0.0151899
913.342	0.0152383
913.420	0.0153133
913.498	0.0152224
913.576	0.0151288
913.655	0.0151704
913.733	0.0152943
913.811	0.0152374
913.889	0.0152612
913.967	0.0153129
914.045	0.0152908
914.123	0.0152105
914.201	0.0151360
914.280	0.0153237
914.358	0.0154383
914.436	0.0153309
914.514	0.0152203
914.592	0.0152225
914.670	0.0153977
914.748	0.0153288
914.826	0.0152801
914.905	0.0152213
914.983	0.0151494
915.061	0.0152763
915.139	0.0154172
915.217	0.0154082
915.295	0.0152221
915.373	0.0153050
915.451	0.0153896
915.530	0.0152609
915.608	0.0154385
915.686	0.0152469
915.764	0.0153396
915.842	0.0153398
915.920	0.0151591
915.998	0.0152334
916.076	0.0153972
916.155	0.0152403
916.233	0.0153142
916.311	0.0152440
916.389	0.0152302
916.467	0.0151707
916.545	0.0151619
916.623	0.0153075
916.701	0.0152613
916.780	0.0149750
916.858	0.0151110
916.936	0.0150395
917.014	0.0151805
917.092	0.0152948
917.170	0.0153278
917.248	0.0151131
917.326	0.0151570
917.405	0.0151556
917.483	0.0150735
917.561	0.0150831
917.639	0.0151971
917.717	0.0152788
917.795	0.0152351
917.873	0.0150912
917.951	0.0151487
918.030	0.0151420
918.108	0.0151694
918.186	0.0152637
918.264	0.0153132
918.342	0.0152358
918.420	0.0151804
918.498	0.0153198
918.576	0.0153666
918.655	0.0153312
918.733	0.0151812
918.811	0.0151875
918.889	0.0153021
918.967	0.0152121
919.045	0.0152542
919.123	0.0151712
919.201	0.0152991
919.280	0.0151132
919.358	0.0153228
919.436	0.0153330
919.514	0.0152817
919.592	0.0151215
919.670	0.0152361
919.748	0.0152673
919.826	0.0153316
919.905	0.0153606
919.983	0.0152711
920.061	0.0152924
920.139	0.0152905
920.217	0.0151608
920.295	0.0153119
920.373	0.0151486
920.451	0.0150848
920.530	0.0152576
920.608	0.0151971
920.686	0.0152769
920.764	0.0152103
920.842	0.0152685
920.920	0.0150967
920.998	0.0151370
921.076	0.0151953
921.155	0.0151225
921.233	0.0151680
921.311	0.0150714
921.389	0.0150594
921.467	0.0151594
921.545	0.0149319
921.623	0.0151582
921.701	0.0150720
921.780	0.0152015
921.858	0.0150851
921.936	0.0150331
922.014	0.0151370
922.092	0.0151167
922.170	0.0150304
922.248	0.0150681
922.326	0.0151118
922.405	0.0150923
922.483	0.0151823
922.561	0.0150809
922.639	0.0152062
922.717	0.0152757
922.795	0.0151154
922.873	0.0149820
922.951	0.0150307
923.030	0.0152490
923.108	0.0151093
923.186	0.0151875
923.264	0.0154197
923.342	0.0152092
923.420	0.0151012
923.498	0.0152787
923.576	0.0154704
923.655	0.0154026
923.733	0.0152386
923.811	0.0152103
923.889	0.0153302
923.967	0.0150928
924.045	0.0152764
924.123	0.0151995
924.201	0.0152470
924.280	0.0153024
924.358	0.0151910
924.436	0.0153589
924.514	0.0152859
924.592	0.0153270
924.670	0.0154730
924.748	0.0152726
924.826	0.0152990
924.905	0.0152875
924.983	0.0153143
925.061	0.0154055
925.139	0.0152619
925.217	0.0153043
925.295	0.0153511
925.373	0.0153458
925.451	0.0153210
925.530	0.0153111
925.608	0.0153187
925.686	0.0152850
925.764	0.0151949
925.842	0.0151927
925.920	0.0151578
925.998	0.0152323
926.076	0.0152130
926.155	0.0151481
926.233	0.0151678
926.311	0.0151456
926.389	0.0152055
926.467	0.0151373
926.545	0.0151447
926.623	0.0153468
926.701	0.0152302
926.780	0.0151936
926.858	0.0152600
926.936	0.0152147
927.014	0.0153549
927.092	0.0151844
927.170	0.0153186
927.248	0.0152013
927.326	0.0153036
927.405	0.0154694
927.483	0.0153892
927.561	0.0153123
927.639	0.0152643
927.717	0.0153572
927.795	0.0152942
927.873	0.0153056
927.951	0.0152845
928.030	0.0152719
928.108	0.0151926
928.186	0.0153020
928.264	0.0153177
928.342	0.0153426
928.420	0.0154577
928.498	0.0152161
928.576	0.0153548
928.655	0.0153482
928.733	0.0152674
928.811	0.0152856
928.889	0.0152129
928.967	0.0153738
929.045	0.0153665
929.123	0.0153127
929.201	0.0153785
929.280	0.0153278
929.358	0.0153465
929.436	0.0153329
929.514	0.0154472
929.592	0.0153998
929.670	0.0155061
929.748	0.0154392
929.826	0.0154181
929.905	0.0154310
929.983	0.0154735
930.061	0.0153500
930.139	0.0152330
930.217	0.0153820
930.295	0.0154319
930.373	0.0154764
930.451	0.0153353
930.530	0.0154433
930.608	0.0154321
930.686	0.0152920
930.764	0.0153881
930.842	0.0153695
930.920	0.0153938
930.998	0.0153484
931.076	0.0153693
931.155	0.0153130
931.233	0.0153716
931.311	0.0153840
931.389	0.0154818
931.467	0.0154405
931.545	0.0152416
931.623	0.0151687
931.701	0.0153440
931.780	0.0152155
931.858	0.0151054
931.936	0.0151833
932.014	0.0152564
932.092	0.0152238
932.170	0.0152594
932.248	0.0152463
932.326	0.0152592
932.405	0.0151669
932.483	0.0151162
932.561	0.0152493
932.639	0.0151964
932.717	0.0152016
932.795	0.0152505
932.873	0.0150478
932.951	0.0151388
933.030	0.0150144
933.108	0.0151196
933.186	0.0152090
933.264	0.0152106
933.342	0.0151414
933.420	0.0152207
933.498	0.0151324
933.576	0.0151669
933.655	0.0151387
933.733	0.0150897
933.811	0.0151404
933.889	0.0151278
933.967	0.0151314
934.045	0.0151968
934.123	0.0152657
934.201	0.0152777
934.280	0.0150510
934.358	0.0151173
934.436	0.0151022
934.514	0.0151628
934.592	0.0153117
934.670	0.0152413
934.748	0.0151938
934.826	0.0152332
934.905	0.0153059
934.983	0.0153504
935.061	0.0152102
935.139	0.0153185
935.217	0.0152657
935.295	0.0152519
935.373	0.0154292
935.451	0.0152331
935.530	0.0152267
935.608	0.0153373
935.686	0.0153020
935.764	0.0152282
935.842	0.0151353
935.920	0.0152356
935.998	0.0152791
936.076	0.0151637
936.155	0.0151262
936.233	0.0152102
936.311	0.0151973
936.389	0.0151675
936.467	0.0152275
936.545	0.0152979
936.623	0.0152304
936.701	0.0151646
936.780	0.0152383
936.858	0.0151883
936.936	0.0152802
937.014	0.0151868
937.092	0.0152811
937.170	0.0152283
937.248	0.0151374
937.326	0.0152414
937.405	0.0152650
937.483	0.0152184
937.561	0.0152278
937.639	0.0151598
937.717	0.0152533
937.795	0.0152311
937.873	0.0153670
937.951	0.0152885
938.030	0.0153841
938.108	0.0153055
938.186	0.0152618
938.264	0.0154980
938.342	0.0152802
938.420	0.0152694
938.498	0.0153711
938.576	0.0153190
938.655	0.0153294
938.733	0.0153291
938.811	0.0153455
938.889	0.0152168
938.967	0.0152104
939.045	0.0152227
939.123	0.0154243
939.201	0.0153542
939.280	0.0152367
939.358	0.0152721
939.436	0.0153761
939.514	0.0151756
939.592	0.0151331
939.670	0.0152447
939.748	0.0152493
939.826	0.0151617
939.905	0.0151800
939.983	0.0152143
940.061	0.0151857
940.139	0.0151878
940.217	0.0150120
940.295	0.0152511
940.373	0.0152686
940.451	0.0152743
940.530	0.0151656
940.608	0.0151246
940.686	0.0151720
940.764	0.0153364
940.842	0.0152787
940.920	0.0152200
940.998	0.0150935
941.076	0.0151304
941.155	0.0152538
941.233	0.0151724
941.311	0.0151726
941.389	0.0152197
941.467	0.0153448
941.545	0.0152133
941.623	0.0152826
941.701	0.0151525
941.780	0.0151782
941.858	0.0152414
941.936	0.0151691
942.014	0.0152550
942.092	0.0152166
942.170	0.0151951
942.248	0.0151816
942.326	0.0152647
942.405	0.0153198
942.483	0.0153519
942.561	0.0151588
942.639	0.0152158
942.717	0.0152098
942.795	0.0151160
942.873	0.0151458
942.951	0.0151979
943.030	0.0151408
943.108	0.0153014
943.186	0.0151964
943.264	0.0152521
943.342	0.0152666
943.420	0.0151711
943.498	0.0151605
943.576	0.0151441
943.655	0.0151559
943.733	0.0151054
943.811	0.0151681
943.889	0.0151125
943.967	0.0153007
944.045	0.0151121
944.123	0.0151248
944.201	0.0151227
944.280	0.0150565
944.358	0.0152068
944.436	0.0150728
944.514	0.0150023
944.592	0.0150637
944.670	0.0150997
944.748	0.0149230
944.826	0.0150337
944.905	0.0150880
944.983	0.0151127
945.061	0.0151090
945.139	0.0151349
945.217	0.0149410
945.295	0.0150833
945.373	0.0150951
945.451	0.0150335
945.530	0.0150529
945.608	0.0150619
945.686	0.0150472
945.764	0.0151254
945.842	0.0151720
945.920	0.0150768
945.998	0.0150704
946.076	0.0151652
946.155	0.0151579
946.233	0.0150714
946.311	0.0151630
946.389	0.0150411
946.467	0.0151263
946.545	0.0151789
946.623	0.0152380
946.701	0.0152116
946.780	0.0151690
946.858	0.0152021
946.936	0.0151988
947.014	0.0151405
947.092	0.0151619
947.170	0.0150912
947.248	0.0150422
947.326	0.0150098
947.405	0.0152222
947.483	0.0152486
947.561	0.0152072
947.639	0.0150927
947.717	0.0151718
947.795	0.0151591
947.873	0.0152729
947.951	0.0150169
948.030	0.0150363
948.108	0.0151510
948.186	0.0152264
948.264	0.0151864
948.342	0.0153020
948.420	0.0151561
948.498	0.0151820
948.576	0.0152505
948.655	0.0152325
948.733	0.0150236
948.811	0.0152488
948.889	0.0152823
948.967	0.0151318
949.045	0.0150528
949.123	0.0150167
949.201	0.0152341
949.280	0.0151855
949.358	0.0151499
949.436	0.0153449
949.514	0.0151360
949.592	0.0152274
949.670	0.0150903
949.748	0.0150761
949.826	0.0153097
949.905	0.0151791
949.983	0.0151952
950.061	0.0152193
950.139	0.0150244
950.217	0.0151421
950.295	0.0152692
950.373	0.0151823
950.451	0.0152704
950.530	0.0151232
950.608	0.0151900
950.686	0.0152367
950.764	0.0152360
950.842	0.0151186
950.920	0.0151556
950.998	0.0151453
951.076	0.0152237
951.155	0.0151495
951.233	0.0151929
951.311	0.0152364
951.389	0.0153069
951.467	0.0152266
951.545	0.0152598
951.623	0.0151615
951.701	0.0152113
951.780	0.0152463
951.858	0.0151247
951.936	0.0153770
952.014	0.0152603
952.092	0.0152940
952.170	0.0152777
952.248	0.0152244
952.326	0.0153912
952.405	0.0152898
952.483	0.0151703
952.561	0.0151918
952.639	0.0152839
952.717	0.0152395
952.795	0.0151322
952.873	0.0152555
952.951	0.0154018
953.030	0.0152055
953.108	0.0150358
953.186	0.0152637
953.264	0.0152001
953.342	0.0152235
953.420	0.0152834
953.498	0.0151891
953.576	0.0152853
953.655	0.0153351
953.733	0.0151935
953.811	0.0152354
953.889	0.0151646
953.967	0.0152029
954.045	0.0151562
954.123	0.0152179
954.201	0.0152354
954.280	0.0153432
954.358	0.0152980
954.436	0.0152554
954.514	0.0152061
954.592	0.0153225
954.670	0.0153412
954.748	0.0152022
954.826	0.0153407
954.905	0.0152657
954.983	0.0152238
955.061	0.0153297
955.139	0.0153016
955.217	0.0151452
955.295	0.0152510
955.373	0.0152057
955.451	0.0151720
955.530	0.0152095
955.608	0.0152798
955.686	0.0153493
955.764	0.0152602
955.842	0.0151934
955.920	0.0152415
955.998	0.0153483
956.076	0.0152325
956.155	0.0151562
956.233	0.0153087
956.311	0.0152319
956.389	0.0153411
956.467	0.0151129
956.545	0.0153844
956.623	0.0151844
956.701	0.0151771
956.780	0.0152088
956.858	0.0151158
956.936	0.0151715
957.014	0.0151337
957.092	0.0152969
957.170	0.0152211
957.248	0.0152201
957.326	0.0150157
957.405	0.0151883
957.483	0.0152583
957.561	0.0151855
957.639	0.0152200
957.717	0.0152555
957.795	0.0153239
957.873	0.0152091
957.951	0.0151381
958.030	0.0151153
958.108	0.0152722
958.186	0.0151372
958.264	0.0152086
958.342	0.0153260
958.420	0.0152280
958.498	0.0152320
958.576	0.0151495
958.655	0.0152266
958.733	0.0153264
958.811	0.0151835
958.889	0.0151232
958.967	0.0151892
959.045	0.0151218
959.123	0.0152848
959.201	0.0152606
959.280	0.0151774
959.358	0.0151712
959.436	0.0152251
959.514	0.0152745
959.592	0.0152219
959.670	0.0152430
959.748	0.0152575
959.826	0.0152961
959.905	0.0152345
