05/20/2022	17:09:29	Ver.	4.1	UNKNOWN
Optical Delay	639.982744	Delta X		0.078125	Sweeps	1	Scan Rate	0/0
Coordinates	Axis 1	NaN	Axis 2	NaN	Axis 3	NaN	Axis 4	NaN	Axis 5	NaN	Axis 6	0.000000
TX Power	0.000000	RX Power	0.000000

639.983	0.0153379
640.061	0.0154467
640.139	0.0153126
640.217	0.0152602
640.295	0.0151717
640.373	0.0151978
640.451	0.0151538
640.530	0.0153796
640.608	0.0154497
640.686	0.0152573
640.764	0.0153127
640.842	0.0153004
640.920	0.0152333
640.998	0.0152294
641.076	0.0153102
641.155	0.0152793
641.233	0.0152951
641.311	0.0154338
641.389	0.0152567
641.467	0.0154253
641.545	0.0153121
641.623	0.0153224
641.701	0.0153278
641.780	0.0152777
641.858	0.0155410
641.936	0.0153854
642.014	0.0151678
642.092	0.0152341
642.170	0.0153595
642.248	0.0153786
642.326	0.0153326
642.405	0.0153123
642.483	0.0153230
642.561	0.0154084
642.639	0.0154198
642.717	0.0154048
642.795	0.0154292
642.873	0.0154262
642.951	0.0155127
643.030	0.0152752
643.108	0.0153693
643.186	0.0153609
643.264	0.0153787
643.342	0.0154421
643.420	0.0152932
643.498	0.0154429
643.576	0.0154749
643.655	0.0154892
643.733	0.0154152
643.811	0.0155151
643.889	0.0155759
643.967	0.0155025
644.045	0.0154965
644.123	0.0155217
644.201	0.0153832
644.280	0.0156272
644.358	0.0154488
644.436	0.0155489
644.514	0.0156725
644.592	0.0156675
644.670	0.0155698
644.748	0.0155414
644.826	0.0155186
644.905	0.0156148
644.983	0.0156801
645.061	0.0156607
645.139	0.0156342
645.217	0.0154759
645.295	0.0154675
645.373	0.0157247
645.451	0.0157434
645.530	0.0155437
645.608	0.0155519
645.686	0.0154581
645.764	0.0155051
645.842	0.0157153
645.920	0.0157072
645.998	0.0154836
646.076	0.0154656
646.155	0.0154177
646.233	0.0155540
646.311	0.0156536
646.389	0.0156165
646.467	0.0155564
646.545	0.0155008
646.623	0.0153608
646.701	0.0156151
646.780	0.0155309
646.858	0.0155830
646.936	0.0154128
647.014	0.0153913
647.092	0.0154675
647.170	0.0155869
647.248	0.0156182
647.326	0.0154593
647.405	0.0155289
647.483	0.0157107
647.561	0.0155810
647.639	0.0155450
647.717	0.0155936
647.795	0.0154630
647.873	0.0156928
647.951	0.0156653
648.030	0.0156624
648.108	0.0156356
648.186	0.0154083
648.264	0.0155356
648.342	0.0156318
648.420	0.0155589
648.498	0.0156258
648.576	0.0155527
648.655	0.0154185
648.733	0.0156086
648.811	0.0155551
648.889	0.0155457
648.967	0.0155071
649.045	0.0155682
649.123	0.0156937
649.201	0.0156293
649.280	0.0155093
649.358	0.0154762
649.436	0.0155620
649.514	0.0155158
649.592	0.0155924
649.670	0.0155996
649.748	0.0155961
649.826	0.0154913
649.905	0.0155725
649.983	0.0156225
650.061	0.0155271
650.139	0.0156185
650.217	0.0155922
650.295	0.0155208
650.373	0.0155228
650.451	0.0155669
650.530	0.0155907
650.608	0.0153395
650.686	0.0155225
650.764	0.0154229
650.842	0.0152807
650.920	0.0155424
650.998	0.0154189
651.076	0.0155159
651.155	0.0155144
651.233	0.0153677
651.311	0.0155292
651.389	0.0155924
651.467	0.0154398
651.545	0.0155814
651.623	0.0156653
651.701	0.0156292
651.780	0.0157390
651.858	0.0154974
651.936	0.0155637
652.014	0.0156004
652.092	0.0156283
652.170	0.0155151
652.248	0.0154556
652.326	0.0156508
652.405	0.0156451
652.483	0.0155041
652.561	0.0155114
652.639	0.0156135
652.717	0.0155698
652.795	0.0154679
652.873	0.0154678
652.951	0.0154459
653.030	0.0154853
653.108	0.0154340
653.186	0.0153651
653.264	0.0154987
653.342	0.0155409
653.420	0.0155279
653.498	0.0155341
653.576	0.0155016
653.655	0.0154697
653.733	0.0157503
653.811	0.0156292
653.889	0.0156042
653.967	0.0155902
654.045	0.0156823
654.123	0.0157831
654.201	0.0157309
654.280	0.0155272
654.358	0.0156824
654.436	0.0157426
654.514	0.0157376
654.592	0.0158071
654.670	0.0157837
654.748	0.0156506
654.826	0.0156596
654.905	0.0155964
654.983	0.0156976
655.061	0.0157246
655.139	0.0157432
655.217	0.0158634
655.295	0.0157159
655.373	0.0156481
655.451	0.0156403
655.530	0.0155788
655.608	0.0157682
655.686	0.0156069
655.764	0.0156155
655.842	0.0156508
655.920	0.0155149
655.998	0.0155292
656.076	0.0156923
656.155	0.0155238
656.233	0.0155754
656.311	0.0155550
656.389	0.0156200
656.467	0.0155517
656.545	0.0155964
656.623	0.0156004
656.701	0.0156459
656.780	0.0156367
656.858	0.0156878
656.936	0.0156746
657.014	0.0156947
657.092	0.0157848
657.170	0.0157328
657.248	0.0156194
657.326	0.0155412
657.405	0.0155822
657.483	0.0156062
657.561	0.0156080
657.639	0.0155613
657.717	0.0155740
657.795	0.0154530
657.873	0.0154627
657.951	0.0154716
658.030	0.0154728
658.108	0.0154070
658.186	0.0154407
658.264	0.0154225
658.342	0.0155531
658.420	0.0155420
658.498	0.0155259
658.576	0.0155728
658.655	0.0155762
658.733	0.0157324
658.811	0.0155534
658.889	0.0156010
658.967	0.0155385
659.045	0.0156679
659.123	0.0156275
659.201	0.0156789
659.280	0.0157113
659.358	0.0155670
659.436	0.0155521
659.514	0.0155867
659.592	0.0155099
659.670	0.0155241
659.748	0.0154816
659.826	0.0154274
659.905	0.0154847
659.983	0.0154121
660.061	0.0153973
660.139	0.0154124
660.217	0.0154868
660.295	0.0154577
660.373	0.0154589
660.451	0.0152596
660.530	0.0155251
660.608	0.0155354
660.686	0.0153475
660.764	0.0152431
660.842	0.0153523
660.920	0.0152276
660.998	0.0152776
661.076	0.0153375
661.155	0.0153304
661.233	0.0153036
661.311	0.0154095
661.389	0.0152908
661.467	0.0152372
661.545	0.0153321
661.623	0.0153023
661.701	0.0153574
661.780	0.0153710
661.858	0.0153796
661.936	0.0152267
662.014	0.0152264
662.092	0.0152242
662.170	0.0151749
662.248	0.0152621
662.326	0.0150653
662.405	0.0149677
662.483	0.0151180
662.561	0.0150827
662.639	0.0151683
662.717	0.0152184
662.795	0.0151090
662.873	0.0151784
662.951	0.0151584
663.030	0.0152129
663.108	0.0152426
663.186	0.0155087
663.264	0.0154016
663.342	0.0155484
663.420	0.0152573
663.498	0.0153862
663.576	0.0155760
663.655	0.0154309
663.733	0.0154853
663.811	0.0153727
663.889	0.0155479
663.967	0.0154966
664.045	0.0157063
664.123	0.0156386
664.201	0.0156242
664.280	0.0156459
664.358	0.0156883
664.436	0.0156793
664.514	0.0156561
664.592	0.0156092
664.670	0.0158110
664.748	0.0157916
664.826	0.0157697
664.905	0.0157375
664.983	0.0156230
665.061	0.0155627
665.139	0.0155138
665.217	0.0154514
665.295	0.0153831
665.373	0.0153970
665.451	0.0153097
665.530	0.0151497
665.608	0.0151318
665.686	0.0150710
665.764	0.0150706
665.842	0.0148825
665.920	0.0148955
665.998	0.0147953
666.076	0.0148131
666.155	0.0149966
666.233	0.0147961
666.311	0.0147266
666.389	0.0147710
666.467	0.0147244
666.545	0.0148164
666.623	0.0146708
666.701	0.0146617
666.780	0.0147752
666.858	0.0147445
666.936	0.0149111
667.014	0.0149897
667.092	0.0149691
667.170	0.0149079
667.248	0.0150517
667.326	0.0151624
667.405	0.0152062
667.483	0.0155511
667.561	0.0155591
667.639	0.0156337
667.717	0.0156130
667.795	0.0157703
667.873	0.0159035
667.951	0.0159694
668.030	0.0159377
668.108	0.0161865
668.186	0.0163284
668.264	0.0162833
668.342	0.0163670
668.420	0.0165325
668.498	0.0164356
668.576	0.0165382
668.655	0.0166859
668.733	0.0167139
668.811	0.0166888
668.889	0.0166855
668.967	0.0165257
669.045	0.0166247
669.123	0.0166331
669.201	0.0163854
669.280	0.0163058
669.358	0.0162625
669.436	0.0160624
669.514	0.0161340
669.592	0.0157993
669.670	0.0157510
669.748	0.0155733
669.826	0.0153831
669.905	0.0152225
669.983	0.0150852
670.061	0.0150205
670.139	0.0148830
670.217	0.0146083
670.295	0.0146437
670.373	0.0145334
670.451	0.0144001
670.530	0.0143914
670.608	0.0143270
670.686	0.0144090
670.764	0.0143729
670.842	0.0143608
670.920	0.0143523
670.998	0.0144823
671.076	0.0145394
671.155	0.0145040
671.233	0.0144824
671.311	0.0145493
671.389	0.0148192
671.467	0.0147948
671.545	0.0148919
671.623	0.0150697
671.701	0.0151829
671.780	0.0153609
671.858	0.0153741
671.936	0.0155164
672.014	0.0156380
672.092	0.0157399
672.170	0.0156930
672.248	0.0159043
672.326	0.0161854
672.405	0.0162400
672.483	0.0161993
672.561	0.0163273
672.639	0.0162180
672.717	0.0163772
672.795	0.0165744
672.873	0.0164594
672.951	0.0164695
673.030	0.0166477
673.108	0.0165514
673.186	0.0166327
673.264	0.0166854
673.342	0.0166352
673.420	0.0165416
673.498	0.0165673
673.576	0.0163866
673.655	0.0162691
673.733	0.0162173
673.811	0.0160010
673.889	0.0158558
673.967	0.0157394
674.045	0.0154309
674.123	0.0154362
674.201	0.0153269
674.280	0.0150388
674.358	0.0150457
674.436	0.0147976
674.514	0.0146799
674.592	0.0143772
674.670	0.0144462
674.748	0.0143117
674.826	0.0143196
674.905	0.0142430
674.983	0.0142122
675.061	0.0142290
675.139	0.0141306
675.217	0.0140332
675.295	0.0140735
675.373	0.0140713
675.451	0.0141754
675.530	0.0143243
675.608	0.0143336
675.686	0.0143348
675.764	0.0147262
675.842	0.0146648
675.920	0.0149478
675.998	0.0150735
676.076	0.0151225
676.155	0.0154179
676.233	0.0156461
676.311	0.0157018
676.389	0.0158422
676.467	0.0159730
676.545	0.0161888
676.623	0.0162713
676.701	0.0163060
676.780	0.0165289
676.858	0.0165236
676.936	0.0164129
677.014	0.0165678
677.092	0.0165223
677.170	0.0165058
677.248	0.0165706
677.326	0.0166553
677.405	0.0164239
677.483	0.0163844
677.561	0.0163504
677.639	0.0163217
677.717	0.0160744
677.795	0.0160485
677.873	0.0160580
677.951	0.0158533
678.030	0.0156008
678.108	0.0156316
678.186	0.0155636
678.264	0.0154698
678.342	0.0153519
678.420	0.0152406
678.498	0.0152158
678.576	0.0150180
678.655	0.0151965
678.733	0.0153053
678.811	0.0153356
678.889	0.0152365
678.967	0.0152651
679.045	0.0153644
679.123	0.0152905
679.201	0.0153739
679.280	0.0153489
679.358	0.0155899
679.436	0.0155299
679.514	0.0153769
679.592	0.0157919
679.670	0.0156201
679.748	0.0155115
679.826	0.0155592
679.905	0.0156845
679.983	0.0156934
680.061	0.0157880
680.139	0.0158846
680.217	0.0158714
680.295	0.0158604
680.373	0.0157957
680.451	0.0157421
680.530	0.0156937
680.608	0.0157561
680.686	0.0157352
680.764	0.0156454
680.842	0.0157323
680.920	0.0155145
680.998	0.0155159
681.076	0.0154288
681.155	0.0153734
681.233	0.0152720
681.311	0.0151111
681.389	0.0151311
681.467	0.0150785
681.545	0.0149869
681.623	0.0149413
681.701	0.0148528
681.780	0.0148478
681.858	0.0147360
681.936	0.0148094
682.014	0.0147581
682.092	0.0148716
682.170	0.0147144
682.248	0.0148049
682.326	0.0146951
682.405	0.0147917
682.483	0.0149197
682.561	0.0150459
682.639	0.0150922
682.717	0.0151324
682.795	0.0152848
682.873	0.0154504
682.951	0.0156906
683.030	0.0158543
683.108	0.0159234
683.186	0.0160442
683.264	0.0162303
683.342	0.0162547
683.420	0.0162228
683.498	0.0163691
683.576	0.0162701
683.655	0.0163841
683.733	0.0164617
683.811	0.0164400
683.889	0.0163881
683.967	0.0162522
684.045	0.0163938
684.123	0.0161813
684.201	0.0159264
684.280	0.0160872
684.358	0.0160483
684.436	0.0160564
684.514	0.0157993
684.592	0.0157399
684.670	0.0158546
684.748	0.0158857
684.826	0.0157401
684.905	0.0155631
684.983	0.0154449
685.061	0.0153040
685.139	0.0153676
685.217	0.0150719
685.295	0.0149250
685.373	0.0150584
685.451	0.0150436
685.530	0.0147923
685.608	0.0148638
685.686	0.0149048
685.764	0.0147863
685.842	0.0147614
685.920	0.0146719
685.998	0.0147958
686.076	0.0146624
686.155	0.0146966
686.233	0.0147076
686.311	0.0147880
686.389	0.0147012
686.467	0.0146544
686.545	0.0145695
686.623	0.0146741
686.701	0.0147110
686.780	0.0146893
686.858	0.0147861
686.936	0.0147964
687.014	0.0149306
687.092	0.0149897
687.170	0.0150484
687.248	0.0151505
687.326	0.0150509
687.405	0.0151405
687.483	0.0152145
687.561	0.0152390
687.639	0.0152994
687.717	0.0153008
687.795	0.0153441
687.873	0.0153972
687.951	0.0155623
688.030	0.0154903
688.108	0.0155956
688.186	0.0156792
688.264	0.0156441
688.342	0.0157198
688.420	0.0157507
688.498	0.0159678
688.576	0.0160262
688.655	0.0163000
688.733	0.0162343
688.811	0.0163626
688.889	0.0164935
688.967	0.0165138
689.045	0.0165899
689.123	0.0165900
689.201	0.0167117
689.280	0.0167904
689.358	0.0166748
689.436	0.0167126
689.514	0.0166423
689.592	0.0164943
689.670	0.0162819
689.748	0.0162554
689.826	0.0160839
689.905	0.0159669
689.983	0.0160316
690.061	0.0158662
690.139	0.0157909
690.217	0.0156524
690.295	0.0152814
690.373	0.0153894
690.451	0.0152848
690.530	0.0150456
690.608	0.0150068
690.686	0.0149767
690.764	0.0148791
690.842	0.0147833
690.920	0.0146706
690.998	0.0147782
691.076	0.0146140
691.155	0.0143396
691.233	0.0144345
691.311	0.0144165
691.389	0.0145428
691.467	0.0143119
691.545	0.0143221
691.623	0.0142481
691.701	0.0142908
691.780	0.0143173
691.858	0.0144328
691.936	0.0144252
692.014	0.0145621
692.092	0.0144035
692.170	0.0147585
692.248	0.0147189
692.326	0.0146868
692.405	0.0149028
692.483	0.0151193
692.561	0.0152830
692.639	0.0152767
692.717	0.0153777
692.795	0.0155885
692.873	0.0157134
692.951	0.0157466
693.030	0.0157433
693.108	0.0159290
693.186	0.0160052
693.264	0.0159798
693.342	0.0161585
693.420	0.0161400
693.498	0.0161048
693.576	0.0162413
693.655	0.0162405
693.733	0.0162372
693.811	0.0162930
693.889	0.0164431
693.967	0.0161822
694.045	0.0162740
694.123	0.0162777
694.201	0.0162951
694.280	0.0161391
694.358	0.0160355
694.436	0.0161301
694.514	0.0159789
694.592	0.0158710
694.670	0.0158332
694.748	0.0157272
694.826	0.0155473
694.905	0.0155562
694.983	0.0154165
695.061	0.0154409
695.139	0.0154752
695.217	0.0153105
695.295	0.0152532
695.373	0.0153535
695.451	0.0152424
695.530	0.0151871
695.608	0.0152711
695.686	0.0151131
695.764	0.0150938
695.842	0.0149610
695.920	0.0148396
695.998	0.0150619
696.076	0.0149755
696.155	0.0148426
696.233	0.0148759
696.311	0.0148504
696.389	0.0148547
696.467	0.0149169
696.545	0.0149500
696.623	0.0148172
696.701	0.0147960
696.780	0.0149197
696.858	0.0150527
696.936	0.0150781
697.014	0.0150471
697.092	0.0150834
697.170	0.0151324
697.248	0.0154254
697.326	0.0155616
697.405	0.0154315
697.483	0.0155262
697.561	0.0157352
697.639	0.0157487
697.717	0.0156693
697.795	0.0155991
697.873	0.0156823
697.951	0.0156157
698.030	0.0155006
698.108	0.0157092
698.186	0.0155618
698.264	0.0155602
698.342	0.0154900
698.420	0.0154681
698.498	0.0154502
698.576	0.0153900
698.655	0.0154327
698.733	0.0152931
698.811	0.0153628
698.889	0.0153486
698.967	0.0153472
699.045	0.0154829
699.123	0.0153950
699.201	0.0155190
699.280	0.0153931
699.358	0.0154666
699.436	0.0153779
699.514	0.0153769
699.592	0.0155322
699.670	0.0154929
699.748	0.0154362
699.826	0.0155119
699.905	0.0155725
699.983	0.0157667
700.061	0.0157135
700.139	0.0158603
700.217	0.0157689
700.295	0.0157922
700.373	0.0159325
700.451	0.0158118
700.530	0.0157571
700.608	0.0158408
700.686	0.0159718
700.764	0.0158924
700.842	0.0159887
700.920	0.0158463
700.998	0.0157626
701.076	0.0157637
701.155	0.0156297
701.233	0.0155101
701.311	0.0154765
701.389	0.0154776
701.467	0.0154266
701.545	0.0153008
701.623	0.0152751
701.701	0.0154524
701.780	0.0152491
701.858	0.0151188
701.936	0.0151286
702.014	0.0152294
702.092	0.0150907
702.170	0.0151373
702.248	0.0151521
702.326	0.0152047
702.405	0.0152431
702.483	0.0152348
702.561	0.0152956
702.639	0.0151758
702.717	0.0152426
702.795	0.0153592
702.873	0.0152608
702.951	0.0153188
703.030	0.0151797
703.108	0.0150983
703.186	0.0151070
703.264	0.0150838
703.342	0.0150440
703.420	0.0151183
703.498	0.0149460
703.576	0.0150671
703.655	0.0149963
703.733	0.0149407
703.811	0.0150246
703.889	0.0151257
703.967	0.0151969
704.045	0.0152480
704.123	0.0154482
704.201	0.0153929
704.280	0.0155548
704.358	0.0156997
704.436	0.0158054
704.514	0.0159891
704.592	0.0160995
704.670	0.0162634
704.748	0.0164359
704.826	0.0163869
704.905	0.0164361
704.983	0.0165176
705.061	0.0165855
705.139	0.0165862
705.217	0.0166401
705.295	0.0165076
705.373	0.0165423
705.451	0.0164706
705.530	0.0163197
705.608	0.0163622
705.686	0.0162724
705.764	0.0163175
705.842	0.0161037
705.920	0.0158324
705.998	0.0157185
706.076	0.0155660
706.155	0.0154909
706.233	0.0153967
706.311	0.0151319
706.389	0.0149397
706.467	0.0147195
706.545	0.0147569
706.623	0.0145910
706.701	0.0144825
706.780	0.0144037
706.858	0.0143357
706.936	0.0142689
707.014	0.0141947
707.092	0.0141470
707.170	0.0142740
707.248	0.0143814
707.326	0.0144251
707.405	0.0145864
707.483	0.0145358
707.561	0.0148024
707.639	0.0149647
707.717	0.0151093
707.795	0.0153945
707.873	0.0154875
707.951	0.0157068
708.030	0.0158908
708.108	0.0160903
708.186	0.0163074
708.264	0.0164407
708.342	0.0164194
708.420	0.0164781
708.498	0.0166347
708.576	0.0168420
708.655	0.0167387
708.733	0.0166611
708.811	0.0165823
708.889	0.0166716
708.967	0.0164941
709.045	0.0165217
709.123	0.0163396
709.201	0.0163678
709.280	0.0161716
709.358	0.0162387
709.436	0.0161524
709.514	0.0161797
709.592	0.0159848
709.670	0.0157768
709.748	0.0157158
709.826	0.0156929
709.905	0.0156252
709.983	0.0155023
710.061	0.0153265
710.139	0.0151809
710.217	0.0151837
710.295	0.0151233
710.373	0.0148943
710.451	0.0147781
710.530	0.0146555
710.608	0.0147074
710.686	0.0146359
710.764	0.0146282
710.842	0.0145096
710.920	0.0145881
710.998	0.0145798
711.076	0.0146152
711.155	0.0146246
711.233	0.0145451
711.311	0.0146365
711.389	0.0146871
711.467	0.0148629
711.545	0.0147398
711.623	0.0147220
711.701	0.0148131
711.780	0.0147490
711.858	0.0148666
711.936	0.0149638
712.014	0.0150004
712.092	0.0150887
712.170	0.0152033
712.248	0.0152840
712.326	0.0154179
712.405	0.0155501
712.483	0.0156438
712.561	0.0157252
712.639	0.0158574
712.717	0.0158954
712.795	0.0160773
712.873	0.0161345
712.951	0.0161007
713.030	0.0162578
713.108	0.0162338
713.186	0.0161303
713.264	0.0162160
713.342	0.0161783
713.420	0.0161931
713.498	0.0160867
713.576	0.0161367
713.655	0.0160218
713.733	0.0160817
713.811	0.0160670
713.889	0.0159333
713.967	0.0160163
714.045	0.0157178
714.123	0.0157057
714.201	0.0157009
714.280	0.0157123
714.358	0.0154987
714.436	0.0155125
714.514	0.0155061
714.592	0.0153267
714.670	0.0152991
714.748	0.0153549
714.826	0.0152007
714.905	0.0152262
714.983	0.0150958
715.061	0.0152341
715.139	0.0152492
715.217	0.0152724
715.295	0.0152423
715.373	0.0151756
715.451	0.0151511
715.530	0.0151643
715.608	0.0152093
715.686	0.0151188
715.764	0.0151766
715.842	0.0150805
715.920	0.0150199
715.998	0.0151443
716.076	0.0150067
716.155	0.0150414
716.233	0.0150538
716.311	0.0151598
716.389	0.0152589
716.467	0.0152774
716.545	0.0152174
716.623	0.0152794
716.701	0.0152176
716.780	0.0154158
716.858	0.0153391
716.936	0.0153933
717.014	0.0154445
717.092	0.0153944
717.170	0.0154779
717.248	0.0154250
717.326	0.0154522
717.405	0.0154238
717.483	0.0154943
717.561	0.0155456
717.639	0.0155528
717.717	0.0156964
717.795	0.0158173
717.873	0.0159162
717.951	0.0158198
718.030	0.0159456
718.108	0.0159690
718.186	0.0160022
718.264	0.0161067
718.342	0.0159837
718.420	0.0160409
718.498	0.0161206
718.576	0.0161188
718.655	0.0159781
718.733	0.0157899
718.811	0.0158325
718.889	0.0157884
718.967	0.0157064
719.045	0.0155808
719.123	0.0155534
719.201	0.0153497
719.280	0.0153152
719.358	0.0153899
719.436	0.0153634
719.514	0.0152492
719.592	0.0153605
719.670	0.0153982
719.748	0.0154973
719.826	0.0154516
719.905	0.0155333
719.983	0.0156448
720.061	0.0155688
720.139	0.0156258
720.217	0.0156399
720.295	0.0157320
720.373	0.0156409
720.451	0.0156906
720.530	0.0157275
720.608	0.0156937
720.686	0.0157327
720.764	0.0156274
720.842	0.0156449
720.920	0.0155140
720.998	0.0155132
721.076	0.0156487
721.155	0.0155735
721.233	0.0154877
721.311	0.0154364
721.389	0.0154462
721.467	0.0153596
721.545	0.0153560
721.623	0.0153282
721.701	0.0153656
721.780	0.0151807
721.858	0.0152061
721.936	0.0152649
722.014	0.0151727
722.092	0.0150376
722.170	0.0150140
722.248	0.0150421
722.326	0.0151009
722.405	0.0152892
722.483	0.0151743
722.561	0.0149660
722.639	0.0151109
722.717	0.0151365
722.795	0.0152019
722.873	0.0151664
722.951	0.0152068
723.030	0.0152042
723.108	0.0152657
723.186	0.0153065
723.264	0.0152805
723.342	0.0153452
723.420	0.0154652
723.498	0.0154832
723.576	0.0154086
723.655	0.0154393
723.733	0.0155064
723.811	0.0156307
723.889	0.0155243
723.967	0.0156731
724.045	0.0156409
724.123	0.0156582
724.201	0.0155906
724.280	0.0156923
724.358	0.0156740
724.436	0.0155860
724.514	0.0157208
724.592	0.0157114
724.670	0.0156169
724.748	0.0157040
724.826	0.0157091
724.905	0.0156761
724.983	0.0157425
725.061	0.0155820
725.139	0.0156408
725.217	0.0156644
725.295	0.0156837
725.373	0.0156911
725.451	0.0156444
725.530	0.0157520
725.608	0.0157893
725.686	0.0159035
725.764	0.0158855
725.842	0.0156736
725.920	0.0155901
725.998	0.0156883
726.076	0.0157271
726.155	0.0156875
726.233	0.0156103
726.311	0.0156239
726.389	0.0155881
726.467	0.0155654
726.545	0.0154189
726.623	0.0154037
726.701	0.0153316
726.780	0.0153716
726.858	0.0152622
726.936	0.0151191
727.014	0.0151999
727.092	0.0151137
727.170	0.0149713
727.248	0.0149335
727.326	0.0150475
727.405	0.0151077
727.483	0.0149467
727.561	0.0150869
727.639	0.0152097
727.717	0.0149747
727.795	0.0151330
727.873	0.0151455
727.951	0.0152164
728.030	0.0152123
728.108	0.0154051
728.186	0.0154299
728.264	0.0153683
728.342	0.0155199
728.420	0.0157384
728.498	0.0155055
728.576	0.0157792
728.655	0.0158406
728.733	0.0157368
728.811	0.0158579
728.889	0.0159334
728.967	0.0159443
729.045	0.0159580
729.123	0.0159159
729.201	0.0158846
729.280	0.0159406
729.358	0.0159927
729.436	0.0159224
729.514	0.0160085
729.592	0.0158091
729.670	0.0158752
729.748	0.0159073
729.826	0.0158405
729.905	0.0158806
729.983	0.0158751
730.061	0.0158256
730.139	0.0158516
730.217	0.0158186
730.295	0.0157610
730.373	0.0155862
730.451	0.0157638
730.530	0.0154800
730.608	0.0154490
730.686	0.0155777
730.764	0.0156329
730.842	0.0156579
730.920	0.0154948
730.998	0.0155022
731.076	0.0156222
731.155	0.0156367
731.233	0.0156383
731.311	0.0157099
731.389	0.0156360
731.467	0.0155927
731.545	0.0155299
731.623	0.0155734
731.701	0.0154958
731.780	0.0155435
731.858	0.0154628
731.936	0.0154623
732.014	0.0154176
732.092	0.0154643
732.170	0.0153689
732.248	0.0152402
732.326	0.0153625
732.405	0.0152010
732.483	0.0153304
732.561	0.0152808
732.639	0.0153512
732.717	0.0154013
732.795	0.0153472
732.873	0.0153880
732.951	0.0154757
733.030	0.0155753
733.108	0.0155972
733.186	0.0154633
733.264	0.0155568
733.342	0.0157061
733.420	0.0156675
733.498	0.0157873
733.576	0.0158135
733.655	0.0157547
733.733	0.0156616
733.811	0.0157101
733.889	0.0156255
733.967	0.0156870
734.045	0.0156458
734.123	0.0155776
734.201	0.0155862
734.280	0.0156453
734.358	0.0154790
734.436	0.0153568
734.514	0.0155154
734.592	0.0155853
734.670	0.0154387
734.748	0.0154664
734.826	0.0156180
734.905	0.0154720
734.983	0.0154039
735.061	0.0155228
735.139	0.0156298
735.217	0.0155068
735.295	0.0154800
735.373	0.0154745
735.451	0.0154108
735.530	0.0156869
735.608	0.0155389
735.686	0.0155356
735.764	0.0155443
735.842	0.0155801
735.920	0.0156028
735.998	0.0154910
736.076	0.0154951
736.155	0.0154404
736.233	0.0154227
736.311	0.0154041
736.389	0.0153965
736.467	0.0154109
736.545	0.0153246
736.623	0.0152969
736.701	0.0151955
736.780	0.0152916
736.858	0.0152002
736.936	0.0152804
737.014	0.0152988
737.092	0.0152793
737.170	0.0153666
737.248	0.0154207
737.326	0.0153775
737.405	0.0155199
737.483	0.0154300
737.561	0.0155772
737.639	0.0155125
737.717	0.0155312
737.795	0.0156857
737.873	0.0155220
737.951	0.0156075
738.030	0.0156776
738.108	0.0156170
738.186	0.0157645
738.264	0.0155641
738.342	0.0155750
738.420	0.0156820
738.498	0.0156710
738.576	0.0156784
738.655	0.0156631
738.733	0.0156033
738.811	0.0156559
738.889	0.0156803
738.967	0.0155751
739.045	0.0156474
739.123	0.0154689
739.201	0.0155699
739.280	0.0154423
739.358	0.0154372
739.436	0.0153828
739.514	0.0153681
739.592	0.0153008
739.670	0.0152474
739.748	0.0153832
739.826	0.0154233
739.905	0.0153678
739.983	0.0153152
740.061	0.0153443
740.139	0.0154373
740.217	0.0154031
740.295	0.0154782
740.373	0.0153997
740.451	0.0153217
740.530	0.0155269
740.608	0.0154286
740.686	0.0155582
740.764	0.0155066
740.842	0.0155952
740.920	0.0156527
740.998	0.0156477
741.076	0.0155595
741.155	0.0156789
741.233	0.0157392
741.311	0.0157331
741.389	0.0157533
741.467	0.0157947
741.545	0.0157671
741.623	0.0158157
741.701	0.0158073
741.780	0.0158111
741.858	0.0157199
741.936	0.0157123
742.014	0.0157916
742.092	0.0158188
742.170	0.0155943
742.248	0.0156726
742.326	0.0158099
742.405	0.0155810
742.483	0.0156369
742.561	0.0155315
742.639	0.0154377
742.717	0.0155393
742.795	0.0154076
742.873	0.0154107
742.951	0.0154419
743.030	0.0154121
743.108	0.0152848
743.186	0.0154620
743.264	0.0153971
743.342	0.0154567
743.420	0.0152834
743.498	0.0153133
743.576	0.0153759
743.655	0.0153926
743.733	0.0154043
743.811	0.0152571
743.889	0.0152686
743.967	0.0152715
744.045	0.0154253
744.123	0.0154337
744.201	0.0155223
744.280	0.0154794
744.358	0.0154602
744.436	0.0154504
744.514	0.0154595
744.592	0.0155458
744.670	0.0156399
744.748	0.0155832
744.826	0.0155225
744.905	0.0156650
744.983	0.0155066
745.061	0.0155099
745.139	0.0156106
745.217	0.0154990
745.295	0.0156005
745.373	0.0156328
745.451	0.0155479
745.530	0.0154406
745.608	0.0153771
745.686	0.0154491
745.764	0.0155176
745.842	0.0155030
745.920	0.0155736
745.998	0.0153318
746.076	0.0154308
746.155	0.0155842
746.233	0.0153708
746.311	0.0156071
746.389	0.0156314
746.467	0.0155235
746.545	0.0154201
746.623	0.0156884
746.701	0.0156020
746.780	0.0155948
746.858	0.0157436
746.936	0.0155891
747.014	0.0155909
747.092	0.0155700
747.170	0.0156525
747.248	0.0156194
747.326	0.0156977
747.405	0.0156809
747.483	0.0157088
747.561	0.0157214
747.639	0.0158955
747.717	0.0158472
747.795	0.0156551
747.873	0.0155589
747.951	0.0157843
748.030	0.0159230
748.108	0.0157879
748.186	0.0157822
748.264	0.0156274
748.342	0.0155089
748.420	0.0156743
748.498	0.0156776
748.576	0.0156407
748.655	0.0155988
748.733	0.0156380
748.811	0.0155334
748.889	0.0154321
748.967	0.0155091
749.045	0.0155600
749.123	0.0155408
749.201	0.0154387
749.280	0.0155140
749.358	0.0155025
749.436	0.0153873
749.514	0.0155291
749.592	0.0155290
749.670	0.0156168
749.748	0.0154852
749.826	0.0156300
749.905	0.0155406
749.983	0.0157228
750.061	0.0156664
750.139	0.0157241
750.217	0.0157874
750.295	0.0157141
750.373	0.0158482
750.451	0.0158205
750.530	0.0157877
750.608	0.0158063
750.686	0.0156422
750.764	0.0156258
750.842	0.0155250
750.920	0.0155941
750.998	0.0155450
751.076	0.0154617
751.155	0.0154596
751.233	0.0152941
751.311	0.0152253
751.389	0.0153686
751.467	0.0152734
751.545	0.0152374
751.623	0.0152496
751.701	0.0152438
751.780	0.0151915
751.858	0.0152250
751.936	0.0151966
752.014	0.0151813
752.092	0.0152042
752.170	0.0152786
752.248	0.0154060
752.326	0.0152902
752.405	0.0154301
752.483	0.0154191
752.561	0.0155759
752.639	0.0155471
752.717	0.0155624
752.795	0.0156589
752.873	0.0156487
752.951	0.0155098
753.030	0.0156178
753.108	0.0155872
753.186	0.0157101
753.264	0.0159131
753.342	0.0157741
753.420	0.0158737
753.498	0.0159318
753.576	0.0159547
753.655	0.0159491
753.733	0.0156915
753.811	0.0158096
753.889	0.0158905
753.967	0.0157574
754.045	0.0157690
754.123	0.0158798
754.201	0.0157501
754.280	0.0156948
754.358	0.0156197
754.436	0.0155219
754.514	0.0154496
754.592	0.0154459
754.670	0.0151934
754.748	0.0152343
754.826	0.0152235
754.905	0.0151261
754.983	0.0149642
755.061	0.0150242
755.139	0.0149889
755.217	0.0148155
755.295	0.0147645
755.373	0.0148746
755.451	0.0147659
755.530	0.0148634
755.608	0.0149387
755.686	0.0149892
755.764	0.0148347
755.842	0.0148241
755.920	0.0148858
755.998	0.0149286
756.076	0.0149258
756.155	0.0150573
756.233	0.0151263
756.311	0.0150203
756.389	0.0150512
756.467	0.0152563
756.545	0.0151826
756.623	0.0154014
756.701	0.0153857
756.780	0.0153352
756.858	0.0154002
756.936	0.0154975
757.014	0.0156195
757.092	0.0156474
757.170	0.0156995
757.248	0.0156342
757.326	0.0155190
757.405	0.0156429
757.483	0.0156633
757.561	0.0156384
757.639	0.0155987
757.717	0.0157157
757.795	0.0156502
757.873	0.0156386
757.951	0.0156741
758.030	0.0154758
758.108	0.0155070
758.186	0.0154966
758.264	0.0156491
758.342	0.0154723
758.420	0.0153009
758.498	0.0154353
758.576	0.0154374
758.655	0.0154234
758.733	0.0152939
758.811	0.0152444
758.889	0.0153727
758.967	0.0152666
759.045	0.0153149
759.123	0.0153882
759.201	0.0153537
759.280	0.0154446
759.358	0.0153580
759.436	0.0154971
759.514	0.0155549
759.592	0.0152572
759.670	0.0155662
759.748	0.0156109
759.826	0.0154044
759.905	0.0153422
759.983	0.0154946
760.061	0.0156302
760.139	0.0156467
760.217	0.0155822
760.295	0.0155882
760.373	0.0155189
760.451	0.0156678
760.530	0.0156310
760.608	0.0155417
760.686	0.0157219
760.764	0.0157166
760.842	0.0159360
760.920	0.0157981
760.998	0.0158368
761.076	0.0159327
761.155	0.0159364
761.233	0.0159064
761.311	0.0160033
761.389	0.0160506
761.467	0.0158891
761.545	0.0159866
761.623	0.0157670
761.701	0.0157232
761.780	0.0157569
761.858	0.0156666
761.936	0.0157728
762.014	0.0157277
762.092	0.0156859
762.170	0.0156315
762.248	0.0156253
762.326	0.0157120
762.405	0.0157281
762.483	0.0156524
762.561	0.0155868
762.639	0.0155637
762.717	0.0156057
762.795	0.0155927
762.873	0.0156325
762.951	0.0155657
763.030	0.0154585
763.108	0.0155997
763.186	0.0155380
763.264	0.0153953
763.342	0.0153400
763.420	0.0152811
763.498	0.0153838
763.576	0.0154541
763.655	0.0154488
763.733	0.0154595
763.811	0.0153384
763.889	0.0153660
763.967	0.0151978
764.045	0.0152671
764.123	0.0151723
764.201	0.0153270
764.280	0.0153494
764.358	0.0154197
764.436	0.0152711
764.514	0.0153731
764.592	0.0154929
764.670	0.0155121
764.748	0.0156094
764.826	0.0157055
764.905	0.0157526
764.983	0.0156628
765.061	0.0157507
765.139	0.0158172
765.217	0.0157966
765.295	0.0158232
765.373	0.0158826
765.451	0.0158817
765.530	0.0157849
765.608	0.0159759
765.686	0.0157513
765.764	0.0158048
765.842	0.0158390
765.920	0.0156866
765.998	0.0156561
766.076	0.0155575
766.155	0.0154326
766.233	0.0155019
766.311	0.0154894
766.389	0.0153324
766.467	0.0153211
766.545	0.0151558
766.623	0.0151740
766.701	0.0151225
766.780	0.0151596
766.858	0.0151680
766.936	0.0150426
767.014	0.0151749
767.092	0.0149953
767.170	0.0150504
767.248	0.0152345
767.326	0.0150191
767.405	0.0152001
767.483	0.0151682
767.561	0.0152168
767.639	0.0152320
767.717	0.0152742
767.795	0.0152050
767.873	0.0152769
767.951	0.0154142
768.030	0.0152576
768.108	0.0154906
768.186	0.0153825
768.264	0.0155228
768.342	0.0155045
768.420	0.0155432
768.498	0.0156660
768.576	0.0156511
768.655	0.0156741
768.733	0.0157278
768.811	0.0156956
768.889	0.0157333
768.967	0.0157687
769.045	0.0159377
769.123	0.0157513
769.201	0.0156648
769.280	0.0157249
769.358	0.0156677
769.436	0.0156501
769.514	0.0154686
769.592	0.0155161
769.670	0.0154610
769.748	0.0155418
769.826	0.0154858
769.905	0.0154726
769.983	0.0153864
770.061	0.0155879
770.139	0.0155556
770.217	0.0155456
770.295	0.0154727
770.373	0.0153917
770.451	0.0154659
770.530	0.0154746
770.608	0.0153303
770.686	0.0154150
770.764	0.0154784
770.842	0.0154209
770.920	0.0154032
770.998	0.0152504
771.076	0.0152702
771.155	0.0153778
771.233	0.0153673
771.311	0.0153908
771.389	0.0152894
771.467	0.0152788
771.545	0.0152740
771.623	0.0152844
771.701	0.0152020
771.780	0.0153082
771.858	0.0152064
771.936	0.0151399
772.014	0.0152158
772.092	0.0152715
772.170	0.0153057
772.248	0.0152306
772.326	0.0152504
772.405	0.0151131
772.483	0.0151723
772.561	0.0152809
772.639	0.0153366
772.717	0.0152232
772.795	0.0153722
772.873	0.0152911
772.951	0.0154749
773.030	0.0156146
773.108	0.0154480
773.186	0.0155331
773.264	0.0154725
773.342	0.0155260
773.420	0.0154893
773.498	0.0155672
773.576	0.0154916
773.655	0.0155419
773.733	0.0155375
773.811	0.0154557
773.889	0.0155556
773.967	0.0156113
774.045	0.0155403
774.123	0.0155328
774.201	0.0154635
774.280	0.0154922
774.358	0.0154682
774.436	0.0152795
774.514	0.0153699
774.592	0.0153792
774.670	0.0153397
774.748	0.0152923
774.826	0.0153387
774.905	0.0151936
774.983	0.0153215
775.061	0.0152654
775.139	0.0152980
775.217	0.0152710
775.295	0.0153902
775.373	0.0153202
775.451	0.0152256
775.530	0.0154330
775.608	0.0154564
775.686	0.0153825
775.764	0.0154525
775.842	0.0154132
775.920	0.0154379
775.998	0.0153744
776.076	0.0154125
776.155	0.0155117
776.233	0.0153794
776.311	0.0153959
776.389	0.0153214
776.467	0.0152827
776.545	0.0152327
776.623	0.0154191
776.701	0.0153912
776.780	0.0153739
776.858	0.0152816
776.936	0.0154074
777.014	0.0153181
777.092	0.0153265
777.170	0.0153275
777.248	0.0153781
777.326	0.0152861
777.405	0.0153334
777.483	0.0154044
777.561	0.0153399
777.639	0.0152368
777.717	0.0153391
777.795	0.0153873
777.873	0.0154018
777.951	0.0153237
778.030	0.0154382
778.108	0.0153173
778.186	0.0154538
778.264	0.0153529
778.342	0.0153323
778.420	0.0152866
778.498	0.0155595
778.576	0.0155349
778.655	0.0153917
778.733	0.0155388
778.811	0.0154699
778.889	0.0154963
778.967	0.0154682
779.045	0.0156425
779.123	0.0155618
779.201	0.0155049
779.280	0.0156568
779.358	0.0156492
779.436	0.0156567
779.514	0.0158064
779.592	0.0154699
779.670	0.0154751
779.748	0.0154588
779.826	0.0154919
779.905	0.0155869
779.983	0.0155929
780.061	0.0155789
780.139	0.0154809
780.217	0.0155620
780.295	0.0155527
780.373	0.0154987
780.451	0.0154699
780.530	0.0154697
780.608	0.0155579
780.686	0.0155421
780.764	0.0154545
780.842	0.0153002
780.920	0.0156358
780.998	0.0154490
781.076	0.0154007
781.155	0.0155555
781.233	0.0155597
781.311	0.0154536
781.389	0.0154011
781.467	0.0155243
781.545	0.0155254
781.623	0.0156600
781.701	0.0155544
781.780	0.0154488
781.858	0.0154703
781.936	0.0155427
782.014	0.0154521
782.092	0.0154949
782.170	0.0155006
782.248	0.0155739
782.326	0.0154786
782.405	0.0155473
782.483	0.0155216
782.561	0.0155418
782.639	0.0154552
782.717	0.0154075
782.795	0.0154291
782.873	0.0153698
782.951	0.0154012
783.030	0.0154022
783.108	0.0155396
783.186	0.0154607
783.264	0.0155008
783.342	0.0155908
783.420	0.0155074
783.498	0.0155733
783.576	0.0156987
783.655	0.0155435
783.733	0.0156047
783.811	0.0155627
783.889	0.0156036
783.967	0.0155241
784.045	0.0155123
784.123	0.0155695
784.201	0.0156606
784.280	0.0156352
784.358	0.0157019
784.436	0.0156110
784.514	0.0156188
784.592	0.0157149
784.670	0.0156523
784.748	0.0156838
784.826	0.0156791
784.905	0.0157498
784.983	0.0156582
785.061	0.0157177
785.139	0.0157437
785.217	0.0157605
785.295	0.0155992
785.373	0.0156650
785.451	0.0156524
785.530	0.0156422
785.608	0.0156068
785.686	0.0154998
785.764	0.0155049
785.842	0.0155048
785.920	0.0153809
785.998	0.0153571
786.076	0.0155766
786.155	0.0153574
786.233	0.0153837
786.311	0.0152356
786.389	0.0152389
786.467	0.0152767
786.545	0.0153870
786.623	0.0152810
786.701	0.0151641
786.780	0.0153214
786.858	0.0153910
786.936	0.0152965
787.014	0.0153260
787.092	0.0152316
787.170	0.0152976
787.248	0.0152216
787.326	0.0152676
787.405	0.0153616
787.483	0.0154032
787.561	0.0153255
787.639	0.0151378
787.717	0.0152744
787.795	0.0153073
787.873	0.0152877
787.951	0.0152181
788.030	0.0151850
788.108	0.0150769
788.186	0.0151447
788.264	0.0151824
788.342	0.0153281
788.420	0.0151920
788.498	0.0150476
788.576	0.0151209
788.655	0.0152720
788.733	0.0152329
788.811	0.0152746
788.889	0.0152980
788.967	0.0152584
789.045	0.0154801
789.123	0.0153967
789.201	0.0153348
789.280	0.0155154
789.358	0.0154315
789.436	0.0154342
789.514	0.0156095
789.592	0.0155437
789.670	0.0156236
789.748	0.0155338
789.826	0.0155746
789.905	0.0156903
789.983	0.0156821
790.061	0.0155447
790.139	0.0155181
790.217	0.0156896
790.295	0.0154638
790.373	0.0153186
790.451	0.0155586
790.530	0.0156976
790.608	0.0156557
790.686	0.0156352
790.764	0.0155981
790.842	0.0156751
790.920	0.0156145
790.998	0.0155543
791.076	0.0156881
791.155	0.0156641
791.233	0.0156546
791.311	0.0155419
791.389	0.0154773
791.467	0.0155923
791.545	0.0154538
791.623	0.0154963
791.701	0.0154683
791.780	0.0154389
791.858	0.0155618
791.936	0.0155239
792.014	0.0153159
792.092	0.0155050
792.170	0.0153314
792.248	0.0153631
792.326	0.0154331
792.405	0.0153121
792.483	0.0152560
792.561	0.0154575
792.639	0.0153316
792.717	0.0154519
792.795	0.0154131
792.873	0.0153884
792.951	0.0153311
793.030	0.0153413
793.108	0.0153876
793.186	0.0153335
793.264	0.0152743
793.342	0.0153488
793.420	0.0154530
793.498	0.0153732
793.576	0.0154177
793.655	0.0153437
793.733	0.0154374
793.811	0.0154017
793.889	0.0155253
793.967	0.0154203
794.045	0.0155420
794.123	0.0155003
794.201	0.0153297
794.280	0.0154135
794.358	0.0152986
794.436	0.0153703
794.514	0.0154585
794.592	0.0155870
794.670	0.0154557
794.748	0.0153325
794.826	0.0153551
794.905	0.0155045
794.983	0.0154084
795.061	0.0155050
795.139	0.0154639
795.217	0.0153128
795.295	0.0154010
795.373	0.0153983
795.451	0.0153899
795.530	0.0154200
795.608	0.0154085
795.686	0.0152605
795.764	0.0153487
795.842	0.0153719
795.920	0.0152935
795.998	0.0153201
796.076	0.0153919
796.155	0.0152950
796.233	0.0152596
796.311	0.0154520
796.389	0.0153860
796.467	0.0153829
796.545	0.0154015
796.623	0.0154748
796.701	0.0153947
796.780	0.0154070
796.858	0.0154439
796.936	0.0155353
797.014	0.0154914
797.092	0.0155580
797.170	0.0154082
797.248	0.0154223
797.326	0.0153223
797.405	0.0155082
797.483	0.0154325
797.561	0.0154839
797.639	0.0154684
797.717	0.0154563
797.795	0.0154605
797.873	0.0153381
797.951	0.0153717
798.030	0.0153230
798.108	0.0153045
798.186	0.0153277
798.264	0.0152951
798.342	0.0153840
798.420	0.0152372
798.498	0.0153162
798.576	0.0152813
798.655	0.0153840
798.733	0.0152887
798.811	0.0152597
798.889	0.0154536
798.967	0.0153677
799.045	0.0153059
799.123	0.0154237
799.201	0.0154012
799.280	0.0152977
799.358	0.0155569
799.436	0.0154294
799.514	0.0153957
799.592	0.0155436
799.670	0.0154218
799.748	0.0154179
799.826	0.0153476
799.905	0.0155554
799.983	0.0154720
800.061	0.0155406
800.139	0.0155342
800.217	0.0155524
800.295	0.0155144
800.373	0.0156641
800.451	0.0155249
800.530	0.0154218
800.608	0.0154417
800.686	0.0155615
800.764	0.0155329
800.842	0.0155038
800.920	0.0155811
800.998	0.0155727
801.076	0.0155276
801.155	0.0154353
801.233	0.0155850
801.311	0.0157346
801.389	0.0156760
801.467	0.0155476
801.545	0.0155315
801.623	0.0155659
801.701	0.0155459
801.780	0.0156277
801.858	0.0155344
801.936	0.0156432
802.014	0.0156266
802.092	0.0156769
802.170	0.0156035
802.248	0.0156913
802.326	0.0154704
802.405	0.0155644
802.483	0.0154465
802.561	0.0154739
802.639	0.0154870
802.717	0.0154623
802.795	0.0153535
802.873	0.0154748
802.951	0.0153905
803.030	0.0154336
803.108	0.0153668
803.186	0.0153756
803.264	0.0153917
803.342	0.0153915
803.420	0.0152908
803.498	0.0154014
803.576	0.0152567
803.655	0.0153915
803.733	0.0154066
803.811	0.0153507
803.889	0.0153620
803.967	0.0153719
804.045	0.0154453
804.123	0.0152979
804.201	0.0153951
804.280	0.0154925
804.358	0.0153199
804.436	0.0152972
804.514	0.0153924
804.592	0.0152129
804.670	0.0154786
804.748	0.0155720
804.826	0.0155529
804.905	0.0154972
804.983	0.0155155
805.061	0.0153521
805.139	0.0156210
805.217	0.0153493
805.295	0.0155977
805.373	0.0157076
805.451	0.0154691
805.530	0.0155572
805.608	0.0156052
805.686	0.0157702
805.764	0.0155833
805.842	0.0155889
805.920	0.0155983
805.998	0.0156624
806.076	0.0155638
806.155	0.0155264
806.233	0.0155797
806.311	0.0154911
806.389	0.0155897
806.467	0.0156487
806.545	0.0154395
806.623	0.0154915
806.701	0.0155076
806.780	0.0153999
806.858	0.0155541
806.936	0.0154447
807.014	0.0153273
807.092	0.0155225
807.170	0.0155157
807.248	0.0153827
807.326	0.0154201
807.405	0.0153790
807.483	0.0152670
807.561	0.0153930
807.639	0.0154304
807.717	0.0154015
807.795	0.0153422
807.873	0.0154246
807.951	0.0154427
808.030	0.0154742
808.108	0.0152982
808.186	0.0153625
808.264	0.0152866
808.342	0.0152682
808.420	0.0154360
808.498	0.0152410
808.576	0.0153193
808.655	0.0153455
808.733	0.0154179
808.811	0.0153786
808.889	0.0154257
808.967	0.0153799
809.045	0.0153773
809.123	0.0155045
809.201	0.0154173
809.280	0.0154386
809.358	0.0156490
809.436	0.0155198
809.514	0.0155164
809.592	0.0155997
809.670	0.0156256
809.748	0.0153887
809.826	0.0157230
809.905	0.0156828
809.983	0.0156823
810.061	0.0157034
810.139	0.0156640
810.217	0.0156403
810.295	0.0156928
810.373	0.0156533
810.451	0.0156767
810.530	0.0156022
810.608	0.0158855
810.686	0.0156948
810.764	0.0157999
810.842	0.0156299
810.920	0.0155397
810.998	0.0157486
811.076	0.0158189
811.155	0.0157162
811.233	0.0156059
811.311	0.0156544
811.389	0.0157233
811.467	0.0155830
811.545	0.0155771
811.623	0.0155408
811.701	0.0155670
811.780	0.0156169
811.858	0.0155386
811.936	0.0155006
812.014	0.0154503
812.092	0.0154059
812.170	0.0154750
812.248	0.0152826
812.326	0.0153989
812.405	0.0155283
812.483	0.0153265
812.561	0.0153818
812.639	0.0152390
812.717	0.0154065
812.795	0.0153819
812.873	0.0153539
812.951	0.0154583
813.030	0.0153807
813.108	0.0154587
813.186	0.0154128
813.264	0.0155200
813.342	0.0153106
813.420	0.0153666
813.498	0.0154254
813.576	0.0153902
813.655	0.0153903
813.733	0.0155644
813.811	0.0155627
813.889	0.0154797
813.967	0.0154511
814.045	0.0157056
814.123	0.0155629
814.201	0.0154496
814.280	0.0154458
814.358	0.0155265
814.436	0.0155572
814.514	0.0156226
814.592	0.0155139
814.670	0.0154921
814.748	0.0156349
814.826	0.0155701
814.905	0.0156322
814.983	0.0155308
815.061	0.0156176
815.139	0.0156350
815.217	0.0157973
815.295	0.0157066
815.373	0.0156963
815.451	0.0155616
815.530	0.0156017
815.608	0.0156876
815.686	0.0156429
815.764	0.0155501
815.842	0.0156686
815.920	0.0156496
815.998	0.0156083
816.076	0.0154874
816.155	0.0155212
816.233	0.0155869
816.311	0.0156595
816.389	0.0156485
816.467	0.0154864
816.545	0.0155068
816.623	0.0157207
816.701	0.0155679
816.780	0.0154310
816.858	0.0153326
816.936	0.0155377
817.014	0.0154770
817.092	0.0154842
817.170	0.0154230
817.248	0.0153476
817.326	0.0153732
817.405	0.0152762
817.483	0.0154125
817.561	0.0154521
817.639	0.0152776
817.717	0.0153127
817.795	0.0152547
817.873	0.0151857
817.951	0.0153972
818.030	0.0154737
818.108	0.0153517
818.186	0.0153313
818.264	0.0153601
818.342	0.0153201
818.420	0.0155319
818.498	0.0152547
818.576	0.0152969
818.655	0.0152551
818.733	0.0154636
818.811	0.0154919
818.889	0.0151315
818.967	0.0152901
819.045	0.0153867
819.123	0.0154739
819.201	0.0152933
819.280	0.0154384
819.358	0.0153453
819.436	0.0153999
819.514	0.0153741
819.592	0.0153677
819.670	0.0153586
819.748	0.0152945
819.826	0.0154008
819.905	0.0155035
819.983	0.0153870
820.061	0.0154839
820.139	0.0154651
820.217	0.0156367
820.295	0.0154749
820.373	0.0154939
820.451	0.0155275
820.530	0.0155451
820.608	0.0156049
820.686	0.0156171
820.764	0.0155865
820.842	0.0156987
820.920	0.0157106
820.998	0.0155437
821.076	0.0156464
821.155	0.0156416
821.233	0.0156886
821.311	0.0157912
821.389	0.0158098
821.467	0.0157739
821.545	0.0156834
821.623	0.0158080
821.701	0.0156368
821.780	0.0157678
821.858	0.0156947
821.936	0.0156387
822.014	0.0155555
822.092	0.0157038
822.170	0.0156052
822.248	0.0155106
822.326	0.0156287
822.405	0.0156730
822.483	0.0156075
822.561	0.0156410
822.639	0.0156299
822.717	0.0156239
822.795	0.0157069
822.873	0.0156071
822.951	0.0154869
823.030	0.0156480
823.108	0.0155712
823.186	0.0155283
823.264	0.0154289
823.342	0.0154418
823.420	0.0154466
823.498	0.0154597
823.576	0.0156284
823.655	0.0155240
823.733	0.0152590
823.811	0.0155455
823.889	0.0155120
823.967	0.0155221
824.045	0.0154320
824.123	0.0154161
824.201	0.0155659
824.280	0.0155029
824.358	0.0155427
824.436	0.0156441
824.514	0.0155695
824.592	0.0154930
824.670	0.0154841
824.748	0.0156501
824.826	0.0154318
824.905	0.0155964
824.983	0.0154853
825.061	0.0156310
825.139	0.0156860
825.217	0.0156760
825.295	0.0156287
825.373	0.0157845
825.451	0.0156757
825.530	0.0156905
825.608	0.0156052
825.686	0.0156793
825.764	0.0157236
825.842	0.0155156
825.920	0.0157769
825.998	0.0156032
826.076	0.0157050
826.155	0.0155598
826.233	0.0157360
826.311	0.0156726
826.389	0.0156861
826.467	0.0155864
826.545	0.0157654
826.623	0.0156149
826.701	0.0155413
826.780	0.0156207
826.858	0.0156728
826.936	0.0155076
827.014	0.0155602
827.092	0.0156203
827.170	0.0154843
827.248	0.0154479
827.326	0.0154008
827.405	0.0155278
827.483	0.0156325
827.561	0.0156030
827.639	0.0154085
827.717	0.0154757
827.795	0.0153860
827.873	0.0153967
827.951	0.0154771
828.030	0.0153746
828.108	0.0152565
828.186	0.0153288
828.264	0.0154070
828.342	0.0152732
828.420	0.0153119
828.498	0.0152719
828.576	0.0153616
828.655	0.0152692
828.733	0.0152161
828.811	0.0153172
828.889	0.0154152
828.967	0.0152182
829.045	0.0153156
829.123	0.0153069
829.201	0.0151389
829.280	0.0152325
829.358	0.0152241
829.436	0.0151506
829.514	0.0153506
829.592	0.0152049
829.670	0.0151986
829.748	0.0153748
829.826	0.0153601
829.905	0.0153248
829.983	0.0152556
830.061	0.0153241
830.139	0.0154260
830.217	0.0153397
830.295	0.0152958
830.373	0.0154136
830.451	0.0153259
830.530	0.0153967
830.608	0.0153281
830.686	0.0152876
830.764	0.0153663
830.842	0.0154849
830.920	0.0154820
830.998	0.0154182
831.076	0.0155636
831.155	0.0154889
831.233	0.0154373
831.311	0.0155434
831.389	0.0155016
831.467	0.0155584
831.545	0.0155444
831.623	0.0155015
831.701	0.0155499
831.780	0.0154646
831.858	0.0154868
831.936	0.0154797
832.014	0.0155703
832.092	0.0154491
832.170	0.0155418
832.248	0.0154847
832.326	0.0154951
832.405	0.0156090
832.483	0.0156200
832.561	0.0155775
832.639	0.0153778
832.717	0.0156043
832.795	0.0157102
832.873	0.0155371
832.951	0.0155069
833.030	0.0156519
833.108	0.0155276
833.186	0.0155471
833.264	0.0155454
833.342	0.0154279
833.420	0.0155202
833.498	0.0154998
833.576	0.0154359
833.655	0.0154768
833.733	0.0155206
833.811	0.0154836
833.889	0.0155836
833.967	0.0156339
834.045	0.0155727
834.123	0.0155296
834.201	0.0154802
834.280	0.0156297
834.358	0.0154946
834.436	0.0155006
834.514	0.0155410
834.592	0.0154897
834.670	0.0155644
834.748	0.0155046
834.826	0.0155474
834.905	0.0155003
834.983	0.0154915
835.061	0.0154926
835.139	0.0155191
835.217	0.0155173
835.295	0.0156258
835.373	0.0157001
835.451	0.0155003
835.530	0.0154169
835.608	0.0155387
835.686	0.0155772
835.764	0.0156654
835.842	0.0156332
835.920	0.0154426
835.998	0.0155608
836.076	0.0155761
836.155	0.0156123
836.233	0.0155884
836.311	0.0155795
836.389	0.0155035
836.467	0.0154440
836.545	0.0155146
836.623	0.0154637
836.701	0.0155495
836.780	0.0155520
836.858	0.0156689
836.936	0.0155550
837.014	0.0155148
837.092	0.0155291
837.170	0.0156314
837.248	0.0154565
837.326	0.0154826
837.405	0.0155342
837.483	0.0155482
837.561	0.0155537
837.639	0.0155745
837.717	0.0154774
837.795	0.0152846
837.873	0.0156583
837.951	0.0154142
838.030	0.0155168
838.108	0.0154536
838.186	0.0154803
838.264	0.0155609
838.342	0.0155040
838.420	0.0154773
838.498	0.0154792
838.576	0.0153705
838.655	0.0154810
838.733	0.0154370
838.811	0.0154560
838.889	0.0153550
838.967	0.0153414
839.045	0.0152676
839.123	0.0154394
839.201	0.0154903
839.280	0.0154821
839.358	0.0154074
839.436	0.0154633
839.514	0.0153316
839.592	0.0153449
839.670	0.0153074
839.748	0.0153587
839.826	0.0152917
839.905	0.0154172
839.983	0.0154565
840.061	0.0156147
840.139	0.0153854
840.217	0.0153770
840.295	0.0155559
840.373	0.0156456
840.451	0.0154713
840.530	0.0154475
840.608	0.0153748
840.686	0.0155267
840.764	0.0154191
840.842	0.0154978
840.920	0.0155001
840.998	0.0155820
841.076	0.0155740
841.155	0.0155641
841.233	0.0155453
841.311	0.0156724
841.389	0.0154934
841.467	0.0154819
841.545	0.0154555
841.623	0.0155340
841.701	0.0155227
841.780	0.0155156
841.858	0.0154394
841.936	0.0154104
842.014	0.0154292
842.092	0.0155611
842.170	0.0153987
842.248	0.0155612
842.326	0.0155680
842.405	0.0155389
842.483	0.0155485
842.561	0.0155691
842.639	0.0155892
842.717	0.0155933
842.795	0.0157211
842.873	0.0155618
842.951	0.0157613
843.030	0.0156709
843.108	0.0156341
843.186	0.0157522
843.264	0.0156209
843.342	0.0156281
843.420	0.0156244
843.498	0.0156479
843.576	0.0156586
843.655	0.0156861
843.733	0.0157436
843.811	0.0156226
843.889	0.0156943
843.967	0.0156741
844.045	0.0155327
844.123	0.0155614
844.201	0.0155762
844.280	0.0156974
844.358	0.0155412
844.436	0.0154602
844.514	0.0155668
844.592	0.0155798
844.670	0.0156879
844.748	0.0156120
844.826	0.0156166
844.905	0.0156197
844.983	0.0155363
845.061	0.0154681
845.139	0.0155645
845.217	0.0156497
845.295	0.0155019
845.373	0.0155818
845.451	0.0156129
845.530	0.0155872
845.608	0.0155959
845.686	0.0156540
845.764	0.0154285
845.842	0.0156284
845.920	0.0156712
845.998	0.0156531
846.076	0.0156287
846.155	0.0156382
846.233	0.0155307
846.311	0.0155570
846.389	0.0157201
846.467	0.0157381
846.545	0.0156561
846.623	0.0155785
846.701	0.0155409
846.780	0.0156583
846.858	0.0156043
846.936	0.0155886
847.014	0.0155782
847.092	0.0157463
847.170	0.0155323
847.248	0.0155478
847.326	0.0155528
847.405	0.0156167
847.483	0.0156529
847.561	0.0154652
847.639	0.0155311
847.717	0.0156995
847.795	0.0156815
847.873	0.0155984
847.951	0.0154925
848.030	0.0155366
848.108	0.0155186
848.186	0.0154330
848.264	0.0154652
848.342	0.0154274
848.420	0.0154321
848.498	0.0155135
848.576	0.0154855
848.655	0.0154020
848.733	0.0154895
848.811	0.0154063
848.889	0.0154064
848.967	0.0153812
849.045	0.0152881
849.123	0.0153379
849.201	0.0154640
849.280	0.0152976
849.358	0.0153660
849.436	0.0153976
849.514	0.0153487
849.592	0.0154152
849.670	0.0154527
849.748	0.0152874
849.826	0.0154430
849.905	0.0155199
849.983	0.0154474
850.061	0.0154385
850.139	0.0155515
850.217	0.0154186
850.295	0.0154265
850.373	0.0154069
850.451	0.0153732
850.530	0.0154549
850.608	0.0155220
850.686	0.0154203
850.764	0.0154169
850.842	0.0154266
850.920	0.0153967
850.998	0.0154179
851.076	0.0153580
851.155	0.0153302
851.233	0.0153428
851.311	0.0152554
851.389	0.0153186
851.467	0.0153223
851.545	0.0154848
851.623	0.0153971
851.701	0.0153808
851.780	0.0152487
851.858	0.0153876
851.936	0.0153313
852.014	0.0152538
852.092	0.0155030
852.170	0.0154105
852.248	0.0154095
852.326	0.0153871
852.405	0.0153751
852.483	0.0154005
852.561	0.0154369
852.639	0.0154425
852.717	0.0155022
852.795	0.0153931
852.873	0.0154821
852.951	0.0153690
853.030	0.0153870
853.108	0.0154362
853.186	0.0155049
853.264	0.0152366
853.342	0.0153989
853.420	0.0154044
853.498	0.0153339
853.576	0.0152418
853.655	0.0154354
853.733	0.0153701
853.811	0.0153770
853.889	0.0155396
853.967	0.0153922
854.045	0.0152917
854.123	0.0154684
854.201	0.0154284
854.280	0.0153714
854.358	0.0153941
854.436	0.0153735
854.514	0.0153107
854.592	0.0154089
854.670	0.0154340
854.748	0.0154643
854.826	0.0154884
854.905	0.0154404
854.983	0.0154347
855.061	0.0154147
855.139	0.0153907
855.217	0.0154259
855.295	0.0154294
855.373	0.0155856
855.451	0.0154385
855.530	0.0153072
855.608	0.0153220
855.686	0.0155531
855.764	0.0153776
855.842	0.0153283
855.920	0.0154591
855.998	0.0153284
856.076	0.0157099
856.155	0.0154432
856.233	0.0153764
856.311	0.0153802
856.389	0.0155041
856.467	0.0156564
856.545	0.0153049
856.623	0.0154115
856.701	0.0154524
856.780	0.0154451
856.858	0.0155979
856.936	0.0155279
857.014	0.0154165
857.092	0.0154709
857.170	0.0153265
857.248	0.0153693
857.326	0.0152449
857.405	0.0154050
857.483	0.0152584
857.561	0.0153761
857.639	0.0152996
857.717	0.0153665
857.795	0.0154319
857.873	0.0154137
857.951	0.0151788
858.030	0.0153277
858.108	0.0153484
858.186	0.0151754
858.264	0.0153532
858.342	0.0152659
858.420	0.0152984
858.498	0.0153539
858.576	0.0153509
858.655	0.0153112
858.733	0.0153821
858.811	0.0155417
858.889	0.0153384
858.967	0.0152658
859.045	0.0154359
859.123	0.0154409
859.201	0.0154267
859.280	0.0154443
859.358	0.0154237
859.436	0.0154871
859.514	0.0155012
859.592	0.0154974
859.670	0.0155398
859.748	0.0155740
859.826	0.0154578
859.905	0.0155155
859.983	0.0157796
860.061	0.0157021
860.139	0.0155450
860.217	0.0155267
860.295	0.0154755
860.373	0.0156878
860.451	0.0156490
860.530	0.0155267
860.608	0.0155474
860.686	0.0155696
860.764	0.0155972
860.842	0.0155251
860.920	0.0155660
860.998	0.0156929
861.076	0.0155431
861.155	0.0155247
861.233	0.0155753
861.311	0.0154492
861.389	0.0154745
861.467	0.0155856
861.545	0.0155795
861.623	0.0155285
861.701	0.0154198
861.780	0.0155084
861.858	0.0153477
861.936	0.0154745
862.014	0.0155654
862.092	0.0155006
862.170	0.0155328
862.248	0.0155092
862.326	0.0155756
862.405	0.0155590
862.483	0.0155204
862.561	0.0154578
862.639	0.0153649
862.717	0.0156201
862.795	0.0154612
862.873	0.0153094
862.951	0.0154977
863.030	0.0155091
863.108	0.0154598
863.186	0.0155256
863.264	0.0154105
863.342	0.0153564
863.420	0.0154457
863.498	0.0154211
863.576	0.0154029
863.655	0.0153310
863.733	0.0154028
863.811	0.0154888
863.889	0.0154355
863.967	0.0153790
864.045	0.0153739
864.123	0.0155566
864.201	0.0155288
864.280	0.0153711
864.358	0.0153976
864.436	0.0155010
864.514	0.0154421
864.592	0.0154820
864.670	0.0155534
864.748	0.0156474
864.826	0.0155212
864.905	0.0155882
864.983	0.0155122
865.061	0.0156243
865.139	0.0156355
865.217	0.0155685
865.295	0.0154504
865.373	0.0155827
865.451	0.0156969
865.530	0.0156236
865.608	0.0154835
865.686	0.0155413
865.764	0.0153446
865.842	0.0155762
865.920	0.0155652
865.998	0.0155794
866.076	0.0156046
866.155	0.0155619
866.233	0.0155276
866.311	0.0155444
866.389	0.0155193
866.467	0.0156390
866.545	0.0155181
866.623	0.0154443
866.701	0.0155312
866.780	0.0156105
866.858	0.0154974
866.936	0.0155823
867.014	0.0156165
867.092	0.0155094
867.170	0.0154175
867.248	0.0156799
867.326	0.0155935
867.405	0.0156458
867.483	0.0158294
867.561	0.0156850
867.639	0.0157940
867.717	0.0157247
867.795	0.0157171
867.873	0.0156960
867.951	0.0157001
868.030	0.0157451
868.108	0.0156664
868.186	0.0157104
868.264	0.0156470
868.342	0.0157330
868.420	0.0157929
868.498	0.0155787
868.576	0.0157038
868.655	0.0156175
868.733	0.0154485
868.811	0.0156290
868.889	0.0157194
868.967	0.0155443
869.045	0.0154319
869.123	0.0154070
869.201	0.0156205
869.280	0.0157452
869.358	0.0156422
869.436	0.0155951
869.514	0.0155272
869.592	0.0154968
869.670	0.0156142
869.748	0.0154528
869.826	0.0155251
869.905	0.0156046
869.983	0.0153365
870.061	0.0155081
870.139	0.0154811
870.217	0.0156413
870.295	0.0155075
870.373	0.0156112
870.451	0.0153958
870.530	0.0154924
870.608	0.0156490
870.686	0.0156192
870.764	0.0155856
870.842	0.0155935
870.920	0.0154552
870.998	0.0154607
871.076	0.0155237
871.155	0.0155449
871.233	0.0155829
871.311	0.0154950
871.389	0.0155217
871.467	0.0153953
871.545	0.0154549
871.623	0.0155285
871.701	0.0154668
871.780	0.0155261
871.858	0.0153881
871.936	0.0154189
872.014	0.0155270
872.092	0.0154950
872.170	0.0155333
872.248	0.0153957
872.326	0.0155225
872.405	0.0153489
872.483	0.0154607
872.561	0.0154796
872.639	0.0154765
872.717	0.0153396
872.795	0.0154006
872.873	0.0153445
872.951	0.0154299
873.030	0.0153823
873.108	0.0154316
873.186	0.0154131
873.264	0.0153695
873.342	0.0153893
873.420	0.0154169
873.498	0.0153272
873.576	0.0154032
873.655	0.0153485
873.733	0.0153820
873.811	0.0153539
873.889	0.0152791
873.967	0.0155293
874.045	0.0154339
874.123	0.0152147
874.201	0.0153585
874.280	0.0154121
874.358	0.0153394
874.436	0.0153599
874.514	0.0154897
874.592	0.0152090
874.670	0.0153014
874.748	0.0154697
874.826	0.0153814
874.905	0.0154837
874.983	0.0152659
875.061	0.0153162
875.139	0.0155827
875.217	0.0155838
875.295	0.0153918
875.373	0.0153954
875.451	0.0153091
875.530	0.0154315
875.608	0.0155154
875.686	0.0152676
875.764	0.0153306
875.842	0.0153484
875.920	0.0153539
875.998	0.0153609
876.076	0.0155556
876.155	0.0153711
876.233	0.0153027
876.311	0.0154289
876.389	0.0154697
876.467	0.0154438
876.545	0.0154581
876.623	0.0154202
876.701	0.0155029
876.780	0.0155036
876.858	0.0154979
876.936	0.0154379
877.014	0.0155070
877.092	0.0154126
877.170	0.0154044
877.248	0.0154690
877.326	0.0155615
877.405	0.0155462
877.483	0.0154945
877.561	0.0155900
877.639	0.0155317
877.717	0.0154834
877.795	0.0155275
877.873	0.0155489
877.951	0.0155779
878.030	0.0155567
878.108	0.0154884
878.186	0.0154605
878.264	0.0155289
878.342	0.0155191
878.420	0.0155553
878.498	0.0154624
878.576	0.0153659
878.655	0.0153244
878.733	0.0156051
878.811	0.0155322
878.889	0.0155619
878.967	0.0155682
879.045	0.0155220
879.123	0.0154078
879.201	0.0155028
879.280	0.0153794
879.358	0.0153875
879.436	0.0153983
879.514	0.0154321
879.592	0.0154515
879.670	0.0153034
879.748	0.0153845
879.826	0.0154073
879.905	0.0153134
879.983	0.0155769
880.061	0.0153587
880.139	0.0154723
880.217	0.0154261
880.295	0.0155628
880.373	0.0155437
880.451	0.0155059
880.530	0.0155749
880.608	0.0155676
880.686	0.0155222
880.764	0.0155787
880.842	0.0155312
880.920	0.0155489
880.998	0.0155067
881.076	0.0154229
881.155	0.0155766
881.233	0.0154093
881.311	0.0154863
881.389	0.0156754
881.467	0.0155668
881.545	0.0154505
881.623	0.0155653
881.701	0.0156875
881.780	0.0156730
881.858	0.0154381
881.936	0.0154955
882.014	0.0154797
882.092	0.0154968
882.170	0.0155098
882.248	0.0153851
882.326	0.0153763
882.405	0.0153602
882.483	0.0153973
882.561	0.0153716
882.639	0.0154830
882.717	0.0155560
882.795	0.0153783
882.873	0.0154184
882.951	0.0154367
883.030	0.0153254
883.108	0.0154818
883.186	0.0154548
883.264	0.0154398
883.342	0.0154050
883.420	0.0154043
883.498	0.0153472
883.576	0.0155257
883.655	0.0155746
883.733	0.0154508
883.811	0.0155323
883.889	0.0153661
883.967	0.0155506
884.045	0.0155946
884.123	0.0154994
884.201	0.0153426
884.280	0.0155794
884.358	0.0155770
884.436	0.0154399
884.514	0.0154501
884.592	0.0154767
884.670	0.0154752
884.748	0.0154713
884.826	0.0154393
884.905	0.0155313
884.983	0.0154940
885.061	0.0154000
885.139	0.0153766
885.217	0.0155025
885.295	0.0154874
885.373	0.0155737
885.451	0.0155006
885.530	0.0154304
885.608	0.0154806
885.686	0.0154389
885.764	0.0155474
885.842	0.0155105
885.920	0.0154507
885.998	0.0154436
886.076	0.0155329
886.155	0.0154990
886.233	0.0154869
886.311	0.0154475
886.389	0.0154317
886.467	0.0154065
886.545	0.0153319
886.623	0.0155235
886.701	0.0156447
886.780	0.0155621
886.858	0.0154233
886.936	0.0153069
887.014	0.0154885
887.092	0.0155051
887.170	0.0154145
887.248	0.0154264
887.326	0.0153481
887.405	0.0155508
887.483	0.0155144
887.561	0.0153493
887.639	0.0153573
887.717	0.0154066
887.795	0.0152792
887.873	0.0154329
887.951	0.0154928
888.030	0.0153818
888.108	0.0153738
888.186	0.0153769
888.264	0.0154757
888.342	0.0155100
888.420	0.0154624
888.498	0.0154447
888.576	0.0154509
888.655	0.0155308
888.733	0.0155003
888.811	0.0155056
888.889	0.0155921
888.967	0.0155361
889.045	0.0154744
889.123	0.0155967
889.201	0.0155825
889.280	0.0154626
889.358	0.0153916
889.436	0.0155077
889.514	0.0155019
889.592	0.0154028
889.670	0.0154781
889.748	0.0155970
889.826	0.0155256
889.905	0.0155273
889.983	0.0155396
890.061	0.0155831
890.139	0.0156450
890.217	0.0154435
890.295	0.0155281
890.373	0.0153392
890.451	0.0155429
890.530	0.0156272
890.608	0.0155052
890.686	0.0156316
890.764	0.0155707
890.842	0.0155000
890.920	0.0154694
890.998	0.0154748
891.076	0.0156070
891.155	0.0154641
891.233	0.0154994
891.311	0.0155433
891.389	0.0154584
891.467	0.0154350
891.545	0.0155219
891.623	0.0155662
891.701	0.0154517
891.780	0.0153815
891.858	0.0154353
891.936	0.0154321
892.014	0.0154124
892.092	0.0152908
892.170	0.0154759
892.248	0.0154475
892.326	0.0154508
892.405	0.0155363
892.483	0.0153999
892.561	0.0153806
892.639	0.0153968
892.717	0.0153938
892.795	0.0155303
892.873	0.0156030
892.951	0.0156417
893.030	0.0155209
893.108	0.0155750
893.186	0.0157162
893.264	0.0155026
893.342	0.0154545
893.420	0.0156100
893.498	0.0155426
893.576	0.0157454
893.655	0.0156957
893.733	0.0157086
893.811	0.0156601
893.889	0.0155827
893.967	0.0155148
894.045	0.0155865
894.123	0.0156419
894.201	0.0157238
894.280	0.0155480
894.358	0.0156618
894.436	0.0155507
894.514	0.0156040
894.592	0.0155386
894.670	0.0155273
894.748	0.0155955
894.826	0.0155495
894.905	0.0155071
894.983	0.0155223
895.061	0.0154999
895.139	0.0154758
895.217	0.0155068
895.295	0.0154408
895.373	0.0155019
895.451	0.0155392
895.530	0.0154250
895.608	0.0155510
895.686	0.0156627
895.764	0.0155630
895.842	0.0155640
895.920	0.0156227
895.998	0.0154916
896.076	0.0156087
896.155	0.0156960
896.233	0.0155353
896.311	0.0155633
896.389	0.0155746
896.467	0.0156344
896.545	0.0155495
896.623	0.0155809
896.701	0.0156005
896.780	0.0155202
896.858	0.0154785
896.936	0.0155501
897.014	0.0156168
897.092	0.0156150
897.170	0.0154462
897.248	0.0154706
897.326	0.0156004
897.405	0.0155055
897.483	0.0154649
897.561	0.0155420
897.639	0.0156013
897.717	0.0155230
897.795	0.0154773
897.873	0.0155155
897.951	0.0154499
898.030	0.0154608
898.108	0.0154969
898.186	0.0154720
898.264	0.0153046
898.342	0.0155538
898.420	0.0155657
898.498	0.0153436
898.576	0.0155545
898.655	0.0155875
898.733	0.0154209
898.811	0.0155273
898.889	0.0154744
898.967	0.0155617
899.045	0.0155596
899.123	0.0156068
899.201	0.0156187
899.280	0.0155942
899.358	0.0154919
899.436	0.0154379
899.514	0.0155367
899.592	0.0155820
899.670	0.0156239
899.748	0.0156120
899.826	0.0156126
899.905	0.0155334
899.983	0.0155643
900.061	0.0155613
900.139	0.0155875
900.217	0.0155461
900.295	0.0154818
900.373	0.0153888
900.451	0.0155061
900.530	0.0155271
900.608	0.0153623
900.686	0.0154205
900.764	0.0153330
900.842	0.0153845
900.920	0.0154383
900.998	0.0154868
901.076	0.0153403
901.155	0.0154552
901.233	0.0153569
901.311	0.0153687
901.389	0.0154904
901.467	0.0154381
901.545	0.0153733
901.623	0.0155033
901.701	0.0154642
901.780	0.0154925
901.858	0.0153437
901.936	0.0153955
902.014	0.0153992
902.092	0.0154291
902.170	0.0155066
902.248	0.0154509
902.326	0.0154485
902.405	0.0155169
902.483	0.0154757
902.561	0.0156540
902.639	0.0153799
902.717	0.0154834
902.795	0.0156324
902.873	0.0155196
902.951	0.0155087
903.030	0.0154530
903.108	0.0155828
903.186	0.0155838
903.264	0.0154642
903.342	0.0155450
903.420	0.0156101
903.498	0.0155828
903.576	0.0155461
903.655	0.0155877
903.733	0.0156658
903.811	0.0155634
903.889	0.0156015
903.967	0.0155143
904.045	0.0155626
904.123	0.0155469
904.201	0.0155348
904.280	0.0154967
904.358	0.0157003
904.436	0.0155949
904.514	0.0155482
904.592	0.0155049
904.670	0.0155278
904.748	0.0155733
904.826	0.0156805
904.905	0.0155412
904.983	0.0153986
905.061	0.0155125
905.139	0.0154906
905.217	0.0154269
905.295	0.0153657
905.373	0.0154722
905.451	0.0155602
905.530	0.0154143
905.608	0.0155488
905.686	0.0154436
905.764	0.0154175
905.842	0.0155073
905.920	0.0155530
905.998	0.0154491
906.076	0.0154604
906.155	0.0154390
906.233	0.0154268
906.311	0.0153613
906.389	0.0153650
906.467	0.0154722
906.545	0.0154036
906.623	0.0153690
906.701	0.0153999
906.780	0.0154078
906.858	0.0154359
906.936	0.0153728
907.014	0.0153992
907.092	0.0153976
907.170	0.0153735
907.248	0.0154691
907.326	0.0153847
907.405	0.0153953
907.483	0.0154334
907.561	0.0153704
907.639	0.0154959
907.717	0.0154600
907.795	0.0153808
907.873	0.0153349
907.951	0.0154353
908.030	0.0154530
908.108	0.0153785
908.186	0.0154295
908.264	0.0153922
908.342	0.0155057
908.420	0.0155054
908.498	0.0153551
908.576	0.0154173
908.655	0.0155167
908.733	0.0155126
908.811	0.0153749
908.889	0.0154782
908.967	0.0155458
909.045	0.0155189
909.123	0.0154644
909.201	0.0155837
909.280	0.0153322
909.358	0.0154612
909.436	0.0154984
909.514	0.0154287
909.592	0.0156524
909.670	0.0156292
909.748	0.0155093
909.826	0.0154094
909.905	0.0154952
909.983	0.0154414
910.061	0.0154828
910.139	0.0156254
910.217	0.0156358
910.295	0.0154523
910.373	0.0156484
910.451	0.0155363
910.530	0.0153326
910.608	0.0154755
910.686	0.0154318
910.764	0.0155162
910.842	0.0156656
910.920	0.0153637
910.998	0.0154089
911.076	0.0156361
911.155	0.0155331
911.233	0.0154569
911.311	0.0155871
911.389	0.0153690
911.467	0.0155549
911.545	0.0154831
911.623	0.0154531
911.701	0.0157040
911.780	0.0155717
911.858	0.0155570
911.936	0.0154722
912.014	0.0156161
912.092	0.0155456
912.170	0.0155949
912.248	0.0154346
912.326	0.0154785
912.405	0.0155737
912.483	0.0156109
912.561	0.0154979
912.639	0.0155151
912.717	0.0153246
912.795	0.0155457
912.873	0.0154840
912.951	0.0157005
913.030	0.0155708
913.108	0.0154099
913.186	0.0154192
913.264	0.0155569
913.342	0.0154388
913.420	0.0155719
913.498	0.0153961
913.576	0.0153844
913.655	0.0154416
913.733	0.0154127
913.811	0.0154736
913.889	0.0154166
913.967	0.0153574
914.045	0.0154529
914.123	0.0154142
914.201	0.0154879
914.280	0.0153186
914.358	0.0154677
914.436	0.0155734
914.514	0.0154861
914.592	0.0154935
914.670	0.0154769
914.748	0.0155746
914.826	0.0155437
914.905	0.0154997
914.983	0.0153769
915.061	0.0153993
915.139	0.0154664
915.217	0.0156445
915.295	0.0154314
915.373	0.0154729
915.451	0.0154594
915.530	0.0154733
915.608	0.0154748
915.686	0.0153190
915.764	0.0153185
915.842	0.0153849
915.920	0.0154549
915.998	0.0154158
916.076	0.0153590
916.155	0.0153223
916.233	0.0154800
916.311	0.0153991
916.389	0.0153031
916.467	0.0152911
916.545	0.0154218
916.623	0.0154475
916.701	0.0154046
916.780	0.0153316
916.858	0.0153262
916.936	0.0153815
917.014	0.0154430
917.092	0.0154359
917.170	0.0154731
917.248	0.0155059
917.326	0.0154379
917.405	0.0153831
917.483	0.0154823
917.561	0.0155997
917.639	0.0155833
917.717	0.0154855
917.795	0.0155647
917.873	0.0156535
917.951	0.0155128
918.030	0.0156067
918.108	0.0156321
918.186	0.0154476
918.264	0.0155795
918.342	0.0156509
918.420	0.0157076
918.498	0.0155537
918.576	0.0156876
918.655	0.0157378
918.733	0.0157877
918.811	0.0157175
918.889	0.0156060
918.967	0.0156915
919.045	0.0157220
919.123	0.0157117
919.201	0.0156507
919.280	0.0155952
919.358	0.0156799
919.436	0.0157076
919.514	0.0155126
919.592	0.0155109
919.670	0.0155455
919.748	0.0155498
919.826	0.0156056
919.905	0.0155293
919.983	0.0155236
920.061	0.0153973
920.139	0.0156016
920.217	0.0155964
920.295	0.0155362
920.373	0.0155228
920.451	0.0155325
920.530	0.0154568
920.608	0.0154699
920.686	0.0154879
920.764	0.0154358
920.842	0.0156082
920.920	0.0155128
920.998	0.0154597
921.076	0.0153864
921.155	0.0155341
921.233	0.0155063
921.311	0.0153740
921.389	0.0153770
921.467	0.0153853
921.545	0.0153145
921.623	0.0155207
921.701	0.0153178
921.780	0.0153967
921.858	0.0153620
921.936	0.0153482
922.014	0.0154160
922.092	0.0153969
922.170	0.0153792
922.248	0.0153101
922.326	0.0153561
922.405	0.0153331
922.483	0.0153683
922.561	0.0153207
922.639	0.0154163
922.717	0.0153465
922.795	0.0155456
922.873	0.0154601
922.951	0.0154204
923.030	0.0154789
923.108	0.0154774
923.186	0.0155666
923.264	0.0154580
923.342	0.0154751
923.420	0.0153431
923.498	0.0153198
923.576	0.0153410
923.655	0.0155054
923.733	0.0155431
923.811	0.0154243
923.889	0.0154645
923.967	0.0154654
924.045	0.0154427
924.123	0.0153375
924.201	0.0153944
924.280	0.0154891
924.358	0.0154749
924.436	0.0153687
924.514	0.0153418
924.592	0.0153611
924.670	0.0155553
924.748	0.0153902
924.826	0.0153724
924.905	0.0153220
924.983	0.0154728
925.061	0.0153529
925.139	0.0153387
925.217	0.0154930
925.295	0.0154044
925.373	0.0154264
925.451	0.0154838
925.530	0.0155494
925.608	0.0153757
925.686	0.0152766
925.764	0.0154476
925.842	0.0155441
925.920	0.0154287
925.998	0.0155208
926.076	0.0154112
926.155	0.0154321
926.233	0.0154909
926.311	0.0155982
926.389	0.0154612
926.467	0.0155599
926.545	0.0154754
926.623	0.0155762
926.701	0.0154691
926.780	0.0155145
926.858	0.0155428
926.936	0.0156441
927.014	0.0154544
927.092	0.0154427
927.170	0.0154451
927.248	0.0155472
927.326	0.0155539
927.405	0.0154782
927.483	0.0154295
927.561	0.0154235
927.639	0.0155160
927.717	0.0155388
927.795	0.0156165
927.873	0.0154930
927.951	0.0155180
928.030	0.0155151
928.108	0.0155841
928.186	0.0155396
928.264	0.0155685
928.342	0.0156287
928.420	0.0156432
928.498	0.0156583
928.576	0.0154992
928.655	0.0154888
928.733	0.0157358
928.811	0.0156736
928.889	0.0155379
928.967	0.0155474
929.045	0.0156065
929.123	0.0156290
929.201	0.0156715
929.280	0.0155531
929.358	0.0156431
929.436	0.0154652
929.514	0.0155310
929.592	0.0155480
929.670	0.0156160
929.748	0.0157039
929.826	0.0155601
929.905	0.0155350
929.983	0.0156239
930.061	0.0154834
930.139	0.0156857
930.217	0.0155084
930.295	0.0155363
930.373	0.0154534
930.451	0.0155016
930.530	0.0154206
930.608	0.0153557
930.686	0.0153687
930.764	0.0153967
930.842	0.0154239
930.920	0.0154265
930.998	0.0154194
931.076	0.0154652
931.155	0.0155327
931.233	0.0155958
931.311	0.0155045
931.389	0.0154372
931.467	0.0155382
931.545	0.0155581
931.623	0.0154841
931.701	0.0155695
931.780	0.0154370
931.858	0.0154776
931.936	0.0155557
932.014	0.0155679
932.092	0.0155685
932.170	0.0154471
932.248	0.0154504
932.326	0.0155039
932.405	0.0154739
932.483	0.0154170
932.561	0.0154171
932.639	0.0155464
932.717	0.0152932
932.795	0.0154498
932.873	0.0155392
932.951	0.0154385
933.030	0.0154998
933.108	0.0154990
933.186	0.0154353
933.264	0.0155393
933.342	0.0154527
933.420	0.0154168
933.498	0.0153879
933.576	0.0155476
933.655	0.0155339
933.733	0.0155568
933.811	0.0155734
933.889	0.0156039
933.967	0.0154866
934.045	0.0154761
934.123	0.0154291
934.201	0.0155034
934.280	0.0155201
934.358	0.0155711
934.436	0.0153782
934.514	0.0154507
934.592	0.0153043
934.670	0.0154939
934.748	0.0154725
934.826	0.0154779
934.905	0.0153247
934.983	0.0154057
935.061	0.0153088
935.139	0.0154351
935.217	0.0153513
935.295	0.0153816
935.373	0.0153397
935.451	0.0153741
935.530	0.0152750
935.608	0.0151978
935.686	0.0153068
935.764	0.0152747
935.842	0.0151287
935.920	0.0152074
935.998	0.0153684
936.076	0.0152379
936.155	0.0153997
936.233	0.0153914
936.311	0.0152558
936.389	0.0152933
936.467	0.0153557
936.545	0.0153330
936.623	0.0154322
936.701	0.0153586
936.780	0.0154652
936.858	0.0153715
936.936	0.0153516
937.014	0.0154308
937.092	0.0153925
937.170	0.0154836
937.248	0.0155431
937.326	0.0153663
937.405	0.0154025
937.483	0.0154054
937.561	0.0155690
937.639	0.0154379
937.717	0.0154716
937.795	0.0155315
937.873	0.0155069
937.951	0.0155260
938.030	0.0155621
938.108	0.0154204
938.186	0.0154801
938.264	0.0155529
938.342	0.0155257
938.420	0.0154476
938.498	0.0155669
938.576	0.0154912
938.655	0.0154214
938.733	0.0155724
938.811	0.0155020
938.889	0.0156345
938.967	0.0156267
939.045	0.0157191
939.123	0.0155500
939.201	0.0155806
939.280	0.0155618
939.358	0.0155172
939.436	0.0156393
939.514	0.0156528
939.592	0.0156963
939.670	0.0154874
939.748	0.0154803
939.826	0.0155954
939.905	0.0156548
939.983	0.0155515
940.061	0.0155814
940.139	0.0156886
940.217	0.0156211
940.295	0.0154871
940.373	0.0155199
940.451	0.0155180
940.530	0.0154763
940.608	0.0154762
940.686	0.0154809
940.764	0.0154992
940.842	0.0153847
940.920	0.0153870
940.998	0.0155298
941.076	0.0153758
941.155	0.0154436
941.233	0.0155599
941.311	0.0154970
941.389	0.0154205
941.467	0.0154774
941.545	0.0153964
941.623	0.0154049
941.701	0.0152694
941.780	0.0153829
941.858	0.0154909
941.936	0.0154517
942.014	0.0154212
942.092	0.0154906
942.170	0.0154350
942.248	0.0154560
942.326	0.0153642
942.405	0.0153822
942.483	0.0153780
942.561	0.0155548
942.639	0.0154622
942.717	0.0153918
942.795	0.0154557
942.873	0.0154611
942.951	0.0154963
943.030	0.0153876
943.108	0.0153651
943.186	0.0153300
943.264	0.0154890
943.342	0.0154072
943.420	0.0155080
943.498	0.0155168
943.576	0.0154420
943.655	0.0153027
943.733	0.0154756
943.811	0.0154397
943.889	0.0153922
943.967	0.0155434
944.045	0.0153822
944.123	0.0154316
944.201	0.0154356
944.280	0.0155272
944.358	0.0154375
944.436	0.0152960
944.514	0.0154192
944.592	0.0154628
944.670	0.0154014
944.748	0.0152797
944.826	0.0153640
944.905	0.0152969
944.983	0.0153883
945.061	0.0153757
945.139	0.0153460
945.217	0.0153676
945.295	0.0153809
945.373	0.0153003
945.451	0.0154476
945.530	0.0153878
945.608	0.0154527
945.686	0.0155003
945.764	0.0153574
945.842	0.0153226
945.920	0.0153758
945.998	0.0153564
946.076	0.0153580
946.155	0.0154188
946.233	0.0154738
946.311	0.0154116
946.389	0.0154857
946.467	0.0156107
946.545	0.0155313
946.623	0.0155409
946.701	0.0155063
946.780	0.0154465
946.858	0.0155176
946.936	0.0155052
947.014	0.0156350
947.092	0.0155566
947.170	0.0156530
947.248	0.0156744
947.326	0.0155798
947.405	0.0155267
947.483	0.0156231
947.561	0.0156301
947.639	0.0156079
947.717	0.0154741
947.795	0.0154678
947.873	0.0154225
947.951	0.0156159
948.030	0.0156792
948.108	0.0154790
948.186	0.0155721
948.264	0.0154240
948.342	0.0155209
948.420	0.0155228
948.498	0.0155009
948.576	0.0155793
948.655	0.0155154
948.733	0.0155156
948.811	0.0156136
948.889	0.0156279
948.967	0.0155315
949.045	0.0155585
949.123	0.0154881
949.201	0.0156372
949.280	0.0154874
949.358	0.0154558
949.436	0.0154454
949.514	0.0154749
949.592	0.0154763
949.670	0.0155357
949.748	0.0155122
949.826	0.0156143
949.905	0.0154159
949.983	0.0155433
950.061	0.0153967
950.139	0.0153816
950.217	0.0155654
950.295	0.0154021
950.373	0.0155866
950.451	0.0156217
950.530	0.0153613
950.608	0.0154259
950.686	0.0155383
950.764	0.0153435
950.842	0.0154231
950.920	0.0154286
950.998	0.0155151
951.076	0.0154259
951.155	0.0154394
951.233	0.0155488
951.311	0.0154134
951.389	0.0153144
951.467	0.0154015
951.545	0.0155872
951.623	0.0154939
951.701	0.0155811
951.780	0.0156676
951.858	0.0155332
951.936	0.0154085
952.014	0.0154897
952.092	0.0154619
952.170	0.0155064
952.248	0.0155676
952.326	0.0156737
952.405	0.0156101
952.483	0.0156000
952.561	0.0154939
952.639	0.0155287
952.717	0.0155904
952.795	0.0155866
952.873	0.0155622
952.951	0.0154028
953.030	0.0153564
953.108	0.0154520
953.186	0.0153761
953.264	0.0153939
953.342	0.0154744
953.420	0.0154182
953.498	0.0155191
953.576	0.0153804
953.655	0.0154009
953.733	0.0153416
953.811	0.0155159
953.889	0.0153803
953.967	0.0153638
954.045	0.0153644
954.123	0.0153979
954.201	0.0154666
954.280	0.0154704
954.358	0.0153128
954.436	0.0153893
954.514	0.0153435
954.592	0.0153368
954.670	0.0152960
954.748	0.0154177
954.826	0.0154257
954.905	0.0153234
954.983	0.0154066
955.061	0.0152346
955.139	0.0152802
955.217	0.0152970
955.295	0.0152995
955.373	0.0152693
955.451	0.0153050
955.530	0.0153538
955.608	0.0154054
955.686	0.0151241
955.764	0.0152365
955.842	0.0153472
955.920	0.0153800
955.998	0.0154289
956.076	0.0153431
956.155	0.0154278
956.233	0.0152834
956.311	0.0153732
956.389	0.0153484
956.467	0.0153918
956.545	0.0153832
956.623	0.0153407
956.701	0.0154858
956.780	0.0153675
956.858	0.0155096
956.936	0.0154264
957.014	0.0154912
957.092	0.0153951
957.170	0.0154667
957.248	0.0155563
957.326	0.0155026
957.405	0.0156565
957.483	0.0155132
957.561	0.0154007
957.639	0.0154835
957.717	0.0154762
957.795	0.0156258
957.873	0.0155833
957.951	0.0155647
958.030	0.0155665
958.108	0.0154970
958.186	0.0154858
958.264	0.0154877
958.342	0.0155594
958.420	0.0155499
958.498	0.0155324
958.576	0.0156228
958.655	0.0154536
958.733	0.0154870
958.811	0.0156304
958.889	0.0154566
958.967	0.0154999
959.045	0.0154722
959.123	0.0154903
959.201	0.0155893
959.280	0.0155784
959.358	0.0157131
959.436	0.0156247
959.514	0.0155710
959.592	0.0155289
959.670	0.0155907
959.748	0.0156324
959.826	0.0155605
959.905	0.0156185
