05/20/2022	17:10:34	Ver.	4.1	UNKNOWN
Optical Delay	639.982744	Delta X		0.078125	Sweeps	1	Scan Rate	0/0
Coordinates	Axis 1	NaN	Axis 2	NaN	Axis 3	NaN	Axis 4	NaN	Axis 5	NaN	Axis 6	0.000000
TX Power	0.000000	RX Power	0.000000

639.983	0.0159566
640.061	0.0160030
640.139	0.0159616
640.217	0.0160518
640.295	0.0158578
640.373	0.0160014
640.451	0.0158134
640.530	0.0159003
640.608	0.0159801
640.686	0.0159673
640.764	0.0159908
640.842	0.0158736
640.920	0.0159415
640.998	0.0159312
641.076	0.0158512
641.155	0.0159274
641.233	0.0159710
641.311	0.0159579
641.389	0.0159039
641.467	0.0159204
641.545	0.0160777
641.623	0.0158593
641.701	0.0158858
641.780	0.0158862
641.858	0.0159722
641.936	0.0160353
642.014	0.0159142
642.092	0.0158260
642.170	0.0159711
642.248	0.0158308
642.326	0.0158395
642.405	0.0159161
642.483	0.0158076
642.561	0.0158105
642.639	0.0158825
642.717	0.0158911
642.795	0.0158425
642.873	0.0159234
642.951	0.0157628
643.030	0.0158418
643.108	0.0159052
643.186	0.0159375
643.264	0.0160236
643.342	0.0159460
643.420	0.0159279
643.498	0.0160297
643.576	0.0159887
643.655	0.0160012
643.733	0.0159384
643.811	0.0159958
643.889	0.0158798
643.967	0.0159856
644.045	0.0159467
644.123	0.0158614
644.201	0.0158474
644.280	0.0158490
644.358	0.0158925
644.436	0.0157391
644.514	0.0159586
644.592	0.0159427
644.670	0.0157421
644.748	0.0158953
644.826	0.0158891
644.905	0.0158402
644.983	0.0158163
645.061	0.0159265
645.139	0.0158633
645.217	0.0159561
645.295	0.0160231
645.373	0.0160378
645.451	0.0158954
645.530	0.0159476
645.608	0.0158714
645.686	0.0158926
645.764	0.0158455
645.842	0.0158620
645.920	0.0158385
645.998	0.0159380
646.076	0.0157640
646.155	0.0160532
646.233	0.0159901
646.311	0.0159705
646.389	0.0160180
646.467	0.0157964
646.545	0.0158273
646.623	0.0159278
646.701	0.0160550
646.780	0.0160421
646.858	0.0161510
646.936	0.0159259
647.014	0.0160442
647.092	0.0159548
647.170	0.0161256
647.248	0.0160914
647.326	0.0160632
647.405	0.0159992
647.483	0.0159200
647.561	0.0159115
647.639	0.0160677
647.717	0.0160379
647.795	0.0159645
647.873	0.0159866
647.951	0.0161147
648.030	0.0159624
648.108	0.0159348
648.186	0.0160965
648.264	0.0159518
648.342	0.0159923
648.420	0.0160471
648.498	0.0160442
648.576	0.0160427
648.655	0.0160690
648.733	0.0159643
648.811	0.0160097
648.889	0.0158956
648.967	0.0160574
649.045	0.0159204
649.123	0.0158778
649.201	0.0159055
649.280	0.0157986
649.358	0.0158281
649.436	0.0158674
649.514	0.0159129
649.592	0.0158634
649.670	0.0158114
649.748	0.0158290
649.826	0.0158322
649.905	0.0157542
649.983	0.0155790
650.061	0.0158379
650.139	0.0157687
650.217	0.0157955
650.295	0.0158319
650.373	0.0156750
650.451	0.0157429
650.530	0.0157926
650.608	0.0157548
650.686	0.0159578
650.764	0.0157807
650.842	0.0158165
650.920	0.0157451
650.998	0.0157930
651.076	0.0158316
651.155	0.0157299
651.233	0.0157904
651.311	0.0157626
651.389	0.0155552
651.467	0.0157729
651.545	0.0157510
651.623	0.0157845
651.701	0.0158730
651.780	0.0157391
651.858	0.0155424
651.936	0.0155991
652.014	0.0156774
652.092	0.0156177
652.170	0.0156327
652.248	0.0155637
652.326	0.0156875
652.405	0.0156512
652.483	0.0156726
652.561	0.0157871
652.639	0.0155424
652.717	0.0157117
652.795	0.0155636
652.873	0.0156721
652.951	0.0157416
653.030	0.0157429
653.108	0.0158309
653.186	0.0156430
653.264	0.0157197
653.342	0.0157816
653.420	0.0157198
653.498	0.0154484
653.576	0.0157310
653.655	0.0158045
653.733	0.0157915
653.811	0.0157955
653.889	0.0155746
653.967	0.0157048
654.045	0.0157948
654.123	0.0157493
654.201	0.0157372
654.280	0.0156924
654.358	0.0157487
654.436	0.0157414
654.514	0.0155288
654.592	0.0156257
654.670	0.0156815
654.748	0.0155806
654.826	0.0155139
654.905	0.0155202
654.983	0.0155534
655.061	0.0154967
655.139	0.0154099
655.217	0.0154726
655.295	0.0155184
655.373	0.0155448
655.451	0.0156039
655.530	0.0155404
655.608	0.0157671
655.686	0.0158770
655.764	0.0156268
655.842	0.0157121
655.920	0.0155937
655.998	0.0157605
656.076	0.0157176
656.155	0.0158173
656.233	0.0157363
656.311	0.0157294
656.389	0.0158403
656.467	0.0157402
656.545	0.0157200
656.623	0.0156227
656.701	0.0155332
656.780	0.0156443
656.858	0.0156837
656.936	0.0157052
657.014	0.0155779
657.092	0.0155437
657.170	0.0154988
657.248	0.0156840
657.326	0.0156179
657.405	0.0155651
657.483	0.0157076
657.561	0.0156293
657.639	0.0159100
657.717	0.0158627
657.795	0.0157195
657.873	0.0157384
657.951	0.0158979
658.030	0.0159682
658.108	0.0158475
658.186	0.0158058
658.264	0.0159928
658.342	0.0158945
658.420	0.0157246
658.498	0.0158217
658.576	0.0158702
658.655	0.0158414
658.733	0.0158530
658.811	0.0157400
658.889	0.0158251
658.967	0.0158180
659.045	0.0159075
659.123	0.0159566
659.201	0.0159130
659.280	0.0159460
659.358	0.0159601
659.436	0.0159726
659.514	0.0158487
659.592	0.0160313
659.670	0.0159940
659.748	0.0158820
659.826	0.0157789
659.905	0.0159544
659.983	0.0157977
660.061	0.0157373
660.139	0.0160751
660.217	0.0159145
660.295	0.0159796
660.373	0.0159872
660.451	0.0159249
660.530	0.0160261
660.608	0.0160140
660.686	0.0160078
660.764	0.0161254
660.842	0.0160557
660.920	0.0161232
660.998	0.0160836
661.076	0.0159234
661.155	0.0161164
661.233	0.0160577
661.311	0.0159451
661.389	0.0159046
661.467	0.0158631
661.545	0.0159789
661.623	0.0157816
661.701	0.0157732
661.780	0.0158039
661.858	0.0158154
661.936	0.0157727
662.014	0.0158312
662.092	0.0159700
662.170	0.0158760
662.248	0.0157536
662.326	0.0157795
662.405	0.0158981
662.483	0.0160011
662.561	0.0159946
662.639	0.0159018
662.717	0.0159038
662.795	0.0159789
662.873	0.0160074
662.951	0.0160471
663.030	0.0159013
663.108	0.0159306
663.186	0.0160276
663.264	0.0160102
663.342	0.0159171
663.420	0.0160088
663.498	0.0158743
663.576	0.0159325
663.655	0.0160084
663.733	0.0160076
663.811	0.0160533
663.889	0.0160544
663.967	0.0160087
664.045	0.0159075
664.123	0.0158591
664.201	0.0158688
664.280	0.0158006
664.358	0.0158027
664.436	0.0156947
664.514	0.0156852
664.592	0.0155662
664.670	0.0155141
664.748	0.0153935
664.826	0.0152698
664.905	0.0153839
664.983	0.0152912
665.061	0.0153756
665.139	0.0153452
665.217	0.0152289
665.295	0.0151515
665.373	0.0150677
665.451	0.0150883
665.530	0.0152374
665.608	0.0153294
665.686	0.0152618
665.764	0.0152228
665.842	0.0151757
665.920	0.0152893
665.998	0.0153284
666.076	0.0153821
666.155	0.0153920
666.233	0.0154932
666.311	0.0156064
666.389	0.0155933
666.467	0.0157309
666.545	0.0157078
666.623	0.0158602
666.701	0.0158535
666.780	0.0158736
666.858	0.0160693
666.936	0.0161456
667.014	0.0160865
667.092	0.0163196
667.170	0.0163234
667.248	0.0164481
667.326	0.0165163
667.405	0.0165414
667.483	0.0165868
667.561	0.0167027
667.639	0.0166958
667.717	0.0165976
667.795	0.0168754
667.873	0.0167000
667.951	0.0168038
668.030	0.0167976
668.108	0.0167397
668.186	0.0165894
668.264	0.0167336
668.342	0.0165800
668.420	0.0164267
668.498	0.0164054
668.576	0.0162984
668.655	0.0162437
668.733	0.0161803
668.811	0.0159158
668.889	0.0158916
668.967	0.0157870
669.045	0.0156093
669.123	0.0153786
669.201	0.0153436
669.280	0.0150806
669.358	0.0150710
669.436	0.0149940
669.514	0.0149395
669.592	0.0149021
669.670	0.0148695
669.748	0.0149016
669.826	0.0148077
669.905	0.0148061
669.983	0.0148608
670.061	0.0150085
670.139	0.0148541
670.217	0.0150261
670.295	0.0150401
670.373	0.0150452
670.451	0.0152814
670.530	0.0153751
670.608	0.0155591
670.686	0.0155788
670.764	0.0156557
670.842	0.0157738
670.920	0.0158654
670.998	0.0158658
671.076	0.0160999
671.155	0.0163518
671.233	0.0162845
671.311	0.0162689
671.389	0.0165261
671.467	0.0165237
671.545	0.0165787
671.623	0.0166686
671.701	0.0166679
671.780	0.0168179
671.858	0.0168908
671.936	0.0169061
672.014	0.0168424
672.092	0.0167511
672.170	0.0169756
672.248	0.0169699
672.326	0.0169513
672.405	0.0168940
672.483	0.0168910
672.561	0.0168427
672.639	0.0167916
672.717	0.0166986
672.795	0.0167003
672.873	0.0165765
672.951	0.0164537
673.030	0.0163551
673.108	0.0162500
673.186	0.0161668
673.264	0.0158526
673.342	0.0157458
673.420	0.0155319
673.498	0.0155418
673.576	0.0152887
673.655	0.0151694
673.733	0.0151589
673.811	0.0150156
673.889	0.0148711
673.967	0.0147536
674.045	0.0146454
674.123	0.0145273
674.201	0.0144819
674.280	0.0146147
674.358	0.0144846
674.436	0.0143810
674.514	0.0144761
674.592	0.0144389
674.670	0.0143786
674.748	0.0144219
674.826	0.0146093
674.905	0.0147092
674.983	0.0147259
675.061	0.0148667
675.139	0.0149104
675.217	0.0152048
675.295	0.0153761
675.373	0.0154568
675.451	0.0155042
675.530	0.0158120
675.608	0.0159766
675.686	0.0162057
675.764	0.0162643
675.842	0.0164354
675.920	0.0166238
675.998	0.0165799
676.076	0.0166611
676.155	0.0167635
676.233	0.0168055
676.311	0.0168884
676.389	0.0168459
676.467	0.0168735
676.545	0.0168881
676.623	0.0169897
676.701	0.0168478
676.780	0.0167921
676.858	0.0167796
676.936	0.0165698
677.014	0.0166193
677.092	0.0165007
677.170	0.0162328
677.248	0.0161434
677.326	0.0160465
677.405	0.0158910
677.483	0.0158196
677.561	0.0158093
677.639	0.0155783
677.717	0.0156329
677.795	0.0156127
677.873	0.0155005
677.951	0.0154295
678.030	0.0153527
678.108	0.0154534
678.186	0.0154604
678.264	0.0153806
678.342	0.0154137
678.420	0.0153871
678.498	0.0153606
678.576	0.0154066
678.655	0.0154754
678.733	0.0154099
678.811	0.0154240
678.889	0.0153307
678.967	0.0153244
679.045	0.0153777
679.123	0.0154768
679.201	0.0155131
679.280	0.0155143
679.358	0.0155629
679.436	0.0155455
679.514	0.0156894
679.592	0.0156810
679.670	0.0157345
679.748	0.0159237
679.826	0.0159399
679.905	0.0159228
679.983	0.0159563
680.061	0.0159205
680.139	0.0160456
680.217	0.0159084
680.295	0.0159686
680.373	0.0160036
680.451	0.0158580
680.530	0.0158466
680.608	0.0157214
680.686	0.0158131
680.764	0.0157018
680.842	0.0155530
680.920	0.0155874
680.998	0.0156144
681.076	0.0154537
681.155	0.0154700
681.233	0.0155840
681.311	0.0154844
681.389	0.0153699
681.467	0.0155408
681.545	0.0154466
681.623	0.0154398
681.701	0.0154283
681.780	0.0154519
681.858	0.0156301
681.936	0.0156715
682.014	0.0156197
682.092	0.0157072
682.170	0.0159097
682.248	0.0158414
682.326	0.0159196
682.405	0.0160897
682.483	0.0163455
682.561	0.0162218
682.639	0.0163950
682.717	0.0165093
682.795	0.0165970
682.873	0.0166627
682.951	0.0167296
683.030	0.0167255
683.108	0.0168083
683.186	0.0167268
683.264	0.0166774
683.342	0.0166891
683.420	0.0166496
683.498	0.0164496
683.576	0.0163771
683.655	0.0162675
683.733	0.0162912
683.811	0.0162141
683.889	0.0160522
683.967	0.0161196
684.045	0.0159345
684.123	0.0156721
684.201	0.0155712
684.280	0.0155610
684.358	0.0153972
684.436	0.0153062
684.514	0.0150264
684.592	0.0151896
684.670	0.0151286
684.748	0.0150077
684.826	0.0148710
684.905	0.0148448
684.983	0.0147604
685.061	0.0148851
685.139	0.0147488
685.217	0.0146533
685.295	0.0146909
685.373	0.0147249
685.451	0.0147444
685.530	0.0148310
685.608	0.0149809
685.686	0.0148196
685.764	0.0149672
685.842	0.0150773
685.920	0.0149014
685.998	0.0151791
686.076	0.0152141
686.155	0.0152376
686.233	0.0151656
686.311	0.0153072
686.389	0.0154107
686.467	0.0154608
686.545	0.0156248
686.623	0.0157356
686.701	0.0157676
686.780	0.0157373
686.858	0.0158464
686.936	0.0158154
687.014	0.0159394
687.092	0.0159291
687.170	0.0161053
687.248	0.0160439
687.326	0.0162277
687.405	0.0162001
687.483	0.0163163
687.561	0.0164635
687.639	0.0163072
687.717	0.0162708
687.795	0.0164479
687.873	0.0163750
687.951	0.0163722
688.030	0.0164932
688.108	0.0163701
688.186	0.0163907
688.264	0.0165342
688.342	0.0163413
688.420	0.0163185
688.498	0.0165175
688.576	0.0163744
688.655	0.0163567
688.733	0.0165007
688.811	0.0165552
688.889	0.0163766
688.967	0.0162978
689.045	0.0163147
689.123	0.0164149
689.201	0.0162740
689.280	0.0161361
689.358	0.0161308
689.436	0.0159938
689.514	0.0161254
689.592	0.0160151
689.670	0.0159473
689.748	0.0159056
689.826	0.0158437
689.905	0.0158740
689.983	0.0156638
690.061	0.0156116
690.139	0.0156786
690.217	0.0156884
690.295	0.0157575
690.373	0.0155238
690.451	0.0155991
690.530	0.0153141
690.608	0.0153712
690.686	0.0154214
690.764	0.0153763
690.842	0.0153085
690.920	0.0152031
690.998	0.0151192
691.076	0.0148785
691.155	0.0149123
691.233	0.0149111
691.311	0.0147848
691.389	0.0147189
691.467	0.0148926
691.545	0.0147498
691.623	0.0147684
691.701	0.0147662
691.780	0.0148161
691.858	0.0149863
691.936	0.0149556
692.014	0.0151000
692.092	0.0153268
692.170	0.0155026
692.248	0.0156870
692.326	0.0157557
692.405	0.0158055
692.483	0.0160162
692.561	0.0162572
692.639	0.0163786
692.717	0.0165487
692.795	0.0165778
692.873	0.0166542
692.951	0.0167152
693.030	0.0168591
693.108	0.0167563
693.186	0.0167297
693.264	0.0168865
693.342	0.0168309
693.420	0.0169125
693.498	0.0169481
693.576	0.0169653
693.655	0.0168745
693.733	0.0169096
693.811	0.0169768
693.889	0.0170422
693.967	0.0168154
694.045	0.0168239
694.123	0.0166402
694.201	0.0167384
694.280	0.0167110
694.358	0.0165920
694.436	0.0164722
694.514	0.0163671
694.592	0.0164086
694.670	0.0161768
694.748	0.0161225
694.826	0.0159934
694.905	0.0159342
694.983	0.0157423
695.061	0.0156298
695.139	0.0155206
695.217	0.0154443
695.295	0.0152575
695.373	0.0151411
695.451	0.0150002
695.530	0.0150182
695.608	0.0149088
695.686	0.0147987
695.764	0.0148042
695.842	0.0148742
695.920	0.0149168
695.998	0.0147293
696.076	0.0148377
696.155	0.0147405
696.233	0.0149232
696.311	0.0150781
696.389	0.0150323
696.467	0.0150813
696.545	0.0151192
696.623	0.0152175
696.701	0.0152889
696.780	0.0153619
696.858	0.0155907
696.936	0.0156132
697.014	0.0154398
697.092	0.0157087
697.170	0.0157138
697.248	0.0156582
697.326	0.0158007
697.405	0.0160188
697.483	0.0161210
697.561	0.0163768
697.639	0.0163037
697.717	0.0162419
697.795	0.0163121
697.873	0.0165524
697.951	0.0165006
698.030	0.0165714
698.108	0.0165926
698.186	0.0165628
698.264	0.0165744
698.342	0.0164948
698.420	0.0164157
698.498	0.0164695
698.576	0.0162952
698.655	0.0159594
698.733	0.0161246
698.811	0.0160757
698.889	0.0159589
698.967	0.0159091
699.045	0.0158885
699.123	0.0158294
699.201	0.0157024
699.280	0.0158727
699.358	0.0158975
699.436	0.0159548
699.514	0.0159966
699.592	0.0160018
699.670	0.0159109
699.748	0.0160416
699.826	0.0161722
699.905	0.0160622
699.983	0.0161148
700.061	0.0160806
700.139	0.0161241
700.217	0.0161772
700.295	0.0162870
700.373	0.0161097
700.451	0.0162286
700.530	0.0161870
700.608	0.0161344
700.686	0.0162252
700.764	0.0160919
700.842	0.0160811
700.920	0.0160782
700.998	0.0161287
701.076	0.0158373
701.155	0.0158062
701.233	0.0157908
701.311	0.0157366
701.389	0.0155405
701.467	0.0154331
701.545	0.0154930
701.623	0.0154843
701.701	0.0152689
701.780	0.0152663
701.858	0.0151279
701.936	0.0151488
702.014	0.0150706
702.092	0.0151042
702.170	0.0151231
702.248	0.0152045
702.326	0.0152262
702.405	0.0150443
702.483	0.0151738
702.561	0.0153491
702.639	0.0154081
702.717	0.0154053
702.795	0.0154210
702.873	0.0155717
702.951	0.0157436
703.030	0.0157827
703.108	0.0157343
703.186	0.0158200
703.264	0.0157635
703.342	0.0158412
703.420	0.0157919
703.498	0.0157441
703.576	0.0159061
703.655	0.0159254
703.733	0.0159470
703.811	0.0158942
703.889	0.0159505
703.967	0.0160307
704.045	0.0161185
704.123	0.0160624
704.201	0.0161588
704.280	0.0161855
704.358	0.0162793
704.436	0.0162922
704.514	0.0162881
704.592	0.0162708
704.670	0.0162638
704.748	0.0163063
704.826	0.0161686
704.905	0.0162104
704.983	0.0162267
705.061	0.0162570
705.139	0.0160793
705.217	0.0160202
705.295	0.0160114
705.373	0.0160744
705.451	0.0159728
705.530	0.0159771
705.608	0.0159675
705.686	0.0160029
705.764	0.0157587
705.842	0.0160233
705.920	0.0156545
705.998	0.0156413
706.076	0.0155684
706.155	0.0153542
706.233	0.0152851
706.311	0.0152560
706.389	0.0150610
706.467	0.0149359
706.545	0.0149740
706.623	0.0147485
706.701	0.0147242
706.780	0.0144540
706.858	0.0146303
706.936	0.0146549
707.014	0.0146259
707.092	0.0147814
707.170	0.0148526
707.248	0.0150164
707.326	0.0149107
707.405	0.0150831
707.483	0.0152547
707.561	0.0153031
707.639	0.0154652
707.717	0.0155302
707.795	0.0158086
707.873	0.0158128
707.951	0.0160826
708.030	0.0160173
708.108	0.0161610
708.186	0.0162292
708.264	0.0165282
708.342	0.0166791
708.420	0.0167633
708.498	0.0168727
708.576	0.0168614
708.655	0.0168669
708.733	0.0168763
708.811	0.0167200
708.889	0.0167582
708.967	0.0167409
709.045	0.0166650
709.123	0.0165715
709.201	0.0164532
709.280	0.0163145
709.358	0.0162501
709.436	0.0162366
709.514	0.0159871
709.592	0.0161241
709.670	0.0159735
709.748	0.0158272
709.826	0.0157996
709.905	0.0156458
709.983	0.0156195
710.061	0.0156058
710.139	0.0156179
710.217	0.0155170
710.295	0.0155949
710.373	0.0155222
710.451	0.0156143
710.530	0.0154317
710.608	0.0154251
710.686	0.0155344
710.764	0.0153585
710.842	0.0154028
710.920	0.0154469
710.998	0.0154565
711.076	0.0154439
711.155	0.0154240
711.233	0.0156137
711.311	0.0154652
711.389	0.0153759
711.467	0.0155285
711.545	0.0156076
711.623	0.0155836
711.701	0.0155067
711.780	0.0156215
711.858	0.0157069
711.936	0.0156001
712.014	0.0155441
712.092	0.0155457
712.170	0.0157378
712.248	0.0157713
712.326	0.0158308
712.405	0.0157438
712.483	0.0159027
712.561	0.0158363
712.639	0.0160114
712.717	0.0160264
712.795	0.0161237
712.873	0.0162579
712.951	0.0161536
713.030	0.0162120
713.108	0.0163505
713.186	0.0163694
713.264	0.0164467
713.342	0.0164224
713.420	0.0164008
713.498	0.0164944
713.576	0.0165425
713.655	0.0163803
713.733	0.0164338
713.811	0.0164589
713.889	0.0164447
713.967	0.0163522
714.045	0.0162952
714.123	0.0162660
714.201	0.0160658
714.280	0.0161483
714.358	0.0160999
714.436	0.0159705
714.514	0.0160493
714.592	0.0159268
714.670	0.0159476
714.748	0.0157884
714.826	0.0155751
714.905	0.0156676
714.983	0.0156615
715.061	0.0157518
715.139	0.0156377
715.217	0.0154639
715.295	0.0153945
715.373	0.0153951
715.451	0.0152768
715.530	0.0152675
715.608	0.0150899
715.686	0.0151022
715.764	0.0152927
715.842	0.0150613
715.920	0.0152475
715.998	0.0152246
716.076	0.0151316
716.155	0.0153528
716.233	0.0152983
716.311	0.0153633
716.389	0.0154372
716.467	0.0154771
716.545	0.0153701
716.623	0.0152490
716.701	0.0154298
716.780	0.0154142
716.858	0.0152855
716.936	0.0152062
717.014	0.0153174
717.092	0.0155456
717.170	0.0154671
717.248	0.0154026
717.326	0.0155300
717.405	0.0156794
717.483	0.0157578
717.561	0.0156987
717.639	0.0158295
717.717	0.0159124
717.795	0.0160217
717.873	0.0160899
717.951	0.0163802
718.030	0.0164513
718.108	0.0164605
718.186	0.0164890
718.264	0.0165447
718.342	0.0164425
718.420	0.0166164
718.498	0.0165548
718.576	0.0165550
718.655	0.0165150
718.733	0.0166124
718.811	0.0164456
718.889	0.0166147
718.967	0.0165961
719.045	0.0165633
719.123	0.0164465
719.201	0.0165683
719.280	0.0162931
719.358	0.0162306
719.436	0.0162933
719.514	0.0160009
719.592	0.0160162
719.670	0.0159264
719.748	0.0157187
719.826	0.0158139
719.905	0.0158383
719.983	0.0155544
720.061	0.0155737
720.139	0.0154520
720.217	0.0153467
720.295	0.0153014
720.373	0.0153938
720.451	0.0153320
720.530	0.0153614
720.608	0.0154640
720.686	0.0156131
720.764	0.0155246
720.842	0.0155294
720.920	0.0157185
720.998	0.0157957
721.076	0.0157306
721.155	0.0158491
721.233	0.0159054
721.311	0.0159507
721.389	0.0160984
721.467	0.0160528
721.545	0.0161250
721.623	0.0162776
721.701	0.0162183
721.780	0.0162167
721.858	0.0160802
721.936	0.0161527
722.014	0.0161374
722.092	0.0161742
722.170	0.0160960
722.248	0.0160515
722.326	0.0160276
722.405	0.0160241
722.483	0.0159128
722.561	0.0158559
722.639	0.0157906
722.717	0.0156161
722.795	0.0156232
722.873	0.0156136
722.951	0.0155257
723.030	0.0155386
723.108	0.0155669
723.186	0.0153446
723.264	0.0152815
723.342	0.0153259
723.420	0.0152399
723.498	0.0153906
723.576	0.0152676
723.655	0.0154274
723.733	0.0154926
723.811	0.0154956
723.889	0.0156232
723.967	0.0155943
724.045	0.0156439
724.123	0.0157747
724.201	0.0157416
724.280	0.0158104
724.358	0.0159335
724.436	0.0161694
724.514	0.0159545
724.592	0.0159956
724.670	0.0162138
724.748	0.0163528
724.826	0.0162351
724.905	0.0162675
724.983	0.0163222
725.061	0.0164947
725.139	0.0165060
725.217	0.0164265
725.295	0.0165354
725.373	0.0166703
725.451	0.0165813
725.530	0.0165318
725.608	0.0164603
725.686	0.0165612
725.764	0.0163877
725.842	0.0164228
725.920	0.0164627
725.998	0.0162023
726.076	0.0160668
726.155	0.0159421
726.233	0.0158532
726.311	0.0157034
726.389	0.0157508
726.467	0.0155431
726.545	0.0155096
726.623	0.0155428
726.701	0.0152899
726.780	0.0153896
726.858	0.0154931
726.936	0.0151603
727.014	0.0151225
727.092	0.0151894
727.170	0.0149865
727.248	0.0151192
727.326	0.0150751
727.405	0.0151272
727.483	0.0149489
727.561	0.0151054
727.639	0.0152966
727.717	0.0151987
727.795	0.0153136
727.873	0.0152664
727.951	0.0152797
728.030	0.0154274
728.108	0.0155691
728.186	0.0155049
728.264	0.0155592
728.342	0.0157479
728.420	0.0157627
728.498	0.0162235
728.576	0.0160938
728.655	0.0162310
728.733	0.0161204
728.811	0.0161478
728.889	0.0163685
728.967	0.0163615
729.045	0.0164152
729.123	0.0164395
729.201	0.0164087
729.280	0.0164828
729.358	0.0164429
729.436	0.0164742
729.514	0.0164160
729.592	0.0163889
729.670	0.0162865
729.748	0.0161937
729.826	0.0161147
729.905	0.0160824
729.983	0.0160782
730.061	0.0159241
730.139	0.0158444
730.217	0.0160033
730.295	0.0159496
730.373	0.0158674
730.451	0.0158184
730.530	0.0155738
730.608	0.0155388
730.686	0.0154724
730.764	0.0154488
730.842	0.0154401
730.920	0.0155000
730.998	0.0154207
731.076	0.0152245
731.155	0.0152417
731.233	0.0152064
731.311	0.0151854
731.389	0.0152678
731.467	0.0154551
731.545	0.0153101
731.623	0.0153107
731.701	0.0154505
731.780	0.0155150
731.858	0.0154218
731.936	0.0155418
732.014	0.0154639
732.092	0.0157616
732.170	0.0159470
732.248	0.0158305
732.326	0.0159698
732.405	0.0159541
732.483	0.0161217
732.561	0.0161517
732.639	0.0161572
732.717	0.0163658
732.795	0.0163905
732.873	0.0164032
732.951	0.0165628
733.030	0.0164497
733.108	0.0164565
733.186	0.0164610
733.264	0.0163580
733.342	0.0161271
733.420	0.0162196
733.498	0.0163056
733.576	0.0161617
733.655	0.0161683
733.733	0.0159767
733.811	0.0159803
733.889	0.0159126
733.967	0.0158636
734.045	0.0157306
734.123	0.0156608
734.201	0.0156740
734.280	0.0157249
734.358	0.0154894
734.436	0.0156768
734.514	0.0157071
734.592	0.0155817
734.670	0.0156281
734.748	0.0155793
734.826	0.0154661
734.905	0.0155228
734.983	0.0157246
735.061	0.0157421
735.139	0.0156302
735.217	0.0155095
735.295	0.0156493
735.373	0.0156968
735.451	0.0156768
735.530	0.0157936
735.608	0.0157980
735.686	0.0158163
735.764	0.0158784
735.842	0.0159792
735.920	0.0160226
735.998	0.0160234
736.076	0.0160587
736.155	0.0163274
736.233	0.0163483
736.311	0.0162012
736.389	0.0162451
736.467	0.0163480
736.545	0.0164285
736.623	0.0163220
736.701	0.0160282
736.780	0.0161674
736.858	0.0161592
736.936	0.0161372
737.014	0.0162314
737.092	0.0161037
737.170	0.0160423
737.248	0.0159856
737.326	0.0160707
737.405	0.0158147
737.483	0.0157787
737.561	0.0156610
737.639	0.0156525
737.717	0.0156918
737.795	0.0155710
737.873	0.0156521
737.951	0.0157064
738.030	0.0156203
738.108	0.0156171
738.186	0.0154883
738.264	0.0156914
738.342	0.0156224
738.420	0.0155948
738.498	0.0156701
738.576	0.0157468
738.655	0.0156851
738.733	0.0158434
738.811	0.0157848
738.889	0.0156567
738.967	0.0157265
739.045	0.0157652
739.123	0.0157298
739.201	0.0159158
739.280	0.0158500
739.358	0.0157685
739.436	0.0158498
739.514	0.0158317
739.592	0.0157790
739.670	0.0159572
739.748	0.0159472
739.826	0.0159618
739.905	0.0160405
739.983	0.0159866
740.061	0.0161115
740.139	0.0161529
740.217	0.0161076
740.295	0.0160700
740.373	0.0162536
740.451	0.0161671
740.530	0.0161842
740.608	0.0161002
740.686	0.0162440
740.764	0.0161292
740.842	0.0159826
740.920	0.0160677
740.998	0.0159095
741.076	0.0159233
741.155	0.0157457
741.233	0.0157212
741.311	0.0156939
741.389	0.0156645
741.467	0.0156932
741.545	0.0157568
741.623	0.0157603
741.701	0.0157684
741.780	0.0158175
741.858	0.0158001
741.936	0.0157146
742.014	0.0157110
742.092	0.0157703
742.170	0.0158501
742.248	0.0157285
742.326	0.0158158
742.405	0.0157779
742.483	0.0158324
742.561	0.0158911
742.639	0.0157601
742.717	0.0159778
742.795	0.0159208
742.873	0.0159234
742.951	0.0160466
743.030	0.0159968
743.108	0.0159286
743.186	0.0159641
743.264	0.0162073
743.342	0.0161413
743.420	0.0160833
743.498	0.0158881
743.576	0.0159297
743.655	0.0158759
743.733	0.0159902
743.811	0.0157065
743.889	0.0157656
743.967	0.0159887
744.045	0.0160439
744.123	0.0158353
744.201	0.0156803
744.280	0.0157748
744.358	0.0157108
744.436	0.0156649
744.514	0.0155412
744.592	0.0155411
744.670	0.0155494
744.748	0.0155404
744.826	0.0155872
744.905	0.0155825
744.983	0.0156028
745.061	0.0154974
745.139	0.0155233
745.217	0.0154725
745.295	0.0152667
745.373	0.0155045
745.451	0.0153601
745.530	0.0154466
745.608	0.0155660
745.686	0.0155727
745.764	0.0154186
745.842	0.0154838
745.920	0.0156837
745.998	0.0156326
746.076	0.0156786
746.155	0.0157576
746.233	0.0156990
746.311	0.0157796
746.389	0.0159442
746.467	0.0159261
746.545	0.0158104
746.623	0.0159384
746.701	0.0161227
746.780	0.0160699
746.858	0.0159683
746.936	0.0159357
747.014	0.0161384
747.092	0.0160235
747.170	0.0159179
747.248	0.0161067
747.326	0.0159291
747.405	0.0158481
747.483	0.0159216
747.561	0.0159715
747.639	0.0158052
747.717	0.0158159
747.795	0.0156889
747.873	0.0158852
747.951	0.0157312
748.030	0.0157396
748.108	0.0157609
748.186	0.0156174
748.264	0.0155920
748.342	0.0155376
748.420	0.0156138
748.498	0.0155569
748.576	0.0156896
748.655	0.0157980
748.733	0.0156318
748.811	0.0155912
748.889	0.0156435
748.967	0.0155292
749.045	0.0156039
749.123	0.0157638
749.201	0.0157532
749.280	0.0157161
749.358	0.0157198
749.436	0.0157321
749.514	0.0157378
749.592	0.0157938
749.670	0.0157150
749.748	0.0157182
749.826	0.0156514
749.905	0.0156813
749.983	0.0156356
750.061	0.0156609
750.139	0.0156213
750.217	0.0158492
750.295	0.0158250
750.373	0.0158076
750.451	0.0159615
750.530	0.0160250
750.608	0.0160254
750.686	0.0161544
750.764	0.0160931
750.842	0.0161802
750.920	0.0161932
750.998	0.0162076
751.076	0.0162470
751.155	0.0162917
751.233	0.0162196
751.311	0.0162049
751.389	0.0162740
751.467	0.0161270
751.545	0.0160741
751.623	0.0161464
751.701	0.0160150
751.780	0.0160992
751.858	0.0160766
751.936	0.0160120
752.014	0.0161125
752.092	0.0160882
752.170	0.0158564
752.248	0.0158308
752.326	0.0159491
752.405	0.0161167
752.483	0.0159762
752.561	0.0158932
752.639	0.0158211
752.717	0.0157233
752.795	0.0157679
752.873	0.0157668
752.951	0.0157430
753.030	0.0158419
753.108	0.0157612
753.186	0.0156497
753.264	0.0158343
753.342	0.0157228
753.420	0.0158147
753.498	0.0159143
753.576	0.0160549
753.655	0.0160371
753.733	0.0158929
753.811	0.0158591
753.889	0.0161055
753.967	0.0160589
754.045	0.0161191
754.123	0.0160837
754.201	0.0161742
754.280	0.0162222
754.358	0.0164169
754.436	0.0162627
754.514	0.0163596
754.592	0.0163075
754.670	0.0163966
754.748	0.0164124
754.826	0.0164510
754.905	0.0163539
754.983	0.0163767
755.061	0.0161938
755.139	0.0163660
755.217	0.0162626
755.295	0.0161150
755.373	0.0162815
755.451	0.0161845
755.530	0.0160438
755.608	0.0158659
755.686	0.0158449
755.764	0.0159672
755.842	0.0158692
755.920	0.0158759
755.998	0.0158207
756.076	0.0156817
756.155	0.0157054
756.233	0.0155285
756.311	0.0155356
756.389	0.0154491
756.467	0.0155958
756.545	0.0155102
756.623	0.0154310
756.701	0.0155524
756.780	0.0154865
756.858	0.0155620
756.936	0.0156663
757.014	0.0155273
757.092	0.0156289
757.170	0.0155666
757.248	0.0154828
757.326	0.0153580
757.405	0.0155022
757.483	0.0158471
757.561	0.0157147
757.639	0.0155764
757.717	0.0157047
757.795	0.0156522
757.873	0.0156870
757.951	0.0157449
758.030	0.0157980
758.108	0.0157177
758.186	0.0159026
758.264	0.0159119
758.342	0.0158653
758.420	0.0158154
758.498	0.0159510
758.576	0.0159919
758.655	0.0158395
758.733	0.0158183
758.811	0.0159095
758.889	0.0159862
758.967	0.0159119
759.045	0.0159840
759.123	0.0158704
759.201	0.0159175
759.280	0.0159962
759.358	0.0159805
759.436	0.0160603
759.514	0.0160349
759.592	0.0159312
759.670	0.0159124
759.748	0.0157756
759.826	0.0159389
759.905	0.0158376
759.983	0.0158282
760.061	0.0158050
760.139	0.0157896
760.217	0.0157830
760.295	0.0157497
760.373	0.0156332
760.451	0.0157286
760.530	0.0156713
760.608	0.0155984
760.686	0.0156754
760.764	0.0156271
760.842	0.0157267
760.920	0.0156163
760.998	0.0156300
761.076	0.0156291
761.155	0.0156300
761.233	0.0155827
761.311	0.0155896
761.389	0.0155640
761.467	0.0156151
761.545	0.0154784
761.623	0.0157721
761.701	0.0157048
761.780	0.0156968
761.858	0.0157836
761.936	0.0158015
762.014	0.0157308
762.092	0.0157686
762.170	0.0158774
762.248	0.0160104
762.326	0.0159566
762.405	0.0159656
762.483	0.0158427
762.561	0.0160995
762.639	0.0161479
762.717	0.0160812
762.795	0.0160439
762.873	0.0161556
762.951	0.0161475
763.030	0.0160461
763.108	0.0160560
763.186	0.0160896
763.264	0.0159203
763.342	0.0161031
763.420	0.0159466
763.498	0.0159296
763.576	0.0158105
763.655	0.0157323
763.733	0.0157377
763.811	0.0158404
763.889	0.0156733
763.967	0.0155882
764.045	0.0156617
764.123	0.0156171
764.201	0.0156808
764.280	0.0157322
764.358	0.0156765
764.436	0.0156716
764.514	0.0155696
764.592	0.0156596
764.670	0.0157241
764.748	0.0156304
764.826	0.0155988
764.905	0.0155335
764.983	0.0156636
765.061	0.0156646
765.139	0.0156356
765.217	0.0156717
765.295	0.0157107
765.373	0.0157389
765.451	0.0155378
765.530	0.0156110
765.608	0.0156652
765.686	0.0156623
765.764	0.0158475
765.842	0.0158804
765.920	0.0158588
765.998	0.0156480
766.076	0.0157732
766.155	0.0158086
766.233	0.0157487
766.311	0.0156978
766.389	0.0158232
766.467	0.0156909
766.545	0.0157617
766.623	0.0157557
766.701	0.0156714
766.780	0.0156116
766.858	0.0157757
766.936	0.0156508
767.014	0.0156155
767.092	0.0157678
767.170	0.0158217
767.248	0.0157851
767.326	0.0157813
767.405	0.0157952
767.483	0.0157651
767.561	0.0159171
767.639	0.0159593
767.717	0.0157452
767.795	0.0158222
767.873	0.0158772
767.951	0.0157616
768.030	0.0157943
768.108	0.0158595
768.186	0.0157755
768.264	0.0158294
768.342	0.0157697
768.420	0.0158389
768.498	0.0159111
768.576	0.0157282
768.655	0.0157822
768.733	0.0158309
768.811	0.0158670
768.889	0.0159257
768.967	0.0158270
769.045	0.0156918
769.123	0.0157246
769.201	0.0157242
769.280	0.0157872
769.358	0.0156924
769.436	0.0157898
769.514	0.0157230
769.592	0.0157355
769.670	0.0156730
769.748	0.0157133
769.826	0.0157204
769.905	0.0156964
769.983	0.0156571
770.061	0.0155285
770.139	0.0156892
770.217	0.0156313
770.295	0.0156374
770.373	0.0157249
770.451	0.0157256
770.530	0.0155976
770.608	0.0156773
770.686	0.0155975
770.764	0.0158093
770.842	0.0156223
770.920	0.0157512
770.998	0.0158462
771.076	0.0158484
771.155	0.0158321
771.233	0.0156058
771.311	0.0157726
771.389	0.0158133
771.467	0.0157439
771.545	0.0157390
771.623	0.0156663
771.701	0.0158923
771.780	0.0158469
771.858	0.0158450
771.936	0.0157267
772.014	0.0157558
772.092	0.0158668
772.170	0.0160062
772.248	0.0158820
772.326	0.0159935
772.405	0.0160058
772.483	0.0159609
772.561	0.0160960
772.639	0.0159978
772.717	0.0160636
772.795	0.0160747
772.873	0.0160426
772.951	0.0161045
773.030	0.0161211
773.108	0.0159687
773.186	0.0160846
773.264	0.0160190
773.342	0.0160315
773.420	0.0159341
773.498	0.0159415
773.576	0.0159533
773.655	0.0156831
773.733	0.0157446
773.811	0.0158037
773.889	0.0158465
773.967	0.0156454
774.045	0.0157307
774.123	0.0156133
774.201	0.0156554
774.280	0.0156644
774.358	0.0157234
774.436	0.0157256
774.514	0.0156185
774.592	0.0156316
774.670	0.0157626
774.748	0.0157803
774.826	0.0157008
774.905	0.0157762
774.983	0.0157359
775.061	0.0157307
775.139	0.0156692
775.217	0.0156840
775.295	0.0157423
775.373	0.0157753
775.451	0.0157462
775.530	0.0158083
775.608	0.0157302
775.686	0.0157902
775.764	0.0159491
775.842	0.0159035
775.920	0.0158875
775.998	0.0158547
776.076	0.0158074
776.155	0.0158794
776.233	0.0159063
776.311	0.0159976
776.389	0.0157953
776.467	0.0158799
776.545	0.0159788
776.623	0.0158502
776.701	0.0159563
776.780	0.0158616
776.858	0.0158318
776.936	0.0158346
777.014	0.0158860
777.092	0.0158270
777.170	0.0158621
777.248	0.0158363
777.326	0.0157423
777.405	0.0157065
777.483	0.0157333
777.561	0.0157014
777.639	0.0156860
777.717	0.0157883
777.795	0.0158422
777.873	0.0158167
777.951	0.0157082
778.030	0.0157481
778.108	0.0157807
778.186	0.0158181
778.264	0.0157896
778.342	0.0158591
778.420	0.0159176
778.498	0.0157359
778.576	0.0158385
778.655	0.0158743
778.733	0.0159457
778.811	0.0158002
778.889	0.0159234
778.967	0.0158188
779.045	0.0158974
779.123	0.0159026
779.201	0.0158773
779.280	0.0159892
779.358	0.0159519
779.436	0.0159180
779.514	0.0159801
779.592	0.0159305
779.670	0.0160042
779.748	0.0156823
779.826	0.0158358
779.905	0.0158128
779.983	0.0158124
780.061	0.0157935
780.139	0.0158465
780.217	0.0158202
780.295	0.0158898
780.373	0.0157844
780.451	0.0159325
780.530	0.0156739
780.608	0.0158873
780.686	0.0158301
780.764	0.0157166
780.842	0.0157582
780.920	0.0156103
780.998	0.0156522
781.076	0.0157032
781.155	0.0157092
781.233	0.0157140
781.311	0.0156287
781.389	0.0155966
781.467	0.0156013
781.545	0.0155088
781.623	0.0154234
781.701	0.0154686
781.780	0.0154311
781.858	0.0155869
781.936	0.0155914
782.014	0.0155178
782.092	0.0155827
782.170	0.0154912
782.248	0.0157417
782.326	0.0156837
782.405	0.0157312
782.483	0.0156184
782.561	0.0157930
782.639	0.0157059
782.717	0.0156905
782.795	0.0159175
782.873	0.0157216
782.951	0.0156817
783.030	0.0158083
783.108	0.0159394
783.186	0.0158505
783.264	0.0158141
783.342	0.0159601
783.420	0.0159909
783.498	0.0159045
783.576	0.0158932
783.655	0.0159525
783.733	0.0160198
783.811	0.0159710
783.889	0.0161398
783.967	0.0160616
784.045	0.0160751
784.123	0.0159344
784.201	0.0161436
784.280	0.0161114
784.358	0.0161134
784.436	0.0161747
784.514	0.0160992
784.592	0.0160110
784.670	0.0161343
784.748	0.0159502
784.826	0.0158974
784.905	0.0160041
784.983	0.0160156
785.061	0.0159409
785.139	0.0160350
785.217	0.0159586
785.295	0.0158273
785.373	0.0159467
785.451	0.0159959
785.530	0.0157819
785.608	0.0157741
785.686	0.0158209
785.764	0.0158822
785.842	0.0157460
785.920	0.0156728
785.998	0.0157458
786.076	0.0157899
786.155	0.0157886
786.233	0.0157301
786.311	0.0157050
786.389	0.0155271
786.467	0.0156477
786.545	0.0155741
786.623	0.0156213
786.701	0.0155682
786.780	0.0155383
786.858	0.0154211
786.936	0.0154930
787.014	0.0155251
787.092	0.0154472
787.170	0.0154993
787.248	0.0156142
787.326	0.0156182
787.405	0.0154738
787.483	0.0154810
787.561	0.0156165
787.639	0.0155083
787.717	0.0154869
787.795	0.0155574
787.873	0.0156092
787.951	0.0155666
788.030	0.0157200
788.108	0.0157317
788.186	0.0156105
788.264	0.0157237
788.342	0.0156483
788.420	0.0156172
788.498	0.0157331
788.576	0.0156960
788.655	0.0157915
788.733	0.0156764
788.811	0.0156683
788.889	0.0158818
788.967	0.0157640
789.045	0.0159969
789.123	0.0158887
789.201	0.0158176
789.280	0.0158942
789.358	0.0160225
789.436	0.0159901
789.514	0.0161140
789.592	0.0160896
789.670	0.0159970
789.748	0.0159621
789.826	0.0160404
789.905	0.0160963
789.983	0.0159532
790.061	0.0160236
790.139	0.0160165
790.217	0.0160281
790.295	0.0161404
790.373	0.0160362
790.451	0.0161720
790.530	0.0161160
790.608	0.0160396
790.686	0.0161492
790.764	0.0160638
790.842	0.0160006
790.920	0.0159103
790.998	0.0160487
791.076	0.0160573
791.155	0.0159837
791.233	0.0160726
791.311	0.0160658
791.389	0.0159361
791.467	0.0159811
791.545	0.0160461
791.623	0.0158380
791.701	0.0158051
791.780	0.0159541
791.858	0.0158955
791.936	0.0159295
792.014	0.0158337
792.092	0.0157645
792.170	0.0157225
792.248	0.0156973
792.326	0.0158036
792.405	0.0158749
792.483	0.0157470
792.561	0.0157790
792.639	0.0157609
792.717	0.0157014
792.795	0.0156926
792.873	0.0157540
792.951	0.0158363
793.030	0.0157201
793.108	0.0158288
793.186	0.0158347
793.264	0.0157227
793.342	0.0156850
793.420	0.0158656
793.498	0.0157113
793.576	0.0157652
793.655	0.0156852
793.733	0.0156474
793.811	0.0156955
793.889	0.0157300
793.967	0.0157531
794.045	0.0157819
794.123	0.0157504
794.201	0.0157109
794.280	0.0158760
794.358	0.0157416
794.436	0.0158053
794.514	0.0159949
794.592	0.0159415
794.670	0.0159292
794.748	0.0160708
794.826	0.0159851
794.905	0.0159182
794.983	0.0160342
795.061	0.0160966
795.139	0.0160352
795.217	0.0160142
795.295	0.0160986
795.373	0.0159597
795.451	0.0159821
795.530	0.0157458
795.608	0.0158740
795.686	0.0159906
795.764	0.0157775
795.842	0.0157585
795.920	0.0157677
795.998	0.0157597
796.076	0.0157705
796.155	0.0157507
796.233	0.0158196
796.311	0.0156623
796.389	0.0157792
796.467	0.0158535
796.545	0.0157722
796.623	0.0158030
796.701	0.0157605
796.780	0.0157784
796.858	0.0158569
796.936	0.0157150
797.014	0.0156836
797.092	0.0156898
797.170	0.0158929
797.248	0.0159190
797.326	0.0158477
797.405	0.0157914
797.483	0.0158576
797.561	0.0158214
797.639	0.0158546
797.717	0.0157314
797.795	0.0157868
797.873	0.0157983
797.951	0.0159214
798.030	0.0159086
798.108	0.0158226
798.186	0.0157442
798.264	0.0156982
798.342	0.0158828
798.420	0.0158456
798.498	0.0159010
798.576	0.0158853
798.655	0.0158548
798.733	0.0159343
798.811	0.0157835
798.889	0.0156573
798.967	0.0158219
799.045	0.0157055
799.123	0.0159063
799.201	0.0157283
799.280	0.0157867
799.358	0.0157919
799.436	0.0157348
799.514	0.0158566
799.592	0.0157962
799.670	0.0158590
799.748	0.0157261
799.826	0.0157085
799.905	0.0158120
799.983	0.0157223
800.061	0.0158948
800.139	0.0157143
800.217	0.0158739
800.295	0.0157185
800.373	0.0157489
800.451	0.0157870
800.530	0.0157056
800.608	0.0157977
800.686	0.0157323
800.764	0.0156911
800.842	0.0160031
800.920	0.0160204
800.998	0.0159492
801.076	0.0159080
801.155	0.0160009
801.233	0.0159226
801.311	0.0159796
801.389	0.0159769
801.467	0.0159451
801.545	0.0159023
801.623	0.0157806
801.701	0.0158535
801.780	0.0159254
801.858	0.0159750
801.936	0.0160048
802.014	0.0157571
802.092	0.0157832
802.170	0.0159712
802.248	0.0159609
802.326	0.0158701
802.405	0.0158476
802.483	0.0158028
802.561	0.0158482
802.639	0.0156847
802.717	0.0157240
802.795	0.0157993
802.873	0.0157636
802.951	0.0157523
803.030	0.0157507
803.108	0.0159080
803.186	0.0157286
803.264	0.0156436
803.342	0.0157674
803.420	0.0157458
803.498	0.0156523
803.576	0.0157131
803.655	0.0157993
803.733	0.0158744
803.811	0.0157374
803.889	0.0157539
803.967	0.0158012
804.045	0.0159985
804.123	0.0157375
804.201	0.0157545
804.280	0.0157680
804.358	0.0157298
804.436	0.0158762
804.514	0.0158644
804.592	0.0158213
804.670	0.0159446
804.748	0.0158460
804.826	0.0159141
804.905	0.0159746
804.983	0.0158446
805.061	0.0158711
805.139	0.0158635
805.217	0.0159428
805.295	0.0159715
805.373	0.0159679
805.451	0.0158149
805.530	0.0159130
805.608	0.0159482
805.686	0.0160366
805.764	0.0158294
805.842	0.0159631
805.920	0.0159489
805.998	0.0157873
806.076	0.0159759
806.155	0.0159145
806.233	0.0157765
806.311	0.0159355
806.389	0.0158437
806.467	0.0158092
806.545	0.0159969
806.623	0.0159258
806.701	0.0159145
806.780	0.0159063
806.858	0.0157694
806.936	0.0156687
807.014	0.0158288
807.092	0.0158208
807.170	0.0157638
807.248	0.0158212
807.326	0.0158601
807.405	0.0157973
807.483	0.0156602
807.561	0.0157639
807.639	0.0157925
807.717	0.0157494
807.795	0.0155701
807.873	0.0157041
807.951	0.0157243
808.030	0.0157174
808.108	0.0159171
808.186	0.0156383
808.264	0.0157833
808.342	0.0157879
808.420	0.0158141
808.498	0.0158767
808.576	0.0157912
808.655	0.0158035
808.733	0.0156988
808.811	0.0158761
808.889	0.0158531
808.967	0.0158105
809.045	0.0158145
809.123	0.0158248
809.201	0.0159698
809.280	0.0158211
809.358	0.0159832
809.436	0.0159753
809.514	0.0159195
809.592	0.0159632
809.670	0.0158865
809.748	0.0158995
809.826	0.0159226
809.905	0.0159578
809.983	0.0159692
810.061	0.0160970
810.139	0.0160105
810.217	0.0159547
810.295	0.0160068
810.373	0.0158491
810.451	0.0160679
810.530	0.0160030
810.608	0.0159586
810.686	0.0159437
810.764	0.0158574
810.842	0.0158825
810.920	0.0158296
810.998	0.0156998
811.076	0.0159464
811.155	0.0157796
811.233	0.0156275
811.311	0.0156742
811.389	0.0157099
811.467	0.0157072
811.545	0.0158422
811.623	0.0157656
811.701	0.0155848
811.780	0.0157211
811.858	0.0157610
811.936	0.0156916
812.014	0.0156894
812.092	0.0158234
812.170	0.0158385
812.248	0.0157546
812.326	0.0157198
812.405	0.0158910
812.483	0.0157737
812.561	0.0157047
812.639	0.0159166
812.717	0.0159695
812.795	0.0157436
812.873	0.0158939
812.951	0.0158083
813.030	0.0157565
813.108	0.0156728
813.186	0.0158232
813.264	0.0157816
813.342	0.0158250
813.420	0.0158523
813.498	0.0157729
813.576	0.0158147
813.655	0.0157426
813.733	0.0158916
813.811	0.0158591
813.889	0.0159724
813.967	0.0158372
814.045	0.0158191
814.123	0.0158743
814.201	0.0159526
814.280	0.0159759
814.358	0.0158141
814.436	0.0159455
814.514	0.0160819
814.592	0.0160956
814.670	0.0162093
814.748	0.0161896
814.826	0.0160284
814.905	0.0159583
814.983	0.0163103
815.061	0.0163469
815.139	0.0161191
815.217	0.0162526
815.295	0.0163379
815.373	0.0162798
815.451	0.0162393
815.530	0.0160196
815.608	0.0161600
815.686	0.0162713
815.764	0.0162112
815.842	0.0161972
815.920	0.0159371
815.998	0.0159591
816.076	0.0160419
816.155	0.0159375
816.233	0.0158699
816.311	0.0160364
816.389	0.0160387
816.467	0.0160484
816.545	0.0159045
816.623	0.0159246
816.701	0.0157890
816.780	0.0157833
816.858	0.0159414
816.936	0.0159983
817.014	0.0158060
817.092	0.0158156
817.170	0.0159594
817.248	0.0158414
817.326	0.0156978
817.405	0.0158451
817.483	0.0160214
817.561	0.0159679
817.639	0.0157593
817.717	0.0158382
817.795	0.0159064
817.873	0.0158485
817.951	0.0158532
818.030	0.0157713
818.108	0.0157883
818.186	0.0159158
818.264	0.0157868
818.342	0.0158895
818.420	0.0158252
818.498	0.0157735
818.576	0.0157566
818.655	0.0159023
818.733	0.0157861
818.811	0.0159656
818.889	0.0157446
818.967	0.0158205
819.045	0.0158591
819.123	0.0157121
819.201	0.0156854
819.280	0.0156490
819.358	0.0157355
819.436	0.0158509
819.514	0.0157435
819.592	0.0157574
819.670	0.0157555
819.748	0.0157325
819.826	0.0156723
819.905	0.0157288
819.983	0.0156460
820.061	0.0156993
820.139	0.0156439
820.217	0.0156074
820.295	0.0156956
820.373	0.0157671
820.451	0.0157001
820.530	0.0157697
820.608	0.0156612
820.686	0.0155170
820.764	0.0156686
820.842	0.0157473
820.920	0.0157719
820.998	0.0157673
821.076	0.0157434
821.155	0.0156919
821.233	0.0157346
821.311	0.0157226
821.389	0.0157676
821.467	0.0157515
821.545	0.0158951
821.623	0.0158969
821.701	0.0157402
821.780	0.0157543
821.858	0.0157429
821.936	0.0158780
822.014	0.0157341
822.092	0.0158045
822.170	0.0159102
822.248	0.0158474
822.326	0.0156757
822.405	0.0157799
822.483	0.0158111
822.561	0.0158184
822.639	0.0157632
822.717	0.0158314
822.795	0.0158226
822.873	0.0157817
822.951	0.0158182
823.030	0.0158002
823.108	0.0156749
823.186	0.0158578
823.264	0.0158274
823.342	0.0158260
823.420	0.0157053
823.498	0.0156866
823.576	0.0157063
823.655	0.0157977
823.733	0.0158965
823.811	0.0159292
823.889	0.0158675
823.967	0.0157759
824.045	0.0158603
824.123	0.0158144
824.201	0.0158340
824.280	0.0157455
824.358	0.0157225
824.436	0.0157864
824.514	0.0157658
824.592	0.0158256
824.670	0.0157999
824.748	0.0158127
824.826	0.0158965
824.905	0.0158669
824.983	0.0159470
825.061	0.0158667
825.139	0.0159430
825.217	0.0160744
825.295	0.0160014
825.373	0.0160562
825.451	0.0160317
825.530	0.0160956
825.608	0.0161234
825.686	0.0160638
825.764	0.0159576
825.842	0.0160215
825.920	0.0160538
825.998	0.0161884
826.076	0.0159676
826.155	0.0159805
826.233	0.0160673
826.311	0.0160623
826.389	0.0161871
826.467	0.0160599
826.545	0.0160139
826.623	0.0161052
826.701	0.0161292
826.780	0.0159354
826.858	0.0159396
826.936	0.0158668
827.014	0.0159394
827.092	0.0159389
827.170	0.0158457
827.248	0.0158958
827.326	0.0158955
827.405	0.0157878
827.483	0.0157646
827.561	0.0156415
827.639	0.0156930
827.717	0.0157667
827.795	0.0158376
827.873	0.0158495
827.951	0.0157320
828.030	0.0158843
828.108	0.0156356
828.186	0.0157635
828.264	0.0157829
828.342	0.0157716
828.420	0.0156165
828.498	0.0157388
828.576	0.0157541
828.655	0.0158086
828.733	0.0158541
828.811	0.0157800
828.889	0.0156878
828.967	0.0157663
829.045	0.0159172
829.123	0.0159391
829.201	0.0158161
829.280	0.0157360
829.358	0.0158555
829.436	0.0157581
829.514	0.0157095
829.592	0.0158405
829.670	0.0157659
829.748	0.0158127
829.826	0.0157830
829.905	0.0158692
829.983	0.0157631
830.061	0.0156634
830.139	0.0158157
830.217	0.0156571
830.295	0.0158244
830.373	0.0158909
830.451	0.0156609
830.530	0.0158176
830.608	0.0156725
830.686	0.0157137
830.764	0.0158422
830.842	0.0156901
830.920	0.0155973
830.998	0.0157205
831.076	0.0156503
831.155	0.0157013
831.233	0.0157042
831.311	0.0156908
831.389	0.0157279
831.467	0.0159167
831.545	0.0157954
831.623	0.0156865
831.701	0.0157837
831.780	0.0156585
831.858	0.0156037
831.936	0.0156742
832.014	0.0158605
832.092	0.0157266
832.170	0.0158191
832.248	0.0157739
832.326	0.0157147
832.405	0.0156225
832.483	0.0157426
832.561	0.0158280
832.639	0.0158723
832.717	0.0158232
832.795	0.0157263
832.873	0.0157678
832.951	0.0156780
833.030	0.0158141
833.108	0.0158309
833.186	0.0158220
833.264	0.0158366
833.342	0.0159000
833.420	0.0158568
833.498	0.0157818
833.576	0.0158567
833.655	0.0158804
833.733	0.0159297
833.811	0.0160178
833.889	0.0160384
833.967	0.0158200
834.045	0.0159681
834.123	0.0161244
834.201	0.0160467
834.280	0.0158958
834.358	0.0160547
834.436	0.0160656
834.514	0.0159071
834.592	0.0159866
834.670	0.0160329
834.748	0.0161089
834.826	0.0160303
834.905	0.0160284
834.983	0.0160277
835.061	0.0160190
835.139	0.0161540
835.217	0.0159907
835.295	0.0160282
835.373	0.0160096
835.451	0.0160783
835.530	0.0159096
835.608	0.0159852
835.686	0.0160037
835.764	0.0159428
835.842	0.0160931
835.920	0.0159268
835.998	0.0159445
836.076	0.0159097
836.155	0.0159889
836.233	0.0159114
836.311	0.0161468
836.389	0.0160025
836.467	0.0159415
836.545	0.0159706
836.623	0.0160511
836.701	0.0160707
836.780	0.0160876
836.858	0.0160371
836.936	0.0159067
837.014	0.0160519
837.092	0.0160983
837.170	0.0160382
837.248	0.0161004
837.326	0.0160556
837.405	0.0159623
837.483	0.0160242
837.561	0.0159640
837.639	0.0159195
837.717	0.0161047
837.795	0.0158586
837.873	0.0160724
837.951	0.0159010
838.030	0.0160693
838.108	0.0160484
838.186	0.0159022
838.264	0.0159945
838.342	0.0159229
838.420	0.0158742
838.498	0.0159197
838.576	0.0157349
838.655	0.0158795
838.733	0.0158015
838.811	0.0157304
838.889	0.0157145
838.967	0.0155801
839.045	0.0157069
839.123	0.0157112
839.201	0.0156516
839.280	0.0155491
839.358	0.0157086
839.436	0.0156661
839.514	0.0157796
839.592	0.0156535
839.670	0.0154631
839.748	0.0156122
839.826	0.0158332
839.905	0.0157764
839.983	0.0157131
840.061	0.0158364
840.139	0.0157037
840.217	0.0155925
840.295	0.0156860
840.373	0.0156894
840.451	0.0157265
840.530	0.0157270
840.608	0.0157948
840.686	0.0158247
840.764	0.0156762
840.842	0.0156936
840.920	0.0157246
840.998	0.0158374
841.076	0.0157084
841.155	0.0157454
841.233	0.0158477
841.311	0.0158038
841.389	0.0158973
841.467	0.0158226
841.545	0.0157737
841.623	0.0157218
841.701	0.0158151
841.780	0.0158627
841.858	0.0158254
841.936	0.0158559
842.014	0.0157632
842.092	0.0157903
842.170	0.0158356
842.248	0.0159010
842.326	0.0158355
842.405	0.0157024
842.483	0.0157779
842.561	0.0158927
842.639	0.0158711
842.717	0.0158673
842.795	0.0158533
842.873	0.0157726
842.951	0.0158259
843.030	0.0158469
843.108	0.0157941
843.186	0.0158289
843.264	0.0159347
843.342	0.0157864
843.420	0.0158386
843.498	0.0160197
843.576	0.0157512
843.655	0.0158018
843.733	0.0159172
843.811	0.0158806
843.889	0.0157639
843.967	0.0157504
844.045	0.0158607
844.123	0.0157355
844.201	0.0157044
844.280	0.0158367
844.358	0.0158686
844.436	0.0157057
844.514	0.0155540
844.592	0.0158653
844.670	0.0157059
844.748	0.0158151
844.826	0.0156831
844.905	0.0158657
844.983	0.0157168
845.061	0.0158099
845.139	0.0159195
845.217	0.0157082
845.295	0.0157259
845.373	0.0159290
845.451	0.0157196
845.530	0.0157207
845.608	0.0157307
845.686	0.0157178
845.764	0.0157494
845.842	0.0157442
845.920	0.0156799
845.998	0.0157804
846.076	0.0158189
846.155	0.0158016
846.233	0.0156920
846.311	0.0157114
846.389	0.0159040
846.467	0.0158334
846.545	0.0157304
846.623	0.0157751
846.701	0.0158231
846.780	0.0157596
846.858	0.0157610
846.936	0.0158229
847.014	0.0157995
847.092	0.0158475
847.170	0.0157053
847.248	0.0157118
847.326	0.0157883
847.405	0.0159631
847.483	0.0158158
847.561	0.0158875
847.639	0.0155643
847.717	0.0157076
847.795	0.0157863
847.873	0.0160361
847.951	0.0157603
848.030	0.0158067
848.108	0.0158530
848.186	0.0158620
848.264	0.0159551
848.342	0.0159114
848.420	0.0159235
848.498	0.0159801
848.576	0.0158514
848.655	0.0158691
848.733	0.0158035
848.811	0.0158909
848.889	0.0159679
848.967	0.0159643
849.045	0.0157438
849.123	0.0157678
849.201	0.0159550
849.280	0.0160434
849.358	0.0159469
849.436	0.0158724
849.514	0.0159743
849.592	0.0158856
849.670	0.0157759
849.748	0.0158060
849.826	0.0158227
849.905	0.0158211
849.983	0.0157229
850.061	0.0157316
850.139	0.0157626
850.217	0.0157426
850.295	0.0157617
850.373	0.0158438
850.451	0.0158525
850.530	0.0157608
850.608	0.0158311
850.686	0.0158860
850.764	0.0160050
850.842	0.0158182
850.920	0.0157776
850.998	0.0158201
851.076	0.0158970
851.155	0.0159150
851.233	0.0160139
851.311	0.0158276
851.389	0.0158320
851.467	0.0160051
851.545	0.0159131
851.623	0.0157701
851.701	0.0159859
851.780	0.0159544
851.858	0.0159220
851.936	0.0160318
852.014	0.0158754
852.092	0.0159229
852.170	0.0157311
852.248	0.0157650
852.326	0.0158346
852.405	0.0158654
852.483	0.0159136
852.561	0.0158693
852.639	0.0158483
852.717	0.0157166
852.795	0.0157679
852.873	0.0159140
852.951	0.0158753
853.030	0.0159036
853.108	0.0158656
853.186	0.0157672
853.264	0.0158155
853.342	0.0157997
853.420	0.0158557
853.498	0.0157545
853.576	0.0158488
853.655	0.0157986
853.733	0.0157291
853.811	0.0157589
853.889	0.0157510
853.967	0.0158370
854.045	0.0156879
854.123	0.0158457
854.201	0.0158341
854.280	0.0159356
854.358	0.0157727
854.436	0.0158897
854.514	0.0158278
854.592	0.0157290
854.670	0.0158034
854.748	0.0158734
854.826	0.0158119
854.905	0.0157773
854.983	0.0157732
855.061	0.0157696
855.139	0.0158356
855.217	0.0158360
855.295	0.0157706
855.373	0.0158262
855.451	0.0157877
855.530	0.0158221
855.608	0.0159097
855.686	0.0157878
855.764	0.0158440
855.842	0.0158761
855.920	0.0158048
855.998	0.0158767
856.076	0.0158429
856.155	0.0158398
856.233	0.0156620
856.311	0.0158187
856.389	0.0159351
856.467	0.0157854
856.545	0.0157602
856.623	0.0158366
856.701	0.0158222
856.780	0.0157566
856.858	0.0158710
856.936	0.0158495
857.014	0.0157926
857.092	0.0157491
857.170	0.0159174
857.248	0.0156871
857.326	0.0158146
857.405	0.0157409
857.483	0.0157825
857.561	0.0159259
857.639	0.0157635
857.717	0.0158395
857.795	0.0157490
857.873	0.0158756
857.951	0.0157975
858.030	0.0157356
858.108	0.0156726
858.186	0.0159268
858.264	0.0158994
858.342	0.0157983
858.420	0.0157997
858.498	0.0158117
858.576	0.0156833
858.655	0.0157373
858.733	0.0158375
858.811	0.0158714
858.889	0.0158750
858.967	0.0159053
859.045	0.0161291
859.123	0.0160002
859.201	0.0158192
859.280	0.0158353
859.358	0.0160974
859.436	0.0160172
859.514	0.0161142
859.592	0.0161320
859.670	0.0159597
859.748	0.0158611
859.826	0.0160700
859.905	0.0160112
859.983	0.0160880
860.061	0.0162096
860.139	0.0160959
860.217	0.0160162
860.295	0.0158813
860.373	0.0160603
860.451	0.0159769
860.530	0.0159444
860.608	0.0158821
860.686	0.0160420
860.764	0.0159071
860.842	0.0160320
860.920	0.0159801
860.998	0.0159447
861.076	0.0159605
861.155	0.0159499
861.233	0.0158586
861.311	0.0158775
861.389	0.0159552
861.467	0.0158891
861.545	0.0157646
861.623	0.0160204
861.701	0.0159086
861.780	0.0159745
861.858	0.0159629
861.936	0.0158787
862.014	0.0159447
862.092	0.0158364
862.170	0.0158627
862.248	0.0159596
862.326	0.0160226
862.405	0.0158601
862.483	0.0159917
862.561	0.0159861
862.639	0.0158773
862.717	0.0158270
862.795	0.0158765
862.873	0.0160065
862.951	0.0159830
863.030	0.0157507
863.108	0.0159759
863.186	0.0159317
863.264	0.0157972
863.342	0.0159989
863.420	0.0158986
863.498	0.0157874
863.576	0.0158339
863.655	0.0157977
863.733	0.0158031
863.811	0.0158234
863.889	0.0158353
863.967	0.0158140
864.045	0.0157769
864.123	0.0158285
864.201	0.0158042
864.280	0.0158723
864.358	0.0159096
864.436	0.0157381
864.514	0.0157967
864.592	0.0159347
864.670	0.0158954
864.748	0.0157491
864.826	0.0157992
864.905	0.0157621
864.983	0.0158431
865.061	0.0158101
865.139	0.0157117
865.217	0.0157336
865.295	0.0159804
865.373	0.0157204
865.451	0.0157739
865.530	0.0158575
865.608	0.0157102
865.686	0.0158360
865.764	0.0155765
865.842	0.0155775
865.920	0.0158015
865.998	0.0158080
866.076	0.0156110
866.155	0.0157411
866.233	0.0157832
866.311	0.0157578
866.389	0.0156548
866.467	0.0156598
866.545	0.0158338
866.623	0.0157053
866.701	0.0155475
866.780	0.0157066
866.858	0.0158091
866.936	0.0156938
867.014	0.0156522
867.092	0.0156963
867.170	0.0157410
867.248	0.0157721
867.326	0.0158295
867.405	0.0157685
867.483	0.0157923
867.561	0.0157686
867.639	0.0158714
867.717	0.0159356
867.795	0.0158952
867.873	0.0158366
867.951	0.0160099
868.030	0.0158896
868.108	0.0159045
868.186	0.0158916
868.264	0.0158693
868.342	0.0158993
868.420	0.0157848
868.498	0.0157764
868.576	0.0159027
868.655	0.0160321
868.733	0.0159274
868.811	0.0158663
868.889	0.0159747
868.967	0.0160659
869.045	0.0158910
869.123	0.0158483
869.201	0.0158250
869.280	0.0158846
869.358	0.0158395
869.436	0.0159427
869.514	0.0158244
869.592	0.0158431
869.670	0.0159614
869.748	0.0158595
869.826	0.0158752
869.905	0.0158399
869.983	0.0158560
870.061	0.0159087
870.139	0.0158065
870.217	0.0158929
870.295	0.0158751
870.373	0.0159550
870.451	0.0159234
870.530	0.0158527
870.608	0.0158647
870.686	0.0157812
870.764	0.0158939
870.842	0.0158824
870.920	0.0158707
870.998	0.0157587
871.076	0.0157270
871.155	0.0157940
871.233	0.0158517
871.311	0.0157737
871.389	0.0158502
871.467	0.0159227
871.545	0.0158723
871.623	0.0158230
871.701	0.0157921
871.780	0.0159382
871.858	0.0158604
871.936	0.0158493
872.014	0.0157536
872.092	0.0158055
872.170	0.0157475
872.248	0.0156721
872.326	0.0156905
872.405	0.0157732
872.483	0.0158621
872.561	0.0158551
872.639	0.0158427
872.717	0.0158040
872.795	0.0159432
872.873	0.0158360
872.951	0.0156765
873.030	0.0157292
873.108	0.0157181
873.186	0.0159223
873.264	0.0158124
873.342	0.0157664
873.420	0.0158473
873.498	0.0157742
873.576	0.0157173
873.655	0.0157099
873.733	0.0157582
873.811	0.0158376
873.889	0.0157999
873.967	0.0156889
874.045	0.0159476
874.123	0.0157167
874.201	0.0157779
874.280	0.0156870
874.358	0.0157886
874.436	0.0157133
874.514	0.0156906
874.592	0.0157517
874.670	0.0158663
874.748	0.0155634
874.826	0.0157410
874.905	0.0157103
874.983	0.0155873
875.061	0.0157606
875.139	0.0156867
875.217	0.0157693
875.295	0.0159144
875.373	0.0157869
875.451	0.0157525
875.530	0.0156763
875.608	0.0156081
875.686	0.0159148
875.764	0.0159308
875.842	0.0158009
875.920	0.0159454
875.998	0.0158681
876.076	0.0157665
876.155	0.0159287
876.233	0.0159327
876.311	0.0158214
876.389	0.0159077
876.467	0.0158764
876.545	0.0158817
876.623	0.0159743
876.701	0.0159045
876.780	0.0159020
876.858	0.0159055
876.936	0.0160097
877.014	0.0160367
877.092	0.0158828
877.170	0.0159869
877.248	0.0159452
877.326	0.0158828
877.405	0.0158392
877.483	0.0158385
877.561	0.0158455
877.639	0.0158891
877.717	0.0159557
877.795	0.0159486
877.873	0.0159950
877.951	0.0158440
878.030	0.0158776
878.108	0.0157416
878.186	0.0159003
878.264	0.0158839
878.342	0.0156779
878.420	0.0156602
878.498	0.0157395
878.576	0.0158936
878.655	0.0158151
878.733	0.0156780
878.811	0.0157420
878.889	0.0157988
878.967	0.0157016
879.045	0.0157467
879.123	0.0156435
879.201	0.0158775
879.280	0.0158207
879.358	0.0157816
879.436	0.0158688
879.514	0.0159257
879.592	0.0159023
879.670	0.0159662
879.748	0.0158704
879.826	0.0158713
879.905	0.0160886
879.983	0.0160766
880.061	0.0158855
880.139	0.0160157
880.217	0.0159132
880.295	0.0158582
880.373	0.0160609
880.451	0.0161253
880.530	0.0160454
880.608	0.0160386
880.686	0.0160198
880.764	0.0160616
880.842	0.0159673
880.920	0.0160215
880.998	0.0159914
881.076	0.0159800
881.155	0.0158733
881.233	0.0159420
881.311	0.0159025
881.389	0.0159711
881.467	0.0158434
881.545	0.0158844
881.623	0.0159839
881.701	0.0157545
881.780	0.0158116
881.858	0.0159756
881.936	0.0159167
882.014	0.0157376
882.092	0.0157618
882.170	0.0157579
882.248	0.0157646
882.326	0.0157589
882.405	0.0157162
882.483	0.0156802
882.561	0.0157140
882.639	0.0156733
882.717	0.0156469
882.795	0.0156108
882.873	0.0158270
882.951	0.0157079
883.030	0.0157292
883.108	0.0157317
883.186	0.0157867
883.264	0.0157571
883.342	0.0155618
883.420	0.0158002
883.498	0.0157429
883.576	0.0156263
883.655	0.0156776
883.733	0.0157795
883.811	0.0155884
883.889	0.0157512
883.967	0.0157378
884.045	0.0156525
884.123	0.0156086
884.201	0.0157145
884.280	0.0155806
884.358	0.0157717
884.436	0.0158001
884.514	0.0157823
884.592	0.0158688
884.670	0.0158291
884.748	0.0158324
884.826	0.0158994
884.905	0.0158941
884.983	0.0158485
885.061	0.0157281
885.139	0.0158019
885.217	0.0158492
885.295	0.0159150
885.373	0.0158336
885.451	0.0158073
885.530	0.0158856
885.608	0.0157742
885.686	0.0159197
885.764	0.0159667
885.842	0.0159194
885.920	0.0157887
885.998	0.0157782
886.076	0.0157973
886.155	0.0158213
886.233	0.0158877
886.311	0.0159408
886.389	0.0157172
886.467	0.0158174
886.545	0.0159048
886.623	0.0159087
886.701	0.0157189
886.780	0.0159314
886.858	0.0158405
886.936	0.0157883
887.014	0.0158511
887.092	0.0158891
887.170	0.0158016
887.248	0.0158385
887.326	0.0158430
887.405	0.0157891
887.483	0.0158920
887.561	0.0160162
887.639	0.0160238
887.717	0.0159612
887.795	0.0160503
887.873	0.0161285
887.951	0.0159531
888.030	0.0159839
888.108	0.0160442
888.186	0.0160245
888.264	0.0159541
888.342	0.0160764
888.420	0.0160990
888.498	0.0161224
888.576	0.0160564
888.655	0.0161218
888.733	0.0160757
888.811	0.0159633
888.889	0.0160397
888.967	0.0160149
889.045	0.0160400
889.123	0.0159763
889.201	0.0159292
889.280	0.0159080
889.358	0.0159888
889.436	0.0160187
889.514	0.0159270
889.592	0.0160062
889.670	0.0160365
889.748	0.0158878
889.826	0.0159204
889.905	0.0159721
889.983	0.0159199
890.061	0.0159453
890.139	0.0157872
890.217	0.0158036
890.295	0.0157883
890.373	0.0159519
890.451	0.0158766
890.530	0.0157857
890.608	0.0156210
890.686	0.0157465
890.764	0.0157050
890.842	0.0157960
890.920	0.0158109
890.998	0.0157803
891.076	0.0157261
891.155	0.0157668
891.233	0.0157285
891.311	0.0158154
891.389	0.0158699
891.467	0.0157878
891.545	0.0157877
891.623	0.0158871
891.701	0.0158550
891.780	0.0157536
891.858	0.0158194
891.936	0.0156380
892.014	0.0159362
892.092	0.0158285
892.170	0.0159765
892.248	0.0158090
892.326	0.0158961
892.405	0.0159435
892.483	0.0158440
892.561	0.0157777
892.639	0.0158440
892.717	0.0157622
892.795	0.0157682
892.873	0.0158704
892.951	0.0158624
893.030	0.0158322
893.108	0.0157349
893.186	0.0158482
893.264	0.0158014
893.342	0.0157973
893.420	0.0158635
893.498	0.0158694
893.576	0.0158144
893.655	0.0158161
893.733	0.0157590
893.811	0.0158552
893.889	0.0158973
893.967	0.0158215
894.045	0.0158911
894.123	0.0158157
894.201	0.0157880
894.280	0.0158461
894.358	0.0157767
894.436	0.0158590
894.514	0.0160484
894.592	0.0159653
894.670	0.0157621
894.748	0.0158990
894.826	0.0160365
894.905	0.0159359
894.983	0.0159534
895.061	0.0160265
895.139	0.0158070
895.217	0.0158230
895.295	0.0159117
895.373	0.0158637
895.451	0.0158605
895.530	0.0157951
895.608	0.0159193
895.686	0.0159785
895.764	0.0159305
895.842	0.0159829
895.920	0.0159320
895.998	0.0159285
896.076	0.0158385
896.155	0.0159901
896.233	0.0159425
896.311	0.0158703
896.389	0.0159915
896.467	0.0158927
896.545	0.0158018
896.623	0.0159640
896.701	0.0159761
896.780	0.0157658
896.858	0.0159532
896.936	0.0159361
897.014	0.0160313
897.092	0.0159819
897.170	0.0159015
897.248	0.0159850
897.326	0.0159692
897.405	0.0159438
897.483	0.0158123
897.561	0.0157980
897.639	0.0157582
897.717	0.0157755
897.795	0.0157978
897.873	0.0157788
897.951	0.0156531
898.030	0.0157092
898.108	0.0156709
898.186	0.0156994
898.264	0.0157044
898.342	0.0156909
898.420	0.0157169
898.498	0.0156876
898.576	0.0156370
898.655	0.0155692
898.733	0.0156053
898.811	0.0157455
898.889	0.0158310
898.967	0.0156872
899.045	0.0155682
899.123	0.0156478
899.201	0.0157053
899.280	0.0158151
899.358	0.0157674
899.436	0.0156130
899.514	0.0157621
899.592	0.0155740
899.670	0.0158015
899.748	0.0156814
899.826	0.0157542
899.905	0.0157948
899.983	0.0157391
900.061	0.0156628
900.139	0.0157843
900.217	0.0159231
900.295	0.0157575
900.373	0.0158674
900.451	0.0158446
900.530	0.0159343
900.608	0.0158576
900.686	0.0156995
900.764	0.0158681
900.842	0.0159762
900.920	0.0157023
900.998	0.0157232
901.076	0.0158968
901.155	0.0159297
901.233	0.0158772
901.311	0.0157441
901.389	0.0158775
901.467	0.0159951
901.545	0.0159210
901.623	0.0160262
901.701	0.0159144
901.780	0.0159541
901.858	0.0160763
901.936	0.0159404
902.014	0.0158868
902.092	0.0159937
902.170	0.0157500
902.248	0.0160365
902.326	0.0160111
902.405	0.0160090
902.483	0.0159090
902.561	0.0159276
902.639	0.0159839
902.717	0.0159634
902.795	0.0159726
902.873	0.0160573
902.951	0.0160258
903.030	0.0159750
903.108	0.0159435
903.186	0.0159028
903.264	0.0157897
903.342	0.0158259
903.420	0.0158788
903.498	0.0157421
903.576	0.0159412
903.655	0.0160065
903.733	0.0159256
903.811	0.0156545
903.889	0.0156598
903.967	0.0158324
904.045	0.0156590
904.123	0.0157954
904.201	0.0157482
904.280	0.0157461
904.358	0.0156252
904.436	0.0156278
904.514	0.0156693
904.592	0.0157357
904.670	0.0157191
904.748	0.0157514
904.826	0.0156092
904.905	0.0156336
904.983	0.0157046
905.061	0.0156612
905.139	0.0157763
905.217	0.0158846
905.295	0.0157837
905.373	0.0157963
905.451	0.0156489
905.530	0.0156185
905.608	0.0156815
905.686	0.0156734
905.764	0.0156235
905.842	0.0156941
905.920	0.0155630
905.998	0.0156780
906.076	0.0157069
906.155	0.0156725
906.233	0.0157454
906.311	0.0157919
906.389	0.0156738
906.467	0.0157581
906.545	0.0158266
906.623	0.0155702
906.701	0.0158228
906.780	0.0158562
906.858	0.0156902
906.936	0.0156931
907.014	0.0156588
907.092	0.0157375
907.170	0.0158235
907.248	0.0156711
907.326	0.0158158
907.405	0.0158025
907.483	0.0157654
907.561	0.0157652
907.639	0.0158766
907.717	0.0158472
907.795	0.0158442
907.873	0.0158172
907.951	0.0159259
908.030	0.0157484
908.108	0.0158006
908.186	0.0158130
908.264	0.0159270
908.342	0.0159546
908.420	0.0157181
908.498	0.0157258
908.576	0.0159339
908.655	0.0156619
908.733	0.0158104
908.811	0.0160228
908.889	0.0157966
908.967	0.0158661
909.045	0.0159164
909.123	0.0159322
909.201	0.0159820
909.280	0.0160058
909.358	0.0158926
909.436	0.0159852
909.514	0.0159699
909.592	0.0160789
909.670	0.0160749
909.748	0.0159550
909.826	0.0160527
909.905	0.0160166
909.983	0.0159039
910.061	0.0159528
910.139	0.0159264
910.217	0.0159564
910.295	0.0158957
910.373	0.0159844
910.451	0.0158685
910.530	0.0158600
910.608	0.0159631
910.686	0.0158752
910.764	0.0158440
910.842	0.0158310
910.920	0.0159100
910.998	0.0158891
911.076	0.0159686
911.155	0.0159127
911.233	0.0159415
911.311	0.0158575
911.389	0.0158971
911.467	0.0157708
911.545	0.0158083
911.623	0.0159071
911.701	0.0160424
911.780	0.0158996
911.858	0.0158047
911.936	0.0158604
912.014	0.0159934
912.092	0.0158412
912.170	0.0158678
912.248	0.0160124
912.326	0.0160536
912.405	0.0158971
912.483	0.0159011
912.561	0.0159637
912.639	0.0159758
912.717	0.0160023
912.795	0.0160072
912.873	0.0158565
912.951	0.0159455
913.030	0.0158804
913.108	0.0160604
913.186	0.0159096
913.264	0.0158018
913.342	0.0159654
913.420	0.0158688
913.498	0.0158512
913.576	0.0157576
913.655	0.0157769
913.733	0.0157608
913.811	0.0157634
913.889	0.0157581
913.967	0.0155585
914.045	0.0156384
914.123	0.0156884
914.201	0.0157104
914.280	0.0157899
914.358	0.0157840
914.436	0.0158998
914.514	0.0157372
914.592	0.0158154
914.670	0.0156779
914.748	0.0157464
914.826	0.0157164
914.905	0.0157098
914.983	0.0156441
915.061	0.0156944
915.139	0.0159004
915.217	0.0158074
915.295	0.0157283
915.373	0.0156525
915.451	0.0156911
915.530	0.0157234
915.608	0.0156947
915.686	0.0157188
915.764	0.0157230
915.842	0.0158274
915.920	0.0157516
915.998	0.0157724
916.076	0.0157635
916.155	0.0157500
916.233	0.0156979
916.311	0.0157218
916.389	0.0156517
916.467	0.0158261
916.545	0.0157486
916.623	0.0158465
916.701	0.0157725
916.780	0.0157648
916.858	0.0157758
916.936	0.0157628
917.014	0.0157818
917.092	0.0159437
917.170	0.0158289
917.248	0.0159039
917.326	0.0159157
917.405	0.0156652
917.483	0.0158605
917.561	0.0160291
917.639	0.0159327
917.717	0.0158826
917.795	0.0159741
917.873	0.0159137
917.951	0.0159628
918.030	0.0159119
918.108	0.0159867
918.186	0.0159280
918.264	0.0158134
918.342	0.0160273
918.420	0.0159753
918.498	0.0159187
918.576	0.0159047
918.655	0.0159013
918.733	0.0160117
918.811	0.0160161
918.889	0.0157661
918.967	0.0159527
919.045	0.0159135
919.123	0.0157944
919.201	0.0157932
919.280	0.0158675
919.358	0.0158582
919.436	0.0158224
919.514	0.0157691
919.592	0.0156491
919.670	0.0158102
919.748	0.0158339
919.826	0.0158147
919.905	0.0158559
919.983	0.0157662
920.061	0.0156570
920.139	0.0157594
920.217	0.0158353
920.295	0.0159709
920.373	0.0158442
920.451	0.0157380
920.530	0.0159444
920.608	0.0157675
920.686	0.0158252
920.764	0.0158395
920.842	0.0157814
920.920	0.0158794
920.998	0.0158985
921.076	0.0159543
921.155	0.0159200
921.233	0.0159036
921.311	0.0160133
921.389	0.0159732
921.467	0.0159476
921.545	0.0160380
921.623	0.0161564
921.701	0.0160743
921.780	0.0160017
921.858	0.0160043
921.936	0.0159767
922.014	0.0160374
922.092	0.0160797
922.170	0.0160631
922.248	0.0160172
922.326	0.0159097
922.405	0.0160506
922.483	0.0160280
922.561	0.0160272
922.639	0.0160500
922.717	0.0159420
922.795	0.0159476
922.873	0.0158498
922.951	0.0157465
923.030	0.0158698
923.108	0.0158230
923.186	0.0160349
923.264	0.0158327
923.342	0.0160079
923.420	0.0159375
923.498	0.0158718
923.576	0.0158608
923.655	0.0159599
923.733	0.0159466
923.811	0.0159615
923.889	0.0159367
923.967	0.0159411
924.045	0.0159859
924.123	0.0158387
924.201	0.0159373
924.280	0.0160014
924.358	0.0158985
924.436	0.0158164
924.514	0.0157911
924.592	0.0157417
924.670	0.0157583
924.748	0.0158096
924.826	0.0158067
924.905	0.0158186
924.983	0.0157787
925.061	0.0158210
925.139	0.0157462
925.217	0.0155676
925.295	0.0157320
925.373	0.0157896
925.451	0.0157983
925.530	0.0157829
925.608	0.0158548
925.686	0.0158098
925.764	0.0156988
925.842	0.0158189
925.920	0.0157874
925.998	0.0158782
926.076	0.0159079
926.155	0.0158165
926.233	0.0157527
926.311	0.0158672
926.389	0.0158896
926.467	0.0157932
926.545	0.0157343
926.623	0.0158328
926.701	0.0157896
926.780	0.0158395
926.858	0.0158964
926.936	0.0158533
927.014	0.0158511
927.092	0.0159106
927.170	0.0158842
927.248	0.0157173
927.326	0.0158498
927.405	0.0159761
927.483	0.0156897
927.561	0.0157259
927.639	0.0157876
927.717	0.0158699
927.795	0.0157754
927.873	0.0157687
927.951	0.0158507
928.030	0.0157323
928.108	0.0156976
928.186	0.0157951
928.264	0.0156978
928.342	0.0159619
928.420	0.0157832
928.498	0.0157742
928.576	0.0156966
928.655	0.0157642
928.733	0.0158089
928.811	0.0158959
928.889	0.0159230
928.967	0.0157977
929.045	0.0158942
929.123	0.0158598
929.201	0.0158567
929.280	0.0159903
929.358	0.0157880
929.436	0.0159346
929.514	0.0159319
929.592	0.0157623
929.670	0.0158682
929.748	0.0159229
929.826	0.0158029
929.905	0.0158358
929.983	0.0157462
930.061	0.0157338
930.139	0.0159038
930.217	0.0157728
930.295	0.0157980
930.373	0.0157506
930.451	0.0157584
930.530	0.0157538
930.608	0.0158018
930.686	0.0157461
930.764	0.0158337
930.842	0.0158517
930.920	0.0158115
930.998	0.0157207
931.076	0.0157338
931.155	0.0158813
931.233	0.0157979
931.311	0.0158674
931.389	0.0157930
931.467	0.0158202
931.545	0.0159545
931.623	0.0157616
931.701	0.0159695
931.780	0.0158692
931.858	0.0156883
931.936	0.0158452
932.014	0.0158328
932.092	0.0158447
932.170	0.0158423
932.248	0.0159735
932.326	0.0157517
932.405	0.0157735
932.483	0.0156768
932.561	0.0158347
932.639	0.0157777
932.717	0.0156770
932.795	0.0158007
932.873	0.0158436
932.951	0.0156867
933.030	0.0158107
933.108	0.0157124
933.186	0.0155485
933.264	0.0156837
933.342	0.0157697
933.420	0.0156876
933.498	0.0158328
933.576	0.0157623
933.655	0.0157530
933.733	0.0156694
933.811	0.0155643
933.889	0.0158126
933.967	0.0158082
934.045	0.0158657
934.123	0.0157833
934.201	0.0156824
934.280	0.0156619
934.358	0.0157069
934.436	0.0156993
934.514	0.0156973
934.592	0.0158222
934.670	0.0155792
934.748	0.0155901
934.826	0.0156577
934.905	0.0156988
934.983	0.0156167
935.061	0.0155556
935.139	0.0155527
935.217	0.0156590
935.295	0.0156345
935.373	0.0154735
935.451	0.0155059
935.530	0.0157344
935.608	0.0157052
935.686	0.0156703
935.764	0.0155823
935.842	0.0155666
935.920	0.0156947
935.998	0.0156191
936.076	0.0156979
936.155	0.0156590
936.233	0.0156899
936.311	0.0156480
936.389	0.0155729
936.467	0.0157312
936.545	0.0158118
936.623	0.0157807
936.701	0.0156042
936.780	0.0157249
936.858	0.0157263
936.936	0.0156523
937.014	0.0156276
937.092	0.0159113
937.170	0.0157765
937.248	0.0159046
937.326	0.0158701
937.405	0.0158549
937.483	0.0158121
937.561	0.0156927
937.639	0.0159707
937.717	0.0158323
937.795	0.0159574
937.873	0.0159945
937.951	0.0157989
938.030	0.0159488
938.108	0.0160219
938.186	0.0159506
938.264	0.0158627
938.342	0.0160345
938.420	0.0161029
938.498	0.0159706
938.576	0.0159299
938.655	0.0159750
938.733	0.0160627
938.811	0.0161003
938.889	0.0159229
938.967	0.0157722
939.045	0.0158333
939.123	0.0159889
939.201	0.0159607
939.280	0.0158700
939.358	0.0159450
939.436	0.0158243
939.514	0.0160680
939.592	0.0159165
939.670	0.0158363
939.748	0.0159278
939.826	0.0159499
939.905	0.0160065
939.983	0.0158553
940.061	0.0157753
940.139	0.0158720
940.217	0.0159646
940.295	0.0158094
940.373	0.0158854
940.451	0.0159494
940.530	0.0157127
940.608	0.0157630
940.686	0.0157291
940.764	0.0158294
940.842	0.0158401
940.920	0.0158132
940.998	0.0158601
941.076	0.0157914
941.155	0.0157981
941.233	0.0157990
941.311	0.0158623
941.389	0.0159579
941.467	0.0158418
941.545	0.0158918
941.623	0.0158447
941.701	0.0157246
941.780	0.0156647
941.858	0.0158413
941.936	0.0157607
942.014	0.0158099
942.092	0.0159801
942.170	0.0157961
942.248	0.0158019
942.326	0.0157801
942.405	0.0158381
942.483	0.0158736
942.561	0.0158503
942.639	0.0158139
942.717	0.0158567
942.795	0.0157154
942.873	0.0158844
942.951	0.0159091
943.030	0.0158811
943.108	0.0157610
943.186	0.0159191
943.264	0.0156319
943.342	0.0157183
943.420	0.0157880
943.498	0.0157351
943.576	0.0157377
943.655	0.0158679
943.733	0.0156777
943.811	0.0157845
943.889	0.0158323
943.967	0.0157692
944.045	0.0158862
944.123	0.0158428
944.201	0.0158587
944.280	0.0159791
944.358	0.0158905
944.436	0.0157793
944.514	0.0158752
944.592	0.0159199
944.670	0.0156838
944.748	0.0158978
944.826	0.0159293
944.905	0.0157417
944.983	0.0157215
945.061	0.0157912
945.139	0.0159285
945.217	0.0157875
945.295	0.0158199
945.373	0.0158832
945.451	0.0158097
945.530	0.0156000
945.608	0.0158372
945.686	0.0158664
945.764	0.0158016
945.842	0.0156499
945.920	0.0157660
945.998	0.0157903
946.076	0.0156683
946.155	0.0156377
946.233	0.0157398
946.311	0.0157566
946.389	0.0156515
946.467	0.0157864
946.545	0.0157858
946.623	0.0157380
946.701	0.0156679
946.780	0.0158482
946.858	0.0159063
946.936	0.0158673
947.014	0.0156590
947.092	0.0157486
947.170	0.0158737
947.248	0.0159063
947.326	0.0157912
947.405	0.0158944
947.483	0.0159223
947.561	0.0160056
947.639	0.0158303
947.717	0.0158274
947.795	0.0157516
947.873	0.0158954
947.951	0.0158668
948.030	0.0159885
948.108	0.0159482
948.186	0.0159801
948.264	0.0158899
948.342	0.0157172
948.420	0.0157690
948.498	0.0158305
948.576	0.0159553
948.655	0.0158968
948.733	0.0157753
948.811	0.0159660
948.889	0.0158797
948.967	0.0161433
949.045	0.0159686
949.123	0.0160128
949.201	0.0158042
949.280	0.0159335
949.358	0.0160252
949.436	0.0160122
949.514	0.0158804
949.592	0.0161024
949.670	0.0160799
949.748	0.0160391
949.826	0.0160078
949.905	0.0161694
949.983	0.0160400
950.061	0.0159943
950.139	0.0161161
950.217	0.0161053
950.295	0.0159682
950.373	0.0161354
950.451	0.0160947
950.530	0.0159442
950.608	0.0159525
950.686	0.0159978
950.764	0.0160183
950.842	0.0159601
950.920	0.0159246
950.998	0.0160007
951.076	0.0160007
951.155	0.0160114
951.233	0.0160320
951.311	0.0159943
951.389	0.0159779
951.467	0.0160624
951.545	0.0159132
951.623	0.0159698
951.701	0.0160397
951.780	0.0160287
951.858	0.0159094
951.936	0.0159346
952.014	0.0159468
952.092	0.0158639
952.170	0.0160681
952.248	0.0159510
952.326	0.0158080
952.405	0.0159690
952.483	0.0159198
952.561	0.0158597
952.639	0.0159451
952.717	0.0159365
952.795	0.0159792
952.873	0.0158263
952.951	0.0157109
953.030	0.0159279
953.108	0.0159066
953.186	0.0157531
953.264	0.0156966
953.342	0.0157079
953.420	0.0158234
953.498	0.0157137
953.576	0.0155345
953.655	0.0157413
953.733	0.0157941
953.811	0.0156985
953.889	0.0157469
953.967	0.0157299
954.045	0.0158119
954.123	0.0156304
954.201	0.0157930
954.280	0.0158712
954.358	0.0157824
954.436	0.0157133
954.514	0.0157198
954.592	0.0157270
954.670	0.0156256
954.748	0.0156924
954.826	0.0157877
954.905	0.0157059
954.983	0.0157459
955.061	0.0157174
955.139	0.0157384
955.217	0.0157742
955.295	0.0157706
955.373	0.0157167
955.451	0.0158286
955.530	0.0157474
955.608	0.0157952
955.686	0.0157864
955.764	0.0157529
955.842	0.0158202
955.920	0.0158224
955.998	0.0157270
956.076	0.0157504
956.155	0.0156833
956.233	0.0157092
956.311	0.0157613
956.389	0.0158257
956.467	0.0157171
956.545	0.0158027
956.623	0.0156771
956.701	0.0156152
956.780	0.0157923
956.858	0.0157703
956.936	0.0156209
957.014	0.0157034
957.092	0.0157774
957.170	0.0157664
957.248	0.0155889
957.326	0.0157448
957.405	0.0157181
957.483	0.0157654
957.561	0.0158280
957.639	0.0157725
957.717	0.0158907
957.795	0.0158891
957.873	0.0157377
957.951	0.0156327
958.030	0.0157830
958.108	0.0159081
958.186	0.0157980
958.264	0.0157394
958.342	0.0157870
958.420	0.0158208
958.498	0.0157436
958.576	0.0157790
958.655	0.0157449
958.733	0.0158072
958.811	0.0159024
958.889	0.0157524
958.967	0.0157616
959.045	0.0157277
959.123	0.0156865
959.201	0.0158651
959.280	0.0158643
959.358	0.0156536
959.436	0.0157085
959.514	0.0158340
959.592	0.0157748
959.670	0.0158692
959.748	0.0158470
959.826	0.0157453
959.905	0.0157835
