05/20/2022	17:10:59	Ver.	4.1	UNKNOWN
Optical Delay	639.982744	Delta X		0.078125	Sweeps	1	Scan Rate	0/0
Coordinates	Axis 1	NaN	Axis 2	NaN	Axis 3	NaN	Axis 4	NaN	Axis 5	NaN	Axis 6	0.000000
TX Power	0.000000	RX Power	0.000000

639.983	0.0153170
640.061	0.0154323
640.139	0.0152818
640.217	0.0152309
640.295	0.0152770
640.373	0.0151902
640.451	0.0152864
640.530	0.0153806
640.608	0.0152169
640.686	0.0152766
640.764	0.0152180
640.842	0.0151270
640.920	0.0151669
640.998	0.0153500
641.076	0.0152499
641.155	0.0152292
641.233	0.0152250
641.311	0.0151199
641.389	0.0153548
641.467	0.0153386
641.545	0.0152596
641.623	0.0152917
641.701	0.0152793
641.780	0.0153213
641.858	0.0152506
641.936	0.0152836
642.014	0.0152250
642.092	0.0153059
642.170	0.0153376
642.248	0.0154105
642.326	0.0152922
642.405	0.0152657
642.483	0.0153642
642.561	0.0155905
642.639	0.0154181
642.717	0.0153473
642.795	0.0153637
642.873	0.0153954
642.951	0.0152863
643.030	0.0154276
643.108	0.0153851
643.186	0.0154141
643.264	0.0153413
643.342	0.0153740
643.420	0.0153338
643.498	0.0154211
643.576	0.0154704
643.655	0.0154717
643.733	0.0153794
643.811	0.0154448
643.889	0.0154178
643.967	0.0155591
644.045	0.0154112
644.123	0.0153746
644.201	0.0153785
644.280	0.0154059
644.358	0.0153675
644.436	0.0153879
644.514	0.0153490
644.592	0.0152945
644.670	0.0154602
644.748	0.0154631
644.826	0.0154327
644.905	0.0154346
644.983	0.0154136
645.061	0.0154046
645.139	0.0153754
645.217	0.0153626
645.295	0.0154246
645.373	0.0152795
645.451	0.0152575
645.530	0.0152473
645.608	0.0153122
645.686	0.0153317
645.764	0.0153159
645.842	0.0152985
645.920	0.0152732
645.998	0.0154101
646.076	0.0151884
646.155	0.0152810
646.233	0.0152966
646.311	0.0151565
646.389	0.0152389
646.467	0.0151910
646.545	0.0151833
646.623	0.0152866
646.701	0.0152891
646.780	0.0151574
646.858	0.0151221
646.936	0.0151894
647.014	0.0150940
647.092	0.0150535
647.170	0.0152879
647.248	0.0153088
647.326	0.0152645
647.405	0.0151339
647.483	0.0152136
647.561	0.0151490
647.639	0.0151012
647.717	0.0150988
647.795	0.0151389
647.873	0.0151373
647.951	0.0151933
648.030	0.0151373
648.108	0.0151774
648.186	0.0151286
648.264	0.0151472
648.342	0.0151905
648.420	0.0150633
648.498	0.0150531
648.576	0.0150349
648.655	0.0150037
648.733	0.0151701
648.811	0.0151590
648.889	0.0149210
648.967	0.0151624
649.045	0.0149799
649.123	0.0149773
649.201	0.0150108
649.280	0.0151012
649.358	0.0150040
649.436	0.0150689
649.514	0.0149663
649.592	0.0149772
649.670	0.0151715
649.748	0.0150531
649.826	0.0151217
649.905	0.0150044
649.983	0.0151290
650.061	0.0151932
650.139	0.0152095
650.217	0.0151080
650.295	0.0150585
650.373	0.0149780
650.451	0.0152393
650.530	0.0150930
650.608	0.0151477
650.686	0.0150964
650.764	0.0151405
650.842	0.0152168
650.920	0.0150145
650.998	0.0149857
651.076	0.0149978
651.155	0.0151130
651.233	0.0150396
651.311	0.0150363
651.389	0.0149406
651.467	0.0152845
651.545	0.0150740
651.623	0.0149838
651.701	0.0150451
651.780	0.0149661
651.858	0.0150106
651.936	0.0150171
652.014	0.0149536
652.092	0.0149002
652.170	0.0149913
652.248	0.0150983
652.326	0.0150317
652.405	0.0151264
652.483	0.0151098
652.561	0.0149860
652.639	0.0151595
652.717	0.0152007
652.795	0.0151605
652.873	0.0150649
652.951	0.0150654
653.030	0.0153143
653.108	0.0150500
653.186	0.0151088
653.264	0.0152425
653.342	0.0151754
653.420	0.0151901
653.498	0.0151393
653.576	0.0151295
653.655	0.0151614
653.733	0.0151064
653.811	0.0151714
653.889	0.0151384
653.967	0.0152258
654.045	0.0150217
654.123	0.0150148
654.201	0.0151039
654.280	0.0150768
654.358	0.0149535
654.436	0.0150668
654.514	0.0149808
654.592	0.0149808
654.670	0.0151315
654.748	0.0150410
654.826	0.0150980
654.905	0.0151984
654.983	0.0150211
655.061	0.0150579
655.139	0.0152336
655.217	0.0152026
655.295	0.0152016
655.373	0.0152141
655.451	0.0152282
655.530	0.0153201
655.608	0.0153224
655.686	0.0154115
655.764	0.0153909
655.842	0.0153860
655.920	0.0153416
655.998	0.0154521
656.076	0.0153651
656.155	0.0152046
656.233	0.0152736
656.311	0.0152719
656.389	0.0153636
656.467	0.0153535
656.545	0.0152203
656.623	0.0152273
656.701	0.0153304
656.780	0.0152206
656.858	0.0152302
656.936	0.0152461
657.014	0.0154108
657.092	0.0154185
657.170	0.0153952
657.248	0.0152917
657.326	0.0155098
657.405	0.0154610
657.483	0.0154005
657.561	0.0154037
657.639	0.0154030
657.717	0.0155280
657.795	0.0154850
657.873	0.0154254
657.951	0.0154266
658.030	0.0155469
658.108	0.0156389
658.186	0.0153361
658.264	0.0153094
658.342	0.0154272
658.420	0.0153574
658.498	0.0155096
658.576	0.0153590
658.655	0.0152176
658.733	0.0153333
658.811	0.0153726
658.889	0.0151835
658.967	0.0153081
659.045	0.0151453
659.123	0.0151914
659.201	0.0150314
659.280	0.0151560
659.358	0.0151272
659.436	0.0149657
659.514	0.0150456
659.592	0.0150117
659.670	0.0149506
659.748	0.0150728
659.826	0.0150047
659.905	0.0150309
659.983	0.0150751
660.061	0.0149218
660.139	0.0150931
660.217	0.0151012
660.295	0.0150391
660.373	0.0149168
660.451	0.0151138
660.530	0.0153015
660.608	0.0149643
660.686	0.0148877
660.764	0.0151851
660.842	0.0150839
660.920	0.0150367
660.998	0.0149118
661.076	0.0149935
661.155	0.0147703
661.233	0.0149886
661.311	0.0148540
661.389	0.0148766
661.467	0.0149649
661.545	0.0149361
661.623	0.0149941
661.701	0.0150617
661.780	0.0149853
661.858	0.0151997
661.936	0.0151461
662.014	0.0152265
662.092	0.0151910
662.170	0.0152825
662.248	0.0153011
662.326	0.0152045
662.405	0.0153329
662.483	0.0152473
662.561	0.0154837
662.639	0.0152896
662.717	0.0154838
662.795	0.0153840
662.873	0.0154401
662.951	0.0157411
663.030	0.0155547
663.108	0.0154376
663.186	0.0154998
663.264	0.0155201
663.342	0.0156715
663.420	0.0155426
663.498	0.0156318
663.576	0.0156401
663.655	0.0154103
663.733	0.0154906
663.811	0.0152466
663.889	0.0153519
663.967	0.0153485
664.045	0.0153092
664.123	0.0151318
664.201	0.0150631
664.280	0.0151759
664.358	0.0150055
664.436	0.0149770
664.514	0.0149425
664.592	0.0151273
664.670	0.0150927
664.748	0.0149269
664.826	0.0149345
664.905	0.0149966
664.983	0.0149509
665.061	0.0149210
665.139	0.0149283
665.217	0.0149872
665.295	0.0148483
665.373	0.0148724
665.451	0.0148203
665.530	0.0149089
665.608	0.0150062
665.686	0.0150697
665.764	0.0151247
665.842	0.0149416
665.920	0.0150864
665.998	0.0149885
666.076	0.0150572
666.155	0.0150716
666.233	0.0151861
666.311	0.0153490
666.389	0.0154596
666.467	0.0154066
666.545	0.0156721
666.623	0.0157178
666.701	0.0157546
666.780	0.0157606
666.858	0.0158769
666.936	0.0158622
667.014	0.0159339
667.092	0.0160309
667.170	0.0159837
667.248	0.0159529
667.326	0.0160594
667.405	0.0159447
667.483	0.0161338
667.561	0.0160578
667.639	0.0160902
667.717	0.0158707
667.795	0.0159306
667.873	0.0158416
667.951	0.0158156
668.030	0.0157954
668.108	0.0156791
668.186	0.0154578
668.264	0.0155412
668.342	0.0152084
668.420	0.0152155
668.498	0.0151580
668.576	0.0149992
668.655	0.0147664
668.733	0.0146813
668.811	0.0144746
668.889	0.0145145
668.967	0.0143922
669.045	0.0142116
669.123	0.0142694
669.201	0.0141068
669.280	0.0141297
669.358	0.0142461
669.436	0.0141336
669.514	0.0140833
669.592	0.0140500
669.670	0.0141125
669.748	0.0142106
669.826	0.0142205
669.905	0.0143080
669.983	0.0144084
670.061	0.0143836
670.139	0.0146276
670.217	0.0148295
670.295	0.0146708
670.373	0.0148183
670.451	0.0150070
670.530	0.0150780
670.608	0.0151060
670.686	0.0153284
670.764	0.0154505
670.842	0.0155414
670.920	0.0157306
670.998	0.0158707
671.076	0.0158919
671.155	0.0158414
671.233	0.0160578
671.311	0.0160966
671.389	0.0161296
671.467	0.0161282
671.545	0.0162811
671.623	0.0162943
671.701	0.0162913
671.780	0.0161679
671.858	0.0161601
671.936	0.0161298
672.014	0.0160196
672.092	0.0160677
672.170	0.0160792
672.248	0.0159129
672.326	0.0159064
672.405	0.0159633
672.483	0.0157072
672.561	0.0154942
672.639	0.0155795
672.717	0.0155419
672.795	0.0154450
672.873	0.0152345
672.951	0.0151088
673.030	0.0150120
673.108	0.0148263
673.186	0.0145731
673.264	0.0146240
673.342	0.0145991
673.420	0.0144812
673.498	0.0143037
673.576	0.0141966
673.655	0.0142590
673.733	0.0141542
673.811	0.0139602
673.889	0.0139526
673.967	0.0139320
674.045	0.0139680
674.123	0.0138106
674.201	0.0137939
674.280	0.0139005
674.358	0.0140135
674.436	0.0138601
674.514	0.0139883
674.592	0.0141894
674.670	0.0142843
674.748	0.0142558
674.826	0.0144539
674.905	0.0147508
674.983	0.0147269
675.061	0.0149760
675.139	0.0152380
675.217	0.0152911
675.295	0.0155768
675.373	0.0157896
675.451	0.0158473
675.530	0.0158472
675.608	0.0159414
675.686	0.0161280
675.764	0.0162708
675.842	0.0161820
675.920	0.0163789
675.998	0.0164185
676.076	0.0164264
676.155	0.0164376
676.233	0.0163159
676.311	0.0163457
676.389	0.0163443
676.467	0.0162518
676.545	0.0161951
676.623	0.0160376
676.701	0.0158812
676.780	0.0157647
676.858	0.0157560
676.936	0.0156304
677.014	0.0153854
677.092	0.0152553
677.170	0.0152797
677.248	0.0150336
677.326	0.0151037
677.405	0.0149929
677.483	0.0148151
677.561	0.0147157
677.639	0.0149108
677.717	0.0148701
677.795	0.0146847
677.873	0.0146896
677.951	0.0147037
678.030	0.0146870
678.108	0.0146614
678.186	0.0146874
678.264	0.0145140
678.342	0.0145934
678.420	0.0146569
678.498	0.0144787
678.576	0.0145847
678.655	0.0146690
678.733	0.0146555
678.811	0.0146598
678.889	0.0146751
678.967	0.0146416
679.045	0.0148553
679.123	0.0148602
679.201	0.0148920
679.280	0.0149551
679.358	0.0150919
679.436	0.0149902
679.514	0.0151121
679.592	0.0153118
679.670	0.0154613
679.748	0.0153901
679.826	0.0153386
679.905	0.0153503
679.983	0.0152074
680.061	0.0153133
680.139	0.0152542
680.217	0.0152076
680.295	0.0150998
680.373	0.0149934
680.451	0.0150836
680.530	0.0149888
680.608	0.0149288
680.686	0.0149158
680.764	0.0148380
680.842	0.0146703
680.920	0.0148746
680.998	0.0147922
681.076	0.0147795
681.155	0.0147210
681.233	0.0146488
681.311	0.0147328
681.389	0.0146605
681.467	0.0147540
681.545	0.0148354
681.623	0.0149136
681.701	0.0149275
681.780	0.0149225
681.858	0.0150581
681.936	0.0150984
682.014	0.0152612
682.092	0.0152016
682.170	0.0153623
682.248	0.0153606
682.326	0.0154071
682.405	0.0156006
682.483	0.0156215
682.561	0.0157051
682.639	0.0159682
682.717	0.0158835
682.795	0.0158247
682.873	0.0158115
682.951	0.0160208
683.030	0.0160194
683.108	0.0157973
683.186	0.0158410
683.264	0.0157939
683.342	0.0155970
683.420	0.0156551
683.498	0.0155104
683.576	0.0153411
683.655	0.0154247
683.733	0.0153533
683.811	0.0151530
683.889	0.0152411
683.967	0.0149421
684.045	0.0148624
684.123	0.0148317
684.201	0.0146483
684.280	0.0146819
684.358	0.0146382
684.436	0.0145322
684.514	0.0143736
684.592	0.0143617
684.670	0.0143104
684.748	0.0143501
684.826	0.0142616
684.905	0.0142867
684.983	0.0143732
685.061	0.0143612
685.139	0.0143132
685.217	0.0145177
685.295	0.0144803
685.373	0.0145882
685.451	0.0146571
685.530	0.0145499
685.608	0.0147406
685.686	0.0148457
685.764	0.0149346
685.842	0.0150739
685.920	0.0150538
685.998	0.0150451
686.076	0.0151506
686.155	0.0152510
686.233	0.0152233
686.311	0.0154518
686.389	0.0154173
686.467	0.0153617
686.545	0.0154700
686.623	0.0155762
686.701	0.0156422
686.780	0.0157755
686.858	0.0157198
686.936	0.0157864
687.014	0.0158754
687.092	0.0158119
687.170	0.0159173
687.248	0.0157382
687.326	0.0158457
687.405	0.0159293
687.483	0.0161297
687.561	0.0157915
687.639	0.0159501
687.717	0.0158260
687.795	0.0158080
687.873	0.0158554
687.951	0.0157433
688.030	0.0157484
688.108	0.0156633
688.186	0.0156287
688.264	0.0155753
688.342	0.0156369
688.420	0.0156687
688.498	0.0155537
688.576	0.0155334
688.655	0.0153883
688.733	0.0153207
688.811	0.0155376
688.889	0.0154838
688.967	0.0154205
689.045	0.0153233
689.123	0.0152652
689.201	0.0152166
689.280	0.0151920
689.358	0.0151110
689.436	0.0152303
689.514	0.0152084
689.592	0.0152385
689.670	0.0150212
689.748	0.0149843
689.826	0.0151978
689.905	0.0150359
689.983	0.0148324
690.061	0.0149756
690.139	0.0148604
690.217	0.0149943
690.295	0.0149346
690.373	0.0148114
690.451	0.0147610
690.530	0.0146052
690.608	0.0145307
690.686	0.0145254
690.764	0.0145496
690.842	0.0145214
690.920	0.0143067
690.998	0.0143085
691.076	0.0142396
691.155	0.0141097
691.233	0.0141528
691.311	0.0140868
691.389	0.0142166
691.467	0.0141263
691.545	0.0141364
691.623	0.0142767
691.701	0.0142619
691.780	0.0143614
691.858	0.0145451
691.936	0.0148866
692.014	0.0148737
692.092	0.0148718
692.170	0.0151996
692.248	0.0152139
692.326	0.0154006
692.405	0.0155930
692.483	0.0157808
692.561	0.0159172
692.639	0.0158594
692.717	0.0160246
692.795	0.0161863
692.873	0.0161349
692.951	0.0161965
693.030	0.0162396
693.108	0.0164834
693.186	0.0164315
693.264	0.0164378
693.342	0.0164362
693.420	0.0163758
693.498	0.0163763
693.576	0.0163946
693.655	0.0164001
693.733	0.0162988
693.811	0.0163474
693.889	0.0161561
693.967	0.0161815
694.045	0.0162805
694.123	0.0160374
694.201	0.0159679
694.280	0.0159632
694.358	0.0157878
694.436	0.0157064
694.514	0.0154668
694.592	0.0154243
694.670	0.0152895
694.748	0.0151617
694.826	0.0148605
694.905	0.0148840
694.983	0.0146992
695.061	0.0145325
695.139	0.0145014
695.217	0.0142483
695.295	0.0141996
695.373	0.0142083
695.451	0.0141829
695.530	0.0139999
695.608	0.0139768
695.686	0.0140674
695.764	0.0140830
695.842	0.0140672
695.920	0.0141846
695.998	0.0140949
696.076	0.0141569
696.155	0.0143275
696.233	0.0142516
696.311	0.0146225
696.389	0.0145748
696.467	0.0146680
696.545	0.0147284
696.623	0.0147144
696.701	0.0149091
696.780	0.0151041
696.858	0.0151400
696.936	0.0151746
697.014	0.0152341
697.092	0.0154128
697.170	0.0154083
697.248	0.0155779
697.326	0.0156149
697.405	0.0157876
697.483	0.0156730
697.561	0.0158914
697.639	0.0159397
697.717	0.0159733
697.795	0.0159176
697.873	0.0162098
697.951	0.0160088
698.030	0.0162148
698.108	0.0161843
698.186	0.0160702
698.264	0.0158798
698.342	0.0159415
698.420	0.0157645
698.498	0.0155140
698.576	0.0155109
698.655	0.0153995
698.733	0.0152204
698.811	0.0152412
698.889	0.0153416
698.967	0.0151547
699.045	0.0151412
699.123	0.0151497
699.201	0.0151907
699.280	0.0153790
699.358	0.0150840
699.436	0.0151984
699.514	0.0153701
699.592	0.0151761
699.670	0.0151228
699.748	0.0153023
699.826	0.0153359
699.905	0.0152042
699.983	0.0150661
700.061	0.0153754
700.139	0.0154327
700.217	0.0152921
700.295	0.0152341
700.373	0.0152802
700.451	0.0151896
700.530	0.0151553
700.608	0.0151785
700.686	0.0151016
700.764	0.0151040
700.842	0.0151464
700.920	0.0151054
700.998	0.0149525
701.076	0.0149439
701.155	0.0148738
701.233	0.0147800
701.311	0.0147569
701.389	0.0147991
701.467	0.0146668
701.545	0.0144897
701.623	0.0145876
701.701	0.0144731
701.780	0.0144244
701.858	0.0143017
701.936	0.0142370
702.014	0.0143578
702.092	0.0142860
702.170	0.0143748
702.248	0.0142921
702.326	0.0143994
702.405	0.0145836
702.483	0.0146341
702.561	0.0146348
702.639	0.0147963
702.717	0.0149063
702.795	0.0149489
702.873	0.0150848
702.951	0.0152505
703.030	0.0151839
703.108	0.0152062
703.186	0.0153600
703.264	0.0154104
703.342	0.0155457
703.420	0.0154310
703.498	0.0154527
703.576	0.0156009
703.655	0.0155116
703.733	0.0155562
703.811	0.0156239
703.889	0.0154529
703.967	0.0156458
704.045	0.0157279
704.123	0.0155660
704.201	0.0156499
704.280	0.0156192
704.358	0.0157082
704.436	0.0157094
704.514	0.0155094
704.592	0.0156155
704.670	0.0154307
704.748	0.0155479
704.826	0.0153893
704.905	0.0154706
704.983	0.0155465
705.061	0.0154479
705.139	0.0154670
705.217	0.0153600
705.295	0.0154603
705.373	0.0155188
705.451	0.0154675
705.530	0.0154924
705.608	0.0154054
705.686	0.0154871
705.764	0.0152896
705.842	0.0152406
705.920	0.0151748
705.998	0.0149606
706.076	0.0149447
706.155	0.0149020
706.233	0.0147686
706.311	0.0147007
706.389	0.0145119
706.467	0.0143479
706.545	0.0143483
706.623	0.0144170
706.701	0.0145386
706.780	0.0145376
706.858	0.0146387
706.936	0.0145657
707.014	0.0146124
707.092	0.0146938
707.170	0.0148569
707.248	0.0149009
707.326	0.0150230
707.405	0.0150418
707.483	0.0152135
707.561	0.0150876
707.639	0.0153430
707.717	0.0154362
707.795	0.0154290
707.873	0.0155662
707.951	0.0157593
708.030	0.0156867
708.108	0.0157297
708.186	0.0159196
708.264	0.0160603
708.342	0.0159949
708.420	0.0160596
708.498	0.0160489
708.576	0.0160110
708.655	0.0161208
708.733	0.0161291
708.811	0.0159847
708.889	0.0159054
708.967	0.0159394
709.045	0.0158483
709.123	0.0157996
709.201	0.0157484
709.280	0.0157018
709.358	0.0157049
709.436	0.0154446
709.514	0.0153572
709.592	0.0154655
709.670	0.0153258
709.748	0.0150236
709.826	0.0150024
709.905	0.0150454
709.983	0.0150214
710.061	0.0149973
710.139	0.0148163
710.217	0.0148534
710.295	0.0146989
710.373	0.0149335
710.451	0.0148440
710.530	0.0148039
710.608	0.0147738
710.686	0.0149182
710.764	0.0148453
710.842	0.0149372
710.920	0.0148214
710.998	0.0147800
711.076	0.0147734
711.155	0.0149240
711.233	0.0148644
711.311	0.0148820
711.389	0.0149121
711.467	0.0147321
711.545	0.0148792
711.623	0.0148112
711.701	0.0147968
711.780	0.0147860
711.858	0.0147709
711.936	0.0146592
712.014	0.0146497
712.092	0.0147840
712.170	0.0148396
712.248	0.0146001
712.326	0.0147260
712.405	0.0147589
712.483	0.0148350
712.561	0.0147586
712.639	0.0150587
712.717	0.0151888
712.795	0.0151611
712.873	0.0152207
712.951	0.0153827
713.030	0.0155206
713.108	0.0155994
713.186	0.0156277
713.264	0.0157662
713.342	0.0158628
713.420	0.0159763
713.498	0.0158600
713.576	0.0159758
713.655	0.0159951
713.733	0.0160608
713.811	0.0159918
713.889	0.0159554
713.967	0.0157347
714.045	0.0157881
714.123	0.0157604
714.201	0.0156523
714.280	0.0156468
714.358	0.0157694
714.436	0.0156606
714.514	0.0155022
714.592	0.0153875
714.670	0.0153481
714.748	0.0152165
714.826	0.0152624
714.905	0.0153314
714.983	0.0151573
715.061	0.0149993
715.139	0.0149609
715.217	0.0149114
715.295	0.0150860
715.373	0.0149677
715.451	0.0147068
715.530	0.0147675
715.608	0.0148862
715.686	0.0148189
715.764	0.0149493
715.842	0.0148757
715.920	0.0149240
715.998	0.0149538
716.076	0.0150755
716.155	0.0151843
716.233	0.0151609
716.311	0.0152802
716.389	0.0151315
716.467	0.0150241
716.545	0.0151419
716.623	0.0151492
716.701	0.0150426
716.780	0.0149359
716.858	0.0149112
716.936	0.0149669
717.014	0.0148582
717.092	0.0148943
717.170	0.0150014
717.248	0.0148896
717.326	0.0149960
717.405	0.0150640
717.483	0.0151115
717.561	0.0151353
717.639	0.0151973
717.717	0.0153722
717.795	0.0154086
717.873	0.0153866
717.951	0.0155382
718.030	0.0157034
718.108	0.0156509
718.186	0.0157024
718.264	0.0157940
718.342	0.0157675
718.420	0.0157976
718.498	0.0160280
718.576	0.0159821
718.655	0.0159122
718.733	0.0161956
718.811	0.0159556
718.889	0.0158100
718.967	0.0158919
719.045	0.0157912
719.123	0.0157257
719.201	0.0156506
719.280	0.0155894
719.358	0.0155633
719.436	0.0154218
719.514	0.0155371
719.592	0.0154655
719.670	0.0153159
719.748	0.0151794
719.826	0.0149291
719.905	0.0151139
719.983	0.0150459
720.061	0.0148713
720.139	0.0148696
720.217	0.0147256
720.295	0.0147858
720.373	0.0148518
720.451	0.0148732
720.530	0.0148656
720.608	0.0149203
720.686	0.0150144
720.764	0.0151815
720.842	0.0151450
720.920	0.0151265
720.998	0.0152369
721.076	0.0153850
721.155	0.0152837
721.233	0.0154824
721.311	0.0154257
721.389	0.0155502
721.467	0.0154736
721.545	0.0154001
721.623	0.0153418
721.701	0.0156075
721.780	0.0154726
721.858	0.0155146
721.936	0.0154540
722.014	0.0154370
722.092	0.0154737
722.170	0.0155144
722.248	0.0152928
722.326	0.0152758
722.405	0.0152458
722.483	0.0152831
722.561	0.0151076
722.639	0.0151386
722.717	0.0149290
722.795	0.0148181
722.873	0.0148184
722.951	0.0147630
723.030	0.0147265
723.108	0.0147165
723.186	0.0147469
723.264	0.0146304
723.342	0.0144906
723.420	0.0146086
723.498	0.0147585
723.576	0.0147286
723.655	0.0147311
723.733	0.0147487
723.811	0.0147809
723.889	0.0149908
723.967	0.0150074
724.045	0.0149119
724.123	0.0151382
724.201	0.0151572
724.280	0.0152789
724.358	0.0152509
724.436	0.0154467
724.514	0.0154902
724.592	0.0154053
724.670	0.0155203
724.748	0.0156133
724.826	0.0156707
724.905	0.0155350
724.983	0.0155717
725.061	0.0155553
725.139	0.0158099
725.217	0.0159637
725.295	0.0157602
725.373	0.0159271
725.451	0.0158031
725.530	0.0157773
725.608	0.0157771
725.686	0.0156887
725.764	0.0159064
725.842	0.0157536
725.920	0.0157673
725.998	0.0156884
726.076	0.0155183
726.155	0.0155991
726.233	0.0154821
726.311	0.0152192
726.389	0.0151655
726.467	0.0150376
726.545	0.0149152
726.623	0.0149863
726.701	0.0147572
726.780	0.0145072
726.858	0.0143964
726.936	0.0143647
727.014	0.0142271
727.092	0.0143027
727.170	0.0141438
727.248	0.0140911
727.326	0.0141980
727.405	0.0143194
727.483	0.0143520
727.561	0.0143659
727.639	0.0145016
727.717	0.0142765
727.795	0.0145407
727.873	0.0147005
727.951	0.0146811
728.030	0.0150002
728.108	0.0150137
728.186	0.0149837
728.264	0.0151294
728.342	0.0151295
728.420	0.0152065
728.498	0.0154300
728.576	0.0152772
728.655	0.0155035
728.733	0.0155245
728.811	0.0157121
728.889	0.0155980
728.967	0.0156643
729.045	0.0156568
729.123	0.0158755
729.201	0.0158101
729.280	0.0157319
729.358	0.0157469
729.436	0.0158144
729.514	0.0156294
729.592	0.0157087
729.670	0.0157976
729.748	0.0156768
729.826	0.0155466
729.905	0.0154669
729.983	0.0153946
730.061	0.0153963
730.139	0.0153278
730.217	0.0153280
730.295	0.0152233
730.373	0.0153181
730.451	0.0150902
730.530	0.0150871
730.608	0.0151226
730.686	0.0150914
730.764	0.0149536
730.842	0.0148041
730.920	0.0147843
730.998	0.0148708
731.076	0.0148193
731.155	0.0147474
731.233	0.0148667
731.311	0.0148798
731.389	0.0148973
731.467	0.0148028
731.545	0.0148625
731.623	0.0148964
731.701	0.0150883
731.780	0.0152033
731.858	0.0152941
731.936	0.0152512
732.014	0.0153290
732.092	0.0155058
732.170	0.0156357
732.248	0.0154951
732.326	0.0155648
732.405	0.0158224
732.483	0.0157360
732.561	0.0158082
732.639	0.0158297
732.717	0.0159415
732.795	0.0158083
732.873	0.0160999
732.951	0.0159060
733.030	0.0158592
733.108	0.0160372
733.186	0.0158726
733.264	0.0157172
733.342	0.0156312
733.420	0.0155524
733.498	0.0154317
733.576	0.0155299
733.655	0.0153856
733.733	0.0152048
733.811	0.0152030
733.889	0.0152180
733.967	0.0149811
734.045	0.0148386
734.123	0.0149098
734.201	0.0147038
734.280	0.0147726
734.358	0.0146760
734.436	0.0148667
734.514	0.0148714
734.592	0.0146987
734.670	0.0147339
734.748	0.0147837
734.826	0.0148477
734.905	0.0147440
734.983	0.0147876
735.061	0.0148393
735.139	0.0150620
735.217	0.0151517
735.295	0.0150148
735.373	0.0150385
735.451	0.0150312
735.530	0.0151601
735.608	0.0152550
735.686	0.0153890
735.764	0.0153518
735.842	0.0154564
735.920	0.0154874
735.998	0.0154470
736.076	0.0155786
736.155	0.0156364
736.233	0.0155648
736.311	0.0157198
736.389	0.0157514
736.467	0.0156342
736.545	0.0156336
736.623	0.0157003
736.701	0.0157043
736.780	0.0154939
736.858	0.0155291
736.936	0.0155344
737.014	0.0154548
737.092	0.0155010
737.170	0.0155006
737.248	0.0153584
737.326	0.0153704
737.405	0.0154250
737.483	0.0152452
737.561	0.0152541
737.639	0.0152560
737.717	0.0154060
737.795	0.0151618
737.873	0.0150466
737.951	0.0151597
738.030	0.0152040
738.108	0.0149815
738.186	0.0150092
738.264	0.0149237
738.342	0.0149460
738.420	0.0148868
738.498	0.0149489
738.576	0.0149435
738.655	0.0149348
738.733	0.0148347
738.811	0.0148629
738.889	0.0147887
738.967	0.0149272
739.045	0.0149911
739.123	0.0150259
739.201	0.0150107
739.280	0.0150813
739.358	0.0152062
739.436	0.0152489
739.514	0.0152366
739.592	0.0151855
739.670	0.0154605
739.748	0.0155056
739.826	0.0153614
739.905	0.0153900
739.983	0.0154105
740.061	0.0154962
740.139	0.0154681
740.217	0.0155702
740.295	0.0156169
740.373	0.0156091
740.451	0.0155364
740.530	0.0156305
740.608	0.0156750
740.686	0.0156448
740.764	0.0156171
740.842	0.0153725
740.920	0.0153303
740.998	0.0153278
741.076	0.0152742
741.155	0.0152131
741.233	0.0151863
741.311	0.0149955
741.389	0.0149414
741.467	0.0149734
741.545	0.0148700
741.623	0.0147822
741.701	0.0148912
741.780	0.0148506
741.858	0.0148695
741.936	0.0149155
742.014	0.0149277
742.092	0.0149194
742.170	0.0149245
742.248	0.0150722
742.326	0.0151125
742.405	0.0150194
742.483	0.0151424
742.561	0.0150992
742.639	0.0152658
742.717	0.0152809
742.795	0.0152416
742.873	0.0152485
742.951	0.0152850
743.030	0.0153075
743.108	0.0153096
743.186	0.0152538
743.264	0.0152384
743.342	0.0151707
743.420	0.0152133
743.498	0.0153074
743.576	0.0153663
743.655	0.0152514
743.733	0.0152366
743.811	0.0152468
743.889	0.0151145
743.967	0.0152312
744.045	0.0152355
744.123	0.0149774
744.201	0.0150101
744.280	0.0150884
744.358	0.0148801
744.436	0.0149046
744.514	0.0149855
744.592	0.0149804
744.670	0.0149368
744.748	0.0148573
744.826	0.0147672
744.905	0.0146529
744.983	0.0147803
745.061	0.0148022
745.139	0.0147158
745.217	0.0148431
745.295	0.0147052
745.373	0.0147998
745.451	0.0148421
745.530	0.0147949
745.608	0.0147894
745.686	0.0149077
745.764	0.0149300
745.842	0.0148710
745.920	0.0148207
745.998	0.0148969
746.076	0.0150612
746.155	0.0151101
746.233	0.0150059
746.311	0.0150964
746.389	0.0152426
746.467	0.0153111
746.545	0.0154243
746.623	0.0154329
746.701	0.0155527
746.780	0.0155328
746.858	0.0157150
746.936	0.0157848
747.014	0.0156542
747.092	0.0157550
747.170	0.0158952
747.248	0.0157500
747.326	0.0158727
747.405	0.0157819
747.483	0.0157397
747.561	0.0157546
747.639	0.0158242
747.717	0.0158495
747.795	0.0157246
747.873	0.0155858
747.951	0.0156926
748.030	0.0157291
748.108	0.0156995
748.186	0.0156975
748.264	0.0155048
748.342	0.0155440
748.420	0.0155467
748.498	0.0154379
748.576	0.0153899
748.655	0.0152637
748.733	0.0153657
748.811	0.0153094
748.889	0.0152588
748.967	0.0152447
749.045	0.0150896
749.123	0.0150713
749.201	0.0149940
749.280	0.0150235
749.358	0.0150130
749.436	0.0150713
749.514	0.0150159
749.592	0.0149752
749.670	0.0149638
749.748	0.0149432
749.826	0.0151031
749.905	0.0151331
749.983	0.0149697
750.061	0.0150926
750.139	0.0150078
750.217	0.0151815
750.295	0.0150605
750.373	0.0153447
750.451	0.0153003
750.530	0.0152302
750.608	0.0152802
750.686	0.0155045
750.764	0.0154160
750.842	0.0153719
750.920	0.0156666
750.998	0.0156261
751.076	0.0155094
751.155	0.0158026
751.233	0.0156767
751.311	0.0156201
751.389	0.0155321
751.467	0.0155245
751.545	0.0154971
751.623	0.0154461
751.701	0.0154761
751.780	0.0154964
751.858	0.0154459
751.936	0.0152757
752.014	0.0154255
752.092	0.0153032
752.170	0.0151770
752.248	0.0153022
752.326	0.0152856
752.405	0.0153337
752.483	0.0153265
752.561	0.0152689
752.639	0.0153182
752.717	0.0153869
752.795	0.0152616
752.873	0.0151627
752.951	0.0152782
753.030	0.0152740
753.108	0.0151521
753.186	0.0151833
753.264	0.0150753
753.342	0.0151445
753.420	0.0151108
753.498	0.0150317
753.576	0.0149651
753.655	0.0150848
753.733	0.0149236
753.811	0.0151704
753.889	0.0151936
753.967	0.0151719
754.045	0.0150875
754.123	0.0151128
754.201	0.0151717
754.280	0.0152731
754.358	0.0151888
754.436	0.0152583
754.514	0.0152467
754.592	0.0152276
754.670	0.0153419
754.748	0.0153017
754.826	0.0154146
754.905	0.0153147
754.983	0.0152300
755.061	0.0152796
755.139	0.0153820
755.217	0.0152963
755.295	0.0152704
755.373	0.0153789
755.451	0.0153693
755.530	0.0152637
755.608	0.0153526
755.686	0.0152798
755.764	0.0152995
755.842	0.0152702
755.920	0.0152482
755.998	0.0151295
756.076	0.0151189
756.155	0.0151834
756.233	0.0150835
756.311	0.0150083
756.389	0.0150671
756.467	0.0151662
756.545	0.0151544
756.623	0.0149402
756.701	0.0149886
756.780	0.0149319
756.858	0.0149683
756.936	0.0148652
757.014	0.0148650
757.092	0.0148735
757.170	0.0148417
757.248	0.0148933
757.326	0.0148560
757.405	0.0149078
757.483	0.0150697
757.561	0.0150121
757.639	0.0148894
757.717	0.0149416
757.795	0.0149759
757.873	0.0149850
757.951	0.0149805
758.030	0.0151342
758.108	0.0150343
758.186	0.0151558
758.264	0.0152149
758.342	0.0152979
758.420	0.0153652
758.498	0.0153744
758.576	0.0153497
758.655	0.0154026
758.733	0.0153681
758.811	0.0154008
758.889	0.0155035
758.967	0.0154543
759.045	0.0155299
759.123	0.0156277
759.201	0.0154821
759.280	0.0152721
759.358	0.0154251
759.436	0.0154248
759.514	0.0153785
759.592	0.0152292
759.670	0.0153333
759.748	0.0154214
759.826	0.0152898
759.905	0.0152558
759.983	0.0152268
760.061	0.0151959
760.139	0.0151863
760.217	0.0153238
760.295	0.0152346
760.373	0.0152138
760.451	0.0151041
760.530	0.0151594
760.608	0.0148828
760.686	0.0150865
760.764	0.0151241
760.842	0.0150582
760.920	0.0151098
760.998	0.0150735
761.076	0.0149824
761.155	0.0150488
761.233	0.0151131
761.311	0.0151382
761.389	0.0150197
761.467	0.0149017
761.545	0.0150343
761.623	0.0149464
761.701	0.0150298
761.780	0.0150682
761.858	0.0149493
761.936	0.0150298
762.014	0.0150622
762.092	0.0150770
762.170	0.0151557
762.248	0.0152113
762.326	0.0151862
762.405	0.0151195
762.483	0.0151209
762.561	0.0152853
762.639	0.0150987
762.717	0.0154618
762.795	0.0153798
762.873	0.0152605
762.951	0.0152473
763.030	0.0154411
763.108	0.0154893
763.186	0.0153858
763.264	0.0153426
763.342	0.0154368
763.420	0.0155132
763.498	0.0154248
763.576	0.0153432
763.655	0.0153078
763.733	0.0153767
763.811	0.0152718
763.889	0.0152887
763.967	0.0152449
764.045	0.0150017
764.123	0.0150831
764.201	0.0150990
764.280	0.0150941
764.358	0.0149792
764.436	0.0149827
764.514	0.0148954
764.592	0.0150014
764.670	0.0148597
764.748	0.0148827
764.826	0.0148022
764.905	0.0147818
764.983	0.0146738
765.061	0.0149085
765.139	0.0147743
765.217	0.0147495
765.295	0.0148100
765.373	0.0148032
765.451	0.0147552
765.530	0.0147978
765.608	0.0148684
765.686	0.0148957
765.764	0.0149180
765.842	0.0148079
765.920	0.0148952
765.998	0.0149499
766.076	0.0149409
766.155	0.0151494
766.233	0.0150574
766.311	0.0149570
766.389	0.0152354
766.467	0.0150981
766.545	0.0151355
766.623	0.0151431
766.701	0.0150964
766.780	0.0151675
766.858	0.0152365
766.936	0.0153647
767.014	0.0153141
767.092	0.0154443
767.170	0.0152665
767.248	0.0154252
767.326	0.0153975
767.405	0.0154560
767.483	0.0154462
767.561	0.0155855
767.639	0.0155669
767.717	0.0156058
767.795	0.0157952
767.873	0.0155566
767.951	0.0156187
768.030	0.0156405
768.108	0.0154689
768.186	0.0155347
768.264	0.0156049
768.342	0.0154488
768.420	0.0154723
768.498	0.0153387
768.576	0.0154879
768.655	0.0153547
768.733	0.0153858
768.811	0.0153084
768.889	0.0152564
768.967	0.0152359
769.045	0.0152581
769.123	0.0152332
769.201	0.0152531
769.280	0.0151142
769.358	0.0150082
769.436	0.0149515
769.514	0.0149212
769.592	0.0150146
769.670	0.0150402
769.748	0.0150011
769.826	0.0149877
769.905	0.0149349
769.983	0.0148935
770.061	0.0148306
770.139	0.0147549
770.217	0.0148523
770.295	0.0148243
770.373	0.0147388
770.451	0.0148061
770.530	0.0147577
770.608	0.0148645
770.686	0.0149569
770.764	0.0149124
770.842	0.0149018
770.920	0.0149413
770.998	0.0150314
771.076	0.0150285
771.155	0.0148470
771.233	0.0150133
771.311	0.0151752
771.389	0.0152135
771.467	0.0152197
771.545	0.0151143
771.623	0.0150891
771.701	0.0151742
771.780	0.0153340
771.858	0.0151877
771.936	0.0154021
772.014	0.0153307
772.092	0.0152405
772.170	0.0153859
772.248	0.0154809
772.326	0.0156227
772.405	0.0156026
772.483	0.0154379
772.561	0.0154310
772.639	0.0154581
772.717	0.0153690
772.795	0.0154627
772.873	0.0154140
772.951	0.0154749
773.030	0.0154095
773.108	0.0153875
773.186	0.0154070
773.264	0.0155883
773.342	0.0153767
773.420	0.0153925
773.498	0.0153650
773.576	0.0153512
773.655	0.0152742
773.733	0.0153082
773.811	0.0153221
773.889	0.0151293
773.967	0.0153335
774.045	0.0151947
774.123	0.0153458
774.201	0.0153466
774.280	0.0150924
774.358	0.0151592
774.436	0.0151718
774.514	0.0150671
774.592	0.0151427
774.670	0.0152693
774.748	0.0152354
774.826	0.0151064
774.905	0.0150481
774.983	0.0149743
775.061	0.0150520
775.139	0.0152196
775.217	0.0151202
775.295	0.0151766
775.373	0.0152238
775.451	0.0151189
775.530	0.0150694
775.608	0.0151939
775.686	0.0152525
775.764	0.0152400
775.842	0.0151537
775.920	0.0152641
775.998	0.0153062
776.076	0.0152634
776.155	0.0152410
776.233	0.0153625
776.311	0.0152531
776.389	0.0153302
776.467	0.0153815
776.545	0.0151525
776.623	0.0153602
776.701	0.0151817
776.780	0.0151659
776.858	0.0151524
776.936	0.0151041
777.014	0.0152445
777.092	0.0152027
777.170	0.0150912
777.248	0.0151768
777.326	0.0150916
777.405	0.0151038
777.483	0.0149694
777.561	0.0150526
777.639	0.0149917
777.717	0.0149539
777.795	0.0150798
777.873	0.0151492
777.951	0.0151557
778.030	0.0150780
778.108	0.0150815
778.186	0.0152498
778.264	0.0152607
778.342	0.0151484
778.420	0.0151436
778.498	0.0151865
778.576	0.0153568
778.655	0.0152236
778.733	0.0151331
778.811	0.0152999
778.889	0.0152675
778.967	0.0153288
779.045	0.0153327
779.123	0.0153709
779.201	0.0152873
779.280	0.0153220
779.358	0.0154630
779.436	0.0155000
779.514	0.0152473
779.592	0.0152771
779.670	0.0154101
779.748	0.0153113
779.826	0.0153213
779.905	0.0152357
779.983	0.0153100
780.061	0.0154581
780.139	0.0153352
780.217	0.0154491
780.295	0.0153166
780.373	0.0151204
780.451	0.0152368
780.530	0.0154430
780.608	0.0151214
780.686	0.0151569
780.764	0.0151688
780.842	0.0150492
780.920	0.0149665
780.998	0.0150323
781.076	0.0149541
781.155	0.0150235
781.233	0.0149544
781.311	0.0150281
781.389	0.0150043
781.467	0.0149390
781.545	0.0150631
781.623	0.0148648
781.701	0.0149252
781.780	0.0149486
781.858	0.0149999
781.936	0.0150244
782.014	0.0150470
782.092	0.0149895
782.170	0.0150037
782.248	0.0152267
782.326	0.0151167
782.405	0.0151102
782.483	0.0150524
782.561	0.0150404
782.639	0.0150828
782.717	0.0151962
782.795	0.0151385
782.873	0.0151568
782.951	0.0151385
783.030	0.0150728
783.108	0.0152341
783.186	0.0150935
783.264	0.0151649
783.342	0.0152467
783.420	0.0151278
783.498	0.0152170
783.576	0.0152049
783.655	0.0152135
783.733	0.0151917
783.811	0.0151029
783.889	0.0151725
783.967	0.0152476
784.045	0.0153903
784.123	0.0153352
784.201	0.0153516
784.280	0.0154082
784.358	0.0154053
784.436	0.0153228
784.514	0.0152330
784.592	0.0153761
784.670	0.0154581
784.748	0.0152121
784.826	0.0154322
784.905	0.0152718
784.983	0.0153086
785.061	0.0152936
785.139	0.0152491
785.217	0.0152654
785.295	0.0152817
785.373	0.0152628
785.451	0.0151972
785.530	0.0152384
785.608	0.0151714
785.686	0.0152525
785.764	0.0151427
785.842	0.0152146
785.920	0.0152470
785.998	0.0151530
786.076	0.0152323
786.155	0.0151510
786.233	0.0152721
786.311	0.0150905
786.389	0.0152025
786.467	0.0150589
786.545	0.0149181
786.623	0.0149915
786.701	0.0150314
786.780	0.0150447
786.858	0.0149613
786.936	0.0151230
787.014	0.0149927
787.092	0.0150232
787.170	0.0148692
787.248	0.0149691
787.326	0.0150426
787.405	0.0149352
787.483	0.0149976
787.561	0.0150703
787.639	0.0151700
787.717	0.0151176
787.795	0.0152241
787.873	0.0151653
787.951	0.0151716
788.030	0.0153680
788.108	0.0153502
788.186	0.0153320
788.264	0.0154121
788.342	0.0153294
788.420	0.0155060
788.498	0.0154522
788.576	0.0153735
788.655	0.0155367
788.733	0.0154830
788.811	0.0155219
788.889	0.0155265
788.967	0.0155262
789.045	0.0156375
789.123	0.0154687
789.201	0.0153940
789.280	0.0155911
789.358	0.0155350
789.436	0.0154641
789.514	0.0155914
789.592	0.0155571
789.670	0.0154894
789.748	0.0155882
789.826	0.0154989
789.905	0.0153995
789.983	0.0154429
790.061	0.0153341
790.139	0.0153646
790.217	0.0154464
790.295	0.0152290
790.373	0.0153304
790.451	0.0153848
790.530	0.0153239
790.608	0.0152841
790.686	0.0151730
790.764	0.0152088
790.842	0.0150510
790.920	0.0150133
790.998	0.0150256
791.076	0.0151827
791.155	0.0149935
791.233	0.0149826
791.311	0.0150404
791.389	0.0149326
791.467	0.0149857
791.545	0.0151189
791.623	0.0150271
791.701	0.0149302
791.780	0.0150847
791.858	0.0151025
791.936	0.0149822
792.014	0.0149036
792.092	0.0149928
792.170	0.0150394
792.248	0.0152381
792.326	0.0151685
792.405	0.0150232
792.483	0.0150972
792.561	0.0149061
792.639	0.0150380
792.717	0.0151633
792.795	0.0151488
792.873	0.0150937
792.951	0.0150638
793.030	0.0152197
793.108	0.0150982
793.186	0.0151398
793.264	0.0151909
793.342	0.0151393
793.420	0.0151294
793.498	0.0152377
793.576	0.0152121
793.655	0.0152280
793.733	0.0151931
793.811	0.0151601
793.889	0.0151163
793.967	0.0152616
794.045	0.0152826
794.123	0.0151865
794.201	0.0152022
794.280	0.0152054
794.358	0.0152840
794.436	0.0152475
794.514	0.0152457
794.592	0.0154626
794.670	0.0153011
794.748	0.0153493
794.826	0.0153757
794.905	0.0154038
794.983	0.0153374
795.061	0.0152943
795.139	0.0152063
795.217	0.0152493
795.295	0.0152838
795.373	0.0151750
795.451	0.0152155
795.530	0.0152839
795.608	0.0153301
795.686	0.0151328
795.764	0.0150811
795.842	0.0151639
795.920	0.0151986
795.998	0.0150842
796.076	0.0153089
796.155	0.0153224
796.233	0.0152106
796.311	0.0151295
796.389	0.0151719
796.467	0.0150706
796.545	0.0150144
796.623	0.0150918
796.701	0.0151298
796.780	0.0150557
796.858	0.0151582
796.936	0.0151203
797.014	0.0150556
797.092	0.0149822
797.170	0.0151478
797.248	0.0152030
797.326	0.0153593
797.405	0.0150907
797.483	0.0151590
797.561	0.0151348
797.639	0.0150378
797.717	0.0152170
797.795	0.0151124
797.873	0.0151974
797.951	0.0151512
798.030	0.0150961
798.108	0.0153204
798.186	0.0152678
798.264	0.0152252
798.342	0.0152039
798.420	0.0152109
798.498	0.0152368
798.576	0.0151691
798.655	0.0152325
798.733	0.0151624
798.811	0.0152740
798.889	0.0151472
798.967	0.0151102
799.045	0.0153001
799.123	0.0152115
799.201	0.0151164
799.280	0.0152621
799.358	0.0152225
799.436	0.0153646
799.514	0.0152484
799.592	0.0153474
799.670	0.0152345
799.748	0.0153289
799.826	0.0152319
799.905	0.0152595
799.983	0.0152493
800.061	0.0153657
800.139	0.0153397
800.217	0.0153428
800.295	0.0152092
800.373	0.0154565
800.451	0.0153037
800.530	0.0153185
800.608	0.0153378
800.686	0.0153777
800.764	0.0155253
800.842	0.0153996
800.920	0.0154929
800.998	0.0154928
801.076	0.0152657
801.155	0.0154588
801.233	0.0154469
801.311	0.0152562
801.389	0.0152808
801.467	0.0153114
801.545	0.0152325
801.623	0.0153724
801.701	0.0153358
801.780	0.0152252
801.858	0.0153662
801.936	0.0152763
802.014	0.0152652
802.092	0.0152038
802.170	0.0152247
802.248	0.0152158
802.326	0.0152991
802.405	0.0153596
802.483	0.0151495
802.561	0.0150805
802.639	0.0151845
802.717	0.0152204
802.795	0.0152658
802.873	0.0150866
802.951	0.0151373
803.030	0.0151377
803.108	0.0150917
803.186	0.0151136
803.264	0.0151057
803.342	0.0150628
803.420	0.0151534
803.498	0.0152395
803.576	0.0151913
803.655	0.0151279
803.733	0.0151621
803.811	0.0152621
803.889	0.0151107
803.967	0.0153556
804.045	0.0153380
804.123	0.0152194
804.201	0.0152862
804.280	0.0154434
804.358	0.0152859
804.436	0.0152772
804.514	0.0153293
804.592	0.0153616
804.670	0.0153391
804.748	0.0154095
804.826	0.0154109
804.905	0.0153904
804.983	0.0152512
805.061	0.0153036
805.139	0.0154055
805.217	0.0153418
805.295	0.0154234
805.373	0.0153863
805.451	0.0153641
805.530	0.0152442
805.608	0.0155200
805.686	0.0154539
805.764	0.0153599
805.842	0.0154722
805.920	0.0152789
805.998	0.0154185
806.076	0.0153281
806.155	0.0153667
806.233	0.0153432
806.311	0.0152559
806.389	0.0152869
806.467	0.0152695
806.545	0.0153367
806.623	0.0153150
806.701	0.0151846
806.780	0.0153166
806.858	0.0151473
806.936	0.0152024
807.014	0.0152554
807.092	0.0151840
807.170	0.0151511
807.248	0.0152328
807.326	0.0150708
807.405	0.0149782
807.483	0.0151382
807.561	0.0150578
807.639	0.0152877
807.717	0.0151538
807.795	0.0151005
807.873	0.0149628
807.951	0.0150222
808.030	0.0150791
808.108	0.0150990
808.186	0.0151711
808.264	0.0150350
808.342	0.0150997
808.420	0.0152764
808.498	0.0151494
808.576	0.0151753
808.655	0.0152154
808.733	0.0152482
808.811	0.0152855
808.889	0.0153036
808.967	0.0153026
809.045	0.0152197
809.123	0.0152724
809.201	0.0153271
809.280	0.0154883
809.358	0.0154993
809.436	0.0153489
809.514	0.0153304
809.592	0.0155218
809.670	0.0153503
809.748	0.0154113
809.826	0.0154362
809.905	0.0153562
809.983	0.0153649
810.061	0.0152632
810.139	0.0153965
810.217	0.0153468
810.295	0.0152612
810.373	0.0153325
810.451	0.0153033
810.530	0.0153769
810.608	0.0152802
810.686	0.0152616
810.764	0.0153257
810.842	0.0152824
810.920	0.0152357
810.998	0.0152007
811.076	0.0153345
811.155	0.0153549
811.233	0.0153559
811.311	0.0152805
811.389	0.0153793
811.467	0.0152642
811.545	0.0153470
811.623	0.0153053
811.701	0.0154532
811.780	0.0153957
811.858	0.0153230
811.936	0.0152448
812.014	0.0153779
812.092	0.0153367
812.170	0.0153728
812.248	0.0152206
812.326	0.0153347
812.405	0.0152951
812.483	0.0152415
812.561	0.0154902
812.639	0.0151960
812.717	0.0152314
812.795	0.0152676
812.873	0.0153310
812.951	0.0153246
813.030	0.0153287
813.108	0.0151971
813.186	0.0151942
813.264	0.0152008
813.342	0.0153308
813.420	0.0153005
813.498	0.0152972
813.576	0.0153283
813.655	0.0154949
813.733	0.0154437
813.811	0.0153715
813.889	0.0153278
813.967	0.0154423
814.045	0.0154743
814.123	0.0154125
814.201	0.0154201
814.280	0.0154258
814.358	0.0154830
814.436	0.0155597
814.514	0.0154488
814.592	0.0154325
814.670	0.0154259
814.748	0.0155143
814.826	0.0152932
814.905	0.0155024
814.983	0.0155338
815.061	0.0152756
815.139	0.0153448
815.217	0.0153332
815.295	0.0152952
815.373	0.0153070
815.451	0.0151997
815.530	0.0151713
815.608	0.0152538
815.686	0.0151673
815.764	0.0151619
815.842	0.0151902
815.920	0.0151238
815.998	0.0152156
816.076	0.0151756
816.155	0.0150530
816.233	0.0149624
816.311	0.0151077
816.389	0.0150709
816.467	0.0150107
816.545	0.0149796
816.623	0.0150112
816.701	0.0151384
816.780	0.0149684
816.858	0.0151003
816.936	0.0149945
817.014	0.0149740
817.092	0.0150440
817.170	0.0150061
817.248	0.0150943
817.326	0.0150163
817.405	0.0149325
817.483	0.0150235
817.561	0.0149741
817.639	0.0150673
817.717	0.0151586
817.795	0.0151221
817.873	0.0152207
817.951	0.0150940
818.030	0.0151868
818.108	0.0151939
818.186	0.0151478
818.264	0.0151596
818.342	0.0151851
818.420	0.0151365
818.498	0.0152879
818.576	0.0150605
818.655	0.0152124
818.733	0.0152914
818.811	0.0151508
818.889	0.0152351
818.967	0.0152800
819.045	0.0152818
819.123	0.0152100
819.201	0.0151471
819.280	0.0152380
819.358	0.0152699
819.436	0.0152425
819.514	0.0153693
819.592	0.0151602
819.670	0.0151730
819.748	0.0152710
819.826	0.0152893
819.905	0.0153738
819.983	0.0153935
820.061	0.0153896
820.139	0.0154527
820.217	0.0154279
820.295	0.0153126
820.373	0.0153368
820.451	0.0153235
820.530	0.0152748
820.608	0.0153706
820.686	0.0153282
820.764	0.0153279
820.842	0.0153228
820.920	0.0151821
820.998	0.0152714
821.076	0.0153683
821.155	0.0154517
821.233	0.0153089
821.311	0.0153568
821.389	0.0152491
821.467	0.0153049
821.545	0.0152667
821.623	0.0153342
821.701	0.0154095
821.780	0.0153113
821.858	0.0153430
821.936	0.0153053
822.014	0.0153269
822.092	0.0153490
822.170	0.0152394
822.248	0.0152543
822.326	0.0153991
822.405	0.0152836
822.483	0.0154556
822.561	0.0153863
822.639	0.0153931
822.717	0.0153823
822.795	0.0153539
822.873	0.0154260
822.951	0.0153339
823.030	0.0153175
823.108	0.0153239
823.186	0.0152951
823.264	0.0151680
823.342	0.0151625
823.420	0.0152287
823.498	0.0151569
823.576	0.0151463
823.655	0.0151382
823.733	0.0151662
823.811	0.0150237
823.889	0.0149900
823.967	0.0149965
824.045	0.0151215
824.123	0.0151224
824.201	0.0150636
824.280	0.0151678
824.358	0.0151633
824.436	0.0150029
824.514	0.0151462
824.592	0.0151257
824.670	0.0152885
824.748	0.0151392
824.826	0.0152776
824.905	0.0152084
824.983	0.0153598
825.061	0.0151420
825.139	0.0153419
825.217	0.0153439
825.295	0.0152487
825.373	0.0154744
825.451	0.0153721
825.530	0.0153292
825.608	0.0153460
825.686	0.0152655
825.764	0.0153943
825.842	0.0152961
825.920	0.0152809
825.998	0.0152570
826.076	0.0153000
826.155	0.0152817
826.233	0.0153706
826.311	0.0153135
826.389	0.0152856
826.467	0.0151937
826.545	0.0152859
826.623	0.0152367
826.701	0.0151360
826.780	0.0151647
826.858	0.0152164
826.936	0.0151006
827.014	0.0151157
827.092	0.0150540
827.170	0.0151234
827.248	0.0149051
827.326	0.0149806
827.405	0.0148312
827.483	0.0150871
827.561	0.0149923
827.639	0.0149310
827.717	0.0149738
827.795	0.0150034
827.873	0.0150691
827.951	0.0148938
828.030	0.0148431
828.108	0.0150154
828.186	0.0148824
828.264	0.0149998
828.342	0.0149828
828.420	0.0150765
828.498	0.0151169
828.576	0.0149430
828.655	0.0150750
828.733	0.0150132
828.811	0.0150370
828.889	0.0151708
828.967	0.0152522
829.045	0.0151004
829.123	0.0150587
829.201	0.0152041
829.280	0.0152187
829.358	0.0152704
829.436	0.0153645
829.514	0.0153229
829.592	0.0152876
829.670	0.0153099
829.748	0.0152359
829.826	0.0153468
829.905	0.0153527
829.983	0.0153211
830.061	0.0154453
830.139	0.0154159
830.217	0.0154276
830.295	0.0153761
830.373	0.0153625
830.451	0.0155431
830.530	0.0153318
830.608	0.0154696
830.686	0.0154293
830.764	0.0154507
830.842	0.0155277
830.920	0.0153466
830.998	0.0154018
831.076	0.0154789
831.155	0.0155341
831.233	0.0155172
831.311	0.0153487
831.389	0.0156156
831.467	0.0155361
831.545	0.0155283
831.623	0.0155433
831.701	0.0155083
831.780	0.0154332
831.858	0.0153128
831.936	0.0155934
832.014	0.0155520
832.092	0.0154263
832.170	0.0154053
832.248	0.0154519
832.326	0.0153199
832.405	0.0154018
832.483	0.0155446
832.561	0.0153271
832.639	0.0153240
832.717	0.0153645
832.795	0.0152997
832.873	0.0153303
832.951	0.0152586
833.030	0.0153238
833.108	0.0154044
833.186	0.0153193
833.264	0.0152547
833.342	0.0154349
833.420	0.0153309
833.498	0.0152869
833.576	0.0152587
833.655	0.0153605
833.733	0.0153548
833.811	0.0150841
833.889	0.0152388
833.967	0.0152592
834.045	0.0152449
834.123	0.0151480
834.201	0.0153767
834.280	0.0153104
834.358	0.0152732
834.436	0.0152772
834.514	0.0151701
834.592	0.0152530
834.670	0.0153444
834.748	0.0152083
834.826	0.0151887
834.905	0.0151762
834.983	0.0151720
835.061	0.0151206
835.139	0.0151598
835.217	0.0152882
835.295	0.0153329
835.373	0.0150536
835.451	0.0150880
835.530	0.0151783
835.608	0.0150142
835.686	0.0151327
835.764	0.0151649
835.842	0.0151762
835.920	0.0150294
835.998	0.0151146
836.076	0.0152622
836.155	0.0152538
836.233	0.0150744
836.311	0.0150499
836.389	0.0152042
836.467	0.0151815
836.545	0.0151645
836.623	0.0152215
836.701	0.0152097
836.780	0.0152766
836.858	0.0152386
836.936	0.0151884
837.014	0.0152888
837.092	0.0153720
837.170	0.0153091
837.248	0.0153059
837.326	0.0151723
837.405	0.0152020
837.483	0.0153227
837.561	0.0152461
837.639	0.0151540
837.717	0.0151483
837.795	0.0152894
837.873	0.0153257
837.951	0.0152619
838.030	0.0151120
838.108	0.0152090
838.186	0.0152320
838.264	0.0152774
838.342	0.0152956
838.420	0.0152092
838.498	0.0150278
838.576	0.0151482
838.655	0.0152730
838.733	0.0152843
838.811	0.0151279
838.889	0.0152299
838.967	0.0153760
839.045	0.0153716
839.123	0.0151569
839.201	0.0151469
839.280	0.0151506
839.358	0.0152332
839.436	0.0151463
839.514	0.0151507
839.592	0.0151628
839.670	0.0152522
839.748	0.0151923
839.826	0.0151805
839.905	0.0151633
839.983	0.0151140
840.061	0.0151395
840.139	0.0150916
840.217	0.0150762
840.295	0.0151901
840.373	0.0151031
840.451	0.0150758
840.530	0.0151719
840.608	0.0152200
840.686	0.0151318
840.764	0.0151334
840.842	0.0151936
840.920	0.0151045
840.998	0.0151825
841.076	0.0153056
841.155	0.0152994
841.233	0.0150820
841.311	0.0152427
841.389	0.0150462
841.467	0.0151086
841.545	0.0150961
841.623	0.0151305
841.701	0.0150613
841.780	0.0151097
841.858	0.0150630
841.936	0.0151000
842.014	0.0151135
842.092	0.0150842
842.170	0.0151343
842.248	0.0151315
842.326	0.0150775
842.405	0.0151043
842.483	0.0150594
842.561	0.0153477
842.639	0.0152364
842.717	0.0152044
842.795	0.0151669
842.873	0.0151588
842.951	0.0151522
843.030	0.0150938
843.108	0.0152792
843.186	0.0152374
843.264	0.0153026
843.342	0.0151025
843.420	0.0151788
843.498	0.0152647
843.576	0.0151301
843.655	0.0150611
843.733	0.0151346
843.811	0.0152442
843.889	0.0151446
843.967	0.0151698
844.045	0.0152690
844.123	0.0150931
844.201	0.0151325
844.280	0.0152607
844.358	0.0151383
844.436	0.0152018
844.514	0.0151826
844.592	0.0150837
844.670	0.0152025
844.748	0.0152420
844.826	0.0151475
844.905	0.0152426
844.983	0.0152318
845.061	0.0152640
845.139	0.0153109
845.217	0.0152209
845.295	0.0152890
845.373	0.0152764
845.451	0.0153134
845.530	0.0152193
845.608	0.0151691
845.686	0.0153798
845.764	0.0152613
845.842	0.0153537
845.920	0.0152994
845.998	0.0154649
846.076	0.0152122
846.155	0.0153617
846.233	0.0153174
846.311	0.0153094
846.389	0.0151524
846.467	0.0153192
846.545	0.0151727
846.623	0.0152467
846.701	0.0151691
846.780	0.0151467
846.858	0.0152258
846.936	0.0152030
847.014	0.0152569
847.092	0.0152454
847.170	0.0151978
847.248	0.0153695
847.326	0.0152646
847.405	0.0150801
847.483	0.0152660
847.561	0.0151806
847.639	0.0151296
847.717	0.0152339
847.795	0.0152411
847.873	0.0151392
847.951	0.0151572
848.030	0.0153312
848.108	0.0151424
848.186	0.0151606
848.264	0.0152363
848.342	0.0151962
848.420	0.0153520
848.498	0.0152826
848.576	0.0152849
848.655	0.0152713
848.733	0.0152552
848.811	0.0152441
848.889	0.0153156
848.967	0.0152706
849.045	0.0153650
849.123	0.0151538
849.201	0.0151260
849.280	0.0152238
849.358	0.0152744
849.436	0.0151620
849.514	0.0150626
849.592	0.0151574
849.670	0.0151168
849.748	0.0150813
849.826	0.0151743
849.905	0.0151833
849.983	0.0151595
850.061	0.0150470
850.139	0.0149359
850.217	0.0151140
850.295	0.0151557
850.373	0.0150392
850.451	0.0151215
850.530	0.0151191
850.608	0.0151926
850.686	0.0151926
850.764	0.0151286
850.842	0.0152431
850.920	0.0152280
850.998	0.0150550
851.076	0.0150856
851.155	0.0152351
851.233	0.0153015
851.311	0.0152819
851.389	0.0151595
851.467	0.0152896
851.545	0.0152813
851.623	0.0152752
851.701	0.0152143
851.780	0.0151525
851.858	0.0151374
851.936	0.0153280
852.014	0.0152258
852.092	0.0151759
852.170	0.0153510
852.248	0.0151617
852.326	0.0151971
852.405	0.0151196
852.483	0.0151216
852.561	0.0151775
852.639	0.0151566
852.717	0.0151414
852.795	0.0150351
852.873	0.0151763
852.951	0.0151524
853.030	0.0151479
853.108	0.0151164
853.186	0.0152503
853.264	0.0153446
853.342	0.0151923
853.420	0.0152242
853.498	0.0152589
853.576	0.0152586
853.655	0.0152682
853.733	0.0152595
853.811	0.0153283
853.889	0.0153126
853.967	0.0153780
854.045	0.0153518
854.123	0.0151625
854.201	0.0151904
854.280	0.0151912
854.358	0.0153452
854.436	0.0152342
854.514	0.0152979
854.592	0.0154053
854.670	0.0152724
854.748	0.0153735
854.826	0.0153325
854.905	0.0153252
854.983	0.0151801
855.061	0.0153396
855.139	0.0151778
855.217	0.0150812
855.295	0.0152960
855.373	0.0152908
855.451	0.0152510
855.530	0.0153662
855.608	0.0153371
855.686	0.0152774
855.764	0.0153733
855.842	0.0152022
855.920	0.0153464
855.998	0.0153950
856.076	0.0154543
856.155	0.0153614
856.233	0.0153861
856.311	0.0154942
856.389	0.0155160
856.467	0.0153834
856.545	0.0154446
856.623	0.0156229
856.701	0.0154646
856.780	0.0154267
856.858	0.0154250
856.936	0.0153605
857.014	0.0154758
857.092	0.0154762
857.170	0.0154660
857.248	0.0154283
857.326	0.0154740
857.405	0.0153776
857.483	0.0154041
857.561	0.0153718
857.639	0.0153333
857.717	0.0154121
857.795	0.0154224
857.873	0.0154118
857.951	0.0153097
858.030	0.0152859
858.108	0.0152996
858.186	0.0152182
858.264	0.0153583
858.342	0.0153835
858.420	0.0152983
858.498	0.0155322
858.576	0.0152895
858.655	0.0152122
858.733	0.0152470
858.811	0.0153394
858.889	0.0152968
858.967	0.0152749
859.045	0.0152462
859.123	0.0153079
859.201	0.0153377
859.280	0.0152535
859.358	0.0152985
859.436	0.0151904
859.514	0.0152132
859.592	0.0153392
859.670	0.0151412
859.748	0.0151949
859.826	0.0152096
859.905	0.0152658
859.983	0.0152437
860.061	0.0151581
860.139	0.0152464
860.217	0.0151283
860.295	0.0150818
860.373	0.0151591
860.451	0.0149809
860.530	0.0151728
860.608	0.0151725
860.686	0.0151141
860.764	0.0152016
860.842	0.0150537
860.920	0.0151200
860.998	0.0151242
861.076	0.0151489
861.155	0.0151361
861.233	0.0149843
861.311	0.0150859
861.389	0.0149622
861.467	0.0150644
861.545	0.0149878
861.623	0.0151146
861.701	0.0151473
861.780	0.0150591
861.858	0.0151426
861.936	0.0152077
862.014	0.0152586
862.092	0.0151230
862.170	0.0151772
862.248	0.0152836
862.326	0.0151658
862.405	0.0150723
862.483	0.0152502
862.561	0.0153560
862.639	0.0152081
862.717	0.0151259
862.795	0.0150432
862.873	0.0150336
862.951	0.0152290
863.030	0.0150687
863.108	0.0151527
863.186	0.0151575
863.264	0.0151518
863.342	0.0151421
863.420	0.0151417
863.498	0.0152094
863.576	0.0151389
863.655	0.0152976
863.733	0.0153137
863.811	0.0151839
863.889	0.0153574
863.967	0.0152380
864.045	0.0152728
864.123	0.0151983
864.201	0.0152521
864.280	0.0153111
864.358	0.0153791
864.436	0.0153885
864.514	0.0151914
864.592	0.0150900
864.670	0.0152647
864.748	0.0153510
864.826	0.0153381
864.905	0.0154066
864.983	0.0153672
865.061	0.0152159
865.139	0.0154102
865.217	0.0153635
865.295	0.0153307
865.373	0.0153225
865.451	0.0154205
865.530	0.0153273
865.608	0.0153529
865.686	0.0154172
865.764	0.0152643
865.842	0.0150956
865.920	0.0153059
865.998	0.0152767
866.076	0.0151959
866.155	0.0151221
866.233	0.0152827
866.311	0.0152022
866.389	0.0152815
866.467	0.0152835
866.545	0.0153355
866.623	0.0152357
866.701	0.0151933
866.780	0.0153080
866.858	0.0153873
866.936	0.0154227
867.014	0.0152156
867.092	0.0152876
867.170	0.0152379
867.248	0.0153362
867.326	0.0153334
867.405	0.0151496
867.483	0.0153065
867.561	0.0153190
867.639	0.0152664
867.717	0.0152675
867.795	0.0154029
867.873	0.0153543
867.951	0.0153960
868.030	0.0152895
868.108	0.0152646
868.186	0.0152789
868.264	0.0152916
868.342	0.0152624
868.420	0.0153408
868.498	0.0153121
868.576	0.0152611
868.655	0.0151819
868.733	0.0152431
868.811	0.0152393
868.889	0.0152104
868.967	0.0152577
869.045	0.0153035
869.123	0.0151844
869.201	0.0151612
869.280	0.0151588
869.358	0.0151441
869.436	0.0151608
869.514	0.0152074
869.592	0.0152055
869.670	0.0152637
869.748	0.0151674
869.826	0.0151598
869.905	0.0150318
869.983	0.0151653
870.061	0.0152106
870.139	0.0150604
870.217	0.0150082
870.295	0.0151878
870.373	0.0150378
870.451	0.0150775
870.530	0.0151483
870.608	0.0151141
870.686	0.0151388
870.764	0.0151227
870.842	0.0150692
870.920	0.0151274
870.998	0.0152676
871.076	0.0150953
871.155	0.0151315
871.233	0.0152753
871.311	0.0152103
871.389	0.0151292
871.467	0.0151041
871.545	0.0150877
871.623	0.0152184
871.701	0.0152163
871.780	0.0151192
871.858	0.0152758
871.936	0.0150815
872.014	0.0150355
872.092	0.0150904
872.170	0.0151443
872.248	0.0152049
872.326	0.0151398
872.405	0.0151482
872.483	0.0152374
872.561	0.0151324
872.639	0.0149481
872.717	0.0152413
872.795	0.0152611
872.873	0.0151364
872.951	0.0152201
873.030	0.0151888
873.108	0.0150378
873.186	0.0152904
873.264	0.0152623
873.342	0.0151511
873.420	0.0151913
873.498	0.0152490
873.576	0.0152969
873.655	0.0153040
873.733	0.0152614
873.811	0.0152586
873.889	0.0153141
873.967	0.0151749
874.045	0.0152803
874.123	0.0153107
874.201	0.0152712
874.280	0.0153347
874.358	0.0152805
874.436	0.0153560
874.514	0.0153157
874.592	0.0152889
874.670	0.0153573
874.748	0.0153018
874.826	0.0153077
874.905	0.0151651
874.983	0.0153515
875.061	0.0153125
875.139	0.0153327
875.217	0.0152751
875.295	0.0152490
875.373	0.0153477
875.451	0.0152085
875.530	0.0153841
875.608	0.0153841
875.686	0.0153891
875.764	0.0153302
875.842	0.0153343
875.920	0.0154128
875.998	0.0153982
876.076	0.0153123
876.155	0.0154345
876.233	0.0154133
876.311	0.0152547
876.389	0.0153474
876.467	0.0153129
876.545	0.0153873
876.623	0.0154128
876.701	0.0154022
876.780	0.0155006
876.858	0.0154350
876.936	0.0154247
877.014	0.0153877
877.092	0.0154474
877.170	0.0153915
877.248	0.0153550
877.326	0.0154077
877.405	0.0152831
877.483	0.0153175
877.561	0.0152529
877.639	0.0153953
877.717	0.0151975
877.795	0.0151342
877.873	0.0153004
877.951	0.0151671
878.030	0.0150573
878.108	0.0151848
878.186	0.0152483
878.264	0.0149777
878.342	0.0150473
878.420	0.0152218
878.498	0.0150771
878.576	0.0150622
878.655	0.0149395
878.733	0.0150166
878.811	0.0150819
878.889	0.0151366
878.967	0.0151269
879.045	0.0149856
879.123	0.0150538
879.201	0.0151608
879.280	0.0151413
879.358	0.0151755
879.436	0.0150879
879.514	0.0149963
879.592	0.0151353
879.670	0.0152003
879.748	0.0151846
879.826	0.0151469
879.905	0.0150372
879.983	0.0150092
880.061	0.0151665
880.139	0.0152473
880.217	0.0151535
880.295	0.0151144
880.373	0.0152166
880.451	0.0152813
880.530	0.0152003
880.608	0.0153284
880.686	0.0151298
880.764	0.0150967
880.842	0.0151573
880.920	0.0150859
880.998	0.0152651
881.076	0.0152981
881.155	0.0152154
881.233	0.0151020
881.311	0.0151433
881.389	0.0151853
881.467	0.0150954
881.545	0.0151960
881.623	0.0152689
881.701	0.0153133
881.780	0.0151488
881.858	0.0151884
881.936	0.0152330
882.014	0.0152821
882.092	0.0151647
882.170	0.0151414
882.248	0.0153079
882.326	0.0150948
882.405	0.0152654
882.483	0.0152851
882.561	0.0152171
882.639	0.0152693
882.717	0.0153003
882.795	0.0152069
882.873	0.0152338
882.951	0.0152930
883.030	0.0152323
883.108	0.0152179
883.186	0.0153214
883.264	0.0151914
883.342	0.0152197
883.420	0.0153218
883.498	0.0153712
883.576	0.0153223
883.655	0.0154108
883.733	0.0153376
883.811	0.0152166
883.889	0.0154394
883.967	0.0153513
884.045	0.0154184
884.123	0.0155054
884.201	0.0154598
884.280	0.0154179
884.358	0.0154767
884.436	0.0154227
884.514	0.0153898
884.592	0.0154063
884.670	0.0153471
884.748	0.0152431
884.826	0.0153938
884.905	0.0153960
884.983	0.0153513
885.061	0.0154055
885.139	0.0155192
885.217	0.0153604
885.295	0.0152967
885.373	0.0153352
885.451	0.0154781
885.530	0.0154575
885.608	0.0152856
885.686	0.0153422
885.764	0.0153239
885.842	0.0153786
885.920	0.0155048
885.998	0.0153384
886.076	0.0152753
886.155	0.0153127
886.233	0.0153465
886.311	0.0153417
886.389	0.0152370
886.467	0.0151557
886.545	0.0153807
886.623	0.0153446
886.701	0.0151615
886.780	0.0152424
886.858	0.0152016
886.936	0.0154110
887.014	0.0152406
887.092	0.0151363
887.170	0.0152386
887.248	0.0153458
887.326	0.0153178
887.405	0.0151076
887.483	0.0152391
887.561	0.0152536
887.639	0.0152713
887.717	0.0152513
887.795	0.0153025
887.873	0.0152236
887.951	0.0153578
888.030	0.0153080
888.108	0.0152295
888.186	0.0152304
888.264	0.0153094
888.342	0.0152776
888.420	0.0151991
888.498	0.0151825
888.576	0.0151820
888.655	0.0152567
888.733	0.0152151
888.811	0.0152737
888.889	0.0152112
888.967	0.0152227
889.045	0.0153294
889.123	0.0153287
889.201	0.0152037
889.280	0.0152569
889.358	0.0152472
889.436	0.0153467
889.514	0.0152301
889.592	0.0153027
889.670	0.0152656
889.748	0.0151466
889.826	0.0152544
889.905	0.0152451
889.983	0.0150705
890.061	0.0152450
890.139	0.0152480
890.217	0.0150896
890.295	0.0150949
890.373	0.0152122
890.451	0.0151135
890.530	0.0151808
890.608	0.0152416
890.686	0.0152634
890.764	0.0153172
890.842	0.0153123
890.920	0.0152499
890.998	0.0151981
891.076	0.0151837
891.155	0.0153897
891.233	0.0151888
891.311	0.0152998
891.389	0.0153431
891.467	0.0154015
891.545	0.0152213
891.623	0.0154104
891.701	0.0153676
891.780	0.0154355
891.858	0.0153126
891.936	0.0154726
892.014	0.0153426
892.092	0.0152656
892.170	0.0154267
892.248	0.0153290
892.326	0.0153751
892.405	0.0153801
892.483	0.0153572
892.561	0.0152940
892.639	0.0152589
892.717	0.0152619
892.795	0.0153490
892.873	0.0151990
892.951	0.0152837
893.030	0.0152676
893.108	0.0152128
893.186	0.0153002
893.264	0.0152451
893.342	0.0152953
893.420	0.0152183
893.498	0.0151782
893.576	0.0152498
893.655	0.0152336
893.733	0.0151891
893.811	0.0151269
893.889	0.0152150
893.967	0.0151624
894.045	0.0150733
894.123	0.0151515
894.201	0.0151828
894.280	0.0150983
894.358	0.0150337
894.436	0.0151672
894.514	0.0151797
894.592	0.0150907
894.670	0.0150992
894.748	0.0150388
894.826	0.0149763
894.905	0.0151007
894.983	0.0150856
895.061	0.0150586
895.139	0.0151627
895.217	0.0151080
895.295	0.0150666
895.373	0.0150439
895.451	0.0151728
895.530	0.0150856
895.608	0.0151036
895.686	0.0151500
895.764	0.0151003
895.842	0.0151190
895.920	0.0150959
895.998	0.0150986
896.076	0.0150447
896.155	0.0151018
896.233	0.0151719
896.311	0.0152156
896.389	0.0151107
896.467	0.0150749
896.545	0.0151762
896.623	0.0151907
896.701	0.0151426
896.780	0.0152451
896.858	0.0150845
896.936	0.0151703
897.014	0.0152338
897.092	0.0151539
897.170	0.0151723
897.248	0.0152798
897.326	0.0152632
897.405	0.0152773
897.483	0.0152663
897.561	0.0151932
897.639	0.0152026
897.717	0.0151756
897.795	0.0154216
897.873	0.0152387
897.951	0.0151555
898.030	0.0152344
898.108	0.0152431
898.186	0.0152343
898.264	0.0153162
898.342	0.0153683
898.420	0.0152895
898.498	0.0151678
898.576	0.0153088
898.655	0.0153314
898.733	0.0154250
898.811	0.0151041
898.889	0.0152360
898.967	0.0152962
899.045	0.0153639
899.123	0.0154589
899.201	0.0153545
899.280	0.0152522
899.358	0.0153791
899.436	0.0153725
899.514	0.0152731
899.592	0.0153775
899.670	0.0154249
899.748	0.0153601
899.826	0.0153106
899.905	0.0152827
899.983	0.0151497
900.061	0.0152240
900.139	0.0153323
900.217	0.0153386
900.295	0.0153190
900.373	0.0153301
900.451	0.0152759
900.530	0.0151407
900.608	0.0152122
900.686	0.0152451
900.764	0.0152295
900.842	0.0152562
900.920	0.0151797
900.998	0.0152782
901.076	0.0150547
901.155	0.0152057
901.233	0.0151623
901.311	0.0151900
901.389	0.0151495
901.467	0.0151055
901.545	0.0152862
901.623	0.0152285
901.701	0.0152593
901.780	0.0152383
901.858	0.0152247
901.936	0.0151356
902.014	0.0152451
902.092	0.0152428
902.170	0.0152646
902.248	0.0152281
902.326	0.0152467
902.405	0.0152071
902.483	0.0153196
902.561	0.0152433
902.639	0.0153013
902.717	0.0153441
902.795	0.0149659
902.873	0.0152097
902.951	0.0151855
903.030	0.0151626
903.108	0.0151244
903.186	0.0151945
903.264	0.0150740
903.342	0.0150867
903.420	0.0150341
903.498	0.0150218
903.576	0.0150866
903.655	0.0151478
903.733	0.0150198
903.811	0.0151202
903.889	0.0152506
903.967	0.0151180
904.045	0.0151988
904.123	0.0150704
904.201	0.0151157
904.280	0.0152497
904.358	0.0152466
904.436	0.0153704
904.514	0.0152985
904.592	0.0152040
904.670	0.0152055
904.748	0.0151443
904.826	0.0152209
904.905	0.0152593
904.983	0.0154407
905.061	0.0154422
905.139	0.0152828
905.217	0.0151754
905.295	0.0152402
905.373	0.0154188
905.451	0.0154066
905.530	0.0153186
905.608	0.0153306
905.686	0.0153929
905.764	0.0152863
905.842	0.0154803
905.920	0.0154205
905.998	0.0152888
906.076	0.0154150
906.155	0.0153475
906.233	0.0154388
906.311	0.0153522
906.389	0.0154792
906.467	0.0154699
906.545	0.0152537
906.623	0.0154240
906.701	0.0153575
906.780	0.0153855
906.858	0.0153734
906.936	0.0154517
907.014	0.0154053
907.092	0.0153551
907.170	0.0152845
907.248	0.0154307
907.326	0.0153280
907.405	0.0154106
907.483	0.0152997
907.561	0.0152612
907.639	0.0152632
907.717	0.0153656
907.795	0.0155300
907.873	0.0153579
907.951	0.0153235
908.030	0.0153056
908.108	0.0152734
908.186	0.0152946
908.264	0.0152696
908.342	0.0153331
908.420	0.0153909
908.498	0.0153260
908.576	0.0152669
908.655	0.0153147
908.733	0.0152975
908.811	0.0152730
908.889	0.0153049
908.967	0.0154200
909.045	0.0152457
909.123	0.0153361
909.201	0.0152911
909.280	0.0153486
909.358	0.0152818
909.436	0.0152042
909.514	0.0153616
909.592	0.0152953
909.670	0.0152453
909.748	0.0153619
909.826	0.0152376
909.905	0.0151833
909.983	0.0153560
910.061	0.0153911
910.139	0.0153387
910.217	0.0153928
910.295	0.0152133
910.373	0.0152138
910.451	0.0152930
910.530	0.0152480
910.608	0.0152548
910.686	0.0152480
910.764	0.0151352
910.842	0.0151592
910.920	0.0151763
910.998	0.0151978
911.076	0.0151328
911.155	0.0150835
911.233	0.0151324
911.311	0.0152654
911.389	0.0153036
911.467	0.0151804
911.545	0.0151722
911.623	0.0151453
911.701	0.0151856
911.780	0.0153114
911.858	0.0152171
911.936	0.0153305
912.014	0.0151870
912.092	0.0152262
912.170	0.0152695
912.248	0.0153069
912.326	0.0151004
912.405	0.0151575
912.483	0.0153424
912.561	0.0151717
912.639	0.0153355
912.717	0.0151968
912.795	0.0151962
912.873	0.0152332
912.951	0.0152245
913.030	0.0151481
913.108	0.0152623
913.186	0.0151113
913.264	0.0152586
913.342	0.0152099
913.420	0.0151184
913.498	0.0151949
913.576	0.0152102
913.655	0.0153508
913.733	0.0152467
913.811	0.0152876
913.889	0.0153605
913.967	0.0152023
914.045	0.0152350
914.123	0.0152032
914.201	0.0152415
914.280	0.0152743
914.358	0.0153687
914.436	0.0151864
914.514	0.0152795
914.592	0.0152027
914.670	0.0151411
914.748	0.0152693
914.826	0.0153050
914.905	0.0152287
914.983	0.0154005
915.061	0.0152029
915.139	0.0151803
915.217	0.0151671
915.295	0.0153474
915.373	0.0152605
915.451	0.0152113
915.530	0.0153089
915.608	0.0153288
915.686	0.0154033
915.764	0.0151732
915.842	0.0152200
915.920	0.0152995
915.998	0.0153232
916.076	0.0151516
916.155	0.0152414
916.233	0.0153014
916.311	0.0152480
916.389	0.0152922
916.467	0.0152497
916.545	0.0153117
916.623	0.0153254
916.701	0.0150800
916.780	0.0152370
916.858	0.0152416
916.936	0.0153459
917.014	0.0153976
917.092	0.0153886
917.170	0.0153696
917.248	0.0154367
917.326	0.0152750
917.405	0.0151953
917.483	0.0153302
917.561	0.0154697
917.639	0.0154649
917.717	0.0154858
917.795	0.0154279
917.873	0.0153060
917.951	0.0153088
918.030	0.0153253
918.108	0.0153482
918.186	0.0153191
918.264	0.0153433
918.342	0.0152805
918.420	0.0153236
918.498	0.0153039
918.576	0.0152198
918.655	0.0152006
918.733	0.0153136
918.811	0.0153377
918.889	0.0152451
918.967	0.0150315
919.045	0.0150412
919.123	0.0150433
919.201	0.0151009
919.280	0.0150618
919.358	0.0151471
919.436	0.0152154
919.514	0.0149549
919.592	0.0152229
919.670	0.0151601
919.748	0.0151813
919.826	0.0150339
919.905	0.0152840
919.983	0.0153751
920.061	0.0152494
920.139	0.0152252
920.217	0.0152419
920.295	0.0151971
920.373	0.0152705
920.451	0.0152140
920.530	0.0152744
920.608	0.0150980
920.686	0.0152192
920.764	0.0151546
920.842	0.0152159
920.920	0.0153679
920.998	0.0151713
921.076	0.0151359
921.155	0.0151197
921.233	0.0152267
921.311	0.0152327
921.389	0.0153365
921.467	0.0153642
921.545	0.0152514
921.623	0.0153984
921.701	0.0152994
921.780	0.0153490
921.858	0.0153127
921.936	0.0152349
922.014	0.0153028
922.092	0.0153970
922.170	0.0154000
922.248	0.0152284
922.326	0.0151801
922.405	0.0153192
922.483	0.0152924
922.561	0.0153387
922.639	0.0152694
922.717	0.0153426
922.795	0.0151891
922.873	0.0151880
922.951	0.0152457
923.030	0.0153278
923.108	0.0152904
923.186	0.0151529
923.264	0.0151311
923.342	0.0152616
923.420	0.0151621
923.498	0.0152043
923.576	0.0152769
923.655	0.0151326
923.733	0.0152076
923.811	0.0151276
923.889	0.0150137
923.967	0.0150654
924.045	0.0150197
924.123	0.0150142
924.201	0.0150051
924.280	0.0150821
924.358	0.0149840
924.436	0.0149847
924.514	0.0150957
924.592	0.0150494
924.670	0.0149639
924.748	0.0150217
924.826	0.0149350
924.905	0.0150468
924.983	0.0152160
925.061	0.0149689
925.139	0.0150871
925.217	0.0151301
925.295	0.0149805
925.373	0.0150219
925.451	0.0151569
925.530	0.0151405
925.608	0.0152469
925.686	0.0152636
925.764	0.0150866
925.842	0.0152570
925.920	0.0152940
925.998	0.0152271
926.076	0.0152805
926.155	0.0152430
926.233	0.0151799
926.311	0.0152670
926.389	0.0152992
926.467	0.0151647
926.545	0.0152831
926.623	0.0152760
926.701	0.0152357
926.780	0.0151430
926.858	0.0152631
926.936	0.0152980
927.014	0.0151943
927.092	0.0152421
927.170	0.0152448
927.248	0.0151443
927.326	0.0151272
927.405	0.0151803
927.483	0.0153281
927.561	0.0153196
927.639	0.0151921
927.717	0.0152870
927.795	0.0153837
927.873	0.0152811
927.951	0.0152592
928.030	0.0152406
928.108	0.0153864
928.186	0.0153756
928.264	0.0153283
928.342	0.0153069
928.420	0.0152204
928.498	0.0152017
928.576	0.0152781
928.655	0.0152104
928.733	0.0151547
928.811	0.0151817
928.889	0.0152634
928.967	0.0151514
929.045	0.0151077
929.123	0.0152583
929.201	0.0151540
929.280	0.0151574
929.358	0.0151613
929.436	0.0151398
929.514	0.0150697
929.592	0.0150647
929.670	0.0149969
929.748	0.0151211
929.826	0.0151131
929.905	0.0151143
929.983	0.0150690
930.061	0.0151227
930.139	0.0150501
930.217	0.0148806
930.295	0.0149039
930.373	0.0150118
930.451	0.0151991
930.530	0.0151574
930.608	0.0150342
930.686	0.0150945
930.764	0.0149667
930.842	0.0151260
930.920	0.0150278
930.998	0.0150130
931.076	0.0150755
931.155	0.0150650
931.233	0.0151718
931.311	0.0150826
931.389	0.0151044
931.467	0.0149998
931.545	0.0150249
931.623	0.0150654
931.701	0.0150266
931.780	0.0150789
931.858	0.0149879
931.936	0.0150520
932.014	0.0151125
932.092	0.0152523
932.170	0.0151109
932.248	0.0151775
932.326	0.0151035
932.405	0.0152496
932.483	0.0151791
932.561	0.0152209
932.639	0.0152922
932.717	0.0152544
932.795	0.0153096
932.873	0.0153398
932.951	0.0152032
933.030	0.0152568
933.108	0.0154045
933.186	0.0152416
933.264	0.0153123
933.342	0.0152947
933.420	0.0151746
933.498	0.0153452
933.576	0.0153744
933.655	0.0153172
933.733	0.0152836
933.811	0.0153330
933.889	0.0153886
933.967	0.0153447
934.045	0.0153646
934.123	0.0154048
934.201	0.0153190
934.280	0.0153154
934.358	0.0154378
934.436	0.0153712
934.514	0.0153072
934.592	0.0153004
934.670	0.0153414
934.748	0.0153913
934.826	0.0153437
934.905	0.0153364
934.983	0.0152983
935.061	0.0152840
935.139	0.0152334
935.217	0.0154224
935.295	0.0152322
935.373	0.0152972
935.451	0.0153139
935.530	0.0153851
935.608	0.0152471
935.686	0.0152958
935.764	0.0152442
935.842	0.0151046
935.920	0.0152540
935.998	0.0152920
936.076	0.0151719
936.155	0.0152660
936.233	0.0152171
936.311	0.0151559
936.389	0.0151935
936.467	0.0150635
936.545	0.0151108
936.623	0.0150806
936.701	0.0151241
936.780	0.0152145
936.858	0.0151543
936.936	0.0151743
937.014	0.0151296
937.092	0.0151384
937.170	0.0151649
937.248	0.0151620
937.326	0.0152259
937.405	0.0152788
937.483	0.0152928
937.561	0.0152417
937.639	0.0153532
937.717	0.0152626
937.795	0.0152120
937.873	0.0152700
937.951	0.0153239
938.030	0.0152756
938.108	0.0154375
938.186	0.0152426
938.264	0.0153223
938.342	0.0152998
938.420	0.0151102
938.498	0.0153245
938.576	0.0152664
938.655	0.0151016
938.733	0.0152840
938.811	0.0153142
938.889	0.0153038
938.967	0.0152929
939.045	0.0153287
939.123	0.0154496
939.201	0.0152006
939.280	0.0152126
939.358	0.0152371
939.436	0.0152811
939.514	0.0152582
939.592	0.0151814
939.670	0.0150992
939.748	0.0153047
939.826	0.0151735
939.905	0.0152507
939.983	0.0151311
940.061	0.0150507
940.139	0.0153329
940.217	0.0150483
940.295	0.0153107
940.373	0.0152242
940.451	0.0152802
940.530	0.0152813
940.608	0.0151389
940.686	0.0152087
940.764	0.0151636
940.842	0.0153372
940.920	0.0153510
940.998	0.0152318
941.076	0.0151576
941.155	0.0153344
941.233	0.0152150
941.311	0.0152265
941.389	0.0152683
941.467	0.0153127
941.545	0.0152941
941.623	0.0152935
941.701	0.0151940
941.780	0.0151564
941.858	0.0151347
941.936	0.0151301
942.014	0.0153339
942.092	0.0151803
942.170	0.0152408
942.248	0.0152289
942.326	0.0153407
942.405	0.0151117
942.483	0.0151638
942.561	0.0152565
942.639	0.0153977
942.717	0.0152506
942.795	0.0152065
942.873	0.0152185
942.951	0.0153574
943.030	0.0152206
943.108	0.0151169
943.186	0.0152901
943.264	0.0150831
943.342	0.0151717
943.420	0.0152848
943.498	0.0153079
943.576	0.0152615
943.655	0.0151761
943.733	0.0151808
943.811	0.0152215
943.889	0.0152729
943.967	0.0151946
944.045	0.0151727
944.123	0.0151884
944.201	0.0153316
944.280	0.0153706
944.358	0.0153723
944.436	0.0151464
944.514	0.0151772
944.592	0.0153095
944.670	0.0151836
944.748	0.0152399
944.826	0.0152405
944.905	0.0152868
944.983	0.0153042
945.061	0.0153165
945.139	0.0153489
945.217	0.0152702
945.295	0.0152903
945.373	0.0150037
945.451	0.0151919
945.530	0.0153880
945.608	0.0152856
945.686	0.0154488
945.764	0.0154547
945.842	0.0154198
945.920	0.0153918
945.998	0.0153464
946.076	0.0153545
946.155	0.0154929
946.233	0.0153387
946.311	0.0153546
946.389	0.0153589
946.467	0.0153876
946.545	0.0154000
946.623	0.0153540
946.701	0.0154604
946.780	0.0154844
946.858	0.0154251
946.936	0.0154807
947.014	0.0155470
947.092	0.0154691
947.170	0.0153728
947.248	0.0155205
947.326	0.0153481
947.405	0.0153657
947.483	0.0152628
947.561	0.0153867
947.639	0.0153130
947.717	0.0154895
947.795	0.0152700
947.873	0.0153056
947.951	0.0153332
948.030	0.0153320
948.108	0.0153051
948.186	0.0154159
948.264	0.0152731
948.342	0.0153722
948.420	0.0153975
948.498	0.0153888
948.576	0.0151952
948.655	0.0153294
948.733	0.0152658
948.811	0.0153680
948.889	0.0152538
948.967	0.0152898
949.045	0.0153723
949.123	0.0152583
949.201	0.0152502
949.280	0.0150579
949.358	0.0152287
949.436	0.0152294
949.514	0.0152862
949.592	0.0151605
949.670	0.0151543
949.748	0.0151804
949.826	0.0150997
949.905	0.0151160
949.983	0.0152559
950.061	0.0151002
950.139	0.0150403
950.217	0.0152325
950.295	0.0150588
950.373	0.0150520
950.451	0.0152244
950.530	0.0151119
950.608	0.0150928
950.686	0.0151423
950.764	0.0151701
950.842	0.0150623
950.920	0.0150624
950.998	0.0150853
951.076	0.0152037
951.155	0.0152995
951.233	0.0151977
951.311	0.0152032
951.389	0.0150729
951.467	0.0150471
951.545	0.0152959
951.623	0.0152312
951.701	0.0152132
951.780	0.0151051
951.858	0.0151273
951.936	0.0152863
952.014	0.0151638
952.092	0.0151472
952.170	0.0153344
952.248	0.0152481
952.326	0.0150673
952.405	0.0151535
952.483	0.0152618
952.561	0.0152514
952.639	0.0152103
952.717	0.0152668
952.795	0.0153057
952.873	0.0152679
952.951	0.0153468
953.030	0.0151461
953.108	0.0152976
953.186	0.0151986
953.264	0.0151473
953.342	0.0153552
953.420	0.0152807
953.498	0.0151437
953.576	0.0150927
953.655	0.0152075
953.733	0.0152821
953.811	0.0151450
953.889	0.0152361
953.967	0.0152782
954.045	0.0152261
954.123	0.0152965
954.201	0.0152524
954.280	0.0152120
954.358	0.0153857
954.436	0.0152993
954.514	0.0153867
954.592	0.0152953
954.670	0.0152832
954.748	0.0153382
954.826	0.0153451
954.905	0.0153805
954.983	0.0152168
955.061	0.0153712
955.139	0.0151700
955.217	0.0153047
955.295	0.0154253
955.373	0.0153735
955.451	0.0151907
955.530	0.0152318
955.608	0.0152497
955.686	0.0152515
955.764	0.0152592
955.842	0.0152517
955.920	0.0152360
955.998	0.0152182
956.076	0.0151112
956.155	0.0151554
956.233	0.0151887
956.311	0.0152798
956.389	0.0151507
956.467	0.0152644
956.545	0.0152227
956.623	0.0150603
956.701	0.0152128
956.780	0.0151975
956.858	0.0151538
956.936	0.0150737
957.014	0.0151266
957.092	0.0151292
957.170	0.0152655
957.248	0.0150922
957.326	0.0151655
957.405	0.0152647
957.483	0.0151482
957.561	0.0152434
957.639	0.0152547
957.717	0.0152828
957.795	0.0152432
957.873	0.0153436
957.951	0.0151978
958.030	0.0152414
958.108	0.0152686
958.186	0.0152450
958.264	0.0152755
958.342	0.0152423
958.420	0.0152255
958.498	0.0153017
958.576	0.0151930
958.655	0.0152174
958.733	0.0151833
958.811	0.0151160
958.889	0.0152138
958.967	0.0150963
959.045	0.0150581
959.123	0.0151878
959.201	0.0152348
959.280	0.0152390
959.358	0.0153056
959.436	0.0152646
959.514	0.0152599
959.592	0.0151929
959.670	0.0152975
959.748	0.0151997
959.826	0.0151656
959.905	0.0152417
