05/20/2022	17:11:24	Ver.	4.1	UNKNOWN
Optical Delay	639.982744	Delta X		0.078125	Sweeps	1	Scan Rate	0/0
Coordinates	Axis 1	NaN	Axis 2	NaN	Axis 3	NaN	Axis 4	NaN	Axis 5	NaN	Axis 6	0.000000
TX Power	0.000000	RX Power	0.000000

639.983	0.0152668
640.061	0.0153030
640.139	0.0153014
640.217	0.0152467
640.295	0.0154053
640.373	0.0153115
640.451	0.0153032
640.530	0.0153606
640.608	0.0153952
640.686	0.0154422
640.764	0.0153357
640.842	0.0155202
640.920	0.0154151
640.998	0.0153433
641.076	0.0154054
641.155	0.0154385
641.233	0.0154615
641.311	0.0153005
641.389	0.0154735
641.467	0.0153738
641.545	0.0154150
641.623	0.0155159
641.701	0.0154714
641.780	0.0153938
641.858	0.0154456
641.936	0.0153873
642.014	0.0154922
642.092	0.0154481
642.170	0.0152869
642.248	0.0152712
642.326	0.0153756
642.405	0.0154139
642.483	0.0153032
642.561	0.0154049
642.639	0.0152064
642.717	0.0152432
642.795	0.0153512
642.873	0.0152831
642.951	0.0152963
643.030	0.0152251
643.108	0.0153048
643.186	0.0152401
643.264	0.0152723
643.342	0.0152785
643.420	0.0152340
643.498	0.0152116
643.576	0.0152435
643.655	0.0152206
643.733	0.0151914
643.811	0.0151685
643.889	0.0151661
643.967	0.0151611
644.045	0.0151344
644.123	0.0152126
644.201	0.0152715
644.280	0.0150655
644.358	0.0149563
644.436	0.0150470
644.514	0.0151159
644.592	0.0151142
644.670	0.0150936
644.748	0.0150624
644.826	0.0150533
644.905	0.0149696
644.983	0.0150344
645.061	0.0151883
645.139	0.0150214
645.217	0.0150829
645.295	0.0152588
645.373	0.0151833
645.451	0.0150961
645.530	0.0150113
645.608	0.0151537
645.686	0.0150697
645.764	0.0151262
645.842	0.0150349
645.920	0.0152156
645.998	0.0149625
646.076	0.0150400
646.155	0.0150087
646.233	0.0151005
646.311	0.0151126
646.389	0.0151984
646.467	0.0151399
646.545	0.0150607
646.623	0.0151492
646.701	0.0151113
646.780	0.0151347
646.858	0.0150916
646.936	0.0149915
647.014	0.0150622
647.092	0.0149442
647.170	0.0149136
647.248	0.0150558
647.326	0.0149799
647.405	0.0149994
647.483	0.0149932
647.561	0.0148569
647.639	0.0149911
647.717	0.0149341
647.795	0.0150637
647.873	0.0149434
647.951	0.0150551
648.030	0.0151220
648.108	0.0150758
648.186	0.0150147
648.264	0.0149338
648.342	0.0150537
648.420	0.0149553
648.498	0.0149602
648.576	0.0150216
648.655	0.0150581
648.733	0.0152492
648.811	0.0150380
648.889	0.0150219
648.967	0.0150626
649.045	0.0149582
649.123	0.0149868
649.201	0.0148959
649.280	0.0150676
649.358	0.0149574
649.436	0.0150423
649.514	0.0150719
649.592	0.0150799
649.670	0.0150091
649.748	0.0149963
649.826	0.0150664
649.905	0.0150823
649.983	0.0151784
650.061	0.0150274
650.139	0.0150710
650.217	0.0151433
650.295	0.0151366
650.373	0.0150772
650.451	0.0151641
650.530	0.0150887
650.608	0.0151473
650.686	0.0152589
650.764	0.0150946
650.842	0.0151146
650.920	0.0151985
650.998	0.0150694
651.076	0.0151978
651.155	0.0149905
651.233	0.0149750
651.311	0.0150891
651.389	0.0150058
651.467	0.0151659
651.545	0.0151600
651.623	0.0152552
651.701	0.0152258
651.780	0.0150514
651.858	0.0150633
651.936	0.0152921
652.014	0.0152331
652.092	0.0151923
652.170	0.0152559
652.248	0.0151145
652.326	0.0152001
652.405	0.0153388
652.483	0.0153251
652.561	0.0153609
652.639	0.0151938
652.717	0.0153389
652.795	0.0151358
652.873	0.0152627
652.951	0.0153531
653.030	0.0154043
653.108	0.0152589
653.186	0.0153871
653.264	0.0153709
653.342	0.0154434
653.420	0.0154394
653.498	0.0153104
653.576	0.0154366
653.655	0.0153267
653.733	0.0153329
653.811	0.0153760
653.889	0.0154149
653.967	0.0153347
654.045	0.0153947
654.123	0.0153040
654.201	0.0153139
654.280	0.0153192
654.358	0.0152379
654.436	0.0153555
654.514	0.0152296
654.592	0.0151516
654.670	0.0151086
654.748	0.0152371
654.826	0.0152065
654.905	0.0154176
654.983	0.0153777
655.061	0.0153459
655.139	0.0152820
655.217	0.0153030
655.295	0.0153915
655.373	0.0153648
655.451	0.0154816
655.530	0.0155199
655.608	0.0154095
655.686	0.0154037
655.764	0.0153717
655.842	0.0155562
655.920	0.0154348
655.998	0.0153899
656.076	0.0154476
656.155	0.0153300
656.233	0.0154286
656.311	0.0153497
656.389	0.0153147
656.467	0.0153172
656.545	0.0153075
656.623	0.0150982
656.701	0.0151143
656.780	0.0150516
656.858	0.0150063
656.936	0.0151029
657.014	0.0151340
657.092	0.0150442
657.170	0.0150803
657.248	0.0150789
657.326	0.0150063
657.405	0.0150340
657.483	0.0150953
657.561	0.0151294
657.639	0.0152306
657.717	0.0151717
657.795	0.0151196
657.873	0.0150681
657.951	0.0152536
658.030	0.0150712
658.108	0.0150758
658.186	0.0151531
658.264	0.0150994
658.342	0.0151727
658.420	0.0150648
658.498	0.0150825
658.576	0.0151413
658.655	0.0150808
658.733	0.0150666
658.811	0.0151518
658.889	0.0150857
658.967	0.0151996
659.045	0.0150977
659.123	0.0150283
659.201	0.0150701
659.280	0.0150375
659.358	0.0151054
659.436	0.0150744
659.514	0.0150298
659.592	0.0149545
659.670	0.0149134
659.748	0.0149613
659.826	0.0149440
659.905	0.0149560
659.983	0.0152370
660.061	0.0150458
660.139	0.0151126
660.217	0.0152219
660.295	0.0152586
660.373	0.0152539
660.451	0.0152119
660.530	0.0152433
660.608	0.0153809
660.686	0.0153806
660.764	0.0152940
660.842	0.0154185
660.920	0.0152062
660.998	0.0152324
661.076	0.0153645
661.155	0.0152532
661.233	0.0151024
661.311	0.0153381
661.389	0.0151093
661.467	0.0151234
661.545	0.0151376
661.623	0.0151482
661.701	0.0151692
661.780	0.0151176
661.858	0.0151361
661.936	0.0151318
662.014	0.0151843
662.092	0.0152765
662.170	0.0152371
662.248	0.0154552
662.326	0.0154014
662.405	0.0154252
662.483	0.0155147
662.561	0.0155611
662.639	0.0155201
662.717	0.0156020
662.795	0.0154521
662.873	0.0154917
662.951	0.0154952
663.030	0.0154292
663.108	0.0155285
663.186	0.0155306
663.264	0.0156207
663.342	0.0154639
663.420	0.0155580
663.498	0.0154734
663.576	0.0154099
663.655	0.0155842
663.733	0.0153564
663.811	0.0152795
663.889	0.0154383
663.967	0.0153690
664.045	0.0152921
664.123	0.0152103
664.201	0.0150256
664.280	0.0150686
664.358	0.0150907
664.436	0.0149235
664.514	0.0149953
664.592	0.0148826
664.670	0.0148000
664.748	0.0150143
664.826	0.0149746
664.905	0.0147665
664.983	0.0148839
665.061	0.0149202
665.139	0.0149538
665.217	0.0148280
665.295	0.0147495
665.373	0.0147781
665.451	0.0147488
665.530	0.0148646
665.608	0.0148218
665.686	0.0147706
665.764	0.0147945
665.842	0.0148390
665.920	0.0148125
665.998	0.0149864
666.076	0.0149232
666.155	0.0149314
666.233	0.0149942
666.311	0.0150227
666.389	0.0150287
666.467	0.0152674
666.545	0.0152840
666.623	0.0153075
666.701	0.0153638
666.780	0.0154524
666.858	0.0153907
666.936	0.0155276
667.014	0.0155594
667.092	0.0156538
667.170	0.0157881
667.248	0.0158370
667.326	0.0158026
667.405	0.0158990
667.483	0.0159289
667.561	0.0159848
667.639	0.0158411
667.717	0.0158589
667.795	0.0159605
667.873	0.0159477
667.951	0.0157887
668.030	0.0158028
668.108	0.0157369
668.186	0.0155639
668.264	0.0155066
668.342	0.0154581
668.420	0.0153137
668.498	0.0152227
668.576	0.0151879
668.655	0.0151520
668.733	0.0149659
668.811	0.0147973
668.889	0.0146770
668.967	0.0145467
669.045	0.0145989
669.123	0.0144307
669.201	0.0143076
669.280	0.0141307
669.358	0.0142171
669.436	0.0141533
669.514	0.0141669
669.592	0.0141190
669.670	0.0141141
669.748	0.0140673
669.826	0.0142184
669.905	0.0141558
669.983	0.0141337
670.061	0.0142889
670.139	0.0143406
670.217	0.0144134
670.295	0.0144854
670.373	0.0146211
670.451	0.0148028
670.530	0.0148921
670.608	0.0149192
670.686	0.0150024
670.764	0.0152271
670.842	0.0153542
670.920	0.0155293
670.998	0.0155664
671.076	0.0154456
671.155	0.0157874
671.233	0.0159280
671.311	0.0159258
671.389	0.0160303
671.467	0.0160626
671.545	0.0161068
671.623	0.0162414
671.701	0.0161930
671.780	0.0162107
671.858	0.0161835
671.936	0.0163795
672.014	0.0163962
672.092	0.0162230
672.170	0.0160790
672.248	0.0159415
672.326	0.0160661
672.405	0.0161742
672.483	0.0159315
672.561	0.0158688
672.639	0.0159296
672.717	0.0157577
672.795	0.0157299
672.873	0.0155610
672.951	0.0154759
673.030	0.0154420
673.108	0.0153699
673.186	0.0151689
673.264	0.0150350
673.342	0.0150069
673.420	0.0149635
673.498	0.0147338
673.576	0.0145762
673.655	0.0146445
673.733	0.0145171
673.811	0.0143284
673.889	0.0142185
673.967	0.0142107
674.045	0.0142644
674.123	0.0140122
674.201	0.0140878
674.280	0.0139714
674.358	0.0139830
674.436	0.0139520
674.514	0.0138987
674.592	0.0140655
674.670	0.0140443
674.748	0.0141994
674.826	0.0141330
674.905	0.0141848
674.983	0.0143366
675.061	0.0143977
675.139	0.0147472
675.217	0.0146630
675.295	0.0148750
675.373	0.0151625
675.451	0.0154480
675.530	0.0156029
675.608	0.0156411
675.686	0.0157804
675.764	0.0158725
675.842	0.0161407
675.920	0.0161019
675.998	0.0161560
676.076	0.0163082
676.155	0.0163795
676.233	0.0164938
676.311	0.0163869
676.389	0.0163905
676.467	0.0163986
676.545	0.0164986
676.623	0.0164447
676.701	0.0162830
676.780	0.0161142
676.858	0.0160606
676.936	0.0160098
677.014	0.0158621
677.092	0.0158190
677.170	0.0157162
677.248	0.0155636
677.326	0.0154127
677.405	0.0153878
677.483	0.0151687
677.561	0.0151904
677.639	0.0149615
677.717	0.0148270
677.795	0.0148277
677.873	0.0147902
677.951	0.0146843
678.030	0.0147179
678.108	0.0145933
678.186	0.0145708
678.264	0.0145139
678.342	0.0144610
678.420	0.0143992
678.498	0.0143258
678.576	0.0142025
678.655	0.0142190
678.733	0.0142721
678.811	0.0142248
678.889	0.0141946
678.967	0.0143478
679.045	0.0143704
679.123	0.0144324
679.201	0.0144864
679.280	0.0146125
679.358	0.0146420
679.436	0.0147849
679.514	0.0147633
679.592	0.0149308
679.670	0.0149982
679.748	0.0150157
679.826	0.0150798
679.905	0.0151395
679.983	0.0150417
680.061	0.0152621
680.139	0.0152502
680.217	0.0152534
680.295	0.0152583
680.373	0.0151585
680.451	0.0152534
680.530	0.0151573
680.608	0.0150718
680.686	0.0151797
680.764	0.0152833
680.842	0.0150818
680.920	0.0151328
680.998	0.0152132
681.076	0.0149832
681.155	0.0149511
681.233	0.0150592
681.311	0.0150991
681.389	0.0150340
681.467	0.0150039
681.545	0.0149615
681.623	0.0150008
681.701	0.0149331
681.780	0.0150558
681.858	0.0151785
681.936	0.0151035
682.014	0.0152426
682.092	0.0153508
682.170	0.0152975
682.248	0.0153153
682.326	0.0156023
682.405	0.0156161
682.483	0.0156826
682.561	0.0157036
682.639	0.0157704
682.717	0.0159724
682.795	0.0159825
682.873	0.0160928
682.951	0.0161375
683.030	0.0159819
683.108	0.0159482
683.186	0.0161536
683.264	0.0160487
683.342	0.0159519
683.420	0.0160469
683.498	0.0159803
683.576	0.0157991
683.655	0.0158032
683.733	0.0157259
683.811	0.0157114
683.889	0.0155084
683.967	0.0152802
684.045	0.0152548
684.123	0.0152813
684.201	0.0152245
684.280	0.0149878
684.358	0.0148676
684.436	0.0147903
684.514	0.0147124
684.592	0.0145322
684.670	0.0144453
684.748	0.0142570
684.826	0.0142696
684.905	0.0143484
684.983	0.0144106
685.061	0.0142886
685.139	0.0143135
685.217	0.0142832
685.295	0.0144247
685.373	0.0144774
685.451	0.0145386
685.530	0.0145947
685.608	0.0146566
685.686	0.0145757
685.764	0.0147386
685.842	0.0149657
685.920	0.0148840
685.998	0.0149940
686.076	0.0149942
686.155	0.0150222
686.233	0.0151160
686.311	0.0151726
686.389	0.0152686
686.467	0.0151396
686.545	0.0152474
686.623	0.0153547
686.701	0.0155625
686.780	0.0154687
686.858	0.0155788
686.936	0.0156132
687.014	0.0156612
687.092	0.0156671
687.170	0.0156256
687.248	0.0157843
687.326	0.0158086
687.405	0.0157941
687.483	0.0157349
687.561	0.0158039
687.639	0.0158059
687.717	0.0158769
687.795	0.0159055
687.873	0.0157451
687.951	0.0158968
688.030	0.0157694
688.108	0.0158054
688.186	0.0157079
688.264	0.0155363
688.342	0.0155571
688.420	0.0155313
688.498	0.0155798
688.576	0.0154148
688.655	0.0154400
688.733	0.0154742
688.811	0.0153856
688.889	0.0153004
688.967	0.0151639
689.045	0.0153191
689.123	0.0153477
689.201	0.0151446
689.280	0.0150197
689.358	0.0152164
689.436	0.0151781
689.514	0.0151323
689.592	0.0151832
689.670	0.0151782
689.748	0.0151494
689.826	0.0152032
689.905	0.0151385
689.983	0.0151752
690.061	0.0151234
690.139	0.0150747
690.217	0.0150941
690.295	0.0150122
690.373	0.0150631
690.451	0.0150842
690.530	0.0149731
690.608	0.0150270
690.686	0.0148993
690.764	0.0147620
690.842	0.0147990
690.920	0.0147585
690.998	0.0147264
691.076	0.0145459
691.155	0.0144011
691.233	0.0145306
691.311	0.0144007
691.389	0.0141853
691.467	0.0143672
691.545	0.0143826
691.623	0.0142814
691.701	0.0142334
691.780	0.0141181
691.858	0.0144395
691.936	0.0143826
692.014	0.0144330
692.092	0.0144746
692.170	0.0146295
692.248	0.0146913
692.326	0.0147861
692.405	0.0149340
692.483	0.0151949
692.561	0.0152705
692.639	0.0154017
692.717	0.0155898
692.795	0.0157100
692.873	0.0158540
692.951	0.0160181
693.030	0.0160618
693.108	0.0161290
693.186	0.0163081
693.264	0.0164649
693.342	0.0164323
693.420	0.0163575
693.498	0.0162936
693.576	0.0164543
693.655	0.0164754
693.733	0.0164657
693.811	0.0164461
693.889	0.0165507
693.967	0.0164908
694.045	0.0163709
694.123	0.0163959
694.201	0.0162422
694.280	0.0160973
694.358	0.0161242
694.436	0.0160513
694.514	0.0159752
694.592	0.0159042
694.670	0.0158305
694.748	0.0157182
694.826	0.0153891
694.905	0.0153443
694.983	0.0152338
695.061	0.0150966
695.139	0.0149603
695.217	0.0148075
695.295	0.0145744
695.373	0.0145583
695.451	0.0143742
695.530	0.0140918
695.608	0.0141789
695.686	0.0140250
695.764	0.0138947
695.842	0.0138466
695.920	0.0138207
695.998	0.0138157
696.076	0.0136616
696.155	0.0138190
696.233	0.0139926
696.311	0.0139853
696.389	0.0139753
696.467	0.0142110
696.545	0.0143746
696.623	0.0142852
696.701	0.0144757
696.780	0.0146159
696.858	0.0146997
696.936	0.0149497
697.014	0.0149292
697.092	0.0149895
697.170	0.0150089
697.248	0.0150322
697.326	0.0151872
697.405	0.0152383
697.483	0.0153899
697.561	0.0153756
697.639	0.0154401
697.717	0.0155660
697.795	0.0156834
697.873	0.0157756
697.951	0.0157590
698.030	0.0159377
698.108	0.0160181
698.186	0.0161176
698.264	0.0161976
698.342	0.0161871
698.420	0.0161324
698.498	0.0161378
698.576	0.0161082
698.655	0.0160390
698.733	0.0158769
698.811	0.0158885
698.889	0.0157639
698.967	0.0155350
699.045	0.0153858
699.123	0.0153442
699.201	0.0152349
699.280	0.0151374
699.358	0.0151839
699.436	0.0150165
699.514	0.0150609
699.592	0.0148866
699.670	0.0149921
699.748	0.0150079
699.826	0.0148905
699.905	0.0148610
699.983	0.0150779
700.061	0.0149949
700.139	0.0150835
700.217	0.0151109
700.295	0.0150483
700.373	0.0149989
700.451	0.0151108
700.530	0.0150262
700.608	0.0149523
700.686	0.0151711
700.764	0.0150069
700.842	0.0151196
700.920	0.0150559
700.998	0.0150965
701.076	0.0151528
701.155	0.0152193
701.233	0.0151771
701.311	0.0149980
701.389	0.0150331
701.467	0.0150410
701.545	0.0148436
701.623	0.0149773
701.701	0.0148918
701.780	0.0148028
701.858	0.0147453
701.936	0.0147212
702.014	0.0146712
702.092	0.0146799
702.170	0.0145216
702.248	0.0145267
702.326	0.0144589
702.405	0.0143697
702.483	0.0144036
702.561	0.0143610
702.639	0.0145779
702.717	0.0146204
702.795	0.0148410
702.873	0.0148818
702.951	0.0149030
703.030	0.0150791
703.108	0.0152811
703.186	0.0152423
703.264	0.0155086
703.342	0.0157330
703.420	0.0155813
703.498	0.0156873
703.576	0.0160113
703.655	0.0158241
703.733	0.0159296
703.811	0.0158871
703.889	0.0160399
703.967	0.0159668
704.045	0.0159047
704.123	0.0161202
704.201	0.0160031
704.280	0.0160012
704.358	0.0159653
704.436	0.0160201
704.514	0.0160300
704.592	0.0159649
704.670	0.0157797
704.748	0.0158440
704.826	0.0158739
704.905	0.0158083
704.983	0.0157509
705.061	0.0157227
705.139	0.0156392
705.217	0.0154808
705.295	0.0155293
705.373	0.0155075
705.451	0.0154705
705.530	0.0153721
705.608	0.0153915
705.686	0.0152968
705.764	0.0154563
705.842	0.0153172
705.920	0.0153923
705.998	0.0153419
706.076	0.0152588
706.155	0.0153854
706.233	0.0151842
706.311	0.0152623
706.389	0.0149996
706.467	0.0150656
706.545	0.0149677
706.623	0.0148083
706.701	0.0148409
706.780	0.0147076
706.858	0.0147113
706.936	0.0146124
707.014	0.0146152
707.092	0.0147395
707.170	0.0145465
707.248	0.0145623
707.326	0.0146709
707.405	0.0146991
707.483	0.0147733
707.561	0.0146670
707.639	0.0146294
707.717	0.0147791
707.795	0.0149691
707.873	0.0148512
707.951	0.0148547
708.030	0.0149355
708.108	0.0149651
708.186	0.0150342
708.264	0.0152563
708.342	0.0152466
708.420	0.0153287
708.498	0.0154027
708.576	0.0155833
708.655	0.0155530
708.733	0.0156043
708.811	0.0157031
708.889	0.0157901
708.967	0.0157858
709.045	0.0157684
709.123	0.0158652
709.201	0.0159148
709.280	0.0157735
709.358	0.0158668
709.436	0.0158615
709.514	0.0157147
709.592	0.0157029
709.670	0.0157511
709.748	0.0154804
709.826	0.0152608
709.905	0.0153223
709.983	0.0151476
710.061	0.0150562
710.139	0.0150180
710.217	0.0150052
710.295	0.0149702
710.373	0.0149567
710.451	0.0149751
710.530	0.0150452
710.608	0.0148107
710.686	0.0148509
710.764	0.0149815
710.842	0.0150312
710.920	0.0148763
710.998	0.0149879
711.076	0.0151522
711.155	0.0150677
711.233	0.0149596
711.311	0.0150307
711.389	0.0151591
711.467	0.0150610
711.545	0.0152321
711.623	0.0149809
711.701	0.0149065
711.780	0.0150838
711.858	0.0149712
711.936	0.0149919
712.014	0.0150677
712.092	0.0149065
712.170	0.0148045
712.248	0.0149531
712.326	0.0148409
712.405	0.0147939
712.483	0.0148735
712.561	0.0149040
712.639	0.0148829
712.717	0.0149825
712.795	0.0147085
712.873	0.0149792
712.951	0.0150318
713.030	0.0150639
713.108	0.0151501
713.186	0.0151956
713.264	0.0153348
713.342	0.0155558
713.420	0.0156597
713.498	0.0157117
713.576	0.0159274
713.655	0.0159585
713.733	0.0159863
713.811	0.0161556
713.889	0.0161191
713.967	0.0159535
714.045	0.0160776
714.123	0.0161243
714.201	0.0161886
714.280	0.0161235
714.358	0.0160065
714.436	0.0158963
714.514	0.0159305
714.592	0.0159288
714.670	0.0159409
714.748	0.0156621
714.826	0.0155495
714.905	0.0155081
714.983	0.0153412
715.061	0.0153761
715.139	0.0151214
715.217	0.0151463
715.295	0.0149653
715.373	0.0149433
715.451	0.0148367
715.530	0.0146636
715.608	0.0146816
715.686	0.0146656
715.764	0.0145228
715.842	0.0145515
715.920	0.0147108
715.998	0.0145271
716.076	0.0147027
716.155	0.0147673
716.233	0.0147100
716.311	0.0148444
716.389	0.0149061
716.467	0.0149929
716.545	0.0151182
716.623	0.0151653
716.701	0.0151616
716.780	0.0151173
716.858	0.0152031
716.936	0.0153120
717.014	0.0151306
717.092	0.0150256
717.170	0.0151065
717.248	0.0152341
717.326	0.0150878
717.405	0.0151355
717.483	0.0149867
717.561	0.0150733
717.639	0.0150137
717.717	0.0149857
717.795	0.0150521
717.873	0.0150298
717.951	0.0150716
718.030	0.0152094
718.108	0.0152469
718.186	0.0153320
718.264	0.0154349
718.342	0.0153160
718.420	0.0154106
718.498	0.0156487
718.576	0.0156306
718.655	0.0157666
718.733	0.0158349
718.811	0.0157594
718.889	0.0159122
718.967	0.0158677
719.045	0.0158819
719.123	0.0159560
719.201	0.0159611
719.280	0.0159985
719.358	0.0158624
719.436	0.0160252
719.514	0.0160145
719.592	0.0157527
719.670	0.0156809
719.748	0.0156577
719.826	0.0156030
719.905	0.0155785
719.983	0.0157023
720.061	0.0154375
720.139	0.0153952
720.217	0.0152124
720.295	0.0151816
720.373	0.0150368
720.451	0.0151242
720.530	0.0149769
720.608	0.0148402
720.686	0.0147591
720.764	0.0146798
720.842	0.0146943
720.920	0.0146043
720.998	0.0145959
721.076	0.0146478
721.155	0.0147432
721.233	0.0146884
721.311	0.0146954
721.389	0.0148566
721.467	0.0148180
721.545	0.0148519
721.623	0.0148739
721.701	0.0150510
721.780	0.0149415
721.858	0.0150420
721.936	0.0150581
722.014	0.0150773
722.092	0.0150574
722.170	0.0150835
722.248	0.0149153
722.326	0.0150800
722.405	0.0149951
722.483	0.0149972
722.561	0.0149368
722.639	0.0150058
722.717	0.0150097
722.795	0.0149438
722.873	0.0150742
722.951	0.0151214
723.030	0.0150624
723.108	0.0150249
723.186	0.0150640
723.264	0.0150674
723.342	0.0148909
723.420	0.0150659
723.498	0.0148412
723.576	0.0149023
723.655	0.0150255
723.733	0.0149281
723.811	0.0148302
723.889	0.0149353
723.967	0.0149028
724.045	0.0149155
724.123	0.0148951
724.201	0.0148013
724.280	0.0149327
724.358	0.0151060
724.436	0.0148357
724.514	0.0150433
724.592	0.0150998
724.670	0.0151452
724.748	0.0151844
724.826	0.0151726
724.905	0.0152979
724.983	0.0153163
725.061	0.0153270
725.139	0.0155828
725.217	0.0155472
725.295	0.0154765
725.373	0.0154929
725.451	0.0154928
725.530	0.0156116
725.608	0.0157226
725.686	0.0156779
725.764	0.0155478
725.842	0.0157136
725.920	0.0157042
725.998	0.0156610
726.076	0.0155816
726.155	0.0158152
726.233	0.0156683
726.311	0.0155125
726.389	0.0156527
726.467	0.0155514
726.545	0.0155308
726.623	0.0155679
726.701	0.0153180
726.780	0.0152943
726.858	0.0152482
726.936	0.0150323
727.014	0.0150377
727.092	0.0149246
727.170	0.0148113
727.248	0.0146868
727.326	0.0146748
727.405	0.0145482
727.483	0.0145441
727.561	0.0145995
727.639	0.0144574
727.717	0.0144987
727.795	0.0143469
727.873	0.0144390
727.951	0.0145988
728.030	0.0146991
728.108	0.0146678
728.186	0.0149092
728.264	0.0149451
728.342	0.0149004
728.420	0.0150783
728.498	0.0151346
728.576	0.0152097
728.655	0.0152534
728.733	0.0154432
728.811	0.0154023
728.889	0.0153724
728.967	0.0156047
729.045	0.0155345
729.123	0.0155805
729.201	0.0156187
729.280	0.0155994
729.358	0.0157278
729.436	0.0158011
729.514	0.0159364
729.592	0.0159043
729.670	0.0160155
729.748	0.0158765
729.826	0.0159614
729.905	0.0159921
729.983	0.0159277
730.061	0.0159765
730.139	0.0158659
730.217	0.0157703
730.295	0.0159117
730.373	0.0157093
730.451	0.0155534
730.530	0.0155729
730.608	0.0155095
730.686	0.0152552
730.764	0.0152705
730.842	0.0151796
730.920	0.0151023
730.998	0.0151109
731.076	0.0149718
731.155	0.0149543
731.233	0.0147271
731.311	0.0146576
731.389	0.0148336
731.467	0.0147627
731.545	0.0148654
731.623	0.0146580
731.701	0.0148507
731.780	0.0147111
731.858	0.0147504
731.936	0.0146835
732.014	0.0146884
732.092	0.0147771
732.170	0.0147472
732.248	0.0148138
732.326	0.0150536
732.405	0.0150826
732.483	0.0152354
732.561	0.0152551
732.639	0.0154154
732.717	0.0154641
732.795	0.0153403
732.873	0.0154980
732.951	0.0156037
733.030	0.0157670
733.108	0.0158137
733.186	0.0157562
733.264	0.0158689
733.342	0.0156323
733.420	0.0157800
733.498	0.0159696
733.576	0.0157308
733.655	0.0157281
733.733	0.0156853
733.811	0.0156516
733.889	0.0156149
733.967	0.0156400
734.045	0.0155898
734.123	0.0153819
734.201	0.0153260
734.280	0.0152320
734.358	0.0153546
734.436	0.0151308
734.514	0.0150529
734.592	0.0150319
734.670	0.0150883
734.748	0.0147807
734.826	0.0148143
734.905	0.0147919
734.983	0.0146647
735.061	0.0147396
735.139	0.0146813
735.217	0.0147165
735.295	0.0145884
735.373	0.0145345
735.451	0.0146532
735.530	0.0146701
735.608	0.0148641
735.686	0.0147832
735.764	0.0149723
735.842	0.0151255
735.920	0.0151508
735.998	0.0152058
736.076	0.0151380
736.155	0.0153510
736.233	0.0153168
736.311	0.0154260
736.389	0.0154466
736.467	0.0154369
736.545	0.0155290
736.623	0.0155917
736.701	0.0156525
736.780	0.0156068
736.858	0.0156461
736.936	0.0156394
737.014	0.0156112
737.092	0.0155480
737.170	0.0156333
737.248	0.0155046
737.326	0.0155090
737.405	0.0156451
737.483	0.0156448
737.561	0.0154982
737.639	0.0153287
737.717	0.0155605
737.795	0.0154796
737.873	0.0153074
737.951	0.0154340
738.030	0.0153551
738.108	0.0153344
738.186	0.0153675
738.264	0.0153442
738.342	0.0152448
738.420	0.0152500
738.498	0.0150470
738.576	0.0150162
738.655	0.0151096
738.733	0.0150014
738.811	0.0148470
738.889	0.0148412
738.967	0.0145940
739.045	0.0146932
739.123	0.0147578
739.201	0.0146544
739.280	0.0147009
739.358	0.0148230
739.436	0.0147433
739.514	0.0148547
739.592	0.0148723
739.670	0.0148458
739.748	0.0149005
739.826	0.0149895
739.905	0.0150991
739.983	0.0148811
740.061	0.0150934
740.139	0.0151092
740.217	0.0152078
740.295	0.0151552
740.373	0.0151892
740.451	0.0153339
740.530	0.0153268
740.608	0.0153831
740.686	0.0153709
740.764	0.0152711
740.842	0.0153182
740.920	0.0152062
740.998	0.0154427
741.076	0.0154131
741.155	0.0152724
741.233	0.0152242
741.311	0.0153685
741.389	0.0151926
741.467	0.0151016
741.545	0.0151511
741.623	0.0151076
741.701	0.0150890
741.780	0.0151147
741.858	0.0149853
741.936	0.0149525
742.014	0.0148132
742.092	0.0148539
742.170	0.0148265
742.248	0.0147633
742.326	0.0147906
742.405	0.0148124
742.483	0.0147225
742.561	0.0147573
742.639	0.0147540
742.717	0.0148483
742.795	0.0148804
742.873	0.0149117
742.951	0.0148933
743.030	0.0148755
743.108	0.0150493
743.186	0.0150251
743.264	0.0149436
743.342	0.0151115
743.420	0.0150505
743.498	0.0153083
743.576	0.0152137
743.655	0.0154153
743.733	0.0154549
743.811	0.0153952
743.889	0.0154309
743.967	0.0154623
744.045	0.0154756
744.123	0.0155202
744.201	0.0155464
744.280	0.0154993
744.358	0.0156323
744.436	0.0154848
744.514	0.0153868
744.592	0.0154181
744.670	0.0155090
744.748	0.0154869
744.826	0.0154100
744.905	0.0153547
744.983	0.0153382
745.061	0.0153299
745.139	0.0153176
745.217	0.0153129
745.295	0.0150705
745.373	0.0152139
745.451	0.0151772
745.530	0.0150677
745.608	0.0151836
745.686	0.0150446
745.764	0.0150850
745.842	0.0151919
745.920	0.0150213
745.998	0.0150179
746.076	0.0149152
746.155	0.0150043
746.233	0.0151734
746.311	0.0151543
746.389	0.0150353
746.467	0.0150951
746.545	0.0151191
746.623	0.0151062
746.701	0.0151676
746.780	0.0151466
746.858	0.0150347
746.936	0.0153181
747.014	0.0152422
747.092	0.0152314
747.170	0.0153786
747.248	0.0154210
747.326	0.0156351
747.405	0.0154737
747.483	0.0156866
747.561	0.0157935
747.639	0.0156815
747.717	0.0156828
747.795	0.0159115
747.873	0.0158518
747.951	0.0156985
748.030	0.0157355
748.108	0.0156409
748.186	0.0156589
748.264	0.0156416
748.342	0.0157500
748.420	0.0157442
748.498	0.0155761
748.576	0.0157061
748.655	0.0155410
748.733	0.0156933
748.811	0.0155878
748.889	0.0155161
748.967	0.0156049
749.045	0.0154576
749.123	0.0154558
749.201	0.0154895
749.280	0.0154558
749.358	0.0152939
749.436	0.0152409
749.514	0.0152789
749.592	0.0150629
749.670	0.0150391
749.748	0.0150929
749.826	0.0149158
749.905	0.0149707
749.983	0.0149476
750.061	0.0148794
750.139	0.0149517
750.217	0.0148602
750.295	0.0149747
750.373	0.0148349
750.451	0.0148866
750.530	0.0148404
750.608	0.0147954
750.686	0.0149364
750.764	0.0150676
750.842	0.0150867
750.920	0.0150672
750.998	0.0151797
751.076	0.0151778
751.155	0.0150896
751.233	0.0150824
751.311	0.0150864
751.389	0.0151530
751.467	0.0153223
751.545	0.0152275
751.623	0.0151937
751.701	0.0152515
751.780	0.0152541
751.858	0.0152936
751.936	0.0150797
752.014	0.0151806
752.092	0.0152825
752.170	0.0151563
752.248	0.0150410
752.326	0.0150661
752.405	0.0152046
752.483	0.0151598
752.561	0.0150734
752.639	0.0149362
752.717	0.0149934
752.795	0.0151364
752.873	0.0149093
752.951	0.0150700
753.030	0.0149564
753.108	0.0151243
753.186	0.0150479
753.264	0.0150558
753.342	0.0152183
753.420	0.0150881
753.498	0.0152924
753.576	0.0151854
753.655	0.0151025
753.733	0.0151643
753.811	0.0151122
753.889	0.0152048
753.967	0.0151705
754.045	0.0153281
754.123	0.0151086
754.201	0.0152589
754.280	0.0152467
754.358	0.0151437
754.436	0.0152934
754.514	0.0152956
754.592	0.0150608
754.670	0.0151894
754.748	0.0151887
754.826	0.0151778
754.905	0.0152673
754.983	0.0151765
755.061	0.0151417
755.139	0.0152287
755.217	0.0152338
755.295	0.0151766
755.373	0.0151933
755.451	0.0153193
755.530	0.0151573
755.608	0.0152111
755.686	0.0151324
755.764	0.0152565
755.842	0.0152538
755.920	0.0152233
755.998	0.0152582
756.076	0.0152991
756.155	0.0153124
756.233	0.0152960
756.311	0.0154499
756.389	0.0153773
756.467	0.0152143
756.545	0.0154315
756.623	0.0154690
756.701	0.0153174
756.780	0.0152793
756.858	0.0153838
756.936	0.0152498
757.014	0.0154494
757.092	0.0152190
757.170	0.0150645
757.248	0.0151672
757.326	0.0151460
757.405	0.0150756
757.483	0.0149074
757.561	0.0149004
757.639	0.0149249
757.717	0.0149148
757.795	0.0148263
757.873	0.0146608
757.951	0.0148780
758.030	0.0148869
758.108	0.0148182
758.186	0.0149208
758.264	0.0149268
758.342	0.0149011
758.420	0.0149815
758.498	0.0150758
758.576	0.0151619
758.655	0.0152046
758.733	0.0152345
758.811	0.0152426
758.889	0.0151849
758.967	0.0152737
759.045	0.0153703
759.123	0.0151450
759.201	0.0153899
759.280	0.0152921
759.358	0.0154166
759.436	0.0153064
759.514	0.0153116
759.592	0.0155119
759.670	0.0154928
759.748	0.0154836
759.826	0.0154251
759.905	0.0153101
759.983	0.0154743
760.061	0.0154933
760.139	0.0153327
760.217	0.0153030
760.295	0.0153517
760.373	0.0152715
760.451	0.0152953
760.530	0.0152047
760.608	0.0151892
760.686	0.0153409
760.764	0.0152303
760.842	0.0151072
760.920	0.0151137
760.998	0.0151682
761.076	0.0150755
761.155	0.0151993
761.233	0.0151155
761.311	0.0150981
761.389	0.0149796
761.467	0.0149368
761.545	0.0149689
761.623	0.0149745
761.701	0.0149262
761.780	0.0149763
761.858	0.0149323
761.936	0.0148759
762.014	0.0148019
762.092	0.0148268
762.170	0.0149015
762.248	0.0148426
762.326	0.0149301
762.405	0.0149718
762.483	0.0148846
762.561	0.0148471
762.639	0.0148049
762.717	0.0148141
762.795	0.0149961
762.873	0.0148500
762.951	0.0150356
763.030	0.0148684
763.108	0.0148726
763.186	0.0149584
763.264	0.0148238
763.342	0.0148968
763.420	0.0151273
763.498	0.0150363
763.576	0.0151337
763.655	0.0151720
763.733	0.0152853
763.811	0.0152567
763.889	0.0152238
763.967	0.0152530
764.045	0.0152732
764.123	0.0153272
764.201	0.0155023
764.280	0.0156783
764.358	0.0152086
764.436	0.0154519
764.514	0.0153973
764.592	0.0153217
764.670	0.0153848
764.748	0.0153148
764.826	0.0152603
764.905	0.0152407
764.983	0.0152694
765.061	0.0152991
765.139	0.0149755
765.217	0.0150124
765.295	0.0149809
765.373	0.0149994
765.451	0.0149177
765.530	0.0149213
765.608	0.0149021
765.686	0.0149933
765.764	0.0148447
765.842	0.0148875
765.920	0.0148483
765.998	0.0149331
766.076	0.0148444
766.155	0.0151026
766.233	0.0149408
766.311	0.0150062
766.389	0.0149155
766.467	0.0149947
766.545	0.0150325
766.623	0.0150729
766.701	0.0150820
766.780	0.0150785
766.858	0.0150149
766.936	0.0150272
767.014	0.0151029
767.092	0.0150471
767.170	0.0151127
767.248	0.0150986
767.326	0.0150975
767.405	0.0150846
767.483	0.0151564
767.561	0.0152180
767.639	0.0151122
767.717	0.0151888
767.795	0.0151191
767.873	0.0153659
767.951	0.0152915
768.030	0.0152787
768.108	0.0152978
768.186	0.0153508
768.264	0.0152689
768.342	0.0153009
768.420	0.0154749
768.498	0.0154923
768.576	0.0154272
768.655	0.0153699
768.733	0.0155555
768.811	0.0154865
768.889	0.0154147
768.967	0.0154862
769.045	0.0153897
769.123	0.0155001
769.201	0.0154278
769.280	0.0155194
769.358	0.0153289
769.436	0.0153593
769.514	0.0155007
769.592	0.0152452
769.670	0.0152408
769.748	0.0151469
769.826	0.0152482
769.905	0.0151585
769.983	0.0151610
770.061	0.0150809
770.139	0.0152576
770.217	0.0150471
770.295	0.0149983
770.373	0.0150324
770.451	0.0149604
770.530	0.0150213
770.608	0.0150031
770.686	0.0150370
770.764	0.0149971
770.842	0.0150123
770.920	0.0150047
770.998	0.0149824
771.076	0.0149964
771.155	0.0150264
771.233	0.0149708
771.311	0.0151209
771.389	0.0151387
771.467	0.0149857
771.545	0.0151301
771.623	0.0151920
771.701	0.0153385
771.780	0.0153560
771.858	0.0152453
771.936	0.0152898
772.014	0.0152670
772.092	0.0152824
772.170	0.0154727
772.248	0.0155336
772.326	0.0155453
772.405	0.0154244
772.483	0.0155161
772.561	0.0154396
772.639	0.0155034
772.717	0.0155264
772.795	0.0155252
772.873	0.0155054
772.951	0.0155354
773.030	0.0152628
773.108	0.0154335
773.186	0.0154494
773.264	0.0154201
773.342	0.0153915
773.420	0.0153974
773.498	0.0152760
773.576	0.0153564
773.655	0.0151938
773.733	0.0152640
773.811	0.0152485
773.889	0.0151655
773.967	0.0151972
774.045	0.0152373
774.123	0.0151846
774.201	0.0152294
774.280	0.0151212
774.358	0.0151130
774.436	0.0150531
774.514	0.0151943
774.592	0.0151360
774.670	0.0149049
774.748	0.0149091
774.826	0.0150185
774.905	0.0149451
774.983	0.0149889
775.061	0.0149982
775.139	0.0149445
775.217	0.0151813
775.295	0.0150581
775.373	0.0150037
775.451	0.0150500
775.530	0.0151077
775.608	0.0149454
775.686	0.0151374
775.764	0.0151686
775.842	0.0151650
775.920	0.0151509
775.998	0.0152455
776.076	0.0151874
776.155	0.0152422
776.233	0.0151800
776.311	0.0153011
776.389	0.0154333
776.467	0.0154066
776.545	0.0154185
776.623	0.0153027
776.701	0.0152921
776.780	0.0153402
776.858	0.0154279
776.936	0.0154105
777.014	0.0153532
777.092	0.0153573
777.170	0.0153095
777.248	0.0153186
777.326	0.0154744
777.405	0.0152428
777.483	0.0152863
777.561	0.0152126
777.639	0.0153210
777.717	0.0153181
777.795	0.0152705
777.873	0.0150902
777.951	0.0152163
778.030	0.0151743
778.108	0.0150523
778.186	0.0149402
778.264	0.0150504
778.342	0.0151286
778.420	0.0150664
778.498	0.0150614
778.576	0.0150285
778.655	0.0151618
778.733	0.0150087
778.811	0.0151006
778.889	0.0151644
778.967	0.0151129
779.045	0.0151706
779.123	0.0151373
779.201	0.0151659
779.280	0.0151639
779.358	0.0152307
779.436	0.0151491
779.514	0.0152103
779.592	0.0153633
779.670	0.0152376
779.748	0.0152393
779.826	0.0152747
779.905	0.0153591
779.983	0.0152264
780.061	0.0152822
780.139	0.0152915
780.217	0.0153497
780.295	0.0151720
780.373	0.0153596
780.451	0.0154379
780.530	0.0151760
780.608	0.0152231
780.686	0.0151852
780.764	0.0152755
780.842	0.0152703
780.920	0.0151015
780.998	0.0150610
781.076	0.0151704
781.155	0.0150799
781.233	0.0150793
781.311	0.0150301
781.389	0.0151579
781.467	0.0150575
781.545	0.0149920
781.623	0.0149727
781.701	0.0149467
781.780	0.0149617
781.858	0.0151110
781.936	0.0150271
782.014	0.0150204
782.092	0.0150849
782.170	0.0151078
782.248	0.0150842
782.326	0.0149295
782.405	0.0150697
782.483	0.0151015
782.561	0.0150764
782.639	0.0150919
782.717	0.0150194
782.795	0.0149885
782.873	0.0152036
782.951	0.0151511
783.030	0.0150314
783.108	0.0150918
783.186	0.0151593
783.264	0.0151425
783.342	0.0150882
783.420	0.0151457
783.498	0.0151646
783.576	0.0152452
783.655	0.0151749
783.733	0.0153019
783.811	0.0152358
783.889	0.0152430
783.967	0.0152578
784.045	0.0152831
784.123	0.0152206
784.201	0.0153169
784.280	0.0153710
784.358	0.0154662
784.436	0.0154706
784.514	0.0153962
784.592	0.0154621
784.670	0.0153642
784.748	0.0153297
784.826	0.0153252
784.905	0.0153223
784.983	0.0152604
785.061	0.0152557
785.139	0.0152104
785.217	0.0152138
785.295	0.0153841
785.373	0.0152081
785.451	0.0152711
785.530	0.0154177
785.608	0.0154277
785.686	0.0152612
785.764	0.0154192
785.842	0.0152648
785.920	0.0153447
785.998	0.0153587
786.076	0.0154486
786.155	0.0154732
786.233	0.0153666
786.311	0.0152337
786.389	0.0152789
786.467	0.0153730
786.545	0.0151972
786.623	0.0154712
786.701	0.0153183
786.780	0.0151923
786.858	0.0152424
786.936	0.0151100
787.014	0.0151710
787.092	0.0151618
787.170	0.0150509
787.248	0.0151196
787.326	0.0150117
787.405	0.0149788
787.483	0.0150618
787.561	0.0149706
787.639	0.0148695
787.717	0.0148405
787.795	0.0150380
787.873	0.0150381
787.951	0.0149411
788.030	0.0148641
788.108	0.0150140
788.186	0.0149309
788.264	0.0150150
788.342	0.0149176
788.420	0.0149346
788.498	0.0149928
788.576	0.0149029
788.655	0.0149947
788.733	0.0150579
788.811	0.0151162
788.889	0.0152258
788.967	0.0151886
789.045	0.0152475
789.123	0.0151361
789.201	0.0151849
789.280	0.0153234
789.358	0.0154423
789.436	0.0153550
789.514	0.0153511
789.592	0.0153008
789.670	0.0153381
789.748	0.0154960
789.826	0.0153954
789.905	0.0154211
789.983	0.0153558
790.061	0.0154076
790.139	0.0154243
790.217	0.0154666
790.295	0.0156027
790.373	0.0153828
790.451	0.0151845
790.530	0.0154386
790.608	0.0153062
790.686	0.0153281
790.764	0.0152750
790.842	0.0151779
790.920	0.0153118
790.998	0.0152215
791.076	0.0151124
791.155	0.0152515
791.233	0.0151984
791.311	0.0151569
791.389	0.0149799
791.467	0.0149462
791.545	0.0150576
791.623	0.0150134
791.701	0.0149161
791.780	0.0150575
791.858	0.0148472
791.936	0.0148927
792.014	0.0149577
792.092	0.0149586
792.170	0.0150427
792.248	0.0150212
792.326	0.0149284
792.405	0.0150967
792.483	0.0149197
792.561	0.0149699
792.639	0.0150261
792.717	0.0150462
792.795	0.0150552
792.873	0.0150034
792.951	0.0150253
793.030	0.0150137
793.108	0.0150477
793.186	0.0151954
793.264	0.0150877
793.342	0.0150705
793.420	0.0149563
793.498	0.0149928
793.576	0.0150644
793.655	0.0150554
793.733	0.0150848
793.811	0.0150927
793.889	0.0151114
793.967	0.0151809
794.045	0.0151582
794.123	0.0151014
794.201	0.0151170
794.280	0.0151913
794.358	0.0153921
794.436	0.0152502
794.514	0.0151324
794.592	0.0151136
794.670	0.0152777
794.748	0.0151731
794.826	0.0151710
794.905	0.0152646
794.983	0.0152490
795.061	0.0153621
795.139	0.0152871
795.217	0.0150771
795.295	0.0153455
795.373	0.0153104
795.451	0.0152251
795.530	0.0150547
795.608	0.0152460
795.686	0.0152908
795.764	0.0153859
795.842	0.0152594
795.920	0.0151801
795.998	0.0152457
796.076	0.0152098
796.155	0.0151616
796.233	0.0150456
796.311	0.0152341
796.389	0.0151785
796.467	0.0152647
796.545	0.0151582
796.623	0.0150822
796.701	0.0151859
796.780	0.0151315
796.858	0.0151738
796.936	0.0151357
797.014	0.0151009
797.092	0.0151369
797.170	0.0151666
797.248	0.0152140
797.326	0.0152440
797.405	0.0151890
797.483	0.0153117
797.561	0.0153149
797.639	0.0152346
797.717	0.0151231
797.795	0.0152020
797.873	0.0152455
797.951	0.0152879
798.030	0.0152805
798.108	0.0152625
798.186	0.0151424
798.264	0.0152457
798.342	0.0153426
798.420	0.0151893
798.498	0.0152763
798.576	0.0152827
798.655	0.0152545
798.733	0.0154124
798.811	0.0153077
798.889	0.0152644
798.967	0.0152512
799.045	0.0153278
799.123	0.0152541
799.201	0.0151887
799.280	0.0153365
799.358	0.0151626
799.436	0.0152357
799.514	0.0152011
799.592	0.0152675
799.670	0.0153130
799.748	0.0152225
799.826	0.0151798
799.905	0.0152267
799.983	0.0152799
800.061	0.0152991
800.139	0.0154051
800.217	0.0153280
800.295	0.0153833
800.373	0.0152857
800.451	0.0152477
800.530	0.0153824
800.608	0.0153551
800.686	0.0154775
800.764	0.0154144
800.842	0.0152876
800.920	0.0152927
800.998	0.0153434
801.076	0.0153092
801.155	0.0153609
801.233	0.0154099
801.311	0.0154325
801.389	0.0152505
801.467	0.0152744
801.545	0.0153829
801.623	0.0153373
801.701	0.0152366
801.780	0.0155042
801.858	0.0153448
801.936	0.0153600
802.014	0.0152782
802.092	0.0152084
802.170	0.0153645
802.248	0.0153101
802.326	0.0152721
802.405	0.0152834
802.483	0.0153139
802.561	0.0152343
802.639	0.0152544
802.717	0.0151948
802.795	0.0152209
802.873	0.0151832
802.951	0.0152131
803.030	0.0151930
803.108	0.0151600
803.186	0.0151916
803.264	0.0152604
803.342	0.0151933
803.420	0.0150057
803.498	0.0150847
803.576	0.0151399
803.655	0.0150955
803.733	0.0150537
803.811	0.0151561
803.889	0.0150718
803.967	0.0150883
804.045	0.0150087
804.123	0.0149007
804.201	0.0149567
804.280	0.0150427
804.358	0.0150107
804.436	0.0150592
804.514	0.0149088
804.592	0.0151141
804.670	0.0150990
804.748	0.0151352
804.826	0.0151891
804.905	0.0151672
804.983	0.0150800
805.061	0.0152610
805.139	0.0150881
805.217	0.0151081
805.295	0.0151258
805.373	0.0151587
805.451	0.0151137
805.530	0.0151427
805.608	0.0151413
805.686	0.0151305
805.764	0.0151406
805.842	0.0152054
805.920	0.0153812
805.998	0.0152464
806.076	0.0153414
806.155	0.0153342
806.233	0.0152025
806.311	0.0152803
806.389	0.0152470
806.467	0.0153873
806.545	0.0154977
806.623	0.0152785
806.701	0.0152840
806.780	0.0153922
806.858	0.0153611
806.936	0.0152973
807.014	0.0152846
807.092	0.0152823
807.170	0.0153914
807.248	0.0153233
807.326	0.0152180
807.405	0.0152383
807.483	0.0154128
807.561	0.0152274
807.639	0.0150732
807.717	0.0152113
807.795	0.0152311
807.873	0.0152441
807.951	0.0150999
808.030	0.0151807
808.108	0.0152295
808.186	0.0150924
808.264	0.0151379
808.342	0.0152208
808.420	0.0151515
808.498	0.0150883
808.576	0.0151627
808.655	0.0151733
808.733	0.0151129
808.811	0.0152097
808.889	0.0152783
808.967	0.0152908
809.045	0.0153848
809.123	0.0153778
809.201	0.0153473
809.280	0.0153291
809.358	0.0154860
809.436	0.0155150
809.514	0.0154044
809.592	0.0156223
809.670	0.0155656
809.748	0.0155991
809.826	0.0154663
809.905	0.0154478
809.983	0.0154490
810.061	0.0156315
810.139	0.0154826
810.217	0.0154831
810.295	0.0153673
810.373	0.0156531
810.451	0.0156785
810.530	0.0154424
810.608	0.0156065
810.686	0.0155492
810.764	0.0155942
810.842	0.0155486
810.920	0.0154400
810.998	0.0154251
811.076	0.0153876
811.155	0.0154073
811.233	0.0154355
811.311	0.0152523
811.389	0.0152625
811.467	0.0153774
811.545	0.0152770
811.623	0.0153007
811.701	0.0154355
811.780	0.0152253
811.858	0.0151223
811.936	0.0151402
812.014	0.0151678
812.092	0.0151802
812.170	0.0151099
812.248	0.0150769
812.326	0.0151182
812.405	0.0151147
812.483	0.0150573
812.561	0.0150492
812.639	0.0150067
812.717	0.0151022
812.795	0.0150234
812.873	0.0149935
812.951	0.0149606
813.030	0.0149312
813.108	0.0148897
813.186	0.0148081
813.264	0.0149593
813.342	0.0148268
813.420	0.0149062
813.498	0.0150453
813.576	0.0149936
813.655	0.0150354
813.733	0.0149451
813.811	0.0149228
813.889	0.0150005
813.967	0.0148435
814.045	0.0150002
814.123	0.0150763
814.201	0.0149972
814.280	0.0151137
814.358	0.0152386
814.436	0.0150961
814.514	0.0151610
814.592	0.0150089
814.670	0.0150084
814.748	0.0150905
814.826	0.0151167
814.905	0.0151720
814.983	0.0151760
815.061	0.0151810
815.139	0.0151516
815.217	0.0151781
815.295	0.0152640
815.373	0.0152323
815.451	0.0151752
815.530	0.0152082
815.608	0.0151333
815.686	0.0151953
815.764	0.0152790
815.842	0.0151029
815.920	0.0150046
815.998	0.0151167
816.076	0.0152271
816.155	0.0151303
816.233	0.0152317
816.311	0.0151267
816.389	0.0151823
816.467	0.0151884
816.545	0.0151649
816.623	0.0151342
816.701	0.0149622
816.780	0.0152697
816.858	0.0152640
816.936	0.0152276
817.014	0.0151619
817.092	0.0151089
817.170	0.0151195
817.248	0.0151231
817.326	0.0150690
817.405	0.0152055
817.483	0.0151610
817.561	0.0152066
817.639	0.0151691
817.717	0.0151752
817.795	0.0152826
817.873	0.0151820
817.951	0.0151392
818.030	0.0152503
818.108	0.0150972
818.186	0.0151134
818.264	0.0153654
818.342	0.0152158
818.420	0.0151791
818.498	0.0151863
818.576	0.0152280
818.655	0.0152902
818.733	0.0152242
818.811	0.0150786
818.889	0.0151193
818.967	0.0152563
819.045	0.0151366
819.123	0.0151311
819.201	0.0152174
819.280	0.0152103
819.358	0.0150942
819.436	0.0152011
819.514	0.0152892
819.592	0.0153493
819.670	0.0153099
819.748	0.0152144
819.826	0.0152666
819.905	0.0152691
819.983	0.0154167
820.061	0.0153655
820.139	0.0152479
820.217	0.0152555
820.295	0.0153262
820.373	0.0152377
820.451	0.0153634
820.530	0.0153703
820.608	0.0151191
820.686	0.0150971
820.764	0.0151717
820.842	0.0153432
820.920	0.0151819
820.998	0.0152091
821.076	0.0151595
821.155	0.0150246
821.233	0.0152258
821.311	0.0152329
821.389	0.0151381
821.467	0.0152663
821.545	0.0151641
821.623	0.0152116
821.701	0.0151862
821.780	0.0150975
821.858	0.0149655
821.936	0.0152146
822.014	0.0153056
822.092	0.0153521
822.170	0.0152990
822.248	0.0152150
822.326	0.0152589
822.405	0.0152531
822.483	0.0151284
822.561	0.0151640
822.639	0.0151842
822.717	0.0150607
822.795	0.0151997
822.873	0.0151535
822.951	0.0151685
823.030	0.0151569
823.108	0.0150678
823.186	0.0151588
823.264	0.0151363
823.342	0.0149492
823.420	0.0150491
823.498	0.0150154
823.576	0.0149401
823.655	0.0149894
823.733	0.0150103
823.811	0.0149561
823.889	0.0149832
823.967	0.0148962
824.045	0.0149913
824.123	0.0148520
824.201	0.0147161
824.280	0.0150077
824.358	0.0149850
824.436	0.0149304
824.514	0.0149930
824.592	0.0148643
824.670	0.0148970
824.748	0.0149063
824.826	0.0148716
824.905	0.0148957
824.983	0.0148824
825.061	0.0150074
825.139	0.0150522
825.217	0.0149908
825.295	0.0150065
825.373	0.0150753
825.451	0.0150729
825.530	0.0150172
825.608	0.0149795
825.686	0.0150448
825.764	0.0150473
825.842	0.0150257
825.920	0.0150823
825.998	0.0150755
826.076	0.0151376
826.155	0.0152203
826.233	0.0150446
826.311	0.0152969
826.389	0.0152608
826.467	0.0152874
826.545	0.0152753
826.623	0.0153442
826.701	0.0153187
826.780	0.0153561
826.858	0.0153706
826.936	0.0153463
827.014	0.0154033
827.092	0.0153872
827.170	0.0153232
827.248	0.0154128
827.326	0.0152138
827.405	0.0153948
827.483	0.0153162
827.561	0.0151823
827.639	0.0152380
827.717	0.0154174
827.795	0.0154044
827.873	0.0154330
827.951	0.0153889
828.030	0.0153204
828.108	0.0154253
828.186	0.0153080
828.264	0.0153373
828.342	0.0153878
828.420	0.0153691
828.498	0.0153506
828.576	0.0153145
828.655	0.0154707
828.733	0.0154125
828.811	0.0153158
828.889	0.0153592
828.967	0.0154089
829.045	0.0153617
829.123	0.0154350
829.201	0.0154490
829.280	0.0154372
829.358	0.0153402
829.436	0.0153455
829.514	0.0154365
829.592	0.0155912
829.670	0.0154849
829.748	0.0154649
829.826	0.0153717
829.905	0.0154746
829.983	0.0155973
830.061	0.0154060
830.139	0.0153201
830.217	0.0153729
830.295	0.0154630
830.373	0.0153620
830.451	0.0154204
830.530	0.0153146
830.608	0.0154089
830.686	0.0153580
830.764	0.0153715
830.842	0.0154766
830.920	0.0153049
830.998	0.0152441
831.076	0.0153127
831.155	0.0152940
831.233	0.0154144
831.311	0.0154144
831.389	0.0154073
831.467	0.0151746
831.545	0.0152582
831.623	0.0151991
831.701	0.0152991
831.780	0.0152853
831.858	0.0153697
831.936	0.0152643
832.014	0.0151994
832.092	0.0152289
832.170	0.0153209
832.248	0.0152757
832.326	0.0151749
832.405	0.0152151
832.483	0.0153236
832.561	0.0150750
832.639	0.0152157
832.717	0.0151617
832.795	0.0151402
832.873	0.0150700
832.951	0.0151517
833.030	0.0151791
833.108	0.0152795
833.186	0.0153754
833.264	0.0151998
833.342	0.0150272
833.420	0.0150911
833.498	0.0151022
833.576	0.0149881
833.655	0.0151480
833.733	0.0151723
833.811	0.0151141
833.889	0.0152342
833.967	0.0151324
834.045	0.0150706
834.123	0.0151987
834.201	0.0150769
834.280	0.0151804
834.358	0.0151733
834.436	0.0151561
834.514	0.0151713
834.592	0.0151853
834.670	0.0150460
834.748	0.0151402
834.826	0.0151620
834.905	0.0151665
834.983	0.0151472
835.061	0.0151368
835.139	0.0151642
835.217	0.0151716
835.295	0.0151035
835.373	0.0150498
835.451	0.0152090
835.530	0.0152562
835.608	0.0152038
835.686	0.0151083
835.764	0.0150631
835.842	0.0151453
835.920	0.0151966
835.998	0.0152158
836.076	0.0150481
836.155	0.0152225
836.233	0.0150800
836.311	0.0151945
836.389	0.0150842
836.467	0.0152110
836.545	0.0151773
836.623	0.0152305
836.701	0.0151405
836.780	0.0152018
836.858	0.0151937
836.936	0.0151528
837.014	0.0151241
837.092	0.0152010
837.170	0.0151858
837.248	0.0152312
837.326	0.0150655
837.405	0.0150589
837.483	0.0150140
837.561	0.0151235
837.639	0.0151348
837.717	0.0151299
837.795	0.0152003
837.873	0.0152007
837.951	0.0151739
838.030	0.0150776
838.108	0.0151839
838.186	0.0151353
838.264	0.0150459
838.342	0.0150532
838.420	0.0150232
838.498	0.0151740
838.576	0.0151448
838.655	0.0150927
838.733	0.0149757
838.811	0.0150257
838.889	0.0150165
838.967	0.0149454
839.045	0.0150833
839.123	0.0150935
839.201	0.0149966
839.280	0.0150193
839.358	0.0150332
839.436	0.0150432
839.514	0.0150858
839.592	0.0148024
839.670	0.0148962
839.748	0.0150847
839.826	0.0151548
839.905	0.0150898
839.983	0.0150231
840.061	0.0150611
840.139	0.0149341
840.217	0.0150134
840.295	0.0149358
840.373	0.0150137
840.451	0.0150694
840.530	0.0150786
840.608	0.0152377
840.686	0.0151308
840.764	0.0151147
840.842	0.0151562
840.920	0.0151657
840.998	0.0151685
841.076	0.0151379
841.155	0.0151524
841.233	0.0150998
841.311	0.0150414
841.389	0.0152851
841.467	0.0152526
841.545	0.0152319
841.623	0.0150991
841.701	0.0151877
841.780	0.0152049
841.858	0.0152123
841.936	0.0150906
842.014	0.0152254
842.092	0.0151083
842.170	0.0150839
842.248	0.0152908
842.326	0.0151022
842.405	0.0150117
842.483	0.0150639
842.561	0.0152273
842.639	0.0150686
842.717	0.0153217
842.795	0.0152116
842.873	0.0151746
842.951	0.0151091
843.030	0.0151141
843.108	0.0151754
843.186	0.0151850
843.264	0.0153832
843.342	0.0153205
843.420	0.0152340
843.498	0.0153137
843.576	0.0153753
843.655	0.0151742
843.733	0.0151770
843.811	0.0152849
843.889	0.0152716
843.967	0.0152611
844.045	0.0153225
844.123	0.0152572
844.201	0.0152827
844.280	0.0151952
844.358	0.0152570
844.436	0.0152869
844.514	0.0152296
844.592	0.0153195
844.670	0.0151762
844.748	0.0152411
844.826	0.0152525
844.905	0.0152654
844.983	0.0151948
845.061	0.0151865
845.139	0.0153190
845.217	0.0151526
845.295	0.0151769
845.373	0.0152991
845.451	0.0152712
845.530	0.0151543
845.608	0.0151797
845.686	0.0151608
845.764	0.0151378
845.842	0.0152891
845.920	0.0151342
845.998	0.0152287
846.076	0.0151089
846.155	0.0150643
846.233	0.0150865
846.311	0.0151995
846.389	0.0150600
846.467	0.0151057
846.545	0.0150709
846.623	0.0152003
846.701	0.0151403
846.780	0.0152081
846.858	0.0152773
846.936	0.0151949
847.014	0.0152180
847.092	0.0152370
847.170	0.0151589
847.248	0.0151137
847.326	0.0151537
847.405	0.0151585
847.483	0.0152449
847.561	0.0152275
847.639	0.0151308
847.717	0.0152958
847.795	0.0153021
847.873	0.0154330
847.951	0.0151261
848.030	0.0151028
848.108	0.0152115
848.186	0.0152567
848.264	0.0151049
848.342	0.0152277
848.420	0.0153130
848.498	0.0151562
848.576	0.0153074
848.655	0.0152528
848.733	0.0152672
848.811	0.0152319
848.889	0.0153394
848.967	0.0154402
849.045	0.0152928
849.123	0.0152258
849.201	0.0153324
849.280	0.0152005
849.358	0.0151869
849.436	0.0151443
849.514	0.0153782
849.592	0.0151958
849.670	0.0151885
849.748	0.0151974
849.826	0.0151478
849.905	0.0151604
849.983	0.0151453
850.061	0.0151389
850.139	0.0151471
850.217	0.0150885
850.295	0.0150996
850.373	0.0150941
850.451	0.0151079
850.530	0.0151222
850.608	0.0151732
850.686	0.0152260
850.764	0.0151830
850.842	0.0150923
850.920	0.0151501
850.998	0.0151008
851.076	0.0151028
851.155	0.0152293
851.233	0.0152126
851.311	0.0152360
851.389	0.0152083
851.467	0.0152203
851.545	0.0152112
851.623	0.0152801
851.701	0.0152995
851.780	0.0151617
851.858	0.0153749
851.936	0.0152290
852.014	0.0152089
852.092	0.0152155
852.170	0.0152795
852.248	0.0151628
852.326	0.0152430
852.405	0.0152332
852.483	0.0152918
852.561	0.0151183
852.639	0.0150779
852.717	0.0151144
852.795	0.0152197
852.873	0.0152982
852.951	0.0151695
853.030	0.0151464
853.108	0.0151517
853.186	0.0152081
853.264	0.0151847
853.342	0.0151446
853.420	0.0153352
853.498	0.0153478
853.576	0.0153854
853.655	0.0153459
853.733	0.0152719
853.811	0.0152594
853.889	0.0153082
853.967	0.0153888
854.045	0.0153217
854.123	0.0153707
854.201	0.0153909
854.280	0.0155900
854.358	0.0153740
854.436	0.0152654
854.514	0.0153342
854.592	0.0153049
854.670	0.0153736
854.748	0.0153268
854.826	0.0153356
854.905	0.0152879
854.983	0.0153513
855.061	0.0154053
855.139	0.0153182
855.217	0.0152932
855.295	0.0152419
855.373	0.0151817
855.451	0.0152634
855.530	0.0153616
855.608	0.0151776
855.686	0.0152336
855.764	0.0151830
855.842	0.0152238
855.920	0.0151532
855.998	0.0151952
856.076	0.0151637
856.155	0.0151139
856.233	0.0152110
856.311	0.0152840
856.389	0.0152596
856.467	0.0152301
856.545	0.0151894
856.623	0.0152177
856.701	0.0152280
856.780	0.0152828
856.858	0.0152365
856.936	0.0152785
857.014	0.0153612
857.092	0.0153091
857.170	0.0151949
857.248	0.0152852
857.326	0.0151440
857.405	0.0150167
857.483	0.0151034
857.561	0.0152883
857.639	0.0151237
857.717	0.0151629
857.795	0.0151137
857.873	0.0150395
857.951	0.0150531
858.030	0.0151095
858.108	0.0151768
858.186	0.0151476
858.264	0.0149628
858.342	0.0151867
858.420	0.0151266
858.498	0.0151270
858.576	0.0151785
858.655	0.0152143
858.733	0.0153205
858.811	0.0150278
858.889	0.0149834
858.967	0.0151389
859.045	0.0152609
859.123	0.0151188
859.201	0.0151466
859.280	0.0152311
859.358	0.0152499
859.436	0.0150179
859.514	0.0149741
859.592	0.0150947
859.670	0.0151221
859.748	0.0150244
859.826	0.0151100
859.905	0.0151733
859.983	0.0151114
860.061	0.0150935
860.139	0.0150264
860.217	0.0151344
860.295	0.0152425
860.373	0.0150065
860.451	0.0149706
860.530	0.0150066
860.608	0.0150117
860.686	0.0150481
860.764	0.0152220
860.842	0.0151532
860.920	0.0151184
860.998	0.0152071
861.076	0.0151266
861.155	0.0150027
861.233	0.0151249
861.311	0.0152106
861.389	0.0151278
861.467	0.0150272
861.545	0.0151797
861.623	0.0152359
861.701	0.0152917
861.780	0.0153026
861.858	0.0151846
861.936	0.0152331
862.014	0.0151640
862.092	0.0153629
862.170	0.0152045
862.248	0.0153170
862.326	0.0152421
862.405	0.0152696
862.483	0.0152535
862.561	0.0153472
862.639	0.0151463
862.717	0.0152908
862.795	0.0152255
862.873	0.0151969
862.951	0.0154378
863.030	0.0153874
863.108	0.0151283
863.186	0.0152637
863.264	0.0152493
863.342	0.0154074
863.420	0.0151814
863.498	0.0152948
863.576	0.0153398
863.655	0.0151357
863.733	0.0152876
863.811	0.0152151
863.889	0.0153008
863.967	0.0152178
864.045	0.0153634
864.123	0.0152724
864.201	0.0153596
864.280	0.0153873
864.358	0.0152351
864.436	0.0153635
864.514	0.0151292
864.592	0.0152486
864.670	0.0151472
864.748	0.0152320
864.826	0.0151930
864.905	0.0153043
864.983	0.0151754
865.061	0.0150381
865.139	0.0151711
865.217	0.0152964
865.295	0.0151576
865.373	0.0151522
865.451	0.0153092
865.530	0.0150948
865.608	0.0152229
865.686	0.0152601
865.764	0.0152369
865.842	0.0151269
865.920	0.0151556
865.998	0.0151972
866.076	0.0152102
866.155	0.0150095
866.233	0.0150491
866.311	0.0152051
866.389	0.0150859
866.467	0.0150249
866.545	0.0151468
866.623	0.0151531
866.701	0.0151159
866.780	0.0150198
866.858	0.0150507
866.936	0.0151201
867.014	0.0151785
867.092	0.0150870
867.170	0.0150696
867.248	0.0150752
867.326	0.0151464
867.405	0.0150751
867.483	0.0150455
867.561	0.0151179
867.639	0.0151560
867.717	0.0149327
867.795	0.0149388
867.873	0.0150604
867.951	0.0151176
868.030	0.0150938
868.108	0.0151447
868.186	0.0150813
868.264	0.0150993
868.342	0.0150414
868.420	0.0151516
868.498	0.0151376
868.576	0.0150503
868.655	0.0150434
868.733	0.0150246
868.811	0.0151431
868.889	0.0152203
868.967	0.0150938
869.045	0.0150625
869.123	0.0151582
869.201	0.0153456
869.280	0.0151728
869.358	0.0151160
869.436	0.0152298
869.514	0.0151676
869.592	0.0152676
869.670	0.0151580
869.748	0.0151643
869.826	0.0151961
869.905	0.0152735
869.983	0.0150724
870.061	0.0151640
870.139	0.0152297
870.217	0.0151946
870.295	0.0153218
870.373	0.0151026
870.451	0.0152115
870.530	0.0151336
870.608	0.0151764
870.686	0.0151653
870.764	0.0151079
870.842	0.0152252
870.920	0.0151906
870.998	0.0152692
871.076	0.0150880
871.155	0.0151414
871.233	0.0152824
871.311	0.0153420
871.389	0.0152616
871.467	0.0152022
871.545	0.0152196
871.623	0.0151952
871.701	0.0150446
871.780	0.0150282
871.858	0.0151889
871.936	0.0152255
872.014	0.0152195
872.092	0.0151993
872.170	0.0151524
872.248	0.0152670
872.326	0.0152869
872.405	0.0152035
872.483	0.0153667
872.561	0.0153339
872.639	0.0153380
872.717	0.0153492
872.795	0.0153140
872.873	0.0153178
872.951	0.0152952
873.030	0.0152924
873.108	0.0153040
873.186	0.0153123
873.264	0.0152962
873.342	0.0153001
873.420	0.0153944
873.498	0.0153320
873.576	0.0153733
873.655	0.0153660
873.733	0.0153031
873.811	0.0153925
873.889	0.0153482
873.967	0.0153828
874.045	0.0152927
874.123	0.0153643
874.201	0.0155147
874.280	0.0154788
874.358	0.0154892
874.436	0.0154592
874.514	0.0154056
874.592	0.0152941
874.670	0.0153654
874.748	0.0153446
874.826	0.0153950
874.905	0.0152464
874.983	0.0154653
875.061	0.0154191
875.139	0.0153091
875.217	0.0151671
875.295	0.0152959
875.373	0.0151961
875.451	0.0151723
875.530	0.0151091
875.608	0.0151375
875.686	0.0152570
875.764	0.0152148
875.842	0.0150739
875.920	0.0150715
875.998	0.0152069
876.076	0.0153419
876.155	0.0151638
876.233	0.0148994
876.311	0.0152638
876.389	0.0151346
876.467	0.0152290
876.545	0.0151659
876.623	0.0150124
876.701	0.0149944
876.780	0.0150282
876.858	0.0152242
876.936	0.0151363
877.014	0.0152673
877.092	0.0151546
877.170	0.0151096
877.248	0.0151359
877.326	0.0151558
877.405	0.0151582
877.483	0.0151831
877.561	0.0150507
877.639	0.0150324
877.717	0.0151755
877.795	0.0149970
877.873	0.0150233
877.951	0.0150417
878.030	0.0150655
878.108	0.0150832
878.186	0.0151450
878.264	0.0150705
878.342	0.0150019
878.420	0.0150932
878.498	0.0150710
878.576	0.0151147
878.655	0.0151609
878.733	0.0149635
878.811	0.0151952
878.889	0.0151803
878.967	0.0149507
879.045	0.0151250
879.123	0.0151778
879.201	0.0150775
879.280	0.0151379
879.358	0.0152311
879.436	0.0152364
879.514	0.0152577
879.592	0.0152309
879.670	0.0151596
879.748	0.0150971
879.826	0.0153764
879.905	0.0153169
879.983	0.0152578
880.061	0.0153555
880.139	0.0153571
880.217	0.0152946
880.295	0.0152214
880.373	0.0153394
880.451	0.0153316
880.530	0.0152720
880.608	0.0153692
880.686	0.0153208
880.764	0.0152642
880.842	0.0153236
880.920	0.0152736
880.998	0.0153477
881.076	0.0152986
881.155	0.0152836
881.233	0.0154573
881.311	0.0153425
881.389	0.0153508
881.467	0.0154620
881.545	0.0155741
881.623	0.0153857
881.701	0.0153284
881.780	0.0153921
881.858	0.0151747
881.936	0.0152062
882.014	0.0152626
882.092	0.0153509
882.170	0.0154170
882.248	0.0151880
882.326	0.0152928
882.405	0.0153479
882.483	0.0152634
882.561	0.0153106
882.639	0.0152567
882.717	0.0152747
882.795	0.0151518
882.873	0.0153424
882.951	0.0151860
883.030	0.0152214
883.108	0.0152655
883.186	0.0151999
883.264	0.0152930
883.342	0.0153188
883.420	0.0153025
883.498	0.0153752
883.576	0.0152417
883.655	0.0153407
883.733	0.0152681
883.811	0.0153058
883.889	0.0153298
883.967	0.0151656
884.045	0.0153281
884.123	0.0152868
884.201	0.0153907
884.280	0.0153401
884.358	0.0153982
884.436	0.0152902
884.514	0.0152174
884.592	0.0153538
884.670	0.0154533
884.748	0.0153684
884.826	0.0153691
884.905	0.0154292
884.983	0.0153837
885.061	0.0152886
885.139	0.0153344
885.217	0.0154210
885.295	0.0155230
885.373	0.0153687
885.451	0.0153155
885.530	0.0152693
885.608	0.0151943
885.686	0.0153562
885.764	0.0151313
885.842	0.0152316
885.920	0.0152180
885.998	0.0152099
886.076	0.0150930
886.155	0.0150664
886.233	0.0152534
886.311	0.0152536
886.389	0.0151965
886.467	0.0152123
886.545	0.0151078
886.623	0.0151432
886.701	0.0151975
886.780	0.0151972
886.858	0.0150522
886.936	0.0151025
887.014	0.0151855
887.092	0.0151333
887.170	0.0150910
887.248	0.0151665
887.326	0.0151987
887.405	0.0151139
887.483	0.0151197
887.561	0.0150842
887.639	0.0153133
887.717	0.0152057
887.795	0.0151031
887.873	0.0151282
887.951	0.0152041
888.030	0.0152072
888.108	0.0150834
888.186	0.0151358
888.264	0.0153761
888.342	0.0153659
888.420	0.0152078
888.498	0.0152790
888.576	0.0152307
888.655	0.0153324
888.733	0.0152593
888.811	0.0152668
888.889	0.0152620
888.967	0.0152008
889.045	0.0152874
889.123	0.0154006
889.201	0.0153173
889.280	0.0153173
889.358	0.0151786
889.436	0.0154205
889.514	0.0152828
889.592	0.0152698
889.670	0.0152762
889.748	0.0151770
889.826	0.0151880
889.905	0.0152724
889.983	0.0153314
890.061	0.0151848
890.139	0.0152239
890.217	0.0151633
890.295	0.0151435
890.373	0.0150604
890.451	0.0150776
890.530	0.0151000
890.608	0.0151591
890.686	0.0150963
890.764	0.0151258
890.842	0.0152490
890.920	0.0150799
890.998	0.0150334
891.076	0.0151163
891.155	0.0152464
891.233	0.0151251
891.311	0.0151672
891.389	0.0152403
891.467	0.0150406
891.545	0.0150260
891.623	0.0151294
891.701	0.0150379
891.780	0.0153077
891.858	0.0151028
891.936	0.0152708
892.014	0.0152364
892.092	0.0152032
892.170	0.0152548
892.248	0.0154376
892.326	0.0154064
892.405	0.0151601
892.483	0.0152717
892.561	0.0152751
892.639	0.0153480
892.717	0.0152517
892.795	0.0153367
892.873	0.0152576
892.951	0.0152219
893.030	0.0152124
893.108	0.0152048
893.186	0.0151987
893.264	0.0150793
893.342	0.0151009
893.420	0.0151200
893.498	0.0150587
893.576	0.0152469
893.655	0.0151771
893.733	0.0150443
893.811	0.0151061
893.889	0.0151244
893.967	0.0150339
894.045	0.0151196
894.123	0.0151105
894.201	0.0150377
894.280	0.0149968
894.358	0.0151543
894.436	0.0150918
894.514	0.0149444
894.592	0.0151337
894.670	0.0151797
894.748	0.0150829
894.826	0.0151598
894.905	0.0151188
894.983	0.0150927
895.061	0.0152615
895.139	0.0153071
895.217	0.0152373
895.295	0.0151127
895.373	0.0151577
895.451	0.0152352
895.530	0.0152718
895.608	0.0152480
895.686	0.0152940
895.764	0.0153088
895.842	0.0152794
895.920	0.0153425
895.998	0.0152011
896.076	0.0153091
896.155	0.0153548
896.233	0.0152544
896.311	0.0152135
896.389	0.0154054
896.467	0.0152736
896.545	0.0152539
896.623	0.0153209
896.701	0.0152937
896.780	0.0152598
896.858	0.0153974
896.936	0.0153455
897.014	0.0152748
897.092	0.0152620
897.170	0.0153785
897.248	0.0152796
897.326	0.0153033
897.405	0.0154459
897.483	0.0153389
897.561	0.0153304
897.639	0.0154488
897.717	0.0153618
897.795	0.0154070
897.873	0.0153416
897.951	0.0152742
898.030	0.0154497
898.108	0.0152088
898.186	0.0153756
898.264	0.0154177
898.342	0.0152117
898.420	0.0151324
898.498	0.0152224
898.576	0.0151402
898.655	0.0151622
898.733	0.0152032
898.811	0.0151441
898.889	0.0151472
898.967	0.0151488
899.045	0.0150668
899.123	0.0152450
899.201	0.0151444
899.280	0.0150417
899.358	0.0150211
899.436	0.0149560
899.514	0.0151359
899.592	0.0152080
899.670	0.0150911
899.748	0.0150607
899.826	0.0151610
899.905	0.0152295
899.983	0.0150482
900.061	0.0151324
900.139	0.0151905
900.217	0.0152621
900.295	0.0149830
900.373	0.0151569
900.451	0.0151344
900.530	0.0151337
900.608	0.0151920
900.686	0.0151514
900.764	0.0150724
900.842	0.0151945
900.920	0.0152764
900.998	0.0151338
901.076	0.0150881
901.155	0.0151935
901.233	0.0151033
901.311	0.0152292
901.389	0.0150266
901.467	0.0149709
901.545	0.0151556
901.623	0.0151133
901.701	0.0152158
901.780	0.0151448
901.858	0.0153022
901.936	0.0153025
902.014	0.0150677
902.092	0.0152597
902.170	0.0151813
902.248	0.0153085
902.326	0.0152853
902.405	0.0153385
902.483	0.0152867
902.561	0.0152207
902.639	0.0152306
902.717	0.0152712
902.795	0.0151802
902.873	0.0151456
902.951	0.0152107
903.030	0.0152303
903.108	0.0153160
903.186	0.0152750
903.264	0.0152517
903.342	0.0152327
903.420	0.0151769
903.498	0.0153191
903.576	0.0152726
903.655	0.0152444
903.733	0.0151706
903.811	0.0151409
903.889	0.0151051
903.967	0.0151900
904.045	0.0151170
904.123	0.0151239
904.201	0.0150417
904.280	0.0152921
904.358	0.0153484
904.436	0.0152870
904.514	0.0152755
904.592	0.0151861
904.670	0.0151809
904.748	0.0152274
904.826	0.0153676
904.905	0.0154078
904.983	0.0152850
905.061	0.0152952
905.139	0.0152399
905.217	0.0153284
905.295	0.0154674
905.373	0.0153823
905.451	0.0153957
905.530	0.0154382
905.608	0.0154166
905.686	0.0153320
905.764	0.0152898
905.842	0.0153046
905.920	0.0152993
905.998	0.0154266
906.076	0.0152533
906.155	0.0153261
906.233	0.0153559
906.311	0.0152830
906.389	0.0152190
906.467	0.0152137
906.545	0.0153473
906.623	0.0153847
906.701	0.0153238
906.780	0.0152548
906.858	0.0153024
906.936	0.0152752
907.014	0.0153007
907.092	0.0152574
907.170	0.0151996
907.248	0.0151608
907.326	0.0152767
907.405	0.0151645
907.483	0.0152802
907.561	0.0152683
907.639	0.0151723
907.717	0.0152430
907.795	0.0151673
907.873	0.0152776
907.951	0.0152417
908.030	0.0153181
908.108	0.0152010
908.186	0.0152826
908.264	0.0152489
908.342	0.0151999
908.420	0.0153238
908.498	0.0151497
908.576	0.0150472
908.655	0.0153462
908.733	0.0151377
908.811	0.0152944
908.889	0.0151868
908.967	0.0152160
909.045	0.0150257
909.123	0.0151675
909.201	0.0152216
909.280	0.0151924
909.358	0.0151686
909.436	0.0149848
909.514	0.0150474
909.592	0.0150671
909.670	0.0150978
909.748	0.0151978
909.826	0.0151343
909.905	0.0151135
909.983	0.0150185
910.061	0.0151037
910.139	0.0150955
910.217	0.0151077
910.295	0.0150046
910.373	0.0151822
910.451	0.0150855
910.530	0.0151675
910.608	0.0150441
910.686	0.0150559
910.764	0.0151344
910.842	0.0152164
910.920	0.0151096
910.998	0.0151109
911.076	0.0150194
911.155	0.0150251
911.233	0.0151501
911.311	0.0151313
911.389	0.0152328
911.467	0.0152060
911.545	0.0149873
911.623	0.0150984
911.701	0.0153400
911.780	0.0151835
911.858	0.0153133
911.936	0.0151319
912.014	0.0152985
912.092	0.0151864
912.170	0.0153579
912.248	0.0151611
912.326	0.0151993
912.405	0.0152283
912.483	0.0152096
912.561	0.0152716
912.639	0.0152949
912.717	0.0152558
912.795	0.0152348
912.873	0.0152819
912.951	0.0152200
913.030	0.0152067
913.108	0.0151892
913.186	0.0152138
913.264	0.0152967
913.342	0.0151943
913.420	0.0153251
913.498	0.0152297
913.576	0.0152779
913.655	0.0150497
913.733	0.0152280
913.811	0.0152147
913.889	0.0152073
913.967	0.0152928
914.045	0.0152433
914.123	0.0151013
914.201	0.0151315
914.280	0.0151399
914.358	0.0152512
914.436	0.0152714
914.514	0.0151348
914.592	0.0151125
914.670	0.0152270
914.748	0.0152421
914.826	0.0151749
914.905	0.0151690
914.983	0.0152897
915.061	0.0151822
915.139	0.0151685
915.217	0.0151099
915.295	0.0152244
915.373	0.0151430
915.451	0.0151540
915.530	0.0151855
915.608	0.0152644
915.686	0.0151569
915.764	0.0151145
915.842	0.0152335
915.920	0.0151764
915.998	0.0151865
916.076	0.0153198
916.155	0.0152489
916.233	0.0152061
916.311	0.0152447
916.389	0.0153021
916.467	0.0152699
916.545	0.0151404
916.623	0.0151824
916.701	0.0151985
916.780	0.0152140
916.858	0.0152729
916.936	0.0152575
917.014	0.0151363
917.092	0.0151116
917.170	0.0151007
917.248	0.0150703
917.326	0.0152266
917.405	0.0151680
917.483	0.0151734
917.561	0.0151899
917.639	0.0153397
917.717	0.0153671
917.795	0.0152195
917.873	0.0152146
917.951	0.0154984
918.030	0.0154507
918.108	0.0154146
918.186	0.0152148
918.264	0.0151511
918.342	0.0151860
918.420	0.0153518
918.498	0.0153284
918.576	0.0151358
918.655	0.0151082
918.733	0.0151491
918.811	0.0151822
918.889	0.0152312
918.967	0.0151456
919.045	0.0151205
919.123	0.0151798
919.201	0.0151096
919.280	0.0152103
919.358	0.0150531
919.436	0.0152048
919.514	0.0151042
919.592	0.0150925
919.670	0.0152452
919.748	0.0152339
919.826	0.0152428
919.905	0.0153022
919.983	0.0152340
920.061	0.0152017
920.139	0.0151819
920.217	0.0150588
920.295	0.0151273
920.373	0.0149893
920.451	0.0151933
920.530	0.0151139
920.608	0.0151918
920.686	0.0151578
920.764	0.0151107
920.842	0.0151821
920.920	0.0149378
920.998	0.0151182
921.076	0.0150943
921.155	0.0151873
921.233	0.0151556
921.311	0.0150993
921.389	0.0152948
921.467	0.0151714
921.545	0.0151526
921.623	0.0152283
921.701	0.0151174
921.780	0.0151527
921.858	0.0151260
921.936	0.0152435
922.014	0.0152136
922.092	0.0152621
922.170	0.0150839
922.248	0.0152111
922.326	0.0152213
922.405	0.0153089
922.483	0.0151011
922.561	0.0152265
922.639	0.0152024
922.717	0.0152155
922.795	0.0151945
922.873	0.0153564
922.951	0.0152708
923.030	0.0152385
923.108	0.0151330
923.186	0.0152656
923.264	0.0151381
923.342	0.0152200
923.420	0.0152268
923.498	0.0151227
923.576	0.0151054
923.655	0.0152628
923.733	0.0153316
923.811	0.0153075
923.889	0.0152880
923.967	0.0152371
924.045	0.0152219
924.123	0.0150127
924.201	0.0152031
924.280	0.0151257
924.358	0.0152325
924.436	0.0152265
924.514	0.0151749
924.592	0.0151772
924.670	0.0151176
924.748	0.0151430
924.826	0.0151973
924.905	0.0151172
924.983	0.0152143
925.061	0.0151684
925.139	0.0150697
925.217	0.0151151
925.295	0.0150985
925.373	0.0151268
925.451	0.0152557
925.530	0.0151136
925.608	0.0152170
925.686	0.0150985
925.764	0.0151394
925.842	0.0151362
925.920	0.0152290
925.998	0.0150643
926.076	0.0151722
926.155	0.0152205
926.233	0.0151556
926.311	0.0151538
926.389	0.0151601
926.467	0.0151756
926.545	0.0152908
926.623	0.0151505
926.701	0.0151802
926.780	0.0150541
926.858	0.0150661
926.936	0.0152362
927.014	0.0150826
927.092	0.0152048
927.170	0.0151424
927.248	0.0151622
927.326	0.0152208
927.405	0.0150368
927.483	0.0150681
927.561	0.0151783
927.639	0.0152125
927.717	0.0151569
927.795	0.0152122
927.873	0.0151132
927.951	0.0151476
928.030	0.0152815
928.108	0.0150847
928.186	0.0150967
928.264	0.0151808
928.342	0.0151534
928.420	0.0151283
928.498	0.0150854
928.576	0.0151411
928.655	0.0150742
928.733	0.0150177
928.811	0.0150029
928.889	0.0149644
928.967	0.0149287
929.045	0.0150824
929.123	0.0149803
929.201	0.0149120
929.280	0.0149467
929.358	0.0150466
929.436	0.0149918
929.514	0.0149536
929.592	0.0150645
929.670	0.0149149
929.748	0.0150739
929.826	0.0151541
929.905	0.0147987
929.983	0.0150445
930.061	0.0150118
930.139	0.0148657
930.217	0.0150864
930.295	0.0151537
930.373	0.0148901
930.451	0.0150722
930.530	0.0152376
930.608	0.0150455
930.686	0.0151661
930.764	0.0151159
930.842	0.0150579
930.920	0.0151826
930.998	0.0151456
931.076	0.0152072
931.155	0.0152493
931.233	0.0152110
931.311	0.0152207
931.389	0.0152885
931.467	0.0151785
931.545	0.0152612
931.623	0.0152113
931.701	0.0153345
931.780	0.0152446
931.858	0.0154410
931.936	0.0153217
932.014	0.0153101
932.092	0.0151775
932.170	0.0152891
932.248	0.0153881
932.326	0.0152634
932.405	0.0154200
932.483	0.0153860
932.561	0.0154213
932.639	0.0153596
932.717	0.0154402
932.795	0.0155136
932.873	0.0153873
932.951	0.0153074
933.030	0.0155083
933.108	0.0153878
933.186	0.0154406
933.264	0.0153722
933.342	0.0152972
933.420	0.0153976
933.498	0.0153650
933.576	0.0153896
933.655	0.0152411
933.733	0.0153086
933.811	0.0152591
933.889	0.0152489
933.967	0.0152542
934.045	0.0153362
934.123	0.0151553
934.201	0.0152020
934.280	0.0151182
934.358	0.0152266
934.436	0.0150356
934.514	0.0151743
934.592	0.0151032
934.670	0.0152036
934.748	0.0152338
934.826	0.0153021
934.905	0.0151653
934.983	0.0151834
935.061	0.0150713
935.139	0.0151063
935.217	0.0150520
935.295	0.0151936
935.373	0.0152568
935.451	0.0150583
935.530	0.0151094
935.608	0.0152494
935.686	0.0153247
935.764	0.0151647
935.842	0.0151096
935.920	0.0150600
935.998	0.0151566
936.076	0.0151838
936.155	0.0151749
936.233	0.0152136
936.311	0.0151855
936.389	0.0150868
936.467	0.0150469
936.545	0.0151778
936.623	0.0150175
936.701	0.0151732
936.780	0.0150960
936.858	0.0150845
936.936	0.0151314
937.014	0.0151717
937.092	0.0151768
937.170	0.0150594
937.248	0.0150206
937.326	0.0150272
937.405	0.0151446
937.483	0.0151990
937.561	0.0150748
937.639	0.0152099
937.717	0.0150340
937.795	0.0151037
937.873	0.0152017
937.951	0.0151490
938.030	0.0151894
938.108	0.0150162
938.186	0.0150719
938.264	0.0153114
938.342	0.0151458
938.420	0.0151689
938.498	0.0152558
938.576	0.0152641
938.655	0.0152585
938.733	0.0153117
938.811	0.0152732
938.889	0.0152628
938.967	0.0152766
939.045	0.0152335
939.123	0.0152698
939.201	0.0153007
939.280	0.0152483
939.358	0.0152879
939.436	0.0153415
939.514	0.0152187
939.592	0.0151659
939.670	0.0151229
939.748	0.0151545
939.826	0.0153345
939.905	0.0152618
939.983	0.0151207
940.061	0.0149586
940.139	0.0152122
940.217	0.0151733
940.295	0.0151528
940.373	0.0151464
940.451	0.0151298
940.530	0.0151793
940.608	0.0150402
940.686	0.0150731
940.764	0.0150543
940.842	0.0151152
940.920	0.0150830
940.998	0.0151951
941.076	0.0151089
941.155	0.0151898
941.233	0.0152091
941.311	0.0151367
941.389	0.0150539
941.467	0.0151523
941.545	0.0150954
941.623	0.0152062
941.701	0.0152316
941.780	0.0151536
941.858	0.0151822
941.936	0.0151210
942.014	0.0151025
942.092	0.0151071
942.170	0.0151744
942.248	0.0152682
942.326	0.0151674
942.405	0.0152779
942.483	0.0152250
942.561	0.0152839
942.639	0.0152733
942.717	0.0152850
942.795	0.0150975
942.873	0.0150413
942.951	0.0153739
943.030	0.0153527
943.108	0.0151929
943.186	0.0151141
943.264	0.0151865
943.342	0.0152267
943.420	0.0153416
943.498	0.0151932
943.576	0.0154153
943.655	0.0153360
943.733	0.0152109
943.811	0.0152612
943.889	0.0152671
943.967	0.0153949
944.045	0.0153685
944.123	0.0151025
944.201	0.0153853
944.280	0.0153558
944.358	0.0153716
944.436	0.0152267
944.514	0.0153863
944.592	0.0152836
944.670	0.0153636
944.748	0.0153429
944.826	0.0152960
944.905	0.0152221
944.983	0.0152431
945.061	0.0152297
945.139	0.0153488
945.217	0.0153716
945.295	0.0154269
945.373	0.0154693
945.451	0.0152718
945.530	0.0153577
945.608	0.0151129
945.686	0.0152713
945.764	0.0153715
945.842	0.0153502
945.920	0.0152070
945.998	0.0154072
946.076	0.0154056
946.155	0.0152798
946.233	0.0151569
946.311	0.0152303
946.389	0.0153416
946.467	0.0152248
946.545	0.0152904
946.623	0.0154716
946.701	0.0152764
946.780	0.0151479
946.858	0.0152259
946.936	0.0150990
947.014	0.0151236
947.092	0.0151851
947.170	0.0152222
947.248	0.0152286
947.326	0.0151649
947.405	0.0152647
947.483	0.0151281
947.561	0.0150401
947.639	0.0151196
947.717	0.0151744
947.795	0.0151465
947.873	0.0152269
947.951	0.0151170
948.030	0.0149490
948.108	0.0151316
948.186	0.0152640
948.264	0.0150524
948.342	0.0151602
948.420	0.0150668
948.498	0.0150977
948.576	0.0150949
948.655	0.0149831
948.733	0.0150060
948.811	0.0150476
948.889	0.0150327
948.967	0.0151124
949.045	0.0151737
949.123	0.0150628
949.201	0.0150819
949.280	0.0150763
949.358	0.0150538
949.436	0.0151962
949.514	0.0150894
949.592	0.0150755
949.670	0.0150636
949.748	0.0150490
949.826	0.0151068
949.905	0.0150352
949.983	0.0152291
950.061	0.0150504
950.139	0.0152225
950.217	0.0152528
950.295	0.0151835
950.373	0.0151357
950.451	0.0152427
950.530	0.0152228
950.608	0.0150748
950.686	0.0153072
950.764	0.0151605
950.842	0.0152373
950.920	0.0151086
950.998	0.0151631
951.076	0.0150858
951.155	0.0152423
951.233	0.0152081
951.311	0.0150471
951.389	0.0152420
951.467	0.0151153
951.545	0.0151476
951.623	0.0152444
951.701	0.0150943
951.780	0.0151881
951.858	0.0151911
951.936	0.0151203
952.014	0.0151914
952.092	0.0151904
952.170	0.0151604
952.248	0.0153745
952.326	0.0153097
952.405	0.0151470
952.483	0.0153551
952.561	0.0153197
952.639	0.0152217
952.717	0.0151706
952.795	0.0152045
952.873	0.0151603
952.951	0.0151247
953.030	0.0152213
953.108	0.0152118
953.186	0.0151003
953.264	0.0151400
953.342	0.0152590
953.420	0.0152172
953.498	0.0151314
953.576	0.0151157
953.655	0.0150478
953.733	0.0152202
953.811	0.0150699
953.889	0.0151685
953.967	0.0151544
954.045	0.0153207
954.123	0.0152689
954.201	0.0151608
954.280	0.0151877
954.358	0.0151559
954.436	0.0152335
954.514	0.0151379
954.592	0.0150789
954.670	0.0152768
954.748	0.0152393
954.826	0.0151018
954.905	0.0151488
954.983	0.0151791
955.061	0.0152452
955.139	0.0152442
955.217	0.0152853
955.295	0.0151200
955.373	0.0150928
955.451	0.0153197
955.530	0.0151466
955.608	0.0152078
955.686	0.0151253
955.764	0.0152193
955.842	0.0151466
955.920	0.0152038
955.998	0.0152272
956.076	0.0152716
956.155	0.0151125
956.233	0.0150951
956.311	0.0151393
956.389	0.0153304
956.467	0.0152046
956.545	0.0151978
956.623	0.0151853
956.701	0.0151884
956.780	0.0150674
956.858	0.0150603
956.936	0.0151101
957.014	0.0151015
957.092	0.0150823
957.170	0.0150538
957.248	0.0149559
957.326	0.0151722
957.405	0.0150494
957.483	0.0150132
957.561	0.0150595
957.639	0.0150303
957.717	0.0150581
957.795	0.0151131
957.873	0.0149560
957.951	0.0152127
958.030	0.0150734
958.108	0.0151353
958.186	0.0150922
958.264	0.0151105
958.342	0.0149496
958.420	0.0151100
958.498	0.0151821
958.576	0.0150152
958.655	0.0150559
958.733	0.0151347
958.811	0.0152007
958.889	0.0152576
958.967	0.0151373
959.045	0.0152033
959.123	0.0152322
959.201	0.0151257
959.280	0.0151752
959.358	0.0152004
959.436	0.0151524
959.514	0.0150156
959.592	0.0153129
959.670	0.0151769
959.748	0.0152330
959.826	0.0153267
959.905	0.0153704
