05/20/2022	17:13:44	Ver.	4.1	UNKNOWN
Optical Delay	639.982744	Delta X		0.078125	Sweeps	1	Scan Rate	0/0
Coordinates	Axis 1	NaN	Axis 2	NaN	Axis 3	NaN	Axis 4	NaN	Axis 5	NaN	Axis 6	0.000000
TX Power	0.000000	RX Power	0.000000

639.983	0.0152428
640.061	0.0152587
640.139	0.0151365
640.217	0.0153144
640.295	0.0154322
640.373	0.0153664
640.451	0.0153871
640.530	0.0152380
640.608	0.0153461
640.686	0.0153223
640.764	0.0151985
640.842	0.0152815
640.920	0.0152455
640.998	0.0153886
641.076	0.0153320
641.155	0.0153544
641.233	0.0151633
641.311	0.0152774
641.389	0.0152483
641.467	0.0152524
641.545	0.0151420
641.623	0.0152629
641.701	0.0152316
641.780	0.0153062
641.858	0.0150890
641.936	0.0152267
642.014	0.0151569
642.092	0.0151353
642.170	0.0151694
642.248	0.0151038
642.326	0.0150066
642.405	0.0151808
642.483	0.0151708
642.561	0.0151564
642.639	0.0150101
642.717	0.0150354
642.795	0.0151597
642.873	0.0151083
642.951	0.0151064
643.030	0.0150365
643.108	0.0150700
643.186	0.0151585
643.264	0.0152323
643.342	0.0151140
643.420	0.0151235
643.498	0.0150860
643.576	0.0151080
643.655	0.0151447
643.733	0.0152200
643.811	0.0152102
643.889	0.0153289
643.967	0.0152831
644.045	0.0152365
644.123	0.0152886
644.201	0.0152502
644.280	0.0151477
644.358	0.0151234
644.436	0.0150497
644.514	0.0151155
644.592	0.0151998
644.670	0.0151228
644.748	0.0151051
644.826	0.0150182
644.905	0.0150887
644.983	0.0151700
645.061	0.0151241
645.139	0.0150488
645.217	0.0151530
645.295	0.0152188
645.373	0.0151749
645.451	0.0151996
645.530	0.0150436
645.608	0.0151150
645.686	0.0152120
645.764	0.0151446
645.842	0.0151507
645.920	0.0152106
645.998	0.0152045
646.076	0.0152735
646.155	0.0152216
646.233	0.0151926
646.311	0.0152336
646.389	0.0152610
646.467	0.0153483
646.545	0.0152615
646.623	0.0152824
646.701	0.0153175
646.780	0.0152158
646.858	0.0152735
646.936	0.0153311
647.014	0.0153125
647.092	0.0154419
647.170	0.0152879
647.248	0.0154373
647.326	0.0153429
647.405	0.0152673
647.483	0.0154190
647.561	0.0154013
647.639	0.0154042
647.717	0.0154208
647.795	0.0154027
647.873	0.0154649
647.951	0.0153503
648.030	0.0153811
648.108	0.0152251
648.186	0.0153442
648.264	0.0154253
648.342	0.0152071
648.420	0.0153557
648.498	0.0154409
648.576	0.0153218
648.655	0.0151298
648.733	0.0152760
648.811	0.0152527
648.889	0.0153020
648.967	0.0152880
649.045	0.0152029
649.123	0.0152401
649.201	0.0152319
649.280	0.0151694
649.358	0.0152344
649.436	0.0152870
649.514	0.0153787
649.592	0.0152372
649.670	0.0152869
649.748	0.0152522
649.826	0.0153627
649.905	0.0152702
649.983	0.0152979
650.061	0.0153188
650.139	0.0153247
650.217	0.0152055
650.295	0.0152848
650.373	0.0151621
650.451	0.0152471
650.530	0.0152595
650.608	0.0151727
650.686	0.0151289
650.764	0.0152057
650.842	0.0153406
650.920	0.0152832
650.998	0.0152290
651.076	0.0151508
651.155	0.0152599
651.233	0.0152862
651.311	0.0152975
651.389	0.0152637
651.467	0.0151601
651.545	0.0152313
651.623	0.0151110
651.701	0.0151592
651.780	0.0152010
651.858	0.0151552
651.936	0.0151827
652.014	0.0152056
652.092	0.0152253
652.170	0.0151151
652.248	0.0151409
652.326	0.0150517
652.405	0.0151082
652.483	0.0151724
652.561	0.0151466
652.639	0.0150618
652.717	0.0150395
652.795	0.0150156
652.873	0.0150307
652.951	0.0151391
653.030	0.0152451
653.108	0.0150476
653.186	0.0151997
653.264	0.0152891
653.342	0.0151597
653.420	0.0151707
653.498	0.0152649
653.576	0.0152579
653.655	0.0153797
653.733	0.0154376
653.811	0.0152502
653.889	0.0153854
653.967	0.0154550
654.045	0.0153248
654.123	0.0152229
654.201	0.0153443
654.280	0.0152602
654.358	0.0152812
654.436	0.0151749
654.514	0.0151786
654.592	0.0151315
654.670	0.0150464
654.748	0.0151024
654.826	0.0151520
654.905	0.0150076
654.983	0.0149673
655.061	0.0150550
655.139	0.0150938
655.217	0.0151048
655.295	0.0151733
655.373	0.0151813
655.451	0.0152005
655.530	0.0152414
655.608	0.0151630
655.686	0.0152780
655.764	0.0154037
655.842	0.0152923
655.920	0.0153561
655.998	0.0154304
656.076	0.0153145
656.155	0.0153434
656.233	0.0153671
656.311	0.0153009
656.389	0.0152843
656.467	0.0153152
656.545	0.0153080
656.623	0.0153277
656.701	0.0154004
656.780	0.0151942
656.858	0.0151476
656.936	0.0152978
657.014	0.0152547
657.092	0.0151746
657.170	0.0152183
657.248	0.0150792
657.326	0.0151989
657.405	0.0151175
657.483	0.0151067
657.561	0.0151922
657.639	0.0150889
657.717	0.0151419
657.795	0.0151237
657.873	0.0149318
657.951	0.0151667
658.030	0.0151090
658.108	0.0151407
658.186	0.0153882
658.264	0.0153092
658.342	0.0153262
658.420	0.0152768
658.498	0.0153796
658.576	0.0154000
658.655	0.0153902
658.733	0.0154684
658.811	0.0154287
658.889	0.0154570
658.967	0.0153702
659.045	0.0153506
659.123	0.0154034
659.201	0.0152736
659.280	0.0153329
659.358	0.0153113
659.436	0.0153854
659.514	0.0152646
659.592	0.0152570
659.670	0.0152977
659.748	0.0150862
659.826	0.0150513
659.905	0.0151439
659.983	0.0150323
660.061	0.0151259
660.139	0.0151970
660.217	0.0151031
660.295	0.0151740
660.373	0.0151749
660.451	0.0153619
660.530	0.0153421
660.608	0.0155154
660.686	0.0155652
660.764	0.0154205
660.842	0.0153779
660.920	0.0154186
660.998	0.0154929
661.076	0.0154601
661.155	0.0155605
661.233	0.0152908
661.311	0.0153763
661.389	0.0154253
661.467	0.0153603
661.545	0.0154850
661.623	0.0154063
661.701	0.0153749
661.780	0.0154296
661.858	0.0152524
661.936	0.0152946
662.014	0.0151530
662.092	0.0152320
662.170	0.0151771
662.248	0.0151517
662.326	0.0150805
662.405	0.0150932
662.483	0.0149792
662.561	0.0150916
662.639	0.0149474
662.717	0.0150540
662.795	0.0147444
662.873	0.0149165
662.951	0.0150821
663.030	0.0148652
663.108	0.0148933
663.186	0.0149525
663.264	0.0147961
663.342	0.0147944
663.420	0.0150120
663.498	0.0149751
663.576	0.0148491
663.655	0.0150843
663.733	0.0149414
663.811	0.0149763
663.889	0.0150438
663.967	0.0151011
664.045	0.0151315
664.123	0.0149992
664.201	0.0150723
664.280	0.0149889
664.358	0.0152581
664.436	0.0151723
664.514	0.0150871
664.592	0.0152953
664.670	0.0151935
664.748	0.0153385
664.826	0.0153057
664.905	0.0152230
664.983	0.0152821
665.061	0.0154257
665.139	0.0153340
665.217	0.0155106
665.295	0.0155324
665.373	0.0154807
665.451	0.0156050
665.530	0.0153978
665.608	0.0155106
665.686	0.0154556
665.764	0.0155585
665.842	0.0155408
665.920	0.0155634
665.998	0.0154425
666.076	0.0155031
666.155	0.0154739
666.233	0.0154916
666.311	0.0152660
666.389	0.0152782
666.467	0.0151891
666.545	0.0151975
666.623	0.0152084
666.701	0.0150026
666.780	0.0148286
666.858	0.0148139
666.936	0.0147989
667.014	0.0147614
667.092	0.0146167
667.170	0.0147145
667.248	0.0144241
667.326	0.0144104
667.405	0.0143906
667.483	0.0144327
667.561	0.0142136
667.639	0.0143211
667.717	0.0143333
667.795	0.0142156
667.873	0.0142734
667.951	0.0142150
668.030	0.0144264
668.108	0.0145275
668.186	0.0145008
668.264	0.0144744
668.342	0.0145863
668.420	0.0147578
668.498	0.0147593
668.576	0.0148483
668.655	0.0151740
668.733	0.0151537
668.811	0.0153532
668.889	0.0155446
668.967	0.0157229
669.045	0.0156806
669.123	0.0158830
669.201	0.0159123
669.280	0.0160494
669.358	0.0160118
669.436	0.0162856
669.514	0.0163022
669.592	0.0161020
669.670	0.0162149
669.748	0.0161178
669.826	0.0163766
669.905	0.0162353
669.983	0.0161897
670.061	0.0162122
670.139	0.0160953
670.217	0.0160414
670.295	0.0161802
670.373	0.0161629
670.451	0.0160674
670.530	0.0159262
670.608	0.0159748
670.686	0.0160361
670.764	0.0160352
670.842	0.0158408
670.920	0.0157885
670.998	0.0155945
671.076	0.0155527
671.155	0.0155389
671.233	0.0154362
671.311	0.0152663
671.389	0.0152831
671.467	0.0151089
671.545	0.0151111
671.623	0.0150507
671.701	0.0149217
671.780	0.0149541
671.858	0.0147499
671.936	0.0148570
672.014	0.0149220
672.092	0.0148274
672.170	0.0145493
672.248	0.0145000
672.326	0.0144483
672.405	0.0144122
672.483	0.0144279
672.561	0.0144558
672.639	0.0143578
672.717	0.0142725
672.795	0.0143491
672.873	0.0144447
672.951	0.0142376
673.030	0.0143424
673.108	0.0145483
673.186	0.0145420
673.264	0.0145486
673.342	0.0146081
673.420	0.0148341
673.498	0.0148611
673.576	0.0150423
673.655	0.0148904
673.733	0.0152101
673.811	0.0153486
673.889	0.0152901
673.967	0.0154915
674.045	0.0156010
674.123	0.0158118
674.201	0.0157265
674.280	0.0159312
674.358	0.0159579
674.436	0.0159904
674.514	0.0161011
674.592	0.0163039
674.670	0.0162604
674.748	0.0163961
674.826	0.0163969
674.905	0.0163706
674.983	0.0165257
675.061	0.0164164
675.139	0.0164208
675.217	0.0163892
675.295	0.0162386
675.373	0.0161901
675.451	0.0160844
675.530	0.0160476
675.608	0.0159593
675.686	0.0158169
675.764	0.0156410
675.842	0.0155314
675.920	0.0153226
675.998	0.0152875
676.076	0.0151134
676.155	0.0150164
676.233	0.0146558
676.311	0.0146973
676.389	0.0146349
676.467	0.0145795
676.545	0.0142402
676.623	0.0142972
676.701	0.0141563
676.780	0.0141044
676.858	0.0140237
676.936	0.0139838
677.014	0.0138586
677.092	0.0139865
677.170	0.0140615
677.248	0.0139442
677.326	0.0140554
677.405	0.0141319
677.483	0.0141958
677.561	0.0143407
677.639	0.0144353
677.717	0.0144465
677.795	0.0146832
677.873	0.0148016
677.951	0.0149192
678.030	0.0152104
678.108	0.0153141
678.186	0.0153986
678.264	0.0153932
678.342	0.0155534
678.420	0.0157745
678.498	0.0157890
678.576	0.0157720
678.655	0.0159139
678.733	0.0159135
678.811	0.0159724
678.889	0.0160197
678.967	0.0160291
679.045	0.0159012
679.123	0.0159085
679.201	0.0158023
679.280	0.0158199
679.358	0.0159330
679.436	0.0159653
679.514	0.0158680
679.592	0.0159423
679.670	0.0158777
679.748	0.0156889
679.826	0.0154775
679.905	0.0156313
679.983	0.0154553
680.061	0.0154765
680.139	0.0154382
680.217	0.0152525
680.295	0.0153127
680.373	0.0152824
680.451	0.0152560
680.530	0.0152195
680.608	0.0152105
680.686	0.0150571
680.764	0.0150908
680.842	0.0151634
680.920	0.0151780
680.998	0.0152249
681.076	0.0152821
681.155	0.0152036
681.233	0.0152633
681.311	0.0151980
681.389	0.0152401
681.467	0.0151504
681.545	0.0152818
681.623	0.0151434
681.701	0.0152232
681.780	0.0153104
681.858	0.0153072
681.936	0.0154232
682.014	0.0154195
682.092	0.0153420
682.170	0.0153265
682.248	0.0153868
682.326	0.0153134
682.405	0.0153374
682.483	0.0152757
682.561	0.0151300
682.639	0.0152124
682.717	0.0151414
682.795	0.0150523
682.873	0.0150832
682.951	0.0150085
683.030	0.0150091
683.108	0.0150230
683.186	0.0148492
683.264	0.0148230
683.342	0.0147565
683.420	0.0146648
683.498	0.0146241
683.576	0.0146539
683.655	0.0144648
683.733	0.0146581
683.811	0.0145953
683.889	0.0145879
683.967	0.0146016
684.045	0.0147598
684.123	0.0147545
684.201	0.0147817
684.280	0.0147750
684.358	0.0149612
684.436	0.0149641
684.514	0.0149555
684.592	0.0151850
684.670	0.0150285
684.748	0.0151325
684.826	0.0153216
684.905	0.0153020
684.983	0.0153358
685.061	0.0152831
685.139	0.0154747
685.217	0.0153960
685.295	0.0155911
685.373	0.0156066
685.451	0.0155920
685.530	0.0155912
685.608	0.0155828
685.686	0.0156078
685.764	0.0156281
685.842	0.0157832
685.920	0.0156658
685.998	0.0157034
686.076	0.0156071
686.155	0.0155363
686.233	0.0156561
686.311	0.0156205
686.389	0.0156582
686.467	0.0155438
686.545	0.0154718
686.623	0.0154948
686.701	0.0154619
686.780	0.0154607
686.858	0.0154479
686.936	0.0152551
687.014	0.0152763
687.092	0.0151539
687.170	0.0150729
687.248	0.0149749
687.326	0.0148225
687.405	0.0148469
687.483	0.0147179
687.561	0.0147271
687.639	0.0146670
687.717	0.0147802
687.795	0.0147746
687.873	0.0146507
687.951	0.0147903
688.030	0.0147628
688.108	0.0148116
688.186	0.0148986
688.264	0.0149928
688.342	0.0151604
688.420	0.0152760
688.498	0.0150533
688.576	0.0152312
688.655	0.0151849
688.733	0.0153436
688.811	0.0152680
688.889	0.0153509
688.967	0.0153930
689.045	0.0154965
689.123	0.0153673
689.201	0.0154974
689.280	0.0155759
689.358	0.0156512
689.436	0.0156072
689.514	0.0156213
689.592	0.0155162
689.670	0.0154333
689.748	0.0153342
689.826	0.0152752
689.905	0.0152623
689.983	0.0150173
690.061	0.0150420
690.139	0.0151048
690.217	0.0149255
690.295	0.0148628
690.373	0.0146307
690.451	0.0146502
690.530	0.0148143
690.608	0.0146790
690.686	0.0146824
690.764	0.0147742
690.842	0.0149409
690.920	0.0148267
690.998	0.0148692
691.076	0.0149500
691.155	0.0149962
691.233	0.0151706
691.311	0.0152122
691.389	0.0151086
691.467	0.0152222
691.545	0.0153830
691.623	0.0155882
691.701	0.0155602
691.780	0.0157207
691.858	0.0155461
691.936	0.0156537
692.014	0.0158499
692.092	0.0158394
692.170	0.0159030
692.248	0.0161713
692.326	0.0161721
692.405	0.0161147
692.483	0.0162675
692.561	0.0163077
692.639	0.0162408
692.717	0.0161446
692.795	0.0163761
692.873	0.0163378
692.951	0.0162078
693.030	0.0160007
693.108	0.0159557
693.186	0.0159849
693.264	0.0157905
693.342	0.0155910
693.420	0.0155589
693.498	0.0153860
693.576	0.0152082
693.655	0.0150563
693.733	0.0148817
693.811	0.0146541
693.889	0.0147772
693.967	0.0146168
694.045	0.0145015
694.123	0.0145183
694.201	0.0144875
694.280	0.0142848
694.358	0.0143527
694.436	0.0143637
694.514	0.0143736
694.592	0.0143344
694.670	0.0143330
694.748	0.0142759
694.826	0.0143301
694.905	0.0144277
694.983	0.0143134
695.061	0.0142559
695.139	0.0143040
695.217	0.0143285
695.295	0.0144049
695.373	0.0143904
695.451	0.0144930
695.530	0.0146112
695.608	0.0146851
695.686	0.0146545
695.764	0.0147600
695.842	0.0148420
695.920	0.0150328
695.998	0.0150582
696.076	0.0152071
696.155	0.0153290
696.233	0.0152844
696.311	0.0152815
696.389	0.0153884
696.467	0.0154060
696.545	0.0154340
696.623	0.0155396
696.701	0.0156489
696.780	0.0156808
696.858	0.0157258
696.936	0.0157957
697.014	0.0157085
697.092	0.0159977
697.170	0.0158862
697.248	0.0158308
697.326	0.0158912
697.405	0.0160001
697.483	0.0160377
697.561	0.0160442
697.639	0.0159959
697.717	0.0161419
697.795	0.0159815
697.873	0.0161101
697.951	0.0161690
698.030	0.0160606
698.108	0.0160223
698.186	0.0162043
698.264	0.0160762
698.342	0.0159773
698.420	0.0159652
698.498	0.0158098
698.576	0.0156601
698.655	0.0155978
698.733	0.0152763
698.811	0.0151538
698.889	0.0151591
698.967	0.0151604
699.045	0.0149623
699.123	0.0147871
699.201	0.0146574
699.280	0.0147496
699.358	0.0147655
699.436	0.0146268
699.514	0.0144558
699.592	0.0145332
699.670	0.0144865
699.748	0.0146103
699.826	0.0146630
699.905	0.0146156
699.983	0.0146069
700.061	0.0146368
700.139	0.0148351
700.217	0.0147230
700.295	0.0146730
700.373	0.0148715
700.451	0.0148547
700.530	0.0149538
700.608	0.0148568
700.686	0.0148816
700.764	0.0150364
700.842	0.0150319
700.920	0.0150538
700.998	0.0150555
701.076	0.0150499
701.155	0.0149904
701.233	0.0149214
701.311	0.0150812
701.389	0.0149427
701.467	0.0149274
701.545	0.0151785
701.623	0.0150823
701.701	0.0150961
701.780	0.0152090
701.858	0.0151180
701.936	0.0152211
702.014	0.0152615
702.092	0.0152226
702.170	0.0153140
702.248	0.0153962
702.326	0.0154615
702.405	0.0155175
702.483	0.0156911
702.561	0.0157725
702.639	0.0155387
702.717	0.0157005
702.795	0.0156961
702.873	0.0158447
702.951	0.0159196
703.030	0.0159769
703.108	0.0159886
703.186	0.0160180
703.264	0.0161440
703.342	0.0162073
703.420	0.0162241
703.498	0.0162753
703.576	0.0163563
703.655	0.0162885
703.733	0.0162964
703.811	0.0160957
703.889	0.0160501
703.967	0.0159231
704.045	0.0157467
704.123	0.0155452
704.201	0.0153391
704.280	0.0152599
704.358	0.0152474
704.436	0.0150271
704.514	0.0149703
704.592	0.0150407
704.670	0.0149493
704.748	0.0149153
704.826	0.0148059
704.905	0.0147632
704.983	0.0147977
705.061	0.0147937
705.139	0.0148331
705.217	0.0148322
705.295	0.0147916
705.373	0.0148361
705.451	0.0147084
705.530	0.0148492
705.608	0.0149427
705.686	0.0149202
705.764	0.0148382
705.842	0.0148740
705.920	0.0149690
705.998	0.0150459
706.076	0.0150113
706.155	0.0150468
706.233	0.0151176
706.311	0.0153462
706.389	0.0152579
706.467	0.0151591
706.545	0.0152360
706.623	0.0150987
706.701	0.0150536
706.780	0.0151614
706.858	0.0150479
706.936	0.0151450
707.014	0.0151457
707.092	0.0151141
707.170	0.0151094
707.248	0.0151510
707.326	0.0151185
707.405	0.0151454
707.483	0.0150510
707.561	0.0152174
707.639	0.0150639
707.717	0.0151617
707.795	0.0151060
707.873	0.0152237
707.951	0.0149947
708.030	0.0152628
708.108	0.0153752
708.186	0.0152380
708.264	0.0152406
708.342	0.0152086
708.420	0.0153363
708.498	0.0153561
708.576	0.0154981
708.655	0.0153366
708.733	0.0154353
708.811	0.0155887
708.889	0.0153973
708.967	0.0153654
709.045	0.0155772
709.123	0.0155038
709.201	0.0156462
709.280	0.0156036
709.358	0.0157540
709.436	0.0156648
709.514	0.0155645
709.592	0.0156859
709.670	0.0155727
709.748	0.0155698
709.826	0.0155252
709.905	0.0154362
709.983	0.0154250
710.061	0.0153545
710.139	0.0152820
710.217	0.0153433
710.295	0.0152145
710.373	0.0150138
710.451	0.0150378
710.530	0.0150966
710.608	0.0151681
710.686	0.0150922
710.764	0.0149359
710.842	0.0149722
710.920	0.0148511
710.998	0.0148059
711.076	0.0148346
711.155	0.0146832
711.233	0.0147118
711.311	0.0148452
711.389	0.0147632
711.467	0.0146447
711.545	0.0147062
711.623	0.0147486
711.701	0.0145734
711.780	0.0145894
711.858	0.0147668
711.936	0.0147784
712.014	0.0147766
712.092	0.0147543
712.170	0.0146233
712.248	0.0146175
712.326	0.0148724
712.405	0.0147923
712.483	0.0147576
712.561	0.0148079
712.639	0.0148769
712.717	0.0151046
712.795	0.0151846
712.873	0.0153352
712.951	0.0153087
713.030	0.0154585
713.108	0.0155456
713.186	0.0156233
713.264	0.0159803
713.342	0.0159508
713.420	0.0160964
713.498	0.0160677
713.576	0.0161924
713.655	0.0163381
713.733	0.0162672
713.811	0.0163216
713.889	0.0163870
713.967	0.0164159
714.045	0.0162524
714.123	0.0164135
714.201	0.0162242
714.280	0.0158825
714.358	0.0159914
714.436	0.0159222
714.514	0.0155955
714.592	0.0154229
714.670	0.0155051
714.748	0.0153516
714.826	0.0153017
714.905	0.0151687
714.983	0.0152069
715.061	0.0152070
715.139	0.0150247
715.217	0.0151206
715.295	0.0151841
715.373	0.0151470
715.451	0.0151094
715.530	0.0152235
715.608	0.0152229
715.686	0.0150128
715.764	0.0150858
715.842	0.0151532
715.920	0.0150482
715.998	0.0152747
716.076	0.0151794
716.155	0.0151029
716.233	0.0151524
716.311	0.0151325
716.389	0.0151176
716.467	0.0151237
716.545	0.0150470
716.623	0.0151480
716.701	0.0153008
716.780	0.0151039
716.858	0.0150721
716.936	0.0150574
717.014	0.0150921
717.092	0.0150607
717.170	0.0150472
717.248	0.0149354
717.326	0.0149654
717.405	0.0149559
717.483	0.0149333
717.561	0.0149318
717.639	0.0150275
717.717	0.0148680
717.795	0.0148699
717.873	0.0147586
717.951	0.0148554
718.030	0.0147115
718.108	0.0149132
718.186	0.0149682
718.264	0.0149517
718.342	0.0149593
718.420	0.0148762
718.498	0.0151366
718.576	0.0152168
718.655	0.0151076
718.733	0.0150932
718.811	0.0151910
718.889	0.0154499
718.967	0.0154401
719.045	0.0152937
719.123	0.0156969
719.201	0.0158128
719.280	0.0157133
719.358	0.0158711
719.436	0.0159655
719.514	0.0160172
719.592	0.0160452
719.670	0.0160387
719.748	0.0160437
719.826	0.0159912
719.905	0.0160950
719.983	0.0161236
720.061	0.0159280
720.139	0.0160787
720.217	0.0158273
720.295	0.0158550
720.373	0.0156847
720.451	0.0156375
720.530	0.0155271
720.608	0.0153929
720.686	0.0153732
720.764	0.0152340
720.842	0.0151031
720.920	0.0149840
720.998	0.0149049
721.076	0.0149944
721.155	0.0146811
721.233	0.0145242
721.311	0.0145905
721.389	0.0143609
721.467	0.0144141
721.545	0.0144101
721.623	0.0143359
721.701	0.0142717
721.780	0.0142738
721.858	0.0142207
721.936	0.0142608
722.014	0.0142497
722.092	0.0144035
722.170	0.0143460
722.248	0.0143759
722.326	0.0145142
722.405	0.0145490
722.483	0.0145143
722.561	0.0146046
722.639	0.0147850
722.717	0.0150207
722.795	0.0150949
722.873	0.0152290
722.951	0.0153206
723.030	0.0155031
723.108	0.0156215
723.186	0.0158311
723.264	0.0159176
723.342	0.0160130
723.420	0.0160903
723.498	0.0162026
723.576	0.0161315
723.655	0.0162407
723.733	0.0161870
723.811	0.0161012
723.889	0.0161212
723.967	0.0161901
724.045	0.0160899
724.123	0.0159961
724.201	0.0159475
724.280	0.0157478
724.358	0.0157394
724.436	0.0155933
724.514	0.0153484
724.592	0.0154265
724.670	0.0151846
724.748	0.0151550
724.826	0.0149866
724.905	0.0149658
724.983	0.0148097
725.061	0.0146613
725.139	0.0145891
725.217	0.0147047
725.295	0.0145991
725.373	0.0145909
725.451	0.0146896
725.530	0.0146429
725.608	0.0147193
725.686	0.0148557
725.764	0.0150597
725.842	0.0149706
725.920	0.0149586
725.998	0.0150546
726.076	0.0152635
726.155	0.0155827
726.233	0.0154629
726.311	0.0154268
726.389	0.0155553
726.467	0.0154784
726.545	0.0155138
726.623	0.0156579
726.701	0.0155214
726.780	0.0156636
726.858	0.0156736
726.936	0.0156339
727.014	0.0155280
727.092	0.0154791
727.170	0.0154380
727.248	0.0154258
727.326	0.0153509
727.405	0.0152659
727.483	0.0151171
727.561	0.0149957
727.639	0.0150352
727.717	0.0148738
727.795	0.0147734
727.873	0.0147415
727.951	0.0147124
728.030	0.0147050
728.108	0.0146775
728.186	0.0146344
728.264	0.0147548
728.342	0.0146884
728.420	0.0147149
728.498	0.0146605
728.576	0.0148222
728.655	0.0147281
728.733	0.0148215
728.811	0.0149053
728.889	0.0149118
728.967	0.0150095
729.045	0.0151874
729.123	0.0153371
729.201	0.0151713
729.280	0.0155130
729.358	0.0154366
729.436	0.0154578
729.514	0.0156026
729.592	0.0156477
729.670	0.0156651
729.748	0.0156484
729.826	0.0155641
729.905	0.0156376
729.983	0.0156458
730.061	0.0157941
730.139	0.0157494
730.217	0.0158759
730.295	0.0157549
730.373	0.0156442
730.451	0.0157536
730.530	0.0157001
730.608	0.0155652
730.686	0.0156778
730.764	0.0156757
730.842	0.0155460
730.920	0.0154126
730.998	0.0155785
731.076	0.0155016
731.155	0.0153477
731.233	0.0154057
731.311	0.0152534
731.389	0.0151310
731.467	0.0152487
731.545	0.0150733
731.623	0.0151675
731.701	0.0150578
731.780	0.0151608
731.858	0.0151063
731.936	0.0151165
732.014	0.0151281
732.092	0.0150954
732.170	0.0151678
732.248	0.0151711
732.326	0.0152871
732.405	0.0153127
732.483	0.0153840
732.561	0.0152381
732.639	0.0152666
732.717	0.0153761
732.795	0.0154898
732.873	0.0155264
732.951	0.0154857
733.030	0.0153393
733.108	0.0153386
733.186	0.0152669
733.264	0.0154783
733.342	0.0154168
733.420	0.0153283
733.498	0.0153564
733.576	0.0153698
733.655	0.0153808
733.733	0.0153789
733.811	0.0152552
733.889	0.0154427
733.967	0.0153342
734.045	0.0153148
734.123	0.0153894
734.201	0.0152981
734.280	0.0153447
734.358	0.0153322
734.436	0.0153477
734.514	0.0152438
734.592	0.0152853
734.670	0.0151935
734.748	0.0151950
734.826	0.0153236
734.905	0.0153236
734.983	0.0152528
735.061	0.0153066
735.139	0.0154073
735.217	0.0152486
735.295	0.0154693
735.373	0.0154048
735.451	0.0153450
735.530	0.0154671
735.608	0.0153676
735.686	0.0153306
735.764	0.0154753
735.842	0.0153106
735.920	0.0152994
735.998	0.0152528
736.076	0.0151797
736.155	0.0151411
736.233	0.0151176
736.311	0.0151100
736.389	0.0149966
736.467	0.0149651
736.545	0.0151532
736.623	0.0149788
736.701	0.0149128
736.780	0.0151008
736.858	0.0151735
736.936	0.0150845
737.014	0.0152083
737.092	0.0151005
737.170	0.0152092
737.248	0.0151547
737.326	0.0150970
737.405	0.0152867
737.483	0.0152452
737.561	0.0152900
737.639	0.0154142
737.717	0.0152315
737.795	0.0152097
737.873	0.0151241
737.951	0.0151351
738.030	0.0151630
738.108	0.0151519
738.186	0.0150822
738.264	0.0150487
738.342	0.0150930
738.420	0.0151226
738.498	0.0150517
738.576	0.0151131
738.655	0.0152714
738.733	0.0151627
738.811	0.0151664
738.889	0.0151254
738.967	0.0151814
739.045	0.0150451
739.123	0.0151376
739.201	0.0151357
739.280	0.0151469
739.358	0.0151375
739.436	0.0149642
739.514	0.0150447
739.592	0.0150875
739.670	0.0150034
739.748	0.0150061
739.826	0.0152068
739.905	0.0151862
739.983	0.0150830
740.061	0.0150797
740.139	0.0150333
740.217	0.0151310
740.295	0.0150468
740.373	0.0150532
740.451	0.0149634
740.530	0.0150943
740.608	0.0151085
740.686	0.0150610
740.764	0.0149569
740.842	0.0150937
740.920	0.0148950
740.998	0.0149644
741.076	0.0149976
741.155	0.0151897
741.233	0.0151183
741.311	0.0152926
741.389	0.0153686
741.467	0.0152427
741.545	0.0153543
741.623	0.0153614
741.701	0.0155609
741.780	0.0155621
741.858	0.0156629
741.936	0.0156803
742.014	0.0155720
742.092	0.0157576
742.170	0.0156475
742.248	0.0157493
742.326	0.0156683
742.405	0.0157237
742.483	0.0157085
742.561	0.0157237
742.639	0.0157174
742.717	0.0156857
742.795	0.0155463
742.873	0.0154935
742.951	0.0154820
743.030	0.0154845
743.108	0.0153854
743.186	0.0153897
743.264	0.0153429
743.342	0.0151202
743.420	0.0152636
743.498	0.0150420
743.576	0.0151619
743.655	0.0149783
743.733	0.0149886
743.811	0.0148843
743.889	0.0147587
743.967	0.0147820
744.045	0.0146281
744.123	0.0147144
744.201	0.0146175
744.280	0.0148470
744.358	0.0147839
744.436	0.0147507
744.514	0.0148268
744.592	0.0149401
744.670	0.0147896
744.748	0.0150318
744.826	0.0150407
744.905	0.0151555
744.983	0.0151468
745.061	0.0152648
745.139	0.0153821
745.217	0.0155206
745.295	0.0154457
745.373	0.0154187
745.451	0.0153972
745.530	0.0155188
745.608	0.0154466
745.686	0.0154258
745.764	0.0154133
745.842	0.0153159
745.920	0.0152221
745.998	0.0151838
746.076	0.0149683
746.155	0.0150533
746.233	0.0151398
746.311	0.0148711
746.389	0.0148728
746.467	0.0149323
746.545	0.0148754
746.623	0.0149554
746.701	0.0150227
746.780	0.0148993
746.858	0.0148957
746.936	0.0148309
747.014	0.0150773
747.092	0.0151298
747.170	0.0151021
747.248	0.0150651
747.326	0.0151360
747.405	0.0151532
747.483	0.0152036
747.561	0.0150484
747.639	0.0152161
747.717	0.0152473
747.795	0.0151843
747.873	0.0152321
747.951	0.0151348
748.030	0.0153413
748.108	0.0151891
748.186	0.0150285
748.264	0.0150266
748.342	0.0152249
748.420	0.0151076
748.498	0.0150114
748.576	0.0151264
748.655	0.0151722
748.733	0.0152532
748.811	0.0153363
748.889	0.0153539
748.967	0.0153560
749.045	0.0154074
749.123	0.0152803
749.201	0.0153998
749.280	0.0154834
749.358	0.0155141
749.436	0.0154952
749.514	0.0155351
749.592	0.0154510
749.670	0.0154034
749.748	0.0153532
749.826	0.0153078
749.905	0.0154197
749.983	0.0151700
750.061	0.0152134
750.139	0.0151787
750.217	0.0151450
750.295	0.0152685
750.373	0.0150585
750.451	0.0150544
750.530	0.0150688
750.608	0.0151981
750.686	0.0151864
750.764	0.0151790
750.842	0.0152145
750.920	0.0150774
750.998	0.0150838
751.076	0.0149660
751.155	0.0148774
751.233	0.0149080
751.311	0.0148764
751.389	0.0149323
751.467	0.0148515
751.545	0.0147267
751.623	0.0148445
751.701	0.0147569
751.780	0.0148024
751.858	0.0148440
751.936	0.0147889
752.014	0.0147507
752.092	0.0149063
752.170	0.0147894
752.248	0.0147534
752.326	0.0149149
752.405	0.0147808
752.483	0.0150323
752.561	0.0151077
752.639	0.0151767
752.717	0.0152476
752.795	0.0153607
752.873	0.0153442
752.951	0.0154698
753.030	0.0155376
753.108	0.0155356
753.186	0.0156988
753.264	0.0158481
753.342	0.0158526
753.420	0.0158323
753.498	0.0158640
753.576	0.0159414
753.655	0.0158924
753.733	0.0157210
753.811	0.0158557
753.889	0.0157097
753.967	0.0156934
754.045	0.0155445
754.123	0.0155769
754.201	0.0155754
754.280	0.0155603
754.358	0.0153295
754.436	0.0153358
754.514	0.0152773
754.592	0.0152663
754.670	0.0152144
754.748	0.0151363
754.826	0.0151035
754.905	0.0152168
754.983	0.0151688
755.061	0.0151411
755.139	0.0150307
755.217	0.0150564
755.295	0.0151009
755.373	0.0149426
755.451	0.0150008
755.530	0.0151868
755.608	0.0151122
755.686	0.0150363
755.764	0.0150840
755.842	0.0152161
755.920	0.0150005
755.998	0.0151017
756.076	0.0150857
756.155	0.0150231
756.233	0.0151198
756.311	0.0150943
756.389	0.0151929
756.467	0.0152064
756.545	0.0152097
756.623	0.0152247
756.701	0.0152094
756.780	0.0152701
756.858	0.0153719
756.936	0.0152264
757.014	0.0154655
757.092	0.0153748
757.170	0.0152879
757.248	0.0154081
757.326	0.0154708
757.405	0.0154101
757.483	0.0154578
757.561	0.0153319
757.639	0.0153630
757.717	0.0154602
757.795	0.0154279
757.873	0.0152895
757.951	0.0152337
758.030	0.0154549
758.108	0.0153592
758.186	0.0154252
758.264	0.0153185
758.342	0.0152905
758.420	0.0153028
758.498	0.0153227
758.576	0.0152706
758.655	0.0153375
758.733	0.0153773
758.811	0.0152887
758.889	0.0151991
758.967	0.0152166
759.045	0.0152009
759.123	0.0152830
759.201	0.0150825
759.280	0.0149457
759.358	0.0149659
759.436	0.0150542
759.514	0.0150761
759.592	0.0149575
759.670	0.0150861
759.748	0.0149399
759.826	0.0148209
759.905	0.0149673
759.983	0.0149529
760.061	0.0149506
760.139	0.0150573
760.217	0.0148817
760.295	0.0149195
760.373	0.0152647
760.451	0.0150576
760.530	0.0151423
760.608	0.0151213
760.686	0.0153304
760.764	0.0152807
760.842	0.0151995
760.920	0.0153647
760.998	0.0153414
761.076	0.0152904
761.155	0.0155184
761.233	0.0156687
761.311	0.0154934
761.389	0.0156164
761.467	0.0155933
761.545	0.0155144
761.623	0.0156064
761.701	0.0154137
761.780	0.0152936
761.858	0.0156390
761.936	0.0156541
762.014	0.0154291
762.092	0.0153344
762.170	0.0152901
762.248	0.0152351
762.326	0.0152148
762.405	0.0152798
762.483	0.0151611
762.561	0.0151782
762.639	0.0152254
762.717	0.0152769
762.795	0.0152266
762.873	0.0151478
762.951	0.0152010
763.030	0.0151286
763.108	0.0151066
763.186	0.0152544
763.264	0.0152213
763.342	0.0150781
763.420	0.0151383
763.498	0.0150788
763.576	0.0150273
763.655	0.0150240
763.733	0.0151409
763.811	0.0149527
763.889	0.0150383
763.967	0.0149680
764.045	0.0150147
764.123	0.0147990
764.201	0.0149438
764.280	0.0149287
764.358	0.0148329
764.436	0.0148260
764.514	0.0149287
764.592	0.0150854
764.670	0.0149563
764.748	0.0149551
764.826	0.0149793
764.905	0.0149357
764.983	0.0149997
765.061	0.0151522
765.139	0.0153284
765.217	0.0151629
765.295	0.0152099
765.373	0.0152291
765.451	0.0153036
765.530	0.0155834
765.608	0.0154511
765.686	0.0154076
765.764	0.0156398
765.842	0.0155956
765.920	0.0156940
765.998	0.0156940
766.076	0.0157478
766.155	0.0155195
766.233	0.0157155
766.311	0.0157224
766.389	0.0156198
766.467	0.0157093
766.545	0.0157510
766.623	0.0155875
766.701	0.0155037
766.780	0.0155122
766.858	0.0155200
766.936	0.0153606
767.014	0.0154496
767.092	0.0153403
767.170	0.0152614
767.248	0.0154552
767.326	0.0152419
767.405	0.0151439
767.483	0.0150969
767.561	0.0151298
767.639	0.0150372
767.717	0.0151272
767.795	0.0150413
767.873	0.0150192
767.951	0.0150690
768.030	0.0150394
768.108	0.0150541
768.186	0.0150420
768.264	0.0151109
768.342	0.0149853
768.420	0.0150565
768.498	0.0150607
768.576	0.0150434
768.655	0.0150644
768.733	0.0149901
768.811	0.0150790
768.889	0.0150274
768.967	0.0151412
769.045	0.0150694
769.123	0.0151350
769.201	0.0151230
769.280	0.0152263
769.358	0.0152003
769.436	0.0151486
769.514	0.0150965
769.592	0.0150288
769.670	0.0152023
769.748	0.0151210
769.826	0.0152265
769.905	0.0152843
769.983	0.0152512
770.061	0.0151899
770.139	0.0150894
770.217	0.0153148
770.295	0.0150707
770.373	0.0149665
770.451	0.0151028
770.530	0.0149970
770.608	0.0150202
770.686	0.0150298
770.764	0.0150688
770.842	0.0149905
770.920	0.0150023
770.998	0.0150085
771.076	0.0150661
771.155	0.0151205
771.233	0.0151421
771.311	0.0152234
771.389	0.0151663
771.467	0.0152234
771.545	0.0151487
771.623	0.0152065
771.701	0.0153462
771.780	0.0152718
771.858	0.0153382
771.936	0.0154472
772.014	0.0153241
772.092	0.0154411
772.170	0.0155899
772.248	0.0153970
772.326	0.0153931
772.405	0.0154062
772.483	0.0154499
772.561	0.0154411
772.639	0.0155257
772.717	0.0154697
772.795	0.0153667
772.873	0.0155238
772.951	0.0154244
773.030	0.0153948
773.108	0.0155280
773.186	0.0153934
773.264	0.0154425
773.342	0.0153420
773.420	0.0153297
773.498	0.0154067
773.576	0.0153302
773.655	0.0152609
773.733	0.0151907
773.811	0.0151694
773.889	0.0152136
773.967	0.0152585
774.045	0.0152921
774.123	0.0150842
774.201	0.0151225
774.280	0.0151105
774.358	0.0152089
774.436	0.0150629
774.514	0.0150930
774.592	0.0150694
774.670	0.0151291
774.748	0.0151275
774.826	0.0151273
774.905	0.0152463
774.983	0.0152042
775.061	0.0150553
775.139	0.0149813
775.217	0.0151414
775.295	0.0151978
775.373	0.0151719
775.451	0.0153046
775.530	0.0152483
775.608	0.0154228
775.686	0.0153751
775.764	0.0152540
775.842	0.0152853
775.920	0.0152446
775.998	0.0153096
776.076	0.0153513
776.155	0.0153530
776.233	0.0152325
776.311	0.0153046
776.389	0.0152589
776.467	0.0154337
776.545	0.0153307
776.623	0.0152074
776.701	0.0152189
776.780	0.0151375
776.858	0.0151563
776.936	0.0151573
777.014	0.0153191
777.092	0.0151293
777.170	0.0151898
777.248	0.0153156
777.326	0.0152102
777.405	0.0152647
777.483	0.0151322
777.561	0.0151897
777.639	0.0151221
777.717	0.0150027
777.795	0.0150708
777.873	0.0151005
777.951	0.0150443
778.030	0.0151379
778.108	0.0151154
778.186	0.0150723
778.264	0.0150648
778.342	0.0149056
778.420	0.0150256
778.498	0.0150797
778.576	0.0149574
778.655	0.0148022
778.733	0.0149242
778.811	0.0150626
778.889	0.0150285
778.967	0.0150522
779.045	0.0150357
779.123	0.0150079
779.201	0.0149373
779.280	0.0149794
779.358	0.0148719
779.436	0.0150468
779.514	0.0150352
779.592	0.0148193
779.670	0.0149662
779.748	0.0149917
779.826	0.0149978
779.905	0.0152184
779.983	0.0149965
780.061	0.0152139
780.139	0.0150753
780.217	0.0152187
780.295	0.0151227
780.373	0.0152516
780.451	0.0154014
780.530	0.0153824
780.608	0.0153892
780.686	0.0153871
780.764	0.0153101
780.842	0.0155024
780.920	0.0154195
780.998	0.0154331
781.076	0.0154724
781.155	0.0155069
781.233	0.0154837
781.311	0.0154552
781.389	0.0154669
781.467	0.0155559
781.545	0.0154417
781.623	0.0156428
781.701	0.0154813
781.780	0.0153814
781.858	0.0154328
781.936	0.0154525
782.014	0.0153596
782.092	0.0153791
782.170	0.0153940
782.248	0.0153482
782.326	0.0152486
782.405	0.0153660
782.483	0.0152872
782.561	0.0154178
782.639	0.0153726
782.717	0.0153107
782.795	0.0153642
782.873	0.0152868
782.951	0.0154259
783.030	0.0154948
783.108	0.0154421
783.186	0.0154414
783.264	0.0153355
783.342	0.0152384
783.420	0.0153635
783.498	0.0153677
783.576	0.0153857
783.655	0.0154476
783.733	0.0152724
783.811	0.0153205
783.889	0.0152893
783.967	0.0153970
784.045	0.0152376
784.123	0.0153683
784.201	0.0152547
784.280	0.0152926
784.358	0.0153703
784.436	0.0153635
784.514	0.0153940
784.592	0.0152680
784.670	0.0154111
784.748	0.0154530
784.826	0.0153738
784.905	0.0154562
784.983	0.0153355
785.061	0.0153224
785.139	0.0152446
785.217	0.0152439
785.295	0.0153623
785.373	0.0153938
785.451	0.0154304
785.530	0.0153289
785.608	0.0153634
785.686	0.0154147
785.764	0.0154904
785.842	0.0153738
785.920	0.0153532
785.998	0.0153014
786.076	0.0154570
786.155	0.0156055
786.233	0.0154395
786.311	0.0153020
786.389	0.0154021
786.467	0.0154840
786.545	0.0153730
786.623	0.0153664
786.701	0.0152555
786.780	0.0154154
786.858	0.0153776
786.936	0.0152821
787.014	0.0151929
787.092	0.0151994
787.170	0.0152374
787.248	0.0152766
787.326	0.0152060
787.405	0.0153419
787.483	0.0153645
787.561	0.0151886
787.639	0.0151682
787.717	0.0152519
787.795	0.0151463
787.873	0.0151686
787.951	0.0149777
788.030	0.0151701
788.108	0.0150580
788.186	0.0151900
788.264	0.0152701
788.342	0.0152179
788.420	0.0153000
788.498	0.0152486
788.576	0.0152994
788.655	0.0151995
788.733	0.0152920
788.811	0.0152383
788.889	0.0152557
788.967	0.0151647
789.045	0.0152878
789.123	0.0152254
789.201	0.0151416
789.280	0.0151942
789.358	0.0150034
789.436	0.0152447
789.514	0.0151682
789.592	0.0151629
789.670	0.0152296
789.748	0.0151552
789.826	0.0152362
789.905	0.0151870
789.983	0.0151543
790.061	0.0150578
790.139	0.0150354
790.217	0.0152158
790.295	0.0150957
790.373	0.0151424
790.451	0.0150620
790.530	0.0150992
790.608	0.0150096
790.686	0.0150571
790.764	0.0150156
790.842	0.0151679
790.920	0.0149886
790.998	0.0151473
791.076	0.0150663
791.155	0.0150356
791.233	0.0149065
791.311	0.0150267
791.389	0.0149532
791.467	0.0150501
791.545	0.0149505
791.623	0.0150240
791.701	0.0150792
791.780	0.0149356
791.858	0.0151324
791.936	0.0153135
792.014	0.0152551
792.092	0.0152020
792.170	0.0152740
792.248	0.0154121
792.326	0.0152756
792.405	0.0154389
792.483	0.0154076
792.561	0.0152587
792.639	0.0154769
792.717	0.0154397
792.795	0.0154736
792.873	0.0154533
792.951	0.0155656
793.030	0.0154469
793.108	0.0156599
793.186	0.0156391
793.264	0.0156152
793.342	0.0155764
793.420	0.0156168
793.498	0.0155365
793.576	0.0156375
793.655	0.0155959
793.733	0.0155637
793.811	0.0156204
793.889	0.0155051
793.967	0.0156072
794.045	0.0157032
794.123	0.0154948
794.201	0.0155589
794.280	0.0154494
794.358	0.0155051
794.436	0.0154539
794.514	0.0155766
794.592	0.0154803
794.670	0.0154593
794.748	0.0154952
794.826	0.0154316
794.905	0.0153070
794.983	0.0152510
795.061	0.0155219
795.139	0.0153352
795.217	0.0151843
795.295	0.0153152
795.373	0.0154033
795.451	0.0154649
795.530	0.0152333
795.608	0.0152824
795.686	0.0152243
795.764	0.0153985
795.842	0.0154288
795.920	0.0151300
795.998	0.0151278
796.076	0.0151340
796.155	0.0150523
796.233	0.0152514
796.311	0.0152025
796.389	0.0151219
796.467	0.0150932
796.545	0.0150949
796.623	0.0151715
796.701	0.0151048
796.780	0.0151495
796.858	0.0149683
796.936	0.0150541
797.014	0.0151322
797.092	0.0150901
797.170	0.0150251
797.248	0.0152145
797.326	0.0151203
797.405	0.0152029
797.483	0.0151620
797.561	0.0152162
797.639	0.0154346
797.717	0.0153409
797.795	0.0152995
797.873	0.0152599
797.951	0.0152180
798.030	0.0153274
798.108	0.0154045
798.186	0.0153416
798.264	0.0152734
798.342	0.0152636
798.420	0.0153479
798.498	0.0153867
798.576	0.0152795
798.655	0.0151304
798.733	0.0152113
798.811	0.0151723
798.889	0.0151010
798.967	0.0152252
799.045	0.0150481
799.123	0.0151900
799.201	0.0150590
799.280	0.0150991
799.358	0.0150814
799.436	0.0150658
799.514	0.0150525
799.592	0.0151064
799.670	0.0150981
799.748	0.0151658
799.826	0.0151485
799.905	0.0151263
799.983	0.0151538
800.061	0.0151716
800.139	0.0152052
800.217	0.0153742
800.295	0.0152460
800.373	0.0152568
800.451	0.0152340
800.530	0.0152750
800.608	0.0152715
800.686	0.0150880
800.764	0.0152843
800.842	0.0152679
800.920	0.0152957
800.998	0.0151915
801.076	0.0153516
801.155	0.0152645
801.233	0.0152957
801.311	0.0152657
801.389	0.0152818
801.467	0.0152102
801.545	0.0152339
801.623	0.0150628
801.701	0.0151334
801.780	0.0152843
801.858	0.0151963
801.936	0.0152359
802.014	0.0151946
802.092	0.0152710
802.170	0.0152068
802.248	0.0152790
802.326	0.0153006
802.405	0.0152486
802.483	0.0153094
802.561	0.0152457
802.639	0.0153326
802.717	0.0154386
802.795	0.0155590
802.873	0.0154771
802.951	0.0153683
803.030	0.0153003
803.108	0.0153450
803.186	0.0154668
803.264	0.0154716
803.342	0.0154704
803.420	0.0152695
803.498	0.0153702
803.576	0.0154679
803.655	0.0153800
803.733	0.0153313
803.811	0.0153841
803.889	0.0154574
803.967	0.0154193
804.045	0.0154380
804.123	0.0153985
804.201	0.0153512
804.280	0.0152784
804.358	0.0153491
804.436	0.0152960
804.514	0.0153621
804.592	0.0153106
804.670	0.0154415
804.748	0.0154072
804.826	0.0152789
804.905	0.0153286
804.983	0.0152706
805.061	0.0152885
805.139	0.0153116
805.217	0.0153071
805.295	0.0153843
805.373	0.0152883
805.451	0.0153379
805.530	0.0152329
805.608	0.0153019
805.686	0.0153684
805.764	0.0153270
805.842	0.0151692
805.920	0.0152530
805.998	0.0153329
806.076	0.0152670
806.155	0.0152077
806.233	0.0152499
806.311	0.0152663
806.389	0.0152023
806.467	0.0151929
806.545	0.0151510
806.623	0.0151671
806.701	0.0153672
806.780	0.0152665
806.858	0.0150208
806.936	0.0150654
807.014	0.0152003
807.092	0.0152171
807.170	0.0150671
807.248	0.0149016
807.326	0.0150243
807.405	0.0150621
807.483	0.0148505
807.561	0.0149237
807.639	0.0148042
807.717	0.0150079
807.795	0.0148862
807.873	0.0148261
807.951	0.0148393
808.030	0.0148422
808.108	0.0148406
808.186	0.0149902
808.264	0.0148533
808.342	0.0149427
808.420	0.0149186
808.498	0.0149895
808.576	0.0151103
808.655	0.0149252
808.733	0.0149434
808.811	0.0150259
808.889	0.0149707
808.967	0.0150919
809.045	0.0150742
809.123	0.0151780
809.201	0.0152382
809.280	0.0151302
809.358	0.0151048
809.436	0.0151698
809.514	0.0151307
809.592	0.0152321
809.670	0.0151520
809.748	0.0150797
809.826	0.0151501
809.905	0.0151119
809.983	0.0152731
810.061	0.0154039
810.139	0.0152746
810.217	0.0152792
810.295	0.0154066
810.373	0.0153563
810.451	0.0153396
810.530	0.0153844
810.608	0.0152849
810.686	0.0153366
810.764	0.0154604
810.842	0.0153795
810.920	0.0154301
810.998	0.0152972
811.076	0.0154247
811.155	0.0153071
811.233	0.0153120
811.311	0.0153735
811.389	0.0152441
811.467	0.0152063
811.545	0.0153297
811.623	0.0153119
811.701	0.0154615
811.780	0.0153899
811.858	0.0152655
811.936	0.0153161
812.014	0.0154187
812.092	0.0153394
812.170	0.0154427
812.248	0.0152687
812.326	0.0154507
812.405	0.0154161
812.483	0.0152967
812.561	0.0154163
812.639	0.0154948
812.717	0.0153712
812.795	0.0152576
812.873	0.0153391
812.951	0.0155618
813.030	0.0152401
813.108	0.0152884
813.186	0.0153864
813.264	0.0153451
813.342	0.0151962
813.420	0.0152975
813.498	0.0153319
813.576	0.0153853
813.655	0.0154330
813.733	0.0152708
813.811	0.0152852
813.889	0.0152914
813.967	0.0152810
814.045	0.0154021
814.123	0.0154153
814.201	0.0153133
814.280	0.0152734
814.358	0.0153235
814.436	0.0153830
814.514	0.0152065
814.592	0.0153153
814.670	0.0153721
814.748	0.0152011
814.826	0.0152275
814.905	0.0154655
814.983	0.0153959
815.061	0.0153412
815.139	0.0154171
815.217	0.0152293
815.295	0.0152331
815.373	0.0152778
815.451	0.0153354
815.530	0.0152275
815.608	0.0153015
815.686	0.0152609
815.764	0.0151444
815.842	0.0153225
815.920	0.0152006
815.998	0.0152232
816.076	0.0153093
816.155	0.0152450
816.233	0.0153119
816.311	0.0153944
816.389	0.0152478
816.467	0.0153277
816.545	0.0152732
816.623	0.0153245
816.701	0.0152077
816.780	0.0153510
816.858	0.0154852
816.936	0.0153732
817.014	0.0153815
817.092	0.0153056
817.170	0.0153193
817.248	0.0153239
817.326	0.0152785
817.405	0.0152518
817.483	0.0150859
817.561	0.0153976
817.639	0.0152991
817.717	0.0152282
817.795	0.0153394
817.873	0.0152293
817.951	0.0152532
818.030	0.0151466
818.108	0.0152226
818.186	0.0152952
818.264	0.0150784
818.342	0.0151112
818.420	0.0153053
818.498	0.0151556
818.576	0.0150235
818.655	0.0151740
818.733	0.0151418
818.811	0.0150758
818.889	0.0151230
818.967	0.0152887
819.045	0.0151576
819.123	0.0151492
819.201	0.0151723
819.280	0.0150591
819.358	0.0150356
819.436	0.0153451
819.514	0.0152278
819.592	0.0150637
819.670	0.0152654
819.748	0.0152477
819.826	0.0152233
819.905	0.0151761
819.983	0.0152405
820.061	0.0152461
820.139	0.0151746
820.217	0.0150981
820.295	0.0152369
820.373	0.0151568
820.451	0.0152238
820.530	0.0152110
820.608	0.0152069
820.686	0.0152575
820.764	0.0152901
820.842	0.0152586
820.920	0.0153506
820.998	0.0152050
821.076	0.0151878
821.155	0.0152660
821.233	0.0152416
821.311	0.0151875
821.389	0.0151038
821.467	0.0152714
821.545	0.0152781
821.623	0.0152151
821.701	0.0152225
821.780	0.0153088
821.858	0.0151986
821.936	0.0152554
822.014	0.0152802
822.092	0.0152470
822.170	0.0152223
822.248	0.0153058
822.326	0.0152187
822.405	0.0154593
822.483	0.0153066
822.561	0.0152994
822.639	0.0152668
822.717	0.0151675
822.795	0.0154039
822.873	0.0152487
822.951	0.0154269
823.030	0.0153510
823.108	0.0153356
823.186	0.0153115
823.264	0.0154034
823.342	0.0151296
823.420	0.0153237
823.498	0.0152496
823.576	0.0151363
823.655	0.0151208
823.733	0.0150915
823.811	0.0151435
823.889	0.0153072
823.967	0.0152544
824.045	0.0151558
824.123	0.0150279
824.201	0.0151759
824.280	0.0150785
824.358	0.0151246
824.436	0.0151862
824.514	0.0152407
824.592	0.0150242
824.670	0.0151507
824.748	0.0150707
824.826	0.0150864
824.905	0.0150735
824.983	0.0151665
825.061	0.0150864
825.139	0.0151855
825.217	0.0151221
825.295	0.0150957
825.373	0.0152283
825.451	0.0151901
825.530	0.0150761
825.608	0.0151483
825.686	0.0151549
825.764	0.0152168
825.842	0.0150990
825.920	0.0151608
825.998	0.0151761
826.076	0.0151642
826.155	0.0150100
826.233	0.0150622
826.311	0.0152052
826.389	0.0151917
826.467	0.0153153
826.545	0.0152550
826.623	0.0152895
826.701	0.0152158
826.780	0.0152037
826.858	0.0152258
826.936	0.0153291
827.014	0.0153621
827.092	0.0153042
827.170	0.0152892
827.248	0.0151945
827.326	0.0151321
827.405	0.0153922
827.483	0.0151276
827.561	0.0151299
827.639	0.0151970
827.717	0.0152000
827.795	0.0152906
827.873	0.0152473
827.951	0.0150835
828.030	0.0151539
828.108	0.0151431
828.186	0.0152499
828.264	0.0151981
828.342	0.0151967
828.420	0.0152363
828.498	0.0152559
828.576	0.0152488
828.655	0.0152574
828.733	0.0153145
828.811	0.0152802
828.889	0.0153555
828.967	0.0153129
829.045	0.0153825
829.123	0.0154945
829.201	0.0154430
829.280	0.0155128
829.358	0.0153101
829.436	0.0154220
829.514	0.0154317
829.592	0.0154082
829.670	0.0152942
829.748	0.0154071
829.826	0.0155523
829.905	0.0153074
829.983	0.0153008
830.061	0.0153873
830.139	0.0153332
830.217	0.0153763
830.295	0.0152448
830.373	0.0153118
830.451	0.0152261
830.530	0.0152549
830.608	0.0154238
830.686	0.0153648
830.764	0.0152850
830.842	0.0152967
830.920	0.0152803
830.998	0.0153152
831.076	0.0153602
831.155	0.0152320
831.233	0.0153785
831.311	0.0152400
831.389	0.0152953
831.467	0.0153497
831.545	0.0150714
831.623	0.0151367
831.701	0.0152317
831.780	0.0151008
831.858	0.0152173
831.936	0.0151863
832.014	0.0151815
832.092	0.0151353
832.170	0.0150927
832.248	0.0151266
832.326	0.0151699
832.405	0.0149921
832.483	0.0150825
832.561	0.0151756
832.639	0.0150809
832.717	0.0150654
832.795	0.0151141
832.873	0.0150463
832.951	0.0150540
833.030	0.0152483
833.108	0.0152144
833.186	0.0150582
833.264	0.0149978
833.342	0.0151051
833.420	0.0152914
833.498	0.0152682
833.576	0.0151207
833.655	0.0149783
833.733	0.0150936
833.811	0.0150623
833.889	0.0153519
833.967	0.0151826
834.045	0.0151025
834.123	0.0152458
834.201	0.0151295
834.280	0.0150652
834.358	0.0151197
834.436	0.0151051
834.514	0.0152350
834.592	0.0151131
834.670	0.0152528
834.748	0.0152964
834.826	0.0152727
834.905	0.0151868
834.983	0.0152859
835.061	0.0152927
835.139	0.0153448
835.217	0.0151460
835.295	0.0153489
835.373	0.0153918
835.451	0.0152866
835.530	0.0153733
835.608	0.0153688
835.686	0.0152520
835.764	0.0153311
835.842	0.0155045
835.920	0.0154317
835.998	0.0153497
836.076	0.0153445
836.155	0.0153644
836.233	0.0153703
836.311	0.0153109
836.389	0.0153464
836.467	0.0153162
836.545	0.0153381
836.623	0.0151846
836.701	0.0152833
836.780	0.0153088
836.858	0.0153028
836.936	0.0153577
837.014	0.0152786
837.092	0.0151971
837.170	0.0153584
837.248	0.0151508
837.326	0.0151651
837.405	0.0152473
837.483	0.0152135
837.561	0.0151672
837.639	0.0152155
837.717	0.0152946
837.795	0.0152016
837.873	0.0151925
837.951	0.0151887
838.030	0.0152401
838.108	0.0151331
838.186	0.0150281
838.264	0.0151686
838.342	0.0151653
838.420	0.0150509
838.498	0.0151450
838.576	0.0152182
838.655	0.0150303
838.733	0.0151228
838.811	0.0152467
838.889	0.0151153
838.967	0.0151250
839.045	0.0151866
839.123	0.0150377
839.201	0.0151825
839.280	0.0151671
839.358	0.0152372
839.436	0.0151617
839.514	0.0150238
839.592	0.0151538
839.670	0.0153969
839.748	0.0152361
839.826	0.0152645
839.905	0.0152961
839.983	0.0152129
840.061	0.0152440
840.139	0.0154386
840.217	0.0153289
840.295	0.0151050
840.373	0.0151647
840.451	0.0152395
840.530	0.0151740
840.608	0.0152838
840.686	0.0153061
840.764	0.0153204
840.842	0.0153948
840.920	0.0152227
840.998	0.0152846
841.076	0.0153337
841.155	0.0153916
841.233	0.0154575
841.311	0.0152710
841.389	0.0152647
841.467	0.0152530
841.545	0.0151904
841.623	0.0153506
841.701	0.0153008
841.780	0.0152294
841.858	0.0152171
841.936	0.0153510
842.014	0.0153957
842.092	0.0153162
842.170	0.0153204
842.248	0.0151855
842.326	0.0152467
842.405	0.0154618
842.483	0.0153597
842.561	0.0153801
842.639	0.0155009
842.717	0.0152322
842.795	0.0153522
842.873	0.0154134
842.951	0.0153629
843.030	0.0153036
843.108	0.0152575
843.186	0.0152777
843.264	0.0152819
843.342	0.0152509
843.420	0.0152199
843.498	0.0152252
843.576	0.0153157
843.655	0.0153175
843.733	0.0152950
843.811	0.0153324
843.889	0.0152652
843.967	0.0153381
844.045	0.0153896
844.123	0.0152699
844.201	0.0152780
844.280	0.0152468
844.358	0.0153500
844.436	0.0153635
844.514	0.0151136
844.592	0.0152410
844.670	0.0152584
844.748	0.0154105
844.826	0.0150983
844.905	0.0151694
844.983	0.0152991
845.061	0.0152395
845.139	0.0152854
845.217	0.0153055
845.295	0.0153516
845.373	0.0152730
845.451	0.0152722
845.530	0.0153139
845.608	0.0154583
845.686	0.0152520
845.764	0.0151361
845.842	0.0152962
845.920	0.0152882
845.998	0.0154320
846.076	0.0153143
846.155	0.0152804
846.233	0.0153365
846.311	0.0152750
846.389	0.0152646
846.467	0.0153318
846.545	0.0153371
846.623	0.0151217
846.701	0.0151749
846.780	0.0151644
846.858	0.0153115
846.936	0.0151842
847.014	0.0151492
847.092	0.0152980
847.170	0.0152425
847.248	0.0152299
847.326	0.0151240
847.405	0.0150623
847.483	0.0149637
847.561	0.0151507
847.639	0.0150890
847.717	0.0151012
847.795	0.0150648
847.873	0.0150677
847.951	0.0151344
848.030	0.0149886
848.108	0.0149343
848.186	0.0149873
848.264	0.0150441
848.342	0.0148970
848.420	0.0151743
848.498	0.0151636
848.576	0.0151949
848.655	0.0150859
848.733	0.0151009
848.811	0.0151023
848.889	0.0151482
848.967	0.0151624
849.045	0.0152262
849.123	0.0151043
849.201	0.0152136
849.280	0.0152089
849.358	0.0152813
849.436	0.0151921
849.514	0.0153928
849.592	0.0152983
849.670	0.0153042
849.748	0.0153050
849.826	0.0153500
849.905	0.0152782
849.983	0.0153575
850.061	0.0151177
850.139	0.0152498
850.217	0.0153902
850.295	0.0152975
850.373	0.0152831
850.451	0.0154160
850.530	0.0153857
850.608	0.0151888
850.686	0.0151718
850.764	0.0152917
850.842	0.0152307
850.920	0.0152008
850.998	0.0153606
851.076	0.0152980
851.155	0.0152244
851.233	0.0152306
851.311	0.0153085
851.389	0.0152534
851.467	0.0151437
851.545	0.0150928
851.623	0.0153072
851.701	0.0152679
851.780	0.0151841
851.858	0.0150977
851.936	0.0152045
852.014	0.0152110
852.092	0.0152956
852.170	0.0151873
852.248	0.0153329
852.326	0.0152240
852.405	0.0152032
852.483	0.0153123
852.561	0.0152117
852.639	0.0152600
852.717	0.0150121
852.795	0.0151299
852.873	0.0152016
852.951	0.0151240
853.030	0.0151831
853.108	0.0152628
853.186	0.0150514
853.264	0.0151498
853.342	0.0152787
853.420	0.0152431
853.498	0.0151199
853.576	0.0152119
853.655	0.0151137
853.733	0.0152279
853.811	0.0151204
853.889	0.0151326
853.967	0.0152180
854.045	0.0153060
854.123	0.0151823
854.201	0.0151199
854.280	0.0151900
854.358	0.0152108
854.436	0.0152536
854.514	0.0151160
854.592	0.0152903
854.670	0.0153932
854.748	0.0150970
854.826	0.0153358
854.905	0.0151853
854.983	0.0151985
855.061	0.0151943
855.139	0.0151904
855.217	0.0152084
855.295	0.0152747
855.373	0.0151209
855.451	0.0153632
855.530	0.0151981
855.608	0.0152402
855.686	0.0152543
855.764	0.0153311
855.842	0.0150556
855.920	0.0152698
855.998	0.0153096
856.076	0.0152090
856.155	0.0153820
856.233	0.0153448
856.311	0.0152647
856.389	0.0152966
856.467	0.0153863
856.545	0.0153031
856.623	0.0153400
856.701	0.0153567
856.780	0.0153368
856.858	0.0154224
856.936	0.0154354
857.014	0.0153685
857.092	0.0153821
857.170	0.0154182
857.248	0.0154534
857.326	0.0153828
857.405	0.0153809
857.483	0.0154647
857.561	0.0152613
857.639	0.0153571
857.717	0.0154342
857.795	0.0153363
857.873	0.0153365
857.951	0.0153883
858.030	0.0153628
858.108	0.0153845
858.186	0.0152931
858.264	0.0153285
858.342	0.0152570
858.420	0.0151384
858.498	0.0151672
858.576	0.0150942
858.655	0.0151167
858.733	0.0152186
858.811	0.0151041
858.889	0.0150885
858.967	0.0151911
859.045	0.0151908
859.123	0.0152007
859.201	0.0152087
859.280	0.0151563
859.358	0.0152022
859.436	0.0151490
859.514	0.0151902
859.592	0.0151920
859.670	0.0152452
859.748	0.0152759
859.826	0.0151073
859.905	0.0151450
859.983	0.0153315
860.061	0.0152454
860.139	0.0151648
860.217	0.0151623
860.295	0.0152385
860.373	0.0153905
860.451	0.0152810
860.530	0.0153272
860.608	0.0153664
860.686	0.0153140
860.764	0.0153157
860.842	0.0153511
860.920	0.0154472
860.998	0.0152775
861.076	0.0154474
861.155	0.0153214
861.233	0.0152291
861.311	0.0155422
861.389	0.0154589
861.467	0.0154021
861.545	0.0152918
861.623	0.0152959
861.701	0.0153771
861.780	0.0154134
861.858	0.0153196
861.936	0.0152917
862.014	0.0152424
862.092	0.0153011
862.170	0.0153942
862.248	0.0154562
862.326	0.0153097
862.405	0.0153557
862.483	0.0153204
862.561	0.0153970
862.639	0.0153716
862.717	0.0152290
862.795	0.0152294
862.873	0.0152197
862.951	0.0152085
863.030	0.0151493
863.108	0.0152241
863.186	0.0153426
863.264	0.0151521
863.342	0.0152228
863.420	0.0152075
863.498	0.0150792
863.576	0.0151356
863.655	0.0152451
863.733	0.0151020
863.811	0.0150909
863.889	0.0152204
863.967	0.0151749
864.045	0.0151318
864.123	0.0152256
864.201	0.0150705
864.280	0.0151881
864.358	0.0151266
864.436	0.0151140
864.514	0.0152011
864.592	0.0152233
864.670	0.0152292
864.748	0.0152719
864.826	0.0153266
864.905	0.0152719
864.983	0.0153473
865.061	0.0152898
865.139	0.0152453
865.217	0.0152979
865.295	0.0153208
865.373	0.0152638
865.451	0.0151364
865.530	0.0153779
865.608	0.0152398
865.686	0.0153573
865.764	0.0153199
865.842	0.0152528
865.920	0.0151954
865.998	0.0153726
866.076	0.0151906
866.155	0.0153722
866.233	0.0152158
866.311	0.0153266
866.389	0.0152840
866.467	0.0153029
866.545	0.0152899
866.623	0.0152967
866.701	0.0152353
866.780	0.0151982
866.858	0.0150720
866.936	0.0152472
867.014	0.0153214
867.092	0.0151866
867.170	0.0153304
867.248	0.0154954
867.326	0.0152768
867.405	0.0153875
867.483	0.0151321
867.561	0.0152932
867.639	0.0153413
867.717	0.0152981
867.795	0.0152927
867.873	0.0154165
867.951	0.0152828
868.030	0.0152435
868.108	0.0151876
868.186	0.0153173
868.264	0.0152487
868.342	0.0153390
868.420	0.0153530
868.498	0.0153937
868.576	0.0154638
868.655	0.0154763
868.733	0.0153783
868.811	0.0155311
868.889	0.0153650
868.967	0.0153922
869.045	0.0154066
869.123	0.0154073
869.201	0.0153749
869.280	0.0154549
869.358	0.0154572
869.436	0.0154520
869.514	0.0155463
869.592	0.0153687
869.670	0.0154333
869.748	0.0153745
869.826	0.0153691
869.905	0.0155699
869.983	0.0153918
870.061	0.0153854
870.139	0.0154927
870.217	0.0153793
870.295	0.0154572
870.373	0.0155143
870.451	0.0153943
870.530	0.0153087
870.608	0.0153062
870.686	0.0155193
870.764	0.0153568
870.842	0.0153121
870.920	0.0154153
870.998	0.0153447
871.076	0.0153111
871.155	0.0152513
871.233	0.0153603
871.311	0.0153113
871.389	0.0153018
871.467	0.0153548
871.545	0.0151962
871.623	0.0152097
871.701	0.0153084
871.780	0.0152797
871.858	0.0151860
871.936	0.0153101
872.014	0.0152129
872.092	0.0151018
872.170	0.0151819
872.248	0.0152118
872.326	0.0152491
872.405	0.0153141
872.483	0.0152932
872.561	0.0152737
872.639	0.0151371
872.717	0.0151733
872.795	0.0152158
872.873	0.0152617
872.951	0.0152176
873.030	0.0152576
873.108	0.0152472
873.186	0.0152001
873.264	0.0152684
873.342	0.0151677
873.420	0.0153258
873.498	0.0152908
873.576	0.0152107
873.655	0.0151914
873.733	0.0152497
873.811	0.0153996
873.889	0.0151573
873.967	0.0152411
874.045	0.0152447
874.123	0.0151764
874.201	0.0152853
874.280	0.0152902
874.358	0.0152496
874.436	0.0152479
874.514	0.0151641
874.592	0.0151975
874.670	0.0152630
874.748	0.0152325
874.826	0.0152973
874.905	0.0152515
874.983	0.0152504
875.061	0.0151659
875.139	0.0151620
875.217	0.0151987
875.295	0.0149944
875.373	0.0152109
875.451	0.0150885
875.530	0.0152110
875.608	0.0151686
875.686	0.0153017
875.764	0.0153122
875.842	0.0151217
875.920	0.0151633
875.998	0.0152219
876.076	0.0152515
876.155	0.0152125
876.233	0.0152772
876.311	0.0151903
876.389	0.0152496
876.467	0.0152715
876.545	0.0151057
876.623	0.0151909
876.701	0.0152114
876.780	0.0151991
876.858	0.0152763
876.936	0.0152670
877.014	0.0152180
877.092	0.0152388
877.170	0.0152737
877.248	0.0152582
877.326	0.0151819
877.405	0.0152229
877.483	0.0153287
877.561	0.0152084
877.639	0.0154108
877.717	0.0153629
877.795	0.0152908
877.873	0.0151618
877.951	0.0154258
878.030	0.0154456
878.108	0.0154321
878.186	0.0154286
878.264	0.0154856
878.342	0.0154599
878.420	0.0154472
878.498	0.0154368
878.576	0.0153912
878.655	0.0154453
878.733	0.0155190
878.811	0.0155060
878.889	0.0152918
878.967	0.0154054
879.045	0.0154794
879.123	0.0153074
879.201	0.0154546
879.280	0.0154296
879.358	0.0154955
879.436	0.0152277
879.514	0.0153609
879.592	0.0154605
879.670	0.0154076
879.748	0.0152476
879.826	0.0155094
879.905	0.0152465
879.983	0.0151930
880.061	0.0152147
880.139	0.0151674
880.217	0.0152505
880.295	0.0153500
880.373	0.0151370
880.451	0.0151537
880.530	0.0150908
880.608	0.0151096
880.686	0.0151981
880.764	0.0151241
880.842	0.0151182
880.920	0.0150275
880.998	0.0150183
881.076	0.0151872
881.155	0.0151322
881.233	0.0150562
881.311	0.0150685
881.389	0.0151001
881.467	0.0150082
881.545	0.0151591
881.623	0.0150521
881.701	0.0151274
881.780	0.0151916
881.858	0.0151547
881.936	0.0150452
882.014	0.0151759
882.092	0.0151503
882.170	0.0151221
882.248	0.0151403
882.326	0.0151447
882.405	0.0149625
882.483	0.0150789
882.561	0.0152100
882.639	0.0150552
882.717	0.0152015
882.795	0.0152329
882.873	0.0152780
882.951	0.0153562
883.030	0.0151920
883.108	0.0152829
883.186	0.0152797
883.264	0.0152228
883.342	0.0152980
883.420	0.0153658
883.498	0.0153287
883.576	0.0153562
883.655	0.0154230
883.733	0.0156064
883.811	0.0154520
883.889	0.0153470
883.967	0.0153103
884.045	0.0153993
884.123	0.0154326
884.201	0.0152928
884.280	0.0153236
884.358	0.0154047
884.436	0.0154829
884.514	0.0153716
884.592	0.0152646
884.670	0.0153564
884.748	0.0152251
884.826	0.0150780
884.905	0.0152376
884.983	0.0152513
885.061	0.0149322
885.139	0.0150381
885.217	0.0150806
885.295	0.0152282
885.373	0.0150836
885.451	0.0150168
885.530	0.0150532
885.608	0.0151060
885.686	0.0150690
885.764	0.0150319
885.842	0.0150648
885.920	0.0149394
885.998	0.0150866
886.076	0.0151541
886.155	0.0151385
886.233	0.0150842
886.311	0.0150375
886.389	0.0150448
886.467	0.0151044
886.545	0.0150263
886.623	0.0149818
886.701	0.0150249
886.780	0.0150825
886.858	0.0149980
886.936	0.0148822
887.014	0.0151167
887.092	0.0151345
887.170	0.0151533
887.248	0.0150710
887.326	0.0151684
887.405	0.0151772
887.483	0.0152013
887.561	0.0152486
887.639	0.0150603
887.717	0.0152119
887.795	0.0150459
887.873	0.0150982
887.951	0.0150780
888.030	0.0151485
888.108	0.0152164
888.186	0.0151897
888.264	0.0151776
888.342	0.0150832
888.420	0.0150703
888.498	0.0151458
888.576	0.0151479
888.655	0.0151946
888.733	0.0152012
888.811	0.0151378
888.889	0.0152509
888.967	0.0152651
889.045	0.0152051
889.123	0.0151448
889.201	0.0152499
889.280	0.0150658
889.358	0.0153639
889.436	0.0152284
889.514	0.0151115
889.592	0.0153210
889.670	0.0153089
889.748	0.0153564
889.826	0.0153081
889.905	0.0153812
889.983	0.0154015
890.061	0.0153615
890.139	0.0152460
890.217	0.0152794
890.295	0.0154213
890.373	0.0152584
890.451	0.0153442
890.530	0.0152840
890.608	0.0152512
890.686	0.0154250
890.764	0.0153910
890.842	0.0150925
890.920	0.0153872
890.998	0.0153317
891.076	0.0153822
891.155	0.0154630
891.233	0.0155206
891.311	0.0155265
891.389	0.0153557
891.467	0.0154030
891.545	0.0155019
891.623	0.0153798
891.701	0.0154641
891.780	0.0154726
891.858	0.0154422
891.936	0.0154803
892.014	0.0155337
892.092	0.0153831
892.170	0.0152761
892.248	0.0152392
892.326	0.0151456
892.405	0.0154403
892.483	0.0153347
892.561	0.0152378
892.639	0.0153539
892.717	0.0153539
892.795	0.0153873
892.873	0.0153149
892.951	0.0153202
893.030	0.0152625
893.108	0.0152988
893.186	0.0154415
893.264	0.0152399
893.342	0.0151624
893.420	0.0152106
893.498	0.0152052
893.576	0.0152351
893.655	0.0152206
893.733	0.0152458
893.811	0.0151272
893.889	0.0152339
893.967	0.0151770
894.045	0.0152884
894.123	0.0151417
894.201	0.0151463
894.280	0.0152242
894.358	0.0151546
894.436	0.0152034
894.514	0.0152362
894.592	0.0153225
894.670	0.0151530
894.748	0.0150791
894.826	0.0152345
894.905	0.0152086
894.983	0.0152180
895.061	0.0152147
895.139	0.0152600
895.217	0.0153626
895.295	0.0153147
895.373	0.0151862
895.451	0.0151628
895.530	0.0152729
895.608	0.0151302
895.686	0.0151859
895.764	0.0152174
895.842	0.0153816
895.920	0.0151868
895.998	0.0152430
896.076	0.0151253
896.155	0.0151656
896.233	0.0151197
896.311	0.0152887
896.389	0.0152190
896.467	0.0151771
896.545	0.0151807
896.623	0.0153179
896.701	0.0154530
896.780	0.0153294
896.858	0.0152988
896.936	0.0150835
897.014	0.0152377
897.092	0.0152314
897.170	0.0153104
897.248	0.0152560
897.326	0.0153553
897.405	0.0153207
897.483	0.0152101
897.561	0.0152987
897.639	0.0152524
897.717	0.0153266
897.795	0.0152779
897.873	0.0152821
897.951	0.0152102
898.030	0.0152154
898.108	0.0151918
898.186	0.0152035
898.264	0.0153260
898.342	0.0153046
898.420	0.0153262
898.498	0.0152083
898.576	0.0151746
898.655	0.0152258
898.733	0.0152241
898.811	0.0152598
898.889	0.0152970
898.967	0.0153232
899.045	0.0153930
899.123	0.0153929
899.201	0.0152966
899.280	0.0154237
899.358	0.0153962
899.436	0.0153909
899.514	0.0152657
899.592	0.0153297
899.670	0.0154649
899.748	0.0154057
899.826	0.0153153
899.905	0.0153088
899.983	0.0153532
900.061	0.0153307
900.139	0.0154484
900.217	0.0154002
900.295	0.0154099
900.373	0.0153671
900.451	0.0155144
900.530	0.0153472
900.608	0.0152890
900.686	0.0152505
900.764	0.0152909
900.842	0.0153400
900.920	0.0153365
900.998	0.0152068
901.076	0.0151659
901.155	0.0153020
901.233	0.0152456
901.311	0.0151765
901.389	0.0151897
901.467	0.0152415
901.545	0.0151235
901.623	0.0153056
901.701	0.0151857
901.780	0.0150552
901.858	0.0152094
901.936	0.0150367
902.014	0.0151646
902.092	0.0151320
902.170	0.0151821
902.248	0.0152118
902.326	0.0152232
902.405	0.0150847
902.483	0.0150522
902.561	0.0151613
902.639	0.0151571
902.717	0.0151997
902.795	0.0152079
902.873	0.0151926
902.951	0.0152467
903.030	0.0153135
903.108	0.0152398
903.186	0.0150947
903.264	0.0152726
903.342	0.0154281
903.420	0.0153088
903.498	0.0155175
903.576	0.0153384
903.655	0.0152891
903.733	0.0153313
903.811	0.0153996
903.889	0.0152990
903.967	0.0153106
904.045	0.0153322
904.123	0.0152991
904.201	0.0153668
904.280	0.0154052
904.358	0.0153983
904.436	0.0154655
904.514	0.0154663
904.592	0.0153994
904.670	0.0152179
904.748	0.0154557
904.826	0.0154987
904.905	0.0153809
904.983	0.0153551
905.061	0.0153838
905.139	0.0153505
905.217	0.0153677
905.295	0.0152934
905.373	0.0154803
905.451	0.0153426
905.530	0.0152788
905.608	0.0153647
905.686	0.0152266
905.764	0.0152061
905.842	0.0152579
905.920	0.0151434
905.998	0.0151568
906.076	0.0151326
906.155	0.0151010
906.233	0.0149209
906.311	0.0150375
906.389	0.0151495
906.467	0.0150190
906.545	0.0150401
906.623	0.0151435
906.701	0.0149996
906.780	0.0150579
906.858	0.0150842
906.936	0.0149635
907.014	0.0150594
907.092	0.0151904
907.170	0.0151118
907.248	0.0151764
907.326	0.0150919
907.405	0.0150045
907.483	0.0151633
907.561	0.0150674
907.639	0.0151734
907.717	0.0152106
907.795	0.0151835
907.873	0.0151481
907.951	0.0152250
908.030	0.0152563
908.108	0.0153165
908.186	0.0152591
908.264	0.0152145
908.342	0.0152484
908.420	0.0152499
908.498	0.0152847
908.576	0.0153281
908.655	0.0153445
908.733	0.0151869
908.811	0.0151993
908.889	0.0152361
908.967	0.0152424
909.045	0.0152306
909.123	0.0152162
909.201	0.0152293
909.280	0.0151028
909.358	0.0150824
909.436	0.0152326
909.514	0.0152858
909.592	0.0151454
909.670	0.0151657
909.748	0.0151776
909.826	0.0151350
909.905	0.0152189
909.983	0.0150919
910.061	0.0151929
910.139	0.0152384
910.217	0.0153404
910.295	0.0153201
910.373	0.0152868
910.451	0.0151961
910.530	0.0151999
910.608	0.0151196
910.686	0.0152872
910.764	0.0154353
910.842	0.0152793
910.920	0.0151848
910.998	0.0152514
911.076	0.0151976
911.155	0.0151455
911.233	0.0151194
911.311	0.0152544
911.389	0.0152496
911.467	0.0149372
911.545	0.0149839
911.623	0.0150312
911.701	0.0151225
911.780	0.0151444
911.858	0.0150538
911.936	0.0151000
912.014	0.0150488
912.092	0.0150516
912.170	0.0150383
912.248	0.0149316
912.326	0.0150677
912.405	0.0150745
912.483	0.0150687
912.561	0.0149902
912.639	0.0149834
912.717	0.0150537
912.795	0.0150914
912.873	0.0148897
912.951	0.0150511
913.030	0.0150518
913.108	0.0150825
913.186	0.0150196
913.264	0.0150744
913.342	0.0149148
913.420	0.0150820
913.498	0.0151212
913.576	0.0152501
913.655	0.0152727
913.733	0.0150352
913.811	0.0151495
913.889	0.0152320
913.967	0.0153493
914.045	0.0152709
914.123	0.0152077
914.201	0.0152280
914.280	0.0154080
914.358	0.0151820
914.436	0.0152928
914.514	0.0153843
914.592	0.0152415
914.670	0.0151916
914.748	0.0152663
914.826	0.0151940
914.905	0.0153763
914.983	0.0153074
915.061	0.0152182
915.139	0.0151141
915.217	0.0152277
915.295	0.0152381
915.373	0.0153407
915.451	0.0153243
915.530	0.0152075
915.608	0.0151329
915.686	0.0152602
915.764	0.0151394
915.842	0.0152828
915.920	0.0151966
915.998	0.0152344
916.076	0.0152024
916.155	0.0152226
916.233	0.0150918
916.311	0.0151980
916.389	0.0152141
916.467	0.0152433
916.545	0.0154239
916.623	0.0153260
916.701	0.0152194
916.780	0.0152978
916.858	0.0151080
916.936	0.0153442
917.014	0.0152740
917.092	0.0152640
917.170	0.0153365
917.248	0.0153615
917.326	0.0152442
917.405	0.0152924
917.483	0.0153473
917.561	0.0154206
917.639	0.0155039
917.717	0.0153713
917.795	0.0152962
917.873	0.0153742
917.951	0.0154356
918.030	0.0153697
918.108	0.0153577
918.186	0.0154457
918.264	0.0153284
918.342	0.0154225
918.420	0.0154453
918.498	0.0153351
918.576	0.0153758
918.655	0.0154501
918.733	0.0153241
918.811	0.0152567
918.889	0.0154159
918.967	0.0154549
919.045	0.0153335
919.123	0.0153288
919.201	0.0153207
919.280	0.0153362
919.358	0.0154955
919.436	0.0154294
919.514	0.0154089
919.592	0.0152763
919.670	0.0153619
919.748	0.0154370
919.826	0.0152686
919.905	0.0152474
919.983	0.0153180
920.061	0.0152155
920.139	0.0152727
920.217	0.0151983
920.295	0.0153042
920.373	0.0152903
920.451	0.0152038
920.530	0.0152240
920.608	0.0153352
920.686	0.0151883
920.764	0.0151109
920.842	0.0152061
920.920	0.0151911
920.998	0.0152817
921.076	0.0151267
921.155	0.0150937
921.233	0.0152567
921.311	0.0151827
921.389	0.0153639
921.467	0.0151634
921.545	0.0151703
921.623	0.0150875
921.701	0.0150027
921.780	0.0151823
921.858	0.0151540
921.936	0.0149657
922.014	0.0150675
922.092	0.0152251
922.170	0.0150406
922.248	0.0149851
922.326	0.0150086
922.405	0.0150900
922.483	0.0151655
922.561	0.0150231
922.639	0.0149969
922.717	0.0150105
922.795	0.0151195
922.873	0.0150985
922.951	0.0150778
923.030	0.0150433
923.108	0.0150681
923.186	0.0152804
923.264	0.0152736
923.342	0.0152727
923.420	0.0152651
923.498	0.0151913
923.576	0.0153091
923.655	0.0153297
923.733	0.0152205
923.811	0.0152673
923.889	0.0153661
923.967	0.0153642
924.045	0.0152175
924.123	0.0153295
924.201	0.0152269
924.280	0.0152673
924.358	0.0152794
924.436	0.0153194
924.514	0.0152983
924.592	0.0153306
924.670	0.0152911
924.748	0.0151884
924.826	0.0151710
924.905	0.0152412
924.983	0.0153504
925.061	0.0151638
925.139	0.0152463
925.217	0.0151519
925.295	0.0150964
925.373	0.0152145
925.451	0.0152339
925.530	0.0154089
925.608	0.0152494
925.686	0.0151013
925.764	0.0152004
925.842	0.0152024
925.920	0.0151874
925.998	0.0151440
926.076	0.0152509
926.155	0.0151375
926.233	0.0151631
926.311	0.0152021
926.389	0.0151749
926.467	0.0152561
926.545	0.0152596
926.623	0.0152311
926.701	0.0153093
926.780	0.0152499
926.858	0.0152621
926.936	0.0152982
927.014	0.0151058
927.092	0.0153234
927.170	0.0152562
927.248	0.0153120
927.326	0.0152784
927.405	0.0152965
927.483	0.0151418
927.561	0.0152468
927.639	0.0154013
927.717	0.0152971
927.795	0.0154887
927.873	0.0152775
927.951	0.0151697
928.030	0.0153147
928.108	0.0153044
928.186	0.0152163
928.264	0.0152943
928.342	0.0153667
928.420	0.0152185
928.498	0.0153166
928.576	0.0152850
928.655	0.0152360
928.733	0.0152593
928.811	0.0153374
928.889	0.0154282
928.967	0.0154533
929.045	0.0153827
929.123	0.0154191
929.201	0.0153296
929.280	0.0153964
929.358	0.0153584
929.436	0.0154245
929.514	0.0153614
929.592	0.0151991
929.670	0.0153278
929.748	0.0153077
929.826	0.0151346
929.905	0.0153193
929.983	0.0153217
930.061	0.0151704
930.139	0.0153644
930.217	0.0151712
930.295	0.0152940
930.373	0.0154752
930.451	0.0153619
930.530	0.0153381
930.608	0.0153146
930.686	0.0152740
930.764	0.0153895
930.842	0.0152792
930.920	0.0152270
930.998	0.0151930
931.076	0.0153105
931.155	0.0151975
931.233	0.0153780
931.311	0.0154005
931.389	0.0153889
931.467	0.0153380
931.545	0.0153787
931.623	0.0152609
931.701	0.0153206
931.780	0.0151493
931.858	0.0152749
931.936	0.0153735
932.014	0.0152092
932.092	0.0152788
932.170	0.0152537
932.248	0.0152037
932.326	0.0152658
932.405	0.0152552
932.483	0.0151405
932.561	0.0152574
932.639	0.0152271
932.717	0.0151598
932.795	0.0152207
932.873	0.0151508
932.951	0.0152962
933.030	0.0152145
933.108	0.0151347
933.186	0.0151411
933.264	0.0151007
933.342	0.0151936
933.420	0.0152244
933.498	0.0152293
933.576	0.0151136
933.655	0.0150762
933.733	0.0151751
933.811	0.0151566
933.889	0.0150456
933.967	0.0151584
934.045	0.0150402
934.123	0.0151027
934.201	0.0150063
934.280	0.0150620
934.358	0.0150439
934.436	0.0150115
934.514	0.0150375
934.592	0.0149865
934.670	0.0150259
934.748	0.0149762
934.826	0.0149821
934.905	0.0150715
934.983	0.0150249
935.061	0.0149608
935.139	0.0149886
935.217	0.0150763
935.295	0.0150829
935.373	0.0149847
935.451	0.0149123
935.530	0.0150978
935.608	0.0151359
935.686	0.0151534
935.764	0.0151762
935.842	0.0151212
935.920	0.0152128
935.998	0.0151810
936.076	0.0151608
936.155	0.0152087
936.233	0.0153280
936.311	0.0151662
936.389	0.0150974
936.467	0.0153480
936.545	0.0153278
936.623	0.0153013
936.701	0.0153502
936.780	0.0153278
936.858	0.0153104
936.936	0.0152972
937.014	0.0153085
937.092	0.0153470
937.170	0.0153745
937.248	0.0153251
937.326	0.0153139
937.405	0.0152319
937.483	0.0153583
937.561	0.0152151
937.639	0.0152345
937.717	0.0153072
937.795	0.0152933
937.873	0.0151967
937.951	0.0151689
938.030	0.0151360
938.108	0.0151903
938.186	0.0150932
938.264	0.0152396
938.342	0.0150381
938.420	0.0152577
938.498	0.0152119
938.576	0.0153745
938.655	0.0152622
938.733	0.0152927
938.811	0.0153900
938.889	0.0153196
938.967	0.0151531
939.045	0.0152074
939.123	0.0152306
939.201	0.0152749
939.280	0.0153463
939.358	0.0153360
939.436	0.0153213
939.514	0.0151529
939.592	0.0153332
939.670	0.0152829
939.748	0.0152084
939.826	0.0153973
939.905	0.0154620
939.983	0.0152244
940.061	0.0152541
940.139	0.0152293
940.217	0.0153612
940.295	0.0152657
940.373	0.0153772
940.451	0.0152508
940.530	0.0151595
940.608	0.0152282
940.686	0.0151713
940.764	0.0153072
940.842	0.0152399
940.920	0.0151615
940.998	0.0153090
941.076	0.0152637
941.155	0.0152180
941.233	0.0152209
941.311	0.0151649
941.389	0.0152960
941.467	0.0152567
941.545	0.0152058
941.623	0.0153925
941.701	0.0152394
941.780	0.0151961
941.858	0.0153014
941.936	0.0153103
942.014	0.0153013
942.092	0.0152151
942.170	0.0150946
942.248	0.0151513
942.326	0.0151467
942.405	0.0154645
942.483	0.0152212
942.561	0.0151763
942.639	0.0151185
942.717	0.0152910
942.795	0.0151153
942.873	0.0152681
942.951	0.0152814
943.030	0.0154113
943.108	0.0152736
943.186	0.0151297
943.264	0.0152602
943.342	0.0152367
943.420	0.0151383
943.498	0.0151926
943.576	0.0153103
943.655	0.0153343
943.733	0.0152829
943.811	0.0153534
943.889	0.0151937
943.967	0.0153033
944.045	0.0152492
944.123	0.0152039
944.201	0.0151808
944.280	0.0152366
944.358	0.0152052
944.436	0.0151665
944.514	0.0152284
944.592	0.0151414
944.670	0.0151675
944.748	0.0151887
944.826	0.0151060
944.905	0.0152773
944.983	0.0151137
945.061	0.0150901
945.139	0.0151382
945.217	0.0152255
945.295	0.0152488
945.373	0.0150674
945.451	0.0152232
945.530	0.0151270
945.608	0.0151585
945.686	0.0152351
945.764	0.0151810
945.842	0.0152163
945.920	0.0151561
945.998	0.0151387
946.076	0.0151987
946.155	0.0153876
946.233	0.0152598
946.311	0.0152449
946.389	0.0154283
946.467	0.0152943
946.545	0.0152524
946.623	0.0153905
946.701	0.0151708
946.780	0.0152544
946.858	0.0153200
946.936	0.0154159
947.014	0.0152485
947.092	0.0153310
947.170	0.0154192
947.248	0.0153332
947.326	0.0153048
947.405	0.0154124
947.483	0.0154368
947.561	0.0153854
947.639	0.0154127
947.717	0.0153033
947.795	0.0153203
947.873	0.0154114
947.951	0.0153616
948.030	0.0155360
948.108	0.0153172
948.186	0.0152850
948.264	0.0153034
948.342	0.0153735
948.420	0.0155386
948.498	0.0154547
948.576	0.0152249
948.655	0.0154360
948.733	0.0155126
948.811	0.0154774
948.889	0.0153223
948.967	0.0153590
949.045	0.0153637
949.123	0.0153157
949.201	0.0154214
949.280	0.0153336
949.358	0.0153209
949.436	0.0153932
949.514	0.0153535
949.592	0.0152696
949.670	0.0152662
949.748	0.0152821
949.826	0.0151714
949.905	0.0152585
949.983	0.0154331
950.061	0.0152214
950.139	0.0152747
950.217	0.0152026
950.295	0.0152483
950.373	0.0151701
950.451	0.0151292
950.530	0.0150903
950.608	0.0151280
950.686	0.0151348
950.764	0.0151154
950.842	0.0151067
950.920	0.0152304
950.998	0.0150885
951.076	0.0150148
951.155	0.0150568
951.233	0.0151019
951.311	0.0150617
951.389	0.0150709
951.467	0.0149609
951.545	0.0150560
951.623	0.0150063
951.701	0.0149742
951.780	0.0150862
951.858	0.0150584
951.936	0.0149414
952.014	0.0150735
952.092	0.0150753
952.170	0.0149266
952.248	0.0151435
952.326	0.0150873
952.405	0.0149899
952.483	0.0150156
952.561	0.0152668
952.639	0.0151235
952.717	0.0151528
952.795	0.0151878
952.873	0.0151358
952.951	0.0151663
953.030	0.0152831
953.108	0.0152969
953.186	0.0154070
953.264	0.0152113
953.342	0.0152042
953.420	0.0152798
953.498	0.0152569
953.576	0.0154898
953.655	0.0153299
953.733	0.0152744
953.811	0.0152866
953.889	0.0153525
953.967	0.0155241
954.045	0.0154121
954.123	0.0153961
954.201	0.0153793
954.280	0.0153962
954.358	0.0154791
954.436	0.0154652
954.514	0.0153194
954.592	0.0154489
954.670	0.0154092
954.748	0.0153733
954.826	0.0152998
954.905	0.0153294
954.983	0.0152752
955.061	0.0153329
955.139	0.0153566
955.217	0.0153120
955.295	0.0153492
955.373	0.0152251
955.451	0.0153391
955.530	0.0153342
955.608	0.0152990
955.686	0.0153311
955.764	0.0152573
955.842	0.0154317
955.920	0.0152995
955.998	0.0153678
956.076	0.0152895
956.155	0.0153125
956.233	0.0153010
956.311	0.0153997
956.389	0.0151871
956.467	0.0153683
956.545	0.0152864
956.623	0.0153073
956.701	0.0153098
956.780	0.0152602
956.858	0.0153249
956.936	0.0151917
957.014	0.0152438
957.092	0.0153392
957.170	0.0153452
957.248	0.0151978
957.326	0.0152903
957.405	0.0153287
957.483	0.0153212
957.561	0.0153978
957.639	0.0153047
957.717	0.0154395
957.795	0.0153840
957.873	0.0153558
957.951	0.0154552
958.030	0.0154924
958.108	0.0154256
958.186	0.0155222
958.264	0.0153441
958.342	0.0153536
958.420	0.0153882
958.498	0.0155692
958.576	0.0155662
958.655	0.0154191
958.733	0.0153873
958.811	0.0154148
958.889	0.0154459
958.967	0.0153853
959.045	0.0153286
959.123	0.0155159
959.201	0.0152900
959.280	0.0153517
959.358	0.0153654
959.436	0.0153230
959.514	0.0153101
959.592	0.0154502
959.670	0.0152711
959.748	0.0153139
959.826	0.0152918
959.905	0.0153074
