05/20/2022	17:15:10	Ver.	4.1	UNKNOWN
Optical Delay	639.982744	Delta X		0.078125	Sweeps	1	Scan Rate	0/0
Coordinates	Axis 1	NaN	Axis 2	NaN	Axis 3	NaN	Axis 4	NaN	Axis 5	NaN	Axis 6	0.000000
TX Power	0.000000	RX Power	0.000000

639.983	0.0151538
640.061	0.0151587
640.139	0.0150948
640.217	0.0152192
640.295	0.0150803
640.373	0.0151731
640.451	0.0151439
640.530	0.0151009
640.608	0.0152022
640.686	0.0152883
640.764	0.0151889
640.842	0.0152077
640.920	0.0152141
640.998	0.0151190
641.076	0.0151658
641.155	0.0153386
641.233	0.0152059
641.311	0.0153053
641.389	0.0153199
641.467	0.0151134
641.545	0.0152283
641.623	0.0152757
641.701	0.0153212
641.780	0.0151610
641.858	0.0152729
641.936	0.0152069
642.014	0.0152659
642.092	0.0152435
642.170	0.0152504
642.248	0.0152878
642.326	0.0151874
642.405	0.0151986
642.483	0.0150993
642.561	0.0150511
642.639	0.0152110
642.717	0.0151218
642.795	0.0151433
642.873	0.0152049
642.951	0.0151474
643.030	0.0150344
643.108	0.0152559
643.186	0.0149859
643.264	0.0150301
643.342	0.0149979
643.420	0.0151971
643.498	0.0151170
643.576	0.0150374
643.655	0.0151460
643.733	0.0150764
643.811	0.0150647
643.889	0.0150865
643.967	0.0151330
644.045	0.0152523
644.123	0.0151642
644.201	0.0151266
644.280	0.0152047
644.358	0.0151711
644.436	0.0153261
644.514	0.0151449
644.592	0.0151497
644.670	0.0151038
644.748	0.0151929
644.826	0.0151610
644.905	0.0152089
644.983	0.0151360
645.061	0.0150983
645.139	0.0151727
645.217	0.0153249
645.295	0.0151425
645.373	0.0150742
645.451	0.0152102
645.530	0.0152189
645.608	0.0150037
645.686	0.0151783
645.764	0.0152538
645.842	0.0153033
645.920	0.0151521
645.998	0.0151303
646.076	0.0151575
646.155	0.0152971
646.233	0.0151958
646.311	0.0150388
646.389	0.0151064
646.467	0.0150879
646.545	0.0151873
646.623	0.0151147
646.701	0.0150236
646.780	0.0151321
646.858	0.0150049
646.936	0.0151093
647.014	0.0152270
647.092	0.0152578
647.170	0.0149885
647.248	0.0151013
647.326	0.0150625
647.405	0.0152015
647.483	0.0151200
647.561	0.0150327
647.639	0.0153040
647.717	0.0151505
647.795	0.0150755
647.873	0.0153130
647.951	0.0152222
648.030	0.0152050
648.108	0.0151756
648.186	0.0152614
648.264	0.0152013
648.342	0.0153225
648.420	0.0153788
648.498	0.0153063
648.576	0.0153128
648.655	0.0152222
648.733	0.0151646
648.811	0.0154344
648.889	0.0152503
648.967	0.0151215
649.045	0.0151971
649.123	0.0152346
649.201	0.0153208
649.280	0.0152118
649.358	0.0151289
649.436	0.0152777
649.514	0.0152660
649.592	0.0152211
649.670	0.0149839
649.748	0.0152564
649.826	0.0151688
649.905	0.0152120
649.983	0.0150944
650.061	0.0149922
650.139	0.0150173
650.217	0.0151596
650.295	0.0151384
650.373	0.0151055
650.451	0.0151764
650.530	0.0151332
650.608	0.0151669
650.686	0.0151472
650.764	0.0151467
650.842	0.0152005
650.920	0.0152283
650.998	0.0151353
651.076	0.0153087
651.155	0.0153398
651.233	0.0151895
651.311	0.0152489
651.389	0.0151909
651.467	0.0153740
651.545	0.0153708
651.623	0.0154034
651.701	0.0153030
651.780	0.0151985
651.858	0.0154476
651.936	0.0153271
652.014	0.0152526
652.092	0.0154216
652.170	0.0153915
652.248	0.0153201
652.326	0.0152129
652.405	0.0151128
652.483	0.0152661
652.561	0.0150283
652.639	0.0150774
652.717	0.0150246
652.795	0.0150900
652.873	0.0148734
652.951	0.0148661
653.030	0.0150335
653.108	0.0149067
653.186	0.0150170
653.264	0.0149654
653.342	0.0149024
653.420	0.0149335
653.498	0.0149195
653.576	0.0150047
653.655	0.0149910
653.733	0.0150784
653.811	0.0151256
653.889	0.0150592
653.967	0.0150702
654.045	0.0150577
654.123	0.0151526
654.201	0.0151547
654.280	0.0151912
654.358	0.0150359
654.436	0.0150346
654.514	0.0150845
654.592	0.0149632
654.670	0.0150188
654.748	0.0149459
654.826	0.0150127
654.905	0.0149963
654.983	0.0148936
655.061	0.0150294
655.139	0.0149158
655.217	0.0148605
655.295	0.0148472
655.373	0.0149088
655.451	0.0149396
655.530	0.0149345
655.608	0.0148875
655.686	0.0149982
655.764	0.0148122
655.842	0.0149500
655.920	0.0151055
655.998	0.0151163
656.076	0.0149889
656.155	0.0150338
656.233	0.0151308
656.311	0.0151151
656.389	0.0152146
656.467	0.0152012
656.545	0.0151017
656.623	0.0152854
656.701	0.0153245
656.780	0.0152746
656.858	0.0152674
656.936	0.0152516
657.014	0.0153427
657.092	0.0152472
657.170	0.0152810
657.248	0.0153062
657.326	0.0153226
657.405	0.0152537
657.483	0.0152297
657.561	0.0152817
657.639	0.0152325
657.717	0.0151734
657.795	0.0150863
657.873	0.0150558
657.951	0.0151639
658.030	0.0150938
658.108	0.0151700
658.186	0.0151142
658.264	0.0152012
658.342	0.0151765
658.420	0.0152929
658.498	0.0152951
658.576	0.0153497
658.655	0.0153045
658.733	0.0154865
658.811	0.0153442
658.889	0.0154601
658.967	0.0153987
659.045	0.0153506
659.123	0.0154207
659.201	0.0153948
659.280	0.0154990
659.358	0.0156122
659.436	0.0154060
659.514	0.0154017
659.592	0.0153591
659.670	0.0152644
659.748	0.0153641
659.826	0.0153294
659.905	0.0153489
659.983	0.0152657
660.061	0.0153274
660.139	0.0152886
660.217	0.0153227
660.295	0.0152273
660.373	0.0151149
660.451	0.0152297
660.530	0.0150774
660.608	0.0151209
660.686	0.0152013
660.764	0.0151981
660.842	0.0149769
660.920	0.0150622
660.998	0.0149989
661.076	0.0151268
661.155	0.0149628
661.233	0.0150896
661.311	0.0149958
661.389	0.0150912
661.467	0.0151388
661.545	0.0151624
661.623	0.0151870
661.701	0.0151878
661.780	0.0152504
661.858	0.0151837
661.936	0.0152375
662.014	0.0151884
662.092	0.0152835
662.170	0.0152516
662.248	0.0152969
662.326	0.0153111
662.405	0.0152372
662.483	0.0152118
662.561	0.0152768
662.639	0.0151270
662.717	0.0152840
662.795	0.0153008
662.873	0.0152953
662.951	0.0153307
663.030	0.0153564
663.108	0.0153811
663.186	0.0152882
663.264	0.0151951
663.342	0.0154016
663.420	0.0154246
663.498	0.0154131
663.576	0.0154823
663.655	0.0153897
663.733	0.0153131
663.811	0.0155360
663.889	0.0155976
663.967	0.0155115
664.045	0.0155101
664.123	0.0154271
664.201	0.0154861
664.280	0.0154354
664.358	0.0155246
664.436	0.0153374
664.514	0.0152295
664.592	0.0151508
664.670	0.0152572
664.748	0.0151311
664.826	0.0149830
664.905	0.0149979
664.983	0.0147649
665.061	0.0146706
665.139	0.0147384
665.217	0.0146445
665.295	0.0148619
665.373	0.0145220
665.451	0.0145440
665.530	0.0144783
665.608	0.0143600
665.686	0.0144865
665.764	0.0143735
665.842	0.0144835
665.920	0.0146018
665.998	0.0144834
666.076	0.0144118
666.155	0.0144620
666.233	0.0146574
666.311	0.0147255
666.389	0.0147971
666.467	0.0148831
666.545	0.0147872
666.623	0.0150060
666.701	0.0151874
666.780	0.0152603
666.858	0.0153221
666.936	0.0153951
667.014	0.0155000
667.092	0.0155865
667.170	0.0156005
667.248	0.0158936
667.326	0.0159216
667.405	0.0159041
667.483	0.0159909
667.561	0.0159378
667.639	0.0160601
667.717	0.0159996
667.795	0.0160809
667.873	0.0158723
667.951	0.0160339
668.030	0.0158749
668.108	0.0159098
668.186	0.0158559
668.264	0.0157973
668.342	0.0158054
668.420	0.0158775
668.498	0.0155876
668.576	0.0155994
668.655	0.0156161
668.733	0.0155274
668.811	0.0155750
668.889	0.0154979
668.967	0.0153998
669.045	0.0153276
669.123	0.0151734
669.201	0.0152416
669.280	0.0150669
669.358	0.0149061
669.436	0.0148694
669.514	0.0148007
669.592	0.0147304
669.670	0.0146596
669.748	0.0146069
669.826	0.0146896
669.905	0.0146764
669.983	0.0146333
670.061	0.0146237
670.139	0.0144921
670.217	0.0144904
670.295	0.0144765
670.373	0.0144015
670.451	0.0143675
670.530	0.0142445
670.608	0.0142627
670.686	0.0142741
670.764	0.0142814
670.842	0.0142249
670.920	0.0143162
670.998	0.0143589
671.076	0.0144529
671.155	0.0143573
671.233	0.0144591
671.311	0.0146046
671.389	0.0146030
671.467	0.0148035
671.545	0.0148805
671.623	0.0149058
671.701	0.0150419
671.780	0.0151179
671.858	0.0150504
671.936	0.0152513
672.014	0.0152489
672.092	0.0153542
672.170	0.0154301
672.248	0.0156528
672.326	0.0156386
672.405	0.0157132
672.483	0.0158147
672.561	0.0158882
672.639	0.0159193
672.717	0.0159301
672.795	0.0161216
672.873	0.0161645
672.951	0.0161906
673.030	0.0163390
673.108	0.0162198
673.186	0.0163479
673.264	0.0163254
673.342	0.0162755
673.420	0.0162459
673.498	0.0163148
673.576	0.0161286
673.655	0.0159739
673.733	0.0160678
673.811	0.0159696
673.889	0.0156670
673.967	0.0155887
674.045	0.0154823
674.123	0.0154157
674.201	0.0151914
674.280	0.0150550
674.358	0.0149320
674.436	0.0148122
674.514	0.0146268
674.592	0.0144605
674.670	0.0141968
674.748	0.0141782
674.826	0.0139855
674.905	0.0139275
674.983	0.0139081
675.061	0.0138780
675.139	0.0137977
675.217	0.0137202
675.295	0.0137915
675.373	0.0138110
675.451	0.0137752
675.530	0.0137988
675.608	0.0139936
675.686	0.0139210
675.764	0.0140524
675.842	0.0141194
675.920	0.0142891
675.998	0.0143483
676.076	0.0145834
676.155	0.0146750
676.233	0.0147240
676.311	0.0149633
676.389	0.0151399
676.467	0.0151694
676.545	0.0155484
676.623	0.0157367
676.701	0.0157428
676.780	0.0157355
676.858	0.0159805
676.936	0.0161713
677.014	0.0159639
677.092	0.0161347
677.170	0.0163188
677.248	0.0162275
677.326	0.0162160
677.405	0.0162905
677.483	0.0162856
677.561	0.0161362
677.639	0.0159325
677.717	0.0159356
677.795	0.0159525
677.873	0.0160254
677.951	0.0160499
678.030	0.0158576
678.108	0.0156778
678.186	0.0156802
678.264	0.0155273
678.342	0.0156084
678.420	0.0154296
678.498	0.0153288
678.576	0.0152734
678.655	0.0151999
678.733	0.0152071
678.811	0.0150376
678.889	0.0150221
678.967	0.0151147
679.045	0.0149882
679.123	0.0149411
679.201	0.0150408
679.280	0.0149409
679.358	0.0148676
679.436	0.0148869
679.514	0.0150024
679.592	0.0150610
679.670	0.0149110
679.748	0.0149487
679.826	0.0150428
679.905	0.0149022
679.983	0.0148888
680.061	0.0148795
680.139	0.0149961
680.217	0.0149831
680.295	0.0149645
680.373	0.0149192
680.451	0.0148682
680.530	0.0149410
680.608	0.0148768
680.686	0.0148949
680.764	0.0149722
680.842	0.0149047
680.920	0.0149340
680.998	0.0148983
681.076	0.0148950
681.155	0.0149850
681.233	0.0148270
681.311	0.0148237
681.389	0.0148570
681.467	0.0149637
681.545	0.0149272
681.623	0.0149436
681.701	0.0148831
681.780	0.0148911
681.858	0.0148778
681.936	0.0149190
682.014	0.0148236
682.092	0.0147978
682.170	0.0149192
682.248	0.0148966
682.326	0.0148349
682.405	0.0149062
682.483	0.0148119
682.561	0.0149653
682.639	0.0149042
682.717	0.0148559
682.795	0.0148023
682.873	0.0148746
682.951	0.0150611
683.030	0.0148988
683.108	0.0150492
683.186	0.0152163
683.264	0.0151308
683.342	0.0152417
683.420	0.0153753
683.498	0.0154600
683.576	0.0153503
683.655	0.0155317
683.733	0.0155978
683.811	0.0156451
683.889	0.0156693
683.967	0.0154564
684.045	0.0157040
684.123	0.0156073
684.201	0.0157291
684.280	0.0157216
684.358	0.0158002
684.436	0.0157591
684.514	0.0156116
684.592	0.0156464
684.670	0.0156474
684.748	0.0157281
684.826	0.0155980
684.905	0.0154832
684.983	0.0154218
685.061	0.0154543
685.139	0.0154615
685.217	0.0152943
685.295	0.0154565
685.373	0.0153152
685.451	0.0151588
685.530	0.0152354
685.608	0.0152417
685.686	0.0152050
685.764	0.0151061
685.842	0.0150806
685.920	0.0150655
685.998	0.0151127
686.076	0.0151017
686.155	0.0150007
686.233	0.0150114
686.311	0.0150747
686.389	0.0149168
686.467	0.0149510
686.545	0.0149049
686.623	0.0149702
686.701	0.0149345
686.780	0.0149207
686.858	0.0148912
686.936	0.0150178
687.014	0.0149333
687.092	0.0151253
687.170	0.0149519
687.248	0.0149484
687.326	0.0151440
687.405	0.0151084
687.483	0.0150289
687.561	0.0150424
687.639	0.0150602
687.717	0.0151202
687.795	0.0151471
687.873	0.0151093
687.951	0.0151244
688.030	0.0152647
688.108	0.0152454
688.186	0.0151119
688.264	0.0152096
688.342	0.0154108
688.420	0.0151704
688.498	0.0152570
688.576	0.0152947
688.655	0.0151572
688.733	0.0152317
688.811	0.0151202
688.889	0.0151347
688.967	0.0149824
689.045	0.0150169
689.123	0.0150337
689.201	0.0149182
689.280	0.0148532
689.358	0.0149837
689.436	0.0149445
689.514	0.0149949
689.592	0.0149678
689.670	0.0150138
689.748	0.0150414
689.826	0.0151009
689.905	0.0150861
689.983	0.0151883
690.061	0.0152416
690.139	0.0151807
690.217	0.0153762
690.295	0.0153753
690.373	0.0155054
690.451	0.0155222
690.530	0.0155837
690.608	0.0156409
690.686	0.0157388
690.764	0.0157710
690.842	0.0156937
690.920	0.0157504
690.998	0.0158714
691.076	0.0156724
691.155	0.0156023
691.233	0.0156698
691.311	0.0157380
691.389	0.0157143
691.467	0.0156374
691.545	0.0156792
691.623	0.0157013
691.701	0.0155539
691.780	0.0156927
691.858	0.0156802
691.936	0.0157262
692.014	0.0154824
692.092	0.0154740
692.170	0.0155327
692.248	0.0154660
692.326	0.0154176
692.405	0.0152499
692.483	0.0151618
692.561	0.0151157
692.639	0.0150507
692.717	0.0150520
692.795	0.0147997
692.873	0.0147427
692.951	0.0147639
693.030	0.0146877
693.108	0.0146527
693.186	0.0145148
693.264	0.0146339
693.342	0.0145010
693.420	0.0145649
693.498	0.0146650
693.576	0.0145226
693.655	0.0146050
693.733	0.0146646
693.811	0.0143938
693.889	0.0145490
693.967	0.0146873
694.045	0.0146310
694.123	0.0147223
694.201	0.0147039
694.280	0.0146572
694.358	0.0146576
694.436	0.0147604
694.514	0.0148209
694.592	0.0147396
694.670	0.0148143
694.748	0.0149814
694.826	0.0149905
694.905	0.0150071
694.983	0.0152730
695.061	0.0151496
695.139	0.0151189
695.217	0.0152517
695.295	0.0153413
695.373	0.0153384
695.451	0.0154945
695.530	0.0153654
695.608	0.0154557
695.686	0.0154621
695.764	0.0155024
695.842	0.0154153
695.920	0.0154869
695.998	0.0156870
696.076	0.0157323
696.155	0.0157397
696.233	0.0158386
696.311	0.0157517
696.389	0.0159358
696.467	0.0159949
696.545	0.0158318
696.623	0.0159304
696.701	0.0160184
696.780	0.0160285
696.858	0.0159765
696.936	0.0160444
697.014	0.0158693
697.092	0.0158482
697.170	0.0156319
697.248	0.0157085
697.326	0.0155916
697.405	0.0154993
697.483	0.0155376
697.561	0.0153284
697.639	0.0152477
697.717	0.0150694
697.795	0.0149114
697.873	0.0147906
697.951	0.0147208
698.030	0.0145467
698.108	0.0144461
698.186	0.0141940
698.264	0.0141252
698.342	0.0142157
698.420	0.0139924
698.498	0.0140195
698.576	0.0139710
698.655	0.0140735
698.733	0.0140090
698.811	0.0141286
698.889	0.0141330
698.967	0.0142268
699.045	0.0144138
699.123	0.0146722
699.201	0.0146863
699.280	0.0147437
699.358	0.0147949
699.436	0.0147896
699.514	0.0149748
699.592	0.0150623
699.670	0.0153239
699.748	0.0152070
699.826	0.0152565
699.905	0.0153787
699.983	0.0153618
700.061	0.0154987
700.139	0.0155191
700.217	0.0154814
700.295	0.0154409
700.373	0.0154059
700.451	0.0154865
700.530	0.0154516
700.608	0.0155540
700.686	0.0154627
700.764	0.0155255
700.842	0.0154434
700.920	0.0154820
700.998	0.0155616
701.076	0.0155122
701.155	0.0155753
701.233	0.0156118
701.311	0.0156277
701.389	0.0156281
701.467	0.0156183
701.545	0.0157786
701.623	0.0156522
701.701	0.0157245
701.780	0.0156396
701.858	0.0157529
701.936	0.0156715
702.014	0.0156129
702.092	0.0157166
702.170	0.0157353
702.248	0.0157712
702.326	0.0156787
702.405	0.0156328
702.483	0.0155764
702.561	0.0157203
702.639	0.0154472
702.717	0.0155300
702.795	0.0156947
702.873	0.0153368
702.951	0.0152455
703.030	0.0152974
703.108	0.0152614
703.186	0.0151288
703.264	0.0151452
703.342	0.0151730
703.420	0.0148424
703.498	0.0148724
703.576	0.0147453
703.655	0.0146400
703.733	0.0147039
703.811	0.0145340
703.889	0.0144248
703.967	0.0144730
704.045	0.0145643
704.123	0.0143945
704.201	0.0145674
704.280	0.0145789
704.358	0.0145866
704.436	0.0148173
704.514	0.0146305
704.592	0.0146658
704.670	0.0146626
704.748	0.0147445
704.826	0.0149386
704.905	0.0148343
704.983	0.0149706
705.061	0.0150887
705.139	0.0151440
705.217	0.0152045
705.295	0.0152200
705.373	0.0152000
705.451	0.0153063
705.530	0.0153877
705.608	0.0154341
705.686	0.0153391
705.764	0.0155399
705.842	0.0153801
705.920	0.0154890
705.998	0.0155064
706.076	0.0153910
706.155	0.0155402
706.233	0.0154228
706.311	0.0153018
706.389	0.0153950
706.467	0.0152955
706.545	0.0151619
706.623	0.0151542
706.701	0.0151659
706.780	0.0152048
706.858	0.0150727
706.936	0.0150586
707.014	0.0149799
707.092	0.0150381
707.170	0.0149787
707.248	0.0150719
707.326	0.0150146
707.405	0.0150030
707.483	0.0150124
707.561	0.0151398
707.639	0.0150135
707.717	0.0152403
707.795	0.0151294
707.873	0.0152003
707.951	0.0152083
708.030	0.0152821
708.108	0.0151704
708.186	0.0152241
708.264	0.0152550
708.342	0.0152956
708.420	0.0153230
708.498	0.0153907
708.576	0.0154101
708.655	0.0154490
708.733	0.0153349
708.811	0.0154464
708.889	0.0153648
708.967	0.0153513
709.045	0.0153137
709.123	0.0153838
709.201	0.0153221
709.280	0.0152893
709.358	0.0152161
709.436	0.0151207
709.514	0.0149270
709.592	0.0150751
709.670	0.0148783
709.748	0.0149400
709.826	0.0149394
709.905	0.0147786
709.983	0.0148672
710.061	0.0147669
710.139	0.0145876
710.217	0.0146458
710.295	0.0147723
710.373	0.0147152
710.451	0.0148051
710.530	0.0147691
710.608	0.0146550
710.686	0.0147005
710.764	0.0147953
710.842	0.0148273
710.920	0.0149229
710.998	0.0148690
711.076	0.0150013
711.155	0.0149640
711.233	0.0149355
711.311	0.0151089
711.389	0.0151995
711.467	0.0153002
711.545	0.0151557
711.623	0.0152858
711.701	0.0153500
711.780	0.0153683
711.858	0.0152280
711.936	0.0152333
712.014	0.0153905
712.092	0.0154105
712.170	0.0154207
712.248	0.0153002
712.326	0.0152663
712.405	0.0155153
712.483	0.0154169
712.561	0.0154677
712.639	0.0155465
712.717	0.0156400
712.795	0.0155600
712.873	0.0154609
712.951	0.0154903
713.030	0.0156386
713.108	0.0156315
713.186	0.0156409
713.264	0.0155952
713.342	0.0155799
713.420	0.0154749
713.498	0.0155387
713.576	0.0154724
713.655	0.0153040
713.733	0.0154140
713.811	0.0154395
713.889	0.0152344
713.967	0.0152629
714.045	0.0151534
714.123	0.0151495
714.201	0.0150803
714.280	0.0150080
714.358	0.0150131
714.436	0.0148672
714.514	0.0148621
714.592	0.0148719
714.670	0.0149037
714.748	0.0149004
714.826	0.0149803
714.905	0.0148972
714.983	0.0148917
715.061	0.0147414
715.139	0.0146662
715.217	0.0148550
715.295	0.0147993
715.373	0.0147901
715.451	0.0147339
715.530	0.0146653
715.608	0.0145090
715.686	0.0145969
715.764	0.0146531
715.842	0.0145370
715.920	0.0147265
715.998	0.0145842
716.076	0.0146917
716.155	0.0145689
716.233	0.0145993
716.311	0.0146880
716.389	0.0147626
716.467	0.0147859
716.545	0.0148692
716.623	0.0149963
716.701	0.0149944
716.780	0.0150483
716.858	0.0151648
716.936	0.0151238
717.014	0.0151861
717.092	0.0152976
717.170	0.0153473
717.248	0.0152911
717.326	0.0154319
717.405	0.0154561
717.483	0.0154284
717.561	0.0157135
717.639	0.0155681
717.717	0.0157787
717.795	0.0155767
717.873	0.0156353
717.951	0.0158173
718.030	0.0158385
718.108	0.0157658
718.186	0.0156622
718.264	0.0156873
718.342	0.0157726
718.420	0.0158340
718.498	0.0159346
718.576	0.0157673
718.655	0.0157197
718.733	0.0159498
718.811	0.0159174
718.889	0.0158214
718.967	0.0158588
719.045	0.0158701
719.123	0.0159295
719.201	0.0158482
719.280	0.0157316
719.358	0.0157658
719.436	0.0157379
719.514	0.0158005
719.592	0.0156727
719.670	0.0156554
719.748	0.0154993
719.826	0.0153856
719.905	0.0152199
719.983	0.0150055
720.061	0.0149503
720.139	0.0150446
720.217	0.0149231
720.295	0.0150126
720.373	0.0146897
720.451	0.0145103
720.530	0.0146223
720.608	0.0145840
720.686	0.0144629
720.764	0.0146329
720.842	0.0145200
720.920	0.0145317
720.998	0.0145755
721.076	0.0145117
721.155	0.0145832
721.233	0.0145092
721.311	0.0147158
721.389	0.0148241
721.467	0.0148243
721.545	0.0148317
721.623	0.0148514
721.701	0.0149921
721.780	0.0152042
721.858	0.0151393
721.936	0.0151006
722.014	0.0151774
722.092	0.0152142
722.170	0.0152965
722.248	0.0154324
722.326	0.0154316
722.405	0.0153930
722.483	0.0154611
722.561	0.0156811
722.639	0.0155869
722.717	0.0154948
722.795	0.0158142
722.873	0.0156913
722.951	0.0158694
723.030	0.0158062
723.108	0.0159200
723.186	0.0158195
723.264	0.0158009
723.342	0.0157422
723.420	0.0156516
723.498	0.0156636
723.576	0.0155028
723.655	0.0155383
723.733	0.0154755
723.811	0.0155247
723.889	0.0155118
723.967	0.0154242
724.045	0.0154057
724.123	0.0154546
724.201	0.0153829
724.280	0.0152790
724.358	0.0151598
724.436	0.0151825
724.514	0.0151546
724.592	0.0149371
724.670	0.0150796
724.748	0.0149661
724.826	0.0148584
724.905	0.0149220
724.983	0.0148160
725.061	0.0149734
725.139	0.0150018
725.217	0.0148827
725.295	0.0149388
725.373	0.0149743
725.451	0.0149803
725.530	0.0149249
725.608	0.0150330
725.686	0.0150724
725.764	0.0150732
725.842	0.0150259
725.920	0.0148433
725.998	0.0150860
726.076	0.0149854
726.155	0.0150299
726.233	0.0150278
726.311	0.0149828
726.389	0.0150105
726.467	0.0149696
726.545	0.0148782
726.623	0.0149590
726.701	0.0148927
726.780	0.0149323
726.858	0.0146665
726.936	0.0148083
727.014	0.0149122
727.092	0.0147605
727.170	0.0147357
727.248	0.0147912
727.326	0.0149168
727.405	0.0148253
727.483	0.0147888
727.561	0.0148969
727.639	0.0148913
727.717	0.0148730
727.795	0.0149567
727.873	0.0149574
727.951	0.0149629
728.030	0.0150242
728.108	0.0149802
728.186	0.0150289
728.264	0.0152560
728.342	0.0151633
728.420	0.0150503
728.498	0.0151033
728.576	0.0152290
728.655	0.0154196
728.733	0.0153249
728.811	0.0153253
728.889	0.0154285
728.967	0.0154277
729.045	0.0155798
729.123	0.0154933
729.201	0.0154812
729.280	0.0157440
729.358	0.0156620
729.436	0.0156129
729.514	0.0155934
729.592	0.0155579
729.670	0.0156443
729.748	0.0155865
729.826	0.0154526
729.905	0.0154769
729.983	0.0154410
730.061	0.0155076
730.139	0.0153312
730.217	0.0153553
730.295	0.0154251
730.373	0.0152318
730.451	0.0153086
730.530	0.0152701
730.608	0.0152213
730.686	0.0151769
730.764	0.0152552
730.842	0.0150396
730.920	0.0151093
730.998	0.0150951
731.076	0.0150649
731.155	0.0151391
731.233	0.0150761
731.311	0.0151324
731.389	0.0152132
731.467	0.0151971
731.545	0.0152315
731.623	0.0151656
731.701	0.0152261
731.780	0.0153204
731.858	0.0153488
731.936	0.0151040
732.014	0.0150875
732.092	0.0151534
732.170	0.0152201
732.248	0.0151000
732.326	0.0151373
732.405	0.0151144
732.483	0.0151574
732.561	0.0150814
732.639	0.0150365
732.717	0.0151357
732.795	0.0149857
732.873	0.0150168
732.951	0.0150928
733.030	0.0149519
733.108	0.0151568
733.186	0.0151309
733.264	0.0150154
733.342	0.0149793
733.420	0.0149518
733.498	0.0150067
733.576	0.0149638
733.655	0.0150259
733.733	0.0149457
733.811	0.0149694
733.889	0.0150231
733.967	0.0149888
734.045	0.0149389
734.123	0.0152127
734.201	0.0151693
734.280	0.0150169
734.358	0.0149814
734.436	0.0150378
734.514	0.0150263
734.592	0.0149228
734.670	0.0149794
734.748	0.0150285
734.826	0.0151674
734.905	0.0149013
734.983	0.0149599
735.061	0.0149325
735.139	0.0150835
735.217	0.0150884
735.295	0.0151389
735.373	0.0151087
735.451	0.0151958
735.530	0.0152491
735.608	0.0150751
735.686	0.0152126
735.764	0.0152885
735.842	0.0153164
735.920	0.0152087
735.998	0.0154499
736.076	0.0152647
736.155	0.0153553
736.233	0.0152688
736.311	0.0153360
736.389	0.0152151
736.467	0.0151940
736.545	0.0152580
736.623	0.0151254
736.701	0.0154674
736.780	0.0152380
736.858	0.0150555
736.936	0.0151432
737.014	0.0150617
737.092	0.0150996
737.170	0.0149907
737.248	0.0149697
737.326	0.0150628
737.405	0.0151247
737.483	0.0149961
737.561	0.0151270
737.639	0.0150874
737.717	0.0152170
737.795	0.0152170
737.873	0.0152422
737.951	0.0152541
738.030	0.0151065
738.108	0.0151624
738.186	0.0152628
738.264	0.0151940
738.342	0.0151057
738.420	0.0152596
738.498	0.0151738
738.576	0.0150883
738.655	0.0151714
738.733	0.0150433
738.811	0.0150528
738.889	0.0150169
738.967	0.0149664
739.045	0.0148837
739.123	0.0148912
739.201	0.0149707
739.280	0.0147255
739.358	0.0149239
739.436	0.0148443
739.514	0.0148621
739.592	0.0148002
739.670	0.0147242
739.748	0.0149294
739.826	0.0149577
739.905	0.0149579
739.983	0.0149744
740.061	0.0148637
740.139	0.0150964
740.217	0.0149982
740.295	0.0150252
740.373	0.0150886
740.451	0.0150911
740.530	0.0150610
740.608	0.0152772
740.686	0.0153206
740.764	0.0150979
740.842	0.0152075
740.920	0.0155422
740.998	0.0155295
741.076	0.0152876
741.155	0.0154228
741.233	0.0154154
741.311	0.0155035
741.389	0.0152560
741.467	0.0154087
741.545	0.0154669
741.623	0.0154258
741.701	0.0154234
741.780	0.0154581
741.858	0.0153790
741.936	0.0153147
742.014	0.0152546
742.092	0.0153239
742.170	0.0153898
742.248	0.0153841
742.326	0.0153565
742.405	0.0154408
742.483	0.0153662
742.561	0.0153571
742.639	0.0153582
742.717	0.0152677
742.795	0.0152729
742.873	0.0154029
742.951	0.0152966
743.030	0.0152468
743.108	0.0152604
743.186	0.0153015
743.264	0.0151113
743.342	0.0152749
743.420	0.0152156
743.498	0.0152783
743.576	0.0151256
743.655	0.0152545
743.733	0.0152424
743.811	0.0151868
743.889	0.0152731
743.967	0.0151563
744.045	0.0150923
744.123	0.0152518
744.201	0.0151494
744.280	0.0151747
744.358	0.0150845
744.436	0.0150063
744.514	0.0151064
744.592	0.0151844
744.670	0.0149411
744.748	0.0149558
744.826	0.0150086
744.905	0.0150475
744.983	0.0151495
745.061	0.0150687
745.139	0.0151149
745.217	0.0152064
745.295	0.0152351
745.373	0.0151807
745.451	0.0152221
745.530	0.0154654
745.608	0.0154301
745.686	0.0153057
745.764	0.0153102
745.842	0.0154389
745.920	0.0153860
745.998	0.0154884
746.076	0.0155025
746.155	0.0154028
746.233	0.0153605
746.311	0.0152518
746.389	0.0152968
746.467	0.0153119
746.545	0.0150671
746.623	0.0149814
746.701	0.0150728
746.780	0.0150887
746.858	0.0149195
746.936	0.0149191
747.014	0.0149032
747.092	0.0149371
747.170	0.0150892
747.248	0.0149794
747.326	0.0150863
747.405	0.0151829
747.483	0.0151736
747.561	0.0150730
747.639	0.0151468
747.717	0.0152962
747.795	0.0152965
747.873	0.0152107
747.951	0.0152480
748.030	0.0152433
748.108	0.0153394
748.186	0.0151694
748.264	0.0152836
748.342	0.0152799
748.420	0.0153371
748.498	0.0152325
748.576	0.0153874
748.655	0.0152693
748.733	0.0153253
748.811	0.0152865
748.889	0.0153764
748.967	0.0153652
749.045	0.0153235
749.123	0.0152673
749.201	0.0151607
749.280	0.0152549
749.358	0.0152397
749.436	0.0151305
749.514	0.0149871
749.592	0.0151296
749.670	0.0150745
749.748	0.0150153
749.826	0.0152243
749.905	0.0151490
749.983	0.0150218
750.061	0.0150213
750.139	0.0150396
750.217	0.0150205
750.295	0.0151575
750.373	0.0151086
750.451	0.0152563
750.530	0.0151775
750.608	0.0152672
750.686	0.0150761
750.764	0.0151199
750.842	0.0150847
750.920	0.0150669
750.998	0.0151249
751.076	0.0151086
751.155	0.0150723
751.233	0.0151590
751.311	0.0152064
751.389	0.0151904
751.467	0.0151221
751.545	0.0151197
751.623	0.0151175
751.701	0.0150070
751.780	0.0149725
751.858	0.0150996
751.936	0.0150492
752.014	0.0152115
752.092	0.0151157
752.170	0.0150652
752.248	0.0150417
752.326	0.0150922
752.405	0.0150820
752.483	0.0152072
752.561	0.0150668
752.639	0.0151113
752.717	0.0150580
752.795	0.0150146
752.873	0.0151407
752.951	0.0151663
753.030	0.0153422
753.108	0.0154168
753.186	0.0153410
753.264	0.0153451
753.342	0.0154739
753.420	0.0156612
753.498	0.0155090
753.576	0.0155087
753.655	0.0154836
753.733	0.0156235
753.811	0.0155946
753.889	0.0155091
753.967	0.0154964
754.045	0.0154876
754.123	0.0154312
754.201	0.0153113
754.280	0.0153995
754.358	0.0154598
754.436	0.0153069
754.514	0.0152622
754.592	0.0151633
754.670	0.0152705
754.748	0.0151776
754.826	0.0151233
754.905	0.0150333
754.983	0.0152155
755.061	0.0151434
755.139	0.0150279
755.217	0.0151243
755.295	0.0151957
755.373	0.0150152
755.451	0.0152274
755.530	0.0151057
755.608	0.0150964
755.686	0.0150787
755.764	0.0151689
755.842	0.0150696
755.920	0.0150287
755.998	0.0151278
756.076	0.0150034
756.155	0.0150417
756.233	0.0149731
756.311	0.0150434
756.389	0.0151015
756.467	0.0150027
756.545	0.0150057
756.623	0.0149381
756.701	0.0148611
756.780	0.0148317
756.858	0.0148323
756.936	0.0149216
757.014	0.0149594
757.092	0.0148994
757.170	0.0150897
757.248	0.0149132
757.326	0.0150072
757.405	0.0150919
757.483	0.0150990
757.561	0.0149257
757.639	0.0149960
757.717	0.0150475
757.795	0.0149831
757.873	0.0149508
757.951	0.0148663
758.030	0.0147982
758.108	0.0149649
758.186	0.0149055
758.264	0.0148215
758.342	0.0148882
758.420	0.0149816
758.498	0.0149050
758.576	0.0150243
758.655	0.0148862
758.733	0.0150995
758.811	0.0150784
758.889	0.0148922
758.967	0.0151657
759.045	0.0153062
759.123	0.0152256
759.201	0.0152686
759.280	0.0152934
759.358	0.0154514
759.436	0.0153857
759.514	0.0154284
759.592	0.0152876
759.670	0.0151629
759.748	0.0152787
759.826	0.0153490
759.905	0.0153876
759.983	0.0153026
760.061	0.0153180
760.139	0.0152016
760.217	0.0151758
760.295	0.0152065
760.373	0.0152274
760.451	0.0151530
760.530	0.0152040
760.608	0.0150782
760.686	0.0150252
760.764	0.0151643
760.842	0.0151398
760.920	0.0151369
760.998	0.0150868
761.076	0.0151836
761.155	0.0151848
761.233	0.0152425
761.311	0.0149677
761.389	0.0150491
761.467	0.0149905
761.545	0.0148465
761.623	0.0149566
761.701	0.0149236
761.780	0.0148770
761.858	0.0148571
761.936	0.0149352
762.014	0.0150385
762.092	0.0150665
762.170	0.0149672
762.248	0.0150682
762.326	0.0149811
762.405	0.0150771
762.483	0.0152006
762.561	0.0151711
762.639	0.0154236
762.717	0.0155141
762.795	0.0154603
762.873	0.0156104
762.951	0.0156338
763.030	0.0156892
763.108	0.0156483
763.186	0.0156860
763.264	0.0158236
763.342	0.0158340
763.420	0.0158095
763.498	0.0157541
763.576	0.0156085
763.655	0.0156983
763.733	0.0156288
763.811	0.0155296
763.889	0.0155788
763.967	0.0156135
764.045	0.0154836
764.123	0.0153020
764.201	0.0154465
764.280	0.0154408
764.358	0.0150803
764.436	0.0151983
764.514	0.0150530
764.592	0.0148677
764.670	0.0150916
764.748	0.0149937
764.826	0.0148927
764.905	0.0149073
764.983	0.0149378
765.061	0.0149971
765.139	0.0147664
765.217	0.0147437
765.295	0.0148028
765.373	0.0148033
765.451	0.0148196
765.530	0.0146897
765.608	0.0146764
765.686	0.0148264
765.764	0.0148032
765.842	0.0148676
765.920	0.0146969
765.998	0.0147974
766.076	0.0148094
766.155	0.0146416
766.233	0.0146452
766.311	0.0148543
766.389	0.0147959
766.467	0.0148730
766.545	0.0148174
766.623	0.0148599
766.701	0.0149175
766.780	0.0148862
766.858	0.0148802
766.936	0.0149342
767.014	0.0150057
767.092	0.0151070
767.170	0.0150334
767.248	0.0150816
767.326	0.0149956
767.405	0.0150702
767.483	0.0149986
767.561	0.0151235
767.639	0.0151281
767.717	0.0150810
767.795	0.0151299
767.873	0.0151714
767.951	0.0153135
768.030	0.0151752
768.108	0.0151173
768.186	0.0152050
768.264	0.0153311
768.342	0.0152813
768.420	0.0154456
768.498	0.0155197
768.576	0.0153314
768.655	0.0154353
768.733	0.0154808
768.811	0.0154318
768.889	0.0153526
768.967	0.0154309
769.045	0.0154868
769.123	0.0154034
769.201	0.0155459
769.280	0.0155695
769.358	0.0154040
769.436	0.0153207
769.514	0.0154581
769.592	0.0153322
769.670	0.0151406
769.748	0.0153130
769.826	0.0151567
769.905	0.0151336
769.983	0.0152364
770.061	0.0151480
770.139	0.0150932
770.217	0.0151272
770.295	0.0150861
770.373	0.0149802
770.451	0.0149971
770.530	0.0150795
770.608	0.0149892
770.686	0.0151162
770.764	0.0151017
770.842	0.0149413
770.920	0.0149361
770.998	0.0151099
771.076	0.0150587
771.155	0.0150286
771.233	0.0151450
771.311	0.0151602
771.389	0.0151271
771.467	0.0153223
771.545	0.0151876
771.623	0.0153262
771.701	0.0152640
771.780	0.0152604
771.858	0.0153286
771.936	0.0154707
772.014	0.0154061
772.092	0.0152879
772.170	0.0153632
772.248	0.0153211
772.326	0.0152291
772.405	0.0153747
772.483	0.0154226
772.561	0.0152192
772.639	0.0154052
772.717	0.0151544
772.795	0.0153555
772.873	0.0155165
772.951	0.0154446
773.030	0.0153895
773.108	0.0153360
773.186	0.0153474
773.264	0.0153384
773.342	0.0153963
773.420	0.0155757
773.498	0.0154333
773.576	0.0154046
773.655	0.0155482
773.733	0.0154963
773.811	0.0152643
773.889	0.0154870
773.967	0.0154267
774.045	0.0153516
774.123	0.0154320
774.201	0.0156091
774.280	0.0154893
774.358	0.0152770
774.436	0.0154051
774.514	0.0154175
774.592	0.0154152
774.670	0.0153058
774.748	0.0152960
774.826	0.0153671
774.905	0.0152985
774.983	0.0151920
775.061	0.0151699
775.139	0.0152106
775.217	0.0151684
775.295	0.0150645
775.373	0.0150955
775.451	0.0150347
775.530	0.0150900
775.608	0.0149888
775.686	0.0148633
775.764	0.0150195
775.842	0.0149946
775.920	0.0148000
775.998	0.0150157
776.076	0.0150185
776.155	0.0149847
776.233	0.0150198
776.311	0.0150259
776.389	0.0150578
776.467	0.0149924
776.545	0.0151847
776.623	0.0151133
776.701	0.0150458
776.780	0.0152004
776.858	0.0152245
776.936	0.0150370
777.014	0.0149429
777.092	0.0150910
777.170	0.0150906
777.248	0.0151421
777.326	0.0152291
777.405	0.0150996
777.483	0.0148621
777.561	0.0151109
777.639	0.0149908
777.717	0.0148301
777.795	0.0148576
777.873	0.0148949
777.951	0.0148808
778.030	0.0149335
778.108	0.0148495
778.186	0.0148545
778.264	0.0149370
778.342	0.0150298
778.420	0.0149173
778.498	0.0150967
778.576	0.0150079
778.655	0.0150183
778.733	0.0149894
778.811	0.0149942
778.889	0.0151469
778.967	0.0151058
779.045	0.0150799
779.123	0.0150654
779.201	0.0151433
779.280	0.0148962
779.358	0.0149979
779.436	0.0151894
779.514	0.0151678
779.592	0.0150713
779.670	0.0150789
779.748	0.0151527
779.826	0.0152440
779.905	0.0151435
779.983	0.0151513
780.061	0.0151376
780.139	0.0151427
780.217	0.0151627
780.295	0.0152735
780.373	0.0151787
780.451	0.0153473
780.530	0.0153271
780.608	0.0152540
780.686	0.0152620
780.764	0.0153790
780.842	0.0153368
780.920	0.0153690
780.998	0.0152783
781.076	0.0153882
781.155	0.0151893
781.233	0.0152245
781.311	0.0152856
781.389	0.0153320
781.467	0.0153022
781.545	0.0152879
781.623	0.0152699
781.701	0.0151214
781.780	0.0150491
781.858	0.0154618
781.936	0.0152818
782.014	0.0152435
782.092	0.0153503
782.170	0.0153107
782.248	0.0152991
782.326	0.0153042
782.405	0.0154078
782.483	0.0151897
782.561	0.0151704
782.639	0.0152160
782.717	0.0152388
782.795	0.0153182
782.873	0.0153925
782.951	0.0151375
783.030	0.0152652
783.108	0.0150287
783.186	0.0151036
783.264	0.0151757
783.342	0.0153181
783.420	0.0152832
783.498	0.0151518
783.576	0.0151022
783.655	0.0151043
783.733	0.0152021
783.811	0.0151615
783.889	0.0150466
783.967	0.0150954
784.045	0.0149732
784.123	0.0150842
784.201	0.0151523
784.280	0.0149728
784.358	0.0151068
784.436	0.0151813
784.514	0.0151044
784.592	0.0150255
784.670	0.0151070
784.748	0.0151562
784.826	0.0151148
784.905	0.0151406
784.983	0.0152505
785.061	0.0151468
785.139	0.0151888
785.217	0.0152026
785.295	0.0151745
785.373	0.0152133
785.451	0.0150326
785.530	0.0150864
785.608	0.0152314
785.686	0.0152033
785.764	0.0151166
785.842	0.0151398
785.920	0.0151054
785.998	0.0150667
786.076	0.0151064
786.155	0.0149877
786.233	0.0150331
786.311	0.0150750
786.389	0.0150420
786.467	0.0151440
786.545	0.0149816
786.623	0.0150676
786.701	0.0149065
786.780	0.0149215
786.858	0.0150922
786.936	0.0150041
787.014	0.0149551
787.092	0.0149322
787.170	0.0150826
787.248	0.0151587
787.326	0.0151520
787.405	0.0150639
787.483	0.0150672
787.561	0.0151134
787.639	0.0151464
787.717	0.0152893
787.795	0.0152256
787.873	0.0152193
787.951	0.0151904
788.030	0.0152944
788.108	0.0153416
788.186	0.0152628
788.264	0.0152834
788.342	0.0154680
788.420	0.0152869
788.498	0.0153011
788.576	0.0153355
788.655	0.0151645
788.733	0.0153207
788.811	0.0153577
788.889	0.0153385
788.967	0.0151518
789.045	0.0151876
789.123	0.0153764
789.201	0.0154153
789.280	0.0152858
789.358	0.0151987
789.436	0.0152108
789.514	0.0152525
789.592	0.0152520
789.670	0.0151337
789.748	0.0151720
789.826	0.0150567
789.905	0.0150194
789.983	0.0150945
790.061	0.0150809
790.139	0.0149298
790.217	0.0150760
790.295	0.0150210
790.373	0.0150663
790.451	0.0150949
790.530	0.0151751
790.608	0.0150883
790.686	0.0151323
790.764	0.0151593
790.842	0.0151517
790.920	0.0151884
790.998	0.0151172
791.076	0.0152172
791.155	0.0152861
791.233	0.0152523
791.311	0.0152074
791.389	0.0151479
791.467	0.0152780
791.545	0.0153696
791.623	0.0153022
791.701	0.0153348
791.780	0.0152589
791.858	0.0154051
791.936	0.0154518
792.014	0.0155334
792.092	0.0153741
792.170	0.0153465
792.248	0.0153442
792.326	0.0153824
792.405	0.0153843
792.483	0.0154256
792.561	0.0153619
792.639	0.0154562
792.717	0.0153861
792.795	0.0154366
792.873	0.0155008
792.951	0.0154433
793.030	0.0153651
793.108	0.0153662
793.186	0.0153701
793.264	0.0153635
793.342	0.0153051
793.420	0.0152370
793.498	0.0152606
793.576	0.0152469
793.655	0.0153622
793.733	0.0151887
793.811	0.0152231
793.889	0.0151177
793.967	0.0151582
794.045	0.0153461
794.123	0.0150989
794.201	0.0150494
794.280	0.0150886
794.358	0.0150684
794.436	0.0150272
794.514	0.0150083
794.592	0.0150019
794.670	0.0149165
794.748	0.0148943
794.826	0.0148660
794.905	0.0149407
794.983	0.0148404
795.061	0.0147702
795.139	0.0149136
795.217	0.0149066
795.295	0.0147722
795.373	0.0149303
795.451	0.0148043
795.530	0.0146964
795.608	0.0147530
795.686	0.0148396
795.764	0.0147462
795.842	0.0148401
795.920	0.0148875
795.998	0.0148743
796.076	0.0147514
796.155	0.0149032
796.233	0.0149396
796.311	0.0149937
796.389	0.0150096
796.467	0.0149693
796.545	0.0149560
796.623	0.0150927
796.701	0.0150329
796.780	0.0150748
796.858	0.0152544
796.936	0.0152077
797.014	0.0151360
797.092	0.0150922
797.170	0.0152039
797.248	0.0152316
797.326	0.0153524
797.405	0.0152646
797.483	0.0152977
797.561	0.0151760
797.639	0.0151115
797.717	0.0152393
797.795	0.0153330
797.873	0.0154066
797.951	0.0153061
798.030	0.0152794
798.108	0.0153047
798.186	0.0152808
798.264	0.0153136
798.342	0.0153411
798.420	0.0153194
798.498	0.0154160
798.576	0.0152023
798.655	0.0153033
798.733	0.0153634
798.811	0.0153259
798.889	0.0152724
798.967	0.0152932
799.045	0.0153024
799.123	0.0152488
799.201	0.0152842
799.280	0.0153635
799.358	0.0152573
799.436	0.0154031
799.514	0.0153519
799.592	0.0153758
799.670	0.0152845
799.748	0.0151373
799.826	0.0153278
799.905	0.0152266
799.983	0.0152017
800.061	0.0151502
800.139	0.0152328
800.217	0.0151273
800.295	0.0151488
800.373	0.0152493
800.451	0.0152015
800.530	0.0152132
800.608	0.0150697
800.686	0.0152240
800.764	0.0151170
800.842	0.0152217
800.920	0.0151837
800.998	0.0150919
801.076	0.0150737
801.155	0.0150475
801.233	0.0151582
801.311	0.0151048
801.389	0.0151906
801.467	0.0151313
801.545	0.0151093
801.623	0.0150887
801.701	0.0151978
801.780	0.0151656
801.858	0.0151868
801.936	0.0151018
802.014	0.0151434
802.092	0.0152354
802.170	0.0152264
802.248	0.0150610
802.326	0.0151199
802.405	0.0152340
802.483	0.0151385
802.561	0.0152225
802.639	0.0152325
802.717	0.0153488
802.795	0.0153448
802.873	0.0152536
802.951	0.0151797
803.030	0.0153820
803.108	0.0153915
803.186	0.0152727
803.264	0.0152481
803.342	0.0152880
803.420	0.0152662
803.498	0.0154230
803.576	0.0154089
803.655	0.0152433
803.733	0.0151923
803.811	0.0151246
803.889	0.0152593
803.967	0.0151241
804.045	0.0150060
804.123	0.0150912
804.201	0.0153039
804.280	0.0151576
804.358	0.0149478
804.436	0.0150141
804.514	0.0150627
804.592	0.0151761
804.670	0.0151203
804.748	0.0151160
804.826	0.0149757
804.905	0.0151536
804.983	0.0152798
805.061	0.0150002
805.139	0.0150043
805.217	0.0150488
805.295	0.0150011
805.373	0.0149583
805.451	0.0151344
805.530	0.0151749
805.608	0.0149264
805.686	0.0149567
805.764	0.0151039
805.842	0.0150253
805.920	0.0150308
805.998	0.0150291
806.076	0.0150749
806.155	0.0150716
806.233	0.0149461
806.311	0.0149329
806.389	0.0151393
806.467	0.0150757
806.545	0.0150558
806.623	0.0149895
806.701	0.0150105
806.780	0.0150439
806.858	0.0149426
806.936	0.0149519
807.014	0.0150580
807.092	0.0149642
807.170	0.0150395
807.248	0.0149707
807.326	0.0150817
807.405	0.0149785
807.483	0.0149934
807.561	0.0149931
807.639	0.0151035
807.717	0.0150361
807.795	0.0148972
807.873	0.0151499
807.951	0.0151896
808.030	0.0151580
808.108	0.0152209
808.186	0.0151175
808.264	0.0150844
808.342	0.0150675
808.420	0.0150752
808.498	0.0151917
808.576	0.0150090
808.655	0.0151475
808.733	0.0151714
808.811	0.0151865
808.889	0.0151474
808.967	0.0152801
809.045	0.0152235
809.123	0.0151446
809.201	0.0151380
809.280	0.0152183
809.358	0.0150155
809.436	0.0151859
809.514	0.0152336
809.592	0.0152706
809.670	0.0152484
809.748	0.0151530
809.826	0.0152090
809.905	0.0152139
809.983	0.0152064
810.061	0.0152847
810.139	0.0152853
810.217	0.0152155
810.295	0.0151709
810.373	0.0152895
810.451	0.0151809
810.530	0.0151800
810.608	0.0150419
810.686	0.0152139
810.764	0.0151300
810.842	0.0151882
810.920	0.0151529
810.998	0.0150986
811.076	0.0151975
811.155	0.0151079
811.233	0.0150786
811.311	0.0150867
811.389	0.0150871
811.467	0.0150827
811.545	0.0151272
811.623	0.0151268
811.701	0.0151851
811.780	0.0152071
811.858	0.0151564
811.936	0.0152199
812.014	0.0151740
812.092	0.0151903
812.170	0.0150874
812.248	0.0152577
812.326	0.0153391
812.405	0.0151539
812.483	0.0150072
812.561	0.0150198
812.639	0.0151865
812.717	0.0152389
812.795	0.0149670
812.873	0.0150423
812.951	0.0151814
813.030	0.0149879
813.108	0.0150274
813.186	0.0150284
813.264	0.0150152
813.342	0.0150954
813.420	0.0152221
813.498	0.0151610
813.576	0.0151282
813.655	0.0151763
813.733	0.0151350
813.811	0.0151463
813.889	0.0151280
813.967	0.0150961
814.045	0.0150615
814.123	0.0151734
814.201	0.0150426
814.280	0.0150764
814.358	0.0152996
814.436	0.0151851
814.514	0.0152056
814.592	0.0152480
814.670	0.0151331
814.748	0.0151994
814.826	0.0152408
814.905	0.0151923
814.983	0.0153270
815.061	0.0152665
815.139	0.0153426
815.217	0.0152815
815.295	0.0153577
815.373	0.0152491
815.451	0.0152069
815.530	0.0151135
815.608	0.0152525
815.686	0.0152415
815.764	0.0152473
815.842	0.0151636
815.920	0.0152134
815.998	0.0151998
816.076	0.0152367
816.155	0.0151868
816.233	0.0152451
816.311	0.0150809
816.389	0.0151679
816.467	0.0151813
816.545	0.0150634
816.623	0.0150874
816.701	0.0150469
816.780	0.0151196
816.858	0.0150364
816.936	0.0150047
817.014	0.0150180
817.092	0.0149817
817.170	0.0150520
817.248	0.0150522
817.326	0.0150951
817.405	0.0150570
817.483	0.0151265
817.561	0.0149970
817.639	0.0151457
817.717	0.0151255
817.795	0.0150116
817.873	0.0151700
817.951	0.0150343
818.030	0.0150055
818.108	0.0151643
818.186	0.0152596
818.264	0.0151250
818.342	0.0151109
818.420	0.0152303
818.498	0.0151277
818.576	0.0152009
818.655	0.0151750
818.733	0.0152872
818.811	0.0150606
818.889	0.0152583
818.967	0.0153685
819.045	0.0153690
819.123	0.0152993
819.201	0.0153300
819.280	0.0153592
819.358	0.0154258
819.436	0.0154390
819.514	0.0153201
819.592	0.0154571
819.670	0.0153478
819.748	0.0152856
819.826	0.0152429
819.905	0.0154637
819.983	0.0152374
820.061	0.0153673
820.139	0.0152621
820.217	0.0152200
820.295	0.0152488
820.373	0.0152025
820.451	0.0151252
820.530	0.0152617
820.608	0.0152797
820.686	0.0152958
820.764	0.0150156
820.842	0.0150824
820.920	0.0151826
820.998	0.0151778
821.076	0.0149839
821.155	0.0150004
821.233	0.0150903
821.311	0.0152488
821.389	0.0149535
821.467	0.0149189
821.545	0.0151460
821.623	0.0149901
821.701	0.0149696
821.780	0.0151007
821.858	0.0151637
821.936	0.0149566
822.014	0.0150366
822.092	0.0150338
822.170	0.0151801
822.248	0.0149707
822.326	0.0149725
822.405	0.0151118
822.483	0.0150687
822.561	0.0151289
822.639	0.0152005
822.717	0.0150715
822.795	0.0150677
822.873	0.0151715
822.951	0.0151330
823.030	0.0152065
823.108	0.0151567
823.186	0.0151589
823.264	0.0150998
823.342	0.0150668
823.420	0.0151868
823.498	0.0151971
823.576	0.0151119
823.655	0.0151695
823.733	0.0151651
823.811	0.0151836
823.889	0.0151340
823.967	0.0151028
824.045	0.0153126
824.123	0.0152474
824.201	0.0150517
824.280	0.0153475
824.358	0.0152481
824.436	0.0152551
824.514	0.0153075
824.592	0.0151895
824.670	0.0151537
824.748	0.0152821
824.826	0.0153999
824.905	0.0154530
824.983	0.0154774
825.061	0.0152254
825.139	0.0152371
825.217	0.0152060
825.295	0.0151774
825.373	0.0152590
825.451	0.0151012
825.530	0.0152885
825.608	0.0151696
825.686	0.0150584
825.764	0.0152415
825.842	0.0152399
825.920	0.0150590
825.998	0.0150243
826.076	0.0150394
826.155	0.0150985
826.233	0.0151572
826.311	0.0150623
826.389	0.0150819
826.467	0.0151362
826.545	0.0151784
826.623	0.0151624
826.701	0.0150067
826.780	0.0150849
826.858	0.0151456
826.936	0.0151194
827.014	0.0151660
827.092	0.0151300
827.170	0.0150310
827.248	0.0150802
827.326	0.0151801
827.405	0.0150108
827.483	0.0150807
827.561	0.0150989
827.639	0.0151144
827.717	0.0150264
827.795	0.0149831
827.873	0.0149914
827.951	0.0150330
828.030	0.0149155
828.108	0.0151659
828.186	0.0149881
828.264	0.0149742
828.342	0.0150371
828.420	0.0150359
828.498	0.0150144
828.576	0.0150964
828.655	0.0151085
828.733	0.0149333
828.811	0.0150124
828.889	0.0150802
828.967	0.0151192
829.045	0.0150655
829.123	0.0149162
829.201	0.0151441
829.280	0.0151894
829.358	0.0150770
829.436	0.0151414
829.514	0.0150546
829.592	0.0149086
829.670	0.0151916
829.748	0.0151374
829.826	0.0150801
829.905	0.0151153
829.983	0.0150646
830.061	0.0151701
830.139	0.0152119
830.217	0.0153243
830.295	0.0152798
830.373	0.0151637
830.451	0.0150912
830.530	0.0150464
830.608	0.0151962
830.686	0.0150678
830.764	0.0151727
830.842	0.0151628
830.920	0.0153783
830.998	0.0151697
831.076	0.0151950
831.155	0.0153339
831.233	0.0153607
831.311	0.0153884
831.389	0.0152546
831.467	0.0152486
831.545	0.0152533
831.623	0.0150699
831.701	0.0150645
831.780	0.0151583
831.858	0.0151863
831.936	0.0151507
832.014	0.0152768
832.092	0.0151680
832.170	0.0151584
832.248	0.0151092
832.326	0.0150898
832.405	0.0151914
832.483	0.0152192
832.561	0.0151400
832.639	0.0151411
832.717	0.0152327
832.795	0.0152951
832.873	0.0151792
832.951	0.0152318
833.030	0.0152160
833.108	0.0151906
833.186	0.0152377
833.264	0.0153310
833.342	0.0151536
833.420	0.0150945
833.498	0.0152046
833.576	0.0153122
833.655	0.0151426
833.733	0.0150571
833.811	0.0150542
833.889	0.0150207
833.967	0.0152025
834.045	0.0151775
834.123	0.0151172
834.201	0.0151976
834.280	0.0151421
834.358	0.0152593
834.436	0.0152517
834.514	0.0151879
834.592	0.0152148
834.670	0.0152341
834.748	0.0151934
834.826	0.0151775
834.905	0.0151864
834.983	0.0151041
835.061	0.0150872
835.139	0.0151700
835.217	0.0149870
835.295	0.0149927
835.373	0.0151860
835.451	0.0150986
835.530	0.0150613
835.608	0.0150919
835.686	0.0151257
835.764	0.0150124
835.842	0.0149777
835.920	0.0151341
835.998	0.0149989
836.076	0.0149314
836.155	0.0149844
836.233	0.0149520
836.311	0.0148199
836.389	0.0149956
836.467	0.0150031
836.545	0.0150612
836.623	0.0149818
836.701	0.0149371
836.780	0.0150237
836.858	0.0149445
836.936	0.0149959
837.014	0.0149529
837.092	0.0149375
837.170	0.0149309
837.248	0.0149823
837.326	0.0150850
837.405	0.0149534
837.483	0.0150047
837.561	0.0151974
837.639	0.0151401
837.717	0.0150943
837.795	0.0150785
837.873	0.0151717
837.951	0.0151268
838.030	0.0152033
838.108	0.0152505
838.186	0.0151402
838.264	0.0150119
838.342	0.0150533
838.420	0.0152800
838.498	0.0151457
838.576	0.0152125
838.655	0.0151241
838.733	0.0151506
838.811	0.0151741
838.889	0.0151523
838.967	0.0151126
839.045	0.0152052
839.123	0.0151455
839.201	0.0152571
839.280	0.0152518
839.358	0.0152226
839.436	0.0152565
839.514	0.0151974
839.592	0.0152394
839.670	0.0150179
839.748	0.0152877
839.826	0.0153394
839.905	0.0151707
839.983	0.0151260
840.061	0.0151962
840.139	0.0153100
840.217	0.0152230
840.295	0.0152470
840.373	0.0151309
840.451	0.0151572
840.530	0.0150750
840.608	0.0152275
840.686	0.0152104
840.764	0.0152623
840.842	0.0152287
840.920	0.0152998
840.998	0.0153086
841.076	0.0152576
841.155	0.0152175
841.233	0.0151778
841.311	0.0151374
841.389	0.0152976
841.467	0.0152361
841.545	0.0152814
841.623	0.0151659
841.701	0.0152708
841.780	0.0151822
841.858	0.0151283
841.936	0.0151759
842.014	0.0152239
842.092	0.0150893
842.170	0.0150819
842.248	0.0151662
842.326	0.0151218
842.405	0.0151318
842.483	0.0151302
842.561	0.0151851
842.639	0.0150954
842.717	0.0149725
842.795	0.0151454
842.873	0.0151019
842.951	0.0150727
843.030	0.0150676
843.108	0.0150905
843.186	0.0150494
843.264	0.0150491
843.342	0.0150705
843.420	0.0150006
843.498	0.0151926
843.576	0.0150243
843.655	0.0151431
843.733	0.0149957
843.811	0.0151380
843.889	0.0151614
843.967	0.0151446
844.045	0.0152088
844.123	0.0151953
844.201	0.0152057
844.280	0.0152635
844.358	0.0151427
844.436	0.0151163
844.514	0.0152584
844.592	0.0151826
844.670	0.0152540
844.748	0.0152316
844.826	0.0152833
844.905	0.0153294
844.983	0.0152890
845.061	0.0153019
845.139	0.0151572
845.217	0.0151997
845.295	0.0152389
845.373	0.0154498
845.451	0.0153481
845.530	0.0151665
845.608	0.0151595
845.686	0.0151093
845.764	0.0151421
845.842	0.0152081
845.920	0.0152923
845.998	0.0151350
846.076	0.0148888
846.155	0.0151369
846.233	0.0151643
846.311	0.0151370
846.389	0.0152693
846.467	0.0150683
846.545	0.0152544
846.623	0.0150173
846.701	0.0150117
846.780	0.0150569
846.858	0.0150525
846.936	0.0151627
847.014	0.0151509
847.092	0.0151444
847.170	0.0151918
847.248	0.0151208
847.326	0.0150017
847.405	0.0150468
847.483	0.0150350
847.561	0.0152239
847.639	0.0151585
847.717	0.0151814
847.795	0.0150512
847.873	0.0151788
847.951	0.0151295
848.030	0.0150970
848.108	0.0152557
848.186	0.0150658
848.264	0.0151596
848.342	0.0151751
848.420	0.0150774
848.498	0.0151800
848.576	0.0153032
848.655	0.0153142
848.733	0.0151134
848.811	0.0151860
848.889	0.0152047
848.967	0.0153581
849.045	0.0151081
849.123	0.0152995
849.201	0.0152329
849.280	0.0151659
849.358	0.0153269
849.436	0.0153740
849.514	0.0153107
849.592	0.0152769
849.670	0.0152346
849.748	0.0152974
849.826	0.0154141
849.905	0.0153352
849.983	0.0153635
850.061	0.0153172
850.139	0.0154442
850.217	0.0153095
850.295	0.0154047
850.373	0.0153562
850.451	0.0152953
850.530	0.0153091
850.608	0.0152099
850.686	0.0153446
850.764	0.0153759
850.842	0.0152035
850.920	0.0153255
850.998	0.0154115
851.076	0.0152283
851.155	0.0151611
851.233	0.0150792
851.311	0.0150816
851.389	0.0151501
851.467	0.0151449
851.545	0.0152325
851.623	0.0151083
851.701	0.0151035
851.780	0.0151305
851.858	0.0149848
851.936	0.0151550
852.014	0.0150957
852.092	0.0150967
852.170	0.0150651
852.248	0.0150127
852.326	0.0151650
852.405	0.0151898
852.483	0.0151962
852.561	0.0151189
852.639	0.0149524
852.717	0.0151428
852.795	0.0151070
852.873	0.0150329
852.951	0.0151373
853.030	0.0150835
853.108	0.0150256
853.186	0.0151262
853.264	0.0150611
853.342	0.0149912
853.420	0.0148887
853.498	0.0150070
853.576	0.0151051
853.655	0.0150843
853.733	0.0149986
853.811	0.0150452
853.889	0.0150915
853.967	0.0149541
854.045	0.0149202
854.123	0.0149095
854.201	0.0150821
854.280	0.0151260
854.358	0.0150126
854.436	0.0151357
854.514	0.0151071
854.592	0.0150430
854.670	0.0150883
854.748	0.0150346
854.826	0.0150801
854.905	0.0151460
854.983	0.0151714
855.061	0.0150513
855.139	0.0151644
855.217	0.0151768
855.295	0.0152238
855.373	0.0152172
855.451	0.0151682
855.530	0.0151388
855.608	0.0152218
855.686	0.0152914
855.764	0.0151327
855.842	0.0153654
855.920	0.0151670
855.998	0.0151402
856.076	0.0151733
856.155	0.0152191
856.233	0.0151909
856.311	0.0152393
856.389	0.0152966
856.467	0.0151977
856.545	0.0152837
856.623	0.0152268
856.701	0.0152374
856.780	0.0151923
856.858	0.0151131
856.936	0.0151500
857.014	0.0152434
857.092	0.0153484
857.170	0.0153212
857.248	0.0151228
857.326	0.0151304
857.405	0.0152402
857.483	0.0152998
857.561	0.0153465
857.639	0.0151667
857.717	0.0151116
857.795	0.0150280
857.873	0.0150933
857.951	0.0151472
858.030	0.0151154
858.108	0.0152435
858.186	0.0152554
858.264	0.0150962
858.342	0.0151658
858.420	0.0152649
858.498	0.0151468
858.576	0.0152276
858.655	0.0151383
858.733	0.0151069
858.811	0.0152032
858.889	0.0150953
858.967	0.0151979
859.045	0.0152193
859.123	0.0151316
859.201	0.0150745
859.280	0.0151579
859.358	0.0152315
859.436	0.0151659
859.514	0.0152337
859.592	0.0150945
859.670	0.0150689
859.748	0.0151248
859.826	0.0151628
859.905	0.0151700
859.983	0.0152202
860.061	0.0153565
860.139	0.0150777
860.217	0.0151212
860.295	0.0152412
860.373	0.0153024
860.451	0.0151879
860.530	0.0151075
860.608	0.0152713
860.686	0.0151352
860.764	0.0151686
860.842	0.0151144
860.920	0.0150396
860.998	0.0152141
861.076	0.0151939
861.155	0.0151013
861.233	0.0151234
861.311	0.0151067
861.389	0.0151110
861.467	0.0151958
861.545	0.0151563
861.623	0.0151212
861.701	0.0151295
861.780	0.0151824
861.858	0.0150346
861.936	0.0151596
862.014	0.0152023
862.092	0.0150557
862.170	0.0152384
862.248	0.0151540
862.326	0.0151068
862.405	0.0151286
862.483	0.0151014
862.561	0.0150806
862.639	0.0150925
862.717	0.0151460
862.795	0.0150832
862.873	0.0150620
862.951	0.0150972
863.030	0.0153173
863.108	0.0152827
863.186	0.0150344
863.264	0.0151456
863.342	0.0151698
863.420	0.0152019
863.498	0.0152448
863.576	0.0151745
863.655	0.0151283
863.733	0.0151651
863.811	0.0152678
863.889	0.0153234
863.967	0.0152081
864.045	0.0152234
864.123	0.0152248
864.201	0.0151717
864.280	0.0153759
864.358	0.0152191
864.436	0.0151157
864.514	0.0151824
864.592	0.0153474
864.670	0.0152734
864.748	0.0153346
864.826	0.0151527
864.905	0.0152354
864.983	0.0152721
865.061	0.0151257
865.139	0.0151878
865.217	0.0152836
865.295	0.0152083
865.373	0.0153149
865.451	0.0151907
865.530	0.0153027
865.608	0.0152930
865.686	0.0150964
865.764	0.0151243
865.842	0.0153704
865.920	0.0153686
865.998	0.0151157
866.076	0.0152255
866.155	0.0153065
866.233	0.0153410
866.311	0.0151970
866.389	0.0151948
866.467	0.0152885
866.545	0.0153064
866.623	0.0151545
866.701	0.0152589
866.780	0.0152217
866.858	0.0152146
866.936	0.0151281
867.014	0.0152975
867.092	0.0153077
867.170	0.0154079
867.248	0.0152919
867.326	0.0153214
867.405	0.0151451
867.483	0.0153342
867.561	0.0152898
867.639	0.0152946
867.717	0.0154091
867.795	0.0153139
867.873	0.0153201
867.951	0.0153300
868.030	0.0153519
868.108	0.0154028
868.186	0.0152660
868.264	0.0154015
868.342	0.0152602
868.420	0.0152114
868.498	0.0152136
868.576	0.0153151
868.655	0.0151400
868.733	0.0152663
868.811	0.0153174
868.889	0.0151289
868.967	0.0153246
869.045	0.0152001
869.123	0.0150776
869.201	0.0151247
869.280	0.0151046
869.358	0.0151871
869.436	0.0149950
869.514	0.0150074
869.592	0.0149608
869.670	0.0150251
869.748	0.0148721
869.826	0.0150617
869.905	0.0150507
869.983	0.0148110
870.061	0.0149084
870.139	0.0149660
870.217	0.0149934
870.295	0.0149139
870.373	0.0150120
870.451	0.0148087
870.530	0.0148343
870.608	0.0150260
870.686	0.0148954
870.764	0.0149846
870.842	0.0149844
870.920	0.0149105
870.998	0.0147962
871.076	0.0147849
871.155	0.0148948
871.233	0.0148367
871.311	0.0149293
871.389	0.0151092
871.467	0.0149651
871.545	0.0149153
871.623	0.0149407
871.701	0.0151634
871.780	0.0150819
871.858	0.0150879
871.936	0.0149734
872.014	0.0150966
872.092	0.0152164
872.170	0.0151715
872.248	0.0151374
872.326	0.0151446
872.405	0.0152012
872.483	0.0152383
872.561	0.0152451
872.639	0.0152985
872.717	0.0153275
872.795	0.0152428
872.873	0.0153336
872.951	0.0153135
873.030	0.0153105
873.108	0.0153672
873.186	0.0153694
873.264	0.0155076
873.342	0.0153721
873.420	0.0152973
873.498	0.0152501
873.576	0.0153125
873.655	0.0153365
873.733	0.0154258
873.811	0.0151933
873.889	0.0150925
873.967	0.0152451
874.045	0.0151909
874.123	0.0153215
874.201	0.0152129
874.280	0.0150467
874.358	0.0151148
874.436	0.0152945
874.514	0.0149448
874.592	0.0151062
874.670	0.0151628
874.748	0.0149722
874.826	0.0149704
874.905	0.0149380
874.983	0.0150141
875.061	0.0149714
875.139	0.0150009
875.217	0.0151494
875.295	0.0151263
875.373	0.0151032
875.451	0.0150182
875.530	0.0150678
875.608	0.0150008
875.686	0.0150692
875.764	0.0149720
875.842	0.0149881
875.920	0.0150018
875.998	0.0150086
876.076	0.0149777
876.155	0.0150658
876.233	0.0149987
876.311	0.0151585
876.389	0.0151434
876.467	0.0150382
876.545	0.0150809
876.623	0.0151028
876.701	0.0150515
876.780	0.0152901
876.858	0.0152307
876.936	0.0151928
877.014	0.0151559
877.092	0.0152076
877.170	0.0151208
877.248	0.0151835
877.326	0.0153216
877.405	0.0152412
877.483	0.0152428
877.561	0.0153546
877.639	0.0155067
877.717	0.0152995
877.795	0.0152689
877.873	0.0153210
877.951	0.0153032
878.030	0.0152299
878.108	0.0153554
878.186	0.0152921
878.264	0.0153104
878.342	0.0152012
878.420	0.0153452
878.498	0.0151865
878.576	0.0153642
878.655	0.0154138
878.733	0.0152891
878.811	0.0151578
878.889	0.0152895
878.967	0.0152459
879.045	0.0152702
879.123	0.0152952
879.201	0.0152716
879.280	0.0152679
879.358	0.0151633
879.436	0.0152248
879.514	0.0150886
879.592	0.0152204
879.670	0.0152763
879.748	0.0151649
879.826	0.0152178
879.905	0.0152173
879.983	0.0151073
880.061	0.0152647
880.139	0.0152195
880.217	0.0151135
880.295	0.0152463
880.373	0.0152441
880.451	0.0152397
880.530	0.0152141
880.608	0.0150511
880.686	0.0152271
880.764	0.0152881
880.842	0.0152819
880.920	0.0152612
880.998	0.0151804
881.076	0.0152567
881.155	0.0151652
881.233	0.0152822
881.311	0.0150816
881.389	0.0152172
881.467	0.0151765
881.545	0.0151254
881.623	0.0151734
881.701	0.0151244
881.780	0.0149994
881.858	0.0150939
881.936	0.0151695
882.014	0.0150735
882.092	0.0151743
882.170	0.0151301
882.248	0.0152211
882.326	0.0151539
882.405	0.0151591
882.483	0.0152105
882.561	0.0151396
882.639	0.0149792
882.717	0.0150437
882.795	0.0150024
882.873	0.0149673
882.951	0.0150807
883.030	0.0150986
883.108	0.0149744
883.186	0.0150175
883.264	0.0150459
883.342	0.0151104
883.420	0.0149490
883.498	0.0150064
883.576	0.0150749
883.655	0.0149910
883.733	0.0149112
883.811	0.0149521
883.889	0.0148951
883.967	0.0150059
884.045	0.0149647
884.123	0.0149016
884.201	0.0149526
884.280	0.0148671
884.358	0.0150929
884.436	0.0150089
884.514	0.0150040
884.592	0.0149692
884.670	0.0149828
884.748	0.0150042
884.826	0.0151788
884.905	0.0149725
884.983	0.0150481
885.061	0.0151212
885.139	0.0151604
885.217	0.0150584
885.295	0.0150299
885.373	0.0150429
885.451	0.0151808
885.530	0.0151158
885.608	0.0151517
885.686	0.0150918
885.764	0.0152397
885.842	0.0152435
885.920	0.0151398
885.998	0.0151284
886.076	0.0151882
886.155	0.0153455
886.233	0.0151850
886.311	0.0152257
886.389	0.0153414
886.467	0.0152328
886.545	0.0151031
886.623	0.0151826
886.701	0.0150975
886.780	0.0152677
886.858	0.0153016
886.936	0.0151865
887.014	0.0151981
887.092	0.0153069
887.170	0.0150674
887.248	0.0151611
887.326	0.0152084
887.405	0.0152721
887.483	0.0151562
887.561	0.0153173
887.639	0.0153113
887.717	0.0152000
887.795	0.0153102
887.873	0.0151545
887.951	0.0152453
888.030	0.0152754
888.108	0.0153899
888.186	0.0153836
888.264	0.0153871
888.342	0.0153162
888.420	0.0152891
888.498	0.0152440
888.576	0.0151696
888.655	0.0152069
888.733	0.0153580
888.811	0.0152103
888.889	0.0151810
888.967	0.0151715
889.045	0.0151674
889.123	0.0151810
889.201	0.0153131
889.280	0.0151063
889.358	0.0150176
889.436	0.0151382
889.514	0.0150962
889.592	0.0152659
889.670	0.0151225
889.748	0.0151887
889.826	0.0150895
889.905	0.0149208
889.983	0.0150868
890.061	0.0150501
890.139	0.0151929
890.217	0.0151294
890.295	0.0150626
890.373	0.0151054
890.451	0.0150673
890.530	0.0151163
890.608	0.0152048
890.686	0.0151054
890.764	0.0152189
890.842	0.0152759
890.920	0.0153001
890.998	0.0152337
891.076	0.0152477
891.155	0.0152810
891.233	0.0154763
891.311	0.0153027
891.389	0.0152469
891.467	0.0153410
891.545	0.0152923
891.623	0.0151723
891.701	0.0152541
891.780	0.0153271
891.858	0.0153158
891.936	0.0152303
892.014	0.0150537
892.092	0.0151940
892.170	0.0153397
892.248	0.0153102
892.326	0.0152243
892.405	0.0151696
892.483	0.0153275
892.561	0.0152515
892.639	0.0151630
892.717	0.0152500
892.795	0.0153259
892.873	0.0152135
892.951	0.0152489
893.030	0.0153416
893.108	0.0153668
893.186	0.0152222
893.264	0.0152570
893.342	0.0153946
893.420	0.0154606
893.498	0.0153918
893.576	0.0152970
893.655	0.0152274
893.733	0.0151951
893.811	0.0153390
893.889	0.0151870
893.967	0.0152758
894.045	0.0151181
894.123	0.0151895
894.201	0.0152882
894.280	0.0150599
894.358	0.0150719
894.436	0.0151128
894.514	0.0150138
894.592	0.0150778
894.670	0.0150457
894.748	0.0149366
894.826	0.0150845
894.905	0.0150452
894.983	0.0148794
895.061	0.0149417
895.139	0.0149319
895.217	0.0148298
895.295	0.0149222
895.373	0.0150160
895.451	0.0149444
895.530	0.0150172
895.608	0.0147891
895.686	0.0148607
895.764	0.0150252
895.842	0.0150868
895.920	0.0149902
895.998	0.0149146
896.076	0.0150772
896.155	0.0149512
896.233	0.0151182
896.311	0.0151987
896.389	0.0150696
896.467	0.0151178
896.545	0.0151352
896.623	0.0150565
896.701	0.0152474
896.780	0.0151726
896.858	0.0151262
896.936	0.0152262
897.014	0.0152271
897.092	0.0152102
897.170	0.0150877
897.248	0.0152153
897.326	0.0152555
897.405	0.0152094
897.483	0.0152460
897.561	0.0151734
897.639	0.0152703
897.717	0.0151730
897.795	0.0152499
897.873	0.0151585
897.951	0.0152126
898.030	0.0152686
898.108	0.0151559
898.186	0.0151916
898.264	0.0151985
898.342	0.0152539
898.420	0.0152901
898.498	0.0152827
898.576	0.0151117
898.655	0.0152163
898.733	0.0152431
898.811	0.0151880
898.889	0.0151947
898.967	0.0151653
899.045	0.0152332
899.123	0.0151885
899.201	0.0152483
899.280	0.0152045
899.358	0.0151305
899.436	0.0151837
899.514	0.0151718
899.592	0.0151894
899.670	0.0150752
899.748	0.0151307
899.826	0.0152767
899.905	0.0150130
899.983	0.0151423
900.061	0.0151571
900.139	0.0151725
900.217	0.0151025
900.295	0.0150139
900.373	0.0150858
900.451	0.0150434
900.530	0.0152587
900.608	0.0151340
900.686	0.0149772
900.764	0.0149459
900.842	0.0151364
900.920	0.0152541
900.998	0.0150378
901.076	0.0149699
901.155	0.0150243
901.233	0.0151737
901.311	0.0151455
901.389	0.0151059
901.467	0.0151927
901.545	0.0150093
901.623	0.0150444
901.701	0.0151742
901.780	0.0151604
901.858	0.0151950
901.936	0.0151339
902.014	0.0149949
902.092	0.0151847
902.170	0.0150870
902.248	0.0151095
902.326	0.0150919
902.405	0.0150722
902.483	0.0151488
902.561	0.0150049
902.639	0.0151165
902.717	0.0150272
902.795	0.0150992
902.873	0.0150135
902.951	0.0151072
903.030	0.0150858
903.108	0.0149129
903.186	0.0149774
903.264	0.0150813
903.342	0.0150935
903.420	0.0150077
903.498	0.0150712
903.576	0.0149850
903.655	0.0151490
903.733	0.0150631
903.811	0.0149374
903.889	0.0149759
903.967	0.0150974
904.045	0.0150832
904.123	0.0152283
904.201	0.0151607
904.280	0.0150130
904.358	0.0152008
904.436	0.0150979
904.514	0.0150681
904.592	0.0150286
904.670	0.0149997
904.748	0.0150548
904.826	0.0151541
904.905	0.0150941
904.983	0.0151910
905.061	0.0151425
905.139	0.0151089
905.217	0.0150173
905.295	0.0151472
905.373	0.0152979
905.451	0.0152715
905.530	0.0151579
905.608	0.0150845
905.686	0.0154140
905.764	0.0153606
905.842	0.0151724
905.920	0.0152326
905.998	0.0152245
906.076	0.0151506
906.155	0.0154234
906.233	0.0152089
906.311	0.0151833
906.389	0.0152176
906.467	0.0152364
906.545	0.0152950
906.623	0.0153348
906.701	0.0154326
906.780	0.0152321
906.858	0.0154130
906.936	0.0152917
907.014	0.0152623
907.092	0.0153973
907.170	0.0153278
907.248	0.0151698
907.326	0.0151598
907.405	0.0152107
907.483	0.0151852
907.561	0.0152563
907.639	0.0153947
907.717	0.0152653
907.795	0.0151262
907.873	0.0151610
907.951	0.0152149
908.030	0.0151723
908.108	0.0151351
908.186	0.0151177
908.264	0.0150381
908.342	0.0150627
908.420	0.0151967
908.498	0.0150774
908.576	0.0150026
908.655	0.0151666
908.733	0.0150960
908.811	0.0149332
908.889	0.0148867
908.967	0.0150123
909.045	0.0150861
909.123	0.0150294
909.201	0.0150790
909.280	0.0150842
909.358	0.0149434
909.436	0.0150753
909.514	0.0150800
909.592	0.0150694
909.670	0.0150320
909.748	0.0150640
909.826	0.0150393
909.905	0.0150143
909.983	0.0149786
910.061	0.0150276
910.139	0.0149634
910.217	0.0150731
910.295	0.0149524
910.373	0.0150336
910.451	0.0151062
910.530	0.0151713
910.608	0.0149612
910.686	0.0149357
910.764	0.0150431
910.842	0.0151530
910.920	0.0151960
910.998	0.0150645
911.076	0.0149977
911.155	0.0149789
911.233	0.0151094
911.311	0.0149371
911.389	0.0149541
911.467	0.0150791
911.545	0.0150800
911.623	0.0150124
911.701	0.0151900
911.780	0.0150648
911.858	0.0149831
911.936	0.0149941
912.014	0.0151892
912.092	0.0150871
912.170	0.0150817
912.248	0.0150890
912.326	0.0151049
912.405	0.0150880
912.483	0.0151566
912.561	0.0151509
912.639	0.0151147
912.717	0.0152621
912.795	0.0151744
912.873	0.0149783
912.951	0.0150055
913.030	0.0150114
913.108	0.0150524
913.186	0.0150267
913.264	0.0151285
913.342	0.0150224
913.420	0.0150861
913.498	0.0151677
913.576	0.0149663
913.655	0.0150542
913.733	0.0151060
913.811	0.0151797
913.889	0.0149094
913.967	0.0150182
914.045	0.0151034
914.123	0.0151783
914.201	0.0150431
914.280	0.0150287
914.358	0.0149529
914.436	0.0150211
914.514	0.0151585
914.592	0.0150475
914.670	0.0150645
914.748	0.0151088
914.826	0.0151232
914.905	0.0150108
914.983	0.0151460
915.061	0.0151437
915.139	0.0152453
915.217	0.0150795
915.295	0.0150224
915.373	0.0151390
915.451	0.0150846
915.530	0.0151220
915.608	0.0151045
915.686	0.0150983
915.764	0.0152179
915.842	0.0151076
915.920	0.0152846
915.998	0.0152237
916.076	0.0150694
916.155	0.0150856
916.233	0.0151362
916.311	0.0150454
916.389	0.0152123
916.467	0.0152687
916.545	0.0152206
916.623	0.0151934
916.701	0.0151875
916.780	0.0151625
916.858	0.0152572
916.936	0.0152367
917.014	0.0152394
917.092	0.0153691
917.170	0.0152295
917.248	0.0152831
917.326	0.0153074
917.405	0.0153283
917.483	0.0153921
917.561	0.0153554
917.639	0.0153466
917.717	0.0154106
917.795	0.0155023
917.873	0.0153580
917.951	0.0154185
918.030	0.0153363
918.108	0.0155312
918.186	0.0153231
918.264	0.0153635
918.342	0.0153791
918.420	0.0153613
918.498	0.0153835
918.576	0.0153604
918.655	0.0152750
918.733	0.0153578
918.811	0.0153992
918.889	0.0152982
918.967	0.0152741
919.045	0.0152699
919.123	0.0153534
919.201	0.0152771
919.280	0.0152298
919.358	0.0152656
919.436	0.0152426
919.514	0.0152645
919.592	0.0151276
919.670	0.0152867
919.748	0.0151888
919.826	0.0151366
919.905	0.0152505
919.983	0.0152135
920.061	0.0150490
920.139	0.0151118
920.217	0.0151676
920.295	0.0153459
920.373	0.0151962
920.451	0.0151467
920.530	0.0151398
920.608	0.0152105
920.686	0.0150932
920.764	0.0150872
920.842	0.0150988
920.920	0.0151553
920.998	0.0150436
921.076	0.0151267
921.155	0.0152077
921.233	0.0150677
921.311	0.0150497
921.389	0.0150951
921.467	0.0150006
921.545	0.0149892
921.623	0.0149800
921.701	0.0150262
921.780	0.0149303
921.858	0.0150710
921.936	0.0150763
922.014	0.0149503
922.092	0.0150651
922.170	0.0149290
922.248	0.0149487
922.326	0.0151190
922.405	0.0150763
922.483	0.0151051
922.561	0.0150971
922.639	0.0151164
922.717	0.0151409
922.795	0.0151164
922.873	0.0150737
922.951	0.0152258
923.030	0.0151095
923.108	0.0150208
923.186	0.0151231
923.264	0.0151808
923.342	0.0151662
923.420	0.0151582
923.498	0.0151425
923.576	0.0150043
923.655	0.0150713
923.733	0.0151474
923.811	0.0150013
923.889	0.0150645
923.967	0.0151367
924.045	0.0151521
924.123	0.0151128
924.201	0.0150146
924.280	0.0151333
924.358	0.0152037
924.436	0.0149774
924.514	0.0150929
924.592	0.0150677
924.670	0.0151424
924.748	0.0151123
924.826	0.0150639
924.905	0.0149583
924.983	0.0151778
925.061	0.0152753
925.139	0.0151232
925.217	0.0151839
925.295	0.0149724
925.373	0.0151472
925.451	0.0151241
925.530	0.0152177
925.608	0.0149549
925.686	0.0150772
925.764	0.0151465
925.842	0.0150545
925.920	0.0151349
925.998	0.0151870
926.076	0.0151265
926.155	0.0151323
926.233	0.0152139
926.311	0.0151950
926.389	0.0152341
926.467	0.0150990
926.545	0.0151974
926.623	0.0153035
926.701	0.0152679
926.780	0.0152052
926.858	0.0151410
926.936	0.0151820
927.014	0.0151408
927.092	0.0151048
927.170	0.0151624
927.248	0.0152434
927.326	0.0152209
927.405	0.0151018
927.483	0.0151279
927.561	0.0152193
927.639	0.0151318
927.717	0.0151836
927.795	0.0152840
927.873	0.0152316
927.951	0.0151981
928.030	0.0152199
928.108	0.0152142
928.186	0.0150462
928.264	0.0152030
928.342	0.0152577
928.420	0.0150880
928.498	0.0151787
928.576	0.0151159
928.655	0.0150723
928.733	0.0151635
928.811	0.0151226
928.889	0.0152138
928.967	0.0151228
929.045	0.0152518
929.123	0.0151627
929.201	0.0152468
929.280	0.0153328
929.358	0.0152202
929.436	0.0151015
929.514	0.0152208
929.592	0.0152273
929.670	0.0153214
929.748	0.0152330
929.826	0.0152563
929.905	0.0152172
929.983	0.0151347
930.061	0.0151556
930.139	0.0152277
930.217	0.0150859
930.295	0.0151432
930.373	0.0151246
930.451	0.0152309
930.530	0.0151370
930.608	0.0150304
930.686	0.0151346
930.764	0.0150375
930.842	0.0150893
930.920	0.0150146
930.998	0.0150266
931.076	0.0152592
931.155	0.0151687
931.233	0.0151556
931.311	0.0151387
931.389	0.0151438
931.467	0.0149459
931.545	0.0150383
931.623	0.0150894
931.701	0.0150684
931.780	0.0150652
931.858	0.0150877
931.936	0.0150293
932.014	0.0150786
932.092	0.0150217
932.170	0.0150317
932.248	0.0149991
932.326	0.0150642
932.405	0.0151491
932.483	0.0149480
932.561	0.0149127
932.639	0.0149462
932.717	0.0149811
932.795	0.0149802
932.873	0.0149855
932.951	0.0149948
933.030	0.0149854
933.108	0.0149678
933.186	0.0150509
933.264	0.0150634
933.342	0.0149794
933.420	0.0150392
933.498	0.0151315
933.576	0.0150072
933.655	0.0150636
933.733	0.0150716
933.811	0.0151854
933.889	0.0151511
933.967	0.0152187
934.045	0.0152132
934.123	0.0150078
934.201	0.0150618
934.280	0.0151549
934.358	0.0148592
934.436	0.0151113
934.514	0.0152213
934.592	0.0151884
934.670	0.0151318
934.748	0.0151673
934.826	0.0151915
934.905	0.0151077
934.983	0.0152760
935.061	0.0152220
935.139	0.0152766
935.217	0.0152401
935.295	0.0152434
935.373	0.0152542
935.451	0.0151955
935.530	0.0152394
935.608	0.0152889
935.686	0.0152708
935.764	0.0154292
935.842	0.0152245
935.920	0.0151762
935.998	0.0152186
936.076	0.0152718
936.155	0.0152636
936.233	0.0152523
936.311	0.0151206
936.389	0.0152102
936.467	0.0151740
936.545	0.0151146
936.623	0.0152047
936.701	0.0152934
936.780	0.0152085
936.858	0.0151372
936.936	0.0151391
937.014	0.0152497
937.092	0.0151529
937.170	0.0151792
937.248	0.0151705
937.326	0.0151470
937.405	0.0150905
937.483	0.0151081
937.561	0.0152387
937.639	0.0151435
937.717	0.0149875
937.795	0.0151797
937.873	0.0152496
937.951	0.0152516
938.030	0.0151064
938.108	0.0151317
938.186	0.0151299
938.264	0.0151167
938.342	0.0150611
938.420	0.0150862
938.498	0.0152342
938.576	0.0149907
938.655	0.0151482
938.733	0.0151015
938.811	0.0151588
938.889	0.0151425
938.967	0.0152599
939.045	0.0150661
939.123	0.0150162
939.201	0.0152203
939.280	0.0150745
939.358	0.0152675
939.436	0.0150787
939.514	0.0151697
939.592	0.0152059
939.670	0.0151624
939.748	0.0151629
939.826	0.0151012
939.905	0.0151018
939.983	0.0152296
940.061	0.0151760
940.139	0.0150615
940.217	0.0151313
940.295	0.0150616
940.373	0.0151745
940.451	0.0150951
940.530	0.0151283
940.608	0.0152106
940.686	0.0150866
940.764	0.0152333
940.842	0.0150951
940.920	0.0152740
940.998	0.0151984
941.076	0.0152979
941.155	0.0152759
941.233	0.0150613
941.311	0.0151122
941.389	0.0152294
941.467	0.0153001
941.545	0.0151681
941.623	0.0151519
941.701	0.0152166
941.780	0.0152209
941.858	0.0152023
941.936	0.0153624
942.014	0.0151794
942.092	0.0152177
942.170	0.0153892
942.248	0.0153646
942.326	0.0152740
942.405	0.0153281
942.483	0.0152930
942.561	0.0153383
942.639	0.0152600
942.717	0.0152917
942.795	0.0152959
942.873	0.0151711
942.951	0.0153989
943.030	0.0152250
943.108	0.0152892
943.186	0.0153180
943.264	0.0153411
943.342	0.0152625
943.420	0.0153862
943.498	0.0152460
943.576	0.0153603
943.655	0.0152249
943.733	0.0151815
943.811	0.0152485
943.889	0.0152284
943.967	0.0152425
944.045	0.0152079
944.123	0.0152208
944.201	0.0153159
944.280	0.0152604
944.358	0.0150799
944.436	0.0151419
944.514	0.0152023
944.592	0.0151627
944.670	0.0151996
944.748	0.0152331
944.826	0.0151226
944.905	0.0151440
944.983	0.0152033
945.061	0.0151656
945.139	0.0151089
945.217	0.0151649
945.295	0.0152093
945.373	0.0150620
945.451	0.0150984
945.530	0.0150999
945.608	0.0151482
945.686	0.0151803
945.764	0.0150142
945.842	0.0151508
945.920	0.0150932
945.998	0.0151505
946.076	0.0151521
946.155	0.0151377
946.233	0.0153048
946.311	0.0151908
946.389	0.0151816
946.467	0.0152847
946.545	0.0152056
946.623	0.0150899
946.701	0.0151425
946.780	0.0151888
946.858	0.0152570
946.936	0.0153774
947.014	0.0151299
947.092	0.0150256
947.170	0.0152205
947.248	0.0152613
947.326	0.0152872
947.405	0.0151440
947.483	0.0152527
947.561	0.0151308
947.639	0.0150048
947.717	0.0152497
947.795	0.0151540
947.873	0.0151925
947.951	0.0151359
948.030	0.0151435
948.108	0.0151296
948.186	0.0151006
948.264	0.0151904
948.342	0.0150634
948.420	0.0151866
948.498	0.0150912
948.576	0.0151684
948.655	0.0150823
948.733	0.0150496
948.811	0.0150760
948.889	0.0150984
948.967	0.0150620
949.045	0.0151305
949.123	0.0151299
949.201	0.0150776
949.280	0.0148873
949.358	0.0150285
949.436	0.0149088
949.514	0.0149597
949.592	0.0149119
949.670	0.0149250
949.748	0.0149361
949.826	0.0150538
949.905	0.0151074
949.983	0.0150331
950.061	0.0150215
950.139	0.0150296
950.217	0.0150999
950.295	0.0150031
950.373	0.0150436
950.451	0.0151349
950.530	0.0150593
950.608	0.0151913
950.686	0.0149755
950.764	0.0150518
950.842	0.0151118
950.920	0.0151149
950.998	0.0150350
951.076	0.0149210
951.155	0.0149535
951.233	0.0150193
951.311	0.0150659
951.389	0.0150397
951.467	0.0150089
951.545	0.0150467
951.623	0.0150823
951.701	0.0150733
951.780	0.0151271
951.858	0.0151582
951.936	0.0151318
952.014	0.0150539
952.092	0.0152086
952.170	0.0150671
952.248	0.0152557
952.326	0.0150420
952.405	0.0151308
952.483	0.0151133
952.561	0.0151365
952.639	0.0150563
952.717	0.0150944
952.795	0.0151721
952.873	0.0151351
952.951	0.0151298
953.030	0.0153153
953.108	0.0150637
953.186	0.0149213
953.264	0.0150616
953.342	0.0151908
953.420	0.0151881
953.498	0.0150913
953.576	0.0151114
953.655	0.0151352
953.733	0.0150582
953.811	0.0150547
953.889	0.0151402
953.967	0.0149928
954.045	0.0150679
954.123	0.0151907
954.201	0.0151303
954.280	0.0151740
954.358	0.0151652
954.436	0.0151430
954.514	0.0150915
954.592	0.0151079
954.670	0.0151101
954.748	0.0152248
954.826	0.0151089
954.905	0.0151330
954.983	0.0151518
955.061	0.0151385
955.139	0.0150640
955.217	0.0151508
955.295	0.0151817
955.373	0.0152490
955.451	0.0152958
955.530	0.0151142
955.608	0.0151730
955.686	0.0152056
955.764	0.0152768
955.842	0.0152977
955.920	0.0153261
955.998	0.0151839
956.076	0.0153266
956.155	0.0153536
956.233	0.0153964
956.311	0.0152702
956.389	0.0153217
956.467	0.0152519
956.545	0.0153521
956.623	0.0153687
956.701	0.0152587
956.780	0.0153134
956.858	0.0152938
956.936	0.0153007
957.014	0.0153448
957.092	0.0153405
957.170	0.0154033
957.248	0.0152971
957.326	0.0153116
957.405	0.0151623
957.483	0.0153184
957.561	0.0152119
957.639	0.0153428
957.717	0.0151865
957.795	0.0152834
957.873	0.0152427
957.951	0.0152904
958.030	0.0152277
958.108	0.0150536
958.186	0.0150587
958.264	0.0152259
958.342	0.0152753
958.420	0.0151453
958.498	0.0151025
958.576	0.0153051
958.655	0.0150114
958.733	0.0151016
958.811	0.0152042
958.889	0.0150615
958.967	0.0151997
959.045	0.0149692
959.123	0.0151230
959.201	0.0151172
959.280	0.0150706
959.358	0.0149994
959.436	0.0149430
959.514	0.0151513
959.592	0.0150298
959.670	0.0149718
959.748	0.0150382
959.826	0.0150806
959.905	0.0150436
