05/20/2022	16:06:06	Ver.	4.1	UNKNOWN
Optical Delay	639.989416	Delta X		0.078125	Sweeps	1	Scan Rate	0/0
Coordinates	Axis 1	NaN	Axis 2	NaN	Axis 3	NaN	Axis 4	NaN	Axis 5	NaN	Axis 6	0.000000
TX Power	0.000000	RX Power	0.000000

639.989	0.0151647
640.068	0.0150684
640.146	0.0151736
640.224	0.0149834
640.302	0.0151631
640.380	0.0151892
640.458	0.0151575
640.536	0.0151186
640.614	0.0151960
640.693	0.0151588
640.771	0.0151936
640.849	0.0151450
640.927	0.0151241
641.005	0.0151868
641.083	0.0151069
641.161	0.0152094
641.239	0.0151299
641.318	0.0151235
641.396	0.0151533
641.474	0.0152219
641.552	0.0152656
641.630	0.0150731
641.708	0.0151380
641.786	0.0151582
641.864	0.0150913
641.943	0.0151888
642.021	0.0150656
642.099	0.0151839
642.177	0.0152278
642.255	0.0152061
642.333	0.0151142
642.411	0.0151768
642.489	0.0152069
642.568	0.0151007
642.646	0.0151012
642.724	0.0150808
642.802	0.0151523
642.880	0.0151451
642.958	0.0152479
643.036	0.0151751
643.114	0.0151691
643.193	0.0151717
643.271	0.0151620
643.349	0.0150143
643.427	0.0150817
643.505	0.0150050
643.583	0.0150138
643.661	0.0150322
643.739	0.0151434
643.818	0.0151705
643.896	0.0151270
643.974	0.0151611
644.052	0.0151219
644.130	0.0151272
644.208	0.0151028
644.286	0.0150937
644.364	0.0150820
644.443	0.0152853
644.521	0.0152670
644.599	0.0152657
644.677	0.0151725
644.755	0.0150920
644.833	0.0151702
644.911	0.0151813
644.989	0.0151958
645.068	0.0151098
645.146	0.0151354
645.224	0.0150709
645.302	0.0151184
645.380	0.0152061
645.458	0.0153343
645.536	0.0150388
645.614	0.0151995
645.693	0.0152361
645.771	0.0151958
645.849	0.0151424
645.927	0.0151905
646.005	0.0151223
646.083	0.0150766
646.161	0.0150969
646.239	0.0151832
646.318	0.0151395
646.396	0.0151995
646.474	0.0151829
646.552	0.0151217
646.630	0.0150188
646.708	0.0150970
646.786	0.0152303
646.864	0.0152415
646.943	0.0150333
647.021	0.0150491
647.099	0.0152902
647.177	0.0151402
647.255	0.0151742
647.333	0.0152325
647.411	0.0152007
647.489	0.0151540
647.568	0.0151850
647.646	0.0151262
647.724	0.0151662
647.802	0.0152473
647.880	0.0153135
647.958	0.0150739
648.036	0.0150949
648.114	0.0151789
648.193	0.0152135
648.271	0.0151503
648.349	0.0150601
648.427	0.0152161
648.505	0.0152310
648.583	0.0152265
648.661	0.0150690
648.739	0.0151845
648.818	0.0151089
648.896	0.0150164
648.974	0.0152018
649.052	0.0152235
649.130	0.0151189
649.208	0.0151295
649.286	0.0152173
649.364	0.0151433
649.443	0.0151929
649.521	0.0152475
649.599	0.0152000
649.677	0.0150913
649.755	0.0151562
649.833	0.0151263
649.911	0.0152509
649.989	0.0151212
650.068	0.0150996
650.146	0.0150812
650.224	0.0150922
650.302	0.0151514
650.380	0.0151756
650.458	0.0150964
650.536	0.0151145
650.614	0.0151508
650.693	0.0152459
650.771	0.0150987
650.849	0.0149987
650.927	0.0150874
651.005	0.0151382
651.083	0.0151225
651.161	0.0149789
651.239	0.0150925
651.318	0.0150898
651.396	0.0151314
651.474	0.0150820
651.552	0.0151403
651.630	0.0151033
651.708	0.0151408
651.786	0.0151262
651.864	0.0152037
651.943	0.0151332
652.021	0.0151210
652.099	0.0152222
652.177	0.0152766
652.255	0.0151089
652.333	0.0150273
652.411	0.0151041
652.489	0.0150846
652.568	0.0151795
652.646	0.0150980
652.724	0.0151949
652.802	0.0152065
652.880	0.0151653
652.958	0.0151651
653.036	0.0151122
653.114	0.0151363
653.193	0.0151148
653.271	0.0150793
653.349	0.0151578
653.427	0.0151323
653.505	0.0149895
653.583	0.0151372
653.661	0.0151969
653.739	0.0152431
653.818	0.0152023
653.896	0.0151402
653.974	0.0151065
654.052	0.0151583
654.130	0.0151559
654.208	0.0150945
654.286	0.0150898
654.364	0.0151040
654.443	0.0151540
654.521	0.0150728
654.599	0.0151566
654.677	0.0151230
654.755	0.0150755
654.833	0.0152316
654.911	0.0151615
654.989	0.0152056
655.068	0.0151364
655.146	0.0151918
655.224	0.0151413
655.302	0.0150821
655.380	0.0151666
655.458	0.0151020
655.536	0.0151879
655.614	0.0151180
655.693	0.0152148
655.771	0.0151417
655.849	0.0150796
655.927	0.0150505
656.005	0.0152209
656.083	0.0151385
656.161	0.0152085
656.239	0.0150708
656.318	0.0151035
656.396	0.0151855
656.474	0.0150771
656.552	0.0152831
656.630	0.0150595
656.708	0.0151950
656.786	0.0152393
656.864	0.0152415
656.943	0.0152254
657.021	0.0150349
657.099	0.0150602
657.177	0.0152834
657.255	0.0150980
657.333	0.0151100
657.411	0.0150964
657.489	0.0149978
657.568	0.0151868
657.646	0.0152075
657.724	0.0150659
657.802	0.0150867
657.880	0.0151523
657.958	0.0150727
658.036	0.0152688
658.114	0.0151747
658.193	0.0153063
658.271	0.0153222
658.349	0.0152332
658.427	0.0152553
658.505	0.0152988
658.583	0.0151873
658.661	0.0151893
658.739	0.0153540
658.818	0.0151907
658.896	0.0151112
658.974	0.0150790
659.052	0.0151725
659.130	0.0152054
659.208	0.0153011
659.286	0.0151260
659.364	0.0151624
659.443	0.0152235
659.521	0.0152712
659.599	0.0151422
659.677	0.0152618
659.755	0.0151714
659.833	0.0151598
659.911	0.0152129
659.989	0.0151806
660.068	0.0152081
660.146	0.0153457
660.224	0.0152932
660.302	0.0152718
660.380	0.0151583
660.458	0.0151424
660.536	0.0151518
660.614	0.0151773
660.693	0.0151530
660.771	0.0151362
660.849	0.0152402
660.927	0.0151971
661.005	0.0151637
661.083	0.0152175
661.161	0.0152341
661.239	0.0151725
661.318	0.0151058
661.396	0.0151134
661.474	0.0151141
661.552	0.0152002
661.630	0.0152788
661.708	0.0151865
661.786	0.0151096
661.864	0.0150104
661.943	0.0151826
662.021	0.0151064
662.099	0.0151074
662.177	0.0150241
662.255	0.0151321
662.333	0.0152181
662.411	0.0149400
662.489	0.0151559
662.568	0.0151357
662.646	0.0151593
662.724	0.0150859
662.802	0.0150696
662.880	0.0150188
662.958	0.0150919
663.036	0.0150039
663.114	0.0152111
663.193	0.0151797
663.271	0.0152457
663.349	0.0150962
663.427	0.0150905
663.505	0.0150930
663.583	0.0150773
663.661	0.0150476
663.739	0.0152707
663.818	0.0151366
663.896	0.0151016
663.974	0.0152015
664.052	0.0150032
664.130	0.0151838
664.208	0.0153100
664.286	0.0152402
664.364	0.0151608
664.443	0.0149977
664.521	0.0150902
664.599	0.0151773
664.677	0.0151575
664.755	0.0151723
664.833	0.0151099
664.911	0.0151584
664.989	0.0151442
665.068	0.0151379
665.146	0.0152094
665.224	0.0151111
665.302	0.0150677
665.380	0.0150604
665.458	0.0151246
665.536	0.0151851
665.614	0.0150709
665.693	0.0150830
665.771	0.0151087
665.849	0.0151762
665.927	0.0150766
666.005	0.0151742
666.083	0.0152494
666.161	0.0151772
666.239	0.0151542
666.318	0.0151525
666.396	0.0151897
666.474	0.0150242
666.552	0.0151195
666.630	0.0150424
666.708	0.0151125
666.786	0.0151821
666.864	0.0152742
666.943	0.0150774
667.021	0.0150500
667.099	0.0150980
667.177	0.0150854
667.255	0.0150768
667.333	0.0149768
667.411	0.0150830
667.489	0.0151028
667.568	0.0152283
667.646	0.0152124
667.724	0.0151295
667.802	0.0151537
667.880	0.0151882
667.958	0.0152029
668.036	0.0151037
668.114	0.0151833
668.193	0.0151336
668.271	0.0151252
668.349	0.0150651
668.427	0.0151595
668.505	0.0151060
668.583	0.0152229
668.661	0.0150994
668.739	0.0151476
668.818	0.0151918
668.896	0.0150656
668.974	0.0151063
669.052	0.0151411
669.130	0.0151527
669.208	0.0151421
669.286	0.0152487
669.364	0.0150426
669.443	0.0150773
669.521	0.0150894
669.599	0.0150508
669.677	0.0151550
669.755	0.0152344
669.833	0.0150318
669.911	0.0150383
669.989	0.0149788
670.068	0.0150336
670.146	0.0151116
670.224	0.0151879
670.302	0.0150845
670.380	0.0150854
670.458	0.0151681
670.536	0.0151517
670.614	0.0152055
670.693	0.0150926
670.771	0.0150558
670.849	0.0152499
670.927	0.0152500
671.005	0.0151337
671.083	0.0151529
671.161	0.0150981
671.239	0.0151812
671.318	0.0151875
671.396	0.0152670
671.474	0.0150687
671.552	0.0151500
671.630	0.0151845
671.708	0.0152145
671.786	0.0150877
671.864	0.0150951
671.943	0.0151212
672.021	0.0152204
672.099	0.0151481
672.177	0.0151299
672.255	0.0152085
672.333	0.0151807
672.411	0.0151713
672.489	0.0151941
672.568	0.0150243
672.646	0.0151554
672.724	0.0152284
672.802	0.0152948
672.880	0.0152669
672.958	0.0151413
673.036	0.0152541
673.114	0.0152482
673.193	0.0151553
673.271	0.0151877
673.349	0.0152998
673.427	0.0151794
673.505	0.0153666
673.583	0.0152977
673.661	0.0153818
673.739	0.0151854
673.818	0.0151824
673.896	0.0152451
673.974	0.0152846
674.052	0.0153795
674.130	0.0154031
674.208	0.0153305
674.286	0.0151402
674.364	0.0152621
674.443	0.0152557
674.521	0.0153736
674.599	0.0152748
674.677	0.0152098
674.755	0.0153369
674.833	0.0153014
674.911	0.0151834
674.989	0.0153709
675.068	0.0152979
675.146	0.0151360
675.224	0.0151675
675.302	0.0152886
675.380	0.0152654
675.458	0.0153194
675.536	0.0153017
675.614	0.0151836
675.693	0.0153194
675.771	0.0152691
675.849	0.0153497
675.927	0.0153760
676.005	0.0154340
676.083	0.0153722
676.161	0.0154620
676.239	0.0154026
676.318	0.0152865
676.396	0.0153392
676.474	0.0152282
676.552	0.0153264
676.630	0.0152361
676.708	0.0152124
676.786	0.0153625
676.864	0.0152132
676.943	0.0152625
677.021	0.0153564
677.099	0.0152470
677.177	0.0153740
677.255	0.0153606
677.333	0.0152074
677.411	0.0153094
677.489	0.0152907
677.568	0.0153436
677.646	0.0152470
677.724	0.0151734
677.802	0.0151783
677.880	0.0152490
677.958	0.0154316
678.036	0.0151679
678.114	0.0150762
678.193	0.0153378
678.271	0.0153014
678.349	0.0150809
678.427	0.0151559
678.505	0.0152270
678.583	0.0152044
678.661	0.0151406
678.739	0.0150554
678.818	0.0150205
678.896	0.0151819
678.974	0.0151679
679.052	0.0149516
679.130	0.0152553
679.208	0.0151529
679.286	0.0151294
679.364	0.0151859
679.443	0.0150990
679.521	0.0151698
679.599	0.0151571
679.677	0.0150331
679.755	0.0150531
679.833	0.0152793
679.911	0.0150726
679.989	0.0151433
680.068	0.0151925
680.146	0.0151453
680.224	0.0150996
680.302	0.0149540
680.380	0.0150932
680.458	0.0150636
680.536	0.0151447
680.614	0.0151099
680.693	0.0149593
680.771	0.0150325
680.849	0.0150500
680.927	0.0150886
681.005	0.0150975
681.083	0.0151103
681.161	0.0150497
681.239	0.0150092
681.318	0.0149465
681.396	0.0150445
681.474	0.0149982
681.552	0.0150999
681.630	0.0150797
681.708	0.0151365
681.786	0.0151171
681.864	0.0150993
681.943	0.0151038
682.021	0.0150540
682.099	0.0151380
682.177	0.0152151
682.255	0.0151671
682.333	0.0150436
682.411	0.0150931
682.489	0.0152025
682.568	0.0150974
682.646	0.0150267
682.724	0.0151342
682.802	0.0151070
682.880	0.0150587
682.958	0.0151268
683.036	0.0151251
683.114	0.0152112
683.193	0.0151035
683.271	0.0151985
683.349	0.0149825
683.427	0.0151205
683.505	0.0151321
683.583	0.0150437
683.661	0.0151572
683.739	0.0149541
683.818	0.0151111
683.896	0.0150792
683.974	0.0151405
684.052	0.0150317
684.130	0.0151906
684.208	0.0150431
684.286	0.0150164
684.364	0.0150989
684.443	0.0151209
684.521	0.0150988
684.599	0.0151211
684.677	0.0150810
684.755	0.0150808
684.833	0.0152534
684.911	0.0151689
684.989	0.0151626
685.068	0.0152133
685.146	0.0150382
685.224	0.0151813
685.302	0.0151263
685.380	0.0151524
685.458	0.0151464
685.536	0.0150813
685.614	0.0151320
685.693	0.0150744
685.771	0.0151778
685.849	0.0151429
685.927	0.0151797
686.005	0.0151479
686.083	0.0151048
686.161	0.0150869
686.239	0.0151667
686.318	0.0150311
686.396	0.0151266
686.474	0.0152106
686.552	0.0150859
686.630	0.0153864
686.708	0.0151279
686.786	0.0150204
686.864	0.0152251
686.943	0.0151540
687.021	0.0151011
687.099	0.0150102
687.177	0.0150048
687.255	0.0152829
687.333	0.0151411
687.411	0.0151651
687.489	0.0151509
687.568	0.0150838
687.646	0.0151640
687.724	0.0150877
687.802	0.0153505
687.880	0.0153486
687.958	0.0152003
688.036	0.0151790
688.114	0.0150996
688.193	0.0152531
688.271	0.0150992
688.349	0.0148549
688.427	0.0147470
688.505	0.0147449
688.583	0.0145821
688.661	0.0145291
688.739	0.0145428
688.818	0.0145171
688.896	0.0147778
688.974	0.0148846
689.052	0.0153991
689.130	0.0157557
689.208	0.0161006
689.286	0.0163032
689.364	0.0166685
689.443	0.0169193
689.521	0.0170780
689.599	0.0170033
689.677	0.0167368
689.755	0.0164652
689.833	0.0158363
689.911	0.0151789
689.989	0.0143209
690.068	0.0134927
690.146	0.0126167
690.224	0.0119827
690.302	0.0115199
690.380	0.0109650
690.458	0.0109399
690.536	0.0113687
690.614	0.0118287
690.693	0.0126826
690.771	0.0137903
690.849	0.0148094
690.927	0.0160227
691.005	0.0174087
691.083	0.0186292
691.161	0.0195628
691.239	0.0202615
691.318	0.0207808
691.396	0.0211360
691.474	0.0212540
691.552	0.0208580
691.630	0.0201998
691.708	0.0194836
691.786	0.0183881
691.864	0.0171655
691.943	0.0157915
692.021	0.0145322
692.099	0.0132168
692.177	0.0115753
692.255	0.0102811
692.333	0.00894264
692.411	0.00779083
692.489	0.00703888
692.568	0.00641197
692.646	0.00615562
692.724	0.00623947
692.802	0.00695808
692.880	0.00798515
692.958	0.00924820
693.036	0.0110177
693.114	0.0129092
693.193	0.0149750
693.271	0.0171110
693.349	0.0193748
693.427	0.0214030
693.505	0.0231630
693.583	0.0245925
693.661	0.0258225
693.739	0.0263816
693.818	0.0263574
693.896	0.0261197
693.974	0.0251811
694.052	0.0240553
694.130	0.0225506
694.208	0.0206985
694.286	0.0185551
694.364	0.0167867
694.443	0.0146847
694.521	0.0128269
694.599	0.0110149
694.677	0.00933998
694.755	0.00784973
694.833	0.00673920
694.911	0.00581596
694.989	0.00517265
695.068	0.00486519
695.146	0.00491867
695.224	0.00533867
695.302	0.00599037
695.380	0.00697609
695.458	0.00812325
695.536	0.00964043
695.614	0.0110571
695.693	0.0126746
695.771	0.0142950
695.849	0.0161288
695.927	0.0177721
696.005	0.0194553
696.083	0.0208240
696.161	0.0218272
696.239	0.0228835
696.318	0.0233875
696.396	0.0236672
696.474	0.0236281
696.552	0.0234248
696.630	0.0230282
696.708	0.0222490
696.786	0.0212168
696.864	0.0202336
696.943	0.0189159
697.021	0.0177998
697.099	0.0163486
697.177	0.0151952
697.255	0.0141689
697.333	0.0132568
697.411	0.0123078
697.489	0.0114592
697.568	0.0111532
697.646	0.0106463
697.724	0.0104024
697.802	0.0103972
697.880	0.0103500
697.958	0.0102573
698.036	0.0105518
698.114	0.0111052
698.193	0.0113316
698.271	0.0118728
698.349	0.0126052
698.427	0.0131824
698.505	0.0137588
698.583	0.0143887
698.661	0.0150570
698.739	0.0155104
698.818	0.0158963
698.896	0.0164686
698.974	0.0167452
699.052	0.0170935
699.130	0.0172039
699.208	0.0171651
699.286	0.0173396
699.364	0.0171994
699.443	0.0172114
699.521	0.0170483
699.599	0.0166367
699.677	0.0165108
699.755	0.0162506
699.833	0.0157996
699.911	0.0156330
699.989	0.0153054
700.068	0.0150918
700.146	0.0148888
700.224	0.0149652
700.302	0.0147447
700.380	0.0146468
700.458	0.0146489
700.536	0.0145882
700.614	0.0145890
700.693	0.0147354
700.771	0.0148274
700.849	0.0149490
700.927	0.0149439
701.005	0.0150328
701.083	0.0153197
701.161	0.0153993
701.239	0.0154758
701.318	0.0155081
701.396	0.0157800
701.474	0.0158402
701.552	0.0159080
701.630	0.0160723
701.708	0.0160014
701.786	0.0160665
701.864	0.0161958
701.943	0.0160605
702.021	0.0161803
702.099	0.0162423
702.177	0.0160089
702.255	0.0159153
702.333	0.0157858
702.411	0.0154568
702.489	0.0152717
702.568	0.0149402
702.646	0.0147397
702.724	0.0146588
702.802	0.0141758
702.880	0.0138885
702.958	0.0136339
703.036	0.0136476
703.114	0.0133867
703.193	0.0133192
703.271	0.0131425
703.349	0.0132229
703.427	0.0133221
703.505	0.0134546
703.583	0.0133971
703.661	0.0136082
703.739	0.0136910
703.818	0.0141691
703.896	0.0143053
703.974	0.0144661
704.052	0.0149754
704.130	0.0153849
704.208	0.0156239
704.286	0.0159059
704.364	0.0162370
704.443	0.0166676
704.521	0.0168594
704.599	0.0169802
704.677	0.0172128
704.755	0.0172215
704.833	0.0171748
704.911	0.0171085
704.989	0.0170404
705.068	0.0168903
705.146	0.0164690
705.224	0.0161705
705.302	0.0160397
705.380	0.0155772
705.458	0.0152800
705.536	0.0151898
705.614	0.0150179
705.693	0.0147031
705.771	0.0145405
705.849	0.0143629
705.927	0.0143911
706.005	0.0144849
706.083	0.0145683
706.161	0.0143572
706.239	0.0144287
706.318	0.0145036
706.396	0.0144384
706.474	0.0145294
706.552	0.0145055
706.630	0.0146980
706.708	0.0147469
706.786	0.0147092
706.864	0.0148165
706.943	0.0149522
707.021	0.0148067
707.099	0.0149021
707.177	0.0150336
707.255	0.0150187
707.333	0.0150837
707.411	0.0151562
707.489	0.0150526
707.568	0.0150594
707.646	0.0151345
707.724	0.0152443
707.802	0.0151538
707.880	0.0150315
707.958	0.0150999
708.036	0.0151869
708.114	0.0152119
708.193	0.0151467
708.271	0.0151343
708.349	0.0151006
708.427	0.0153284
708.505	0.0153623
708.583	0.0154295
708.661	0.0153864
708.739	0.0155772
708.818	0.0155788
708.896	0.0156635
708.974	0.0155038
709.052	0.0155312
709.130	0.0155843
709.208	0.0155553
709.286	0.0153180
709.364	0.0152410
709.443	0.0149849
709.521	0.0148749
709.599	0.0149760
709.677	0.0148582
709.755	0.0146722
709.833	0.0147354
709.911	0.0148261
709.989	0.0148489
710.068	0.0149047
710.146	0.0149547
710.224	0.0149792
710.302	0.0150131
710.380	0.0152310
710.458	0.0151588
710.536	0.0152076
710.614	0.0153006
710.693	0.0152934
710.771	0.0152019
710.849	0.0153150
710.927	0.0153478
711.005	0.0153299
711.083	0.0151769
711.161	0.0153096
711.239	0.0154372
711.318	0.0154425
711.396	0.0155470
711.474	0.0155603
711.552	0.0153838
711.630	0.0155109
711.708	0.0154560
711.786	0.0154917
711.864	0.0155830
711.943	0.0153447
712.021	0.0152142
712.099	0.0152738
712.177	0.0152391
712.255	0.0151192
712.333	0.0151637
712.411	0.0152798
712.489	0.0150670
712.568	0.0152294
712.646	0.0150098
712.724	0.0149841
712.802	0.0151201
712.880	0.0150183
712.958	0.0148496
713.036	0.0148177
713.114	0.0149628
713.193	0.0147749
713.271	0.0146788
713.349	0.0148669
713.427	0.0149596
713.505	0.0149573
713.583	0.0150399
713.661	0.0151479
713.739	0.0151438
713.818	0.0151934
713.896	0.0152718
713.974	0.0154047
714.052	0.0155277
714.130	0.0154498
714.208	0.0155376
714.286	0.0152937
714.364	0.0152182
714.443	0.0152863
714.521	0.0151484
714.599	0.0149528
714.677	0.0149882
714.755	0.0149177
714.833	0.0148462
714.911	0.0147650
714.989	0.0147455
715.068	0.0148405
715.146	0.0148232
715.224	0.0149577
715.302	0.0150261
715.380	0.0150957
715.458	0.0151591
715.536	0.0153070
715.614	0.0152917
715.693	0.0153993
715.771	0.0154245
715.849	0.0152687
715.927	0.0154181
716.005	0.0154118
716.083	0.0153649
716.161	0.0151877
716.239	0.0152196
716.318	0.0151701
716.396	0.0151156
716.474	0.0151677
716.552	0.0150114
716.630	0.0150635
716.708	0.0149920
716.786	0.0151173
716.864	0.0151328
716.943	0.0151180
717.021	0.0151645
717.099	0.0151572
717.177	0.0151283
717.255	0.0152046
717.333	0.0153319
717.411	0.0153175
717.489	0.0155363
717.568	0.0153632
717.646	0.0152651
717.724	0.0153400
717.802	0.0154185
717.880	0.0153189
717.958	0.0152621
718.036	0.0152428
718.114	0.0151412
718.193	0.0151971
718.271	0.0153316
718.349	0.0152408
718.427	0.0151039
718.505	0.0151191
718.583	0.0152270
718.661	0.0152739
718.739	0.0151504
718.818	0.0152140
718.896	0.0151831
718.974	0.0152596
719.052	0.0152142
719.130	0.0151768
719.208	0.0151978
719.286	0.0152276
719.364	0.0151761
719.443	0.0149760
719.521	0.0149033
719.599	0.0148640
719.677	0.0147363
719.755	0.0147046
719.833	0.0146562
719.911	0.0145823
719.989	0.0144517
720.068	0.0144045
720.146	0.0143368
720.224	0.0143627
720.302	0.0143724
720.380	0.0144279
720.458	0.0144030
720.536	0.0145663
720.614	0.0146480
720.693	0.0148293
720.771	0.0148527
720.849	0.0149929
720.927	0.0152094
721.005	0.0153466
721.083	0.0152720
721.161	0.0156651
721.239	0.0155263
721.318	0.0157292
721.396	0.0159404
721.474	0.0159351
721.552	0.0157742
721.630	0.0159248
721.708	0.0159572
721.786	0.0160429
721.864	0.0158850
721.943	0.0157700
722.021	0.0157890
722.099	0.0156396
722.177	0.0155825
722.255	0.0155201
722.333	0.0153304
722.411	0.0152178
722.489	0.0153274
722.568	0.0150504
722.646	0.0150415
722.724	0.0149581
722.802	0.0148949
722.880	0.0148631
722.958	0.0149411
723.036	0.0147959
723.114	0.0149462
723.193	0.0148782
723.271	0.0150325
723.349	0.0150242
723.427	0.0149409
723.505	0.0149373
723.583	0.0149105
723.661	0.0149048
723.739	0.0149216
723.818	0.0149474
723.896	0.0150832
723.974	0.0152351
724.052	0.0150795
724.130	0.0150838
724.208	0.0153533
724.286	0.0151439
724.364	0.0152391
724.443	0.0153881
724.521	0.0154127
724.599	0.0153000
724.677	0.0154420
724.755	0.0154107
724.833	0.0155390
724.911	0.0157358
724.989	0.0154694
725.068	0.0153611
725.146	0.0154118
725.224	0.0154453
725.302	0.0151548
725.380	0.0151280
725.458	0.0149593
725.536	0.0148949
725.614	0.0148621
725.693	0.0148766
725.771	0.0147017
725.849	0.0145168
725.927	0.0145081
726.005	0.0146713
726.083	0.0147071
726.161	0.0147015
726.239	0.0147630
726.318	0.0147539
726.396	0.0147974
726.474	0.0150093
726.552	0.0149950
726.630	0.0150807
726.708	0.0151342
726.786	0.0152941
726.864	0.0153610
726.943	0.0152497
727.021	0.0154808
727.099	0.0153603
727.177	0.0154712
727.255	0.0154520
727.333	0.0155714
727.411	0.0155482
727.489	0.0155070
727.568	0.0155283
727.646	0.0153973
727.724	0.0154472
727.802	0.0154100
727.880	0.0152823
727.958	0.0154113
728.036	0.0151756
728.114	0.0150566
728.193	0.0152066
728.271	0.0150449
728.349	0.0150745
728.427	0.0149934
728.505	0.0151454
728.583	0.0149900
728.661	0.0151716
728.739	0.0150235
728.818	0.0150826
728.896	0.0152199
728.974	0.0152039
729.052	0.0151897
729.130	0.0152312
729.208	0.0152213
729.286	0.0151431
729.364	0.0152679
729.443	0.0151617
729.521	0.0153455
729.599	0.0152951
729.677	0.0152904
729.755	0.0150950
729.833	0.0152366
729.911	0.0152983
729.989	0.0153709
730.068	0.0151712
730.146	0.0151079
730.224	0.0152232
730.302	0.0151093
730.380	0.0151740
730.458	0.0149896
730.536	0.0149593
730.614	0.0149684
730.693	0.0148730
730.771	0.0147713
730.849	0.0145498
730.927	0.0145708
731.005	0.0145878
731.083	0.0145390
731.161	0.0146794
731.239	0.0146204
731.318	0.0146079
731.396	0.0146346
731.474	0.0146294
731.552	0.0148392
731.630	0.0149715
731.708	0.0150124
731.786	0.0150605
731.864	0.0151295
731.943	0.0152211
732.021	0.0153064
732.099	0.0152926
732.177	0.0152896
732.255	0.0153287
732.333	0.0153188
732.411	0.0154387
732.489	0.0154351
732.568	0.0155102
732.646	0.0153349
732.724	0.0153670
732.802	0.0152529
732.880	0.0153102
732.958	0.0152416
733.036	0.0150626
733.114	0.0151173
733.193	0.0152287
733.271	0.0151510
733.349	0.0150491
733.427	0.0150774
733.505	0.0149989
733.583	0.0150381
733.661	0.0152165
733.739	0.0153521
733.818	0.0151451
733.896	0.0152998
733.974	0.0152499
734.052	0.0152836
734.130	0.0153272
734.208	0.0154012
734.286	0.0153364
734.364	0.0154184
734.443	0.0154089
734.521	0.0153493
734.599	0.0153922
734.677	0.0153078
734.755	0.0154186
734.833	0.0152695
734.911	0.0152640
734.989	0.0154410
735.068	0.0154745
735.146	0.0153216
735.224	0.0153664
735.302	0.0152871
735.380	0.0152689
735.458	0.0152315
735.536	0.0150082
735.614	0.0150110
735.693	0.0150325
735.771	0.0148056
735.849	0.0148830
735.927	0.0149985
736.005	0.0147582
736.083	0.0146410
736.161	0.0146983
736.239	0.0147572
736.318	0.0145704
736.396	0.0147339
736.474	0.0146986
736.552	0.0146341
736.630	0.0146896
736.708	0.0147685
736.786	0.0148180
736.864	0.0148589
736.943	0.0149327
737.021	0.0151245
737.099	0.0152776
737.177	0.0153583
737.255	0.0154360
737.333	0.0155279
737.411	0.0156705
737.489	0.0155404
737.568	0.0155774
737.646	0.0156592
737.724	0.0155216
737.802	0.0157757
737.880	0.0156356
737.958	0.0153612
738.036	0.0153965
738.114	0.0152954
738.193	0.0152983
738.271	0.0152930
738.349	0.0151956
738.427	0.0151630
738.505	0.0150994
738.583	0.0151060
738.661	0.0149644
738.739	0.0149129
738.818	0.0150733
738.896	0.0151925
738.974	0.0149793
739.052	0.0149503
739.130	0.0150178
739.208	0.0149630
739.286	0.0149940
739.364	0.0149830
739.443	0.0148938
739.521	0.0150499
739.599	0.0148819
739.677	0.0147585
739.755	0.0149761
739.833	0.0151666
739.911	0.0150905
739.989	0.0151390
740.068	0.0151350
740.146	0.0152962
740.224	0.0152682
740.302	0.0153439
740.380	0.0154374
740.458	0.0153356
740.536	0.0152741
740.614	0.0153236
740.693	0.0152365
740.771	0.0153304
740.849	0.0153062
740.927	0.0152480
741.005	0.0152579
741.083	0.0152558
741.161	0.0150153
741.239	0.0152893
741.318	0.0149680
741.396	0.0149895
741.474	0.0150069
741.552	0.0149650
741.630	0.0148440
741.708	0.0148917
741.786	0.0149927
741.864	0.0149282
741.943	0.0150305
742.021	0.0149526
742.099	0.0149506
742.177	0.0151036
742.255	0.0150919
742.333	0.0151508
742.411	0.0151515
742.489	0.0151609
742.568	0.0153385
742.646	0.0153545
742.724	0.0153271
742.802	0.0152187
742.880	0.0153392
742.958	0.0154945
743.036	0.0153605
743.114	0.0153825
743.193	0.0152930
743.271	0.0152589
743.349	0.0151839
743.427	0.0150921
743.505	0.0152956
743.583	0.0151347
743.661	0.0150363
743.739	0.0148874
743.818	0.0148647
743.896	0.0147857
743.974	0.0149393
744.052	0.0148705
744.130	0.0148175
744.208	0.0149348
744.286	0.0149137
744.364	0.0149516
744.443	0.0150574
744.521	0.0149590
744.599	0.0150243
744.677	0.0151698
744.755	0.0152378
744.833	0.0150287
744.911	0.0152515
744.989	0.0152062
745.068	0.0153651
745.146	0.0153774
745.224	0.0152643
745.302	0.0152540
745.380	0.0154037
745.458	0.0151517
745.536	0.0152312
745.614	0.0153392
745.693	0.0152936
745.771	0.0151245
745.849	0.0150909
745.927	0.0152450
746.005	0.0151678
746.083	0.0151891
746.161	0.0149309
746.239	0.0150378
746.318	0.0151318
746.396	0.0150086
746.474	0.0150774
746.552	0.0151048
746.630	0.0149107
746.708	0.0151320
746.786	0.0149385
746.864	0.0149168
746.943	0.0148939
747.021	0.0148442
747.099	0.0148582
747.177	0.0148441
747.255	0.0148958
747.333	0.0149213
747.411	0.0150054
747.489	0.0151094
747.568	0.0150199
747.646	0.0151968
747.724	0.0151578
747.802	0.0152232
747.880	0.0154575
747.958	0.0155299
748.036	0.0154385
748.114	0.0155303
748.193	0.0155346
748.271	0.0155140
748.349	0.0154654
748.427	0.0153506
748.505	0.0151550
748.583	0.0153188
748.661	0.0151125
748.739	0.0150779
748.818	0.0149699
748.896	0.0150683
748.974	0.0150396
749.052	0.0149525
749.130	0.0150386
749.208	0.0150959
749.286	0.0150276
749.364	0.0149625
749.443	0.0151350
749.521	0.0152343
749.599	0.0150632
749.677	0.0152328
749.755	0.0152604
749.833	0.0151134
749.911	0.0152164
749.989	0.0151394
750.068	0.0151122
750.146	0.0151782
750.224	0.0153237
750.302	0.0151956
750.380	0.0152652
750.458	0.0153586
750.536	0.0153271
750.614	0.0151519
750.693	0.0150770
750.771	0.0153716
750.849	0.0151720
750.927	0.0151831
751.005	0.0152831
751.083	0.0152455
751.161	0.0152374
751.239	0.0151848
751.318	0.0152144
751.396	0.0150285
751.474	0.0150230
751.552	0.0151714
751.630	0.0150269
751.708	0.0150652
751.786	0.0150419
751.864	0.0149699
751.943	0.0149667
752.021	0.0149886
752.099	0.0149351
752.177	0.0149767
752.255	0.0149653
752.333	0.0148246
752.411	0.0149905
752.489	0.0149380
752.568	0.0149856
752.646	0.0151903
752.724	0.0150534
752.802	0.0152689
752.880	0.0151039
752.958	0.0151458
753.036	0.0153011
753.114	0.0152085
753.193	0.0151426
753.271	0.0152497
753.349	0.0151578
753.427	0.0152470
753.505	0.0152501
753.583	0.0152897
753.661	0.0154005
753.739	0.0152930
753.818	0.0151517
753.896	0.0152579
753.974	0.0150307
754.052	0.0149784
754.130	0.0150056
754.208	0.0151715
754.286	0.0150948
754.364	0.0150869
754.443	0.0149629
754.521	0.0148296
754.599	0.0149877
754.677	0.0147722
754.755	0.0147958
754.833	0.0148433
754.911	0.0147244
754.989	0.0148909
755.068	0.0149015
755.146	0.0148980
755.224	0.0150282
755.302	0.0151208
755.380	0.0150525
755.458	0.0150806
755.536	0.0152696
755.614	0.0152157
755.693	0.0153150
755.771	0.0153730
755.849	0.0153122
755.927	0.0153083
756.005	0.0152139
756.083	0.0152993
756.161	0.0153021
756.239	0.0151627
756.318	0.0153001
756.396	0.0153856
756.474	0.0153466
756.552	0.0152094
756.630	0.0152892
756.708	0.0151310
756.786	0.0151958
756.864	0.0152351
756.943	0.0152385
757.021	0.0151810
757.099	0.0152428
757.177	0.0151747
757.255	0.0151241
757.333	0.0151640
757.411	0.0152074
757.489	0.0150019
757.568	0.0149999
757.646	0.0150262
757.724	0.0151678
757.802	0.0150253
757.880	0.0148905
757.958	0.0149564
758.036	0.0150753
758.114	0.0149618
758.193	0.0148467
758.271	0.0148375
758.349	0.0149634
758.427	0.0151413
758.505	0.0150425
758.583	0.0150149
758.661	0.0150835
758.739	0.0152460
758.818	0.0152462
758.896	0.0151968
758.974	0.0152417
759.052	0.0153384
759.130	0.0153477
759.208	0.0152637
759.286	0.0151777
759.364	0.0151111
759.443	0.0152766
759.521	0.0151080
759.599	0.0151388
759.677	0.0151177
759.755	0.0149775
759.833	0.0149049
759.911	0.0150423
759.989	0.0149727
760.068	0.0149763
760.146	0.0149039
760.224	0.0149953
760.302	0.0151064
760.380	0.0150851
760.458	0.0151210
760.536	0.0150860
760.614	0.0151873
760.693	0.0152637
760.771	0.0152065
760.849	0.0150679
760.927	0.0152425
761.005	0.0151237
761.083	0.0151334
761.161	0.0152691
761.239	0.0153582
761.318	0.0152122
761.396	0.0150759
761.474	0.0152210
761.552	0.0153165
761.630	0.0152220
761.708	0.0154239
761.786	0.0154362
761.864	0.0153976
761.943	0.0154600
762.021	0.0154202
762.099	0.0154179
762.177	0.0153553
762.255	0.0154190
762.333	0.0154865
762.411	0.0153887
762.489	0.0153897
762.568	0.0154961
762.646	0.0154632
762.724	0.0152894
762.802	0.0151613
762.880	0.0151666
762.958	0.0152487
763.036	0.0153048
763.114	0.0152406
763.193	0.0151345
763.271	0.0152460
763.349	0.0151111
763.427	0.0152196
763.505	0.0151767
763.583	0.0151093
763.661	0.0151877
763.739	0.0150330
763.818	0.0151529
763.896	0.0151078
763.974	0.0151680
764.052	0.0150510
764.130	0.0150726
764.208	0.0149942
764.286	0.0147923
764.364	0.0148381
764.443	0.0149355
764.521	0.0150311
764.599	0.0148875
764.677	0.0148742
764.755	0.0148495
764.833	0.0149766
764.911	0.0148427
764.989	0.0148190
765.068	0.0149385
765.146	0.0148206
765.224	0.0147070
765.302	0.0147578
765.380	0.0149735
765.458	0.0150291
765.536	0.0148444
765.614	0.0147836
765.693	0.0149369
765.771	0.0148253
765.849	0.0148586
765.927	0.0151585
766.005	0.0149780
766.083	0.0150278
766.161	0.0150748
766.239	0.0151627
766.318	0.0152191
766.396	0.0152943
766.474	0.0154192
766.552	0.0152937
766.630	0.0155050
766.708	0.0154923
766.786	0.0156220
766.864	0.0156386
766.943	0.0153207
767.021	0.0154044
767.099	0.0154562
767.177	0.0154123
767.255	0.0152677
767.333	0.0153939
767.411	0.0153357
767.489	0.0153355
767.568	0.0152036
767.646	0.0152006
767.724	0.0151274
767.802	0.0150946
767.880	0.0152600
767.958	0.0152112
768.036	0.0151894
768.114	0.0151646
768.193	0.0150306
768.271	0.0151682
768.349	0.0150339
768.427	0.0151749
768.505	0.0151627
768.583	0.0149368
768.661	0.0151776
768.739	0.0151447
768.818	0.0150921
768.896	0.0151206
768.974	0.0152042
769.052	0.0151526
769.130	0.0151702
769.208	0.0151711
769.286	0.0151014
769.364	0.0151869
769.443	0.0150198
769.521	0.0151558
769.599	0.0152223
769.677	0.0150830
769.755	0.0151482
769.833	0.0152289
769.911	0.0152049
769.989	0.0151793
770.068	0.0152359
770.146	0.0152512
770.224	0.0151669
770.302	0.0151936
770.380	0.0152391
770.458	0.0151327
770.536	0.0150005
770.614	0.0150654
770.693	0.0150557
770.771	0.0149395
770.849	0.0149690
770.927	0.0149002
771.005	0.0149605
771.083	0.0151329
771.161	0.0148963
771.239	0.0150474
771.318	0.0150589
771.396	0.0150736
771.474	0.0151451
771.552	0.0151261
771.630	0.0151584
771.708	0.0151659
771.786	0.0152277
771.864	0.0153712
771.943	0.0152818
772.021	0.0153280
772.099	0.0155038
772.177	0.0153827
772.255	0.0153931
772.333	0.0153764
772.411	0.0154019
772.489	0.0154358
772.568	0.0154510
772.646	0.0153986
772.724	0.0154758
772.802	0.0153988
772.880	0.0154855
772.958	0.0154528
773.036	0.0153281
773.114	0.0152322
773.193	0.0152750
773.271	0.0153109
773.349	0.0153893
773.427	0.0152309
773.505	0.0150071
773.583	0.0151876
773.661	0.0151102
773.739	0.0149963
773.818	0.0149836
773.896	0.0151344
773.974	0.0150511
774.052	0.0150579
774.130	0.0152116
774.208	0.0150710
774.286	0.0150763
774.364	0.0152042
774.443	0.0150626
774.521	0.0151352
774.599	0.0151302
774.677	0.0152381
774.755	0.0153215
774.833	0.0153101
774.911	0.0152093
774.989	0.0152647
775.068	0.0152065
775.146	0.0153470
775.224	0.0153687
775.302	0.0152172
775.380	0.0154141
775.458	0.0151963
775.536	0.0152363
775.614	0.0153253
775.693	0.0151887
775.771	0.0151208
775.849	0.0150748
775.927	0.0151244
776.005	0.0149660
776.083	0.0149917
776.161	0.0149761
776.239	0.0150710
776.318	0.0151534
776.396	0.0149752
776.474	0.0151043
776.552	0.0150419
776.630	0.0150413
776.708	0.0151578
776.786	0.0151466
776.864	0.0152042
776.943	0.0152410
777.021	0.0150915
777.099	0.0152242
777.177	0.0151725
777.255	0.0151298
777.333	0.0150101
777.411	0.0151371
777.489	0.0151868
777.568	0.0152746
777.646	0.0150043
777.724	0.0151677
777.802	0.0151729
777.880	0.0151995
777.958	0.0152585
778.036	0.0151006
778.114	0.0151128
778.193	0.0151572
778.271	0.0152045
778.349	0.0151028
778.427	0.0151244
778.505	0.0150497
778.583	0.0150509
778.661	0.0150158
778.739	0.0152038
778.818	0.0150620
778.896	0.0150314
778.974	0.0150726
779.052	0.0150137
779.130	0.0151040
779.208	0.0149742
779.286	0.0150781
779.364	0.0151775
779.443	0.0151425
779.521	0.0151375
779.599	0.0151447
779.677	0.0152419
779.755	0.0152973
779.833	0.0154454
779.911	0.0151450
779.989	0.0153078
780.068	0.0154115
780.146	0.0153135
780.224	0.0152975
780.302	0.0152122
780.380	0.0152490
780.458	0.0153001
780.536	0.0151984
780.614	0.0152087
780.693	0.0152795
780.771	0.0151608
780.849	0.0151424
780.927	0.0152537
781.005	0.0150387
781.083	0.0150243
781.161	0.0151413
781.239	0.0152124
781.318	0.0151259
781.396	0.0152766
781.474	0.0150630
781.552	0.0150633
781.630	0.0152056
781.708	0.0151163
781.786	0.0152017
781.864	0.0152026
781.943	0.0151793
782.021	0.0152372
782.099	0.0151669
782.177	0.0151896
782.255	0.0151696
782.333	0.0151163
782.411	0.0151619
782.489	0.0152151
782.568	0.0151598
782.646	0.0151742
782.724	0.0152109
782.802	0.0150636
782.880	0.0150888
782.958	0.0151431
783.036	0.0150874
783.114	0.0151111
783.193	0.0151090
783.271	0.0150182
783.349	0.0150919
783.427	0.0152118
783.505	0.0149863
783.583	0.0150178
783.661	0.0151819
783.739	0.0151436
783.818	0.0151094
783.896	0.0151676
783.974	0.0151211
784.052	0.0151558
784.130	0.0152903
784.208	0.0152631
784.286	0.0152057
784.364	0.0152094
784.443	0.0152343
784.521	0.0152167
784.599	0.0151920
784.677	0.0153184
784.755	0.0153132
784.833	0.0152776
784.911	0.0154384
784.989	0.0154214
785.068	0.0153683
785.146	0.0152245
785.224	0.0152251
785.302	0.0152557
785.380	0.0153790
785.458	0.0152422
785.536	0.0152545
785.614	0.0152413
785.693	0.0152061
785.771	0.0150718
785.849	0.0152576
785.927	0.0152219
786.005	0.0152122
786.083	0.0150746
786.161	0.0151437
786.239	0.0148401
786.318	0.0148820
786.396	0.0149812
786.474	0.0147939
786.552	0.0148244
786.630	0.0147848
786.708	0.0147598
786.786	0.0147585
786.864	0.0146450
786.943	0.0147469
787.021	0.0148045
787.099	0.0149458
787.177	0.0150117
787.255	0.0150929
787.333	0.0152155
787.411	0.0153017
787.489	0.0154733
787.568	0.0155244
787.646	0.0156802
787.724	0.0156585
787.802	0.0156824
787.880	0.0157074
787.958	0.0158065
788.036	0.0155750
788.114	0.0155202
788.193	0.0155453
788.271	0.0154911
788.349	0.0153042
788.427	0.0151688
788.505	0.0149987
788.583	0.0149712
788.661	0.0146545
788.739	0.0145969
788.818	0.0145674
788.896	0.0143875
788.974	0.0142531
789.052	0.0142662
789.130	0.0143028
789.208	0.0143349
789.286	0.0143869
789.364	0.0145100
789.443	0.0146182
789.521	0.0148346
789.599	0.0151128
789.677	0.0153484
789.755	0.0153297
789.833	0.0156789
789.911	0.0159703
789.989	0.0160158
790.068	0.0160942
790.146	0.0160749
790.224	0.0162009
790.302	0.0163687
790.380	0.0162610
790.458	0.0160669
790.536	0.0161562
790.614	0.0158502
790.693	0.0158460
790.771	0.0156580
790.849	0.0154370
790.927	0.0151802
791.005	0.0150225
791.083	0.0149257
791.161	0.0147553
791.239	0.0146084
791.318	0.0143179
791.396	0.0142709
791.474	0.0142890
791.552	0.0141948
791.630	0.0141425
791.708	0.0141039
791.786	0.0141486
791.864	0.0142325
791.943	0.0143359
792.021	0.0144540
792.099	0.0144852
792.177	0.0147191
792.255	0.0148302
792.333	0.0149888
792.411	0.0151503
792.489	0.0154140
792.568	0.0154575
792.646	0.0155253
792.724	0.0157940
792.802	0.0157927
792.880	0.0158940
792.958	0.0158920
793.036	0.0158061
793.114	0.0160134
793.193	0.0159143
793.271	0.0157948
793.349	0.0157976
793.427	0.0156633
793.505	0.0156875
793.583	0.0156165
793.661	0.0154024
793.739	0.0152710
793.818	0.0153015
793.896	0.0151159
793.974	0.0151245
794.052	0.0151676
794.130	0.0150694
794.208	0.0152012
794.286	0.0150261
794.364	0.0149675
794.443	0.0149947
794.521	0.0151674
794.599	0.0150883
794.677	0.0149900
794.755	0.0151067
794.833	0.0150983
794.911	0.0152144
794.989	0.0150734
795.068	0.0150616
795.146	0.0149939
795.224	0.0150138
795.302	0.0149919
795.380	0.0148536
795.458	0.0150413
795.536	0.0147567
795.614	0.0148732
795.693	0.0148871
795.771	0.0147638
795.849	0.0148083
795.927	0.0148238
796.005	0.0149823
796.083	0.0150645
796.161	0.0151798
796.239	0.0151089
796.318	0.0152256
796.396	0.0152410
796.474	0.0154002
796.552	0.0154146
796.630	0.0154218
796.708	0.0155127
796.786	0.0155899
796.864	0.0156241
796.943	0.0155923
797.021	0.0155589
797.099	0.0155940
797.177	0.0157559
797.255	0.0154917
797.333	0.0155148
797.411	0.0153783
797.489	0.0152571
797.568	0.0153586
797.646	0.0152353
797.724	0.0150645
797.802	0.0151221
797.880	0.0151211
797.958	0.0149922
798.036	0.0149310
798.114	0.0150433
798.193	0.0148648
798.271	0.0147898
798.349	0.0150214
798.427	0.0149706
798.505	0.0149250
798.583	0.0149052
798.661	0.0148978
798.739	0.0149226
798.818	0.0149448
798.896	0.0149442
798.974	0.0148980
799.052	0.0149816
799.130	0.0149340
799.208	0.0150309
799.286	0.0150780
799.364	0.0150966
799.443	0.0150567
799.521	0.0152210
799.599	0.0152413
799.677	0.0152713
799.755	0.0152081
799.833	0.0151852
799.911	0.0153318
799.989	0.0153604
800.068	0.0153452
800.146	0.0152859
800.224	0.0153723
800.302	0.0153603
800.380	0.0152641
800.458	0.0151955
800.536	0.0153156
800.614	0.0152812
800.693	0.0152725
800.771	0.0151602
800.849	0.0152009
800.927	0.0152456
801.005	0.0152137
801.083	0.0151349
801.161	0.0151456
801.239	0.0149417
801.318	0.0150909
801.396	0.0150673
801.474	0.0150359
801.552	0.0152075
801.630	0.0151732
801.708	0.0151776
801.786	0.0151559
801.864	0.0151250
801.943	0.0149693
802.021	0.0150845
802.099	0.0152396
802.177	0.0149870
802.255	0.0151403
802.333	0.0151864
802.411	0.0151499
802.489	0.0151926
802.568	0.0152097
802.646	0.0151119
802.724	0.0150842
802.802	0.0152032
802.880	0.0153120
802.958	0.0153839
803.036	0.0152581
803.114	0.0153010
803.193	0.0154145
803.271	0.0152316
803.349	0.0152309
803.427	0.0151514
803.505	0.0152708
803.583	0.0152605
803.661	0.0148336
803.739	0.0151440
803.818	0.0151257
803.896	0.0151719
803.974	0.0151105
804.052	0.0148887
804.130	0.0150883
804.208	0.0150385
804.286	0.0149679
804.364	0.0149833
804.443	0.0148020
804.521	0.0149724
804.599	0.0151881
804.677	0.0150888
804.755	0.0150162
804.833	0.0149879
804.911	0.0150867
804.989	0.0151662
805.068	0.0150372
805.146	0.0150407
805.224	0.0150124
805.302	0.0149796
805.380	0.0150204
805.458	0.0151205
805.536	0.0151057
805.614	0.0151730
805.693	0.0153835
805.771	0.0152024
805.849	0.0152197
805.927	0.0152404
806.005	0.0152498
806.083	0.0153555
806.161	0.0152874
806.239	0.0154103
806.318	0.0153964
806.396	0.0152286
806.474	0.0152618
806.552	0.0150471
806.630	0.0150326
806.708	0.0151492
806.786	0.0152129
806.864	0.0150227
806.943	0.0149235
807.021	0.0150290
807.099	0.0150155
807.177	0.0149915
807.255	0.0149642
807.333	0.0150382
807.411	0.0149033
807.489	0.0148836
807.568	0.0148756
807.646	0.0149788
807.724	0.0149262
807.802	0.0150217
807.880	0.0150199
807.958	0.0150475
808.036	0.0152117
808.114	0.0150768
808.193	0.0150584
808.271	0.0152065
808.349	0.0152356
808.427	0.0153233
808.505	0.0152807
808.583	0.0152879
808.661	0.0153377
808.739	0.0154762
808.818	0.0154034
808.896	0.0152244
808.974	0.0151994
809.052	0.0152645
809.130	0.0152637
809.208	0.0151254
809.286	0.0151044
809.364	0.0151135
809.443	0.0152351
809.521	0.0151630
809.599	0.0150541
809.677	0.0149603
809.755	0.0151002
809.833	0.0150539
809.911	0.0149915
809.989	0.0150648
810.068	0.0150720
810.146	0.0150962
810.224	0.0150813
810.302	0.0151469
810.380	0.0151976
810.458	0.0150180
810.536	0.0151073
810.614	0.0150955
810.693	0.0151150
810.771	0.0151044
810.849	0.0150660
810.927	0.0152048
811.005	0.0150993
811.083	0.0152085
811.161	0.0153477
811.239	0.0151063
811.318	0.0153750
811.396	0.0154190
811.474	0.0154331
811.552	0.0152465
811.630	0.0152570
811.708	0.0153036
811.786	0.0152406
811.864	0.0151478
811.943	0.0152406
812.021	0.0151491
812.099	0.0151846
812.177	0.0150688
812.255	0.0150039
812.333	0.0150293
812.411	0.0150327
812.489	0.0149294
812.568	0.0150161
812.646	0.0150964
812.724	0.0150191
812.802	0.0149905
812.880	0.0149092
812.958	0.0148203
813.036	0.0149290
813.114	0.0149860
813.193	0.0149227
813.271	0.0148479
813.349	0.0148633
813.427	0.0148054
813.505	0.0149024
813.583	0.0148943
813.661	0.0150860
813.739	0.0150040
813.818	0.0151419
813.896	0.0152518
813.974	0.0150645
814.052	0.0150693
814.130	0.0152977
814.208	0.0153786
814.286	0.0151801
814.364	0.0152481
814.443	0.0153970
814.521	0.0153648
814.599	0.0153343
814.677	0.0152441
814.755	0.0153848
814.833	0.0152483
814.911	0.0153242
814.989	0.0152867
815.068	0.0152576
815.146	0.0150478
815.224	0.0151048
815.302	0.0151235
815.380	0.0150896
815.458	0.0151109
815.536	0.0149950
815.614	0.0149473
815.693	0.0150571
815.771	0.0150547
815.849	0.0150385
815.927	0.0151023
816.005	0.0152885
816.083	0.0152766
816.161	0.0150854
816.239	0.0151278
816.318	0.0152696
816.396	0.0151640
816.474	0.0152009
816.552	0.0151303
816.630	0.0149680
816.708	0.0150513
816.786	0.0151225
816.864	0.0150571
816.943	0.0150611
817.021	0.0150352
817.099	0.0150403
817.177	0.0150024
817.255	0.0149581
817.333	0.0148248
817.411	0.0149665
817.489	0.0150348
817.568	0.0149380
817.646	0.0149882
817.724	0.0152179
817.802	0.0151608
817.880	0.0150978
817.958	0.0151273
818.036	0.0151731
818.114	0.0152508
818.193	0.0151948
818.271	0.0152019
818.349	0.0151740
818.427	0.0152106
818.505	0.0152505
818.583	0.0152070
818.661	0.0151174
818.739	0.0152181
818.818	0.0151250
818.896	0.0149268
818.974	0.0149499
819.052	0.0149582
819.130	0.0148969
819.208	0.0148503
819.286	0.0148757
819.364	0.0148193
819.443	0.0149499
819.521	0.0149177
819.599	0.0149462
819.677	0.0147071
819.755	0.0150448
819.833	0.0149940
819.911	0.0149690
819.989	0.0151329
820.068	0.0150238
820.146	0.0150751
820.224	0.0151722
820.302	0.0151845
820.380	0.0152961
820.458	0.0153266
820.536	0.0153500
820.614	0.0154494
820.693	0.0154617
820.771	0.0154648
820.849	0.0153364
820.927	0.0154208
821.005	0.0153668
821.083	0.0154530
821.161	0.0153607
821.239	0.0154050
821.318	0.0154125
821.396	0.0152724
821.474	0.0152046
821.552	0.0153717
821.630	0.0153353
821.708	0.0153228
821.786	0.0153275
821.864	0.0152982
821.943	0.0152772
822.021	0.0150657
822.099	0.0151001
822.177	0.0149535
822.255	0.0149887
822.333	0.0151357
822.411	0.0150923
822.489	0.0149187
822.568	0.0150914
822.646	0.0149629
822.724	0.0150610
822.802	0.0149062
822.880	0.0149727
822.958	0.0148589
823.036	0.0150499
823.114	0.0149610
823.193	0.0150266
823.271	0.0150517
823.349	0.0149780
823.427	0.0149242
823.505	0.0149592
823.583	0.0149703
823.661	0.0150013
823.739	0.0149107
823.818	0.0150360
823.896	0.0150882
823.974	0.0151237
824.052	0.0151175
824.130	0.0150972
824.208	0.0151601
824.286	0.0150258
824.364	0.0150005
824.443	0.0150394
824.521	0.0150308
824.599	0.0151063
824.677	0.0151108
824.755	0.0150128
824.833	0.0150818
824.911	0.0152225
824.989	0.0152228
825.068	0.0151740
825.146	0.0152045
825.224	0.0152379
825.302	0.0152422
825.380	0.0154347
825.458	0.0154002
825.536	0.0154772
825.614	0.0154399
825.693	0.0155553
825.771	0.0154558
825.849	0.0153813
825.927	0.0152983
826.005	0.0154692
826.083	0.0154545
826.161	0.0153365
826.239	0.0153732
826.318	0.0154658
826.396	0.0153678
826.474	0.0153471
826.552	0.0153645
826.630	0.0153852
826.708	0.0153210
826.786	0.0154253
826.864	0.0154377
826.943	0.0152810
827.021	0.0151633
827.099	0.0152426
827.177	0.0152671
827.255	0.0152995
827.333	0.0152557
827.411	0.0150977
827.489	0.0149606
827.568	0.0151553
827.646	0.0150732
827.724	0.0150288
827.802	0.0149187
827.880	0.0148841
827.958	0.0147234
828.036	0.0147981
828.114	0.0147990
828.193	0.0146673
828.271	0.0147475
828.349	0.0148058
828.427	0.0147926
828.505	0.0147287
828.583	0.0149010
828.661	0.0148996
828.739	0.0148302
828.818	0.0148872
828.896	0.0148675
828.974	0.0150510
829.052	0.0151201
829.130	0.0150278
829.208	0.0150841
829.286	0.0151085
829.364	0.0151987
829.443	0.0153334
829.521	0.0154053
829.599	0.0154024
829.677	0.0154182
829.755	0.0154520
829.833	0.0153597
829.911	0.0153240
829.989	0.0153310
830.068	0.0153045
830.146	0.0152755
830.224	0.0154067
830.302	0.0153212
830.380	0.0154462
830.458	0.0152590
830.536	0.0153421
830.614	0.0153120
830.693	0.0152978
830.771	0.0151789
830.849	0.0153349
830.927	0.0153271
831.005	0.0152766
831.083	0.0153230
831.161	0.0152855
831.239	0.0152521
831.318	0.0152462
831.396	0.0154843
831.474	0.0153329
831.552	0.0153160
831.630	0.0152198
831.708	0.0152910
831.786	0.0152164
831.864	0.0152918
831.943	0.0151041
832.021	0.0152110
832.099	0.0152473
832.177	0.0152654
832.255	0.0152211
832.333	0.0150998
832.411	0.0151067
832.489	0.0151137
832.568	0.0150763
832.646	0.0149201
832.724	0.0149729
832.802	0.0150631
832.880	0.0151222
832.958	0.0150297
833.036	0.0151377
833.114	0.0148999
833.193	0.0149113
833.271	0.0150464
833.349	0.0149431
833.427	0.0149698
833.505	0.0149886
833.583	0.0151283
833.661	0.0149609
833.739	0.0151363
833.818	0.0151893
833.896	0.0151056
833.974	0.0152235
834.052	0.0152934
834.130	0.0154474
834.208	0.0154008
834.286	0.0153207
834.364	0.0152869
834.443	0.0154482
834.521	0.0154672
834.599	0.0153881
834.677	0.0155398
834.755	0.0154777
834.833	0.0154034
834.911	0.0155431
834.989	0.0154288
835.068	0.0153809
835.146	0.0155227
835.224	0.0153619
835.302	0.0154879
835.380	0.0154459
835.458	0.0154039
835.536	0.0153782
835.614	0.0152446
835.693	0.0153026
835.771	0.0152838
835.849	0.0152444
835.927	0.0152167
836.005	0.0152642
836.083	0.0150141
836.161	0.0152547
836.239	0.0150779
836.318	0.0150893
836.396	0.0150498
836.474	0.0150630
836.552	0.0150275
836.630	0.0150242
836.708	0.0150826
836.786	0.0149223
836.864	0.0149360
836.943	0.0149921
837.021	0.0149651
837.099	0.0150602
837.177	0.0150184
837.255	0.0150333
837.333	0.0149143
837.411	0.0149593
837.489	0.0149852
837.568	0.0149546
837.646	0.0149179
837.724	0.0150256
837.802	0.0150865
837.880	0.0150570
837.958	0.0150327
838.036	0.0150699
838.114	0.0150224
838.193	0.0150645
838.271	0.0152263
838.349	0.0152657
838.427	0.0150955
838.505	0.0150777
838.583	0.0151630
838.661	0.0152882
838.739	0.0153080
838.818	0.0151797
838.896	0.0152656
838.974	0.0152630
839.052	0.0152265
839.130	0.0153454
839.208	0.0152564
839.286	0.0152080
839.364	0.0152394
839.443	0.0153514
839.521	0.0152670
839.599	0.0152862
839.677	0.0152436
839.755	0.0153020
839.833	0.0151971
839.911	0.0152566
839.989	0.0152844
840.068	0.0152458
840.146	0.0153286
840.224	0.0153867
840.302	0.0152969
840.380	0.0153165
840.458	0.0151942
840.536	0.0153879
840.614	0.0153503
840.693	0.0153278
840.771	0.0152969
840.849	0.0152293
840.927	0.0151494
841.005	0.0152663
841.083	0.0151890
841.161	0.0151188
841.239	0.0149679
841.318	0.0149060
841.396	0.0150330
841.474	0.0149458
841.552	0.0150353
841.630	0.0149753
841.708	0.0151017
841.786	0.0149515
841.864	0.0150578
841.943	0.0150430
842.021	0.0151067
842.099	0.0151424
842.177	0.0151165
842.255	0.0152620
842.333	0.0152761
842.411	0.0153076
842.489	0.0151945
842.568	0.0152666
842.646	0.0152007
842.724	0.0154010
842.802	0.0153294
842.880	0.0152863
842.958	0.0151675
843.036	0.0153587
843.114	0.0152385
843.193	0.0152245
843.271	0.0151920
843.349	0.0151627
843.427	0.0153260
843.505	0.0152662
843.583	0.0152448
843.661	0.0151109
843.739	0.0151566
843.818	0.0149919
843.896	0.0150526
843.974	0.0150807
844.052	0.0151279
844.130	0.0151649
844.208	0.0151689
844.286	0.0150634
844.364	0.0149870
844.443	0.0149732
844.521	0.0149168
844.599	0.0150890
844.677	0.0151449
844.755	0.0150844
844.833	0.0150813
844.911	0.0152211
844.989	0.0150822
845.068	0.0151566
845.146	0.0151465
845.224	0.0151920
845.302	0.0150383
845.380	0.0151521
845.458	0.0151570
845.536	0.0150058
845.614	0.0151244
845.693	0.0151733
845.771	0.0151432
845.849	0.0151611
845.927	0.0151127
846.005	0.0152615
846.083	0.0152424
846.161	0.0152209
846.239	0.0150318
846.318	0.0152215
846.396	0.0151583
846.474	0.0152197
846.552	0.0152560
846.630	0.0151972
846.708	0.0152461
846.786	0.0153418
846.864	0.0151086
846.943	0.0152333
847.021	0.0151720
847.099	0.0153810
847.177	0.0154019
847.255	0.0153381
847.333	0.0154702
847.411	0.0153163
847.489	0.0152310
847.568	0.0153318
847.646	0.0154012
847.724	0.0153374
847.802	0.0152551
847.880	0.0153100
847.958	0.0152860
848.036	0.0154434
848.114	0.0152115
848.193	0.0153726
848.271	0.0153867
848.349	0.0152543
848.427	0.0153468
848.505	0.0152398
848.583	0.0153181
848.661	0.0152364
848.739	0.0152069
848.818	0.0150510
848.896	0.0151742
848.974	0.0151775
849.052	0.0151620
849.130	0.0151624
849.208	0.0150713
849.286	0.0151490
849.364	0.0150169
849.443	0.0148736
849.521	0.0149752
849.599	0.0150071
849.677	0.0150404
849.755	0.0150278
849.833	0.0149512
849.911	0.0150117
849.989	0.0149915
850.068	0.0151578
850.146	0.0149894
850.224	0.0151994
850.302	0.0151579
850.380	0.0152197
850.458	0.0151183
850.536	0.0151478
850.614	0.0151837
850.693	0.0152347
850.771	0.0153115
850.849	0.0152367
850.927	0.0152042
851.005	0.0152147
851.083	0.0151584
851.161	0.0152596
851.239	0.0151726
851.318	0.0152132
851.396	0.0152568
851.474	0.0151596
851.552	0.0151755
851.630	0.0152176
851.708	0.0152862
851.786	0.0152321
851.864	0.0151788
851.943	0.0151963
852.021	0.0151992
852.099	0.0151208
852.177	0.0151408
852.255	0.0150915
852.333	0.0151210
852.411	0.0150739
852.489	0.0152226
852.568	0.0151620
852.646	0.0151973
852.724	0.0150483
852.802	0.0153004
852.880	0.0152325
852.958	0.0151979
853.036	0.0152063
853.114	0.0153268
853.193	0.0153792
853.271	0.0153168
853.349	0.0152969
853.427	0.0153072
853.505	0.0153474
853.583	0.0154542
853.661	0.0154243
853.739	0.0153687
853.818	0.0153974
853.896	0.0153378
853.974	0.0154965
854.052	0.0153521
854.130	0.0153651
854.208	0.0154196
854.286	0.0154695
854.364	0.0151819
854.443	0.0154095
854.521	0.0153130
854.599	0.0151350
854.677	0.0152171
854.755	0.0152975
854.833	0.0152899
854.911	0.0151302
854.989	0.0150816
855.068	0.0151973
855.146	0.0152029
855.224	0.0149868
855.302	0.0149825
855.380	0.0150371
855.458	0.0151263
855.536	0.0150723
855.614	0.0151308
855.693	0.0150581
855.771	0.0150501
855.849	0.0151087
855.927	0.0151043
856.005	0.0150719
856.083	0.0151636
856.161	0.0151338
856.239	0.0152225
856.318	0.0153201
856.396	0.0152174
856.474	0.0152168
856.552	0.0152294
856.630	0.0153259
856.708	0.0154068
856.786	0.0152862
856.864	0.0153570
856.943	0.0151821
857.021	0.0151572
857.099	0.0153665
857.177	0.0153843
857.255	0.0153554
857.333	0.0153899
857.411	0.0153526
857.489	0.0153204
857.568	0.0152853
857.646	0.0154259
857.724	0.0153333
857.802	0.0153939
857.880	0.0152995
857.958	0.0154137
858.036	0.0152718
858.114	0.0152829
858.193	0.0152768
858.271	0.0151553
858.349	0.0150975
858.427	0.0152191
858.505	0.0150658
858.583	0.0150659
858.661	0.0152126
858.739	0.0151148
858.818	0.0151590
858.896	0.0152155
858.974	0.0151257
859.052	0.0152068
859.130	0.0151846
859.208	0.0151363
859.286	0.0151097
859.364	0.0150841
859.443	0.0151524
859.521	0.0153056
859.599	0.0152111
859.677	0.0152205
859.755	0.0151614
859.833	0.0151464
859.911	0.0151945
859.989	0.0153011
860.068	0.0151614
860.146	0.0151421
860.224	0.0151061
860.302	0.0151028
860.380	0.0150790
860.458	0.0151171
860.536	0.0149892
860.614	0.0150359
860.693	0.0150938
860.771	0.0149310
860.849	0.0150414
860.927	0.0151611
861.005	0.0150713
861.083	0.0152777
861.161	0.0152425
861.239	0.0151376
861.318	0.0152090
861.396	0.0153187
861.474	0.0153772
861.552	0.0153107
861.630	0.0153931
861.708	0.0152934
861.786	0.0154871
861.864	0.0153183
861.943	0.0153606
862.021	0.0152457
862.099	0.0152457
862.177	0.0153372
862.255	0.0154203
862.333	0.0151212
862.411	0.0151765
862.489	0.0151491
862.568	0.0152190
862.646	0.0151328
862.724	0.0151241
862.802	0.0151570
862.880	0.0151928
862.958	0.0152287
863.036	0.0150544
863.114	0.0150784
863.193	0.0150714
863.271	0.0149747
863.349	0.0150786
863.427	0.0151064
863.505	0.0151131
863.583	0.0150867
863.661	0.0151889
863.739	0.0153221
863.818	0.0152480
863.896	0.0151939
863.974	0.0153558
864.052	0.0154376
864.130	0.0152824
864.208	0.0153762
864.286	0.0153873
864.364	0.0152218
864.443	0.0152687
864.521	0.0153569
864.599	0.0152631
864.677	0.0152462
864.755	0.0151858
864.833	0.0151729
864.911	0.0152816
864.989	0.0152733
865.068	0.0152051
865.146	0.0152297
865.224	0.0151308
865.302	0.0151726
865.380	0.0151871
865.458	0.0151485
865.536	0.0151883
865.614	0.0151180
865.693	0.0151826
865.771	0.0150164
865.849	0.0149933
865.927	0.0151147
866.005	0.0150651
866.083	0.0150909
866.161	0.0151350
866.239	0.0152299
866.318	0.0151510
866.396	0.0149775
866.474	0.0150528
866.552	0.0150925
866.630	0.0151557
866.708	0.0152736
866.786	0.0152118
866.864	0.0150691
866.943	0.0152937
867.021	0.0152563
867.099	0.0152079
867.177	0.0153706
867.255	0.0151546
867.333	0.0150810
867.411	0.0151788
867.489	0.0152647
867.568	0.0152920
867.646	0.0152000
867.724	0.0152159
867.802	0.0150735
867.880	0.0151118
867.958	0.0152128
868.036	0.0151762
868.114	0.0151717
868.193	0.0151318
868.271	0.0152250
868.349	0.0151546
868.427	0.0151550
868.505	0.0150871
868.583	0.0151370
868.661	0.0152056
868.739	0.0153229
868.818	0.0151707
868.896	0.0152996
868.974	0.0153929
869.052	0.0154370
869.130	0.0153957
869.208	0.0152965
869.286	0.0154165
869.364	0.0155421
869.443	0.0153890
869.521	0.0152947
869.599	0.0154785
869.677	0.0153767
869.755	0.0153355
869.833	0.0154865
869.911	0.0154481
869.989	0.0152132
870.068	0.0152805
870.146	0.0152765
870.224	0.0152452
870.302	0.0151478
870.380	0.0150544
870.458	0.0150510
870.536	0.0150439
870.614	0.0150468
870.693	0.0150764
870.771	0.0150916
870.849	0.0150452
870.927	0.0151139
871.005	0.0151668
871.083	0.0151204
871.161	0.0151199
871.239	0.0150980
871.318	0.0150030
871.396	0.0151365
871.474	0.0151071
871.552	0.0152059
871.630	0.0153172
871.708	0.0152398
871.786	0.0150833
871.864	0.0152213
871.943	0.0151746
872.021	0.0151424
872.099	0.0151055
872.177	0.0152615
872.255	0.0154396
872.333	0.0153613
872.411	0.0152249
872.489	0.0153983
872.568	0.0153789
872.646	0.0151662
872.724	0.0152264
872.802	0.0153379
872.880	0.0153815
872.958	0.0154179
873.036	0.0153539
873.114	0.0153033
873.193	0.0151855
873.271	0.0152191
873.349	0.0152646
873.427	0.0152541
873.505	0.0152917
873.583	0.0151810
873.661	0.0152098
873.739	0.0153144
873.818	0.0152495
873.896	0.0150639
873.974	0.0151404
874.052	0.0149763
874.130	0.0151189
874.208	0.0151062
874.286	0.0150978
874.364	0.0150898
874.443	0.0150466
874.521	0.0151553
874.599	0.0150356
874.677	0.0149189
874.755	0.0151068
874.833	0.0151197
874.911	0.0150639
874.989	0.0151801
875.068	0.0151945
875.146	0.0150899
875.224	0.0151289
875.302	0.0152939
875.380	0.0153017
875.458	0.0152635
875.536	0.0151431
875.614	0.0151185
875.693	0.0152099
875.771	0.0153807
875.849	0.0152488
875.927	0.0153690
876.005	0.0151460
876.083	0.0151859
876.161	0.0151913
876.239	0.0151204
876.318	0.0150970
876.396	0.0152240
876.474	0.0150834
876.552	0.0151257
876.630	0.0151529
876.708	0.0151608
876.786	0.0150985
876.864	0.0151294
876.943	0.0151650
877.021	0.0152039
877.099	0.0151128
877.177	0.0152068
877.255	0.0149915
877.333	0.0151019
877.411	0.0151095
877.489	0.0151840
877.568	0.0150853
877.646	0.0151217
877.724	0.0150610
877.802	0.0151346
877.880	0.0152230
877.958	0.0149686
878.036	0.0151104
878.114	0.0152605
878.193	0.0152238
878.271	0.0150835
878.349	0.0151814
878.427	0.0152431
878.505	0.0151717
878.583	0.0151683
878.661	0.0152273
878.739	0.0152505
878.818	0.0152869
878.896	0.0151398
878.974	0.0151302
879.052	0.0151594
879.130	0.0151328
879.208	0.0152015
879.286	0.0151790
879.364	0.0152090
879.443	0.0151983
879.521	0.0151764
879.599	0.0151449
879.677	0.0151897
879.755	0.0152474
879.833	0.0151209
879.911	0.0150244
879.989	0.0151790
880.068	0.0151714
880.146	0.0150710
880.224	0.0149392
880.302	0.0150125
880.380	0.0150950
880.458	0.0151286
880.536	0.0151685
880.614	0.0152184
880.693	0.0152199
880.771	0.0152335
880.849	0.0152449
880.927	0.0154064
881.005	0.0155595
881.083	0.0155640
881.161	0.0155167
881.239	0.0154619
881.318	0.0153522
881.396	0.0153970
881.474	0.0153772
881.552	0.0152448
881.630	0.0151708
881.708	0.0149947
881.786	0.0149379
881.864	0.0147569
881.943	0.0147506
882.021	0.0146235
882.099	0.0146703
882.177	0.0146545
882.255	0.0147531
882.333	0.0147589
882.411	0.0149329
882.489	0.0150231
882.568	0.0152207
882.646	0.0153106
882.724	0.0153253
882.802	0.0155923
882.880	0.0157688
882.958	0.0156624
883.036	0.0157952
883.114	0.0157420
883.193	0.0157142
883.271	0.0156999
883.349	0.0154745
883.427	0.0153134
883.505	0.0152864
883.583	0.0152347
883.661	0.0150539
883.739	0.0148508
883.818	0.0146861
883.896	0.0145557
883.974	0.0146383
884.052	0.0145069
884.130	0.0143655
884.208	0.0144077
884.286	0.0144934
884.364	0.0145988
884.443	0.0144994
884.521	0.0147008
884.599	0.0148720
884.677	0.0151342
884.755	0.0153182
884.833	0.0154660
884.911	0.0156361
884.989	0.0158364
885.068	0.0161417
885.146	0.0162623
885.224	0.0164738
885.302	0.0164419
885.380	0.0163776
885.458	0.0162813
885.536	0.0160685
885.614	0.0160047
885.693	0.0157259
885.771	0.0154848
885.849	0.0152073
885.927	0.0148771
886.005	0.0147227
886.083	0.0146053
886.161	0.0144183
886.239	0.0140672
886.318	0.0140973
886.396	0.0139912
886.474	0.0139472
886.552	0.0140177
886.630	0.0141474
886.708	0.0142167
886.786	0.0143728
886.864	0.0144567
886.943	0.0146029
887.021	0.0147871
887.099	0.0149754
887.177	0.0151768
887.255	0.0152912
887.333	0.0156066
887.411	0.0155952
887.489	0.0156064
887.568	0.0159865
887.646	0.0159633
887.724	0.0159996
887.802	0.0160119
887.880	0.0160065
887.958	0.0160606
888.036	0.0159106
888.114	0.0157716
888.193	0.0158016
888.271	0.0157590
888.349	0.0154950
888.427	0.0154047
888.505	0.0151702
888.583	0.0150277
888.661	0.0149744
888.739	0.0148567
888.818	0.0146857
888.896	0.0146719
888.974	0.0145903
889.052	0.0144982
889.130	0.0145184
889.208	0.0145688
889.286	0.0146558
889.364	0.0145177
889.443	0.0147127
889.521	0.0149482
889.599	0.0149368
889.677	0.0148984
889.755	0.0149723
889.833	0.0150420
889.911	0.0151569
889.989	0.0152523
890.068	0.0153383
890.146	0.0152502
890.224	0.0154047
890.302	0.0154035
890.380	0.0154527
890.458	0.0154922
890.536	0.0154261
890.614	0.0154217
890.693	0.0155525
890.771	0.0152920
890.849	0.0154252
890.927	0.0152007
891.005	0.0153884
891.083	0.0153210
891.161	0.0150166
891.239	0.0150840
891.318	0.0152876
891.396	0.0149668
891.474	0.0149908
891.552	0.0149940
891.630	0.0149352
891.708	0.0150154
891.786	0.0151559
891.864	0.0149527
891.943	0.0149067
892.021	0.0151987
892.099	0.0150288
892.177	0.0151621
892.255	0.0151520
892.333	0.0151971
892.411	0.0152495
892.489	0.0152715
892.568	0.0153060
892.646	0.0152944
892.724	0.0154001
892.802	0.0153586
892.880	0.0154077
892.958	0.0153983
893.036	0.0153817
893.114	0.0152445
893.193	0.0153548
893.271	0.0152225
893.349	0.0152855
893.427	0.0152544
893.505	0.0151383
893.583	0.0151070
893.661	0.0150074
893.739	0.0150034
893.818	0.0150394
893.896	0.0148924
893.974	0.0147880
894.052	0.0150052
894.130	0.0150185
894.208	0.0148763
894.286	0.0148073
894.364	0.0148595
894.443	0.0148847
894.521	0.0149693
894.599	0.0148194
894.677	0.0150024
894.755	0.0150112
894.833	0.0151018
894.911	0.0151078
894.989	0.0151214
895.068	0.0150631
895.146	0.0151308
895.224	0.0152573
895.302	0.0152267
895.380	0.0153596
895.458	0.0152251
895.536	0.0150917
895.614	0.0151889
895.693	0.0150925
895.771	0.0151227
895.849	0.0153123
895.927	0.0152520
896.005	0.0152872
896.083	0.0152463
896.161	0.0151398
896.239	0.0152640
896.318	0.0151485
896.396	0.0151869
896.474	0.0151542
896.552	0.0150978
896.630	0.0151183
896.708	0.0150303
896.786	0.0148981
896.864	0.0149514
896.943	0.0149738
897.021	0.0149741
897.099	0.0149942
897.177	0.0149286
897.255	0.0149280
897.333	0.0149980
897.411	0.0149854
897.489	0.0150385
897.568	0.0150919
897.646	0.0150109
897.724	0.0151884
897.802	0.0151300
897.880	0.0151172
897.958	0.0151687
898.036	0.0152141
898.114	0.0151360
898.193	0.0151966
898.271	0.0152901
898.349	0.0152011
898.427	0.0152446
898.505	0.0151192
898.583	0.0152321
898.661	0.0152390
898.739	0.0151959
898.818	0.0151044
898.896	0.0151441
898.974	0.0150700
899.052	0.0151637
899.130	0.0151609
899.208	0.0150007
899.286	0.0149985
899.364	0.0150959
899.443	0.0151189
899.521	0.0150101
899.599	0.0150941
899.677	0.0151111
899.755	0.0150310
899.833	0.0150664
899.911	0.0152612
899.989	0.0150666
900.068	0.0151782
900.146	0.0148128
900.224	0.0151064
900.302	0.0151836
900.380	0.0149995
900.458	0.0150169
900.536	0.0151324
900.614	0.0153653
900.693	0.0151504
900.771	0.0150470
900.849	0.0151048
900.927	0.0152097
901.005	0.0151411
901.083	0.0151495
901.161	0.0150291
901.239	0.0151202
901.318	0.0151685
901.396	0.0150693
901.474	0.0150485
901.552	0.0151524
901.630	0.0150610
901.708	0.0149481
901.786	0.0150932
901.864	0.0149031
901.943	0.0149454
902.021	0.0150623
902.099	0.0149533
902.177	0.0148332
902.255	0.0149606
902.333	0.0150211
902.411	0.0148808
902.489	0.0149666
902.568	0.0149204
902.646	0.0149689
902.724	0.0149180
902.802	0.0150463
902.880	0.0150044
902.958	0.0149290
903.036	0.0150989
903.114	0.0151141
903.193	0.0151581
903.271	0.0149692
903.349	0.0151795
903.427	0.0151045
903.505	0.0151748
903.583	0.0153072
903.661	0.0153605
903.739	0.0153071
903.818	0.0153053
903.896	0.0152902
903.974	0.0153486
904.052	0.0153061
904.130	0.0153146
904.208	0.0152987
904.286	0.0153174
904.364	0.0153812
904.443	0.0152304
904.521	0.0151332
904.599	0.0151768
904.677	0.0151102
904.755	0.0150205
904.833	0.0150107
904.911	0.0149806
904.989	0.0150664
905.068	0.0150538
905.146	0.0150447
905.224	0.0149284
905.302	0.0149266
905.380	0.0149680
905.458	0.0150201
905.536	0.0151228
905.614	0.0150939
905.693	0.0150544
905.771	0.0151294
905.849	0.0152198
905.927	0.0152216
906.005	0.0151608
906.083	0.0152559
906.161	0.0151893
906.239	0.0151511
906.318	0.0151303
906.396	0.0151495
906.474	0.0151376
906.552	0.0151212
906.630	0.0151366
906.708	0.0151675
906.786	0.0152078
906.864	0.0152277
906.943	0.0150422
907.021	0.0151019
907.099	0.0150663
907.177	0.0150807
907.255	0.0150665
907.333	0.0149430
907.411	0.0149599
907.489	0.0149769
907.568	0.0150443
907.646	0.0150921
907.724	0.0150620
907.802	0.0149510
907.880	0.0149632
907.958	0.0151138
908.036	0.0151311
908.114	0.0150641
908.193	0.0152097
908.271	0.0151837
908.349	0.0151586
908.427	0.0152617
908.505	0.0153804
908.583	0.0152598
908.661	0.0152605
908.739	0.0152619
908.818	0.0154113
908.896	0.0153738
908.974	0.0153387
909.052	0.0153515
909.130	0.0153894
909.208	0.0153442
909.286	0.0151996
909.364	0.0153105
909.443	0.0151694
909.521	0.0151920
909.599	0.0151063
909.677	0.0151262
909.755	0.0150050
909.833	0.0149168
909.911	0.0149874
909.989	0.0150378
910.068	0.0149092
910.146	0.0148567
910.224	0.0147724
910.302	0.0149075
910.380	0.0149240
910.458	0.0148830
910.536	0.0150069
910.614	0.0150775
910.693	0.0150566
910.771	0.0150095
910.849	0.0149895
910.927	0.0152077
911.005	0.0150958
911.083	0.0150603
911.161	0.0151202
911.239	0.0151072
911.318	0.0151004
911.396	0.0151711
911.474	0.0151018
911.552	0.0151991
911.630	0.0152416
911.708	0.0152385
911.786	0.0152011
911.864	0.0152572
911.943	0.0152843
912.021	0.0152813
912.099	0.0154686
912.177	0.0153253
912.255	0.0152965
912.333	0.0152406
912.411	0.0153295
912.489	0.0150736
912.568	0.0152784
912.646	0.0152635
912.724	0.0152662
912.802	0.0151836
912.880	0.0150538
912.958	0.0150339
913.036	0.0150497
913.114	0.0149920
913.193	0.0150402
913.271	0.0150127
913.349	0.0150365
913.427	0.0149241
913.505	0.0148945
913.583	0.0149306
913.661	0.0149548
913.739	0.0149296
913.818	0.0148711
913.896	0.0148833
913.974	0.0149231
914.052	0.0150491
914.130	0.0149645
914.208	0.0150404
914.286	0.0151141
914.364	0.0153409
914.443	0.0152136
914.521	0.0151378
914.599	0.0152029
914.677	0.0152454
914.755	0.0152357
914.833	0.0152634
914.911	0.0151353
914.989	0.0151692
915.068	0.0150775
915.146	0.0151748
915.224	0.0152649
915.302	0.0151803
915.380	0.0150748
915.458	0.0150764
915.536	0.0149716
915.614	0.0149366
915.693	0.0149915
915.771	0.0150356
915.849	0.0148877
915.927	0.0149967
916.005	0.0151881
916.083	0.0149873
916.161	0.0149706
916.239	0.0150388
916.318	0.0149944
916.396	0.0152262
916.474	0.0151750
916.552	0.0150883
916.630	0.0151083
916.708	0.0150117
916.786	0.0151093
916.864	0.0152066
916.943	0.0150749
917.021	0.0151466
917.099	0.0151485
917.177	0.0151170
917.255	0.0151868
917.333	0.0150446
917.411	0.0150729
917.489	0.0150932
917.568	0.0151367
917.646	0.0151172
917.724	0.0150264
917.802	0.0151302
917.880	0.0150621
917.958	0.0150497
918.036	0.0149815
918.114	0.0149547
918.193	0.0150435
918.271	0.0150356
918.349	0.0150293
918.427	0.0149171
918.505	0.0148718
918.583	0.0149338
918.661	0.0148756
918.739	0.0150498
918.818	0.0150634
918.896	0.0149689
918.974	0.0150200
919.052	0.0150694
919.130	0.0149399
919.208	0.0150000
919.286	0.0151691
919.364	0.0151211
919.443	0.0149914
919.521	0.0150345
919.599	0.0148516
919.677	0.0151170
919.755	0.0149907
919.833	0.0152296
919.911	0.0151538
919.989	0.0151392
920.068	0.0151868
920.146	0.0151611
920.224	0.0150966
920.302	0.0152036
920.380	0.0151379
920.458	0.0152089
920.536	0.0153188
920.614	0.0152287
920.693	0.0152047
920.771	0.0152068
920.849	0.0152680
920.927	0.0152244
921.005	0.0150957
921.083	0.0151758
921.161	0.0152769
921.239	0.0151269
921.318	0.0150938
921.396	0.0152252
921.474	0.0151576
921.552	0.0151541
921.630	0.0151180
921.708	0.0150335
921.786	0.0151594
921.864	0.0150912
921.943	0.0153193
922.021	0.0152917
922.099	0.0151978
922.177	0.0150301
922.255	0.0151901
922.333	0.0152105
922.411	0.0152148
922.489	0.0152328
922.568	0.0152528
922.646	0.0151028
922.724	0.0152267
922.802	0.0152423
922.880	0.0151797
922.958	0.0153790
923.036	0.0152899
923.114	0.0151991
923.193	0.0152451
923.271	0.0152219
923.349	0.0151952
923.427	0.0151695
923.505	0.0151945
923.583	0.0151319
923.661	0.0152179
923.739	0.0151302
923.818	0.0151653
923.896	0.0151826
923.974	0.0149945
924.052	0.0149850
924.130	0.0150576
924.208	0.0150315
924.286	0.0150790
924.364	0.0150322
924.443	0.0149931
924.521	0.0149599
924.599	0.0149789
924.677	0.0150692
924.755	0.0151045
924.833	0.0152083
924.911	0.0151212
924.989	0.0150542
925.068	0.0153091
925.146	0.0153015
925.224	0.0152497
925.302	0.0151864
925.380	0.0153129
925.458	0.0152890
925.536	0.0151498
925.614	0.0152723
925.693	0.0153436
925.771	0.0152331
925.849	0.0152791
925.927	0.0152422
926.005	0.0153003
926.083	0.0152917
926.161	0.0152795
926.239	0.0152021
926.318	0.0151811
926.396	0.0152209
926.474	0.0151466
926.552	0.0151778
926.630	0.0152039
926.708	0.0151516
926.786	0.0151480
926.864	0.0151145
926.943	0.0151129
927.021	0.0153043
927.099	0.0152972
927.177	0.0150603
927.255	0.0151338
927.333	0.0151467
927.411	0.0152785
927.489	0.0154924
927.568	0.0152048
927.646	0.0152191
927.724	0.0153343
927.802	0.0152905
927.880	0.0152413
927.958	0.0152332
928.036	0.0153010
928.114	0.0151540
928.193	0.0153404
928.271	0.0152880
928.349	0.0153044
928.427	0.0151653
928.505	0.0151955
928.583	0.0150516
928.661	0.0151402
928.739	0.0151201
928.818	0.0152429
928.896	0.0151997
928.974	0.0152146
929.052	0.0151940
929.130	0.0152306
929.208	0.0152778
929.286	0.0152040
929.364	0.0152039
929.443	0.0153000
929.521	0.0152576
929.599	0.0152962
929.677	0.0153673
929.755	0.0153150
929.833	0.0152595
929.911	0.0153254
929.989	0.0152877
930.068	0.0151738
930.146	0.0152250
930.224	0.0152528
930.302	0.0152502
930.380	0.0151509
930.458	0.0150627
930.536	0.0150867
930.614	0.0151425
930.693	0.0152727
930.771	0.0150105
930.849	0.0150880
930.927	0.0153489
931.005	0.0150799
931.083	0.0150046
931.161	0.0151775
931.239	0.0152232
931.318	0.0151429
931.396	0.0152228
931.474	0.0151801
931.552	0.0150896
931.630	0.0150873
931.708	0.0153065
931.786	0.0151984
931.864	0.0151046
931.943	0.0152531
932.021	0.0152291
932.099	0.0152281
932.177	0.0153304
932.255	0.0154085
932.333	0.0151775
932.411	0.0152831
932.489	0.0153263
932.568	0.0153371
932.646	0.0151865
932.724	0.0154475
932.802	0.0152843
932.880	0.0151524
932.958	0.0152419
933.036	0.0153316
933.114	0.0152530
933.193	0.0152188
933.271	0.0153091
933.349	0.0151527
933.427	0.0149963
933.505	0.0152424
933.583	0.0151627
933.661	0.0151817
933.739	0.0151430
933.818	0.0151695
933.896	0.0151865
933.974	0.0151603
934.052	0.0152818
934.130	0.0151961
934.208	0.0150240
934.286	0.0151520
934.364	0.0152374
934.443	0.0151279
934.521	0.0152229
934.599	0.0152168
934.677	0.0150513
934.755	0.0151879
934.833	0.0151895
934.911	0.0152477
934.989	0.0153214
935.068	0.0151985
935.146	0.0152407
935.224	0.0151349
935.302	0.0152650
935.380	0.0151771
935.458	0.0152860
935.536	0.0151343
935.614	0.0150966
935.693	0.0151167
935.771	0.0151067
935.849	0.0151357
935.927	0.0152129
936.005	0.0150529
936.083	0.0151814
936.161	0.0152245
936.239	0.0150994
936.318	0.0151497
936.396	0.0150368
936.474	0.0151064
936.552	0.0152213
936.630	0.0152192
936.708	0.0152384
936.786	0.0150446
936.864	0.0150675
936.943	0.0152133
937.021	0.0152224
937.099	0.0151536
937.177	0.0152267
937.255	0.0151513
937.333	0.0152461
937.411	0.0151323
937.489	0.0151488
937.568	0.0153011
937.646	0.0153152
937.724	0.0152922
937.802	0.0154003
937.880	0.0152545
937.958	0.0152545
938.036	0.0152863
938.114	0.0152478
938.193	0.0152422
938.271	0.0151464
938.349	0.0150624
938.427	0.0151143
938.505	0.0150689
938.583	0.0149632
938.661	0.0150940
938.739	0.0151336
938.818	0.0151884
938.896	0.0150893
938.974	0.0149998
939.052	0.0149769
939.130	0.0150915
939.208	0.0150651
939.286	0.0147857
939.364	0.0150157
939.443	0.0151180
939.521	0.0150305
939.599	0.0149006
939.677	0.0150236
939.755	0.0151428
939.833	0.0150544
939.911	0.0151592
939.989	0.0152888
940.068	0.0151276
940.146	0.0152309
940.224	0.0153532
940.302	0.0152784
940.380	0.0152506
940.458	0.0154249
940.536	0.0152871
940.614	0.0153069
940.693	0.0154349
940.771	0.0153275
940.849	0.0154115
940.927	0.0152912
941.005	0.0153842
941.083	0.0154382
941.161	0.0154137
941.239	0.0152388
941.318	0.0151528
941.396	0.0152613
941.474	0.0150703
941.552	0.0150324
941.630	0.0149535
941.708	0.0150405
941.786	0.0149846
941.864	0.0148944
941.943	0.0149396
942.021	0.0147784
942.099	0.0148361
942.177	0.0148447
942.255	0.0148999
942.333	0.0148259
942.411	0.0149300
942.489	0.0148991
942.568	0.0152261
942.646	0.0150988
942.724	0.0150483
942.802	0.0152062
942.880	0.0152155
942.958	0.0152949
943.036	0.0152428
943.114	0.0152936
943.193	0.0153942
943.271	0.0153915
943.349	0.0153859
943.427	0.0153131
943.505	0.0155013
943.583	0.0153640
943.661	0.0153265
943.739	0.0153723
943.818	0.0152759
943.896	0.0154149
943.974	0.0153577
944.052	0.0152769
944.130	0.0153734
944.208	0.0152539
944.286	0.0152927
944.364	0.0152021
944.443	0.0152248
944.521	0.0152057
944.599	0.0152199
944.677	0.0149545
944.755	0.0151318
944.833	0.0150739
944.911	0.0150551
944.989	0.0151266
945.068	0.0149594
945.146	0.0150047
945.224	0.0152615
945.302	0.0149072
945.380	0.0151353
945.458	0.0152681
945.536	0.0151706
945.614	0.0151173
945.693	0.0150760
945.771	0.0152612
945.849	0.0152764
945.927	0.0151814
946.005	0.0153028
946.083	0.0152175
946.161	0.0152459
946.239	0.0150897
946.318	0.0151445
946.396	0.0152979
946.474	0.0151992
946.552	0.0151340
946.630	0.0151562
946.708	0.0150921
946.786	0.0153117
946.864	0.0152171
946.943	0.0151027
947.021	0.0151564
947.099	0.0151542
947.177	0.0151554
947.255	0.0150726
947.333	0.0151971
947.411	0.0152545
947.489	0.0151820
947.568	0.0152021
947.646	0.0152549
947.724	0.0151879
947.802	0.0152481
947.880	0.0153638
947.958	0.0152576
948.036	0.0152444
948.114	0.0152288
948.193	0.0153367
948.271	0.0151501
948.349	0.0152194
948.427	0.0153070
948.505	0.0152391
948.583	0.0153072
948.661	0.0152622
948.739	0.0152467
948.818	0.0153569
948.896	0.0153234
948.974	0.0152423
949.052	0.0153046
949.130	0.0153166
949.208	0.0153497
949.286	0.0153007
949.364	0.0152178
949.443	0.0151347
949.521	0.0151842
949.599	0.0152832
949.677	0.0153756
949.755	0.0151718
949.833	0.0152510
949.911	0.0152349
949.989	0.0151678
950.068	0.0149618
950.146	0.0150925
950.224	0.0151225
950.302	0.0150614
950.380	0.0149727
950.458	0.0150484
950.536	0.0150749
950.614	0.0151794
950.693	0.0150609
950.771	0.0151493
950.849	0.0150404
950.927	0.0150910
951.005	0.0150541
951.083	0.0152074
951.161	0.0151344
951.239	0.0152258
951.318	0.0153318
951.396	0.0153586
951.474	0.0152996
951.552	0.0153368
951.630	0.0153768
951.708	0.0154614
951.786	0.0153620
951.864	0.0154774
951.943	0.0152674
952.021	0.0154046
952.099	0.0154189
952.177	0.0152534
952.255	0.0152429
952.333	0.0152192
952.411	0.0153287
952.489	0.0151946
952.568	0.0152597
952.646	0.0152962
952.724	0.0151514
952.802	0.0152279
952.880	0.0150647
952.958	0.0150568
953.036	0.0150876
953.114	0.0150618
953.193	0.0151189
953.271	0.0150832
953.349	0.0150471
953.427	0.0150899
953.505	0.0151543
953.583	0.0150233
953.661	0.0149947
953.739	0.0151551
953.818	0.0152325
953.896	0.0151545
953.974	0.0151555
954.052	0.0151313
954.130	0.0152722
954.208	0.0150851
954.286	0.0152676
954.364	0.0153599
954.443	0.0152752
954.521	0.0151237
954.599	0.0153394
954.677	0.0152996
954.755	0.0152074
954.833	0.0151685
954.911	0.0152422
954.989	0.0154309
955.068	0.0152261
955.146	0.0152959
955.224	0.0153650
955.302	0.0152381
955.380	0.0152580
955.458	0.0152381
955.536	0.0151501
955.614	0.0149425
955.693	0.0152863
955.771	0.0152674
955.849	0.0151112
955.927	0.0150529
956.005	0.0151506
956.083	0.0151376
956.161	0.0151974
956.239	0.0152063
956.318	0.0150749
956.396	0.0151923
956.474	0.0150594
956.552	0.0151151
956.630	0.0151855
956.708	0.0152226
956.786	0.0152467
956.864	0.0151639
956.943	0.0152660
957.021	0.0152463
957.099	0.0151838
957.177	0.0152489
957.255	0.0151178
957.333	0.0152584
957.411	0.0152209
957.489	0.0152422
957.568	0.0151473
957.646	0.0151183
957.724	0.0151221
957.802	0.0153743
957.880	0.0152738
957.958	0.0151050
958.036	0.0152560
958.114	0.0153649
958.193	0.0153098
958.271	0.0151068
958.349	0.0152123
958.427	0.0152599
958.505	0.0152448
958.583	0.0151167
958.661	0.0152492
958.739	0.0151714
958.818	0.0151939
958.896	0.0151974
958.974	0.0150233
959.052	0.0152753
959.130	0.0152744
959.208	0.0151528
959.286	0.0151358
959.364	0.0151488
959.443	0.0151124
959.521	0.0151682
959.599	0.0151965
959.677	0.0152235
959.755	0.0151237
959.833	0.0150970
959.911	0.0152386
