05/20/2022	17:18:15	Ver.	4.1	UNKNOWN
Optical Delay	639.982744	Delta X		0.078125	Sweeps	1	Scan Rate	0/0
Coordinates	Axis 1	NaN	Axis 2	NaN	Axis 3	NaN	Axis 4	NaN	Axis 5	NaN	Axis 6	0.000000
TX Power	0.000000	RX Power	0.000000

639.983	0.0154199
640.061	0.0154295
640.139	0.0152733
640.217	0.0152587
640.295	0.0152078
640.373	0.0151730
640.451	0.0153070
640.530	0.0151754
640.608	0.0152721
640.686	0.0152192
640.764	0.0152039
640.842	0.0149876
640.920	0.0151659
640.998	0.0152066
641.076	0.0151656
641.155	0.0151669
641.233	0.0152032
641.311	0.0152870
641.389	0.0154447
641.467	0.0152361
641.545	0.0151694
641.623	0.0152234
641.701	0.0153436
641.780	0.0153741
641.858	0.0152129
641.936	0.0154357
642.014	0.0154304
642.092	0.0152638
642.170	0.0153838
642.248	0.0153188
642.326	0.0153336
642.405	0.0153259
642.483	0.0153656
642.561	0.0152731
642.639	0.0154189
642.717	0.0154125
642.795	0.0153960
642.873	0.0154211
642.951	0.0152525
643.030	0.0152484
643.108	0.0153310
643.186	0.0153265
643.264	0.0154413
643.342	0.0154633
643.420	0.0153845
643.498	0.0152410
643.576	0.0153539
643.655	0.0153477
643.733	0.0154641
643.811	0.0153686
643.889	0.0154111
643.967	0.0153778
644.045	0.0153680
644.123	0.0155370
644.201	0.0153117
644.280	0.0154118
644.358	0.0153703
644.436	0.0153939
644.514	0.0152734
644.592	0.0154574
644.670	0.0154207
644.748	0.0153805
644.826	0.0152502
644.905	0.0153635
644.983	0.0153103
645.061	0.0154022
645.139	0.0152802
645.217	0.0154524
645.295	0.0153885
645.373	0.0154019
645.451	0.0154321
645.530	0.0154147
645.608	0.0153355
645.686	0.0153567
645.764	0.0153635
645.842	0.0154601
645.920	0.0153149
645.998	0.0153763
646.076	0.0155110
646.155	0.0154392
646.233	0.0154079
646.311	0.0155113
646.389	0.0154480
646.467	0.0155056
646.545	0.0154342
646.623	0.0154540
646.701	0.0155836
646.780	0.0154903
646.858	0.0153928
646.936	0.0153165
647.014	0.0154421
647.092	0.0153976
647.170	0.0153938
647.248	0.0155576
647.326	0.0154243
647.405	0.0153028
647.483	0.0154771
647.561	0.0154268
647.639	0.0152557
647.717	0.0153059
647.795	0.0153357
647.873	0.0152867
647.951	0.0152706
648.030	0.0152251
648.108	0.0152557
648.186	0.0153013
648.264	0.0153030
648.342	0.0153882
648.420	0.0153222
648.498	0.0152618
648.576	0.0153428
648.655	0.0155354
648.733	0.0151780
648.811	0.0152370
648.889	0.0152237
648.967	0.0152437
649.045	0.0152744
649.123	0.0152695
649.201	0.0152995
649.280	0.0153553
649.358	0.0153502
649.436	0.0152436
649.514	0.0152188
649.592	0.0154109
649.670	0.0153934
649.748	0.0154998
649.826	0.0154345
649.905	0.0154974
649.983	0.0154866
650.061	0.0154314
650.139	0.0154499
650.217	0.0153918
650.295	0.0154276
650.373	0.0154592
650.451	0.0155116
650.530	0.0153936
650.608	0.0154436
650.686	0.0154439
650.764	0.0154120
650.842	0.0152466
650.920	0.0153619
650.998	0.0153581
651.076	0.0151690
651.155	0.0152698
651.233	0.0150549
651.311	0.0152176
651.389	0.0152087
651.467	0.0152151
651.545	0.0152438
651.623	0.0151485
651.701	0.0149787
651.780	0.0149136
651.858	0.0150645
651.936	0.0152092
652.014	0.0150778
652.092	0.0150906
652.170	0.0151337
652.248	0.0152609
652.326	0.0151617
652.405	0.0153177
652.483	0.0153410
652.561	0.0153755
652.639	0.0153053
652.717	0.0153712
652.795	0.0154098
652.873	0.0154707
652.951	0.0156140
653.030	0.0155186
653.108	0.0154922
653.186	0.0155640
653.264	0.0153569
653.342	0.0154372
653.420	0.0155497
653.498	0.0154414
653.576	0.0153000
653.655	0.0152366
653.733	0.0152537
653.811	0.0152209
653.889	0.0151862
653.967	0.0151302
654.045	0.0152618
654.123	0.0151250
654.201	0.0152194
654.280	0.0152013
654.358	0.0152866
654.436	0.0152936
654.514	0.0152671
654.592	0.0153009
654.670	0.0153838
654.748	0.0153510
654.826	0.0153689
654.905	0.0154820
654.983	0.0153110
655.061	0.0152853
655.139	0.0155267
655.217	0.0154975
655.295	0.0155920
655.373	0.0157082
655.451	0.0154814
655.530	0.0154507
655.608	0.0155131
655.686	0.0155484
655.764	0.0155140
655.842	0.0154062
655.920	0.0154179
655.998	0.0155150
656.076	0.0154932
656.155	0.0152974
656.233	0.0153376
656.311	0.0154315
656.389	0.0152325
656.467	0.0153649
656.545	0.0151929
656.623	0.0150623
656.701	0.0150799
656.780	0.0151627
656.858	0.0152032
656.936	0.0151522
657.014	0.0151873
657.092	0.0151354
657.170	0.0150033
657.248	0.0150752
657.326	0.0152077
657.405	0.0151894
657.483	0.0151723
657.561	0.0153353
657.639	0.0151139
657.717	0.0153873
657.795	0.0153678
657.873	0.0153609
657.951	0.0154500
658.030	0.0153171
658.108	0.0154899
658.186	0.0155021
658.264	0.0153576
658.342	0.0153821
658.420	0.0155377
658.498	0.0154960
658.576	0.0154033
658.655	0.0153856
658.733	0.0154861
658.811	0.0154743
658.889	0.0152901
658.967	0.0153971
659.045	0.0152752
659.123	0.0151871
659.201	0.0152248
659.280	0.0151627
659.358	0.0152153
659.436	0.0151988
659.514	0.0151421
659.592	0.0150777
659.670	0.0149684
659.748	0.0150771
659.826	0.0153192
659.905	0.0152015
659.983	0.0152090
660.061	0.0151417
660.139	0.0153017
660.217	0.0152767
660.295	0.0152349
660.373	0.0153847
660.451	0.0153038
660.530	0.0153187
660.608	0.0154930
660.686	0.0154030
660.764	0.0153887
660.842	0.0154768
660.920	0.0154979
660.998	0.0155598
661.076	0.0155473
661.155	0.0155234
661.233	0.0155653
661.311	0.0155982
661.389	0.0154742
661.467	0.0153613
661.545	0.0153695
661.623	0.0153481
661.701	0.0152712
661.780	0.0153489
661.858	0.0154964
661.936	0.0152310
662.014	0.0152241
662.092	0.0153373
662.170	0.0152867
662.248	0.0154041
662.326	0.0152939
662.405	0.0153283
662.483	0.0152539
662.561	0.0152953
662.639	0.0154276
662.717	0.0156100
662.795	0.0155804
662.873	0.0154333
662.951	0.0155339
663.030	0.0154809
663.108	0.0154470
663.186	0.0154076
663.264	0.0155203
663.342	0.0153425
663.420	0.0154535
663.498	0.0152805
663.576	0.0153084
663.655	0.0152976
663.733	0.0153057
663.811	0.0153694
663.889	0.0151007
663.967	0.0152016
664.045	0.0151701
664.123	0.0150692
664.201	0.0150718
664.280	0.0150098
664.358	0.0149962
664.436	0.0148441
664.514	0.0147539
664.592	0.0148935
664.670	0.0149290
664.748	0.0148280
664.826	0.0150728
664.905	0.0149321
664.983	0.0149799
665.061	0.0150388
665.139	0.0149968
665.217	0.0150790
665.295	0.0151439
665.373	0.0152133
665.451	0.0151739
665.530	0.0151733
665.608	0.0153880
665.686	0.0153752
665.764	0.0153616
665.842	0.0155048
665.920	0.0154656
665.998	0.0155428
666.076	0.0156618
666.155	0.0158341
666.233	0.0156257
666.311	0.0155397
666.389	0.0156423
666.467	0.0157031
666.545	0.0156936
666.623	0.0157574
666.701	0.0156544
666.780	0.0156620
666.858	0.0155459
666.936	0.0153634
667.014	0.0155302
667.092	0.0155392
667.170	0.0154915
667.248	0.0156860
667.326	0.0155877
667.405	0.0153750
667.483	0.0154552
667.561	0.0155297
667.639	0.0155992
667.717	0.0154857
667.795	0.0153445
667.873	0.0154999
667.951	0.0153686
668.030	0.0152953
668.108	0.0153544
668.186	0.0152016
668.264	0.0152586
668.342	0.0153410
668.420	0.0153217
668.498	0.0151978
668.576	0.0150356
668.655	0.0150662
668.733	0.0150536
668.811	0.0149384
668.889	0.0147498
668.967	0.0147951
669.045	0.0147058
669.123	0.0146242
669.201	0.0146949
669.280	0.0147206
669.358	0.0146213
669.436	0.0145382
669.514	0.0146029
669.592	0.0146327
669.670	0.0145706
669.748	0.0147605
669.826	0.0147887
669.905	0.0147231
669.983	0.0148341
670.061	0.0149040
670.139	0.0149841
670.217	0.0150757
670.295	0.0151279
670.373	0.0152248
670.451	0.0153760
670.530	0.0153828
670.608	0.0155767
670.686	0.0156146
670.764	0.0156927
670.842	0.0157429
670.920	0.0157143
670.998	0.0157965
671.076	0.0157786
671.155	0.0156998
671.233	0.0157976
671.311	0.0157095
671.389	0.0157255
671.467	0.0158110
671.545	0.0157748
671.623	0.0158095
671.701	0.0159129
671.780	0.0156641
671.858	0.0157137
671.936	0.0157195
672.014	0.0156938
672.092	0.0156843
672.170	0.0156204
672.248	0.0157010
672.326	0.0156491
672.405	0.0155769
672.483	0.0157314
672.561	0.0156886
672.639	0.0157830
672.717	0.0157230
672.795	0.0157340
672.873	0.0158387
672.951	0.0158038
673.030	0.0156202
673.108	0.0155905
673.186	0.0155232
673.264	0.0154727
673.342	0.0154350
673.420	0.0154261
673.498	0.0152535
673.576	0.0151186
673.655	0.0150693
673.733	0.0151480
673.811	0.0149229
673.889	0.0148738
673.967	0.0147504
674.045	0.0145176
674.123	0.0145718
674.201	0.0144109
674.280	0.0142974
674.358	0.0142594
674.436	0.0143053
674.514	0.0141471
674.592	0.0141602
674.670	0.0141462
674.748	0.0142365
674.826	0.0142538
674.905	0.0141869
674.983	0.0142826
675.061	0.0143840
675.139	0.0144331
675.217	0.0144820
675.295	0.0146109
675.373	0.0146502
675.451	0.0147890
675.530	0.0150307
675.608	0.0151710
675.686	0.0152185
675.764	0.0154835
675.842	0.0156139
675.920	0.0156326
675.998	0.0158050
676.076	0.0160670
676.155	0.0160206
676.233	0.0161195
676.311	0.0162489
676.389	0.0162604
676.467	0.0164476
676.545	0.0164917
676.623	0.0165417
676.701	0.0165488
676.780	0.0165617
676.858	0.0164680
676.936	0.0164402
677.014	0.0164332
677.092	0.0163982
677.170	0.0164137
677.248	0.0162573
677.326	0.0160098
677.405	0.0160282
677.483	0.0160503
677.561	0.0159702
677.639	0.0157226
677.717	0.0158023
677.795	0.0155800
677.873	0.0154772
677.951	0.0153337
678.030	0.0152350
678.108	0.0152199
678.186	0.0149428
678.264	0.0148964
678.342	0.0148670
678.420	0.0146925
678.498	0.0147642
678.576	0.0146209
678.655	0.0146378
678.733	0.0147336
678.811	0.0146549
678.889	0.0145530
678.967	0.0146066
679.045	0.0143845
679.123	0.0146613
679.201	0.0143846
679.280	0.0144151
679.358	0.0145120
679.436	0.0145975
679.514	0.0145352
679.592	0.0146072
679.670	0.0145013
679.748	0.0146268
679.826	0.0147231
679.905	0.0148640
679.983	0.0149245
680.061	0.0150191
680.139	0.0149355
680.217	0.0152024
680.295	0.0152293
680.373	0.0152822
680.451	0.0154670
680.530	0.0153367
680.608	0.0155274
680.686	0.0154945
680.764	0.0155123
680.842	0.0157197
680.920	0.0159207
680.998	0.0159096
681.076	0.0158839
681.155	0.0159078
681.233	0.0159615
681.311	0.0159040
681.389	0.0160295
681.467	0.0159951
681.545	0.0158752
681.623	0.0158616
681.701	0.0157527
681.780	0.0158469
681.858	0.0157358
681.936	0.0156052
682.014	0.0156178
682.092	0.0155820
682.170	0.0153688
682.248	0.0154063
682.326	0.0154031
682.405	0.0152987
682.483	0.0153182
682.561	0.0151685
682.639	0.0153446
682.717	0.0152618
682.795	0.0150588
682.873	0.0151488
682.951	0.0151254
683.030	0.0151376
683.108	0.0150782
683.186	0.0148363
683.264	0.0150100
683.342	0.0150739
683.420	0.0148971
683.498	0.0150404
683.576	0.0150232
683.655	0.0150273
683.733	0.0150322
683.811	0.0151055
683.889	0.0151586
683.967	0.0151929
684.045	0.0152970
684.123	0.0153317
684.201	0.0154800
684.280	0.0154904
684.358	0.0153732
684.436	0.0153735
684.514	0.0155611
684.592	0.0155888
684.670	0.0155786
684.748	0.0156193
684.826	0.0154680
684.905	0.0154311
684.983	0.0155177
685.061	0.0154181
685.139	0.0154352
685.217	0.0152736
685.295	0.0153148
685.373	0.0154260
685.451	0.0153343
685.530	0.0151087
685.608	0.0153094
685.686	0.0153878
685.764	0.0152976
685.842	0.0152805
685.920	0.0153622
685.998	0.0151969
686.076	0.0153577
686.155	0.0153446
686.233	0.0151740
686.311	0.0151720
686.389	0.0152766
686.467	0.0152951
686.545	0.0152738
686.623	0.0151453
686.701	0.0150838
686.780	0.0153060
686.858	0.0152636
686.936	0.0152805
687.014	0.0151936
687.092	0.0152562
687.170	0.0152986
687.248	0.0153049
687.326	0.0153316
687.405	0.0153575
687.483	0.0153892
687.561	0.0152811
687.639	0.0153821
687.717	0.0155067
687.795	0.0154268
687.873	0.0154594
687.951	0.0155524
688.030	0.0157110
688.108	0.0155495
688.186	0.0155563
688.264	0.0156016
688.342	0.0156763
688.420	0.0155693
688.498	0.0155605
688.576	0.0155945
688.655	0.0155971
688.733	0.0154939
688.811	0.0156564
688.889	0.0157407
688.967	0.0154997
689.045	0.0157115
689.123	0.0156634
689.201	0.0156844
689.280	0.0156990
689.358	0.0155244
689.436	0.0155911
689.514	0.0155661
689.592	0.0155148
689.670	0.0155790
689.748	0.0153736
689.826	0.0152822
689.905	0.0150854
689.983	0.0150688
690.061	0.0152133
690.139	0.0149789
690.217	0.0148556
690.295	0.0148064
690.373	0.0146793
690.451	0.0146632
690.530	0.0146942
690.608	0.0146210
690.686	0.0146112
690.764	0.0147192
690.842	0.0147142
690.920	0.0147157
690.998	0.0147498
691.076	0.0147893
691.155	0.0148055
691.233	0.0148467
691.311	0.0149641
691.389	0.0150507
691.467	0.0150603
691.545	0.0152031
691.623	0.0152489
691.701	0.0152473
691.780	0.0154093
691.858	0.0154610
691.936	0.0156259
692.014	0.0154782
692.092	0.0153980
692.170	0.0155804
692.248	0.0154631
692.326	0.0154250
692.405	0.0154828
692.483	0.0155013
692.561	0.0154355
692.639	0.0154683
692.717	0.0155396
692.795	0.0154268
692.873	0.0154171
692.951	0.0155624
693.030	0.0154499
693.108	0.0154166
693.186	0.0154133
693.264	0.0154214
693.342	0.0154800
693.420	0.0153045
693.498	0.0150957
693.576	0.0152018
693.655	0.0150416
693.733	0.0152285
693.811	0.0151719
693.889	0.0150483
693.967	0.0147359
694.045	0.0148367
694.123	0.0148962
694.201	0.0148483
694.280	0.0148328
694.358	0.0147388
694.436	0.0147941
694.514	0.0147653
694.592	0.0146141
694.670	0.0147429
694.748	0.0147857
694.826	0.0147975
694.905	0.0147626
694.983	0.0149929
695.061	0.0150015
695.139	0.0151741
695.217	0.0152029
695.295	0.0153799
695.373	0.0154907
695.451	0.0155741
695.530	0.0155924
695.608	0.0157116
695.686	0.0157562
695.764	0.0159435
695.842	0.0158794
695.920	0.0158850
695.998	0.0157292
696.076	0.0159122
696.155	0.0160398
696.233	0.0160088
696.311	0.0159270
696.389	0.0159557
696.467	0.0159523
696.545	0.0158919
696.623	0.0159628
696.701	0.0158567
696.780	0.0158215
696.858	0.0158448
696.936	0.0158800
697.014	0.0156888
697.092	0.0157964
697.170	0.0157018
697.248	0.0155053
697.326	0.0157115
697.405	0.0156372
697.483	0.0155814
697.561	0.0154923
697.639	0.0154607
697.717	0.0154004
697.795	0.0153555
697.873	0.0154517
697.951	0.0155399
698.030	0.0154651
698.108	0.0155941
698.186	0.0153432
698.264	0.0154626
698.342	0.0154990
698.420	0.0152384
698.498	0.0151837
698.576	0.0151530
698.655	0.0150146
698.733	0.0148203
698.811	0.0148889
698.889	0.0147989
698.967	0.0147645
699.045	0.0148621
699.123	0.0148851
699.201	0.0147191
699.280	0.0148138
699.358	0.0148018
699.436	0.0146644
699.514	0.0148414
699.592	0.0146561
699.670	0.0146950
699.748	0.0148004
699.826	0.0148335
699.905	0.0148095
699.983	0.0148948
700.061	0.0150543
700.139	0.0149857
700.217	0.0150871
700.295	0.0152460
700.373	0.0151571
700.451	0.0155261
700.530	0.0153808
700.608	0.0156488
700.686	0.0156789
700.764	0.0158776
700.842	0.0158454
700.920	0.0159156
700.998	0.0160016
701.076	0.0161060
701.155	0.0161573
701.233	0.0161040
701.311	0.0161853
701.389	0.0161809
701.467	0.0161965
701.545	0.0163346
701.623	0.0161702
701.701	0.0159623
701.780	0.0161515
701.858	0.0160606
701.936	0.0159518
702.014	0.0158206
702.092	0.0158591
702.170	0.0157213
702.248	0.0157562
702.326	0.0157115
702.405	0.0155947
702.483	0.0154880
702.561	0.0154915
702.639	0.0154163
702.717	0.0154060
702.795	0.0152740
702.873	0.0152055
702.951	0.0151333
703.030	0.0150192
703.108	0.0150938
703.186	0.0150112
703.264	0.0150424
703.342	0.0149680
703.420	0.0149438
703.498	0.0148676
703.576	0.0147922
703.655	0.0148536
703.733	0.0148495
703.811	0.0148823
703.889	0.0147559
703.967	0.0148374
704.045	0.0148031
704.123	0.0148978
704.201	0.0149770
704.280	0.0149471
704.358	0.0149487
704.436	0.0147571
704.514	0.0148886
704.592	0.0149135
704.670	0.0150465
704.748	0.0149374
704.826	0.0150146
704.905	0.0151217
704.983	0.0149904
705.061	0.0151315
705.139	0.0152208
705.217	0.0151612
705.295	0.0153144
705.373	0.0152644
705.451	0.0151890
705.530	0.0153113
705.608	0.0153691
705.686	0.0154193
705.764	0.0153797
705.842	0.0155263
705.920	0.0154897
705.998	0.0154388
706.076	0.0154876
706.155	0.0156751
706.233	0.0156792
706.311	0.0158096
706.389	0.0157289
706.467	0.0157601
706.545	0.0158299
706.623	0.0158208
706.701	0.0159267
706.780	0.0158768
706.858	0.0157631
706.936	0.0156597
707.014	0.0156577
707.092	0.0158818
707.170	0.0158180
707.248	0.0157179
707.326	0.0156474
707.405	0.0156126
707.483	0.0156708
707.561	0.0155921
707.639	0.0155915
707.717	0.0155350
707.795	0.0154648
707.873	0.0154332
707.951	0.0154511
708.030	0.0154762
708.108	0.0154353
708.186	0.0153137
708.264	0.0153191
708.342	0.0152772
708.420	0.0153210
708.498	0.0153037
708.576	0.0152161
708.655	0.0151432
708.733	0.0151948
708.811	0.0152493
708.889	0.0152011
708.967	0.0152685
709.045	0.0151740
709.123	0.0151993
709.201	0.0151115
709.280	0.0151034
709.358	0.0152454
709.436	0.0152989
709.514	0.0151673
709.592	0.0153010
709.670	0.0153786
709.748	0.0152308
709.826	0.0152374
709.905	0.0151961
709.983	0.0154227
710.061	0.0153042
710.139	0.0153976
710.217	0.0152815
710.295	0.0153328
710.373	0.0152641
710.451	0.0152332
710.530	0.0152427
710.608	0.0151693
710.686	0.0153044
710.764	0.0151832
710.842	0.0151440
710.920	0.0150626
710.998	0.0151797
711.076	0.0151962
711.155	0.0151921
711.233	0.0151249
711.311	0.0150539
711.389	0.0151141
711.467	0.0151616
711.545	0.0152657
711.623	0.0152773
711.701	0.0152574
711.780	0.0152693
711.858	0.0156193
711.936	0.0154761
712.014	0.0156568
712.092	0.0156701
712.170	0.0156481
712.248	0.0157983
712.326	0.0157953
712.405	0.0156955
712.483	0.0156554
712.561	0.0156351
712.639	0.0157189
712.717	0.0156536
712.795	0.0155893
712.873	0.0156365
712.951	0.0155658
713.030	0.0155389
713.108	0.0155145
713.186	0.0154990
713.264	0.0155187
713.342	0.0152811
713.420	0.0151897
713.498	0.0154189
713.576	0.0153247
713.655	0.0152501
713.733	0.0152074
713.811	0.0151874
713.889	0.0153053
713.967	0.0150755
714.045	0.0150221
714.123	0.0151991
714.201	0.0151962
714.280	0.0151758
714.358	0.0153578
714.436	0.0152784
714.514	0.0151503
714.592	0.0152546
714.670	0.0153843
714.748	0.0153484
714.826	0.0153285
714.905	0.0153955
714.983	0.0154679
715.061	0.0155279
715.139	0.0156096
715.217	0.0155635
715.295	0.0156288
715.373	0.0155518
715.451	0.0156306
715.530	0.0158425
715.608	0.0157642
715.686	0.0156596
715.764	0.0156358
715.842	0.0157300
715.920	0.0156072
715.998	0.0155327
716.076	0.0155623
716.155	0.0156592
716.233	0.0155987
716.311	0.0156580
716.389	0.0155073
716.467	0.0154665
716.545	0.0153209
716.623	0.0153633
716.701	0.0153611
716.780	0.0151521
716.858	0.0151328
716.936	0.0151537
717.014	0.0150694
717.092	0.0150114
717.170	0.0150330
717.248	0.0148718
717.326	0.0150250
717.405	0.0150579
717.483	0.0150040
717.561	0.0150900
717.639	0.0150424
717.717	0.0151356
717.795	0.0152427
717.873	0.0151995
717.951	0.0151834
718.030	0.0150489
718.108	0.0151540
718.186	0.0151472
718.264	0.0153307
718.342	0.0152192
718.420	0.0153640
718.498	0.0152029
718.576	0.0151332
718.655	0.0153651
718.733	0.0153834
718.811	0.0153433
718.889	0.0154455
718.967	0.0153983
719.045	0.0154845
719.123	0.0156592
719.201	0.0156028
719.280	0.0157366
719.358	0.0156479
719.436	0.0156293
719.514	0.0157300
719.592	0.0157349
719.670	0.0158681
719.748	0.0158051
719.826	0.0157513
719.905	0.0156062
719.983	0.0156648
720.061	0.0156046
720.139	0.0155576
720.217	0.0154906
720.295	0.0153056
720.373	0.0154691
720.451	0.0154491
720.530	0.0153238
720.608	0.0154877
720.686	0.0153874
720.764	0.0154214
720.842	0.0153334
720.920	0.0152668
720.998	0.0152896
721.076	0.0152864
721.155	0.0153407
721.233	0.0152714
721.311	0.0154209
721.389	0.0154188
721.467	0.0151907
721.545	0.0152841
721.623	0.0154393
721.701	0.0152634
721.780	0.0153501
721.858	0.0153735
721.936	0.0152183
722.014	0.0151819
722.092	0.0152742
722.170	0.0154649
722.248	0.0154586
722.326	0.0152714
722.405	0.0153914
722.483	0.0154718
722.561	0.0155595
722.639	0.0155806
722.717	0.0154932
722.795	0.0154954
722.873	0.0153685
722.951	0.0155191
723.030	0.0154816
723.108	0.0153657
723.186	0.0154617
723.264	0.0152483
723.342	0.0152809
723.420	0.0152579
723.498	0.0151876
723.576	0.0151836
723.655	0.0150998
723.733	0.0151220
723.811	0.0150873
723.889	0.0151096
723.967	0.0151005
724.045	0.0150197
724.123	0.0151591
724.201	0.0152182
724.280	0.0150814
724.358	0.0152252
724.436	0.0152161
724.514	0.0152253
724.592	0.0154349
724.670	0.0153924
724.748	0.0154798
724.826	0.0155370
724.905	0.0155838
724.983	0.0154841
725.061	0.0155170
725.139	0.0156883
725.217	0.0156937
725.295	0.0156871
725.373	0.0157704
725.451	0.0157813
725.530	0.0156829
725.608	0.0156750
725.686	0.0158701
725.764	0.0157219
725.842	0.0156458
725.920	0.0158923
725.998	0.0157877
726.076	0.0157005
726.155	0.0157558
726.233	0.0156274
726.311	0.0154684
726.389	0.0154825
726.467	0.0155833
726.545	0.0156030
726.623	0.0155656
726.701	0.0155314
726.780	0.0154566
726.858	0.0154443
726.936	0.0154088
727.014	0.0154510
727.092	0.0152818
727.170	0.0155112
727.248	0.0153034
727.326	0.0152785
727.405	0.0152178
727.483	0.0152983
727.561	0.0151725
727.639	0.0150108
727.717	0.0150855
727.795	0.0149812
727.873	0.0149483
727.951	0.0147930
728.030	0.0146882
728.108	0.0147597
728.186	0.0148139
728.264	0.0148861
728.342	0.0147467
728.420	0.0147536
728.498	0.0147486
728.576	0.0147635
728.655	0.0148419
728.733	0.0149121
728.811	0.0149837
728.889	0.0151984
728.967	0.0151839
729.045	0.0152475
729.123	0.0153114
729.201	0.0155205
729.280	0.0156118
729.358	0.0155637
729.436	0.0155793
729.514	0.0159430
729.592	0.0159811
729.670	0.0159020
729.748	0.0158581
729.826	0.0159684
729.905	0.0160181
729.983	0.0159549
730.061	0.0158463
730.139	0.0160754
730.217	0.0159266
730.295	0.0158626
730.373	0.0159626
730.451	0.0159081
730.530	0.0157318
730.608	0.0157689
730.686	0.0157109
730.764	0.0156702
730.842	0.0154134
730.920	0.0153670
730.998	0.0153971
731.076	0.0152996
731.155	0.0150615
731.233	0.0149819
731.311	0.0150988
731.389	0.0149470
731.467	0.0149734
731.545	0.0151880
731.623	0.0151012
731.701	0.0150454
731.780	0.0150032
731.858	0.0149039
731.936	0.0151330
732.014	0.0150967
732.092	0.0150318
732.170	0.0151717
732.248	0.0152103
732.326	0.0152473
732.405	0.0152821
732.483	0.0152505
732.561	0.0152149
732.639	0.0152618
732.717	0.0153494
732.795	0.0153147
732.873	0.0155054
732.951	0.0154078
733.030	0.0154628
733.108	0.0155009
733.186	0.0153273
733.264	0.0154990
733.342	0.0155836
733.420	0.0153674
733.498	0.0152475
733.576	0.0152718
733.655	0.0154683
733.733	0.0153265
733.811	0.0154379
733.889	0.0152541
733.967	0.0152676
734.045	0.0151025
734.123	0.0153053
734.201	0.0153497
734.280	0.0153069
734.358	0.0154135
734.436	0.0153083
734.514	0.0152225
734.592	0.0152045
734.670	0.0152492
734.748	0.0153765
734.826	0.0153465
734.905	0.0153615
734.983	0.0153664
735.061	0.0152808
735.139	0.0154411
735.217	0.0155508
735.295	0.0155705
735.373	0.0153719
735.451	0.0154201
735.530	0.0155740
735.608	0.0155748
735.686	0.0155459
735.764	0.0155621
735.842	0.0154736
735.920	0.0153958
735.998	0.0156081
736.076	0.0154110
736.155	0.0153303
736.233	0.0155686
736.311	0.0153057
736.389	0.0153239
736.467	0.0155048
736.545	0.0154951
736.623	0.0154330
736.701	0.0155207
736.780	0.0154450
736.858	0.0154446
736.936	0.0154353
737.014	0.0153367
737.092	0.0153413
737.170	0.0154010
737.248	0.0153053
737.326	0.0152164
737.405	0.0153072
737.483	0.0154749
737.561	0.0152637
737.639	0.0152298
737.717	0.0151134
737.795	0.0152494
737.873	0.0153688
737.951	0.0154214
738.030	0.0154592
738.108	0.0154117
738.186	0.0154019
738.264	0.0153941
738.342	0.0152529
738.420	0.0154446
738.498	0.0153699
738.576	0.0153078
738.655	0.0152299
738.733	0.0152908
738.811	0.0153444
738.889	0.0152678
738.967	0.0152507
739.045	0.0153368
739.123	0.0152689
739.201	0.0152639
739.280	0.0152340
739.358	0.0153604
739.436	0.0153905
739.514	0.0153421
739.592	0.0153966
739.670	0.0153555
739.748	0.0155710
739.826	0.0154621
739.905	0.0154414
739.983	0.0153959
740.061	0.0153579
740.139	0.0153617
740.217	0.0155724
740.295	0.0153329
740.373	0.0155467
740.451	0.0154432
740.530	0.0154156
740.608	0.0153205
740.686	0.0154038
740.764	0.0153320
740.842	0.0153490
740.920	0.0153220
740.998	0.0154142
741.076	0.0151797
741.155	0.0152695
741.233	0.0152468
741.311	0.0152981
741.389	0.0151957
741.467	0.0152219
741.545	0.0152786
741.623	0.0151224
741.701	0.0151885
741.780	0.0152753
741.858	0.0152844
741.936	0.0152312
742.014	0.0152557
742.092	0.0151230
742.170	0.0151184
742.248	0.0151043
742.326	0.0152127
742.405	0.0153198
742.483	0.0153461
742.561	0.0152872
742.639	0.0152575
742.717	0.0151601
742.795	0.0153741
742.873	0.0151611
742.951	0.0152306
743.030	0.0151443
743.108	0.0153272
743.186	0.0151443
743.264	0.0152099
743.342	0.0151484
743.420	0.0151791
743.498	0.0151285
743.576	0.0150322
743.655	0.0151196
743.733	0.0152066
743.811	0.0151755
743.889	0.0153753
743.967	0.0152636
744.045	0.0154698
744.123	0.0154547
744.201	0.0154027
744.280	0.0152992
744.358	0.0155775
744.436	0.0154609
744.514	0.0154440
744.592	0.0155188
744.670	0.0156134
744.748	0.0155944
744.826	0.0155700
744.905	0.0155091
744.983	0.0156386
745.061	0.0155102
745.139	0.0154871
745.217	0.0155334
745.295	0.0153622
745.373	0.0154154
745.451	0.0152733
745.530	0.0153104
745.608	0.0153172
745.686	0.0151663
745.764	0.0152901
745.842	0.0152727
745.920	0.0152294
745.998	0.0151128
746.076	0.0153017
746.155	0.0152946
746.233	0.0152910
746.311	0.0152651
746.389	0.0152072
746.467	0.0152926
746.545	0.0152531
746.623	0.0152100
746.701	0.0150919
746.780	0.0152391
746.858	0.0153062
746.936	0.0153015
747.014	0.0151585
747.092	0.0151650
747.170	0.0152013
747.248	0.0153147
747.326	0.0153461
747.405	0.0154370
747.483	0.0153947
747.561	0.0153091
747.639	0.0152411
747.717	0.0153849
747.795	0.0152009
747.873	0.0152296
747.951	0.0152693
748.030	0.0152740
748.108	0.0152030
748.186	0.0151571
748.264	0.0150260
748.342	0.0151948
748.420	0.0149935
748.498	0.0150719
748.576	0.0149812
748.655	0.0149919
748.733	0.0150643
748.811	0.0152000
748.889	0.0149001
748.967	0.0151947
749.045	0.0150818
749.123	0.0151427
749.201	0.0151212
749.280	0.0152600
749.358	0.0153333
749.436	0.0153524
749.514	0.0153856
749.592	0.0153783
749.670	0.0154008
749.748	0.0153508
749.826	0.0154568
749.905	0.0154404
749.983	0.0154154
750.061	0.0154961
750.139	0.0155489
750.217	0.0156171
750.295	0.0156708
750.373	0.0156409
750.451	0.0156642
750.530	0.0156824
750.608	0.0157001
750.686	0.0156311
750.764	0.0158154
750.842	0.0156743
750.920	0.0157502
750.998	0.0156600
751.076	0.0155679
751.155	0.0155368
751.233	0.0154449
751.311	0.0154530
751.389	0.0153873
751.467	0.0152829
751.545	0.0152760
751.623	0.0153316
751.701	0.0151944
751.780	0.0151887
751.858	0.0150713
751.936	0.0150908
752.014	0.0151988
752.092	0.0150636
752.170	0.0150406
752.248	0.0151803
752.326	0.0154102
752.405	0.0151898
752.483	0.0152987
752.561	0.0152525
752.639	0.0153193
752.717	0.0153613
752.795	0.0153642
752.873	0.0153424
752.951	0.0154713
753.030	0.0153452
753.108	0.0153756
753.186	0.0154721
753.264	0.0154538
753.342	0.0153660
753.420	0.0155319
753.498	0.0155177
753.576	0.0155420
753.655	0.0153634
753.733	0.0154731
753.811	0.0154437
753.889	0.0155286
753.967	0.0154874
754.045	0.0153960
754.123	0.0153049
754.201	0.0154266
754.280	0.0154285
754.358	0.0153112
754.436	0.0154688
754.514	0.0153732
754.592	0.0154546
754.670	0.0154285
754.748	0.0154746
754.826	0.0152977
754.905	0.0154064
754.983	0.0155013
755.061	0.0155809
755.139	0.0154692
755.217	0.0155098
755.295	0.0154782
755.373	0.0155410
755.451	0.0155350
755.530	0.0154948
755.608	0.0153514
755.686	0.0154550
755.764	0.0154766
755.842	0.0153973
755.920	0.0153531
755.998	0.0151869
756.076	0.0151638
756.155	0.0152444
756.233	0.0152592
756.311	0.0151554
756.389	0.0153459
756.467	0.0152972
756.545	0.0150628
756.623	0.0150714
756.701	0.0151617
756.780	0.0151588
756.858	0.0151273
756.936	0.0152806
757.014	0.0150959
757.092	0.0150531
757.170	0.0150629
757.248	0.0150577
757.326	0.0150790
757.405	0.0151310
757.483	0.0151398
757.561	0.0149552
757.639	0.0150674
757.717	0.0149293
757.795	0.0148888
757.873	0.0151048
757.951	0.0152330
758.030	0.0152848
758.108	0.0151821
758.186	0.0152835
758.264	0.0153394
758.342	0.0154498
758.420	0.0156306
758.498	0.0155487
758.576	0.0155479
758.655	0.0157275
758.733	0.0157613
758.811	0.0157347
758.889	0.0156998
758.967	0.0157185
759.045	0.0156647
759.123	0.0156685
759.201	0.0157487
759.280	0.0157671
759.358	0.0156252
759.436	0.0155576
759.514	0.0156010
759.592	0.0157026
759.670	0.0153731
759.748	0.0153484
759.826	0.0155054
759.905	0.0154290
759.983	0.0153059
760.061	0.0152306
760.139	0.0152549
760.217	0.0151398
760.295	0.0151643
760.373	0.0151250
760.451	0.0150635
760.530	0.0150775
760.608	0.0151575
760.686	0.0152200
760.764	0.0150117
760.842	0.0150639
760.920	0.0151034
760.998	0.0152357
761.076	0.0149960
761.155	0.0150556
761.233	0.0152460
761.311	0.0152481
761.389	0.0151403
761.467	0.0151842
761.545	0.0150829
761.623	0.0152051
761.701	0.0153482
761.780	0.0153362
761.858	0.0153393
761.936	0.0154134
762.014	0.0155680
762.092	0.0155840
762.170	0.0156097
762.248	0.0156808
762.326	0.0157166
762.405	0.0156541
762.483	0.0156207
762.561	0.0157675
762.639	0.0157590
762.717	0.0155199
762.795	0.0156950
762.873	0.0156009
762.951	0.0156065
763.030	0.0157729
763.108	0.0158085
763.186	0.0155995
763.264	0.0154927
763.342	0.0154112
763.420	0.0154302
763.498	0.0154589
763.576	0.0153830
763.655	0.0152279
763.733	0.0152985
763.811	0.0151756
763.889	0.0152303
763.967	0.0151826
764.045	0.0151871
764.123	0.0151080
764.201	0.0152047
764.280	0.0152486
764.358	0.0152219
764.436	0.0150636
764.514	0.0152747
764.592	0.0152306
764.670	0.0152862
764.748	0.0153439
764.826	0.0153484
764.905	0.0153825
764.983	0.0152532
765.061	0.0151238
765.139	0.0153069
765.217	0.0153561
765.295	0.0151859
765.373	0.0151411
765.451	0.0151941
765.530	0.0152365
765.608	0.0151486
765.686	0.0151525
765.764	0.0151997
765.842	0.0151977
765.920	0.0151118
765.998	0.0150456
766.076	0.0150686
766.155	0.0150396
766.233	0.0151371
766.311	0.0151763
766.389	0.0151672
766.467	0.0151356
766.545	0.0152503
766.623	0.0152372
766.701	0.0152031
766.780	0.0152420
766.858	0.0153171
766.936	0.0154347
767.014	0.0154117
767.092	0.0153373
767.170	0.0153128
767.248	0.0154746
767.326	0.0153548
767.405	0.0154955
767.483	0.0154383
767.561	0.0155013
767.639	0.0153236
767.717	0.0155748
767.795	0.0157047
767.873	0.0156421
767.951	0.0156663
768.030	0.0155296
768.108	0.0156087
768.186	0.0156860
768.264	0.0157138
768.342	0.0156173
768.420	0.0155370
768.498	0.0156946
768.576	0.0155122
768.655	0.0156681
768.733	0.0153371
768.811	0.0153661
768.889	0.0155751
768.967	0.0154607
769.045	0.0151442
769.123	0.0153204
769.201	0.0152224
769.280	0.0149964
769.358	0.0150116
769.436	0.0150842
769.514	0.0150159
769.592	0.0148302
769.670	0.0150133
769.748	0.0148666
769.826	0.0150417
769.905	0.0151498
769.983	0.0149203
770.061	0.0149204
770.139	0.0150915
770.217	0.0151054
770.295	0.0151266
770.373	0.0151466
770.451	0.0150887
770.530	0.0150855
770.608	0.0152930
770.686	0.0152940
770.764	0.0152769
770.842	0.0153355
770.920	0.0152834
770.998	0.0153629
771.076	0.0153303
771.155	0.0154536
771.233	0.0153170
771.311	0.0153271
771.389	0.0152657
771.467	0.0152550
771.545	0.0153453
771.623	0.0151784
771.701	0.0152788
771.780	0.0153033
771.858	0.0153606
771.936	0.0153630
772.014	0.0154607
772.092	0.0153227
772.170	0.0153263
772.248	0.0154229
772.326	0.0154588
772.405	0.0152628
772.483	0.0153581
772.561	0.0154743
772.639	0.0155128
772.717	0.0154893
772.795	0.0154674
772.873	0.0154123
772.951	0.0155202
773.030	0.0155486
773.108	0.0152898
773.186	0.0153931
773.264	0.0155164
773.342	0.0154932
773.420	0.0154116
773.498	0.0154499
773.576	0.0155219
773.655	0.0155202
773.733	0.0154710
773.811	0.0154272
773.889	0.0155898
773.967	0.0153841
774.045	0.0153071
774.123	0.0153533
774.201	0.0154986
774.280	0.0152871
774.358	0.0152937
774.436	0.0153266
774.514	0.0153363
774.592	0.0151522
774.670	0.0152441
774.748	0.0152408
774.826	0.0151144
774.905	0.0152463
774.983	0.0150784
775.061	0.0149340
775.139	0.0150150
775.217	0.0150758
775.295	0.0149133
775.373	0.0151167
775.451	0.0152001
775.530	0.0150050
775.608	0.0150175
775.686	0.0150932
775.764	0.0152333
775.842	0.0149062
775.920	0.0149504
775.998	0.0152656
776.076	0.0152556
776.155	0.0151916
776.233	0.0152607
776.311	0.0150915
776.389	0.0152074
776.467	0.0153185
776.545	0.0154594
776.623	0.0153401
776.701	0.0154078
776.780	0.0153984
776.858	0.0154589
776.936	0.0154048
777.014	0.0154230
777.092	0.0155550
777.170	0.0155239
777.248	0.0155341
777.326	0.0155317
777.405	0.0155399
777.483	0.0153619
777.561	0.0154580
777.639	0.0154626
777.717	0.0155630
777.795	0.0154081
777.873	0.0154480
777.951	0.0156059
778.030	0.0155604
778.108	0.0154644
778.186	0.0155215
778.264	0.0155107
778.342	0.0154570
778.420	0.0153703
778.498	0.0154973
778.576	0.0155409
778.655	0.0155059
778.733	0.0155208
778.811	0.0156646
778.889	0.0154987
778.967	0.0154420
779.045	0.0154978
779.123	0.0154228
779.201	0.0154873
779.280	0.0153585
779.358	0.0155153
779.436	0.0152039
779.514	0.0154082
779.592	0.0154864
779.670	0.0153361
779.748	0.0152625
779.826	0.0153092
779.905	0.0152255
779.983	0.0152168
780.061	0.0152673
780.139	0.0152567
780.217	0.0152540
780.295	0.0152318
780.373	0.0152095
780.451	0.0152148
780.530	0.0152020
780.608	0.0153528
780.686	0.0153013
780.764	0.0153500
780.842	0.0153061
780.920	0.0154437
780.998	0.0154768
781.076	0.0154254
781.155	0.0154829
781.233	0.0153382
781.311	0.0153884
781.389	0.0154615
781.467	0.0152541
781.545	0.0155103
781.623	0.0154390
781.701	0.0155025
781.780	0.0153132
781.858	0.0155440
781.936	0.0155697
782.014	0.0154028
782.092	0.0154764
782.170	0.0154678
782.248	0.0153249
782.326	0.0153146
782.405	0.0154089
782.483	0.0153119
782.561	0.0154030
782.639	0.0153850
782.717	0.0154642
782.795	0.0153405
782.873	0.0152610
782.951	0.0153909
783.030	0.0152911
783.108	0.0153328
783.186	0.0154048
783.264	0.0153455
783.342	0.0153737
783.420	0.0152474
783.498	0.0152950
783.576	0.0152418
783.655	0.0152575
783.733	0.0152124
783.811	0.0153299
783.889	0.0153459
783.967	0.0153229
784.045	0.0151947
784.123	0.0152126
784.201	0.0152509
784.280	0.0152886
784.358	0.0153683
784.436	0.0152891
784.514	0.0153143
784.592	0.0152322
784.670	0.0153114
784.748	0.0153116
784.826	0.0153391
784.905	0.0152776
784.983	0.0153523
785.061	0.0153137
785.139	0.0151675
785.217	0.0153226
785.295	0.0152780
785.373	0.0152069
785.451	0.0151988
785.530	0.0152690
785.608	0.0151971
785.686	0.0151790
785.764	0.0153393
785.842	0.0153394
785.920	0.0152935
785.998	0.0151754
786.076	0.0152752
786.155	0.0153396
786.233	0.0152899
786.311	0.0153096
786.389	0.0152745
786.467	0.0153433
786.545	0.0154340
786.623	0.0154684
786.701	0.0152237
786.780	0.0153528
786.858	0.0154499
786.936	0.0154306
787.014	0.0154008
787.092	0.0154538
787.170	0.0153063
787.248	0.0154060
787.326	0.0154971
787.405	0.0155173
787.483	0.0154837
787.561	0.0154002
787.639	0.0154453
787.717	0.0153147
787.795	0.0153946
787.873	0.0153074
787.951	0.0152881
788.030	0.0154082
788.108	0.0153419
788.186	0.0152421
788.264	0.0153468
788.342	0.0154853
788.420	0.0152853
788.498	0.0152129
788.576	0.0152340
788.655	0.0152177
788.733	0.0153555
788.811	0.0153431
788.889	0.0153371
788.967	0.0153966
789.045	0.0154086
789.123	0.0153137
789.201	0.0153517
789.280	0.0153276
789.358	0.0153950
789.436	0.0154214
789.514	0.0152566
789.592	0.0154038
789.670	0.0154534
789.748	0.0152707
789.826	0.0153506
789.905	0.0153445
789.983	0.0154542
790.061	0.0153274
790.139	0.0153099
790.217	0.0153119
790.295	0.0152445
790.373	0.0152029
790.451	0.0152328
790.530	0.0151675
790.608	0.0153295
790.686	0.0153720
790.764	0.0153915
790.842	0.0152633
790.920	0.0152838
790.998	0.0151503
791.076	0.0151793
791.155	0.0151539
791.233	0.0152468
791.311	0.0152841
791.389	0.0153214
791.467	0.0153939
791.545	0.0153310
791.623	0.0152186
791.701	0.0152888
791.780	0.0152972
791.858	0.0154210
791.936	0.0153470
792.014	0.0151810
792.092	0.0153602
792.170	0.0153929
792.248	0.0152753
792.326	0.0153967
792.405	0.0154052
792.483	0.0153799
792.561	0.0153619
792.639	0.0154041
792.717	0.0155104
792.795	0.0155017
792.873	0.0154427
792.951	0.0154147
793.030	0.0151968
793.108	0.0154364
793.186	0.0153106
793.264	0.0154088
793.342	0.0154504
793.420	0.0154391
793.498	0.0152814
793.576	0.0152759
793.655	0.0153527
793.733	0.0154228
793.811	0.0153414
793.889	0.0154104
793.967	0.0153389
794.045	0.0154669
794.123	0.0152479
794.201	0.0152370
794.280	0.0152058
794.358	0.0151066
794.436	0.0153438
794.514	0.0152982
794.592	0.0152186
794.670	0.0151572
794.748	0.0151573
794.826	0.0151855
794.905	0.0152406
794.983	0.0152786
795.061	0.0150036
795.139	0.0151993
795.217	0.0152158
795.295	0.0151807
795.373	0.0150857
795.451	0.0152110
795.530	0.0152216
795.608	0.0152686
795.686	0.0151993
795.764	0.0151324
795.842	0.0153246
795.920	0.0152658
795.998	0.0152316
796.076	0.0152972
796.155	0.0152203
796.233	0.0152885
796.311	0.0153992
796.389	0.0152922
796.467	0.0151471
796.545	0.0153902
796.623	0.0153595
796.701	0.0153265
796.780	0.0154874
796.858	0.0153346
796.936	0.0152845
797.014	0.0153708
797.092	0.0153199
797.170	0.0154150
797.248	0.0153276
797.326	0.0153938
797.405	0.0153497
797.483	0.0154601
797.561	0.0156101
797.639	0.0156310
797.717	0.0155100
797.795	0.0153777
797.873	0.0154261
797.951	0.0156113
798.030	0.0155851
798.108	0.0155117
798.186	0.0156074
798.264	0.0154887
798.342	0.0155309
798.420	0.0156824
798.498	0.0154372
798.576	0.0155137
798.655	0.0154461
798.733	0.0155810
798.811	0.0156192
798.889	0.0153704
798.967	0.0153600
799.045	0.0155559
799.123	0.0154063
799.201	0.0152933
799.280	0.0154718
799.358	0.0153365
799.436	0.0154403
799.514	0.0154674
799.592	0.0154979
799.670	0.0154750
799.748	0.0153100
799.826	0.0153991
799.905	0.0153783
799.983	0.0153502
800.061	0.0153064
800.139	0.0151119
800.217	0.0152003
800.295	0.0153487
800.373	0.0151353
800.451	0.0151215
800.530	0.0150586
800.608	0.0150671
800.686	0.0151995
800.764	0.0151646
800.842	0.0150874
800.920	0.0150539
800.998	0.0151811
801.076	0.0150632
801.155	0.0151711
801.233	0.0150711
801.311	0.0151566
801.389	0.0151462
801.467	0.0152639
801.545	0.0153085
801.623	0.0152390
801.701	0.0151502
801.780	0.0151936
801.858	0.0152068
801.936	0.0152998
802.014	0.0152281
802.092	0.0152660
802.170	0.0153165
802.248	0.0154102
802.326	0.0152388
802.405	0.0153064
802.483	0.0153414
802.561	0.0152728
802.639	0.0154667
802.717	0.0155801
802.795	0.0155064
802.873	0.0155710
802.951	0.0154215
803.030	0.0154013
803.108	0.0155025
803.186	0.0155178
803.264	0.0155225
803.342	0.0156165
803.420	0.0155248
803.498	0.0155270
803.576	0.0154479
803.655	0.0155226
803.733	0.0155106
803.811	0.0155197
803.889	0.0155833
803.967	0.0154659
804.045	0.0154398
804.123	0.0155608
804.201	0.0156126
804.280	0.0153944
804.358	0.0154405
804.436	0.0155531
804.514	0.0155765
804.592	0.0155138
804.670	0.0154522
804.748	0.0153877
804.826	0.0154601
804.905	0.0154680
804.983	0.0154490
805.061	0.0153549
805.139	0.0153551
805.217	0.0154028
805.295	0.0154617
805.373	0.0154177
805.451	0.0153369
805.530	0.0153398
805.608	0.0152682
805.686	0.0154186
805.764	0.0153841
805.842	0.0153059
805.920	0.0152477
805.998	0.0152137
806.076	0.0154795
806.155	0.0152908
806.233	0.0153136
806.311	0.0153230
806.389	0.0154407
806.467	0.0154210
806.545	0.0154626
806.623	0.0154731
806.701	0.0152045
806.780	0.0153503
806.858	0.0153799
806.936	0.0155369
807.014	0.0153063
807.092	0.0153319
807.170	0.0153949
807.248	0.0151812
807.326	0.0152200
807.405	0.0152174
807.483	0.0153228
807.561	0.0151502
807.639	0.0153942
807.717	0.0153782
807.795	0.0152096
807.873	0.0152159
807.951	0.0154261
808.030	0.0153300
808.108	0.0152150
808.186	0.0154272
808.264	0.0154192
808.342	0.0152742
808.420	0.0153719
808.498	0.0153130
808.576	0.0153973
808.655	0.0153789
808.733	0.0153756
808.811	0.0154550
808.889	0.0153740
808.967	0.0154673
809.045	0.0154908
809.123	0.0154967
809.201	0.0153443
809.280	0.0154181
809.358	0.0155466
809.436	0.0155656
809.514	0.0154507
809.592	0.0153918
809.670	0.0153217
809.748	0.0154742
809.826	0.0153915
809.905	0.0152927
809.983	0.0153420
810.061	0.0152483
810.139	0.0153124
810.217	0.0154638
810.295	0.0153391
810.373	0.0152016
810.451	0.0152652
810.530	0.0153784
810.608	0.0152766
810.686	0.0152497
810.764	0.0153800
810.842	0.0153600
810.920	0.0153899
810.998	0.0152238
811.076	0.0152984
811.155	0.0151927
811.233	0.0153538
811.311	0.0154240
811.389	0.0151946
811.467	0.0152699
811.545	0.0151711
811.623	0.0153276
811.701	0.0152165
811.780	0.0152721
811.858	0.0152406
811.936	0.0152914
812.014	0.0153932
812.092	0.0153054
812.170	0.0152614
812.248	0.0154724
812.326	0.0154122
812.405	0.0153394
812.483	0.0152816
812.561	0.0154857
812.639	0.0154853
812.717	0.0154220
812.795	0.0153318
812.873	0.0155677
812.951	0.0153792
813.030	0.0152248
813.108	0.0153252
813.186	0.0152843
813.264	0.0152861
813.342	0.0153136
813.420	0.0154611
813.498	0.0153506
813.576	0.0152909
813.655	0.0153374
813.733	0.0152535
813.811	0.0153386
813.889	0.0153415
813.967	0.0153842
814.045	0.0152225
814.123	0.0153204
814.201	0.0153500
814.280	0.0152583
814.358	0.0151849
814.436	0.0152774
814.514	0.0153783
814.592	0.0153982
814.670	0.0153344
814.748	0.0153580
814.826	0.0152739
814.905	0.0153639
814.983	0.0155156
815.061	0.0153967
815.139	0.0154597
815.217	0.0154351
815.295	0.0154730
815.373	0.0153175
815.451	0.0154652
815.530	0.0154425
815.608	0.0153099
815.686	0.0154103
815.764	0.0153511
815.842	0.0154557
815.920	0.0153561
815.998	0.0153708
816.076	0.0154029
816.155	0.0154458
816.233	0.0153358
816.311	0.0154389
816.389	0.0153838
816.467	0.0153806
816.545	0.0151839
816.623	0.0153585
816.701	0.0153147
816.780	0.0152568
816.858	0.0152205
816.936	0.0153212
817.014	0.0151732
817.092	0.0151379
817.170	0.0153284
817.248	0.0153038
817.326	0.0151645
817.405	0.0151803
817.483	0.0152575
817.561	0.0152177
817.639	0.0152625
817.717	0.0151480
817.795	0.0152032
817.873	0.0153118
817.951	0.0153641
818.030	0.0152447
818.108	0.0153359
818.186	0.0152932
818.264	0.0154153
818.342	0.0154888
818.420	0.0154502
818.498	0.0154578
818.576	0.0153115
818.655	0.0154948
818.733	0.0154887
818.811	0.0154575
818.889	0.0154369
818.967	0.0153913
819.045	0.0154165
819.123	0.0155324
819.201	0.0154858
819.280	0.0154722
819.358	0.0155338
819.436	0.0153767
819.514	0.0154807
819.592	0.0154982
819.670	0.0154039
819.748	0.0153887
819.826	0.0153521
819.905	0.0152509
819.983	0.0154582
820.061	0.0154558
820.139	0.0152889
820.217	0.0152853
820.295	0.0152795
820.373	0.0153439
820.451	0.0154071
820.530	0.0153391
820.608	0.0152883
820.686	0.0152931
820.764	0.0152248
820.842	0.0151638
820.920	0.0152975
820.998	0.0152966
821.076	0.0153336
821.155	0.0151793
821.233	0.0153379
821.311	0.0151538
821.389	0.0154652
821.467	0.0154028
821.545	0.0153411
821.623	0.0152074
821.701	0.0152053
821.780	0.0152453
821.858	0.0153156
821.936	0.0153237
822.014	0.0153245
822.092	0.0154282
822.170	0.0153052
822.248	0.0153084
822.326	0.0153263
822.405	0.0153082
822.483	0.0153345
822.561	0.0154072
822.639	0.0153229
822.717	0.0152983
822.795	0.0153350
822.873	0.0153295
822.951	0.0153699
823.030	0.0153229
823.108	0.0154473
823.186	0.0153658
823.264	0.0154292
823.342	0.0153542
823.420	0.0154612
823.498	0.0153371
823.576	0.0153379
823.655	0.0152548
823.733	0.0152052
823.811	0.0152738
823.889	0.0153211
823.967	0.0153522
824.045	0.0152930
824.123	0.0152122
824.201	0.0153069
824.280	0.0152855
824.358	0.0152110
824.436	0.0150884
824.514	0.0152492
824.592	0.0151327
824.670	0.0152895
824.748	0.0152670
824.826	0.0153331
824.905	0.0153157
824.983	0.0151945
825.061	0.0153168
825.139	0.0152809
825.217	0.0152440
825.295	0.0152154
825.373	0.0152328
825.451	0.0153293
825.530	0.0153574
825.608	0.0153875
825.686	0.0153883
825.764	0.0152760
825.842	0.0154055
825.920	0.0153838
825.998	0.0154808
826.076	0.0154722
826.155	0.0154632
826.233	0.0153570
826.311	0.0154005
826.389	0.0153466
826.467	0.0153142
826.545	0.0154313
826.623	0.0155210
826.701	0.0154295
826.780	0.0154443
826.858	0.0153632
826.936	0.0153637
827.014	0.0154037
827.092	0.0154123
827.170	0.0153160
827.248	0.0152922
827.326	0.0154097
827.405	0.0154218
827.483	0.0152831
827.561	0.0154272
827.639	0.0154198
827.717	0.0152962
827.795	0.0153584
827.873	0.0153880
827.951	0.0152732
828.030	0.0152746
828.108	0.0154711
828.186	0.0153343
828.264	0.0153295
828.342	0.0154691
828.420	0.0153069
828.498	0.0153323
828.576	0.0152919
828.655	0.0152605
828.733	0.0154031
828.811	0.0154439
828.889	0.0154090
828.967	0.0153659
829.045	0.0152880
829.123	0.0154565
829.201	0.0155347
829.280	0.0153606
829.358	0.0153449
829.436	0.0155569
829.514	0.0153834
829.592	0.0153555
829.670	0.0153002
829.748	0.0153743
829.826	0.0153723
829.905	0.0153296
829.983	0.0152783
830.061	0.0154173
830.139	0.0153548
830.217	0.0153720
830.295	0.0153735
830.373	0.0154057
830.451	0.0154528
830.530	0.0154617
830.608	0.0153443
830.686	0.0153289
830.764	0.0154964
830.842	0.0153638
830.920	0.0154193
830.998	0.0154885
831.076	0.0154549
831.155	0.0154535
831.233	0.0154990
831.311	0.0153107
831.389	0.0152581
831.467	0.0153773
831.545	0.0154654
831.623	0.0155122
831.701	0.0153473
831.780	0.0153976
831.858	0.0153635
831.936	0.0152332
832.014	0.0152915
832.092	0.0153323
832.170	0.0153007
832.248	0.0152982
832.326	0.0153200
832.405	0.0154214
832.483	0.0153126
832.561	0.0153737
832.639	0.0152333
832.717	0.0151756
832.795	0.0152065
832.873	0.0152103
832.951	0.0152551
833.030	0.0151311
833.108	0.0151837
833.186	0.0151809
833.264	0.0153104
833.342	0.0152645
833.420	0.0153693
833.498	0.0151708
833.576	0.0151998
833.655	0.0152548
833.733	0.0152016
833.811	0.0152670
833.889	0.0151918
833.967	0.0152110
834.045	0.0154277
834.123	0.0153480
834.201	0.0154409
834.280	0.0154010
834.358	0.0153604
834.436	0.0154689
834.514	0.0154174
834.592	0.0154075
834.670	0.0154765
834.748	0.0153188
834.826	0.0154535
834.905	0.0153495
834.983	0.0155502
835.061	0.0153495
835.139	0.0154102
835.217	0.0153409
835.295	0.0153739
835.373	0.0151936
835.451	0.0153017
835.530	0.0154330
835.608	0.0154178
835.686	0.0152492
835.764	0.0152774
835.842	0.0152583
835.920	0.0153410
835.998	0.0153716
836.076	0.0152319
836.155	0.0153252
836.233	0.0154379
836.311	0.0153988
836.389	0.0153520
836.467	0.0154056
836.545	0.0153075
836.623	0.0152213
836.701	0.0153393
836.780	0.0153761
836.858	0.0153633
836.936	0.0152918
837.014	0.0154409
837.092	0.0153761
837.170	0.0152757
837.248	0.0151744
837.326	0.0154241
837.405	0.0153261
837.483	0.0152479
837.561	0.0153580
837.639	0.0153903
837.717	0.0151614
837.795	0.0153682
837.873	0.0153279
837.951	0.0153748
838.030	0.0153355
838.108	0.0153057
838.186	0.0154595
838.264	0.0154350
838.342	0.0153486
838.420	0.0153599
838.498	0.0153722
838.576	0.0154144
838.655	0.0155006
838.733	0.0152454
838.811	0.0153844
838.889	0.0154687
838.967	0.0152699
839.045	0.0154351
839.123	0.0154751
839.201	0.0153973
839.280	0.0154231
839.358	0.0153998
839.436	0.0154455
839.514	0.0153846
839.592	0.0152948
839.670	0.0153281
839.748	0.0154141
839.826	0.0153883
839.905	0.0153630
839.983	0.0152987
840.061	0.0153943
840.139	0.0154787
840.217	0.0153323
840.295	0.0153584
840.373	0.0154157
840.451	0.0153681
840.530	0.0153199
840.608	0.0153794
840.686	0.0153039
840.764	0.0153048
840.842	0.0153581
840.920	0.0153174
840.998	0.0153334
841.076	0.0153897
841.155	0.0152748
841.233	0.0152625
841.311	0.0152798
841.389	0.0152872
841.467	0.0152757
841.545	0.0152607
841.623	0.0152184
841.701	0.0152446
841.780	0.0152675
841.858	0.0153205
841.936	0.0152008
842.014	0.0151632
842.092	0.0152504
842.170	0.0152308
842.248	0.0151952
842.326	0.0151978
842.405	0.0153418
842.483	0.0153847
842.561	0.0152988
842.639	0.0153423
842.717	0.0153754
842.795	0.0153442
842.873	0.0152581
842.951	0.0152901
843.030	0.0153011
843.108	0.0153757
843.186	0.0153561
843.264	0.0153349
843.342	0.0151841
843.420	0.0153407
843.498	0.0152769
843.576	0.0153425
843.655	0.0153883
843.733	0.0153460
843.811	0.0152354
843.889	0.0153018
843.967	0.0154021
844.045	0.0154735
844.123	0.0152798
844.201	0.0154214
844.280	0.0153125
844.358	0.0153809
844.436	0.0153281
844.514	0.0153246
844.592	0.0153999
844.670	0.0153341
844.748	0.0154478
844.826	0.0153802
844.905	0.0153706
844.983	0.0153941
845.061	0.0153839
845.139	0.0152633
845.217	0.0154488
845.295	0.0153795
845.373	0.0153719
845.451	0.0154425
845.530	0.0153530
845.608	0.0153577
845.686	0.0154446
845.764	0.0153127
845.842	0.0153474
845.920	0.0154601
845.998	0.0153969
846.076	0.0154053
846.155	0.0153092
846.233	0.0154092
846.311	0.0152509
846.389	0.0152612
846.467	0.0153809
846.545	0.0153024
846.623	0.0155013
846.701	0.0153204
846.780	0.0153951
846.858	0.0154617
846.936	0.0152791
847.014	0.0153667
847.092	0.0153138
847.170	0.0153881
847.248	0.0154047
847.326	0.0153316
847.405	0.0154662
847.483	0.0153314
847.561	0.0154442
847.639	0.0153604
847.717	0.0154328
847.795	0.0154265
847.873	0.0155087
847.951	0.0154635
848.030	0.0153809
848.108	0.0154050
848.186	0.0153929
848.264	0.0154144
848.342	0.0153693
848.420	0.0152866
848.498	0.0153120
848.576	0.0152383
848.655	0.0152737
848.733	0.0153168
848.811	0.0152703
848.889	0.0154192
848.967	0.0153208
849.045	0.0153187
849.123	0.0153183
849.201	0.0153860
849.280	0.0153437
849.358	0.0152525
849.436	0.0152548
849.514	0.0153522
849.592	0.0153725
849.670	0.0153833
849.748	0.0154108
849.826	0.0153233
849.905	0.0153214
849.983	0.0152439
850.061	0.0154122
850.139	0.0153663
850.217	0.0153645
850.295	0.0153831
850.373	0.0154536
850.451	0.0154346
850.530	0.0153310
850.608	0.0152922
850.686	0.0152642
850.764	0.0153593
850.842	0.0152176
850.920	0.0153605
850.998	0.0154937
851.076	0.0153870
851.155	0.0154123
851.233	0.0152116
851.311	0.0154030
851.389	0.0153992
851.467	0.0154108
851.545	0.0153780
851.623	0.0152734
851.701	0.0154120
851.780	0.0154921
851.858	0.0153137
851.936	0.0154277
852.014	0.0154087
852.092	0.0153322
852.170	0.0153089
852.248	0.0153622
852.326	0.0153456
852.405	0.0153535
852.483	0.0153889
852.561	0.0153190
852.639	0.0151637
852.717	0.0153068
852.795	0.0153802
852.873	0.0154816
852.951	0.0154926
853.030	0.0154544
853.108	0.0154044
853.186	0.0152765
853.264	0.0153378
853.342	0.0153242
853.420	0.0153609
853.498	0.0152866
853.576	0.0152830
853.655	0.0153570
853.733	0.0153231
853.811	0.0153983
853.889	0.0152330
853.967	0.0153020
854.045	0.0152222
854.123	0.0154719
854.201	0.0154868
854.280	0.0154070
854.358	0.0153771
854.436	0.0153189
854.514	0.0154448
854.592	0.0153205
854.670	0.0154105
854.748	0.0153829
854.826	0.0154153
854.905	0.0153849
854.983	0.0154221
855.061	0.0153767
855.139	0.0153573
855.217	0.0155065
855.295	0.0153557
855.373	0.0154790
855.451	0.0154906
855.530	0.0154008
855.608	0.0153416
855.686	0.0154427
855.764	0.0152286
855.842	0.0153498
855.920	0.0153072
855.998	0.0154113
856.076	0.0153332
856.155	0.0154234
856.233	0.0152836
856.311	0.0154412
856.389	0.0153873
856.467	0.0152610
856.545	0.0153331
856.623	0.0154552
856.701	0.0154133
856.780	0.0153151
856.858	0.0153658
856.936	0.0154668
857.014	0.0154672
857.092	0.0154963
857.170	0.0153635
857.248	0.0155190
857.326	0.0153060
857.405	0.0153263
857.483	0.0153334
857.561	0.0152911
857.639	0.0153218
857.717	0.0153581
857.795	0.0154396
857.873	0.0154356
857.951	0.0153726
858.030	0.0153780
858.108	0.0153320
858.186	0.0153793
858.264	0.0153939
858.342	0.0153486
858.420	0.0153962
858.498	0.0154103
858.576	0.0153879
858.655	0.0152598
858.733	0.0153326
858.811	0.0152786
858.889	0.0152070
858.967	0.0153346
859.045	0.0152795
859.123	0.0152898
859.201	0.0153489
859.280	0.0154438
859.358	0.0152911
859.436	0.0152777
859.514	0.0153619
859.592	0.0153989
859.670	0.0153226
859.748	0.0154493
859.826	0.0153606
859.905	0.0153199
859.983	0.0154182
860.061	0.0153602
860.139	0.0153809
860.217	0.0153606
860.295	0.0155574
860.373	0.0153839
860.451	0.0153116
860.530	0.0154136
860.608	0.0154104
860.686	0.0151808
860.764	0.0152040
860.842	0.0153770
860.920	0.0152998
860.998	0.0153184
861.076	0.0153012
861.155	0.0153246
861.233	0.0153745
861.311	0.0153607
861.389	0.0153216
861.467	0.0152541
861.545	0.0153090
861.623	0.0153114
861.701	0.0153399
861.780	0.0153750
861.858	0.0153809
861.936	0.0154309
862.014	0.0152331
862.092	0.0154164
862.170	0.0152961
862.248	0.0152524
862.326	0.0153982
862.405	0.0154288
862.483	0.0152126
862.561	0.0154737
862.639	0.0154165
862.717	0.0153667
862.795	0.0153257
862.873	0.0152991
862.951	0.0154141
863.030	0.0152896
863.108	0.0154424
863.186	0.0153592
863.264	0.0152901
863.342	0.0153271
863.420	0.0154887
863.498	0.0153444
863.576	0.0153770
863.655	0.0152554
863.733	0.0153938
863.811	0.0152750
863.889	0.0154272
863.967	0.0154160
864.045	0.0152944
864.123	0.0153579
864.201	0.0154087
864.280	0.0152550
864.358	0.0151524
864.436	0.0154154
864.514	0.0154253
864.592	0.0152980
864.670	0.0152277
864.748	0.0153190
864.826	0.0153271
864.905	0.0154094
864.983	0.0152778
865.061	0.0152246
865.139	0.0153368
865.217	0.0153194
865.295	0.0151465
865.373	0.0152223
865.451	0.0152170
865.530	0.0152046
865.608	0.0152847
865.686	0.0151962
865.764	0.0152541
865.842	0.0153208
865.920	0.0153145
865.998	0.0153139
866.076	0.0151812
866.155	0.0152168
866.233	0.0153439
866.311	0.0151950
866.389	0.0153272
866.467	0.0152684
866.545	0.0153214
866.623	0.0153187
866.701	0.0151627
866.780	0.0153471
866.858	0.0152850
866.936	0.0152569
867.014	0.0152826
867.092	0.0154214
867.170	0.0152879
867.248	0.0153407
867.326	0.0154309
867.405	0.0153337
867.483	0.0153081
867.561	0.0154088
867.639	0.0154490
867.717	0.0155584
867.795	0.0154821
867.873	0.0154652
867.951	0.0154613
868.030	0.0154774
868.108	0.0154399
868.186	0.0154123
868.264	0.0154857
868.342	0.0154283
868.420	0.0155199
868.498	0.0155296
868.576	0.0155863
868.655	0.0154243
868.733	0.0155846
868.811	0.0156125
868.889	0.0153764
868.967	0.0155321
869.045	0.0155540
869.123	0.0155553
869.201	0.0155181
869.280	0.0154224
869.358	0.0154807
869.436	0.0153776
869.514	0.0154480
869.592	0.0153836
869.670	0.0155133
869.748	0.0153123
869.826	0.0153320
869.905	0.0153604
869.983	0.0152465
870.061	0.0154829
870.139	0.0154612
870.217	0.0154974
870.295	0.0152964
870.373	0.0153702
870.451	0.0153065
870.530	0.0153801
870.608	0.0153361
870.686	0.0153443
870.764	0.0153505
870.842	0.0154356
870.920	0.0153910
870.998	0.0153165
871.076	0.0152238
871.155	0.0153355
871.233	0.0152791
871.311	0.0152724
871.389	0.0154087
871.467	0.0153359
871.545	0.0153549
871.623	0.0152089
871.701	0.0153159
871.780	0.0152731
871.858	0.0153509
871.936	0.0153615
872.014	0.0153637
872.092	0.0152250
872.170	0.0152385
872.248	0.0152280
872.326	0.0153902
872.405	0.0153777
872.483	0.0153763
872.561	0.0152572
872.639	0.0152550
872.717	0.0154656
872.795	0.0153216
872.873	0.0153362
872.951	0.0152725
873.030	0.0154910
873.108	0.0153301
873.186	0.0152883
873.264	0.0155214
873.342	0.0154652
873.420	0.0153653
873.498	0.0153080
873.576	0.0153568
873.655	0.0153847
873.733	0.0155087
873.811	0.0154529
873.889	0.0153507
873.967	0.0153601
874.045	0.0153134
874.123	0.0154368
874.201	0.0154082
874.280	0.0152946
874.358	0.0152861
874.436	0.0153545
874.514	0.0153126
874.592	0.0152487
874.670	0.0153314
874.748	0.0153666
874.826	0.0152421
874.905	0.0153470
874.983	0.0154504
875.061	0.0154031
875.139	0.0153909
875.217	0.0153813
875.295	0.0154249
875.373	0.0153841
875.451	0.0154597
875.530	0.0155183
875.608	0.0152856
875.686	0.0153842
875.764	0.0155103
875.842	0.0152977
875.920	0.0153173
875.998	0.0154494
876.076	0.0154356
876.155	0.0153719
876.233	0.0153107
876.311	0.0153306
876.389	0.0151900
876.467	0.0153555
876.545	0.0152297
876.623	0.0152642
876.701	0.0152684
876.780	0.0151270
876.858	0.0152800
876.936	0.0152921
877.014	0.0153384
877.092	0.0153458
877.170	0.0153498
877.248	0.0152019
877.326	0.0153025
877.405	0.0153196
877.483	0.0151989
877.561	0.0153361
877.639	0.0153399
877.717	0.0153081
877.795	0.0154041
877.873	0.0153942
877.951	0.0153715
878.030	0.0152798
878.108	0.0153384
878.186	0.0152855
878.264	0.0152230
878.342	0.0152706
878.420	0.0153130
878.498	0.0152927
878.576	0.0153143
878.655	0.0152827
878.733	0.0154021
878.811	0.0152107
878.889	0.0152850
878.967	0.0152397
879.045	0.0154061
879.123	0.0153973
879.201	0.0153837
879.280	0.0152674
879.358	0.0153381
879.436	0.0154863
879.514	0.0153067
879.592	0.0153336
879.670	0.0153454
879.748	0.0153966
879.826	0.0154051
879.905	0.0154221
879.983	0.0153989
880.061	0.0152850
880.139	0.0153310
880.217	0.0152714
880.295	0.0152554
880.373	0.0152678
880.451	0.0152984
880.530	0.0153664
880.608	0.0154260
880.686	0.0153774
880.764	0.0153643
880.842	0.0155118
880.920	0.0153265
880.998	0.0153505
881.076	0.0154505
881.155	0.0154033
881.233	0.0152390
881.311	0.0153333
881.389	0.0154165
881.467	0.0153361
881.545	0.0152854
881.623	0.0152842
881.701	0.0153324
881.780	0.0152190
881.858	0.0153325
881.936	0.0153764
882.014	0.0152776
882.092	0.0153125
882.170	0.0153021
882.248	0.0153468
882.326	0.0153471
882.405	0.0152938
882.483	0.0153616
882.561	0.0153108
882.639	0.0153600
882.717	0.0153575
882.795	0.0153143
882.873	0.0154277
882.951	0.0154340
883.030	0.0153446
883.108	0.0154755
883.186	0.0153529
883.264	0.0153045
883.342	0.0153162
883.420	0.0154565
883.498	0.0153317
883.576	0.0153428
883.655	0.0153925
883.733	0.0152610
883.811	0.0153693
883.889	0.0153594
883.967	0.0153236
884.045	0.0153727
884.123	0.0152841
884.201	0.0153230
884.280	0.0152721
884.358	0.0153758
884.436	0.0154453
884.514	0.0153619
884.592	0.0153087
884.670	0.0153927
884.748	0.0154605
884.826	0.0153999
884.905	0.0154877
884.983	0.0154069
885.061	0.0154842
885.139	0.0154920
885.217	0.0155263
885.295	0.0154191
885.373	0.0153133
885.451	0.0153992
885.530	0.0155131
885.608	0.0154845
885.686	0.0154275
885.764	0.0155316
885.842	0.0154633
885.920	0.0153675
885.998	0.0153896
886.076	0.0154156
886.155	0.0152597
886.233	0.0152396
886.311	0.0153328
886.389	0.0153992
886.467	0.0155202
886.545	0.0154866
886.623	0.0153915
886.701	0.0153186
886.780	0.0153895
886.858	0.0152847
886.936	0.0154257
887.014	0.0152053
887.092	0.0153891
887.170	0.0153954
887.248	0.0153924
887.326	0.0152415
887.405	0.0153474
887.483	0.0153866
887.561	0.0154424
887.639	0.0151860
887.717	0.0152077
887.795	0.0153178
887.873	0.0152457
887.951	0.0153005
888.030	0.0152251
888.108	0.0153522
888.186	0.0153522
888.264	0.0153368
888.342	0.0152829
888.420	0.0153333
888.498	0.0153053
888.576	0.0152922
888.655	0.0152635
888.733	0.0153291
888.811	0.0154288
888.889	0.0152062
888.967	0.0152592
889.045	0.0153896
889.123	0.0153971
889.201	0.0151933
889.280	0.0153065
889.358	0.0154453
889.436	0.0153173
889.514	0.0153371
889.592	0.0153798
889.670	0.0153267
889.748	0.0153027
889.826	0.0153580
889.905	0.0155077
889.983	0.0154559
890.061	0.0153483
890.139	0.0153187
890.217	0.0153196
890.295	0.0152759
890.373	0.0153771
890.451	0.0152386
890.530	0.0152003
890.608	0.0153069
890.686	0.0153144
890.764	0.0155194
890.842	0.0153864
890.920	0.0153484
890.998	0.0152077
891.076	0.0154007
891.155	0.0154156
891.233	0.0153095
891.311	0.0154162
891.389	0.0153139
891.467	0.0153922
891.545	0.0153295
891.623	0.0154363
891.701	0.0152983
891.780	0.0154072
891.858	0.0153768
891.936	0.0153136
892.014	0.0152597
892.092	0.0153354
892.170	0.0154009
892.248	0.0154201
892.326	0.0153467
892.405	0.0154455
892.483	0.0152976
892.561	0.0152837
892.639	0.0153661
892.717	0.0153313
892.795	0.0153799
892.873	0.0152911
892.951	0.0153793
893.030	0.0153387
893.108	0.0153795
893.186	0.0154216
893.264	0.0154403
893.342	0.0154555
893.420	0.0152306
893.498	0.0152966
893.576	0.0153642
893.655	0.0153230
893.733	0.0152818
893.811	0.0153609
893.889	0.0154985
893.967	0.0153580
894.045	0.0153603
894.123	0.0154942
894.201	0.0155021
894.280	0.0154007
894.358	0.0153005
894.436	0.0154110
894.514	0.0154937
894.592	0.0153794
894.670	0.0153844
894.748	0.0154608
894.826	0.0154314
894.905	0.0153603
894.983	0.0154520
895.061	0.0153737
895.139	0.0153104
895.217	0.0154012
895.295	0.0154269
895.373	0.0153450
895.451	0.0154523
895.530	0.0155442
895.608	0.0154160
895.686	0.0154623
895.764	0.0154985
895.842	0.0154798
895.920	0.0155901
895.998	0.0155572
896.076	0.0155396
896.155	0.0154913
896.233	0.0154796
896.311	0.0155441
896.389	0.0155149
896.467	0.0154360
896.545	0.0154421
896.623	0.0154642
896.701	0.0155265
896.780	0.0155353
896.858	0.0154826
896.936	0.0154298
897.014	0.0153640
897.092	0.0155153
897.170	0.0155430
897.248	0.0152664
897.326	0.0153297
897.405	0.0153996
897.483	0.0155196
897.561	0.0153957
897.639	0.0153229
897.717	0.0153426
897.795	0.0155310
897.873	0.0155324
897.951	0.0154176
898.030	0.0153968
898.108	0.0153555
898.186	0.0153698
898.264	0.0153188
898.342	0.0153470
898.420	0.0153779
898.498	0.0154578
898.576	0.0154220
898.655	0.0153832
898.733	0.0153098
898.811	0.0153166
898.889	0.0153918
898.967	0.0154121
899.045	0.0153982
899.123	0.0152429
899.201	0.0152303
899.280	0.0152612
899.358	0.0152395
899.436	0.0152550
899.514	0.0153328
899.592	0.0151586
899.670	0.0153055
899.748	0.0153015
899.826	0.0152963
899.905	0.0154217
899.983	0.0153300
900.061	0.0153191
900.139	0.0153064
900.217	0.0153701
900.295	0.0152741
900.373	0.0153706
900.451	0.0155283
900.530	0.0153645
900.608	0.0154537
900.686	0.0153166
900.764	0.0153327
900.842	0.0153504
900.920	0.0152911
900.998	0.0153754
901.076	0.0153591
901.155	0.0153851
901.233	0.0153965
901.311	0.0152682
901.389	0.0152718
901.467	0.0152015
901.545	0.0153635
901.623	0.0155555
901.701	0.0153881
901.780	0.0153091
901.858	0.0153936
901.936	0.0153662
902.014	0.0152666
902.092	0.0153513
902.170	0.0153091
902.248	0.0153007
902.326	0.0154043
902.405	0.0153392
902.483	0.0153106
902.561	0.0152588
902.639	0.0152666
902.717	0.0152436
902.795	0.0153025
902.873	0.0152621
902.951	0.0152123
903.030	0.0151093
903.108	0.0151138
903.186	0.0153085
903.264	0.0153057
903.342	0.0151040
903.420	0.0150916
903.498	0.0152546
903.576	0.0152097
903.655	0.0152041
903.733	0.0153043
903.811	0.0151636
903.889	0.0152620
903.967	0.0153870
904.045	0.0153172
904.123	0.0152714
904.201	0.0153206
904.280	0.0153512
904.358	0.0153253
904.436	0.0151836
904.514	0.0154014
904.592	0.0151696
904.670	0.0152657
904.748	0.0152040
904.826	0.0153649
904.905	0.0151416
904.983	0.0152170
905.061	0.0153648
905.139	0.0151945
905.217	0.0153045
905.295	0.0154270
905.373	0.0153101
905.451	0.0154617
905.530	0.0153671
905.608	0.0153735
905.686	0.0154242
905.764	0.0155129
905.842	0.0153795
905.920	0.0154741
905.998	0.0155142
906.076	0.0153749
906.155	0.0154160
906.233	0.0154966
906.311	0.0154834
906.389	0.0154739
906.467	0.0153466
906.545	0.0154428
906.623	0.0154077
906.701	0.0154032
906.780	0.0153925
906.858	0.0154469
906.936	0.0155181
907.014	0.0153832
907.092	0.0153403
907.170	0.0154082
907.248	0.0153598
907.326	0.0154283
907.405	0.0153088
907.483	0.0154198
907.561	0.0153546
907.639	0.0153167
907.717	0.0152486
907.795	0.0155197
907.873	0.0152346
907.951	0.0154436
908.030	0.0153280
908.108	0.0153149
908.186	0.0152416
908.264	0.0152867
908.342	0.0153548
908.420	0.0153680
908.498	0.0152768
908.576	0.0152371
908.655	0.0153831
908.733	0.0152704
908.811	0.0153514
908.889	0.0153736
908.967	0.0152756
909.045	0.0153519
909.123	0.0153483
909.201	0.0153770
909.280	0.0152606
909.358	0.0153027
909.436	0.0153027
909.514	0.0152837
909.592	0.0152242
909.670	0.0154790
909.748	0.0154336
909.826	0.0152785
909.905	0.0153101
909.983	0.0152996
910.061	0.0152661
910.139	0.0152406
910.217	0.0152856
910.295	0.0153528
910.373	0.0154420
910.451	0.0153875
910.530	0.0154854
910.608	0.0154601
910.686	0.0152765
910.764	0.0153124
910.842	0.0154344
910.920	0.0153452
910.998	0.0154099
911.076	0.0154161
911.155	0.0153193
911.233	0.0153521
911.311	0.0154387
911.389	0.0154140
911.467	0.0153318
911.545	0.0153931
911.623	0.0153196
911.701	0.0152827
911.780	0.0153239
911.858	0.0153989
911.936	0.0151840
912.014	0.0154100
912.092	0.0154406
912.170	0.0153219
912.248	0.0151801
912.326	0.0151404
912.405	0.0153733
912.483	0.0152922
912.561	0.0152768
912.639	0.0153629
912.717	0.0153028
912.795	0.0153342
912.873	0.0152748
912.951	0.0153452
913.030	0.0152364
913.108	0.0152095
913.186	0.0153130
913.264	0.0153348
913.342	0.0151876
913.420	0.0149117
913.498	0.0152127
913.576	0.0153355
913.655	0.0153627
913.733	0.0153912
913.811	0.0152013
913.889	0.0152174
913.967	0.0152495
914.045	0.0152394
914.123	0.0153584
914.201	0.0153031
914.280	0.0152108
914.358	0.0152634
914.436	0.0153859
914.514	0.0153496
914.592	0.0152471
914.670	0.0151940
914.748	0.0152734
914.826	0.0153829
914.905	0.0152262
914.983	0.0153880
915.061	0.0152746
915.139	0.0152470
915.217	0.0152795
915.295	0.0154429
915.373	0.0153547
915.451	0.0153596
915.530	0.0155150
915.608	0.0152757
915.686	0.0152542
915.764	0.0153733
915.842	0.0152831
915.920	0.0151653
915.998	0.0152908
916.076	0.0152166
916.155	0.0153770
916.233	0.0153281
916.311	0.0152768
916.389	0.0153172
916.467	0.0153638
916.545	0.0153449
916.623	0.0153245
916.701	0.0153327
916.780	0.0152775
916.858	0.0154297
916.936	0.0154121
917.014	0.0151849
917.092	0.0153059
917.170	0.0152982
917.248	0.0152974
917.326	0.0152284
917.405	0.0153256
917.483	0.0154652
917.561	0.0153474
917.639	0.0152486
917.717	0.0152992
917.795	0.0152375
917.873	0.0152156
917.951	0.0152259
918.030	0.0154104
918.108	0.0152737
918.186	0.0152872
918.264	0.0153061
918.342	0.0152211
918.420	0.0152173
918.498	0.0153701
918.576	0.0154265
918.655	0.0152690
918.733	0.0153418
918.811	0.0153026
918.889	0.0152375
918.967	0.0152336
919.045	0.0153103
919.123	0.0153452
919.201	0.0152309
919.280	0.0152736
919.358	0.0153162
919.436	0.0152609
919.514	0.0152753
919.592	0.0152168
919.670	0.0152804
919.748	0.0152845
919.826	0.0153214
919.905	0.0153236
919.983	0.0152511
920.061	0.0153049
920.139	0.0152424
920.217	0.0153325
920.295	0.0153480
920.373	0.0152033
920.451	0.0153146
920.530	0.0152657
920.608	0.0151626
920.686	0.0153960
920.764	0.0153199
920.842	0.0152072
920.920	0.0151736
920.998	0.0153400
921.076	0.0152767
921.155	0.0152692
921.233	0.0151484
921.311	0.0153053
921.389	0.0153403
921.467	0.0151081
921.545	0.0151784
921.623	0.0153189
921.701	0.0151618
921.780	0.0152624
921.858	0.0153991
921.936	0.0152436
922.014	0.0153363
922.092	0.0152426
922.170	0.0152629
922.248	0.0153495
922.326	0.0152236
922.405	0.0152506
922.483	0.0151989
922.561	0.0153053
922.639	0.0153472
922.717	0.0154055
922.795	0.0152724
922.873	0.0152274
922.951	0.0153436
923.030	0.0153814
923.108	0.0152205
923.186	0.0153022
923.264	0.0153638
923.342	0.0153648
923.420	0.0154028
923.498	0.0152428
923.576	0.0152067
923.655	0.0152888
923.733	0.0153801
923.811	0.0153035
923.889	0.0151206
923.967	0.0154216
924.045	0.0153602
924.123	0.0152774
924.201	0.0153878
924.280	0.0152859
924.358	0.0152007
924.436	0.0153009
924.514	0.0153275
924.592	0.0152750
924.670	0.0151672
924.748	0.0152373
924.826	0.0153782
924.905	0.0153245
924.983	0.0153504
925.061	0.0152059
925.139	0.0151290
925.217	0.0151571
925.295	0.0152890
925.373	0.0151875
925.451	0.0153004
925.530	0.0152582
925.608	0.0151740
925.686	0.0154187
925.764	0.0152104
925.842	0.0152383
925.920	0.0151918
925.998	0.0152509
926.076	0.0152921
926.155	0.0152299
926.233	0.0151680
926.311	0.0152322
926.389	0.0152823
926.467	0.0153201
926.545	0.0154088
926.623	0.0153114
926.701	0.0153306
926.780	0.0152994
926.858	0.0154613
926.936	0.0154172
927.014	0.0153754
927.092	0.0153905
927.170	0.0153716
927.248	0.0153929
927.326	0.0155262
927.405	0.0153880
927.483	0.0151859
927.561	0.0154506
927.639	0.0153329
927.717	0.0155164
927.795	0.0152329
927.873	0.0152603
927.951	0.0153338
928.030	0.0153053
928.108	0.0153510
928.186	0.0153484
928.264	0.0152511
928.342	0.0152221
928.420	0.0153640
928.498	0.0153376
928.576	0.0151740
928.655	0.0153613
928.733	0.0153387
928.811	0.0153625
928.889	0.0153744
928.967	0.0150865
929.045	0.0151585
929.123	0.0153629
929.201	0.0154376
929.280	0.0151834
929.358	0.0152885
929.436	0.0153333
929.514	0.0153629
929.592	0.0153715
929.670	0.0154008
929.748	0.0153696
929.826	0.0152175
929.905	0.0154153
929.983	0.0153001
930.061	0.0152272
930.139	0.0152440
930.217	0.0153655
930.295	0.0154863
930.373	0.0153851
930.451	0.0153851
930.530	0.0153160
930.608	0.0152942
930.686	0.0154002
930.764	0.0153372
930.842	0.0153994
930.920	0.0154724
930.998	0.0153069
931.076	0.0152059
931.155	0.0153687
931.233	0.0153676
931.311	0.0156212
931.389	0.0153468
931.467	0.0151754
931.545	0.0153884
931.623	0.0154665
931.701	0.0154846
931.780	0.0152316
931.858	0.0153743
931.936	0.0154420
932.014	0.0153815
932.092	0.0153328
932.170	0.0154010
932.248	0.0153787
932.326	0.0152572
932.405	0.0154365
932.483	0.0153088
932.561	0.0153499
932.639	0.0152942
932.717	0.0152716
932.795	0.0153777
932.873	0.0153452
932.951	0.0154604
933.030	0.0151903
933.108	0.0153250
933.186	0.0152739
933.264	0.0152225
933.342	0.0152245
933.420	0.0151703
933.498	0.0152670
933.576	0.0152396
933.655	0.0152599
933.733	0.0152218
933.811	0.0151997
933.889	0.0151827
933.967	0.0152047
934.045	0.0152303
934.123	0.0152320
934.201	0.0151894
934.280	0.0151771
934.358	0.0152755
934.436	0.0152714
934.514	0.0152698
934.592	0.0152982
934.670	0.0151841
934.748	0.0151698
934.826	0.0153080
934.905	0.0153576
934.983	0.0153260
935.061	0.0151732
935.139	0.0151888
935.217	0.0153320
935.295	0.0152356
935.373	0.0152473
935.451	0.0152931
935.530	0.0152435
935.608	0.0152889
935.686	0.0151942
935.764	0.0152766
935.842	0.0152738
935.920	0.0151740
935.998	0.0153240
936.076	0.0152144
936.155	0.0152649
936.233	0.0154115
936.311	0.0153779
936.389	0.0153362
936.467	0.0153281
936.545	0.0152465
936.623	0.0152001
936.701	0.0152685
936.780	0.0153080
936.858	0.0152855
936.936	0.0152654
937.014	0.0152397
937.092	0.0152831
937.170	0.0151975
937.248	0.0153109
937.326	0.0154314
937.405	0.0154263
937.483	0.0151742
937.561	0.0152396
937.639	0.0154054
937.717	0.0154555
937.795	0.0152509
937.873	0.0152237
937.951	0.0153408
938.030	0.0153473
938.108	0.0151720
938.186	0.0153373
938.264	0.0152882
938.342	0.0153718
938.420	0.0152850
938.498	0.0152465
938.576	0.0153001
938.655	0.0152543
938.733	0.0152651
938.811	0.0153262
938.889	0.0152592
938.967	0.0151942
939.045	0.0152045
939.123	0.0153439
939.201	0.0153033
939.280	0.0153153
939.358	0.0151582
939.436	0.0151977
939.514	0.0152659
939.592	0.0153883
939.670	0.0152029
939.748	0.0152072
939.826	0.0152384
939.905	0.0152702
939.983	0.0152358
940.061	0.0153020
940.139	0.0152241
940.217	0.0153185
940.295	0.0152809
940.373	0.0151203
940.451	0.0152130
940.530	0.0153364
940.608	0.0152562
940.686	0.0152545
940.764	0.0152512
940.842	0.0153001
940.920	0.0153214
940.998	0.0152135
941.076	0.0152214
941.155	0.0152804
941.233	0.0153718
941.311	0.0154312
941.389	0.0154455
941.467	0.0154884
941.545	0.0154768
941.623	0.0153127
941.701	0.0154598
941.780	0.0154313
941.858	0.0153889
941.936	0.0153436
942.014	0.0153953
942.092	0.0153722
942.170	0.0153027
942.248	0.0153201
942.326	0.0153986
942.405	0.0153642
942.483	0.0153003
942.561	0.0152560
942.639	0.0152962
942.717	0.0152486
942.795	0.0154053
942.873	0.0153623
942.951	0.0153512
943.030	0.0152592
943.108	0.0153106
943.186	0.0153233
943.264	0.0153364
943.342	0.0153397
943.420	0.0153725
943.498	0.0152023
943.576	0.0152992
943.655	0.0152926
943.733	0.0153944
943.811	0.0154127
943.889	0.0153349
943.967	0.0154000
944.045	0.0153860
944.123	0.0154169
944.201	0.0154066
944.280	0.0152202
944.358	0.0153701
944.436	0.0153809
944.514	0.0153943
944.592	0.0154739
944.670	0.0153498
944.748	0.0153583
944.826	0.0154031
944.905	0.0152576
944.983	0.0153861
945.061	0.0153154
945.139	0.0152570
945.217	0.0152037
945.295	0.0153904
945.373	0.0154587
945.451	0.0155110
945.530	0.0154424
945.608	0.0154134
945.686	0.0154322
945.764	0.0153829
945.842	0.0154123
945.920	0.0155167
945.998	0.0154321
946.076	0.0154222
946.155	0.0154234
946.233	0.0154433
946.311	0.0154571
946.389	0.0153464
946.467	0.0154700
946.545	0.0154834
946.623	0.0153756
946.701	0.0153515
946.780	0.0154913
946.858	0.0155206
946.936	0.0153928
947.014	0.0155611
947.092	0.0154399
947.170	0.0153333
947.248	0.0154196
947.326	0.0154295
947.405	0.0153645
947.483	0.0154015
947.561	0.0154026
947.639	0.0154136
947.717	0.0154504
947.795	0.0155071
947.873	0.0153551
947.951	0.0153241
948.030	0.0152798
948.108	0.0153412
948.186	0.0154922
948.264	0.0153936
948.342	0.0154109
948.420	0.0152037
948.498	0.0154570
948.576	0.0153726
948.655	0.0154024
948.733	0.0153771
948.811	0.0152674
948.889	0.0153003
948.967	0.0153893
949.045	0.0153050
949.123	0.0151163
949.201	0.0152972
949.280	0.0154191
949.358	0.0153359
949.436	0.0154539
949.514	0.0154478
949.592	0.0152355
949.670	0.0153465
949.748	0.0153529
949.826	0.0154161
949.905	0.0153203
949.983	0.0154435
950.061	0.0153868
950.139	0.0153687
950.217	0.0154710
950.295	0.0153854
950.373	0.0153881
950.451	0.0154856
950.530	0.0153391
950.608	0.0154682
950.686	0.0153632
950.764	0.0153308
950.842	0.0154238
950.920	0.0152752
950.998	0.0154081
951.076	0.0154886
951.155	0.0154250
951.233	0.0155793
951.311	0.0153390
951.389	0.0154079
951.467	0.0154046
951.545	0.0153742
951.623	0.0153780
951.701	0.0153084
951.780	0.0154092
951.858	0.0154431
951.936	0.0155814
952.014	0.0153529
952.092	0.0154514
952.170	0.0154719
952.248	0.0153662
952.326	0.0155959
952.405	0.0153534
952.483	0.0153226
952.561	0.0154190
952.639	0.0154038
952.717	0.0153762
952.795	0.0153962
952.873	0.0153818
952.951	0.0153728
953.030	0.0153255
953.108	0.0153081
953.186	0.0153923
953.264	0.0154293
953.342	0.0153068
953.420	0.0154520
953.498	0.0153581
953.576	0.0153556
953.655	0.0151854
953.733	0.0152870
953.811	0.0155021
953.889	0.0154101
953.967	0.0152364
954.045	0.0152838
954.123	0.0152946
954.201	0.0153526
954.280	0.0152628
954.358	0.0152853
954.436	0.0155135
954.514	0.0152437
954.592	0.0153534
954.670	0.0153539
954.748	0.0154798
954.826	0.0151988
954.905	0.0153558
954.983	0.0153197
955.061	0.0153345
955.139	0.0152205
955.217	0.0151781
955.295	0.0152745
955.373	0.0152248
955.451	0.0151206
955.530	0.0153133
955.608	0.0151507
955.686	0.0153902
955.764	0.0152791
955.842	0.0151863
955.920	0.0153209
955.998	0.0153503
956.076	0.0153497
956.155	0.0154363
956.233	0.0153588
956.311	0.0154797
956.389	0.0153880
956.467	0.0153539
956.545	0.0154263
956.623	0.0154221
956.701	0.0152315
956.780	0.0152734
956.858	0.0153765
956.936	0.0154118
957.014	0.0153747
957.092	0.0153496
957.170	0.0153341
957.248	0.0153965
957.326	0.0153411
957.405	0.0153117
957.483	0.0154001
957.561	0.0152914
957.639	0.0153275
957.717	0.0152145
957.795	0.0153017
957.873	0.0154406
957.951	0.0152406
958.030	0.0154150
958.108	0.0153356
958.186	0.0153196
958.264	0.0155499
958.342	0.0152831
958.420	0.0153105
958.498	0.0153860
958.576	0.0152848
958.655	0.0153558
958.733	0.0152885
958.811	0.0152689
958.889	0.0153821
958.967	0.0153036
959.045	0.0153502
959.123	0.0153600
959.201	0.0154167
959.280	0.0154115
959.358	0.0152693
959.436	0.0154538
959.514	0.0153133
959.592	0.0154244
959.670	0.0153909
959.748	0.0153924
959.826	0.0153678
959.905	0.0153353
