05/20/2022	17:18:55	Ver.	4.1	UNKNOWN
Optical Delay	639.982744	Delta X		0.078125	Sweeps	1	Scan Rate	0/0
Coordinates	Axis 1	NaN	Axis 2	NaN	Axis 3	NaN	Axis 4	NaN	Axis 5	NaN	Axis 6	0.000000
TX Power	0.000000	RX Power	0.000000

639.983	0.0153036
640.061	0.0152050
640.139	0.0151802
640.217	0.0151723
640.295	0.0152710
640.373	0.0154233
640.451	0.0153698
640.530	0.0152612
640.608	0.0153570
640.686	0.0153484
640.764	0.0153345
640.842	0.0153708
640.920	0.0154942
640.998	0.0153555
641.076	0.0153636
641.155	0.0154501
641.233	0.0154607
641.311	0.0154195
641.389	0.0154005
641.467	0.0153967
641.545	0.0154169
641.623	0.0155116
641.701	0.0152154
641.780	0.0153338
641.858	0.0155042
641.936	0.0154121
642.014	0.0154134
642.092	0.0154042
642.170	0.0153820
642.248	0.0154612
642.326	0.0153722
642.405	0.0154672
642.483	0.0153715
642.561	0.0154428
642.639	0.0154212
642.717	0.0153008
642.795	0.0153722
642.873	0.0154651
642.951	0.0154911
643.030	0.0154023
643.108	0.0153268
643.186	0.0154128
643.264	0.0154506
643.342	0.0153748
643.420	0.0151927
643.498	0.0153619
643.576	0.0154511
643.655	0.0152950
643.733	0.0154775
643.811	0.0154299
643.889	0.0153221
643.967	0.0152929
644.045	0.0153735
644.123	0.0152814
644.201	0.0152549
644.280	0.0153576
644.358	0.0152234
644.436	0.0153581
644.514	0.0152937
644.592	0.0152811
644.670	0.0153687
644.748	0.0153689
644.826	0.0153059
644.905	0.0153220
644.983	0.0152633
645.061	0.0152758
645.139	0.0152306
645.217	0.0153989
645.295	0.0153037
645.373	0.0151519
645.451	0.0153343
645.530	0.0153684
645.608	0.0153517
645.686	0.0153870
645.764	0.0151222
645.842	0.0152132
645.920	0.0152792
645.998	0.0152271
646.076	0.0152695
646.155	0.0151479
646.233	0.0151965
646.311	0.0152958
646.389	0.0153121
646.467	0.0150526
646.545	0.0151852
646.623	0.0151461
646.701	0.0150918
646.780	0.0152191
646.858	0.0151895
646.936	0.0150587
647.014	0.0150096
647.092	0.0151896
647.170	0.0151185
647.248	0.0151167
647.326	0.0150920
647.405	0.0151809
647.483	0.0150824
647.561	0.0151125
647.639	0.0152768
647.717	0.0151146
647.795	0.0153020
647.873	0.0152696
647.951	0.0151019
648.030	0.0151718
648.108	0.0150800
648.186	0.0151732
648.264	0.0151711
648.342	0.0151786
648.420	0.0152923
648.498	0.0152037
648.576	0.0152040
648.655	0.0153883
648.733	0.0152128
648.811	0.0152863
648.889	0.0152629
648.967	0.0153119
649.045	0.0154197
649.123	0.0154677
649.201	0.0153234
649.280	0.0153420
649.358	0.0153432
649.436	0.0153075
649.514	0.0153878
649.592	0.0153860
649.670	0.0153924
649.748	0.0152982
649.826	0.0153855
649.905	0.0153876
649.983	0.0152307
650.061	0.0152582
650.139	0.0152805
650.217	0.0152730
650.295	0.0152234
650.373	0.0152894
650.451	0.0151595
650.530	0.0152466
650.608	0.0153396
650.686	0.0151346
650.764	0.0152354
650.842	0.0151714
650.920	0.0152160
650.998	0.0153935
651.076	0.0151228
651.155	0.0152146
651.233	0.0154373
651.311	0.0154717
651.389	0.0153994
651.467	0.0154493
651.545	0.0154408
651.623	0.0156083
651.701	0.0156236
651.780	0.0155255
651.858	0.0153925
651.936	0.0155611
652.014	0.0156525
652.092	0.0154910
652.170	0.0155936
652.248	0.0154288
652.326	0.0153890
652.405	0.0153054
652.483	0.0154347
652.561	0.0153631
652.639	0.0153730
652.717	0.0153893
652.795	0.0151925
652.873	0.0152766
652.951	0.0152108
653.030	0.0153822
653.108	0.0153471
653.186	0.0151995
653.264	0.0153295
653.342	0.0152887
653.420	0.0152193
653.498	0.0153930
653.576	0.0153602
653.655	0.0153123
653.733	0.0152804
653.811	0.0154109
653.889	0.0153740
653.967	0.0153374
654.045	0.0154025
654.123	0.0155845
654.201	0.0155704
654.280	0.0153801
654.358	0.0155769
654.436	0.0154420
654.514	0.0154214
654.592	0.0154211
654.670	0.0153044
654.748	0.0154211
654.826	0.0153828
654.905	0.0154159
654.983	0.0153840
655.061	0.0153944
655.139	0.0152453
655.217	0.0152818
655.295	0.0154025
655.373	0.0152809
655.451	0.0151969
655.530	0.0151403
655.608	0.0152247
655.686	0.0151871
655.764	0.0152348
655.842	0.0152620
655.920	0.0151717
655.998	0.0151012
656.076	0.0149897
656.155	0.0151659
656.233	0.0151367
656.311	0.0151379
656.389	0.0152329
656.467	0.0152541
656.545	0.0153118
656.623	0.0152100
656.701	0.0151890
656.780	0.0152329
656.858	0.0152881
656.936	0.0153049
657.014	0.0154017
657.092	0.0153645
657.170	0.0153762
657.248	0.0154763
657.326	0.0154951
657.405	0.0154002
657.483	0.0155263
657.561	0.0154420
657.639	0.0154368
657.717	0.0154857
657.795	0.0152854
657.873	0.0153599
657.951	0.0151228
658.030	0.0152576
658.108	0.0153484
658.186	0.0152206
658.264	0.0153470
658.342	0.0152545
658.420	0.0152933
658.498	0.0150800
658.576	0.0152211
658.655	0.0150771
658.733	0.0152663
658.811	0.0152003
658.889	0.0150896
658.967	0.0151496
659.045	0.0151434
659.123	0.0152052
659.201	0.0151955
659.280	0.0152097
659.358	0.0153836
659.436	0.0152449
659.514	0.0153483
659.592	0.0152879
659.670	0.0154050
659.748	0.0154166
659.826	0.0154023
659.905	0.0153080
659.983	0.0154588
660.061	0.0155312
660.139	0.0154546
660.217	0.0154458
660.295	0.0153740
660.373	0.0152472
660.451	0.0152161
660.530	0.0152557
660.608	0.0153593
660.686	0.0153185
660.764	0.0151984
660.842	0.0152814
660.920	0.0151363
660.998	0.0151675
661.076	0.0151980
661.155	0.0152843
661.233	0.0152236
661.311	0.0152916
661.389	0.0152663
661.467	0.0153085
661.545	0.0152322
661.623	0.0152039
661.701	0.0153600
661.780	0.0154533
661.858	0.0153720
661.936	0.0153835
662.014	0.0154759
662.092	0.0154719
662.170	0.0153137
662.248	0.0154266
662.326	0.0153311
662.405	0.0153050
662.483	0.0151807
662.561	0.0153721
662.639	0.0151420
662.717	0.0151617
662.795	0.0152164
662.873	0.0151162
662.951	0.0150912
663.030	0.0150891
663.108	0.0150423
663.186	0.0149792
663.264	0.0149785
663.342	0.0150091
663.420	0.0149569
663.498	0.0149710
663.576	0.0150778
663.655	0.0150211
663.733	0.0150798
663.811	0.0149324
663.889	0.0149957
663.967	0.0151120
664.045	0.0151286
664.123	0.0151657
664.201	0.0150854
664.280	0.0151191
664.358	0.0150798
664.436	0.0151452
664.514	0.0151845
664.592	0.0151778
664.670	0.0151728
664.748	0.0152918
664.826	0.0153611
664.905	0.0154759
664.983	0.0154911
665.061	0.0155161
665.139	0.0156020
665.217	0.0156294
665.295	0.0155628
665.373	0.0155145
665.451	0.0156305
665.530	0.0157409
665.608	0.0156310
665.686	0.0155608
665.764	0.0155137
665.842	0.0156065
665.920	0.0154440
665.998	0.0154400
666.076	0.0152652
666.155	0.0154855
666.233	0.0155292
666.311	0.0156165
666.389	0.0154657
666.467	0.0155291
666.545	0.0153964
666.623	0.0155753
666.701	0.0155542
666.780	0.0155198
666.858	0.0154044
666.936	0.0153732
667.014	0.0153696
667.092	0.0154758
667.170	0.0154691
667.248	0.0152355
667.326	0.0151662
667.405	0.0152156
667.483	0.0151533
667.561	0.0150893
667.639	0.0150777
667.717	0.0149747
667.795	0.0149335
667.873	0.0149169
667.951	0.0149628
668.030	0.0148709
668.108	0.0148488
668.186	0.0146908
668.264	0.0148043
668.342	0.0147161
668.420	0.0145255
668.498	0.0147193
668.576	0.0147404
668.655	0.0147843
668.733	0.0147089
668.811	0.0148689
668.889	0.0146241
668.967	0.0148154
669.045	0.0148911
669.123	0.0149673
669.201	0.0149099
669.280	0.0151274
669.358	0.0150817
669.436	0.0151575
669.514	0.0152359
669.592	0.0153313
669.670	0.0154008
669.748	0.0154790
669.826	0.0154729
669.905	0.0155814
669.983	0.0155844
670.061	0.0156315
670.139	0.0155847
670.217	0.0156097
670.295	0.0157080
670.373	0.0155870
670.451	0.0156179
670.530	0.0156374
670.608	0.0154266
670.686	0.0155183
670.764	0.0155484
670.842	0.0155522
670.920	0.0155191
670.998	0.0155437
671.076	0.0154034
671.155	0.0154643
671.233	0.0155312
671.311	0.0154305
671.389	0.0154842
671.467	0.0155549
671.545	0.0155593
671.623	0.0155087
671.701	0.0155570
671.780	0.0155339
671.858	0.0156347
671.936	0.0154898
672.014	0.0155541
672.092	0.0155007
672.170	0.0156134
672.248	0.0154501
672.326	0.0153841
672.405	0.0154035
672.483	0.0153370
672.561	0.0152526
672.639	0.0153426
672.717	0.0151936
672.795	0.0151671
672.873	0.0150668
672.951	0.0149805
673.030	0.0149033
673.108	0.0147702
673.186	0.0147199
673.264	0.0146135
673.342	0.0145300
673.420	0.0144466
673.498	0.0143749
673.576	0.0144402
673.655	0.0144540
673.733	0.0143504
673.811	0.0144166
673.889	0.0144593
673.967	0.0143579
674.045	0.0143474
674.123	0.0145137
674.201	0.0145744
674.280	0.0144936
674.358	0.0146747
674.436	0.0147595
674.514	0.0148600
674.592	0.0149599
674.670	0.0152837
674.748	0.0153682
674.826	0.0155894
674.905	0.0154868
674.983	0.0155783
675.061	0.0157117
675.139	0.0157939
675.217	0.0159521
675.295	0.0159374
675.373	0.0160191
675.451	0.0161851
675.530	0.0162724
675.608	0.0164687
675.686	0.0162794
675.764	0.0164040
675.842	0.0164316
675.920	0.0164827
675.998	0.0161876
676.076	0.0162763
676.155	0.0163262
676.233	0.0162786
676.311	0.0163072
676.389	0.0161919
676.467	0.0161229
676.545	0.0160053
676.623	0.0158878
676.701	0.0157394
676.780	0.0155408
676.858	0.0156372
676.936	0.0154162
677.014	0.0153664
677.092	0.0152770
677.170	0.0150334
677.248	0.0150069
677.326	0.0149392
677.405	0.0148494
677.483	0.0147243
677.561	0.0146230
677.639	0.0147398
677.717	0.0146042
677.795	0.0145839
677.873	0.0146274
677.951	0.0144967
678.030	0.0145488
678.108	0.0145810
678.186	0.0144710
678.264	0.0146006
678.342	0.0143731
678.420	0.0144282
678.498	0.0146175
678.576	0.0146451
678.655	0.0144944
678.733	0.0147341
678.811	0.0148476
678.889	0.0147810
678.967	0.0148557
679.045	0.0150101
679.123	0.0150491
679.201	0.0150365
679.280	0.0151128
679.358	0.0152485
679.436	0.0154642
679.514	0.0154279
679.592	0.0155259
679.670	0.0153974
679.748	0.0156524
679.826	0.0156669
679.905	0.0156805
679.983	0.0157442
680.061	0.0159023
680.139	0.0159685
680.217	0.0158675
680.295	0.0158575
680.373	0.0159977
680.451	0.0159142
680.530	0.0158143
680.608	0.0159552
680.686	0.0158996
680.764	0.0159465
680.842	0.0158194
680.920	0.0158214
680.998	0.0156792
681.076	0.0155689
681.155	0.0156401
681.233	0.0155984
681.311	0.0154907
681.389	0.0153294
681.467	0.0154729
681.545	0.0154509
681.623	0.0152962
681.701	0.0153156
681.780	0.0152212
681.858	0.0151148
681.936	0.0151067
682.014	0.0151337
682.092	0.0150953
682.170	0.0151285
682.248	0.0151337
682.326	0.0150141
682.405	0.0149470
682.483	0.0149059
682.561	0.0149574
682.639	0.0150659
682.717	0.0147707
682.795	0.0149551
682.873	0.0151006
682.951	0.0149772
683.030	0.0150072
683.108	0.0151153
683.186	0.0149725
683.264	0.0150907
683.342	0.0152393
683.420	0.0151334
683.498	0.0152341
683.576	0.0153283
683.655	0.0154479
683.733	0.0153411
683.811	0.0153590
683.889	0.0155482
683.967	0.0154465
684.045	0.0154475
684.123	0.0155676
684.201	0.0155212
684.280	0.0155556
684.358	0.0154617
684.436	0.0153854
684.514	0.0153487
684.592	0.0153070
684.670	0.0153296
684.748	0.0152161
684.826	0.0151417
684.905	0.0153230
684.983	0.0152090
685.061	0.0151701
685.139	0.0151893
685.217	0.0152055
685.295	0.0151559
685.373	0.0153191
685.451	0.0152110
685.530	0.0152083
685.608	0.0150757
685.686	0.0151301
685.764	0.0152900
685.842	0.0151521
685.920	0.0151112
685.998	0.0151185
686.076	0.0151207
686.155	0.0151894
686.233	0.0151585
686.311	0.0151776
686.389	0.0151959
686.467	0.0151754
686.545	0.0152266
686.623	0.0151169
686.701	0.0152323
686.780	0.0152625
686.858	0.0153609
686.936	0.0153939
687.014	0.0155995
687.092	0.0154741
687.170	0.0155602
687.248	0.0154900
687.326	0.0154071
687.405	0.0154829
687.483	0.0156056
687.561	0.0155557
687.639	0.0156599
687.717	0.0155804
687.795	0.0154807
687.873	0.0155087
687.951	0.0154109
688.030	0.0156982
688.108	0.0155225
688.186	0.0155910
688.264	0.0155833
688.342	0.0156010
688.420	0.0155407
688.498	0.0155088
688.576	0.0155298
688.655	0.0156483
688.733	0.0154617
688.811	0.0154174
688.889	0.0155112
688.967	0.0153356
689.045	0.0155154
689.123	0.0153099
689.201	0.0152046
689.280	0.0152953
689.358	0.0152520
689.436	0.0151688
689.514	0.0150857
689.592	0.0149567
689.670	0.0148763
689.748	0.0149775
689.826	0.0149512
689.905	0.0149010
689.983	0.0147174
690.061	0.0148351
690.139	0.0148189
690.217	0.0148464
690.295	0.0148187
690.373	0.0149671
690.451	0.0150492
690.530	0.0150266
690.608	0.0151343
690.686	0.0152497
690.764	0.0151678
690.842	0.0153378
690.920	0.0153211
690.998	0.0154265
691.076	0.0154336
691.155	0.0155408
691.233	0.0155694
691.311	0.0156226
691.389	0.0154890
691.467	0.0157655
691.545	0.0156506
691.623	0.0157767
691.701	0.0156955
691.780	0.0157092
691.858	0.0156572
691.936	0.0156947
692.014	0.0154251
692.092	0.0154916
692.170	0.0155794
692.248	0.0156264
692.326	0.0156997
692.405	0.0154120
692.483	0.0156138
692.561	0.0155036
692.639	0.0155565
692.717	0.0154547
692.795	0.0153139
692.873	0.0153026
692.951	0.0153656
693.030	0.0153087
693.108	0.0153728
693.186	0.0151540
693.264	0.0150403
693.342	0.0150879
693.420	0.0149149
693.498	0.0149081
693.576	0.0148389
693.655	0.0148985
693.733	0.0148001
693.811	0.0147032
693.889	0.0149291
693.967	0.0148293
694.045	0.0148145
694.123	0.0149023
694.201	0.0150593
694.280	0.0149555
694.358	0.0151116
694.436	0.0152513
694.514	0.0153141
694.592	0.0152647
694.670	0.0154460
694.748	0.0156026
694.826	0.0156645
694.905	0.0158227
694.983	0.0158190
695.061	0.0158929
695.139	0.0159525
695.217	0.0159190
695.295	0.0160848
695.373	0.0159156
695.451	0.0159400
695.530	0.0159393
695.608	0.0159294
695.686	0.0157898
695.764	0.0158412
695.842	0.0159561
695.920	0.0157224
695.998	0.0156974
696.076	0.0157418
696.155	0.0157171
696.233	0.0156289
696.311	0.0154423
696.389	0.0156325
696.467	0.0156317
696.545	0.0156285
696.623	0.0153851
696.701	0.0154797
696.780	0.0153867
696.858	0.0154215
696.936	0.0154185
697.014	0.0153942
697.092	0.0152885
697.170	0.0153447
697.248	0.0152918
697.326	0.0152355
697.405	0.0152026
697.483	0.0152312
697.561	0.0153239
697.639	0.0152129
697.717	0.0151179
697.795	0.0152267
697.873	0.0150716
697.951	0.0150766
698.030	0.0149673
698.108	0.0148576
698.186	0.0148630
698.264	0.0146793
698.342	0.0146291
698.420	0.0145173
698.498	0.0146503
698.576	0.0145412
698.655	0.0146059
698.733	0.0145405
698.811	0.0145708
698.889	0.0146082
698.967	0.0146464
699.045	0.0146561
699.123	0.0147023
699.201	0.0146619
699.280	0.0148280
699.358	0.0149168
699.436	0.0149738
699.514	0.0151437
699.592	0.0151079
699.670	0.0152899
699.748	0.0153996
699.826	0.0154221
699.905	0.0154210
699.983	0.0153254
700.061	0.0155174
700.139	0.0157458
700.217	0.0158633
700.295	0.0157643
700.373	0.0158556
700.451	0.0158464
700.530	0.0159628
700.608	0.0158133
700.686	0.0159398
700.764	0.0160346
700.842	0.0159910
700.920	0.0160371
700.998	0.0161124
701.076	0.0159601
701.155	0.0158334
701.233	0.0158380
701.311	0.0161578
701.389	0.0158287
701.467	0.0158884
701.545	0.0158619
701.623	0.0158126
701.701	0.0158496
701.780	0.0157348
701.858	0.0156010
701.936	0.0155999
702.014	0.0156357
702.092	0.0153964
702.170	0.0151661
702.248	0.0154230
702.326	0.0151435
702.405	0.0149939
702.483	0.0148701
702.561	0.0149184
702.639	0.0148774
702.717	0.0146925
702.795	0.0147076
702.873	0.0147241
702.951	0.0146865
703.030	0.0146321
703.108	0.0147139
703.186	0.0146508
703.264	0.0147515
703.342	0.0147447
703.420	0.0145944
703.498	0.0147617
703.576	0.0147478
703.655	0.0149638
703.733	0.0149583
703.811	0.0150789
703.889	0.0149336
703.967	0.0148800
704.045	0.0151092
704.123	0.0152168
704.201	0.0151366
704.280	0.0152710
704.358	0.0154026
704.436	0.0152724
704.514	0.0152420
704.592	0.0154518
704.670	0.0155275
704.748	0.0155336
704.826	0.0155450
704.905	0.0155653
704.983	0.0155279
705.061	0.0153905
705.139	0.0154630
705.217	0.0154842
705.295	0.0153744
705.373	0.0154066
705.451	0.0155624
705.530	0.0156310
705.608	0.0154842
705.686	0.0155685
705.764	0.0155844
705.842	0.0156269
705.920	0.0156301
705.998	0.0156571
706.076	0.0157230
706.155	0.0155421
706.233	0.0156036
706.311	0.0156198
706.389	0.0156057
706.467	0.0157610
706.545	0.0156680
706.623	0.0156438
706.701	0.0156212
706.780	0.0156833
706.858	0.0156747
706.936	0.0155670
707.014	0.0157088
707.092	0.0156305
707.170	0.0154987
707.248	0.0154945
707.326	0.0155956
707.405	0.0154564
707.483	0.0155930
707.561	0.0155921
707.639	0.0155578
707.717	0.0153221
707.795	0.0153819
707.873	0.0154826
707.951	0.0153959
708.030	0.0152228
708.108	0.0151992
708.186	0.0152631
708.264	0.0151551
708.342	0.0150599
708.420	0.0151634
708.498	0.0153040
708.576	0.0151672
708.655	0.0151777
708.733	0.0152063
708.811	0.0150955
708.889	0.0152367
708.967	0.0152711
709.045	0.0153587
709.123	0.0153601
709.201	0.0152757
709.280	0.0153030
709.358	0.0152982
709.436	0.0153510
709.514	0.0152969
709.592	0.0153113
709.670	0.0153658
709.748	0.0154499
709.826	0.0152793
709.905	0.0153839
709.983	0.0152637
710.061	0.0152666
710.139	0.0154060
710.217	0.0154450
710.295	0.0154297
710.373	0.0152744
710.451	0.0153071
710.530	0.0151762
710.608	0.0153526
710.686	0.0153158
710.764	0.0152026
710.842	0.0152567
710.920	0.0154260
710.998	0.0153194
711.076	0.0153952
711.155	0.0154517
711.233	0.0154808
711.311	0.0155730
711.389	0.0154360
711.467	0.0155202
711.545	0.0157446
711.623	0.0156527
711.701	0.0157101
711.780	0.0158064
711.858	0.0156739
711.936	0.0155181
712.014	0.0155777
712.092	0.0155959
712.170	0.0154630
712.248	0.0155515
712.326	0.0153844
712.405	0.0155331
712.483	0.0154830
712.561	0.0152686
712.639	0.0151931
712.717	0.0152411
712.795	0.0152026
712.873	0.0151094
712.951	0.0151586
713.030	0.0150094
713.108	0.0150504
713.186	0.0150908
713.264	0.0150587
713.342	0.0149998
713.420	0.0149390
713.498	0.0150627
713.576	0.0150142
713.655	0.0149480
713.733	0.0148767
713.811	0.0150896
713.889	0.0151158
713.967	0.0152339
714.045	0.0153780
714.123	0.0152071
714.201	0.0153145
714.280	0.0152868
714.358	0.0153104
714.436	0.0152950
714.514	0.0153767
714.592	0.0154563
714.670	0.0152701
714.748	0.0154092
714.826	0.0156053
714.905	0.0154825
714.983	0.0156101
715.061	0.0155985
715.139	0.0156155
715.217	0.0155814
715.295	0.0155937
715.373	0.0157230
715.451	0.0154271
715.530	0.0155785
715.608	0.0156684
715.686	0.0155172
715.764	0.0154263
715.842	0.0152756
715.920	0.0153104
715.998	0.0153454
716.076	0.0152702
716.155	0.0151818
716.233	0.0151834
716.311	0.0151299
716.389	0.0151878
716.467	0.0151017
716.545	0.0151624
716.623	0.0150293
716.701	0.0150398
716.780	0.0148750
716.858	0.0149611
716.936	0.0150605
717.014	0.0149615
717.092	0.0149178
717.170	0.0150513
717.248	0.0150631
717.326	0.0150683
717.405	0.0149660
717.483	0.0148896
717.561	0.0148531
717.639	0.0150560
717.717	0.0149899
717.795	0.0149989
717.873	0.0149127
717.951	0.0148925
718.030	0.0150475
718.108	0.0152528
718.186	0.0151196
718.264	0.0150616
718.342	0.0151656
718.420	0.0151659
718.498	0.0153651
718.576	0.0155128
718.655	0.0154512
718.733	0.0155548
718.811	0.0155959
718.889	0.0156728
718.967	0.0157520
719.045	0.0157291
719.123	0.0156091
719.201	0.0157426
719.280	0.0158114
719.358	0.0155756
719.436	0.0156630
719.514	0.0156194
719.592	0.0155496
719.670	0.0154609
719.748	0.0154873
719.826	0.0154395
719.905	0.0155184
719.983	0.0153205
720.061	0.0152832
720.139	0.0153534
720.217	0.0152776
720.295	0.0152443
720.373	0.0152629
720.451	0.0152245
720.530	0.0152915
720.608	0.0153588
720.686	0.0152318
720.764	0.0151434
720.842	0.0152876
720.920	0.0152765
720.998	0.0151949
721.076	0.0151861
721.155	0.0150846
721.233	0.0151398
721.311	0.0153983
721.389	0.0151575
721.467	0.0153243
721.545	0.0152122
721.623	0.0153004
721.701	0.0151774
721.780	0.0151075
721.858	0.0153182
721.936	0.0153520
722.014	0.0153526
722.092	0.0153183
722.170	0.0154376
722.248	0.0152715
722.326	0.0153193
722.405	0.0154187
722.483	0.0155041
722.561	0.0155344
722.639	0.0153416
722.717	0.0153286
722.795	0.0154810
722.873	0.0154802
722.951	0.0153712
723.030	0.0151206
723.108	0.0153789
723.186	0.0152898
723.264	0.0151233
723.342	0.0151765
723.420	0.0151168
723.498	0.0151099
723.576	0.0151810
723.655	0.0151473
723.733	0.0153173
723.811	0.0152149
723.889	0.0151343
723.967	0.0152310
724.045	0.0151941
724.123	0.0153783
724.201	0.0154288
724.280	0.0154181
724.358	0.0155329
724.436	0.0154992
724.514	0.0155882
724.592	0.0154906
724.670	0.0156402
724.748	0.0156066
724.826	0.0156771
724.905	0.0156818
724.983	0.0156866
725.061	0.0155376
725.139	0.0155159
725.217	0.0155985
725.295	0.0156161
725.373	0.0156693
725.451	0.0156152
725.530	0.0155643
725.608	0.0154681
725.686	0.0154508
725.764	0.0154997
725.842	0.0155157
725.920	0.0154401
725.998	0.0155148
726.076	0.0154642
726.155	0.0153539
726.233	0.0154520
726.311	0.0155525
726.389	0.0152044
726.467	0.0153862
726.545	0.0153802
726.623	0.0153773
726.701	0.0153472
726.780	0.0152757
726.858	0.0153411
726.936	0.0153278
727.014	0.0152406
727.092	0.0153198
727.170	0.0151486
727.248	0.0151817
727.326	0.0152959
727.405	0.0151154
727.483	0.0149744
727.561	0.0149442
727.639	0.0148605
727.717	0.0148631
727.795	0.0148085
727.873	0.0146693
727.951	0.0148074
728.030	0.0146497
728.108	0.0145383
728.186	0.0146830
728.264	0.0148271
728.342	0.0147433
728.420	0.0147272
728.498	0.0148125
728.576	0.0148708
728.655	0.0147906
728.733	0.0150106
728.811	0.0152155
728.889	0.0152357
728.967	0.0153188
729.045	0.0152594
729.123	0.0154395
729.201	0.0155746
729.280	0.0155863
729.358	0.0156997
729.436	0.0157902
729.514	0.0157889
729.592	0.0158511
729.670	0.0158487
729.748	0.0157970
729.826	0.0157876
729.905	0.0158915
729.983	0.0159818
730.061	0.0158560
730.139	0.0157366
730.217	0.0156333
730.295	0.0157893
730.373	0.0155157
730.451	0.0155306
730.530	0.0155213
730.608	0.0153530
730.686	0.0155241
730.764	0.0155086
730.842	0.0152856
730.920	0.0152810
730.998	0.0153202
731.076	0.0154117
731.155	0.0151390
731.233	0.0153073
731.311	0.0152506
731.389	0.0152041
731.467	0.0152949
731.545	0.0151674
731.623	0.0151660
731.701	0.0153078
731.780	0.0150496
731.858	0.0151570
731.936	0.0151056
732.014	0.0152560
732.092	0.0152295
732.170	0.0152762
732.248	0.0151075
732.326	0.0152808
732.405	0.0153107
732.483	0.0153921
732.561	0.0151219
732.639	0.0153174
732.717	0.0152475
732.795	0.0153481
732.873	0.0154077
732.951	0.0151577
733.030	0.0151188
733.108	0.0152696
733.186	0.0154357
733.264	0.0152159
733.342	0.0152985
733.420	0.0153404
733.498	0.0153090
733.576	0.0152150
733.655	0.0151766
733.733	0.0151347
733.811	0.0152184
733.889	0.0152388
733.967	0.0154142
734.045	0.0152247
734.123	0.0152728
734.201	0.0152697
734.280	0.0154381
734.358	0.0154105
734.436	0.0153909
734.514	0.0155522
734.592	0.0155766
734.670	0.0153982
734.748	0.0156168
734.826	0.0154894
734.905	0.0154173
734.983	0.0153815
735.061	0.0154621
735.139	0.0154678
735.217	0.0153903
735.295	0.0153197
735.373	0.0154067
735.451	0.0153967
735.530	0.0154282
735.608	0.0152492
735.686	0.0152512
735.764	0.0152377
735.842	0.0152229
735.920	0.0152363
735.998	0.0152280
736.076	0.0151453
736.155	0.0151727
736.233	0.0151333
736.311	0.0150985
736.389	0.0152219
736.467	0.0152837
736.545	0.0151510
736.623	0.0152319
736.701	0.0151350
736.780	0.0150682
736.858	0.0152352
736.936	0.0151046
737.014	0.0152121
737.092	0.0151690
737.170	0.0152228
737.248	0.0151786
737.326	0.0151427
737.405	0.0152351
737.483	0.0151323
737.561	0.0151897
737.639	0.0152576
737.717	0.0153069
737.795	0.0151463
737.873	0.0153138
737.951	0.0152963
738.030	0.0152671
738.108	0.0152796
738.186	0.0154301
738.264	0.0154029
738.342	0.0153725
738.420	0.0153612
738.498	0.0153843
738.576	0.0154298
738.655	0.0155048
738.733	0.0154990
738.811	0.0154118
738.889	0.0154257
738.967	0.0153457
739.045	0.0152679
739.123	0.0153319
739.201	0.0153218
739.280	0.0151893
739.358	0.0151540
739.436	0.0153033
739.514	0.0153426
739.592	0.0151868
739.670	0.0152785
739.748	0.0152136
739.826	0.0151167
739.905	0.0152351
739.983	0.0151992
740.061	0.0151385
740.139	0.0152065
740.217	0.0152453
740.295	0.0152970
740.373	0.0152924
740.451	0.0151460
740.530	0.0153323
740.608	0.0153896
740.686	0.0152253
740.764	0.0152004
740.842	0.0152864
740.920	0.0151507
740.998	0.0152334
741.076	0.0150181
741.155	0.0150290
741.233	0.0151222
741.311	0.0152056
741.389	0.0152063
741.467	0.0151192
741.545	0.0151925
741.623	0.0152011
741.701	0.0151846
741.780	0.0150869
741.858	0.0152198
741.936	0.0153367
742.014	0.0153706
742.092	0.0153193
742.170	0.0153388
742.248	0.0152994
742.326	0.0153120
742.405	0.0154250
742.483	0.0154821
742.561	0.0154004
742.639	0.0153772
742.717	0.0155016
742.795	0.0154186
742.873	0.0154251
742.951	0.0154601
743.030	0.0154881
743.108	0.0154707
743.186	0.0154321
743.264	0.0152364
743.342	0.0153977
743.420	0.0154073
743.498	0.0153796
743.576	0.0152596
743.655	0.0152865
743.733	0.0154125
743.811	0.0153912
743.889	0.0153121
743.967	0.0152701
744.045	0.0152847
744.123	0.0154129
744.201	0.0152894
744.280	0.0151757
744.358	0.0153837
744.436	0.0153184
744.514	0.0152850
744.592	0.0154379
744.670	0.0155768
744.748	0.0152988
744.826	0.0154601
744.905	0.0154517
744.983	0.0153662
745.061	0.0154377
745.139	0.0154546
745.217	0.0155175
745.295	0.0154273
745.373	0.0154057
745.451	0.0154051
745.530	0.0153903
745.608	0.0154011
745.686	0.0153356
745.764	0.0154032
745.842	0.0152707
745.920	0.0151384
745.998	0.0153233
746.076	0.0152853
746.155	0.0151958
746.233	0.0152489
746.311	0.0152172
746.389	0.0153146
746.467	0.0152805
746.545	0.0152624
746.623	0.0152618
746.701	0.0151471
746.780	0.0152862
746.858	0.0152918
746.936	0.0152864
747.014	0.0152551
747.092	0.0152625
747.170	0.0153010
747.248	0.0151104
747.326	0.0153613
747.405	0.0152340
747.483	0.0151549
747.561	0.0153926
747.639	0.0152219
747.717	0.0151730
747.795	0.0153912
747.873	0.0152841
747.951	0.0152158
748.030	0.0152097
748.108	0.0152651
748.186	0.0152354
748.264	0.0151658
748.342	0.0151727
748.420	0.0152435
748.498	0.0152364
748.576	0.0150808
748.655	0.0150912
748.733	0.0151978
748.811	0.0152428
748.889	0.0151795
748.967	0.0150481
749.045	0.0151981
749.123	0.0151803
749.201	0.0150896
749.280	0.0152361
749.358	0.0153175
749.436	0.0153864
749.514	0.0152541
749.592	0.0153076
749.670	0.0153485
749.748	0.0153835
749.826	0.0155018
749.905	0.0154400
749.983	0.0155576
750.061	0.0156651
750.139	0.0155347
750.217	0.0155949
750.295	0.0155127
750.373	0.0156602
750.451	0.0155476
750.530	0.0156220
750.608	0.0154127
750.686	0.0154613
750.764	0.0154639
750.842	0.0154986
750.920	0.0154350
750.998	0.0154520
751.076	0.0153728
751.155	0.0154559
751.233	0.0154660
751.311	0.0152821
751.389	0.0153689
751.467	0.0153121
751.545	0.0151836
751.623	0.0151900
751.701	0.0152029
751.780	0.0151467
751.858	0.0150673
751.936	0.0149644
752.014	0.0150256
752.092	0.0151064
752.170	0.0149016
752.248	0.0149744
752.326	0.0148798
752.405	0.0149549
752.483	0.0150463
752.561	0.0148866
752.639	0.0150518
752.717	0.0150560
752.795	0.0150774
752.873	0.0150436
752.951	0.0151457
753.030	0.0151917
753.108	0.0152203
753.186	0.0152813
753.264	0.0153154
753.342	0.0154755
753.420	0.0152646
753.498	0.0154412
753.576	0.0155006
753.655	0.0155337
753.733	0.0155406
753.811	0.0155540
753.889	0.0155559
753.967	0.0156387
754.045	0.0157477
754.123	0.0155541
754.201	0.0154471
754.280	0.0155209
754.358	0.0154853
754.436	0.0153904
754.514	0.0153455
754.592	0.0153840
754.670	0.0153261
754.748	0.0153809
754.826	0.0153278
754.905	0.0153713
754.983	0.0152195
755.061	0.0153185
755.139	0.0152376
755.217	0.0152319
755.295	0.0152490
755.373	0.0152761
755.451	0.0152898
755.530	0.0153407
755.608	0.0152136
755.686	0.0150966
755.764	0.0153346
755.842	0.0153537
755.920	0.0151842
755.998	0.0153222
756.076	0.0151293
756.155	0.0153154
756.233	0.0152956
756.311	0.0153044
756.389	0.0152561
756.467	0.0152075
756.545	0.0151952
756.623	0.0151191
756.701	0.0151339
756.780	0.0152538
756.858	0.0152234
756.936	0.0152543
757.014	0.0150902
757.092	0.0150263
757.170	0.0150982
757.248	0.0151199
757.326	0.0151195
757.405	0.0151192
757.483	0.0150493
757.561	0.0149161
757.639	0.0150322
757.717	0.0150201
757.795	0.0149758
757.873	0.0150842
757.951	0.0150314
758.030	0.0150904
758.108	0.0151259
758.186	0.0151296
758.264	0.0152275
758.342	0.0152331
758.420	0.0152772
758.498	0.0153581
758.576	0.0152883
758.655	0.0152599
758.733	0.0154606
758.811	0.0156034
758.889	0.0154837
758.967	0.0155500
759.045	0.0156693
759.123	0.0155774
759.201	0.0156344
759.280	0.0155894
759.358	0.0155380
759.436	0.0153991
759.514	0.0154156
759.592	0.0153858
759.670	0.0154540
759.748	0.0153358
759.826	0.0152353
759.905	0.0152476
759.983	0.0151835
760.061	0.0150313
760.139	0.0150189
760.217	0.0149726
760.295	0.0149544
760.373	0.0148151
760.451	0.0149667
760.530	0.0148035
760.608	0.0147555
760.686	0.0147393
760.764	0.0147906
760.842	0.0148598
760.920	0.0149184
760.998	0.0148735
761.076	0.0150042
761.155	0.0150384
761.233	0.0151991
761.311	0.0151031
761.389	0.0149926
761.467	0.0151237
761.545	0.0152026
761.623	0.0152486
761.701	0.0152356
761.780	0.0153822
761.858	0.0154606
761.936	0.0152643
762.014	0.0154457
762.092	0.0154849
762.170	0.0155707
762.248	0.0155347
762.326	0.0156268
762.405	0.0153964
762.483	0.0155187
762.561	0.0156072
762.639	0.0155513
762.717	0.0156689
762.795	0.0154823
762.873	0.0155647
762.951	0.0154671
763.030	0.0155145
763.108	0.0154478
763.186	0.0155447
763.264	0.0153768
763.342	0.0152679
763.420	0.0154757
763.498	0.0153336
763.576	0.0152840
763.655	0.0151640
763.733	0.0151472
763.811	0.0151345
763.889	0.0152777
763.967	0.0151717
764.045	0.0150910
764.123	0.0150321
764.201	0.0152107
764.280	0.0152004
764.358	0.0152994
764.436	0.0153128
764.514	0.0152168
764.592	0.0153606
764.670	0.0153064
764.748	0.0153563
764.826	0.0153091
764.905	0.0153667
764.983	0.0152847
765.061	0.0154376
765.139	0.0154632
765.217	0.0152891
765.295	0.0153783
765.373	0.0153988
765.451	0.0154457
765.530	0.0152280
765.608	0.0154373
765.686	0.0153462
765.764	0.0152900
765.842	0.0153706
765.920	0.0151631
765.998	0.0151138
766.076	0.0153026
766.155	0.0151707
766.233	0.0151205
766.311	0.0151153
766.389	0.0153100
766.467	0.0152753
766.545	0.0153056
766.623	0.0154108
766.701	0.0153930
766.780	0.0152538
766.858	0.0153767
766.936	0.0152659
767.014	0.0154615
767.092	0.0155780
767.170	0.0154451
767.248	0.0152853
767.326	0.0154180
767.405	0.0155348
767.483	0.0154144
767.561	0.0154113
767.639	0.0155542
767.717	0.0156418
767.795	0.0154713
767.873	0.0155345
767.951	0.0154791
768.030	0.0155552
768.108	0.0153554
768.186	0.0155486
768.264	0.0155157
768.342	0.0155277
768.420	0.0154565
768.498	0.0153731
768.576	0.0153815
768.655	0.0152958
768.733	0.0155008
768.811	0.0153038
768.889	0.0154161
768.967	0.0153445
769.045	0.0152083
769.123	0.0152352
769.201	0.0151546
769.280	0.0151476
769.358	0.0150761
769.436	0.0151191
769.514	0.0150111
769.592	0.0149458
769.670	0.0149527
769.748	0.0148918
769.826	0.0149982
769.905	0.0151260
769.983	0.0149680
770.061	0.0150291
770.139	0.0151231
770.217	0.0150039
770.295	0.0150626
770.373	0.0150890
770.451	0.0151564
770.530	0.0151575
770.608	0.0151312
770.686	0.0154148
770.764	0.0152795
770.842	0.0152332
770.920	0.0153237
770.998	0.0152342
771.076	0.0152443
771.155	0.0152283
771.233	0.0152642
771.311	0.0154375
771.389	0.0153412
771.467	0.0153049
771.545	0.0153076
771.623	0.0153761
771.701	0.0152856
771.780	0.0153371
771.858	0.0153968
771.936	0.0153430
772.014	0.0154709
772.092	0.0153761
772.170	0.0155322
772.248	0.0155166
772.326	0.0154971
772.405	0.0155405
772.483	0.0156485
772.561	0.0155570
772.639	0.0154529
772.717	0.0155376
772.795	0.0155515
772.873	0.0155972
772.951	0.0156087
773.030	0.0156589
773.108	0.0155890
773.186	0.0157381
773.264	0.0155505
773.342	0.0154962
773.420	0.0154369
773.498	0.0155096
773.576	0.0154440
773.655	0.0154591
773.733	0.0154709
773.811	0.0152378
773.889	0.0152732
773.967	0.0152025
774.045	0.0152145
774.123	0.0150597
774.201	0.0151205
774.280	0.0150094
774.358	0.0150506
774.436	0.0150620
774.514	0.0150597
774.592	0.0149929
774.670	0.0149959
774.748	0.0148956
774.826	0.0149713
774.905	0.0149119
774.983	0.0148967
775.061	0.0148773
775.139	0.0148996
775.217	0.0149992
775.295	0.0149826
775.373	0.0149095
775.451	0.0151416
775.530	0.0150590
775.608	0.0151199
775.686	0.0152026
775.764	0.0151435
775.842	0.0153057
775.920	0.0152125
775.998	0.0152896
776.076	0.0152697
776.155	0.0152821
776.233	0.0154380
776.311	0.0153690
776.389	0.0154159
776.467	0.0155272
776.545	0.0153999
776.623	0.0154377
776.701	0.0155387
776.780	0.0155122
776.858	0.0155703
776.936	0.0155007
777.014	0.0155400
777.092	0.0155465
777.170	0.0155138
777.248	0.0156481
777.326	0.0154922
777.405	0.0155007
777.483	0.0155497
777.561	0.0154561
777.639	0.0155986
777.717	0.0153175
777.795	0.0153671
777.873	0.0153795
777.951	0.0154574
778.030	0.0153753
778.108	0.0154145
778.186	0.0151237
778.264	0.0152499
778.342	0.0152113
778.420	0.0153281
778.498	0.0152294
778.576	0.0152041
778.655	0.0152517
778.733	0.0150945
778.811	0.0152851
778.889	0.0151973
778.967	0.0150571
779.045	0.0152058
779.123	0.0151933
779.201	0.0152981
779.280	0.0152728
779.358	0.0150817
779.436	0.0151444
779.514	0.0150946
779.592	0.0152203
779.670	0.0150384
779.748	0.0150774
779.826	0.0150842
779.905	0.0151691
779.983	0.0149992
780.061	0.0150559
780.139	0.0149957
780.217	0.0151101
780.295	0.0151503
780.373	0.0151500
780.451	0.0150397
780.530	0.0151009
780.608	0.0149982
780.686	0.0151437
780.764	0.0152501
780.842	0.0151046
780.920	0.0152295
780.998	0.0152531
781.076	0.0153321
781.155	0.0153421
781.233	0.0153198
781.311	0.0152767
781.389	0.0153145
781.467	0.0154734
781.545	0.0152771
781.623	0.0152913
781.701	0.0152935
781.780	0.0153896
781.858	0.0153636
781.936	0.0153323
782.014	0.0153471
782.092	0.0154838
782.170	0.0154386
782.248	0.0154112
782.326	0.0154730
782.405	0.0154233
782.483	0.0154076
782.561	0.0154762
782.639	0.0153701
782.717	0.0154816
782.795	0.0154820
782.873	0.0155915
782.951	0.0154853
783.030	0.0153214
783.108	0.0153445
783.186	0.0153179
783.264	0.0153265
783.342	0.0153477
783.420	0.0155212
783.498	0.0152710
783.576	0.0152003
783.655	0.0152564
783.733	0.0151099
783.811	0.0151937
783.889	0.0153374
783.967	0.0151453
784.045	0.0152556
784.123	0.0151436
784.201	0.0151076
784.280	0.0151804
784.358	0.0151672
784.436	0.0151779
784.514	0.0151627
784.592	0.0151685
784.670	0.0151778
784.748	0.0150328
784.826	0.0153040
784.905	0.0153134
784.983	0.0151600
785.061	0.0152322
785.139	0.0151862
785.217	0.0153299
785.295	0.0152692
785.373	0.0152169
785.451	0.0153600
785.530	0.0152251
785.608	0.0152820
785.686	0.0153831
785.764	0.0152930
785.842	0.0153397
785.920	0.0152178
785.998	0.0151437
786.076	0.0152629
786.155	0.0153986
786.233	0.0153014
786.311	0.0152992
786.389	0.0152821
786.467	0.0151985
786.545	0.0152404
786.623	0.0153098
786.701	0.0154266
786.780	0.0153825
786.858	0.0153735
786.936	0.0153456
787.014	0.0153946
787.092	0.0155267
787.170	0.0154298
787.248	0.0153977
787.326	0.0154707
787.405	0.0154759
787.483	0.0154423
787.561	0.0153535
787.639	0.0153698
787.717	0.0153521
787.795	0.0153909
787.873	0.0155223
787.951	0.0154536
788.030	0.0153152
788.108	0.0153174
788.186	0.0153888
788.264	0.0154017
788.342	0.0152357
788.420	0.0153710
788.498	0.0152991
788.576	0.0152654
788.655	0.0153653
788.733	0.0152899
788.811	0.0153069
788.889	0.0152562
788.967	0.0153455
789.045	0.0151995
789.123	0.0153492
789.201	0.0151629
789.280	0.0152579
789.358	0.0152184
789.436	0.0150831
789.514	0.0152979
789.592	0.0150971
789.670	0.0150686
789.748	0.0150034
789.826	0.0150676
789.905	0.0150625
789.983	0.0151457
790.061	0.0150957
790.139	0.0149306
790.217	0.0151747
790.295	0.0152533
790.373	0.0150780
790.451	0.0150919
790.530	0.0151778
790.608	0.0152541
790.686	0.0153300
790.764	0.0153246
790.842	0.0153026
790.920	0.0154256
790.998	0.0154419
791.076	0.0154736
791.155	0.0154914
791.233	0.0153968
791.311	0.0154324
791.389	0.0154494
791.467	0.0154053
791.545	0.0153674
791.623	0.0154021
791.701	0.0154873
791.780	0.0153280
791.858	0.0153172
791.936	0.0152216
792.014	0.0153606
792.092	0.0152650
792.170	0.0154316
792.248	0.0153400
792.326	0.0152880
792.405	0.0152553
792.483	0.0153516
792.561	0.0152579
792.639	0.0152285
792.717	0.0154408
792.795	0.0153460
792.873	0.0154258
792.951	0.0154037
793.030	0.0154079
793.108	0.0154413
793.186	0.0155012
793.264	0.0154215
793.342	0.0154515
793.420	0.0154269
793.498	0.0154560
793.576	0.0153833
793.655	0.0153805
793.733	0.0154449
793.811	0.0154295
793.889	0.0154211
793.967	0.0152583
794.045	0.0153373
794.123	0.0153230
794.201	0.0152345
794.280	0.0152029
794.358	0.0151631
794.436	0.0151396
794.514	0.0152747
794.592	0.0151587
794.670	0.0150401
794.748	0.0151399
794.826	0.0152229
794.905	0.0150712
794.983	0.0150459
795.061	0.0149109
795.139	0.0151462
795.217	0.0149393
795.295	0.0149132
795.373	0.0150172
795.451	0.0150540
795.530	0.0151026
795.608	0.0152426
795.686	0.0151320
795.764	0.0151205
795.842	0.0152416
795.920	0.0151280
795.998	0.0151953
796.076	0.0151859
796.155	0.0152577
796.233	0.0153674
796.311	0.0152081
796.389	0.0152409
796.467	0.0154539
796.545	0.0153774
796.623	0.0152655
796.701	0.0154172
796.780	0.0153562
796.858	0.0154104
796.936	0.0153780
797.014	0.0153082
797.092	0.0152872
797.170	0.0154160
797.248	0.0153837
797.326	0.0153111
797.405	0.0153020
797.483	0.0154343
797.561	0.0153624
797.639	0.0154188
797.717	0.0151627
797.795	0.0152575
797.873	0.0153330
797.951	0.0151562
798.030	0.0151784
798.108	0.0152958
798.186	0.0152605
798.264	0.0152625
798.342	0.0152387
798.420	0.0152540
798.498	0.0152875
798.576	0.0152589
798.655	0.0152618
798.733	0.0153296
798.811	0.0151799
798.889	0.0153089
798.967	0.0152773
799.045	0.0152061
799.123	0.0154195
799.201	0.0153953
799.280	0.0152712
799.358	0.0153467
799.436	0.0154270
799.514	0.0152832
799.592	0.0153819
799.670	0.0153124
799.748	0.0153222
799.826	0.0152596
799.905	0.0152958
799.983	0.0153613
800.061	0.0152748
800.139	0.0154054
800.217	0.0152839
800.295	0.0152633
800.373	0.0152280
800.451	0.0153200
800.530	0.0153694
800.608	0.0152586
800.686	0.0152412
800.764	0.0152605
800.842	0.0153347
800.920	0.0151488
800.998	0.0153497
801.076	0.0152576
801.155	0.0153958
801.233	0.0152161
801.311	0.0151694
801.389	0.0154423
801.467	0.0152628
801.545	0.0153263
801.623	0.0154805
801.701	0.0154213
801.780	0.0154284
801.858	0.0153711
801.936	0.0154156
802.014	0.0153661
802.092	0.0155296
802.170	0.0154779
802.248	0.0154481
802.326	0.0154672
802.405	0.0153812
802.483	0.0154249
802.561	0.0154595
802.639	0.0154480
802.717	0.0153522
802.795	0.0153392
802.873	0.0153047
802.951	0.0154517
803.030	0.0153474
803.108	0.0153903
803.186	0.0153510
803.264	0.0154943
803.342	0.0151406
803.420	0.0153540
803.498	0.0154285
803.576	0.0153117
803.655	0.0154040
803.733	0.0154327
803.811	0.0153529
803.889	0.0154033
803.967	0.0153799
804.045	0.0152813
804.123	0.0155197
804.201	0.0155235
804.280	0.0152866
804.358	0.0154608
804.436	0.0153978
804.514	0.0153217
804.592	0.0153771
804.670	0.0153309
804.748	0.0153127
804.826	0.0154018
804.905	0.0153468
804.983	0.0153201
805.061	0.0152821
805.139	0.0153261
805.217	0.0153309
805.295	0.0153083
805.373	0.0154242
805.451	0.0154229
805.530	0.0154471
805.608	0.0153767
805.686	0.0153609
805.764	0.0153304
805.842	0.0152001
805.920	0.0153655
805.998	0.0153623
806.076	0.0152142
806.155	0.0152110
806.233	0.0152847
806.311	0.0152353
806.389	0.0152185
806.467	0.0153069
806.545	0.0153518
806.623	0.0152666
806.701	0.0152937
806.780	0.0152441
806.858	0.0151453
806.936	0.0152590
807.014	0.0154268
807.092	0.0153334
807.170	0.0153301
807.248	0.0153059
807.326	0.0154150
807.405	0.0153885
807.483	0.0155024
807.561	0.0153824
807.639	0.0154181
807.717	0.0154238
807.795	0.0154208
807.873	0.0152793
807.951	0.0152760
808.030	0.0153603
808.108	0.0154623
808.186	0.0153597
808.264	0.0153268
808.342	0.0153329
808.420	0.0153064
808.498	0.0152238
808.576	0.0154003
808.655	0.0154525
808.733	0.0153899
808.811	0.0153162
808.889	0.0153960
808.967	0.0155922
809.045	0.0154536
809.123	0.0153712
809.201	0.0153277
809.280	0.0153935
809.358	0.0153876
809.436	0.0153946
809.514	0.0153362
809.592	0.0154218
809.670	0.0153018
809.748	0.0152285
809.826	0.0154054
809.905	0.0151734
809.983	0.0152422
810.061	0.0152263
810.139	0.0152850
810.217	0.0152081
810.295	0.0151385
810.373	0.0150928
810.451	0.0153493
810.530	0.0151859
810.608	0.0151457
810.686	0.0151296
810.764	0.0151265
810.842	0.0152128
810.920	0.0153484
810.998	0.0152686
811.076	0.0151720
811.155	0.0152521
811.233	0.0151868
811.311	0.0151534
811.389	0.0151982
811.467	0.0152812
811.545	0.0152340
811.623	0.0154509
811.701	0.0151640
811.780	0.0152998
811.858	0.0154745
811.936	0.0154171
812.014	0.0153076
812.092	0.0154568
812.170	0.0154037
812.248	0.0154082
812.326	0.0153742
812.405	0.0154574
812.483	0.0154439
812.561	0.0152253
812.639	0.0153117
812.717	0.0153988
812.795	0.0153829
812.873	0.0153461
812.951	0.0153262
813.030	0.0154449
813.108	0.0154936
813.186	0.0152873
813.264	0.0153412
813.342	0.0153811
813.420	0.0152396
813.498	0.0153957
813.576	0.0154149
813.655	0.0154189
813.733	0.0154327
813.811	0.0153685
813.889	0.0154043
813.967	0.0154039
814.045	0.0153623
814.123	0.0152637
814.201	0.0152222
814.280	0.0152945
814.358	0.0153879
814.436	0.0153750
814.514	0.0152541
814.592	0.0152214
814.670	0.0152083
814.748	0.0153814
814.826	0.0152538
814.905	0.0151328
814.983	0.0152448
815.061	0.0152485
815.139	0.0152615
815.217	0.0152929
815.295	0.0152484
815.373	0.0153459
815.451	0.0152116
815.530	0.0153532
815.608	0.0153513
815.686	0.0153275
815.764	0.0151475
815.842	0.0151657
815.920	0.0153471
815.998	0.0151871
816.076	0.0151627
816.155	0.0152664
816.233	0.0151768
816.311	0.0150970
816.389	0.0149997
816.467	0.0152441
816.545	0.0151887
816.623	0.0151034
816.701	0.0151360
816.780	0.0151324
816.858	0.0150618
816.936	0.0150755
817.014	0.0152190
817.092	0.0150571
817.170	0.0151801
817.248	0.0150818
817.326	0.0151903
817.405	0.0152376
817.483	0.0151465
817.561	0.0152566
817.639	0.0151984
817.717	0.0151585
817.795	0.0150960
817.873	0.0152485
817.951	0.0152172
818.030	0.0152708
818.108	0.0152943
818.186	0.0151737
818.264	0.0151626
818.342	0.0151490
818.420	0.0151260
818.498	0.0153122
818.576	0.0153456
818.655	0.0152515
818.733	0.0152731
818.811	0.0152527
818.889	0.0152674
818.967	0.0151492
819.045	0.0151708
819.123	0.0152186
819.201	0.0152101
819.280	0.0153078
819.358	0.0152338
819.436	0.0152657
819.514	0.0152211
819.592	0.0152901
819.670	0.0152422
819.748	0.0152711
819.826	0.0153645
819.905	0.0153166
819.983	0.0152410
820.061	0.0151462
820.139	0.0152514
820.217	0.0152755
820.295	0.0154193
820.373	0.0152676
820.451	0.0152538
820.530	0.0153622
820.608	0.0154433
820.686	0.0153568
820.764	0.0152241
820.842	0.0153209
820.920	0.0152936
820.998	0.0152085
821.076	0.0152869
821.155	0.0152917
821.233	0.0152568
821.311	0.0154207
821.389	0.0154472
821.467	0.0153643
821.545	0.0151878
821.623	0.0152969
821.701	0.0153528
821.780	0.0152600
821.858	0.0154146
821.936	0.0153838
822.014	0.0153629
822.092	0.0153027
822.170	0.0154289
822.248	0.0154315
822.326	0.0152970
822.405	0.0153120
822.483	0.0153987
822.561	0.0153445
822.639	0.0152818
822.717	0.0153278
822.795	0.0153501
822.873	0.0152659
822.951	0.0151763
823.030	0.0152809
823.108	0.0152148
823.186	0.0153056
823.264	0.0152068
823.342	0.0151703
823.420	0.0152772
823.498	0.0151551
823.576	0.0152923
823.655	0.0153634
823.733	0.0151489
823.811	0.0152106
823.889	0.0151720
823.967	0.0151459
824.045	0.0152156
824.123	0.0152513
824.201	0.0153018
824.280	0.0152168
824.358	0.0151779
824.436	0.0152495
824.514	0.0152677
824.592	0.0152271
824.670	0.0152140
824.748	0.0152582
824.826	0.0151665
824.905	0.0150970
824.983	0.0153319
825.061	0.0152277
825.139	0.0152924
825.217	0.0152528
825.295	0.0151526
825.373	0.0152653
825.451	0.0153241
825.530	0.0152296
825.608	0.0155085
825.686	0.0153107
825.764	0.0154131
825.842	0.0154463
825.920	0.0154160
825.998	0.0154074
826.076	0.0154357
826.155	0.0154821
826.233	0.0154990
826.311	0.0153358
826.389	0.0153321
826.467	0.0154409
826.545	0.0152863
826.623	0.0154226
826.701	0.0154044
826.780	0.0153340
826.858	0.0154462
826.936	0.0154284
827.014	0.0153746
827.092	0.0153305
827.170	0.0154291
827.248	0.0153575
827.326	0.0152636
827.405	0.0153590
827.483	0.0152825
827.561	0.0153075
827.639	0.0152058
827.717	0.0153955
827.795	0.0153880
827.873	0.0152639
827.951	0.0153109
828.030	0.0153167
828.108	0.0153433
828.186	0.0153867
828.264	0.0153760
828.342	0.0152699
828.420	0.0153455
828.498	0.0152019
828.576	0.0152519
828.655	0.0152827
828.733	0.0153597
828.811	0.0153098
828.889	0.0152209
828.967	0.0152325
829.045	0.0153075
829.123	0.0153329
829.201	0.0152650
829.280	0.0152618
829.358	0.0152179
829.436	0.0152229
829.514	0.0153835
829.592	0.0152850
829.670	0.0153812
829.748	0.0151633
829.826	0.0152618
829.905	0.0153371
829.983	0.0153159
830.061	0.0153660
830.139	0.0153059
830.217	0.0154113
830.295	0.0152957
830.373	0.0153563
830.451	0.0152896
830.530	0.0153487
830.608	0.0153107
830.686	0.0151756
830.764	0.0152397
830.842	0.0153851
830.920	0.0155382
830.998	0.0153276
831.076	0.0153143
831.155	0.0152521
831.233	0.0154433
831.311	0.0154723
831.389	0.0152880
831.467	0.0152869
831.545	0.0154423
831.623	0.0154575
831.701	0.0153243
831.780	0.0153169
831.858	0.0153890
831.936	0.0155024
832.014	0.0153128
832.092	0.0151844
832.170	0.0153152
832.248	0.0152063
832.326	0.0154087
832.405	0.0153086
832.483	0.0153636
832.561	0.0152711
832.639	0.0153493
832.717	0.0151536
832.795	0.0151717
832.873	0.0151900
832.951	0.0154063
833.030	0.0153421
833.108	0.0152385
833.186	0.0152405
833.264	0.0152439
833.342	0.0151749
833.420	0.0151383
833.498	0.0152628
833.576	0.0152393
833.655	0.0151723
833.733	0.0152917
833.811	0.0152981
833.889	0.0151391
833.967	0.0151917
834.045	0.0152565
834.123	0.0152438
834.201	0.0151659
834.280	0.0151793
834.358	0.0152532
834.436	0.0152866
834.514	0.0152930
834.592	0.0153188
834.670	0.0151514
834.748	0.0152398
834.826	0.0151534
834.905	0.0151652
834.983	0.0152656
835.061	0.0151929
835.139	0.0152234
835.217	0.0151449
835.295	0.0153412
835.373	0.0152275
835.451	0.0153854
835.530	0.0152998
835.608	0.0151125
835.686	0.0151830
835.764	0.0151505
835.842	0.0151984
835.920	0.0153911
835.998	0.0152238
836.076	0.0152498
836.155	0.0151015
836.233	0.0151210
836.311	0.0149836
836.389	0.0151490
836.467	0.0151228
836.545	0.0152777
836.623	0.0152096
836.701	0.0150938
836.780	0.0151335
836.858	0.0151308
836.936	0.0151499
837.014	0.0151221
837.092	0.0151525
837.170	0.0150523
837.248	0.0152126
837.326	0.0151881
837.405	0.0151427
837.483	0.0151473
837.561	0.0151799
837.639	0.0151906
837.717	0.0151077
837.795	0.0152409
837.873	0.0152335
837.951	0.0152490
838.030	0.0151714
838.108	0.0151562
838.186	0.0152275
838.264	0.0153587
838.342	0.0154762
838.420	0.0153413
838.498	0.0153458
838.576	0.0153695
838.655	0.0154169
838.733	0.0154034
838.811	0.0153494
838.889	0.0152207
838.967	0.0155119
839.045	0.0154965
839.123	0.0152979
839.201	0.0154078
839.280	0.0153585
839.358	0.0153844
839.436	0.0153317
839.514	0.0152442
839.592	0.0153134
839.670	0.0151775
839.748	0.0152074
839.826	0.0151946
839.905	0.0153328
839.983	0.0152784
840.061	0.0151772
840.139	0.0152163
840.217	0.0151879
840.295	0.0152240
840.373	0.0154017
840.451	0.0151344
840.530	0.0153368
840.608	0.0153046
840.686	0.0151977
840.764	0.0152334
840.842	0.0152913
840.920	0.0152565
840.998	0.0152277
841.076	0.0153710
841.155	0.0152802
841.233	0.0152985
841.311	0.0153991
841.389	0.0153619
841.467	0.0153425
841.545	0.0154034
841.623	0.0153251
841.701	0.0153146
841.780	0.0153691
841.858	0.0153746
841.936	0.0153416
842.014	0.0153279
842.092	0.0154562
842.170	0.0154353
842.248	0.0153173
842.326	0.0155869
842.405	0.0153600
842.483	0.0154229
842.561	0.0154462
842.639	0.0153828
842.717	0.0153154
842.795	0.0153952
842.873	0.0153844
842.951	0.0154035
843.030	0.0154220
843.108	0.0153068
843.186	0.0151959
843.264	0.0154047
843.342	0.0155202
843.420	0.0154924
843.498	0.0153513
843.576	0.0154192
843.655	0.0154140
843.733	0.0154810
843.811	0.0153870
843.889	0.0152882
843.967	0.0154740
844.045	0.0153477
844.123	0.0152290
844.201	0.0154055
844.280	0.0152446
844.358	0.0153259
844.436	0.0151653
844.514	0.0152888
844.592	0.0153862
844.670	0.0154012
844.748	0.0154433
844.826	0.0153698
844.905	0.0153075
844.983	0.0152565
845.061	0.0153940
845.139	0.0153616
845.217	0.0153976
845.295	0.0153047
845.373	0.0152894
845.451	0.0153001
845.530	0.0153111
845.608	0.0151955
845.686	0.0152146
845.764	0.0152337
845.842	0.0151785
845.920	0.0151754
845.998	0.0151891
846.076	0.0152666
846.155	0.0152696
846.233	0.0153553
846.311	0.0153513
846.389	0.0153277
846.467	0.0153323
846.545	0.0153020
846.623	0.0152703
846.701	0.0153130
846.780	0.0153100
846.858	0.0153337
846.936	0.0153538
847.014	0.0153587
847.092	0.0153033
847.170	0.0153006
847.248	0.0153938
847.326	0.0154591
847.405	0.0153609
847.483	0.0152959
847.561	0.0153104
847.639	0.0154182
847.717	0.0153880
847.795	0.0152719
847.873	0.0152623
847.951	0.0152164
848.030	0.0152505
848.108	0.0152872
848.186	0.0152650
848.264	0.0152457
848.342	0.0153230
848.420	0.0152842
848.498	0.0152303
848.576	0.0151393
848.655	0.0153609
848.733	0.0153707
848.811	0.0152174
848.889	0.0152701
848.967	0.0152396
849.045	0.0152330
849.123	0.0152306
849.201	0.0154893
849.280	0.0150787
849.358	0.0153503
849.436	0.0152359
849.514	0.0153540
849.592	0.0153255
849.670	0.0152663
849.748	0.0152749
849.826	0.0152885
849.905	0.0151822
849.983	0.0151303
850.061	0.0153192
850.139	0.0153402
850.217	0.0152664
850.295	0.0153699
850.373	0.0152716
850.451	0.0153564
850.530	0.0154186
850.608	0.0152492
850.686	0.0153212
850.764	0.0154206
850.842	0.0153733
850.920	0.0153167
850.998	0.0152686
851.076	0.0153262
851.155	0.0154330
851.233	0.0153638
851.311	0.0155394
851.389	0.0154028
851.467	0.0153357
851.545	0.0154668
851.623	0.0154397
851.701	0.0153525
851.780	0.0153544
851.858	0.0153716
851.936	0.0153246
852.014	0.0152895
852.092	0.0154612
852.170	0.0154368
852.248	0.0154256
852.326	0.0154279
852.405	0.0153376
852.483	0.0153954
852.561	0.0153310
852.639	0.0154237
852.717	0.0151884
852.795	0.0152212
852.873	0.0152288
852.951	0.0152656
853.030	0.0151087
853.108	0.0152995
853.186	0.0153584
853.264	0.0151360
853.342	0.0151653
853.420	0.0151697
853.498	0.0151505
853.576	0.0150845
853.655	0.0152682
853.733	0.0152682
853.811	0.0151456
853.889	0.0151638
853.967	0.0153383
854.045	0.0150643
854.123	0.0152876
854.201	0.0153275
854.280	0.0154061
854.358	0.0151861
854.436	0.0151789
854.514	0.0153530
854.592	0.0153364
854.670	0.0151776
854.748	0.0151593
854.826	0.0152202
854.905	0.0153293
854.983	0.0152824
855.061	0.0153563
855.139	0.0153069
855.217	0.0153510
855.295	0.0152882
855.373	0.0151055
855.451	0.0153094
855.530	0.0154250
855.608	0.0153357
855.686	0.0152748
855.764	0.0153704
855.842	0.0152565
855.920	0.0153069
855.998	0.0153362
856.076	0.0152879
856.155	0.0152948
856.233	0.0152995
856.311	0.0152959
856.389	0.0152444
856.467	0.0154007
856.545	0.0152612
856.623	0.0152625
856.701	0.0151421
856.780	0.0153542
856.858	0.0153781
856.936	0.0151794
857.014	0.0153612
857.092	0.0153229
857.170	0.0152714
857.248	0.0153490
857.326	0.0153563
857.405	0.0150828
857.483	0.0151886
857.561	0.0152892
857.639	0.0151557
857.717	0.0152253
857.795	0.0153301
857.873	0.0151439
857.951	0.0153753
858.030	0.0152229
858.108	0.0153387
858.186	0.0152427
858.264	0.0151122
858.342	0.0153175
858.420	0.0151865
858.498	0.0153298
858.576	0.0152840
858.655	0.0152341
858.733	0.0153201
858.811	0.0152583
858.889	0.0151682
858.967	0.0153484
859.045	0.0155050
859.123	0.0153178
859.201	0.0152979
859.280	0.0152403
859.358	0.0152843
859.436	0.0151833
859.514	0.0153298
859.592	0.0152679
859.670	0.0151922
859.748	0.0152405
859.826	0.0151752
859.905	0.0151975
859.983	0.0150991
860.061	0.0152379
860.139	0.0152090
860.217	0.0150487
860.295	0.0151221
860.373	0.0152386
860.451	0.0151851
860.530	0.0152529
860.608	0.0152737
860.686	0.0152689
860.764	0.0151740
860.842	0.0151578
860.920	0.0151317
860.998	0.0152227
861.076	0.0151396
861.155	0.0151757
861.233	0.0152237
861.311	0.0152244
861.389	0.0153182
861.467	0.0152242
861.545	0.0153101
861.623	0.0154408
861.701	0.0153403
861.780	0.0152856
861.858	0.0153128
861.936	0.0152895
862.014	0.0153491
862.092	0.0151943
862.170	0.0153945
862.248	0.0153253
862.326	0.0153491
862.405	0.0154893
862.483	0.0153288
862.561	0.0152682
862.639	0.0152552
862.717	0.0153837
862.795	0.0153875
862.873	0.0153870
862.951	0.0152628
863.030	0.0153600
863.108	0.0154168
863.186	0.0152341
863.264	0.0153265
863.342	0.0153514
863.420	0.0154476
863.498	0.0154406
863.576	0.0153675
863.655	0.0153914
863.733	0.0154752
863.811	0.0153892
863.889	0.0154670
863.967	0.0153767
864.045	0.0153490
864.123	0.0153793
864.201	0.0153249
864.280	0.0153924
864.358	0.0153065
864.436	0.0153837
864.514	0.0153002
864.592	0.0153600
864.670	0.0152277
864.748	0.0153290
864.826	0.0152891
864.905	0.0152992
864.983	0.0152898
865.061	0.0153320
865.139	0.0152547
865.217	0.0153033
865.295	0.0153301
865.373	0.0152980
865.451	0.0152831
865.530	0.0152091
865.608	0.0152508
865.686	0.0152679
865.764	0.0152644
865.842	0.0152605
865.920	0.0151891
865.998	0.0152805
866.076	0.0153773
866.155	0.0152271
866.233	0.0152858
866.311	0.0153881
866.389	0.0154136
866.467	0.0152513
866.545	0.0152241
866.623	0.0154286
866.701	0.0153855
866.780	0.0154580
866.858	0.0153525
866.936	0.0154945
867.014	0.0152716
867.092	0.0154203
867.170	0.0154364
867.248	0.0154084
867.326	0.0153249
867.405	0.0152654
867.483	0.0153722
867.561	0.0154332
867.639	0.0153372
867.717	0.0153271
867.795	0.0154223
867.873	0.0152496
867.951	0.0152998
868.030	0.0152035
868.108	0.0153841
868.186	0.0153385
868.264	0.0152482
868.342	0.0153904
868.420	0.0152713
868.498	0.0151952
868.576	0.0152313
868.655	0.0152985
868.733	0.0152957
868.811	0.0151499
868.889	0.0151427
868.967	0.0152016
869.045	0.0152319
869.123	0.0152033
869.201	0.0152554
869.280	0.0154180
869.358	0.0152163
869.436	0.0152556
869.514	0.0153220
869.592	0.0153246
869.670	0.0152020
869.748	0.0152814
869.826	0.0152760
869.905	0.0152758
869.983	0.0152424
870.061	0.0153242
870.139	0.0152142
870.217	0.0150720
870.295	0.0151057
870.373	0.0152278
870.451	0.0153282
870.530	0.0153009
870.608	0.0151559
870.686	0.0150677
870.764	0.0152040
870.842	0.0152045
870.920	0.0152400
870.998	0.0152083
871.076	0.0153587
871.155	0.0151755
871.233	0.0152609
871.311	0.0152802
871.389	0.0151439
871.467	0.0152315
871.545	0.0151851
871.623	0.0152750
871.701	0.0152313
871.780	0.0152789
871.858	0.0153648
871.936	0.0153914
872.014	0.0153021
872.092	0.0152721
872.170	0.0154005
872.248	0.0152372
872.326	0.0153150
872.405	0.0154169
872.483	0.0152327
872.561	0.0152586
872.639	0.0152595
872.717	0.0153043
872.795	0.0152571
872.873	0.0151543
872.951	0.0152862
873.030	0.0152724
873.108	0.0152872
873.186	0.0153023
873.264	0.0152612
873.342	0.0152447
873.420	0.0153052
873.498	0.0152402
873.576	0.0152854
873.655	0.0152562
873.733	0.0152889
873.811	0.0152984
873.889	0.0153757
873.967	0.0152438
874.045	0.0152210
874.123	0.0153044
874.201	0.0151941
874.280	0.0153928
874.358	0.0153585
874.436	0.0153423
874.514	0.0153867
874.592	0.0153180
874.670	0.0152899
874.748	0.0153164
874.826	0.0153094
874.905	0.0153750
874.983	0.0154709
875.061	0.0154086
875.139	0.0153637
875.217	0.0154692
875.295	0.0153265
875.373	0.0155062
875.451	0.0154088
875.530	0.0152945
875.608	0.0153222
875.686	0.0153497
875.764	0.0154901
875.842	0.0152264
875.920	0.0153140
875.998	0.0154099
876.076	0.0153626
876.155	0.0153965
876.233	0.0153625
876.311	0.0152465
876.389	0.0153242
876.467	0.0153730
876.545	0.0152520
876.623	0.0154079
876.701	0.0154169
876.780	0.0152470
876.858	0.0152500
876.936	0.0152838
877.014	0.0154460
877.092	0.0155208
877.170	0.0152419
877.248	0.0153332
877.326	0.0154188
877.405	0.0152449
877.483	0.0153392
877.561	0.0152262
877.639	0.0154368
877.717	0.0154342
877.795	0.0153136
877.873	0.0153503
877.951	0.0154425
878.030	0.0154284
878.108	0.0154379
878.186	0.0154584
878.264	0.0152183
878.342	0.0153929
878.420	0.0153938
878.498	0.0154715
878.576	0.0153097
878.655	0.0154684
878.733	0.0152756
878.811	0.0152657
878.889	0.0154494
878.967	0.0153920
879.045	0.0153829
879.123	0.0154249
879.201	0.0153244
879.280	0.0153541
879.358	0.0154771
879.436	0.0152773
879.514	0.0152962
879.592	0.0153893
879.670	0.0153751
879.748	0.0154520
879.826	0.0154447
879.905	0.0154020
879.983	0.0154311
880.061	0.0153410
880.139	0.0154025
880.217	0.0153370
880.295	0.0154687
880.373	0.0153543
880.451	0.0153194
880.530	0.0153226
880.608	0.0153265
880.686	0.0152434
880.764	0.0152612
880.842	0.0153381
880.920	0.0152181
880.998	0.0152815
881.076	0.0152522
881.155	0.0151997
881.233	0.0152605
881.311	0.0152567
881.389	0.0152592
881.467	0.0152776
881.545	0.0151646
881.623	0.0151691
881.701	0.0152570
881.780	0.0152882
881.858	0.0152968
881.936	0.0152229
882.014	0.0152782
882.092	0.0152725
882.170	0.0152637
882.248	0.0152906
882.326	0.0152316
882.405	0.0152415
882.483	0.0152094
882.561	0.0152915
882.639	0.0151773
882.717	0.0153091
882.795	0.0153227
882.873	0.0153057
882.951	0.0152467
883.030	0.0152635
883.108	0.0153951
883.186	0.0152630
883.264	0.0152707
883.342	0.0152856
883.420	0.0152698
883.498	0.0152822
883.576	0.0152560
883.655	0.0151477
883.733	0.0153183
883.811	0.0152007
883.889	0.0152867
883.967	0.0152980
884.045	0.0152676
884.123	0.0153284
884.201	0.0151314
884.280	0.0152644
884.358	0.0153232
884.436	0.0152934
884.514	0.0152538
884.592	0.0151279
884.670	0.0152557
884.748	0.0151826
884.826	0.0151061
884.905	0.0152632
884.983	0.0153120
885.061	0.0152150
885.139	0.0151862
885.217	0.0152612
885.295	0.0152511
885.373	0.0153008
885.451	0.0152997
885.530	0.0152195
885.608	0.0152227
885.686	0.0151929
885.764	0.0154050
885.842	0.0152335
885.920	0.0152383
885.998	0.0152041
886.076	0.0151968
886.155	0.0153218
886.233	0.0153110
886.311	0.0152010
886.389	0.0152784
886.467	0.0153084
886.545	0.0153013
886.623	0.0153748
886.701	0.0153842
886.780	0.0154111
886.858	0.0154218
886.936	0.0153327
887.014	0.0153777
887.092	0.0153811
887.170	0.0154765
887.248	0.0154221
887.326	0.0153582
887.405	0.0153944
887.483	0.0153902
887.561	0.0153016
887.639	0.0153675
887.717	0.0154185
887.795	0.0153751
887.873	0.0153297
887.951	0.0153250
888.030	0.0153605
888.108	0.0154714
888.186	0.0153875
888.264	0.0152757
888.342	0.0154757
888.420	0.0155931
888.498	0.0154315
888.576	0.0154156
888.655	0.0153904
888.733	0.0154243
888.811	0.0154118
888.889	0.0153405
888.967	0.0155359
889.045	0.0154079
889.123	0.0155327
889.201	0.0153840
889.280	0.0154247
889.358	0.0153728
889.436	0.0153645
889.514	0.0153885
889.592	0.0154646
889.670	0.0154376
889.748	0.0154197
889.826	0.0153178
889.905	0.0153017
889.983	0.0153145
890.061	0.0153352
890.139	0.0153858
890.217	0.0153487
890.295	0.0152850
890.373	0.0153510
890.451	0.0153166
890.530	0.0152666
890.608	0.0152937
890.686	0.0153760
890.764	0.0153450
890.842	0.0152769
890.920	0.0153269
890.998	0.0154780
891.076	0.0153258
891.155	0.0153668
891.233	0.0155042
891.311	0.0154441
891.389	0.0153902
891.467	0.0153876
891.545	0.0153973
891.623	0.0153165
891.701	0.0152972
891.780	0.0153113
891.858	0.0153910
891.936	0.0152185
892.014	0.0152607
892.092	0.0152450
892.170	0.0154263
892.248	0.0153049
892.326	0.0153556
892.405	0.0152271
892.483	0.0152827
892.561	0.0153702
892.639	0.0151950
892.717	0.0153600
892.795	0.0153940
892.873	0.0152856
892.951	0.0152779
893.030	0.0152890
893.108	0.0152954
893.186	0.0153103
893.264	0.0153396
893.342	0.0152889
893.420	0.0151574
893.498	0.0151857
893.576	0.0152335
893.655	0.0152306
893.733	0.0153067
893.811	0.0151859
893.889	0.0151703
893.967	0.0152619
894.045	0.0151427
894.123	0.0152568
894.201	0.0151906
894.280	0.0150638
894.358	0.0151974
894.436	0.0151015
894.514	0.0152016
894.592	0.0151966
894.670	0.0151998
894.748	0.0154210
894.826	0.0152590
894.905	0.0151523
894.983	0.0152100
895.061	0.0152052
895.139	0.0153263
895.217	0.0153265
895.295	0.0152794
895.373	0.0153249
895.451	0.0152030
895.530	0.0152635
895.608	0.0152544
895.686	0.0151606
895.764	0.0153017
895.842	0.0153252
895.920	0.0152829
895.998	0.0152242
896.076	0.0153117
896.155	0.0152538
896.233	0.0153005
896.311	0.0152992
896.389	0.0152287
896.467	0.0151681
896.545	0.0153574
896.623	0.0154454
896.701	0.0152570
896.780	0.0151542
896.858	0.0152943
896.936	0.0152282
897.014	0.0152272
897.092	0.0151957
897.170	0.0152546
897.248	0.0151872
897.326	0.0152731
897.405	0.0152048
897.483	0.0152258
897.561	0.0152814
897.639	0.0151874
897.717	0.0153814
897.795	0.0152410
897.873	0.0151094
897.951	0.0152456
898.030	0.0151693
898.108	0.0153132
898.186	0.0151545
898.264	0.0151597
898.342	0.0153780
898.420	0.0152843
898.498	0.0152381
898.576	0.0151947
898.655	0.0151892
898.733	0.0153480
898.811	0.0152737
898.889	0.0153625
898.967	0.0152375
899.045	0.0152953
899.123	0.0151463
899.201	0.0151899
899.280	0.0152552
899.358	0.0153785
899.436	0.0151920
899.514	0.0151476
899.592	0.0152096
899.670	0.0153236
899.748	0.0153188
899.826	0.0151634
899.905	0.0152807
899.983	0.0152926
900.061	0.0152811
900.139	0.0152424
900.217	0.0153301
900.295	0.0153000
900.373	0.0153554
900.451	0.0153029
900.530	0.0153311
900.608	0.0153178
900.686	0.0152252
900.764	0.0154330
900.842	0.0154201
900.920	0.0153194
900.998	0.0153152
901.076	0.0154437
901.155	0.0153716
901.233	0.0152259
901.311	0.0153210
901.389	0.0154047
901.467	0.0154389
901.545	0.0152308
901.623	0.0152480
901.701	0.0153242
901.780	0.0153956
901.858	0.0153085
901.936	0.0153349
902.014	0.0154224
902.092	0.0151064
902.170	0.0152600
902.248	0.0152468
902.326	0.0151821
902.405	0.0152366
902.483	0.0152427
902.561	0.0152824
902.639	0.0152897
902.717	0.0151437
902.795	0.0152505
902.873	0.0152256
902.951	0.0153527
903.030	0.0153394
903.108	0.0153502
903.186	0.0152821
903.264	0.0152325
903.342	0.0153568
903.420	0.0153339
903.498	0.0153242
903.576	0.0152826
903.655	0.0151593
903.733	0.0152686
903.811	0.0152103
903.889	0.0154017
903.967	0.0152341
904.045	0.0152989
904.123	0.0152638
904.201	0.0153806
904.280	0.0152334
904.358	0.0152334
904.436	0.0151780
904.514	0.0151938
904.592	0.0152331
904.670	0.0151977
904.748	0.0152666
904.826	0.0151781
904.905	0.0152036
904.983	0.0152569
905.061	0.0151247
905.139	0.0153291
905.217	0.0154465
905.295	0.0152802
905.373	0.0152867
905.451	0.0154052
905.530	0.0153588
905.608	0.0153631
905.686	0.0152494
905.764	0.0153650
905.842	0.0152749
905.920	0.0153566
905.998	0.0154468
906.076	0.0153687
906.155	0.0154259
906.233	0.0153344
906.311	0.0153774
906.389	0.0153451
906.467	0.0153444
906.545	0.0153207
906.623	0.0153185
906.701	0.0152183
906.780	0.0152892
906.858	0.0152852
906.936	0.0151930
907.014	0.0151539
907.092	0.0152098
907.170	0.0152715
907.248	0.0151427
907.326	0.0152779
907.405	0.0153033
907.483	0.0152040
907.561	0.0151247
907.639	0.0152070
907.717	0.0152644
907.795	0.0153890
907.873	0.0152878
907.951	0.0152461
908.030	0.0152982
908.108	0.0152732
908.186	0.0153030
908.264	0.0152780
908.342	0.0151295
908.420	0.0150612
908.498	0.0153513
908.576	0.0153188
908.655	0.0152139
908.733	0.0153165
908.811	0.0151979
908.889	0.0153430
908.967	0.0153163
909.045	0.0153686
909.123	0.0152992
909.201	0.0153091
909.280	0.0153357
909.358	0.0152493
909.436	0.0152354
909.514	0.0152580
909.592	0.0154230
909.670	0.0153597
909.748	0.0152518
909.826	0.0153207
909.905	0.0153446
909.983	0.0153687
910.061	0.0154059
910.139	0.0152742
910.217	0.0153366
910.295	0.0155247
910.373	0.0152864
910.451	0.0155701
910.530	0.0154482
910.608	0.0153686
910.686	0.0152634
910.764	0.0152679
910.842	0.0154472
910.920	0.0152943
910.998	0.0153227
911.076	0.0153208
911.155	0.0152679
911.233	0.0153158
911.311	0.0153542
911.389	0.0153030
911.467	0.0152806
911.545	0.0152038
911.623	0.0153410
911.701	0.0152987
911.780	0.0151802
911.858	0.0152757
911.936	0.0153053
912.014	0.0152100
912.092	0.0153819
912.170	0.0154111
912.248	0.0153273
912.326	0.0153546
912.405	0.0152705
912.483	0.0152508
912.561	0.0152731
912.639	0.0153185
912.717	0.0153574
912.795	0.0152834
912.873	0.0151913
912.951	0.0153411
913.030	0.0151368
913.108	0.0151690
913.186	0.0152409
913.264	0.0152029
913.342	0.0152230
913.420	0.0152871
913.498	0.0153254
913.576	0.0152279
913.655	0.0152220
913.733	0.0152273
913.811	0.0151979
913.889	0.0153094
913.967	0.0152454
914.045	0.0151956
914.123	0.0151688
914.201	0.0152303
914.280	0.0153121
914.358	0.0152714
914.436	0.0151501
914.514	0.0151666
914.592	0.0151734
914.670	0.0150461
914.748	0.0151726
914.826	0.0150893
914.905	0.0150840
914.983	0.0152447
915.061	0.0151642
915.139	0.0151968
915.217	0.0151318
915.295	0.0150849
915.373	0.0151182
915.451	0.0152242
915.530	0.0150997
915.608	0.0151331
915.686	0.0152217
915.764	0.0152013
915.842	0.0151446
915.920	0.0152868
915.998	0.0154296
916.076	0.0151579
916.155	0.0151599
916.233	0.0151941
916.311	0.0151707
916.389	0.0151957
916.467	0.0152589
916.545	0.0151633
916.623	0.0151598
916.701	0.0152470
916.780	0.0153288
916.858	0.0152138
916.936	0.0151987
917.014	0.0152223
917.092	0.0152306
917.170	0.0152269
917.248	0.0152503
917.326	0.0150880
917.405	0.0151531
917.483	0.0151078
917.561	0.0152554
917.639	0.0153041
917.717	0.0152789
917.795	0.0151723
917.873	0.0152373
917.951	0.0153061
918.030	0.0151025
918.108	0.0153333
918.186	0.0151720
918.264	0.0151736
918.342	0.0152707
918.420	0.0152758
918.498	0.0152502
918.576	0.0151678
918.655	0.0152921
918.733	0.0153872
918.811	0.0153294
918.889	0.0152574
918.967	0.0152640
919.045	0.0153197
919.123	0.0154042
919.201	0.0152677
919.280	0.0152607
919.358	0.0152193
919.436	0.0153159
919.514	0.0152256
919.592	0.0151506
919.670	0.0153640
919.748	0.0152354
919.826	0.0152687
919.905	0.0153535
919.983	0.0151963
920.061	0.0152930
920.139	0.0152731
920.217	0.0151364
920.295	0.0151633
920.373	0.0153719
920.451	0.0154533
920.530	0.0152258
920.608	0.0153053
920.686	0.0153593
920.764	0.0152405
920.842	0.0152641
920.920	0.0152705
920.998	0.0154186
921.076	0.0153065
921.155	0.0154792
921.233	0.0153577
921.311	0.0153011
921.389	0.0153174
921.467	0.0152824
921.545	0.0152462
921.623	0.0154337
921.701	0.0152937
921.780	0.0153727
921.858	0.0153297
921.936	0.0152881
922.014	0.0152296
922.092	0.0152568
922.170	0.0153249
922.248	0.0153016
922.326	0.0153551
922.405	0.0153484
922.483	0.0152576
922.561	0.0152480
922.639	0.0152997
922.717	0.0152765
922.795	0.0152596
922.873	0.0152709
922.951	0.0153359
923.030	0.0152689
923.108	0.0153261
923.186	0.0152410
923.264	0.0152824
923.342	0.0153967
923.420	0.0152277
923.498	0.0152514
923.576	0.0152278
923.655	0.0152466
923.733	0.0152667
923.811	0.0153404
923.889	0.0152505
923.967	0.0152277
924.045	0.0151872
924.123	0.0151529
924.201	0.0153355
924.280	0.0152902
924.358	0.0150991
924.436	0.0152437
924.514	0.0151914
924.592	0.0151949
924.670	0.0151384
924.748	0.0151427
924.826	0.0152071
924.905	0.0153499
924.983	0.0151502
925.061	0.0152279
925.139	0.0153120
925.217	0.0152235
925.295	0.0150998
925.373	0.0152651
925.451	0.0153201
925.530	0.0152750
925.608	0.0152968
925.686	0.0153050
925.764	0.0152878
925.842	0.0152722
925.920	0.0153191
925.998	0.0151685
926.076	0.0152789
926.155	0.0152322
926.233	0.0152084
926.311	0.0153523
926.389	0.0153753
926.467	0.0152489
926.545	0.0152592
926.623	0.0152908
926.701	0.0151495
926.780	0.0151018
926.858	0.0151984
926.936	0.0152010
927.014	0.0151994
927.092	0.0152521
927.170	0.0152313
927.248	0.0151981
927.326	0.0151215
927.405	0.0151889
927.483	0.0153096
927.561	0.0152417
927.639	0.0153179
927.717	0.0151180
927.795	0.0153089
927.873	0.0152574
927.951	0.0152271
928.030	0.0150494
928.108	0.0152368
928.186	0.0152486
928.264	0.0152689
928.342	0.0152318
928.420	0.0152805
928.498	0.0152483
928.576	0.0152978
928.655	0.0152866
928.733	0.0152215
928.811	0.0151991
928.889	0.0152269
928.967	0.0154189
929.045	0.0154433
929.123	0.0152998
929.201	0.0152901
929.280	0.0152457
929.358	0.0152565
929.436	0.0152804
929.514	0.0153069
929.592	0.0152843
929.670	0.0153513
929.748	0.0153955
929.826	0.0152792
929.905	0.0152260
929.983	0.0153307
930.061	0.0153793
930.139	0.0152625
930.217	0.0153387
930.295	0.0152270
930.373	0.0152931
930.451	0.0153392
930.530	0.0151928
930.608	0.0152388
930.686	0.0153136
930.764	0.0152179
930.842	0.0152286
930.920	0.0152705
930.998	0.0150826
931.076	0.0151297
931.155	0.0152472
931.233	0.0152649
931.311	0.0152589
931.389	0.0152236
931.467	0.0152184
931.545	0.0152182
931.623	0.0151056
931.701	0.0152212
931.780	0.0153212
931.858	0.0153737
931.936	0.0152201
932.014	0.0152260
932.092	0.0153334
932.170	0.0151743
932.248	0.0151733
932.326	0.0151144
932.405	0.0151765
932.483	0.0152258
932.561	0.0152681
932.639	0.0151893
932.717	0.0151738
932.795	0.0152644
932.873	0.0151995
932.951	0.0152522
933.030	0.0151716
933.108	0.0151990
933.186	0.0151759
933.264	0.0152541
933.342	0.0152698
933.420	0.0153527
933.498	0.0152552
933.576	0.0151730
933.655	0.0152657
933.733	0.0151700
933.811	0.0152498
933.889	0.0152795
933.967	0.0153193
934.045	0.0153152
934.123	0.0152619
934.201	0.0152607
934.280	0.0153045
934.358	0.0151807
934.436	0.0152938
934.514	0.0153013
934.592	0.0153268
934.670	0.0154282
934.748	0.0151649
934.826	0.0152951
934.905	0.0152486
934.983	0.0152071
935.061	0.0153797
935.139	0.0154159
935.217	0.0152832
935.295	0.0152286
935.373	0.0153783
935.451	0.0153339
935.530	0.0153369
935.608	0.0154027
935.686	0.0152371
935.764	0.0154151
935.842	0.0153746
935.920	0.0152991
935.998	0.0153153
936.076	0.0154428
936.155	0.0152680
936.233	0.0153191
936.311	0.0154088
936.389	0.0155123
936.467	0.0153741
936.545	0.0152930
936.623	0.0153174
936.701	0.0154169
936.780	0.0154196
936.858	0.0153471
936.936	0.0153081
937.014	0.0154195
937.092	0.0153687
937.170	0.0153906
937.248	0.0154144
937.326	0.0154317
937.405	0.0153402
937.483	0.0154807
937.561	0.0152679
937.639	0.0154539
937.717	0.0153244
937.795	0.0152529
937.873	0.0152847
937.951	0.0152717
938.030	0.0152486
938.108	0.0153008
938.186	0.0153368
938.264	0.0153445
938.342	0.0151885
938.420	0.0152875
938.498	0.0153027
938.576	0.0152975
938.655	0.0153348
938.733	0.0153349
938.811	0.0153101
938.889	0.0152764
938.967	0.0152879
939.045	0.0153241
939.123	0.0154057
939.201	0.0154083
939.280	0.0152932
939.358	0.0153648
939.436	0.0153758
939.514	0.0153927
939.592	0.0152934
939.670	0.0152559
939.748	0.0153822
939.826	0.0153715
939.905	0.0154956
939.983	0.0154094
940.061	0.0152922
940.139	0.0153383
940.217	0.0153503
940.295	0.0153543
940.373	0.0153593
940.451	0.0153442
940.530	0.0152786
940.608	0.0154114
940.686	0.0153992
940.764	0.0152802
940.842	0.0153284
940.920	0.0154433
940.998	0.0154357
941.076	0.0154495
941.155	0.0153808
941.233	0.0153565
941.311	0.0153850
941.389	0.0154478
941.467	0.0154443
941.545	0.0154358
941.623	0.0154232
941.701	0.0153891
941.780	0.0153519
941.858	0.0155086
941.936	0.0154580
942.014	0.0152736
942.092	0.0153391
942.170	0.0154221
942.248	0.0154366
942.326	0.0154899
942.405	0.0153790
942.483	0.0153758
942.561	0.0153925
942.639	0.0155307
942.717	0.0154214
942.795	0.0153614
942.873	0.0154864
942.951	0.0155080
943.030	0.0153978
943.108	0.0153864
943.186	0.0153054
943.264	0.0154693
943.342	0.0154337
943.420	0.0153695
943.498	0.0153793
943.576	0.0154467
943.655	0.0154288
943.733	0.0153160
943.811	0.0153056
943.889	0.0152872
943.967	0.0152659
944.045	0.0154855
944.123	0.0153893
944.201	0.0153673
944.280	0.0153163
944.358	0.0154025
944.436	0.0153735
944.514	0.0153899
944.592	0.0153673
944.670	0.0154400
944.748	0.0153679
944.826	0.0154041
944.905	0.0154163
944.983	0.0153207
945.061	0.0154173
945.139	0.0155289
945.217	0.0153365
945.295	0.0153111
945.373	0.0153692
945.451	0.0155374
945.530	0.0154473
945.608	0.0154308
945.686	0.0153330
945.764	0.0152790
945.842	0.0152426
945.920	0.0151894
945.998	0.0152843
946.076	0.0153802
946.155	0.0152705
946.233	0.0152401
946.311	0.0152924
946.389	0.0152350
946.467	0.0152156
946.545	0.0152233
946.623	0.0151734
946.701	0.0152628
946.780	0.0153576
946.858	0.0150859
946.936	0.0151411
947.014	0.0152649
947.092	0.0151527
947.170	0.0151798
947.248	0.0150967
947.326	0.0152821
947.405	0.0151891
947.483	0.0152592
947.561	0.0152628
947.639	0.0150986
947.717	0.0153527
947.795	0.0151826
947.873	0.0150584
947.951	0.0152892
948.030	0.0152327
948.108	0.0152056
948.186	0.0151940
948.264	0.0152950
948.342	0.0151962
948.420	0.0151898
948.498	0.0152748
948.576	0.0151060
948.655	0.0152795
948.733	0.0152728
948.811	0.0152118
948.889	0.0153236
948.967	0.0151820
949.045	0.0152573
949.123	0.0152258
949.201	0.0152606
949.280	0.0152136
949.358	0.0154169
949.436	0.0153251
949.514	0.0151978
949.592	0.0152972
949.670	0.0153056
949.748	0.0152260
949.826	0.0152707
949.905	0.0154173
949.983	0.0154118
950.061	0.0153143
950.139	0.0154860
950.217	0.0153899
950.295	0.0153712
950.373	0.0152547
950.451	0.0153642
950.530	0.0154279
950.608	0.0153918
950.686	0.0152600
950.764	0.0154290
950.842	0.0154296
950.920	0.0154575
950.998	0.0154413
951.076	0.0153815
951.155	0.0153875
951.233	0.0153969
951.311	0.0153857
951.389	0.0154448
951.467	0.0155947
951.545	0.0154053
951.623	0.0153925
951.701	0.0153181
951.780	0.0153570
951.858	0.0153745
951.936	0.0154114
952.014	0.0154778
952.092	0.0154319
952.170	0.0154999
952.248	0.0155329
952.326	0.0152464
952.405	0.0155353
952.483	0.0153087
952.561	0.0154590
952.639	0.0154577
952.717	0.0154352
952.795	0.0155333
952.873	0.0154564
952.951	0.0153732
953.030	0.0153878
953.108	0.0152499
953.186	0.0155135
953.264	0.0155547
953.342	0.0155316
953.420	0.0154150
953.498	0.0153590
953.576	0.0154651
953.655	0.0154626
953.733	0.0155689
953.811	0.0155296
953.889	0.0154803
953.967	0.0153762
954.045	0.0153601
954.123	0.0153958
954.201	0.0153004
954.280	0.0155180
954.358	0.0154326
954.436	0.0155125
954.514	0.0155122
954.592	0.0155266
954.670	0.0153742
954.748	0.0153481
954.826	0.0153613
954.905	0.0154372
954.983	0.0154122
955.061	0.0151970
955.139	0.0154331
955.217	0.0154549
955.295	0.0152857
955.373	0.0152410
955.451	0.0153416
955.530	0.0153925
955.608	0.0151837
955.686	0.0154152
955.764	0.0153236
955.842	0.0153689
955.920	0.0152242
955.998	0.0152297
956.076	0.0152733
956.155	0.0154154
956.233	0.0153043
956.311	0.0153198
956.389	0.0152876
956.467	0.0152702
956.545	0.0151623
956.623	0.0153497
956.701	0.0151060
956.780	0.0152401
956.858	0.0153247
956.936	0.0153800
957.014	0.0152781
957.092	0.0152627
957.170	0.0151622
957.248	0.0152864
957.326	0.0153551
957.405	0.0152600
957.483	0.0153194
957.561	0.0153377
957.639	0.0153661
957.717	0.0153241
957.795	0.0152730
957.873	0.0153129
957.951	0.0153410
958.030	0.0153333
958.108	0.0151836
958.186	0.0152621
958.264	0.0154438
958.342	0.0153191
958.420	0.0152544
958.498	0.0152740
958.576	0.0153432
958.655	0.0153999
958.733	0.0153509
958.811	0.0152859
958.889	0.0153560
958.967	0.0152507
959.045	0.0154286
959.123	0.0153864
959.201	0.0153965
959.280	0.0156120
959.358	0.0154312
959.436	0.0153445
959.514	0.0153818
959.592	0.0153471
959.670	0.0154545
959.748	0.0154745
959.826	0.0154309
959.905	0.0154061
