05/20/2022	17:19:15	Ver.	4.1	UNKNOWN
Optical Delay	639.982744	Delta X		0.078125	Sweeps	1	Scan Rate	0/0
Coordinates	Axis 1	NaN	Axis 2	NaN	Axis 3	NaN	Axis 4	NaN	Axis 5	NaN	Axis 6	0.000000
TX Power	0.000000	RX Power	0.000000

639.983	0.0154864
640.061	0.0153574
640.139	0.0155228
640.217	0.0153358
640.295	0.0154993
640.373	0.0154619
640.451	0.0154423
640.530	0.0154706
640.608	0.0155609
640.686	0.0154961
640.764	0.0155538
640.842	0.0156650
640.920	0.0154028
640.998	0.0155543
641.076	0.0154879
641.155	0.0154123
641.233	0.0155020
641.311	0.0155170
641.389	0.0155576
641.467	0.0156004
641.545	0.0154439
641.623	0.0153561
641.701	0.0155630
641.780	0.0154502
641.858	0.0155396
641.936	0.0154247
642.014	0.0154487
642.092	0.0156145
642.170	0.0155492
642.248	0.0155125
642.326	0.0154444
642.405	0.0154636
642.483	0.0154461
642.561	0.0154378
642.639	0.0154475
642.717	0.0154308
642.795	0.0153765
642.873	0.0154556
642.951	0.0152289
643.030	0.0153500
643.108	0.0154181
643.186	0.0154341
643.264	0.0153565
643.342	0.0153619
643.420	0.0153307
643.498	0.0153409
643.576	0.0153579
643.655	0.0152499
643.733	0.0153893
643.811	0.0154363
643.889	0.0153482
643.967	0.0153451
644.045	0.0152814
644.123	0.0152834
644.201	0.0151133
644.280	0.0153346
644.358	0.0153007
644.436	0.0151129
644.514	0.0152542
644.592	0.0152474
644.670	0.0151856
644.748	0.0152454
644.826	0.0153179
644.905	0.0152183
644.983	0.0152615
645.061	0.0152077
645.139	0.0152612
645.217	0.0152583
645.295	0.0152480
645.373	0.0153682
645.451	0.0153013
645.530	0.0152776
645.608	0.0153556
645.686	0.0152946
645.764	0.0153249
645.842	0.0151690
645.920	0.0152952
645.998	0.0153265
646.076	0.0153032
646.155	0.0153301
646.233	0.0153831
646.311	0.0153581
646.389	0.0153289
646.467	0.0152797
646.545	0.0152115
646.623	0.0152934
646.701	0.0154749
646.780	0.0153429
646.858	0.0153247
646.936	0.0153097
647.014	0.0152661
647.092	0.0153191
647.170	0.0152114
647.248	0.0152583
647.326	0.0154307
647.405	0.0154136
647.483	0.0153199
647.561	0.0153329
647.639	0.0154652
647.717	0.0152627
647.795	0.0151620
647.873	0.0154488
647.951	0.0154800
648.030	0.0153024
648.108	0.0152531
648.186	0.0152044
648.264	0.0153448
648.342	0.0153590
648.420	0.0152667
648.498	0.0153757
648.576	0.0153569
648.655	0.0154669
648.733	0.0153064
648.811	0.0153528
648.889	0.0155410
648.967	0.0154218
649.045	0.0155479
649.123	0.0155205
649.201	0.0153799
649.280	0.0154531
649.358	0.0154616
649.436	0.0155230
649.514	0.0154082
649.592	0.0154821
649.670	0.0155055
649.748	0.0155742
649.826	0.0154142
649.905	0.0156004
649.983	0.0154210
650.061	0.0153980
650.139	0.0154823
650.217	0.0154820
650.295	0.0154140
650.373	0.0153912
650.451	0.0154962
650.530	0.0154013
650.608	0.0154057
650.686	0.0153566
650.764	0.0152447
650.842	0.0152058
650.920	0.0152164
650.998	0.0152962
651.076	0.0151588
651.155	0.0152457
651.233	0.0154105
651.311	0.0152160
651.389	0.0153629
651.467	0.0153892
651.545	0.0153680
651.623	0.0154354
651.701	0.0153716
651.780	0.0154170
651.858	0.0155730
651.936	0.0155710
652.014	0.0153539
652.092	0.0153917
652.170	0.0155280
652.248	0.0156677
652.326	0.0154865
652.405	0.0154797
652.483	0.0154372
652.561	0.0155083
652.639	0.0152095
652.717	0.0153735
652.795	0.0153062
652.873	0.0154174
652.951	0.0151485
653.030	0.0151011
653.108	0.0152361
653.186	0.0153359
653.264	0.0151880
653.342	0.0151540
653.420	0.0152535
653.498	0.0152315
653.576	0.0153638
653.655	0.0152500
653.733	0.0151051
653.811	0.0152313
653.889	0.0154739
653.967	0.0153391
654.045	0.0153174
654.123	0.0153432
654.201	0.0155686
654.280	0.0154385
654.358	0.0154134
654.436	0.0154468
654.514	0.0154252
654.592	0.0155597
654.670	0.0154710
654.748	0.0156024
654.826	0.0154974
654.905	0.0155025
654.983	0.0154342
655.061	0.0154311
655.139	0.0154845
655.217	0.0153780
655.295	0.0154614
655.373	0.0153835
655.451	0.0154526
655.530	0.0153881
655.608	0.0153210
655.686	0.0151835
655.764	0.0153083
655.842	0.0152851
655.920	0.0151886
655.998	0.0151913
656.076	0.0152796
656.155	0.0152116
656.233	0.0153020
656.311	0.0152142
656.389	0.0151665
656.467	0.0152125
656.545	0.0151884
656.623	0.0152917
656.701	0.0154316
656.780	0.0152997
656.858	0.0154105
656.936	0.0154415
657.014	0.0153884
657.092	0.0153383
657.170	0.0154880
657.248	0.0153958
657.326	0.0154478
657.405	0.0154948
657.483	0.0155054
657.561	0.0155297
657.639	0.0155499
657.717	0.0155865
657.795	0.0155497
657.873	0.0155209
657.951	0.0155650
658.030	0.0155258
658.108	0.0154219
658.186	0.0154641
658.264	0.0153398
658.342	0.0153031
658.420	0.0153433
658.498	0.0153206
658.576	0.0151656
658.655	0.0152681
658.733	0.0152745
658.811	0.0152461
658.889	0.0152704
658.967	0.0154347
659.045	0.0153407
659.123	0.0153185
659.201	0.0153688
659.280	0.0152751
659.358	0.0152015
659.436	0.0154221
659.514	0.0153929
659.592	0.0153719
659.670	0.0153941
659.748	0.0154228
659.826	0.0154601
659.905	0.0155713
659.983	0.0155270
660.061	0.0155463
660.139	0.0154892
660.217	0.0155078
660.295	0.0154806
660.373	0.0155673
660.451	0.0155602
660.530	0.0155798
660.608	0.0154441
660.686	0.0153685
660.764	0.0155392
660.842	0.0155612
660.920	0.0154160
660.998	0.0153813
661.076	0.0155125
661.155	0.0154063
661.233	0.0154369
661.311	0.0153098
661.389	0.0152621
661.467	0.0154266
661.545	0.0153746
661.623	0.0153436
661.701	0.0154482
661.780	0.0153146
661.858	0.0154252
661.936	0.0152477
662.014	0.0153961
662.092	0.0153024
662.170	0.0154311
662.248	0.0155383
662.326	0.0156138
662.405	0.0153362
662.483	0.0154684
662.561	0.0153431
662.639	0.0154537
662.717	0.0154943
662.795	0.0153191
662.873	0.0152246
662.951	0.0152695
663.030	0.0152393
663.108	0.0152488
663.186	0.0152242
663.264	0.0152595
663.342	0.0152020
663.420	0.0151584
663.498	0.0151060
663.576	0.0149113
663.655	0.0151057
663.733	0.0150082
663.811	0.0150407
663.889	0.0150134
663.967	0.0150978
664.045	0.0150956
664.123	0.0149276
664.201	0.0150455
664.280	0.0149353
664.358	0.0149968
664.436	0.0150452
664.514	0.0151182
664.592	0.0151690
664.670	0.0151813
664.748	0.0152728
664.826	0.0151440
664.905	0.0152801
664.983	0.0153542
665.061	0.0153119
665.139	0.0154161
665.217	0.0154398
665.295	0.0154948
665.373	0.0154835
665.451	0.0155212
665.530	0.0156017
665.608	0.0157097
665.686	0.0155975
665.764	0.0154414
665.842	0.0156957
665.920	0.0155485
665.998	0.0156400
666.076	0.0153774
666.155	0.0154793
666.233	0.0155754
666.311	0.0154011
666.389	0.0154194
666.467	0.0155086
666.545	0.0155740
666.623	0.0155438
666.701	0.0154162
666.780	0.0155421
666.858	0.0155193
666.936	0.0155051
667.014	0.0155220
667.092	0.0153429
667.170	0.0154391
667.248	0.0153627
667.326	0.0153895
667.405	0.0154523
667.483	0.0152592
667.561	0.0152708
667.639	0.0151973
667.717	0.0151806
667.795	0.0151125
667.873	0.0151769
667.951	0.0151018
668.030	0.0150883
668.108	0.0150648
668.186	0.0148560
668.264	0.0149205
668.342	0.0148295
668.420	0.0150255
668.498	0.0149496
668.576	0.0145896
668.655	0.0147454
668.733	0.0149123
668.811	0.0148846
668.889	0.0147605
668.967	0.0148211
669.045	0.0147765
669.123	0.0147950
669.201	0.0149213
669.280	0.0150418
669.358	0.0150545
669.436	0.0150150
669.514	0.0151067
669.592	0.0152689
669.670	0.0151561
669.748	0.0154073
669.826	0.0153099
669.905	0.0154134
669.983	0.0155332
670.061	0.0155936
670.139	0.0155683
670.217	0.0157400
670.295	0.0157100
670.373	0.0157018
670.451	0.0158773
670.530	0.0156158
670.608	0.0157214
670.686	0.0159065
670.764	0.0156216
670.842	0.0156254
670.920	0.0156659
670.998	0.0155747
671.076	0.0155115
671.155	0.0156352
671.233	0.0155444
671.311	0.0156004
671.389	0.0155953
671.467	0.0154211
671.545	0.0155614
671.623	0.0155923
671.701	0.0154807
671.780	0.0155568
671.858	0.0156384
671.936	0.0156182
672.014	0.0156845
672.092	0.0156156
672.170	0.0156065
672.248	0.0156326
672.326	0.0154914
672.405	0.0155717
672.483	0.0154712
672.561	0.0155856
672.639	0.0154738
672.717	0.0155148
672.795	0.0154613
672.873	0.0155357
672.951	0.0153741
673.030	0.0152511
673.108	0.0151725
673.186	0.0152470
673.264	0.0151837
673.342	0.0149494
673.420	0.0149115
673.498	0.0147668
673.576	0.0148083
673.655	0.0149234
673.733	0.0147289
673.811	0.0146389
673.889	0.0145441
673.967	0.0146088
674.045	0.0145073
674.123	0.0144417
674.201	0.0145531
674.280	0.0146202
674.358	0.0145283
674.436	0.0146294
674.514	0.0146838
674.592	0.0147212
674.670	0.0147002
674.748	0.0149858
674.826	0.0151685
674.905	0.0150116
674.983	0.0152782
675.061	0.0153610
675.139	0.0153614
675.217	0.0155679
675.295	0.0156322
675.373	0.0158343
675.451	0.0159523
675.530	0.0158239
675.608	0.0159293
675.686	0.0161044
675.764	0.0162394
675.842	0.0162300
675.920	0.0164011
675.998	0.0162785
676.076	0.0163165
676.155	0.0163126
676.233	0.0163887
676.311	0.0162449
676.389	0.0161877
676.467	0.0162943
676.545	0.0161376
676.623	0.0160980
676.701	0.0161436
676.780	0.0160982
676.858	0.0159452
676.936	0.0158975
677.014	0.0158440
677.092	0.0157065
677.170	0.0155278
677.248	0.0154198
677.326	0.0154445
677.405	0.0151814
677.483	0.0151775
677.561	0.0151556
677.639	0.0150564
677.717	0.0148897
677.795	0.0146988
677.873	0.0147211
677.951	0.0147881
678.030	0.0147264
678.108	0.0145592
678.186	0.0144582
678.264	0.0145697
678.342	0.0147306
678.420	0.0146010
678.498	0.0145877
678.576	0.0145580
678.655	0.0146383
678.733	0.0146063
678.811	0.0145685
678.889	0.0147150
678.967	0.0146822
679.045	0.0147717
679.123	0.0149218
679.201	0.0149145
679.280	0.0149679
679.358	0.0150312
679.436	0.0150414
679.514	0.0151656
679.592	0.0152679
679.670	0.0152271
679.748	0.0152798
679.826	0.0153427
679.905	0.0154948
679.983	0.0157375
680.061	0.0156132
680.139	0.0157743
680.217	0.0157727
680.295	0.0157623
680.373	0.0158339
680.451	0.0159995
680.530	0.0158841
680.608	0.0158385
680.686	0.0160617
680.764	0.0158986
680.842	0.0160709
680.920	0.0159328
680.998	0.0159528
681.076	0.0159720
681.155	0.0158386
681.233	0.0158154
681.311	0.0157248
681.389	0.0156256
681.467	0.0156185
681.545	0.0155459
681.623	0.0156683
681.701	0.0155357
681.780	0.0153329
681.858	0.0155633
681.936	0.0155843
682.014	0.0153522
682.092	0.0153357
682.170	0.0152462
682.248	0.0152963
682.326	0.0151781
682.405	0.0152216
682.483	0.0152111
682.561	0.0150961
682.639	0.0151055
682.717	0.0150790
682.795	0.0149804
682.873	0.0150281
682.951	0.0149966
683.030	0.0149532
683.108	0.0151838
683.186	0.0151435
683.264	0.0150348
683.342	0.0152224
683.420	0.0151190
683.498	0.0152019
683.576	0.0152409
683.655	0.0152036
683.733	0.0152182
683.811	0.0153577
683.889	0.0154951
683.967	0.0155778
684.045	0.0155009
684.123	0.0155589
684.201	0.0156158
684.280	0.0157627
684.358	0.0156522
684.436	0.0157072
684.514	0.0156513
684.592	0.0157964
684.670	0.0157278
684.748	0.0155093
684.826	0.0154234
684.905	0.0155601
684.983	0.0155904
685.061	0.0154116
685.139	0.0155421
685.217	0.0153604
685.295	0.0153540
685.373	0.0154007
685.451	0.0151929
685.530	0.0151169
685.608	0.0152492
685.686	0.0152290
685.764	0.0151460
685.842	0.0152480
685.920	0.0150627
685.998	0.0150535
686.076	0.0151745
686.155	0.0151233
686.233	0.0151759
686.311	0.0151981
686.389	0.0152383
686.467	0.0152003
686.545	0.0151938
686.623	0.0153001
686.701	0.0150333
686.780	0.0152346
686.858	0.0153381
686.936	0.0154176
687.014	0.0152352
687.092	0.0151241
687.170	0.0154302
687.248	0.0152264
687.326	0.0152447
687.405	0.0154126
687.483	0.0154332
687.561	0.0154565
687.639	0.0155614
687.717	0.0154972
687.795	0.0154298
687.873	0.0155530
687.951	0.0154533
688.030	0.0156260
688.108	0.0155550
688.186	0.0153941
688.264	0.0156240
688.342	0.0154962
688.420	0.0155684
688.498	0.0157407
688.576	0.0155650
688.655	0.0154714
688.733	0.0155509
688.811	0.0154111
688.889	0.0155361
688.967	0.0153659
689.045	0.0155949
689.123	0.0155840
689.201	0.0154759
689.280	0.0152550
689.358	0.0153226
689.436	0.0154593
689.514	0.0153717
689.592	0.0152035
689.670	0.0151653
689.748	0.0152397
689.826	0.0151387
689.905	0.0150584
689.983	0.0151109
690.061	0.0149001
690.139	0.0148907
690.217	0.0149145
690.295	0.0149973
690.373	0.0149146
690.451	0.0148726
690.530	0.0149528
690.608	0.0148999
690.686	0.0149176
690.764	0.0150809
690.842	0.0148050
690.920	0.0151810
690.998	0.0151328
691.076	0.0151773
691.155	0.0153190
691.233	0.0152702
691.311	0.0154131
691.389	0.0154384
691.467	0.0155251
691.545	0.0155487
691.623	0.0157483
691.701	0.0157606
691.780	0.0156776
691.858	0.0158277
691.936	0.0157896
692.014	0.0158160
692.092	0.0158629
692.170	0.0158456
692.248	0.0157722
692.326	0.0157506
692.405	0.0158043
692.483	0.0156735
692.561	0.0156715
692.639	0.0157131
692.717	0.0155402
692.795	0.0154134
692.873	0.0155126
692.951	0.0154594
693.030	0.0154949
693.108	0.0155725
693.186	0.0154829
693.264	0.0155467
693.342	0.0153888
693.420	0.0151626
693.498	0.0151471
693.576	0.0152951
693.655	0.0153160
693.733	0.0151978
693.811	0.0150563
693.889	0.0149606
693.967	0.0149920
694.045	0.0149426
694.123	0.0148513
694.201	0.0149017
694.280	0.0150425
694.358	0.0148714
694.436	0.0149014
694.514	0.0150536
694.592	0.0150513
694.670	0.0151684
694.748	0.0151649
694.826	0.0151720
694.905	0.0154144
694.983	0.0154659
695.061	0.0154408
695.139	0.0157167
695.217	0.0156750
695.295	0.0157205
695.373	0.0157942
695.451	0.0158402
695.530	0.0159478
695.608	0.0160181
695.686	0.0160951
695.764	0.0159074
695.842	0.0159549
695.920	0.0158173
695.998	0.0159879
696.076	0.0160274
696.155	0.0158067
696.233	0.0158872
696.311	0.0157003
696.389	0.0155872
696.467	0.0157383
696.545	0.0155623
696.623	0.0154613
696.701	0.0154903
696.780	0.0154954
696.858	0.0155409
696.936	0.0155582
697.014	0.0154207
697.092	0.0155009
697.170	0.0154649
697.248	0.0154980
697.326	0.0154942
697.405	0.0154208
697.483	0.0153278
697.561	0.0153603
697.639	0.0153806
697.717	0.0152672
697.795	0.0153971
697.873	0.0153563
697.951	0.0151900
698.030	0.0152702
698.108	0.0153355
698.186	0.0151506
698.264	0.0151620
698.342	0.0150616
698.420	0.0150504
698.498	0.0150224
698.576	0.0149000
698.655	0.0150304
698.733	0.0148496
698.811	0.0148818
698.889	0.0146394
698.967	0.0147366
699.045	0.0147342
699.123	0.0147903
699.201	0.0145893
699.280	0.0147097
699.358	0.0147415
699.436	0.0146523
699.514	0.0148476
699.592	0.0149593
699.670	0.0149504
699.748	0.0150584
699.826	0.0150690
699.905	0.0153127
699.983	0.0153178
700.061	0.0153498
700.139	0.0154321
700.217	0.0154230
700.295	0.0156452
700.373	0.0156994
700.451	0.0156822
700.530	0.0157485
700.608	0.0158028
700.686	0.0159018
700.764	0.0158263
700.842	0.0158289
700.920	0.0157993
700.998	0.0160770
701.076	0.0160739
701.155	0.0159631
701.233	0.0161023
701.311	0.0160089
701.389	0.0160621
701.467	0.0161664
701.545	0.0161066
701.623	0.0161315
701.701	0.0161270
701.780	0.0160059
701.858	0.0160759
701.936	0.0161085
702.014	0.0159772
702.092	0.0159891
702.170	0.0158873
702.248	0.0159001
702.326	0.0156435
702.405	0.0156614
702.483	0.0154527
702.561	0.0153477
702.639	0.0153680
702.717	0.0153085
702.795	0.0151951
702.873	0.0151165
702.951	0.0149957
703.030	0.0148662
703.108	0.0148859
703.186	0.0148900
703.264	0.0148637
703.342	0.0147367
703.420	0.0147355
703.498	0.0146916
703.576	0.0148373
703.655	0.0149973
703.733	0.0148406
703.811	0.0149719
703.889	0.0149432
703.967	0.0150645
704.045	0.0150562
704.123	0.0151286
704.201	0.0152168
704.280	0.0151863
704.358	0.0152818
704.436	0.0154044
704.514	0.0152956
704.592	0.0154977
704.670	0.0155785
704.748	0.0156363
704.826	0.0156176
704.905	0.0155756
704.983	0.0156657
705.061	0.0157215
705.139	0.0156874
705.217	0.0156701
705.295	0.0158015
705.373	0.0157856
705.451	0.0156929
705.530	0.0157867
705.608	0.0156393
705.686	0.0158337
705.764	0.0157842
705.842	0.0156284
705.920	0.0157478
705.998	0.0158143
706.076	0.0156279
706.155	0.0157723
706.233	0.0157390
706.311	0.0157778
706.389	0.0158572
706.467	0.0157600
706.545	0.0158716
706.623	0.0158960
706.701	0.0159908
706.780	0.0159412
706.858	0.0159508
706.936	0.0158752
707.014	0.0158202
707.092	0.0158787
707.170	0.0159510
707.248	0.0157567
707.326	0.0157341
707.405	0.0156985
707.483	0.0158884
707.561	0.0156998
707.639	0.0156624
707.717	0.0156410
707.795	0.0155759
707.873	0.0156506
707.951	0.0155417
708.030	0.0155585
708.108	0.0155246
708.186	0.0154723
708.264	0.0153912
708.342	0.0153252
708.420	0.0153313
708.498	0.0152568
708.576	0.0151005
708.655	0.0152557
708.733	0.0151070
708.811	0.0150114
708.889	0.0150467
708.967	0.0152172
709.045	0.0151130
709.123	0.0149651
709.201	0.0150862
709.280	0.0151743
709.358	0.0151683
709.436	0.0152048
709.514	0.0151772
709.592	0.0150950
709.670	0.0150977
709.748	0.0151624
709.826	0.0152182
709.905	0.0150868
709.983	0.0152901
710.061	0.0151472
710.139	0.0153188
710.217	0.0153323
710.295	0.0150245
710.373	0.0152013
710.451	0.0152169
710.530	0.0151654
710.608	0.0151869
710.686	0.0152938
710.764	0.0153556
710.842	0.0152905
710.920	0.0152521
710.998	0.0152958
711.076	0.0152586
711.155	0.0152220
711.233	0.0154205
711.311	0.0152843
711.389	0.0153345
711.467	0.0153662
711.545	0.0154243
711.623	0.0154865
711.701	0.0154904
711.780	0.0154415
711.858	0.0155732
711.936	0.0155187
712.014	0.0155518
712.092	0.0156161
712.170	0.0155801
712.248	0.0155400
712.326	0.0156265
712.405	0.0155418
712.483	0.0155597
712.561	0.0155887
712.639	0.0155455
712.717	0.0153908
712.795	0.0152354
712.873	0.0154491
712.951	0.0153572
713.030	0.0152842
713.108	0.0153177
713.186	0.0152856
713.264	0.0153073
713.342	0.0151109
713.420	0.0150933
713.498	0.0151782
713.576	0.0151241
713.655	0.0150366
713.733	0.0152271
713.811	0.0150353
713.889	0.0149395
713.967	0.0151958
714.045	0.0150787
714.123	0.0150535
714.201	0.0151759
714.280	0.0150966
714.358	0.0150776
714.436	0.0149348
714.514	0.0151636
714.592	0.0151475
714.670	0.0151875
714.748	0.0152065
714.826	0.0152454
714.905	0.0154015
714.983	0.0154055
715.061	0.0154801
715.139	0.0155006
715.217	0.0155114
715.295	0.0155981
715.373	0.0155106
715.451	0.0154887
715.530	0.0155442
715.608	0.0156046
715.686	0.0156109
715.764	0.0156399
715.842	0.0157336
715.920	0.0155775
715.998	0.0155608
716.076	0.0156882
716.155	0.0156210
716.233	0.0156278
716.311	0.0153992
716.389	0.0154263
716.467	0.0154289
716.545	0.0153333
716.623	0.0153741
716.701	0.0152635
716.780	0.0153621
716.858	0.0152642
716.936	0.0152551
717.014	0.0152763
717.092	0.0152600
717.170	0.0151912
717.248	0.0152761
717.326	0.0153085
717.405	0.0151632
717.483	0.0151050
717.561	0.0151602
717.639	0.0152575
717.717	0.0151870
717.795	0.0152036
717.873	0.0151604
717.951	0.0150298
718.030	0.0152428
718.108	0.0151732
718.186	0.0151089
718.264	0.0150233
718.342	0.0152333
718.420	0.0151625
718.498	0.0151718
718.576	0.0151907
718.655	0.0153275
718.733	0.0153274
718.811	0.0154743
718.889	0.0153918
718.967	0.0154776
719.045	0.0155943
719.123	0.0155896
719.201	0.0155666
719.280	0.0156996
719.358	0.0156980
719.436	0.0158457
719.514	0.0158763
719.592	0.0159429
719.670	0.0158942
719.748	0.0158803
719.826	0.0158440
719.905	0.0158781
719.983	0.0158709
720.061	0.0157765
720.139	0.0158060
720.217	0.0158413
720.295	0.0157158
720.373	0.0156103
720.451	0.0156995
720.530	0.0155393
720.608	0.0156112
720.686	0.0154805
720.764	0.0155147
720.842	0.0154826
720.920	0.0154932
720.998	0.0154035
721.076	0.0154259
721.155	0.0154303
721.233	0.0154117
721.311	0.0153637
721.389	0.0154143
721.467	0.0155224
721.545	0.0153926
721.623	0.0152962
721.701	0.0154111
721.780	0.0153160
721.858	0.0153932
721.936	0.0153953
722.014	0.0152475
722.092	0.0152298
722.170	0.0151682
722.248	0.0152160
722.326	0.0152682
722.405	0.0154447
722.483	0.0152557
722.561	0.0152792
722.639	0.0153967
722.717	0.0154221
722.795	0.0153495
722.873	0.0153165
722.951	0.0154442
723.030	0.0154047
723.108	0.0154844
723.186	0.0156272
723.264	0.0155240
723.342	0.0155198
723.420	0.0153972
723.498	0.0154468
723.576	0.0155428
723.655	0.0155565
723.733	0.0153928
723.811	0.0153258
723.889	0.0153431
723.967	0.0153694
724.045	0.0152163
724.123	0.0151753
724.201	0.0153429
724.280	0.0153999
724.358	0.0152175
724.436	0.0152605
724.514	0.0152985
724.592	0.0154710
724.670	0.0154780
724.748	0.0154072
724.826	0.0155693
724.905	0.0155357
724.983	0.0154974
725.061	0.0155471
725.139	0.0157594
725.217	0.0157006
725.295	0.0155628
725.373	0.0155603
725.451	0.0155861
725.530	0.0156227
725.608	0.0156306
725.686	0.0154669
725.764	0.0156800
725.842	0.0157166
725.920	0.0157164
725.998	0.0155288
726.076	0.0155373
726.155	0.0153801
726.233	0.0155714
726.311	0.0153639
726.389	0.0154095
726.467	0.0154974
726.545	0.0155521
726.623	0.0153954
726.701	0.0155322
726.780	0.0154778
726.858	0.0155311
726.936	0.0155637
727.014	0.0153764
727.092	0.0154653
727.170	0.0155453
727.248	0.0154815
727.326	0.0154189
727.405	0.0154291
727.483	0.0155410
727.561	0.0154635
727.639	0.0154189
727.717	0.0153776
727.795	0.0154305
727.873	0.0152419
727.951	0.0152789
728.030	0.0151908
728.108	0.0150648
728.186	0.0150854
728.264	0.0150777
728.342	0.0149610
728.420	0.0148962
728.498	0.0148890
728.576	0.0148765
728.655	0.0148014
728.733	0.0148558
728.811	0.0145814
728.889	0.0147149
728.967	0.0146746
729.045	0.0147677
729.123	0.0147437
729.201	0.0147964
729.280	0.0149647
729.358	0.0148988
729.436	0.0150405
729.514	0.0150497
729.592	0.0151923
729.670	0.0154427
729.748	0.0154978
729.826	0.0154880
729.905	0.0157168
729.983	0.0157505
730.061	0.0157326
730.139	0.0157855
730.217	0.0160146
730.295	0.0158898
730.373	0.0158704
730.451	0.0159206
730.530	0.0160378
730.608	0.0159257
730.686	0.0158508
730.764	0.0160800
730.842	0.0158210
730.920	0.0157693
730.998	0.0157999
731.076	0.0158801
731.155	0.0158160
731.233	0.0157610
731.311	0.0155974
731.389	0.0155003
731.467	0.0156896
731.545	0.0155658
731.623	0.0155724
731.701	0.0155205
731.780	0.0154276
731.858	0.0152222
731.936	0.0152771
732.014	0.0153391
732.092	0.0152151
732.170	0.0151320
732.248	0.0150492
732.326	0.0151498
732.405	0.0152036
732.483	0.0151746
732.561	0.0150658
732.639	0.0152332
732.717	0.0152023
732.795	0.0149480
732.873	0.0151561
732.951	0.0149387
733.030	0.0151756
733.108	0.0152200
733.186	0.0151154
733.264	0.0152444
733.342	0.0150328
733.420	0.0151184
733.498	0.0150974
733.576	0.0153081
733.655	0.0151446
733.733	0.0151804
733.811	0.0152185
733.889	0.0154004
733.967	0.0151633
734.045	0.0153670
734.123	0.0153540
734.201	0.0153442
734.280	0.0152537
734.358	0.0152625
734.436	0.0154335
734.514	0.0153935
734.592	0.0153443
734.670	0.0153904
734.748	0.0155517
734.826	0.0154794
734.905	0.0154559
734.983	0.0157101
735.061	0.0153259
735.139	0.0154870
735.217	0.0154386
735.295	0.0155551
735.373	0.0155598
735.451	0.0154646
735.530	0.0155878
735.608	0.0156003
735.686	0.0154749
735.764	0.0154418
735.842	0.0155349
735.920	0.0154530
735.998	0.0154382
736.076	0.0155561
736.155	0.0155690
736.233	0.0154108
736.311	0.0153033
736.389	0.0154844
736.467	0.0153045
736.545	0.0152570
736.623	0.0153484
736.701	0.0152838
736.780	0.0151465
736.858	0.0152305
736.936	0.0149938
737.014	0.0150789
737.092	0.0150858
737.170	0.0152273
737.248	0.0152306
737.326	0.0150410
737.405	0.0150886
737.483	0.0151619
737.561	0.0150418
737.639	0.0152088
737.717	0.0151494
737.795	0.0151746
737.873	0.0151125
737.951	0.0150362
738.030	0.0151048
738.108	0.0152480
738.186	0.0153550
738.264	0.0153796
738.342	0.0153541
738.420	0.0153352
738.498	0.0153090
738.576	0.0153941
738.655	0.0154266
738.733	0.0156863
738.811	0.0157151
738.889	0.0155788
738.967	0.0156242
739.045	0.0156516
739.123	0.0157461
739.201	0.0157420
739.280	0.0156538
739.358	0.0157730
739.436	0.0155999
739.514	0.0155033
739.592	0.0155476
739.670	0.0154881
739.748	0.0153055
739.826	0.0155312
739.905	0.0154319
739.983	0.0155765
740.061	0.0153915
740.139	0.0153416
740.217	0.0155141
740.295	0.0153906
740.373	0.0152879
740.451	0.0153607
740.530	0.0151669
740.608	0.0152689
740.686	0.0154313
740.764	0.0154295
740.842	0.0153979
740.920	0.0154449
740.998	0.0153017
741.076	0.0154180
741.155	0.0153455
741.233	0.0153773
741.311	0.0154042
741.389	0.0155231
741.467	0.0153277
741.545	0.0154030
741.623	0.0154221
741.701	0.0154019
741.780	0.0153718
741.858	0.0153506
741.936	0.0152776
742.014	0.0152518
742.092	0.0153521
742.170	0.0151614
742.248	0.0153156
742.326	0.0151822
742.405	0.0152597
742.483	0.0152341
742.561	0.0153533
742.639	0.0153186
742.717	0.0153280
742.795	0.0153378
742.873	0.0153632
742.951	0.0153804
743.030	0.0153697
743.108	0.0154806
743.186	0.0153385
743.264	0.0155239
743.342	0.0155025
743.420	0.0155421
743.498	0.0155112
743.576	0.0155825
743.655	0.0156443
743.733	0.0156377
743.811	0.0155607
743.889	0.0156050
743.967	0.0154826
744.045	0.0154344
744.123	0.0154729
744.201	0.0154418
744.280	0.0154359
744.358	0.0153510
744.436	0.0152205
744.514	0.0152522
744.592	0.0153729
744.670	0.0151746
744.748	0.0152248
744.826	0.0154058
744.905	0.0153195
744.983	0.0152641
745.061	0.0152259
745.139	0.0153795
745.217	0.0154280
745.295	0.0155289
745.373	0.0154694
745.451	0.0155472
745.530	0.0155421
745.608	0.0155416
745.686	0.0156898
745.764	0.0157409
745.842	0.0156146
745.920	0.0156436
745.998	0.0156169
746.076	0.0156465
746.155	0.0157080
746.233	0.0156420
746.311	0.0155739
746.389	0.0155432
746.467	0.0155306
746.545	0.0154844
746.623	0.0154176
746.701	0.0153646
746.780	0.0153495
746.858	0.0153384
746.936	0.0154095
747.014	0.0152883
747.092	0.0152052
747.170	0.0153232
747.248	0.0152489
747.326	0.0151880
747.405	0.0152972
747.483	0.0152006
747.561	0.0150829
747.639	0.0152808
747.717	0.0151078
747.795	0.0150994
747.873	0.0152396
747.951	0.0152127
748.030	0.0152243
748.108	0.0150553
748.186	0.0152612
748.264	0.0152654
748.342	0.0152604
748.420	0.0153658
748.498	0.0153828
748.576	0.0154089
748.655	0.0153922
748.733	0.0154816
748.811	0.0152901
748.889	0.0152769
748.967	0.0152080
749.045	0.0153152
749.123	0.0153429
749.201	0.0152418
749.280	0.0152148
749.358	0.0153310
749.436	0.0153352
749.514	0.0152267
749.592	0.0152408
749.670	0.0153291
749.748	0.0153156
749.826	0.0152496
749.905	0.0151463
749.983	0.0152570
750.061	0.0151614
750.139	0.0153889
750.217	0.0153432
750.295	0.0152239
750.373	0.0154268
750.451	0.0154642
750.530	0.0154626
750.608	0.0155122
750.686	0.0156104
750.764	0.0155936
750.842	0.0155083
750.920	0.0156527
750.998	0.0155723
751.076	0.0158379
751.155	0.0157185
751.233	0.0157008
751.311	0.0156454
751.389	0.0156354
751.467	0.0157010
751.545	0.0156488
751.623	0.0156712
751.701	0.0154813
751.780	0.0156396
751.858	0.0154335
751.936	0.0154465
752.014	0.0154889
752.092	0.0154286
752.170	0.0154000
752.248	0.0153585
752.326	0.0153583
752.405	0.0152021
752.483	0.0152686
752.561	0.0152425
752.639	0.0151437
752.717	0.0152308
752.795	0.0151797
752.873	0.0151539
752.951	0.0149908
753.030	0.0150808
753.108	0.0150660
753.186	0.0151242
753.264	0.0151120
753.342	0.0150566
753.420	0.0151015
753.498	0.0151344
753.576	0.0152351
753.655	0.0151198
753.733	0.0151429
753.811	0.0151562
753.889	0.0152251
753.967	0.0153180
754.045	0.0154715
754.123	0.0154414
754.201	0.0154118
754.280	0.0154806
754.358	0.0155612
754.436	0.0155862
754.514	0.0156707
754.592	0.0155415
754.670	0.0154301
754.748	0.0156747
754.826	0.0155640
754.905	0.0155717
754.983	0.0157082
755.061	0.0155089
755.139	0.0154367
755.217	0.0153529
755.295	0.0153004
755.373	0.0151447
755.451	0.0151221
755.530	0.0152404
755.608	0.0151356
755.686	0.0151384
755.764	0.0151070
755.842	0.0151724
755.920	0.0152375
755.998	0.0151160
756.076	0.0152305
756.155	0.0151997
756.233	0.0152308
756.311	0.0151534
756.389	0.0153671
756.467	0.0152817
756.545	0.0154527
756.623	0.0153366
756.701	0.0153098
756.780	0.0153994
756.858	0.0153938
756.936	0.0154224
757.014	0.0155069
757.092	0.0153915
757.170	0.0153899
757.248	0.0152605
757.326	0.0152775
757.405	0.0152124
757.483	0.0151434
757.561	0.0152959
757.639	0.0152650
757.717	0.0153246
757.795	0.0151531
757.873	0.0150765
757.951	0.0151833
758.030	0.0150988
758.108	0.0151905
758.186	0.0151061
758.264	0.0150199
758.342	0.0151109
758.420	0.0152060
758.498	0.0151731
758.576	0.0151440
758.655	0.0152116
758.733	0.0151594
758.811	0.0151099
758.889	0.0151101
758.967	0.0153241
759.045	0.0154422
759.123	0.0155469
759.201	0.0155348
759.280	0.0154675
759.358	0.0154716
759.436	0.0156147
759.514	0.0157019
759.592	0.0157238
759.670	0.0158546
759.748	0.0157898
759.826	0.0156985
759.905	0.0158045
759.983	0.0159614
760.061	0.0158266
760.139	0.0156639
760.217	0.0157501
760.295	0.0157405
760.373	0.0155283
760.451	0.0156445
760.530	0.0155292
760.608	0.0154368
760.686	0.0155205
760.764	0.0153515
760.842	0.0153928
760.920	0.0153078
760.998	0.0152213
761.076	0.0153133
761.155	0.0151853
761.233	0.0152054
761.311	0.0151898
761.389	0.0150987
761.467	0.0152085
761.545	0.0152608
761.623	0.0152260
761.701	0.0151099
761.780	0.0152225
761.858	0.0150863
761.936	0.0151868
762.014	0.0151716
762.092	0.0152274
762.170	0.0152159
762.248	0.0153264
762.326	0.0153619
762.405	0.0154552
762.483	0.0153363
762.561	0.0154119
762.639	0.0154016
762.717	0.0154743
762.795	0.0155685
762.873	0.0155401
762.951	0.0155486
763.030	0.0155335
763.108	0.0155331
763.186	0.0156502
763.264	0.0156823
763.342	0.0156117
763.420	0.0158627
763.498	0.0158575
763.576	0.0156670
763.655	0.0158420
763.733	0.0157716
763.811	0.0158183
763.889	0.0157227
763.967	0.0157107
764.045	0.0156216
764.123	0.0155891
764.201	0.0154746
764.280	0.0155504
764.358	0.0153468
764.436	0.0153664
764.514	0.0152861
764.592	0.0152232
764.670	0.0153807
764.748	0.0152636
764.826	0.0152854
764.905	0.0152271
764.983	0.0152647
765.061	0.0152797
765.139	0.0153120
765.217	0.0152631
765.295	0.0152315
765.373	0.0154082
765.451	0.0155123
765.530	0.0153811
765.608	0.0152399
765.686	0.0154335
765.764	0.0155212
765.842	0.0155479
765.920	0.0153445
765.998	0.0154372
766.076	0.0153247
766.155	0.0154593
766.233	0.0154488
766.311	0.0154552
766.389	0.0153925
766.467	0.0154159
766.545	0.0152343
766.623	0.0153295
766.701	0.0154096
766.780	0.0153349
766.858	0.0152847
766.936	0.0153899
767.014	0.0154204
767.092	0.0154082
767.170	0.0153733
767.248	0.0154611
767.326	0.0153488
767.405	0.0154234
767.483	0.0153570
767.561	0.0153675
767.639	0.0154232
767.717	0.0154068
767.795	0.0155909
767.873	0.0155727
767.951	0.0155029
768.030	0.0154428
768.108	0.0156108
768.186	0.0156339
768.264	0.0155092
768.342	0.0155746
768.420	0.0157300
768.498	0.0156339
768.576	0.0155383
768.655	0.0154385
768.733	0.0155364
768.811	0.0155733
768.889	0.0156942
768.967	0.0154264
769.045	0.0155996
769.123	0.0155856
769.201	0.0155706
769.280	0.0155412
769.358	0.0154495
769.436	0.0156694
769.514	0.0154196
769.592	0.0154311
769.670	0.0154942
769.748	0.0154874
769.826	0.0154251
769.905	0.0153830
769.983	0.0154449
770.061	0.0152927
770.139	0.0152394
770.217	0.0151620
770.295	0.0151687
770.373	0.0151077
770.451	0.0150297
770.530	0.0150863
770.608	0.0150592
770.686	0.0150689
770.764	0.0149807
770.842	0.0150982
770.920	0.0150048
770.998	0.0151065
771.076	0.0149933
771.155	0.0152831
771.233	0.0151886
771.311	0.0151316
771.389	0.0152177
771.467	0.0154597
771.545	0.0153265
771.623	0.0153497
771.701	0.0153091
771.780	0.0153545
771.858	0.0154144
771.936	0.0154144
772.014	0.0153974
772.092	0.0151809
772.170	0.0153443
772.248	0.0154199
772.326	0.0152370
772.405	0.0153943
772.483	0.0154650
772.561	0.0154665
772.639	0.0153954
772.717	0.0152761
772.795	0.0153234
772.873	0.0154482
772.951	0.0155637
773.030	0.0154924
773.108	0.0154796
773.186	0.0154852
773.264	0.0154067
773.342	0.0157040
773.420	0.0155437
773.498	0.0154204
773.576	0.0156422
773.655	0.0154935
773.733	0.0153689
773.811	0.0154726
773.889	0.0154813
773.967	0.0156533
774.045	0.0154485
774.123	0.0154075
774.201	0.0153984
774.280	0.0153578
774.358	0.0154103
774.436	0.0152279
774.514	0.0154085
774.592	0.0153577
774.670	0.0151151
774.748	0.0151064
774.826	0.0151943
774.905	0.0152710
774.983	0.0150600
775.061	0.0150323
775.139	0.0151971
775.217	0.0150622
775.295	0.0151338
775.373	0.0150423
775.451	0.0150420
775.530	0.0151384
775.608	0.0150813
775.686	0.0150980
775.764	0.0150951
775.842	0.0151215
775.920	0.0151127
775.998	0.0152268
776.076	0.0151321
776.155	0.0152218
776.233	0.0152534
776.311	0.0153336
776.389	0.0153207
776.467	0.0153207
776.545	0.0154453
776.623	0.0153813
776.701	0.0154496
776.780	0.0153915
776.858	0.0155457
776.936	0.0155563
777.014	0.0155260
777.092	0.0155822
777.170	0.0156839
777.248	0.0156438
777.326	0.0154961
777.405	0.0155774
777.483	0.0156755
777.561	0.0155185
777.639	0.0155901
777.717	0.0156221
777.795	0.0155505
777.873	0.0156531
777.951	0.0156487
778.030	0.0154799
778.108	0.0154661
778.186	0.0155222
778.264	0.0154533
778.342	0.0154580
778.420	0.0154823
778.498	0.0154193
778.576	0.0152767
778.655	0.0155383
778.733	0.0153709
778.811	0.0151883
778.889	0.0153758
778.967	0.0154430
779.045	0.0153143
779.123	0.0151859
779.201	0.0152266
779.280	0.0153052
779.358	0.0153673
779.436	0.0150804
779.514	0.0152273
779.592	0.0151684
779.670	0.0153509
779.748	0.0153613
779.826	0.0153246
779.905	0.0152006
779.983	0.0151465
780.061	0.0153568
780.139	0.0153173
780.217	0.0153008
780.295	0.0153830
780.373	0.0152679
780.451	0.0152888
780.530	0.0153218
780.608	0.0152513
780.686	0.0151473
780.764	0.0152118
780.842	0.0152735
780.920	0.0153622
780.998	0.0152493
781.076	0.0152693
781.155	0.0152567
781.233	0.0153885
781.311	0.0152390
781.389	0.0153043
781.467	0.0152721
781.545	0.0153178
781.623	0.0153937
781.701	0.0153831
781.780	0.0152929
781.858	0.0154227
781.936	0.0154183
782.014	0.0155589
782.092	0.0153629
782.170	0.0153611
782.248	0.0154427
782.326	0.0155235
782.405	0.0154265
782.483	0.0154749
782.561	0.0156310
782.639	0.0155070
782.717	0.0153679
782.795	0.0155264
782.873	0.0154498
782.951	0.0157200
783.030	0.0156353
783.108	0.0156345
783.186	0.0156293
783.264	0.0155631
783.342	0.0155885
783.420	0.0154639
783.498	0.0155876
783.576	0.0157506
783.655	0.0156964
783.733	0.0155427
783.811	0.0156342
783.889	0.0154392
783.967	0.0155868
784.045	0.0157316
784.123	0.0154836
784.201	0.0155537
784.280	0.0156550
784.358	0.0154892
784.436	0.0155315
784.514	0.0155696
784.592	0.0155364
784.670	0.0153053
784.748	0.0153617
784.826	0.0155423
784.905	0.0153912
784.983	0.0154248
785.061	0.0154209
785.139	0.0153602
785.217	0.0153114
785.295	0.0152740
785.373	0.0153557
785.451	0.0153281
785.530	0.0153357
785.608	0.0152161
785.686	0.0153619
785.764	0.0152723
785.842	0.0153036
785.920	0.0153370
785.998	0.0154027
786.076	0.0154241
786.155	0.0153499
786.233	0.0154160
786.311	0.0153719
786.389	0.0153136
786.467	0.0155388
786.545	0.0154350
786.623	0.0153227
786.701	0.0154333
786.780	0.0154688
786.858	0.0153775
786.936	0.0154069
787.014	0.0153001
787.092	0.0153434
787.170	0.0153457
787.248	0.0153117
787.326	0.0153779
787.405	0.0154443
787.483	0.0156101
787.561	0.0154005
787.639	0.0154538
787.717	0.0154347
787.795	0.0154436
787.873	0.0154601
787.951	0.0154733
788.030	0.0155237
788.108	0.0154398
788.186	0.0154416
788.264	0.0153419
788.342	0.0155817
788.420	0.0155666
788.498	0.0153748
788.576	0.0155782
788.655	0.0156052
788.733	0.0154564
788.811	0.0155469
788.889	0.0155605
788.967	0.0154643
789.045	0.0152585
789.123	0.0153592
789.201	0.0154800
789.280	0.0153492
789.358	0.0152830
789.436	0.0153809
789.514	0.0152735
789.592	0.0153146
789.670	0.0152957
789.748	0.0151730
789.826	0.0152235
789.905	0.0152030
789.983	0.0151755
790.061	0.0150669
790.139	0.0150941
790.217	0.0151159
790.295	0.0149531
790.373	0.0149667
790.451	0.0150256
790.530	0.0150059
790.608	0.0150572
790.686	0.0151560
790.764	0.0151389
790.842	0.0151100
790.920	0.0152213
790.998	0.0152222
791.076	0.0150829
791.155	0.0152406
791.233	0.0153079
791.311	0.0153446
791.389	0.0151817
791.467	0.0153618
791.545	0.0154897
791.623	0.0154671
791.701	0.0154071
791.780	0.0155766
791.858	0.0156480
791.936	0.0156193
792.014	0.0155242
792.092	0.0154509
792.170	0.0155276
792.248	0.0153943
792.326	0.0155493
792.405	0.0154853
792.483	0.0154393
792.561	0.0155127
792.639	0.0154972
792.717	0.0153635
792.795	0.0153284
792.873	0.0153712
792.951	0.0154302
793.030	0.0153085
793.108	0.0153828
793.186	0.0153718
793.264	0.0153595
793.342	0.0153010
793.420	0.0152893
793.498	0.0152080
793.576	0.0153821
793.655	0.0152825
793.733	0.0152890
793.811	0.0153124
793.889	0.0153682
793.967	0.0154189
794.045	0.0153780
794.123	0.0153214
794.201	0.0153085
794.280	0.0153422
794.358	0.0153349
794.436	0.0154906
794.514	0.0154454
794.592	0.0152299
794.670	0.0152914
794.748	0.0153224
794.826	0.0154080
794.905	0.0152589
794.983	0.0151873
795.061	0.0153472
795.139	0.0151922
795.217	0.0151531
795.295	0.0152129
795.373	0.0151846
795.451	0.0150217
795.530	0.0151934
795.608	0.0151333
795.686	0.0151531
795.764	0.0150991
795.842	0.0150508
795.920	0.0151712
795.998	0.0150631
796.076	0.0151629
796.155	0.0151180
796.233	0.0151888
796.311	0.0152959
796.389	0.0154128
796.467	0.0153342
796.545	0.0153628
796.623	0.0154602
796.701	0.0154018
796.780	0.0155486
796.858	0.0156190
796.936	0.0156507
797.014	0.0155986
797.092	0.0156261
797.170	0.0156051
797.248	0.0157974
797.326	0.0155817
797.405	0.0157242
797.483	0.0156142
797.561	0.0155775
797.639	0.0154496
797.717	0.0154687
797.795	0.0156122
797.873	0.0155843
797.951	0.0156874
798.030	0.0155975
798.108	0.0154401
798.186	0.0156367
798.264	0.0156041
798.342	0.0153896
798.420	0.0152822
798.498	0.0154279
798.576	0.0154845
798.655	0.0155470
798.733	0.0153593
798.811	0.0154959
798.889	0.0155354
798.967	0.0152709
799.045	0.0153795
799.123	0.0154777
799.201	0.0155481
799.280	0.0154571
799.358	0.0153921
799.436	0.0154024
799.514	0.0153319
799.592	0.0153046
799.670	0.0152696
799.748	0.0152707
799.826	0.0152592
799.905	0.0153345
799.983	0.0153789
800.061	0.0153013
800.139	0.0154704
800.217	0.0152686
800.295	0.0152525
800.373	0.0153824
800.451	0.0153086
800.530	0.0153543
800.608	0.0153183
800.686	0.0153596
800.764	0.0153485
800.842	0.0152303
800.920	0.0153411
800.998	0.0152594
801.076	0.0152214
801.155	0.0153600
801.233	0.0153284
801.311	0.0155012
801.389	0.0153361
801.467	0.0154753
801.545	0.0153295
801.623	0.0152979
801.701	0.0154775
801.780	0.0152888
801.858	0.0155251
801.936	0.0154020
802.014	0.0155711
802.092	0.0154272
802.170	0.0152705
802.248	0.0155352
802.326	0.0155086
802.405	0.0155267
802.483	0.0154070
802.561	0.0155532
802.639	0.0155173
802.717	0.0155745
802.795	0.0156130
802.873	0.0156210
802.951	0.0155345
803.030	0.0155289
803.108	0.0156194
803.186	0.0155196
803.264	0.0156138
803.342	0.0156168
803.420	0.0155704
803.498	0.0153968
803.576	0.0154988
803.655	0.0156652
803.733	0.0155071
803.811	0.0155878
803.889	0.0154625
803.967	0.0154583
804.045	0.0155995
804.123	0.0154995
804.201	0.0154183
804.280	0.0154810
804.358	0.0155024
804.436	0.0155383
804.514	0.0154154
804.592	0.0155856
804.670	0.0156650
804.748	0.0155570
804.826	0.0154317
804.905	0.0154539
804.983	0.0155061
805.061	0.0153704
805.139	0.0153878
805.217	0.0155412
805.295	0.0154919
805.373	0.0153666
805.451	0.0154267
805.530	0.0153211
805.608	0.0153976
805.686	0.0153958
805.764	0.0153915
805.842	0.0153534
805.920	0.0153642
805.998	0.0153130
806.076	0.0152850
806.155	0.0153497
806.233	0.0153817
806.311	0.0152049
806.389	0.0152794
806.467	0.0153085
806.545	0.0153215
806.623	0.0153712
806.701	0.0153387
806.780	0.0153538
806.858	0.0153568
806.936	0.0153826
807.014	0.0152588
807.092	0.0152161
807.170	0.0153322
807.248	0.0152194
807.326	0.0153418
807.405	0.0153477
807.483	0.0153795
807.561	0.0153679
807.639	0.0153400
807.717	0.0153042
807.795	0.0154048
807.873	0.0153590
807.951	0.0153156
808.030	0.0154028
808.108	0.0153607
808.186	0.0153951
808.264	0.0153384
808.342	0.0154624
808.420	0.0153548
808.498	0.0154179
808.576	0.0155191
808.655	0.0154732
808.733	0.0153923
808.811	0.0155022
808.889	0.0153554
808.967	0.0152647
809.045	0.0154646
809.123	0.0155205
809.201	0.0154060
809.280	0.0154078
809.358	0.0153845
809.436	0.0154969
809.514	0.0154572
809.592	0.0152892
809.670	0.0154601
809.748	0.0154096
809.826	0.0153657
809.905	0.0153546
809.983	0.0153799
810.061	0.0154233
810.139	0.0153765
810.217	0.0153039
810.295	0.0151310
810.373	0.0151826
810.451	0.0153365
810.530	0.0153020
810.608	0.0151485
810.686	0.0153048
810.764	0.0151926
810.842	0.0151938
810.920	0.0153266
810.998	0.0152953
811.076	0.0152463
811.155	0.0151958
811.233	0.0151649
811.311	0.0153053
811.389	0.0153042
811.467	0.0151237
811.545	0.0152538
811.623	0.0153291
811.701	0.0152180
811.780	0.0153093
811.858	0.0152301
811.936	0.0151878
812.014	0.0152057
812.092	0.0152528
812.170	0.0153487
812.248	0.0154000
812.326	0.0152548
812.405	0.0152747
812.483	0.0152769
812.561	0.0152841
812.639	0.0153716
812.717	0.0153819
812.795	0.0153323
812.873	0.0153768
812.951	0.0154414
813.030	0.0154202
813.108	0.0153858
813.186	0.0154304
813.264	0.0154055
813.342	0.0153813
813.420	0.0155392
813.498	0.0152385
813.576	0.0153940
813.655	0.0153980
813.733	0.0153629
813.811	0.0153708
813.889	0.0154527
813.967	0.0153728
814.045	0.0153396
814.123	0.0154577
814.201	0.0154994
814.280	0.0153918
814.358	0.0153454
814.436	0.0152967
814.514	0.0153132
814.592	0.0152814
814.670	0.0153178
814.748	0.0152668
814.826	0.0152832
814.905	0.0152248
814.983	0.0152470
815.061	0.0153282
815.139	0.0151917
815.217	0.0152496
815.295	0.0151920
815.373	0.0152985
815.451	0.0152792
815.530	0.0153474
815.608	0.0153433
815.686	0.0153481
815.764	0.0154340
815.842	0.0151971
815.920	0.0153840
815.998	0.0153748
816.076	0.0154309
816.155	0.0153364
816.233	0.0152225
816.311	0.0153482
816.389	0.0154550
816.467	0.0154555
816.545	0.0153204
816.623	0.0154360
816.701	0.0154032
816.780	0.0154116
816.858	0.0154128
816.936	0.0153661
817.014	0.0152784
817.092	0.0153551
817.170	0.0154054
817.248	0.0153495
817.326	0.0152180
817.405	0.0153299
817.483	0.0154201
817.561	0.0153379
817.639	0.0153883
817.717	0.0153316
817.795	0.0152816
817.873	0.0153608
817.951	0.0153803
818.030	0.0153824
818.108	0.0154221
818.186	0.0154539
818.264	0.0154494
818.342	0.0154252
818.420	0.0154953
818.498	0.0153777
818.576	0.0154564
818.655	0.0154822
818.733	0.0153577
818.811	0.0154980
818.889	0.0154263
818.967	0.0153623
819.045	0.0153782
819.123	0.0154425
819.201	0.0153255
819.280	0.0152957
819.358	0.0153249
819.436	0.0153205
819.514	0.0153232
819.592	0.0151654
819.670	0.0152612
819.748	0.0153271
819.826	0.0153133
819.905	0.0152207
819.983	0.0153305
820.061	0.0152991
820.139	0.0152434
820.217	0.0152795
820.295	0.0152915
820.373	0.0154427
820.451	0.0155051
820.530	0.0154388
820.608	0.0153398
820.686	0.0153863
820.764	0.0153497
820.842	0.0154505
820.920	0.0153813
820.998	0.0153726
821.076	0.0153168
821.155	0.0153040
821.233	0.0154062
821.311	0.0154601
821.389	0.0153487
821.467	0.0154125
821.545	0.0154053
821.623	0.0154468
821.701	0.0152701
821.780	0.0153541
821.858	0.0153561
821.936	0.0154887
822.014	0.0154571
822.092	0.0152819
822.170	0.0153711
822.248	0.0154377
822.326	0.0152612
822.405	0.0154096
822.483	0.0153983
822.561	0.0153880
822.639	0.0153800
822.717	0.0153265
822.795	0.0153596
822.873	0.0154198
822.951	0.0154342
823.030	0.0154343
823.108	0.0153587
823.186	0.0152879
823.264	0.0153848
823.342	0.0153854
823.420	0.0152263
823.498	0.0152374
823.576	0.0153625
823.655	0.0153600
823.733	0.0154176
823.811	0.0154778
823.889	0.0153600
823.967	0.0153792
824.045	0.0153870
824.123	0.0155119
824.201	0.0154388
824.280	0.0153741
824.358	0.0153607
824.436	0.0152934
824.514	0.0152227
824.592	0.0152894
824.670	0.0152893
824.748	0.0152923
824.826	0.0153426
824.905	0.0153805
824.983	0.0153403
825.061	0.0151867
825.139	0.0153715
825.217	0.0152380
825.295	0.0153201
825.373	0.0153062
825.451	0.0152803
825.530	0.0152957
825.608	0.0154272
825.686	0.0153616
825.764	0.0153434
825.842	0.0154210
825.920	0.0152841
825.998	0.0154269
826.076	0.0154202
826.155	0.0155274
826.233	0.0154411
826.311	0.0154334
826.389	0.0156081
826.467	0.0154372
826.545	0.0155119
826.623	0.0155923
826.701	0.0154806
826.780	0.0155497
826.858	0.0155253
826.936	0.0155191
827.014	0.0156622
827.092	0.0155739
827.170	0.0154121
827.248	0.0154790
827.326	0.0153892
827.405	0.0155239
827.483	0.0155446
827.561	0.0155115
827.639	0.0155586
827.717	0.0155768
827.795	0.0155380
827.873	0.0154739
827.951	0.0155024
828.030	0.0154277
828.108	0.0154806
828.186	0.0155130
828.264	0.0155028
828.342	0.0154907
828.420	0.0155620
828.498	0.0153876
828.576	0.0154693
828.655	0.0154402
828.733	0.0155694
828.811	0.0153457
828.889	0.0153649
828.967	0.0154977
829.045	0.0152547
829.123	0.0152438
829.201	0.0155034
829.280	0.0154172
829.358	0.0154220
829.436	0.0154060
829.514	0.0155374
829.592	0.0154451
829.670	0.0153336
829.748	0.0153523
829.826	0.0152948
829.905	0.0154301
829.983	0.0152406
830.061	0.0154649
830.139	0.0153199
830.217	0.0152335
830.295	0.0151804
830.373	0.0153285
830.451	0.0152663
830.530	0.0152122
830.608	0.0153648
830.686	0.0153854
830.764	0.0152824
830.842	0.0154639
830.920	0.0152508
830.998	0.0152505
831.076	0.0154173
831.155	0.0153218
831.233	0.0153543
831.311	0.0153185
831.389	0.0153143
831.467	0.0153116
831.545	0.0153354
831.623	0.0152633
831.701	0.0153362
831.780	0.0154242
831.858	0.0153491
831.936	0.0153544
832.014	0.0153867
832.092	0.0151894
832.170	0.0152102
832.248	0.0152586
832.326	0.0152689
832.405	0.0152612
832.483	0.0152901
832.561	0.0152862
832.639	0.0151756
832.717	0.0153013
832.795	0.0153249
832.873	0.0152470
832.951	0.0152737
833.030	0.0152679
833.108	0.0152713
833.186	0.0152303
833.264	0.0152115
833.342	0.0151929
833.420	0.0152205
833.498	0.0151822
833.576	0.0152905
833.655	0.0151886
833.733	0.0151534
833.811	0.0152692
833.889	0.0153199
833.967	0.0152824
834.045	0.0152608
834.123	0.0152508
834.201	0.0152505
834.280	0.0153085
834.358	0.0153207
834.436	0.0152861
834.514	0.0153156
834.592	0.0153112
834.670	0.0154193
834.748	0.0153899
834.826	0.0153233
834.905	0.0152660
834.983	0.0154127
835.061	0.0153648
835.139	0.0153242
835.217	0.0154803
835.295	0.0153136
835.373	0.0152293
835.451	0.0152055
835.530	0.0151932
835.608	0.0153360
835.686	0.0153236
835.764	0.0154696
835.842	0.0152648
835.920	0.0152877
835.998	0.0153205
836.076	0.0152623
836.155	0.0153461
836.233	0.0154482
836.311	0.0153624
836.389	0.0154633
836.467	0.0152873
836.545	0.0153824
836.623	0.0153671
836.701	0.0153046
836.780	0.0153784
836.858	0.0152032
836.936	0.0153805
837.014	0.0153776
837.092	0.0154545
837.170	0.0155154
837.248	0.0154949
837.326	0.0154141
837.405	0.0153548
837.483	0.0154881
837.561	0.0154123
837.639	0.0153458
837.717	0.0153069
837.795	0.0154471
837.873	0.0155180
837.951	0.0152145
838.030	0.0154021
838.108	0.0154350
838.186	0.0153194
838.264	0.0153898
838.342	0.0154408
838.420	0.0154552
838.498	0.0153870
838.576	0.0154632
838.655	0.0154612
838.733	0.0155623
838.811	0.0155363
838.889	0.0155367
838.967	0.0156161
839.045	0.0154031
839.123	0.0154149
839.201	0.0154591
839.280	0.0154847
839.358	0.0155146
839.436	0.0155341
839.514	0.0155472
839.592	0.0155118
839.670	0.0154479
839.748	0.0155334
839.826	0.0155050
839.905	0.0154060
839.983	0.0154424
840.061	0.0155089
840.139	0.0153706
840.217	0.0153176
840.295	0.0154615
840.373	0.0153307
840.451	0.0154099
840.530	0.0154656
840.608	0.0154311
840.686	0.0154411
840.764	0.0154624
840.842	0.0154690
840.920	0.0154605
840.998	0.0152797
841.076	0.0154331
841.155	0.0154540
841.233	0.0153563
841.311	0.0154825
841.389	0.0154275
841.467	0.0154404
841.545	0.0154842
841.623	0.0154207
841.701	0.0153803
841.780	0.0156479
841.858	0.0154295
841.936	0.0154380
842.014	0.0154251
842.092	0.0154194
842.170	0.0154998
842.248	0.0153676
842.326	0.0156029
842.405	0.0154412
842.483	0.0153893
842.561	0.0155590
842.639	0.0154682
842.717	0.0154165
842.795	0.0154183
842.873	0.0154191
842.951	0.0155204
843.030	0.0155334
843.108	0.0154990
843.186	0.0153194
843.264	0.0153018
843.342	0.0154696
843.420	0.0154428
843.498	0.0152431
843.576	0.0152709
843.655	0.0153844
843.733	0.0153945
843.811	0.0153065
843.889	0.0152937
843.967	0.0152872
844.045	0.0153040
844.123	0.0153745
844.201	0.0153907
844.280	0.0152905
844.358	0.0153976
844.436	0.0154353
844.514	0.0152430
844.592	0.0152890
844.670	0.0152922
844.748	0.0154296
844.826	0.0153596
844.905	0.0153214
844.983	0.0153771
845.061	0.0153717
845.139	0.0153471
845.217	0.0152466
845.295	0.0153429
845.373	0.0153291
845.451	0.0153483
845.530	0.0154017
845.608	0.0154282
845.686	0.0152853
845.764	0.0152499
845.842	0.0153584
845.920	0.0152713
845.998	0.0154118
846.076	0.0153185
846.155	0.0152047
846.233	0.0152755
846.311	0.0153706
846.389	0.0152003
846.467	0.0151339
846.545	0.0154185
846.623	0.0152684
846.701	0.0153118
846.780	0.0154345
846.858	0.0154156
846.936	0.0152580
847.014	0.0154496
847.092	0.0154161
847.170	0.0154526
847.248	0.0154675
847.326	0.0154415
847.405	0.0154516
847.483	0.0153680
847.561	0.0154399
847.639	0.0154078
847.717	0.0155215
847.795	0.0154775
847.873	0.0154923
847.951	0.0154352
848.030	0.0155010
848.108	0.0154837
848.186	0.0154530
848.264	0.0154792
848.342	0.0155637
848.420	0.0154376
848.498	0.0153935
848.576	0.0155862
848.655	0.0153726
848.733	0.0153740
848.811	0.0155327
848.889	0.0154573
848.967	0.0154343
849.045	0.0155424
849.123	0.0153864
849.201	0.0155005
849.280	0.0153687
849.358	0.0154333
849.436	0.0154422
849.514	0.0154642
849.592	0.0153239
849.670	0.0154215
849.748	0.0154978
849.826	0.0153641
849.905	0.0154195
849.983	0.0154051
850.061	0.0153878
850.139	0.0152765
850.217	0.0154452
850.295	0.0154701
850.373	0.0155067
850.451	0.0153577
850.530	0.0153905
850.608	0.0154731
850.686	0.0153975
850.764	0.0154853
850.842	0.0154657
850.920	0.0153857
850.998	0.0153807
851.076	0.0154342
851.155	0.0153564
851.233	0.0154440
851.311	0.0154519
851.389	0.0154674
851.467	0.0155022
851.545	0.0154822
851.623	0.0153332
851.701	0.0154484
851.780	0.0154588
851.858	0.0153428
851.936	0.0154337
852.014	0.0154408
852.092	0.0153215
852.170	0.0154774
852.248	0.0153349
852.326	0.0154466
852.405	0.0154418
852.483	0.0154880
852.561	0.0154813
852.639	0.0154941
852.717	0.0154276
852.795	0.0153242
852.873	0.0155057
852.951	0.0154218
853.030	0.0153657
853.108	0.0153213
853.186	0.0153336
853.264	0.0155496
853.342	0.0153682
853.420	0.0152866
853.498	0.0152887
853.576	0.0153658
853.655	0.0154105
853.733	0.0153917
853.811	0.0154551
853.889	0.0152858
853.967	0.0152218
854.045	0.0153415
854.123	0.0155058
854.201	0.0154189
854.280	0.0153304
854.358	0.0153699
854.436	0.0152672
854.514	0.0152936
854.592	0.0153075
854.670	0.0153940
854.748	0.0153573
854.826	0.0152932
854.905	0.0153140
854.983	0.0153742
855.061	0.0153429
855.139	0.0155001
855.217	0.0154184
855.295	0.0153400
855.373	0.0154603
855.451	0.0153437
855.530	0.0153442
855.608	0.0152867
855.686	0.0154591
855.764	0.0153821
855.842	0.0154618
855.920	0.0155077
855.998	0.0155006
856.076	0.0154582
856.155	0.0153094
856.233	0.0154305
856.311	0.0154249
856.389	0.0153750
856.467	0.0152839
856.545	0.0154153
856.623	0.0154226
856.701	0.0153622
856.780	0.0153990
856.858	0.0153625
856.936	0.0154060
857.014	0.0153731
857.092	0.0154014
857.170	0.0154110
857.248	0.0153758
857.326	0.0154266
857.405	0.0154738
857.483	0.0152760
857.561	0.0153032
857.639	0.0155106
857.717	0.0153873
857.795	0.0154416
857.873	0.0154505
857.951	0.0154051
858.030	0.0153922
858.108	0.0153406
858.186	0.0155184
858.264	0.0154211
858.342	0.0152950
858.420	0.0153256
858.498	0.0154143
858.576	0.0153830
858.655	0.0155729
858.733	0.0153444
858.811	0.0153696
858.889	0.0153797
858.967	0.0155816
859.045	0.0156062
859.123	0.0153839
859.201	0.0151385
859.280	0.0152446
859.358	0.0155083
859.436	0.0152987
859.514	0.0153980
859.592	0.0154143
859.670	0.0154794
859.748	0.0155145
859.826	0.0154064
859.905	0.0154636
859.983	0.0153928
860.061	0.0154696
860.139	0.0154733
860.217	0.0154981
860.295	0.0154347
860.373	0.0153367
860.451	0.0153507
860.530	0.0154332
860.608	0.0153716
860.686	0.0153442
860.764	0.0154240
860.842	0.0153117
860.920	0.0153716
860.998	0.0153437
861.076	0.0153735
861.155	0.0153916
861.233	0.0155415
861.311	0.0154508
861.389	0.0154325
861.467	0.0153661
861.545	0.0155010
861.623	0.0154668
861.701	0.0154837
861.780	0.0153368
861.858	0.0153388
861.936	0.0154176
862.014	0.0154671
862.092	0.0152956
862.170	0.0154039
862.248	0.0152841
862.326	0.0152528
862.405	0.0154538
862.483	0.0154845
862.561	0.0154150
862.639	0.0153685
862.717	0.0153522
862.795	0.0154575
862.873	0.0153512
862.951	0.0153362
863.030	0.0153757
863.108	0.0153994
863.186	0.0153603
863.264	0.0154760
863.342	0.0155387
863.420	0.0154554
863.498	0.0153166
863.576	0.0153696
863.655	0.0154603
863.733	0.0155329
863.811	0.0153561
863.889	0.0153963
863.967	0.0153302
864.045	0.0153603
864.123	0.0153782
864.201	0.0154792
864.280	0.0152725
864.358	0.0152662
864.436	0.0154160
864.514	0.0153812
864.592	0.0152083
864.670	0.0153387
864.748	0.0152606
864.826	0.0153337
864.905	0.0152711
864.983	0.0153649
865.061	0.0154301
865.139	0.0153156
865.217	0.0152299
865.295	0.0154069
865.373	0.0153133
865.451	0.0151338
865.530	0.0152908
865.608	0.0153980
865.686	0.0153055
865.764	0.0153282
865.842	0.0152393
865.920	0.0152696
865.998	0.0154896
866.076	0.0153707
866.155	0.0153683
866.233	0.0153484
866.311	0.0153731
866.389	0.0153912
866.467	0.0153633
866.545	0.0152671
866.623	0.0153394
866.701	0.0153407
866.780	0.0154607
866.858	0.0153526
866.936	0.0153352
867.014	0.0154839
867.092	0.0155658
867.170	0.0155237
867.248	0.0154581
867.326	0.0154765
867.405	0.0153310
867.483	0.0153779
867.561	0.0154291
867.639	0.0155164
867.717	0.0153222
867.795	0.0154042
867.873	0.0154111
867.951	0.0154206
868.030	0.0154599
868.108	0.0153986
868.186	0.0154836
868.264	0.0153774
868.342	0.0153495
868.420	0.0155018
868.498	0.0154041
868.576	0.0153740
868.655	0.0155798
868.733	0.0154672
868.811	0.0153384
868.889	0.0152943
868.967	0.0153462
869.045	0.0153917
869.123	0.0153660
869.201	0.0154284
869.280	0.0154606
869.358	0.0155046
869.436	0.0155103
869.514	0.0154847
869.592	0.0154077
869.670	0.0155048
869.748	0.0153814
869.826	0.0154420
869.905	0.0154211
869.983	0.0153647
870.061	0.0154993
870.139	0.0153094
870.217	0.0153220
870.295	0.0153360
870.373	0.0154281
870.451	0.0153776
870.530	0.0153802
870.608	0.0155135
870.686	0.0154469
870.764	0.0153592
870.842	0.0152944
870.920	0.0153398
870.998	0.0153730
871.076	0.0154421
871.155	0.0153932
871.233	0.0152636
871.311	0.0154045
871.389	0.0154318
871.467	0.0154030
871.545	0.0153846
871.623	0.0153759
871.701	0.0154368
871.780	0.0153609
871.858	0.0155608
871.936	0.0153542
872.014	0.0154435
872.092	0.0153360
872.170	0.0155004
872.248	0.0154803
872.326	0.0155185
872.405	0.0153876
872.483	0.0154826
872.561	0.0155371
872.639	0.0153898
872.717	0.0154009
872.795	0.0153184
872.873	0.0154986
872.951	0.0154295
873.030	0.0153664
873.108	0.0154207
873.186	0.0155514
873.264	0.0154777
873.342	0.0154194
873.420	0.0153945
873.498	0.0155200
873.576	0.0153791
873.655	0.0153861
873.733	0.0154410
873.811	0.0155180
873.889	0.0154827
873.967	0.0153967
874.045	0.0154169
874.123	0.0155583
874.201	0.0153081
874.280	0.0155698
874.358	0.0155602
874.436	0.0154642
874.514	0.0154532
874.592	0.0154047
874.670	0.0154889
874.748	0.0154359
874.826	0.0153657
874.905	0.0156586
874.983	0.0154066
875.061	0.0154906
875.139	0.0155608
875.217	0.0153279
875.295	0.0154039
875.373	0.0153979
875.451	0.0155024
875.530	0.0155162
875.608	0.0153838
875.686	0.0154604
875.764	0.0153792
875.842	0.0155814
875.920	0.0155649
875.998	0.0154344
876.076	0.0154241
876.155	0.0155154
876.233	0.0154494
876.311	0.0154765
876.389	0.0154356
876.467	0.0153600
876.545	0.0155356
876.623	0.0154103
876.701	0.0154535
876.780	0.0152718
876.858	0.0154921
876.936	0.0153978
877.014	0.0153998
877.092	0.0154733
877.170	0.0153090
877.248	0.0154409
877.326	0.0154011
877.405	0.0153115
877.483	0.0153231
877.561	0.0153456
877.639	0.0154145
877.717	0.0153266
877.795	0.0153163
877.873	0.0154539
877.951	0.0154633
878.030	0.0153004
878.108	0.0154290
878.186	0.0154182
878.264	0.0153711
878.342	0.0153406
878.420	0.0154462
878.498	0.0152840
878.576	0.0153336
878.655	0.0153466
878.733	0.0153627
878.811	0.0153796
878.889	0.0154529
878.967	0.0153760
879.045	0.0153676
879.123	0.0154147
879.201	0.0154934
879.280	0.0153936
879.358	0.0153235
879.436	0.0153807
879.514	0.0154391
879.592	0.0155204
879.670	0.0153889
879.748	0.0155067
879.826	0.0156092
879.905	0.0156038
879.983	0.0155467
880.061	0.0153887
880.139	0.0153722
880.217	0.0154794
880.295	0.0155077
880.373	0.0153709
880.451	0.0154503
880.530	0.0155811
880.608	0.0154787
880.686	0.0153908
880.764	0.0154295
880.842	0.0153619
880.920	0.0153376
880.998	0.0154140
881.076	0.0153914
881.155	0.0154126
881.233	0.0153584
881.311	0.0152602
881.389	0.0154316
881.467	0.0152573
881.545	0.0153092
881.623	0.0152714
881.701	0.0152998
881.780	0.0152882
881.858	0.0152835
881.936	0.0153091
882.014	0.0152423
882.092	0.0153130
882.170	0.0151530
882.248	0.0153284
882.326	0.0152121
882.405	0.0152877
882.483	0.0154244
882.561	0.0152738
882.639	0.0153718
882.717	0.0154671
882.795	0.0152541
882.873	0.0153442
882.951	0.0154503
883.030	0.0153087
883.108	0.0152381
883.186	0.0154266
883.264	0.0154420
883.342	0.0153123
883.420	0.0153313
883.498	0.0153440
883.576	0.0154350
883.655	0.0152601
883.733	0.0153357
883.811	0.0153795
883.889	0.0154862
883.967	0.0155134
884.045	0.0154375
884.123	0.0153346
884.201	0.0153962
884.280	0.0153510
884.358	0.0154220
884.436	0.0153242
884.514	0.0153422
884.592	0.0153726
884.670	0.0154514
884.748	0.0155402
884.826	0.0154428
884.905	0.0155283
884.983	0.0154694
885.061	0.0155014
885.139	0.0155103
885.217	0.0154663
885.295	0.0154106
885.373	0.0153797
885.451	0.0155133
885.530	0.0154254
885.608	0.0154565
885.686	0.0154742
885.764	0.0155683
885.842	0.0154983
885.920	0.0152901
885.998	0.0155456
886.076	0.0156075
886.155	0.0153996
886.233	0.0155228
886.311	0.0154413
886.389	0.0153804
886.467	0.0153057
886.545	0.0154900
886.623	0.0154280
886.701	0.0154577
886.780	0.0152692
886.858	0.0153782
886.936	0.0155156
887.014	0.0154796
887.092	0.0153199
887.170	0.0154580
887.248	0.0153565
887.326	0.0153556
887.405	0.0154533
887.483	0.0153742
887.561	0.0153950
887.639	0.0153670
887.717	0.0152975
887.795	0.0153496
887.873	0.0153318
887.951	0.0154177
888.030	0.0153476
888.108	0.0154723
888.186	0.0154280
888.264	0.0152894
888.342	0.0154241
888.420	0.0153578
888.498	0.0154484
888.576	0.0156188
888.655	0.0153703
888.733	0.0154779
888.811	0.0153522
888.889	0.0153737
888.967	0.0154308
889.045	0.0155566
889.123	0.0154320
889.201	0.0154527
889.280	0.0153520
889.358	0.0152998
889.436	0.0155404
889.514	0.0154187
889.592	0.0154769
889.670	0.0155048
889.748	0.0156222
889.826	0.0155061
889.905	0.0154820
889.983	0.0154739
890.061	0.0153282
890.139	0.0153671
890.217	0.0154816
890.295	0.0154028
890.373	0.0152723
890.451	0.0152589
890.530	0.0152834
890.608	0.0153029
890.686	0.0152204
890.764	0.0151086
890.842	0.0152335
890.920	0.0152990
890.998	0.0151816
891.076	0.0152542
891.155	0.0152116
891.233	0.0152927
891.311	0.0151945
891.389	0.0152925
891.467	0.0153611
891.545	0.0153911
891.623	0.0151868
891.701	0.0151900
891.780	0.0152321
891.858	0.0153461
891.936	0.0152988
892.014	0.0152082
892.092	0.0150962
892.170	0.0152271
892.248	0.0152710
892.326	0.0153094
892.405	0.0153169
892.483	0.0152434
892.561	0.0151907
892.639	0.0151220
892.717	0.0153052
892.795	0.0152013
892.873	0.0152519
892.951	0.0152380
893.030	0.0151557
893.108	0.0152876
893.186	0.0152154
893.264	0.0153156
893.342	0.0151102
893.420	0.0150979
893.498	0.0152956
893.576	0.0152835
893.655	0.0151862
893.733	0.0152013
893.811	0.0153508
893.889	0.0152358
893.967	0.0152664
894.045	0.0153996
894.123	0.0153148
894.201	0.0152068
894.280	0.0151287
894.358	0.0152505
894.436	0.0152359
894.514	0.0151958
894.592	0.0151649
894.670	0.0153304
894.748	0.0152686
894.826	0.0152963
894.905	0.0153431
894.983	0.0153817
895.061	0.0153069
895.139	0.0152954
895.217	0.0153825
895.295	0.0153413
895.373	0.0152757
895.451	0.0152528
895.530	0.0153771
895.608	0.0154029
895.686	0.0154822
895.764	0.0154897
895.842	0.0154123
895.920	0.0153500
895.998	0.0153600
896.076	0.0154839
896.155	0.0154976
896.233	0.0154906
896.311	0.0153728
896.389	0.0154949
896.467	0.0154721
896.545	0.0154546
896.623	0.0153979
896.701	0.0152908
896.780	0.0155156
896.858	0.0152988
896.936	0.0154983
897.014	0.0153806
897.092	0.0154119
897.170	0.0153386
897.248	0.0154558
897.326	0.0153536
897.405	0.0154189
897.483	0.0153802
897.561	0.0153417
897.639	0.0154205
897.717	0.0154248
897.795	0.0153107
897.873	0.0153912
897.951	0.0153397
898.030	0.0154540
898.108	0.0153139
898.186	0.0152905
898.264	0.0152393
898.342	0.0154530
898.420	0.0153679
898.498	0.0154121
898.576	0.0153621
898.655	0.0154025
898.733	0.0153732
898.811	0.0153058
898.889	0.0153278
898.967	0.0152821
899.045	0.0154549
899.123	0.0153654
899.201	0.0152949
899.280	0.0153168
899.358	0.0153190
899.436	0.0154731
899.514	0.0152818
899.592	0.0153970
899.670	0.0154835
899.748	0.0154017
899.826	0.0154468
899.905	0.0153446
899.983	0.0154115
900.061	0.0154603
900.139	0.0154491
900.217	0.0155586
900.295	0.0153331
900.373	0.0154198
900.451	0.0153399
900.530	0.0154533
900.608	0.0153314
900.686	0.0153655
900.764	0.0154600
900.842	0.0154648
900.920	0.0154825
900.998	0.0153009
901.076	0.0153947
901.155	0.0154940
901.233	0.0154684
901.311	0.0155691
901.389	0.0154659
901.467	0.0154871
901.545	0.0155634
901.623	0.0153363
901.701	0.0153915
901.780	0.0153207
901.858	0.0155473
901.936	0.0153304
902.014	0.0154266
902.092	0.0153693
902.170	0.0154150
902.248	0.0153633
902.326	0.0153947
902.405	0.0154023
902.483	0.0154169
902.561	0.0153141
902.639	0.0153474
902.717	0.0153885
902.795	0.0153323
902.873	0.0155035
902.951	0.0153201
903.030	0.0152827
903.108	0.0152400
903.186	0.0153255
903.264	0.0153440
903.342	0.0152365
903.420	0.0150603
903.498	0.0151972
903.576	0.0154884
903.655	0.0152314
903.733	0.0152737
903.811	0.0152666
903.889	0.0152945
903.967	0.0152206
904.045	0.0152732
904.123	0.0152113
904.201	0.0152477
904.280	0.0151267
904.358	0.0152669
904.436	0.0151840
904.514	0.0152972
904.592	0.0152888
904.670	0.0153052
904.748	0.0152316
904.826	0.0152244
904.905	0.0153240
904.983	0.0152601
905.061	0.0151467
905.139	0.0153113
905.217	0.0152598
905.295	0.0154224
905.373	0.0151623
905.451	0.0152843
905.530	0.0153887
905.608	0.0151945
905.686	0.0153109
905.764	0.0153518
905.842	0.0154566
905.920	0.0154154
905.998	0.0152715
906.076	0.0153674
906.155	0.0153570
906.233	0.0154458
906.311	0.0154976
906.389	0.0154797
906.467	0.0154262
906.545	0.0153123
906.623	0.0154859
906.701	0.0154198
906.780	0.0155258
906.858	0.0154629
906.936	0.0155061
907.014	0.0153386
907.092	0.0154119
907.170	0.0154188
907.248	0.0154178
907.326	0.0154034
907.405	0.0154489
907.483	0.0154099
907.561	0.0154233
907.639	0.0154226
907.717	0.0153857
907.795	0.0153786
907.873	0.0153773
907.951	0.0153365
908.030	0.0153597
908.108	0.0153894
908.186	0.0153859
908.264	0.0154054
908.342	0.0153787
908.420	0.0153134
908.498	0.0153296
908.576	0.0153606
908.655	0.0154865
908.733	0.0154765
908.811	0.0152103
908.889	0.0154915
908.967	0.0152985
909.045	0.0155024
909.123	0.0154025
909.201	0.0154126
909.280	0.0153746
909.358	0.0154895
909.436	0.0152419
909.514	0.0153454
909.592	0.0153958
909.670	0.0152972
909.748	0.0152991
909.826	0.0154096
909.905	0.0155001
909.983	0.0151987
910.061	0.0153128
910.139	0.0153592
910.217	0.0154061
910.295	0.0151586
910.373	0.0151884
910.451	0.0153690
910.530	0.0154197
910.608	0.0153312
910.686	0.0153432
910.764	0.0153705
910.842	0.0154090
910.920	0.0154010
910.998	0.0153096
911.076	0.0152287
911.155	0.0152039
911.233	0.0153826
911.311	0.0152406
911.389	0.0152650
911.467	0.0153247
911.545	0.0151817
911.623	0.0152394
911.701	0.0153584
911.780	0.0153141
911.858	0.0153909
911.936	0.0152702
912.014	0.0153814
912.092	0.0153019
912.170	0.0152110
912.248	0.0152930
912.326	0.0152254
912.405	0.0152465
912.483	0.0152750
912.561	0.0153277
912.639	0.0151331
912.717	0.0151531
912.795	0.0152285
912.873	0.0153139
912.951	0.0152802
913.030	0.0153962
913.108	0.0151559
913.186	0.0151734
913.264	0.0153162
913.342	0.0152431
913.420	0.0152428
913.498	0.0152583
913.576	0.0151462
913.655	0.0151335
913.733	0.0152950
913.811	0.0152572
913.889	0.0151815
913.967	0.0151750
914.045	0.0152475
914.123	0.0153581
914.201	0.0152686
914.280	0.0152818
914.358	0.0153090
914.436	0.0150091
914.514	0.0152599
914.592	0.0152994
914.670	0.0152813
914.748	0.0152434
914.826	0.0151385
914.905	0.0153235
914.983	0.0153284
915.061	0.0152228
915.139	0.0152495
915.217	0.0152223
915.295	0.0152770
915.373	0.0152328
915.451	0.0152596
915.530	0.0151626
915.608	0.0152296
915.686	0.0154181
915.764	0.0152854
915.842	0.0151791
915.920	0.0152532
915.998	0.0153019
916.076	0.0151967
916.155	0.0153204
916.233	0.0153361
916.311	0.0152942
916.389	0.0152504
916.467	0.0153474
916.545	0.0153919
916.623	0.0153465
916.701	0.0154205
916.780	0.0153614
916.858	0.0153516
916.936	0.0153157
917.014	0.0154211
917.092	0.0154343
917.170	0.0154457
917.248	0.0154696
917.326	0.0154694
917.405	0.0153676
917.483	0.0154896
917.561	0.0155723
917.639	0.0153249
917.717	0.0155243
917.795	0.0155442
917.873	0.0154391
917.951	0.0153995
918.030	0.0153069
918.108	0.0153895
918.186	0.0154597
918.264	0.0154787
918.342	0.0155199
918.420	0.0153953
918.498	0.0153970
918.576	0.0155344
918.655	0.0152570
918.733	0.0153483
918.811	0.0153145
918.889	0.0154000
918.967	0.0154620
919.045	0.0153572
919.123	0.0153199
919.201	0.0154793
919.280	0.0154666
919.358	0.0154227
919.436	0.0154032
919.514	0.0154206
919.592	0.0153152
919.670	0.0153582
919.748	0.0154041
919.826	0.0152792
919.905	0.0153757
919.983	0.0153050
920.061	0.0153890
920.139	0.0153810
920.217	0.0153519
920.295	0.0152977
920.373	0.0153374
920.451	0.0152685
920.530	0.0152603
920.608	0.0154285
920.686	0.0152232
920.764	0.0152828
920.842	0.0153331
920.920	0.0153462
920.998	0.0153143
921.076	0.0152346
921.155	0.0152863
921.233	0.0154051
921.311	0.0152649
921.389	0.0152370
921.467	0.0154582
921.545	0.0153543
921.623	0.0153883
921.701	0.0152808
921.780	0.0152372
921.858	0.0152737
921.936	0.0152635
922.014	0.0153607
922.092	0.0153171
922.170	0.0152690
922.248	0.0153924
922.326	0.0152225
922.405	0.0152493
922.483	0.0153661
922.561	0.0153310
922.639	0.0152571
922.717	0.0152258
922.795	0.0153572
922.873	0.0153638
922.951	0.0152561
923.030	0.0151602
923.108	0.0154285
923.186	0.0153040
923.264	0.0152547
923.342	0.0152940
923.420	0.0152827
923.498	0.0152600
923.576	0.0152634
923.655	0.0152657
923.733	0.0152370
923.811	0.0152534
923.889	0.0152686
923.967	0.0153042
924.045	0.0153520
924.123	0.0152264
924.201	0.0151578
924.280	0.0152225
924.358	0.0153349
924.436	0.0152003
924.514	0.0151940
924.592	0.0152426
924.670	0.0151676
924.748	0.0153539
924.826	0.0152247
924.905	0.0153312
924.983	0.0153280
925.061	0.0152562
925.139	0.0153679
925.217	0.0153596
925.295	0.0153592
925.373	0.0152322
925.451	0.0151938
925.530	0.0153925
925.608	0.0152534
925.686	0.0154737
925.764	0.0153490
925.842	0.0153002
925.920	0.0153781
925.998	0.0153566
926.076	0.0151730
926.155	0.0153852
926.233	0.0154276
926.311	0.0153241
926.389	0.0152086
926.467	0.0153777
926.545	0.0153828
926.623	0.0153256
926.701	0.0154424
926.780	0.0154001
926.858	0.0152541
926.936	0.0152724
927.014	0.0153490
927.092	0.0152015
927.170	0.0153030
927.248	0.0152604
927.326	0.0152519
927.405	0.0154004
927.483	0.0153174
927.561	0.0152407
927.639	0.0152197
927.717	0.0153746
927.795	0.0152832
927.873	0.0152830
927.951	0.0151974
928.030	0.0152930
928.108	0.0152299
928.186	0.0152129
928.264	0.0152695
928.342	0.0152271
928.420	0.0152625
928.498	0.0152155
928.576	0.0153205
928.655	0.0153474
928.733	0.0153157
928.811	0.0151829
928.889	0.0152309
928.967	0.0151897
929.045	0.0152928
929.123	0.0153456
929.201	0.0152567
929.280	0.0153274
929.358	0.0153630
929.436	0.0153005
929.514	0.0152775
929.592	0.0154611
929.670	0.0153758
929.748	0.0152553
929.826	0.0153172
929.905	0.0154306
929.983	0.0153584
930.061	0.0152659
930.139	0.0154006
930.217	0.0153986
930.295	0.0153683
930.373	0.0154361
930.451	0.0154106
930.530	0.0154208
930.608	0.0153488
930.686	0.0154845
930.764	0.0154650
930.842	0.0153660
930.920	0.0153341
930.998	0.0154637
931.076	0.0155438
931.155	0.0156067
931.233	0.0154906
931.311	0.0155076
931.389	0.0155923
931.467	0.0155215
931.545	0.0155204
931.623	0.0154311
931.701	0.0155264
931.780	0.0154236
931.858	0.0155064
931.936	0.0154593
932.014	0.0155090
932.092	0.0155245
932.170	0.0153581
932.248	0.0153991
932.326	0.0155882
932.405	0.0155040
932.483	0.0154340
932.561	0.0155087
932.639	0.0154108
932.717	0.0154153
932.795	0.0153995
932.873	0.0154082
932.951	0.0154690
933.030	0.0154282
933.108	0.0153484
933.186	0.0153632
933.264	0.0152888
933.342	0.0152834
933.420	0.0154253
933.498	0.0152405
933.576	0.0153953
933.655	0.0153486
933.733	0.0152238
933.811	0.0154063
933.889	0.0154124
933.967	0.0152861
934.045	0.0153387
934.123	0.0153111
934.201	0.0152789
934.280	0.0153484
934.358	0.0153822
934.436	0.0153703
934.514	0.0152357
934.592	0.0152851
934.670	0.0152936
934.748	0.0153099
934.826	0.0154176
934.905	0.0152460
934.983	0.0152429
935.061	0.0152924
935.139	0.0153371
935.217	0.0153613
935.295	0.0154079
935.373	0.0152979
935.451	0.0153775
935.530	0.0153827
935.608	0.0154700
935.686	0.0154674
935.764	0.0153489
935.842	0.0153195
935.920	0.0152989
935.998	0.0153640
936.076	0.0154036
936.155	0.0154235
936.233	0.0153934
936.311	0.0154097
936.389	0.0153309
936.467	0.0153452
936.545	0.0153526
936.623	0.0153933
936.701	0.0154686
936.780	0.0152929
936.858	0.0153916
936.936	0.0154437
937.014	0.0154089
937.092	0.0153658
937.170	0.0153504
937.248	0.0153055
937.326	0.0154031
937.405	0.0153027
937.483	0.0152616
937.561	0.0153328
937.639	0.0155176
937.717	0.0153982
937.795	0.0153685
937.873	0.0153738
937.951	0.0154205
938.030	0.0153448
938.108	0.0153130
938.186	0.0154010
938.264	0.0153860
938.342	0.0152933
938.420	0.0153342
938.498	0.0153982
938.576	0.0153184
938.655	0.0153391
938.733	0.0154791
938.811	0.0153167
938.889	0.0152002
938.967	0.0153582
939.045	0.0154026
939.123	0.0153546
939.201	0.0154491
939.280	0.0153578
939.358	0.0154287
939.436	0.0155419
939.514	0.0155093
939.592	0.0155086
939.670	0.0154350
939.748	0.0155244
939.826	0.0153415
939.905	0.0155125
939.983	0.0154046
940.061	0.0153159
940.139	0.0154509
940.217	0.0154276
940.295	0.0154440
940.373	0.0154501
940.451	0.0154394
940.530	0.0154369
940.608	0.0155095
940.686	0.0154495
940.764	0.0154378
940.842	0.0155157
940.920	0.0153417
940.998	0.0151552
941.076	0.0152496
941.155	0.0154284
941.233	0.0154840
941.311	0.0153716
941.389	0.0153529
941.467	0.0153173
941.545	0.0154812
941.623	0.0154002
941.701	0.0155381
941.780	0.0153283
941.858	0.0154472
941.936	0.0153319
942.014	0.0152858
942.092	0.0153429
942.170	0.0154007
942.248	0.0152812
942.326	0.0152488
942.405	0.0152704
942.483	0.0152653
942.561	0.0153276
942.639	0.0152744
942.717	0.0151562
942.795	0.0153233
942.873	0.0152190
942.951	0.0152293
943.030	0.0152096
943.108	0.0151556
943.186	0.0153043
943.264	0.0150983
943.342	0.0152090
943.420	0.0150333
943.498	0.0152362
943.576	0.0151347
943.655	0.0151508
943.733	0.0152425
943.811	0.0152103
943.889	0.0151221
943.967	0.0151469
944.045	0.0152496
944.123	0.0151730
944.201	0.0152086
944.280	0.0152289
944.358	0.0152814
944.436	0.0151792
944.514	0.0152679
944.592	0.0152334
944.670	0.0153060
944.748	0.0151376
944.826	0.0152654
944.905	0.0153085
944.983	0.0152631
945.061	0.0153762
945.139	0.0152816
945.217	0.0154462
945.295	0.0153909
945.373	0.0154446
945.451	0.0153362
945.530	0.0153255
945.608	0.0155205
945.686	0.0155400
945.764	0.0154186
945.842	0.0154087
945.920	0.0155386
945.998	0.0154971
946.076	0.0154876
946.155	0.0153958
946.233	0.0155209
946.311	0.0154055
946.389	0.0155196
946.467	0.0154691
946.545	0.0155447
946.623	0.0154176
946.701	0.0154016
946.780	0.0154076
946.858	0.0154863
946.936	0.0155134
947.014	0.0155239
947.092	0.0154607
947.170	0.0154716
947.248	0.0153526
947.326	0.0154501
947.405	0.0153760
947.483	0.0153896
947.561	0.0154282
947.639	0.0156036
947.717	0.0155402
947.795	0.0154179
947.873	0.0155407
947.951	0.0156219
948.030	0.0153428
948.108	0.0152586
948.186	0.0155596
948.264	0.0155286
948.342	0.0155049
948.420	0.0156066
948.498	0.0154659
948.576	0.0154662
948.655	0.0154722
948.733	0.0155174
948.811	0.0154827
948.889	0.0154820
948.967	0.0155489
949.045	0.0154335
949.123	0.0155600
949.201	0.0154497
949.280	0.0154120
949.358	0.0155164
949.436	0.0154942
949.514	0.0154550
949.592	0.0155304
949.670	0.0154038
949.748	0.0153891
949.826	0.0155317
949.905	0.0153814
949.983	0.0154251
950.061	0.0155186
950.139	0.0155545
950.217	0.0154964
950.295	0.0155682
950.373	0.0154732
950.451	0.0153806
950.530	0.0153933
950.608	0.0154505
950.686	0.0155521
950.764	0.0154495
950.842	0.0154151
950.920	0.0155409
950.998	0.0155812
951.076	0.0154560
951.155	0.0154008
951.233	0.0153422
951.311	0.0153545
951.389	0.0154477
951.467	0.0154035
951.545	0.0153651
951.623	0.0154653
951.701	0.0153795
951.780	0.0153744
951.858	0.0153622
951.936	0.0153249
952.014	0.0154054
952.092	0.0155316
952.170	0.0154508
952.248	0.0154371
952.326	0.0153693
952.405	0.0153547
952.483	0.0153434
952.561	0.0154199
952.639	0.0155563
952.717	0.0154476
952.795	0.0152418
952.873	0.0153764
952.951	0.0155658
953.030	0.0155242
953.108	0.0153868
953.186	0.0154037
953.264	0.0155214
953.342	0.0153701
953.420	0.0152589
953.498	0.0153718
953.576	0.0154159
953.655	0.0155106
953.733	0.0154923
953.811	0.0154357
953.889	0.0153997
953.967	0.0154563
954.045	0.0154218
954.123	0.0155972
954.201	0.0154343
954.280	0.0154637
954.358	0.0154489
954.436	0.0154600
954.514	0.0154736
954.592	0.0155409
954.670	0.0153818
954.748	0.0153732
954.826	0.0155820
954.905	0.0155013
954.983	0.0154407
955.061	0.0154423
955.139	0.0153896
955.217	0.0155357
955.295	0.0154593
955.373	0.0153655
955.451	0.0153898
955.530	0.0154764
955.608	0.0154066
955.686	0.0154353
955.764	0.0154791
955.842	0.0155097
955.920	0.0153965
955.998	0.0154060
956.076	0.0153295
956.155	0.0155070
956.233	0.0153284
956.311	0.0152734
956.389	0.0153951
956.467	0.0153819
956.545	0.0153223
956.623	0.0154165
956.701	0.0152770
956.780	0.0153401
956.858	0.0152670
956.936	0.0153931
957.014	0.0154327
957.092	0.0153197
957.170	0.0153994
957.248	0.0153024
957.326	0.0153015
957.405	0.0153496
957.483	0.0153586
957.561	0.0153444
957.639	0.0154417
957.717	0.0154213
957.795	0.0154632
957.873	0.0154089
957.951	0.0152709
958.030	0.0153049
958.108	0.0154378
958.186	0.0154337
958.264	0.0154227
958.342	0.0153159
958.420	0.0154707
958.498	0.0153574
958.576	0.0153168
958.655	0.0152296
958.733	0.0153994
958.811	0.0154202
958.889	0.0152818
958.967	0.0153143
959.045	0.0152596
959.123	0.0153544
959.201	0.0153162
959.280	0.0154018
959.358	0.0153708
959.436	0.0154816
959.514	0.0155166
959.592	0.0154400
959.670	0.0154334
959.748	0.0153989
959.826	0.0153050
959.905	0.0153079
