05/20/2022	17:19:30	Ver.	4.1	UNKNOWN
Optical Delay	639.982744	Delta X		0.078125	Sweeps	1	Scan Rate	0/0
Coordinates	Axis 1	NaN	Axis 2	NaN	Axis 3	NaN	Axis 4	NaN	Axis 5	NaN	Axis 6	0.000000
TX Power	0.000000	RX Power	0.000000

639.983	0.0153609
640.061	0.0152782
640.139	0.0152215
640.217	0.0151819
640.295	0.0154060
640.373	0.0153626
640.451	0.0152892
640.530	0.0152411
640.608	0.0152218
640.686	0.0152728
640.764	0.0154349
640.842	0.0153172
640.920	0.0154617
640.998	0.0153445
641.076	0.0152837
641.155	0.0153758
641.233	0.0153791
641.311	0.0153593
641.389	0.0153343
641.467	0.0154587
641.545	0.0153643
641.623	0.0152769
641.701	0.0152789
641.780	0.0152776
641.858	0.0153191
641.936	0.0153261
642.014	0.0152652
642.092	0.0153258
642.170	0.0154604
642.248	0.0153235
642.326	0.0153064
642.405	0.0152497
642.483	0.0151769
642.561	0.0153603
642.639	0.0152080
642.717	0.0152528
642.795	0.0153189
642.873	0.0152744
642.951	0.0151953
643.030	0.0151843
643.108	0.0152880
643.186	0.0153557
643.264	0.0150977
643.342	0.0150370
643.420	0.0152606
643.498	0.0154131
643.576	0.0153076
643.655	0.0151807
643.733	0.0151488
643.811	0.0151786
643.889	0.0151836
643.967	0.0151702
644.045	0.0152558
644.123	0.0152187
644.201	0.0152547
644.280	0.0151981
644.358	0.0152721
644.436	0.0153915
644.514	0.0152227
644.592	0.0151667
644.670	0.0151794
644.748	0.0151953
644.826	0.0152346
644.905	0.0153408
644.983	0.0152057
645.061	0.0150089
645.139	0.0151660
645.217	0.0152473
645.295	0.0152572
645.373	0.0153032
645.451	0.0153320
645.530	0.0153512
645.608	0.0152806
645.686	0.0152380
645.764	0.0152421
645.842	0.0152616
645.920	0.0153188
645.998	0.0152409
646.076	0.0152013
646.155	0.0152179
646.233	0.0153355
646.311	0.0152551
646.389	0.0153234
646.467	0.0153159
646.545	0.0153614
646.623	0.0151889
646.701	0.0152483
646.780	0.0152139
646.858	0.0153797
646.936	0.0152115
647.014	0.0152681
647.092	0.0152536
647.170	0.0152211
647.248	0.0152213
647.326	0.0151777
647.405	0.0153426
647.483	0.0152802
647.561	0.0151079
647.639	0.0152022
647.717	0.0150874
647.795	0.0151069
647.873	0.0152601
647.951	0.0152206
648.030	0.0152477
648.108	0.0151520
648.186	0.0152787
648.264	0.0152541
648.342	0.0152239
648.420	0.0152341
648.498	0.0152003
648.576	0.0152084
648.655	0.0152062
648.733	0.0152383
648.811	0.0152080
648.889	0.0151789
648.967	0.0153053
649.045	0.0153177
649.123	0.0154486
649.201	0.0153157
649.280	0.0153188
649.358	0.0153091
649.436	0.0154600
649.514	0.0154455
649.592	0.0154242
649.670	0.0154465
649.748	0.0155793
649.826	0.0153738
649.905	0.0153374
649.983	0.0155048
650.061	0.0153484
650.139	0.0153939
650.217	0.0154362
650.295	0.0153043
650.373	0.0153664
650.451	0.0153123
650.530	0.0152661
650.608	0.0152106
650.686	0.0151727
650.764	0.0150840
650.842	0.0153020
650.920	0.0152695
650.998	0.0150977
651.076	0.0150932
651.155	0.0151163
651.233	0.0152193
651.311	0.0150528
651.389	0.0150258
651.467	0.0151900
651.545	0.0152775
651.623	0.0151285
651.701	0.0152414
651.780	0.0154057
651.858	0.0154027
651.936	0.0152061
652.014	0.0152737
652.092	0.0153130
652.170	0.0152546
652.248	0.0155029
652.326	0.0154504
652.405	0.0153405
652.483	0.0152912
652.561	0.0153496
652.639	0.0151861
652.717	0.0152160
652.795	0.0153210
652.873	0.0152615
652.951	0.0152313
653.030	0.0151488
653.108	0.0151553
653.186	0.0151762
653.264	0.0151548
653.342	0.0151496
653.420	0.0151897
653.498	0.0150743
653.576	0.0151243
653.655	0.0152441
653.733	0.0151942
653.811	0.0151269
653.889	0.0152651
653.967	0.0152005
654.045	0.0152585
654.123	0.0152390
654.201	0.0154124
654.280	0.0152833
654.358	0.0154047
654.436	0.0153177
654.514	0.0153652
654.592	0.0153388
654.670	0.0153936
654.748	0.0153646
654.826	0.0153993
654.905	0.0152573
654.983	0.0152763
655.061	0.0153119
655.139	0.0153227
655.217	0.0154561
655.295	0.0152652
655.373	0.0153730
655.451	0.0153870
655.530	0.0153217
655.608	0.0153214
655.686	0.0152509
655.764	0.0151986
655.842	0.0151917
655.920	0.0153086
655.998	0.0151691
656.076	0.0151450
656.155	0.0152448
656.233	0.0153180
656.311	0.0152169
656.389	0.0152037
656.467	0.0152606
656.545	0.0151527
656.623	0.0150465
656.701	0.0152679
656.780	0.0152505
656.858	0.0151925
656.936	0.0151765
657.014	0.0151942
657.092	0.0153914
657.170	0.0153845
657.248	0.0153107
657.326	0.0153352
657.405	0.0153981
657.483	0.0154382
657.561	0.0153928
657.639	0.0153722
657.717	0.0153712
657.795	0.0153970
657.873	0.0155142
657.951	0.0154958
658.030	0.0154687
658.108	0.0154780
658.186	0.0153742
658.264	0.0152483
658.342	0.0153787
658.420	0.0153130
658.498	0.0153590
658.576	0.0153356
658.655	0.0153362
658.733	0.0153869
658.811	0.0152275
658.889	0.0153495
658.967	0.0152092
659.045	0.0150645
659.123	0.0152100
659.201	0.0152802
659.280	0.0152570
659.358	0.0151981
659.436	0.0152091
659.514	0.0153135
659.592	0.0153032
659.670	0.0154305
659.748	0.0152657
659.826	0.0151623
659.905	0.0153782
659.983	0.0152849
660.061	0.0153716
660.139	0.0153593
660.217	0.0154627
660.295	0.0154262
660.373	0.0152310
660.451	0.0154280
660.530	0.0154218
660.608	0.0153043
660.686	0.0153300
660.764	0.0152765
660.842	0.0151955
660.920	0.0152431
660.998	0.0151199
661.076	0.0151793
661.155	0.0152120
661.233	0.0151299
661.311	0.0149706
661.389	0.0150859
661.467	0.0150911
661.545	0.0152565
661.623	0.0151154
661.701	0.0151506
661.780	0.0151048
661.858	0.0152226
661.936	0.0151664
662.014	0.0151105
662.092	0.0151514
662.170	0.0152833
662.248	0.0152886
662.326	0.0152914
662.405	0.0152215
662.483	0.0152541
662.561	0.0151765
662.639	0.0152000
662.717	0.0152406
662.795	0.0151630
662.873	0.0151481
662.951	0.0151077
663.030	0.0152976
663.108	0.0150476
663.186	0.0150929
663.264	0.0151034
663.342	0.0149722
663.420	0.0150163
663.498	0.0150285
663.576	0.0150815
663.655	0.0150537
663.733	0.0149234
663.811	0.0148290
663.889	0.0150162
663.967	0.0149734
664.045	0.0150082
664.123	0.0149818
664.201	0.0150802
664.280	0.0150018
664.358	0.0150644
664.436	0.0150509
664.514	0.0150838
664.592	0.0150495
664.670	0.0149413
664.748	0.0150755
664.826	0.0151727
664.905	0.0151192
664.983	0.0152915
665.061	0.0152560
665.139	0.0152044
665.217	0.0153284
665.295	0.0153313
665.373	0.0153559
665.451	0.0154531
665.530	0.0155307
665.608	0.0155531
665.686	0.0155801
665.764	0.0154433
665.842	0.0154704
665.920	0.0154691
665.998	0.0154069
666.076	0.0152911
666.155	0.0155553
666.233	0.0153855
666.311	0.0154005
666.389	0.0151719
666.467	0.0153151
666.545	0.0153504
666.623	0.0153000
666.701	0.0153555
666.780	0.0153165
666.858	0.0153583
666.936	0.0154675
667.014	0.0153732
667.092	0.0152188
667.170	0.0153281
667.248	0.0153526
667.326	0.0153045
667.405	0.0153034
667.483	0.0153197
667.561	0.0152612
667.639	0.0151411
667.717	0.0153002
667.795	0.0151667
667.873	0.0151833
667.951	0.0150546
668.030	0.0150931
668.108	0.0150547
668.186	0.0149908
668.264	0.0149731
668.342	0.0149689
668.420	0.0150034
668.498	0.0149565
668.576	0.0148761
668.655	0.0148692
668.733	0.0147820
668.811	0.0146927
668.889	0.0146707
668.967	0.0146777
669.045	0.0148093
669.123	0.0148030
669.201	0.0147072
669.280	0.0148754
669.358	0.0149202
669.436	0.0150467
669.514	0.0150721
669.592	0.0150933
669.670	0.0150548
669.748	0.0152039
669.826	0.0152751
669.905	0.0154199
669.983	0.0154532
670.061	0.0154689
670.139	0.0155698
670.217	0.0154917
670.295	0.0156897
670.373	0.0156243
670.451	0.0157173
670.530	0.0157236
670.608	0.0157176
670.686	0.0157260
670.764	0.0156689
670.842	0.0156555
670.920	0.0157095
670.998	0.0156065
671.076	0.0156293
671.155	0.0157151
671.233	0.0154354
671.311	0.0155910
671.389	0.0154887
671.467	0.0154256
671.545	0.0155573
671.623	0.0155227
671.701	0.0155609
671.780	0.0153435
671.858	0.0155379
671.936	0.0155889
672.014	0.0155817
672.092	0.0153833
672.170	0.0153779
672.248	0.0154813
672.326	0.0154377
672.405	0.0154349
672.483	0.0154566
672.561	0.0155537
672.639	0.0153125
672.717	0.0154272
672.795	0.0154259
672.873	0.0154350
672.951	0.0151878
673.030	0.0151788
673.108	0.0151591
673.186	0.0151197
673.264	0.0152149
673.342	0.0151630
673.420	0.0149828
673.498	0.0150389
673.576	0.0148486
673.655	0.0148109
673.733	0.0148728
673.811	0.0147115
673.889	0.0146023
673.967	0.0144401
674.045	0.0144997
674.123	0.0143945
674.201	0.0144528
674.280	0.0145712
674.358	0.0144901
674.436	0.0144701
674.514	0.0144368
674.592	0.0145779
674.670	0.0145730
674.748	0.0147343
674.826	0.0148409
674.905	0.0148129
674.983	0.0149192
675.061	0.0151664
675.139	0.0150845
675.217	0.0151873
675.295	0.0152830
675.373	0.0155175
675.451	0.0155477
675.530	0.0156168
675.608	0.0156898
675.686	0.0158040
675.764	0.0158675
675.842	0.0160264
675.920	0.0159171
675.998	0.0159932
676.076	0.0161910
676.155	0.0162433
676.233	0.0162127
676.311	0.0162617
676.389	0.0163072
676.467	0.0162003
676.545	0.0161091
676.623	0.0162405
676.701	0.0161101
676.780	0.0160662
676.858	0.0161275
676.936	0.0158967
677.014	0.0158536
677.092	0.0158579
677.170	0.0158015
677.248	0.0156599
677.326	0.0156645
677.405	0.0154465
677.483	0.0153371
677.561	0.0152160
677.639	0.0153116
677.717	0.0150449
677.795	0.0151168
677.873	0.0149140
677.951	0.0147659
678.030	0.0147803
678.108	0.0147703
678.186	0.0146368
678.264	0.0146759
678.342	0.0145569
678.420	0.0145657
678.498	0.0146036
678.576	0.0146324
678.655	0.0145307
678.733	0.0145924
678.811	0.0145499
678.889	0.0146011
678.967	0.0146045
679.045	0.0146314
679.123	0.0147070
679.201	0.0149818
679.280	0.0149472
679.358	0.0148914
679.436	0.0149232
679.514	0.0150681
679.592	0.0149760
679.670	0.0151813
679.748	0.0152043
679.826	0.0154104
679.905	0.0152408
679.983	0.0153182
680.061	0.0155247
680.139	0.0155879
680.217	0.0155570
680.295	0.0156388
680.373	0.0157671
680.451	0.0158006
680.530	0.0156851
680.608	0.0158813
680.686	0.0157439
680.764	0.0158634
680.842	0.0159315
680.920	0.0159668
680.998	0.0158459
681.076	0.0157882
681.155	0.0157955
681.233	0.0160116
681.311	0.0158366
681.389	0.0157951
681.467	0.0156966
681.545	0.0157092
681.623	0.0155823
681.701	0.0156180
681.780	0.0154356
681.858	0.0154340
681.936	0.0154493
682.014	0.0153630
682.092	0.0154601
682.170	0.0153009
682.248	0.0153051
682.326	0.0152304
682.405	0.0152325
682.483	0.0152226
682.561	0.0151293
682.639	0.0152549
682.717	0.0151388
682.795	0.0149931
682.873	0.0151072
682.951	0.0151564
683.030	0.0151134
683.108	0.0150066
683.186	0.0150963
683.264	0.0150159
683.342	0.0149916
683.420	0.0149598
683.498	0.0150861
683.576	0.0150206
683.655	0.0149345
683.733	0.0149993
683.811	0.0150628
683.889	0.0151821
683.967	0.0152280
684.045	0.0151363
684.123	0.0152006
684.201	0.0153975
684.280	0.0153598
684.358	0.0152957
684.436	0.0154472
684.514	0.0154575
684.592	0.0154833
684.670	0.0155932
684.748	0.0154369
684.826	0.0155071
684.905	0.0154858
684.983	0.0153218
685.061	0.0153848
685.139	0.0155176
685.217	0.0153504
685.295	0.0152188
685.373	0.0153714
685.451	0.0153048
685.530	0.0150537
685.608	0.0151299
685.686	0.0150505
685.764	0.0150793
685.842	0.0150436
685.920	0.0149850
685.998	0.0151270
686.076	0.0150534
686.155	0.0151573
686.233	0.0151746
686.311	0.0150650
686.389	0.0151231
686.467	0.0150902
686.545	0.0150666
686.623	0.0151251
686.701	0.0151821
686.780	0.0150479
686.858	0.0150387
686.936	0.0150838
687.014	0.0151701
687.092	0.0153103
687.170	0.0152550
687.248	0.0152502
687.326	0.0151965
687.405	0.0152651
687.483	0.0153188
687.561	0.0154279
687.639	0.0152660
687.717	0.0152785
687.795	0.0153237
687.873	0.0154053
687.951	0.0153900
688.030	0.0154327
688.108	0.0154441
688.186	0.0153465
688.264	0.0154631
688.342	0.0153732
688.420	0.0154227
688.498	0.0156184
688.576	0.0155246
688.655	0.0154323
688.733	0.0155463
688.811	0.0154127
688.889	0.0155256
688.967	0.0154749
689.045	0.0155328
689.123	0.0154299
689.201	0.0154765
689.280	0.0154980
689.358	0.0155340
689.436	0.0154710
689.514	0.0153410
689.592	0.0152577
689.670	0.0153006
689.748	0.0154122
689.826	0.0152441
689.905	0.0151996
689.983	0.0151644
690.061	0.0151762
690.139	0.0150176
690.217	0.0150704
690.295	0.0149902
690.373	0.0150307
690.451	0.0149448
690.530	0.0149326
690.608	0.0149738
690.686	0.0148689
690.764	0.0149564
690.842	0.0148360
690.920	0.0148803
690.998	0.0150758
691.076	0.0150434
691.155	0.0149239
691.233	0.0149089
691.311	0.0150048
691.389	0.0152557
691.467	0.0151516
691.545	0.0153538
691.623	0.0154777
691.701	0.0153930
691.780	0.0154910
691.858	0.0155830
691.936	0.0155878
692.014	0.0156577
692.092	0.0155745
692.170	0.0156737
692.248	0.0157260
692.326	0.0156947
692.405	0.0157721
692.483	0.0157614
692.561	0.0155151
692.639	0.0157283
692.717	0.0157587
692.795	0.0155580
692.873	0.0154585
692.951	0.0155219
693.030	0.0154913
693.108	0.0154389
693.186	0.0152324
693.264	0.0153016
693.342	0.0152945
693.420	0.0152358
693.498	0.0153182
693.576	0.0150834
693.655	0.0152529
693.733	0.0152345
693.811	0.0150321
693.889	0.0151593
693.967	0.0149928
694.045	0.0148981
694.123	0.0151284
694.201	0.0149189
694.280	0.0148466
694.358	0.0148367
694.436	0.0148985
694.514	0.0149786
694.592	0.0148042
694.670	0.0148828
694.748	0.0148640
694.826	0.0150374
694.905	0.0150658
694.983	0.0151767
695.061	0.0151678
695.139	0.0152511
695.217	0.0153745
695.295	0.0154388
695.373	0.0154166
695.451	0.0155029
695.530	0.0157620
695.608	0.0158476
695.686	0.0157462
695.764	0.0157488
695.842	0.0159046
695.920	0.0159283
695.998	0.0159498
696.076	0.0160495
696.155	0.0158509
696.233	0.0158721
696.311	0.0157754
696.389	0.0157914
696.467	0.0158935
696.545	0.0156831
696.623	0.0154670
696.701	0.0155904
696.780	0.0157208
696.858	0.0154225
696.936	0.0155704
697.014	0.0155230
697.092	0.0154556
697.170	0.0154311
697.248	0.0153397
697.326	0.0153065
697.405	0.0154269
697.483	0.0154939
697.561	0.0153855
697.639	0.0152007
697.717	0.0153674
697.795	0.0153629
697.873	0.0153640
697.951	0.0151738
698.030	0.0152234
698.108	0.0152840
698.186	0.0153033
698.264	0.0150842
698.342	0.0151302
698.420	0.0152332
698.498	0.0150449
698.576	0.0151321
698.655	0.0150168
698.733	0.0149606
698.811	0.0149532
698.889	0.0148956
698.967	0.0147956
699.045	0.0147395
699.123	0.0148334
699.201	0.0145903
699.280	0.0145406
699.358	0.0146533
699.436	0.0146888
699.514	0.0146493
699.592	0.0146245
699.670	0.0146684
699.748	0.0147884
699.826	0.0148661
699.905	0.0149150
699.983	0.0149855
700.061	0.0150949
700.139	0.0152106
700.217	0.0153313
700.295	0.0156948
700.373	0.0154863
700.451	0.0154415
700.530	0.0155360
700.608	0.0156573
700.686	0.0157369
700.764	0.0156688
700.842	0.0156699
700.920	0.0160634
700.998	0.0159423
701.076	0.0159637
701.155	0.0158447
701.233	0.0160955
701.311	0.0159844
701.389	0.0161641
701.467	0.0161235
701.545	0.0161550
701.623	0.0161589
701.701	0.0160898
701.780	0.0161422
701.858	0.0161708
701.936	0.0161841
702.014	0.0160915
702.092	0.0162027
702.170	0.0161106
702.248	0.0160346
702.326	0.0159767
702.405	0.0159329
702.483	0.0157475
702.561	0.0157993
702.639	0.0156980
702.717	0.0155561
702.795	0.0155358
702.873	0.0154355
702.951	0.0153058
703.030	0.0151891
703.108	0.0152096
703.186	0.0149801
703.264	0.0149522
703.342	0.0149776
703.420	0.0149320
703.498	0.0146450
703.576	0.0147672
703.655	0.0146877
703.733	0.0147675
703.811	0.0147546
703.889	0.0146922
703.967	0.0147129
704.045	0.0148028
704.123	0.0148698
704.201	0.0148528
704.280	0.0148301
704.358	0.0151093
704.436	0.0150941
704.514	0.0150527
704.592	0.0152809
704.670	0.0153132
704.748	0.0153308
704.826	0.0154360
704.905	0.0156476
704.983	0.0155079
705.061	0.0155008
705.139	0.0155824
705.217	0.0156542
705.295	0.0158360
705.373	0.0157912
705.451	0.0155962
705.530	0.0155585
705.608	0.0154678
705.686	0.0156817
705.764	0.0156481
705.842	0.0155156
705.920	0.0156889
705.998	0.0156660
706.076	0.0153730
706.155	0.0156009
706.233	0.0156254
706.311	0.0156802
706.389	0.0155341
706.467	0.0155745
706.545	0.0154578
706.623	0.0154397
706.701	0.0155794
706.780	0.0156287
706.858	0.0155299
706.936	0.0156274
707.014	0.0156882
707.092	0.0156212
707.170	0.0155573
707.248	0.0155678
707.326	0.0155913
707.405	0.0155753
707.483	0.0156048
707.561	0.0154530
707.639	0.0155288
707.717	0.0155812
707.795	0.0155279
707.873	0.0154659
707.951	0.0153003
708.030	0.0154480
708.108	0.0152690
708.186	0.0152288
708.264	0.0153349
708.342	0.0152360
708.420	0.0152029
708.498	0.0150951
708.576	0.0152467
708.655	0.0150902
708.733	0.0150571
708.811	0.0151566
708.889	0.0149525
708.967	0.0147572
709.045	0.0149031
709.123	0.0148404
709.201	0.0147495
709.280	0.0149188
709.358	0.0149014
709.436	0.0150424
709.514	0.0150794
709.592	0.0149575
709.670	0.0149515
709.748	0.0149898
709.826	0.0149892
709.905	0.0148730
709.983	0.0150206
710.061	0.0150894
710.139	0.0150739
710.217	0.0150201
710.295	0.0150289
710.373	0.0149440
710.451	0.0150620
710.530	0.0151675
710.608	0.0150719
710.686	0.0151259
710.764	0.0151237
710.842	0.0150423
710.920	0.0152254
710.998	0.0153181
711.076	0.0151777
711.155	0.0152551
711.233	0.0152547
711.311	0.0152647
711.389	0.0153002
711.467	0.0153606
711.545	0.0152193
711.623	0.0152526
711.701	0.0153323
711.780	0.0152525
711.858	0.0152541
711.936	0.0153561
712.014	0.0152991
712.092	0.0153432
712.170	0.0154053
712.248	0.0154948
712.326	0.0155257
712.405	0.0157290
712.483	0.0155186
712.561	0.0155508
712.639	0.0155865
712.717	0.0155636
712.795	0.0154021
712.873	0.0155811
712.951	0.0156470
713.030	0.0153711
713.108	0.0153848
713.186	0.0154159
713.264	0.0153661
713.342	0.0152740
713.420	0.0152700
713.498	0.0152383
713.576	0.0152359
713.655	0.0152573
713.733	0.0153313
713.811	0.0152282
713.889	0.0151532
713.967	0.0151859
714.045	0.0152038
714.123	0.0150692
714.201	0.0151669
714.280	0.0150340
714.358	0.0150349
714.436	0.0150706
714.514	0.0151523
714.592	0.0151159
714.670	0.0150214
714.748	0.0150488
714.826	0.0151709
714.905	0.0152877
714.983	0.0152293
715.061	0.0152590
715.139	0.0154671
715.217	0.0154498
715.295	0.0155764
715.373	0.0155654
715.451	0.0155950
715.530	0.0157710
715.608	0.0156709
715.686	0.0157281
715.764	0.0157335
715.842	0.0157286
715.920	0.0156491
715.998	0.0157217
716.076	0.0157224
716.155	0.0158160
716.233	0.0155770
716.311	0.0156863
716.389	0.0156004
716.467	0.0155109
716.545	0.0155245
716.623	0.0154958
716.701	0.0155067
716.780	0.0155657
716.858	0.0153946
716.936	0.0152605
717.014	0.0153759
717.092	0.0152976
717.170	0.0151700
717.248	0.0151923
717.326	0.0152113
717.405	0.0151691
717.483	0.0151334
717.561	0.0151758
717.639	0.0151554
717.717	0.0151471
717.795	0.0150403
717.873	0.0149545
717.951	0.0150159
718.030	0.0150023
718.108	0.0149860
718.186	0.0148878
718.264	0.0150867
718.342	0.0149504
718.420	0.0148471
718.498	0.0149065
718.576	0.0149179
718.655	0.0150623
718.733	0.0151333
718.811	0.0149379
718.889	0.0152397
718.967	0.0152598
719.045	0.0152625
719.123	0.0152338
719.201	0.0154160
719.280	0.0154766
719.358	0.0153510
719.436	0.0154736
719.514	0.0156503
719.592	0.0155905
719.670	0.0157218
719.748	0.0156579
719.826	0.0158775
719.905	0.0156815
719.983	0.0159532
720.061	0.0159162
720.139	0.0160297
720.217	0.0159547
720.295	0.0157260
720.373	0.0156745
720.451	0.0157912
720.530	0.0157166
720.608	0.0156850
720.686	0.0156992
720.764	0.0156282
720.842	0.0154993
720.920	0.0155627
720.998	0.0155566
721.076	0.0154468
721.155	0.0153888
721.233	0.0155317
721.311	0.0155082
721.389	0.0154367
721.467	0.0155023
721.545	0.0154452
721.623	0.0153624
721.701	0.0154173
721.780	0.0153005
721.858	0.0154752
721.936	0.0154432
722.014	0.0152707
722.092	0.0151913
722.170	0.0152264
722.248	0.0152191
722.326	0.0151765
722.405	0.0151960
722.483	0.0151736
722.561	0.0151686
722.639	0.0149926
722.717	0.0150989
722.795	0.0153030
722.873	0.0150150
722.951	0.0150063
723.030	0.0150873
723.108	0.0151271
723.186	0.0151963
723.264	0.0152579
723.342	0.0152149
723.420	0.0151921
723.498	0.0153465
723.576	0.0153526
723.655	0.0153789
723.733	0.0153398
723.811	0.0154181
723.889	0.0153264
723.967	0.0153851
724.045	0.0154422
724.123	0.0155047
724.201	0.0153764
724.280	0.0153168
724.358	0.0153288
724.436	0.0153487
724.514	0.0154699
724.592	0.0152877
724.670	0.0150578
724.748	0.0152230
724.826	0.0153562
724.905	0.0152450
724.983	0.0154265
725.061	0.0153254
725.139	0.0151556
725.217	0.0153184
725.295	0.0153588
725.373	0.0154285
725.451	0.0155205
725.530	0.0154880
725.608	0.0153374
725.686	0.0154509
725.764	0.0154978
725.842	0.0153655
725.920	0.0155579
725.998	0.0155091
726.076	0.0153658
726.155	0.0154873
726.233	0.0156091
726.311	0.0153881
726.389	0.0154476
726.467	0.0155128
726.545	0.0155674
726.623	0.0154687
726.701	0.0154921
726.780	0.0155551
726.858	0.0155006
726.936	0.0155633
727.014	0.0156204
727.092	0.0154745
727.170	0.0154519
727.248	0.0154408
727.326	0.0154764
727.405	0.0154194
727.483	0.0154368
727.561	0.0153833
727.639	0.0155071
727.717	0.0153469
727.795	0.0154215
727.873	0.0153552
727.951	0.0152688
728.030	0.0153751
728.108	0.0152453
728.186	0.0151801
728.264	0.0152678
728.342	0.0152608
728.420	0.0151867
728.498	0.0149780
728.576	0.0151079
728.655	0.0149670
728.733	0.0147478
728.811	0.0148847
728.889	0.0147269
728.967	0.0147352
729.045	0.0147887
729.123	0.0145487
729.201	0.0145695
729.280	0.0147005
729.358	0.0145793
729.436	0.0146426
729.514	0.0146655
729.592	0.0146454
729.670	0.0146684
729.748	0.0147042
729.826	0.0150105
729.905	0.0150688
729.983	0.0153078
730.061	0.0152020
730.139	0.0153702
730.217	0.0154185
730.295	0.0154632
730.373	0.0156631
730.451	0.0157632
730.530	0.0158514
730.608	0.0159039
730.686	0.0159496
730.764	0.0157590
730.842	0.0159043
730.920	0.0158997
730.998	0.0159445
731.076	0.0160197
731.155	0.0157773
731.233	0.0158830
731.311	0.0158648
731.389	0.0158473
731.467	0.0157614
731.545	0.0158300
731.623	0.0156683
731.701	0.0156346
731.780	0.0158244
731.858	0.0157011
731.936	0.0155659
732.014	0.0153255
732.092	0.0155013
732.170	0.0154267
732.248	0.0153661
732.326	0.0152636
732.405	0.0152316
732.483	0.0152403
732.561	0.0152232
732.639	0.0149284
732.717	0.0149203
732.795	0.0148099
732.873	0.0148849
732.951	0.0147298
733.030	0.0148836
733.108	0.0147803
733.186	0.0147648
733.264	0.0148019
733.342	0.0147653
733.420	0.0148213
733.498	0.0146635
733.576	0.0149155
733.655	0.0149597
733.733	0.0150066
733.811	0.0150352
733.889	0.0150524
733.967	0.0150671
734.045	0.0149810
734.123	0.0151752
734.201	0.0151096
734.280	0.0152206
734.358	0.0151777
734.436	0.0151987
734.514	0.0152563
734.592	0.0153338
734.670	0.0153185
734.748	0.0152395
734.826	0.0153233
734.905	0.0154050
734.983	0.0153159
735.061	0.0153811
735.139	0.0155470
735.217	0.0154800
735.295	0.0154498
735.373	0.0154119
735.451	0.0155626
735.530	0.0156162
735.608	0.0155637
735.686	0.0155206
735.764	0.0156273
735.842	0.0155100
735.920	0.0154958
735.998	0.0154820
736.076	0.0154596
736.155	0.0153544
736.233	0.0153996
736.311	0.0155548
736.389	0.0154840
736.467	0.0153721
736.545	0.0154379
736.623	0.0153530
736.701	0.0153053
736.780	0.0153335
736.858	0.0151691
736.936	0.0151270
737.014	0.0151562
737.092	0.0151598
737.170	0.0151035
737.248	0.0150990
737.326	0.0149912
737.405	0.0149631
737.483	0.0149776
737.561	0.0148857
737.639	0.0149977
737.717	0.0149314
737.795	0.0150109
737.873	0.0151380
737.951	0.0150959
738.030	0.0150817
738.108	0.0150059
738.186	0.0151446
738.264	0.0150930
738.342	0.0152202
738.420	0.0152625
738.498	0.0150749
738.576	0.0152077
738.655	0.0153967
738.733	0.0154224
738.811	0.0153977
738.889	0.0154352
738.967	0.0153425
739.045	0.0155109
739.123	0.0154978
739.201	0.0155106
739.280	0.0155944
739.358	0.0156134
739.436	0.0156950
739.514	0.0156061
739.592	0.0157085
739.670	0.0153810
739.748	0.0154167
739.826	0.0155021
739.905	0.0152663
739.983	0.0154707
740.061	0.0154022
740.139	0.0154831
740.217	0.0154385
740.295	0.0153855
740.373	0.0153851
740.451	0.0153052
740.530	0.0153299
740.608	0.0152515
740.686	0.0152789
740.764	0.0152104
740.842	0.0153455
740.920	0.0153516
740.998	0.0151659
741.076	0.0153963
741.155	0.0153554
741.233	0.0151677
741.311	0.0152395
741.389	0.0152960
741.467	0.0153441
741.545	0.0152968
741.623	0.0152794
741.701	0.0153227
741.780	0.0152263
741.858	0.0152635
741.936	0.0153674
742.014	0.0154261
742.092	0.0151827
742.170	0.0151447
742.248	0.0154105
742.326	0.0153400
742.405	0.0152298
742.483	0.0152232
742.561	0.0151100
742.639	0.0152551
742.717	0.0152658
742.795	0.0152074
742.873	0.0152491
742.951	0.0152371
743.030	0.0150716
743.108	0.0153480
743.186	0.0152764
743.264	0.0153274
743.342	0.0154115
743.420	0.0153167
743.498	0.0154131
743.576	0.0153735
743.655	0.0154688
743.733	0.0155651
743.811	0.0154625
743.889	0.0154855
743.967	0.0155210
744.045	0.0156259
744.123	0.0155840
744.201	0.0155461
744.280	0.0156071
744.358	0.0155123
744.436	0.0154560
744.514	0.0154403
744.592	0.0154873
744.670	0.0153951
744.748	0.0152421
744.826	0.0151403
744.905	0.0152318
744.983	0.0151838
745.061	0.0151355
745.139	0.0151096
745.217	0.0149915
745.295	0.0152624
745.373	0.0152556
745.451	0.0151604
745.530	0.0151061
745.608	0.0152546
745.686	0.0151705
745.764	0.0152141
745.842	0.0154057
745.920	0.0154248
745.998	0.0155853
746.076	0.0155259
746.155	0.0153941
746.233	0.0155547
746.311	0.0157221
746.389	0.0156152
746.467	0.0154363
746.545	0.0156071
746.623	0.0156376
746.701	0.0153883
746.780	0.0154441
746.858	0.0154699
746.936	0.0154353
747.014	0.0153940
747.092	0.0153459
747.170	0.0153250
747.248	0.0153204
747.326	0.0152795
747.405	0.0152503
747.483	0.0152069
747.561	0.0151868
747.639	0.0151654
747.717	0.0150581
747.795	0.0151751
747.873	0.0150984
747.951	0.0150317
748.030	0.0150287
748.108	0.0150126
748.186	0.0149994
748.264	0.0151465
748.342	0.0151174
748.420	0.0150722
748.498	0.0151067
748.576	0.0151667
748.655	0.0151817
748.733	0.0152267
748.811	0.0152773
748.889	0.0151953
748.967	0.0151771
749.045	0.0153831
749.123	0.0154349
749.201	0.0152829
749.280	0.0153573
749.358	0.0154578
749.436	0.0152985
749.514	0.0154044
749.592	0.0154214
749.670	0.0153244
749.748	0.0151421
749.826	0.0152332
749.905	0.0152613
749.983	0.0152106
750.061	0.0151970
750.139	0.0151639
750.217	0.0151815
750.295	0.0150085
750.373	0.0150089
750.451	0.0149982
750.530	0.0152346
750.608	0.0152024
750.686	0.0151401
750.764	0.0152967
750.842	0.0153782
750.920	0.0152840
750.998	0.0153324
751.076	0.0154184
751.155	0.0154865
751.233	0.0154482
751.311	0.0155785
751.389	0.0155043
751.467	0.0158282
751.545	0.0156611
751.623	0.0156694
751.701	0.0154503
751.780	0.0156582
751.858	0.0156155
751.936	0.0156128
752.014	0.0154846
752.092	0.0154219
752.170	0.0154059
752.248	0.0153555
752.326	0.0152737
752.405	0.0152510
752.483	0.0153279
752.561	0.0151857
752.639	0.0152830
752.717	0.0152717
752.795	0.0152563
752.873	0.0152980
752.951	0.0152352
753.030	0.0152187
753.108	0.0151308
753.186	0.0152697
753.264	0.0151512
753.342	0.0149902
753.420	0.0150372
753.498	0.0151133
753.576	0.0149673
753.655	0.0150463
753.733	0.0149869
753.811	0.0149298
753.889	0.0149773
753.967	0.0149951
754.045	0.0151552
754.123	0.0150641
754.201	0.0150932
754.280	0.0151423
754.358	0.0152095
754.436	0.0153022
754.514	0.0152848
754.592	0.0152026
754.670	0.0153849
754.748	0.0154202
754.826	0.0154520
754.905	0.0154855
754.983	0.0155287
755.061	0.0155568
755.139	0.0155069
755.217	0.0154746
755.295	0.0155964
755.373	0.0155009
755.451	0.0156094
755.530	0.0155236
755.608	0.0154185
755.686	0.0154745
755.764	0.0152544
755.842	0.0153440
755.920	0.0153275
755.998	0.0152391
756.076	0.0150513
756.155	0.0151379
756.233	0.0150462
756.311	0.0150846
756.389	0.0151649
756.467	0.0149580
756.545	0.0149442
756.623	0.0151093
756.701	0.0151517
756.780	0.0151290
756.858	0.0152848
756.936	0.0153229
757.014	0.0152152
757.092	0.0153199
757.170	0.0153593
757.248	0.0152914
757.326	0.0154448
757.405	0.0156523
757.483	0.0154366
757.561	0.0154427
757.639	0.0153877
757.717	0.0154104
757.795	0.0153843
757.873	0.0153133
757.951	0.0152208
758.030	0.0153259
758.108	0.0153642
758.186	0.0152781
758.264	0.0151415
758.342	0.0153345
758.420	0.0152582
758.498	0.0150610
758.576	0.0151865
758.655	0.0151042
758.733	0.0150929
758.811	0.0150965
758.889	0.0151686
758.967	0.0152107
759.045	0.0152611
759.123	0.0150386
759.201	0.0152583
759.280	0.0152462
759.358	0.0152088
759.436	0.0154765
759.514	0.0153899
759.592	0.0153245
759.670	0.0154623
759.748	0.0154913
759.826	0.0155010
759.905	0.0155531
759.983	0.0154425
760.061	0.0155031
760.139	0.0156362
760.217	0.0155592
760.295	0.0154071
760.373	0.0155525
760.451	0.0154819
760.530	0.0153996
760.608	0.0154395
760.686	0.0153305
760.764	0.0152612
760.842	0.0153353
760.920	0.0153603
760.998	0.0152499
761.076	0.0152686
761.155	0.0153149
761.233	0.0153272
761.311	0.0152702
761.389	0.0151602
761.467	0.0151807
761.545	0.0151842
761.623	0.0152499
761.701	0.0153816
761.780	0.0151511
761.858	0.0151808
761.936	0.0150648
762.014	0.0151521
762.092	0.0152773
762.170	0.0152345
762.248	0.0151326
762.326	0.0154095
762.405	0.0153140
762.483	0.0151373
762.561	0.0151403
762.639	0.0150787
762.717	0.0151119
762.795	0.0152792
762.873	0.0153745
762.951	0.0153279
763.030	0.0152950
763.108	0.0152753
763.186	0.0154817
763.264	0.0152799
763.342	0.0155005
763.420	0.0155705
763.498	0.0153538
763.576	0.0155096
763.655	0.0155558
763.733	0.0155254
763.811	0.0155972
763.889	0.0155798
763.967	0.0156751
764.045	0.0156645
764.123	0.0157076
764.201	0.0155534
764.280	0.0155270
764.358	0.0156537
764.436	0.0155732
764.514	0.0155775
764.592	0.0155206
764.670	0.0155587
764.748	0.0153508
764.826	0.0153404
764.905	0.0151318
764.983	0.0152059
765.061	0.0151454
765.139	0.0152215
765.217	0.0151451
765.295	0.0150843
765.373	0.0151244
765.451	0.0149740
765.530	0.0150665
765.608	0.0151202
765.686	0.0151916
765.764	0.0152779
765.842	0.0151790
765.920	0.0151353
765.998	0.0151574
766.076	0.0151276
766.155	0.0153678
766.233	0.0153415
766.311	0.0153470
766.389	0.0152026
766.467	0.0152922
766.545	0.0153997
766.623	0.0151981
766.701	0.0152068
766.780	0.0151866
766.858	0.0151186
766.936	0.0150880
767.014	0.0152610
767.092	0.0151394
767.170	0.0151343
767.248	0.0151612
767.326	0.0151606
767.405	0.0150307
767.483	0.0151462
767.561	0.0152604
767.639	0.0151904
767.717	0.0151464
767.795	0.0150734
767.873	0.0153275
767.951	0.0152877
768.030	0.0152610
768.108	0.0153011
768.186	0.0153146
768.264	0.0152730
768.342	0.0153405
768.420	0.0153007
768.498	0.0153384
768.576	0.0153699
768.655	0.0152588
768.733	0.0152905
768.811	0.0152998
768.889	0.0152896
768.967	0.0153467
769.045	0.0153529
769.123	0.0152707
769.201	0.0153369
769.280	0.0154621
769.358	0.0152852
769.436	0.0151855
769.514	0.0153339
769.592	0.0152629
769.670	0.0152343
769.748	0.0154070
769.826	0.0153854
769.905	0.0153487
769.983	0.0154144
770.061	0.0155823
770.139	0.0154783
770.217	0.0153101
770.295	0.0153040
770.373	0.0153304
770.451	0.0153764
770.530	0.0152632
770.608	0.0152150
770.686	0.0150364
770.764	0.0149793
770.842	0.0150522
770.920	0.0153253
770.998	0.0150175
771.076	0.0150638
771.155	0.0149350
771.233	0.0149059
771.311	0.0150554
771.389	0.0150811
771.467	0.0150767
771.545	0.0151182
771.623	0.0150132
771.701	0.0149755
771.780	0.0151517
771.858	0.0152518
771.936	0.0153424
772.014	0.0153603
772.092	0.0152287
772.170	0.0152428
772.248	0.0152098
772.326	0.0152792
772.405	0.0152892
772.483	0.0152692
772.561	0.0152894
772.639	0.0152888
772.717	0.0151186
772.795	0.0150941
772.873	0.0152507
772.951	0.0152893
773.030	0.0154478
773.108	0.0151901
773.186	0.0151958
773.264	0.0152528
773.342	0.0152833
773.420	0.0152522
773.498	0.0152359
773.576	0.0154208
773.655	0.0152092
773.733	0.0152306
773.811	0.0153585
773.889	0.0152602
773.967	0.0152782
774.045	0.0153062
774.123	0.0152581
774.201	0.0153377
774.280	0.0154317
774.358	0.0152538
774.436	0.0155019
774.514	0.0153104
774.592	0.0153300
774.670	0.0152574
774.748	0.0152730
774.826	0.0152377
774.905	0.0152467
774.983	0.0153010
775.061	0.0152463
775.139	0.0152247
775.217	0.0150733
775.295	0.0150550
775.373	0.0152137
775.451	0.0151568
775.530	0.0152402
775.608	0.0151849
775.686	0.0150478
775.764	0.0150283
775.842	0.0151384
775.920	0.0150479
775.998	0.0151242
776.076	0.0150632
776.155	0.0150528
776.233	0.0151394
776.311	0.0152149
776.389	0.0152242
776.467	0.0152134
776.545	0.0151881
776.623	0.0153056
776.701	0.0154028
776.780	0.0154974
776.858	0.0154539
776.936	0.0153872
777.014	0.0153728
777.092	0.0154664
777.170	0.0153800
777.248	0.0154070
777.326	0.0154330
777.405	0.0154657
777.483	0.0154513
777.561	0.0154787
777.639	0.0154176
777.717	0.0154693
777.795	0.0154437
777.873	0.0154949
777.951	0.0154572
778.030	0.0155398
778.108	0.0155980
778.186	0.0155287
778.264	0.0155263
778.342	0.0156007
778.420	0.0155666
778.498	0.0153916
778.576	0.0155095
778.655	0.0156013
778.733	0.0155775
778.811	0.0154566
778.889	0.0154464
778.967	0.0153584
779.045	0.0153440
779.123	0.0152276
779.201	0.0152460
779.280	0.0153811
779.358	0.0152292
779.436	0.0152900
779.514	0.0153075
779.592	0.0153114
779.670	0.0151203
779.748	0.0151339
779.826	0.0150974
779.905	0.0151888
779.983	0.0150815
780.061	0.0151698
780.139	0.0152066
780.217	0.0152910
780.295	0.0153049
780.373	0.0151936
780.451	0.0151781
780.530	0.0152350
780.608	0.0153330
780.686	0.0152662
780.764	0.0152496
780.842	0.0152251
780.920	0.0152245
780.998	0.0152621
781.076	0.0152566
781.155	0.0152472
781.233	0.0152945
781.311	0.0153333
781.389	0.0153215
781.467	0.0150932
781.545	0.0153537
781.623	0.0151696
781.701	0.0151994
781.780	0.0153919
781.858	0.0151962
781.936	0.0151541
782.014	0.0153991
782.092	0.0153933
782.170	0.0152341
782.248	0.0153081
782.326	0.0152329
782.405	0.0154076
782.483	0.0153181
782.561	0.0154655
782.639	0.0153751
782.717	0.0154179
782.795	0.0155064
782.873	0.0153818
782.951	0.0154744
783.030	0.0155585
783.108	0.0154806
783.186	0.0153745
783.264	0.0154868
783.342	0.0156101
783.420	0.0156000
783.498	0.0154850
783.576	0.0154913
783.655	0.0154829
783.733	0.0155002
783.811	0.0155261
783.889	0.0154236
783.967	0.0155006
784.045	0.0153621
784.123	0.0154501
784.201	0.0154265
784.280	0.0154586
784.358	0.0154184
784.436	0.0154005
784.514	0.0153725
784.592	0.0154812
784.670	0.0153617
784.748	0.0152531
784.826	0.0153705
784.905	0.0152920
784.983	0.0153136
785.061	0.0152939
785.139	0.0154082
785.217	0.0152799
785.295	0.0151569
785.373	0.0152825
785.451	0.0152123
785.530	0.0150743
785.608	0.0152790
785.686	0.0150543
785.764	0.0150639
785.842	0.0151974
785.920	0.0151324
785.998	0.0152379
786.076	0.0152013
786.155	0.0151359
786.233	0.0152480
786.311	0.0151093
786.389	0.0153143
786.467	0.0152744
786.545	0.0150783
786.623	0.0152925
786.701	0.0153516
786.780	0.0154245
786.858	0.0154321
786.936	0.0152278
787.014	0.0153155
787.092	0.0153000
787.170	0.0153164
787.248	0.0153236
787.326	0.0153690
787.405	0.0152055
787.483	0.0151418
787.561	0.0154239
787.639	0.0153607
787.717	0.0152416
787.795	0.0153455
787.873	0.0152362
787.951	0.0152898
788.030	0.0152302
788.108	0.0153505
788.186	0.0153915
788.264	0.0153430
788.342	0.0152710
788.420	0.0154059
788.498	0.0152513
788.576	0.0153513
788.655	0.0153973
788.733	0.0153852
788.811	0.0152728
788.889	0.0153796
788.967	0.0153497
789.045	0.0153327
789.123	0.0154837
789.201	0.0153088
789.280	0.0152522
789.358	0.0152707
789.436	0.0151170
789.514	0.0151764
789.592	0.0153317
789.670	0.0152985
789.748	0.0152416
789.826	0.0151982
789.905	0.0151109
789.983	0.0150799
790.061	0.0150643
790.139	0.0150527
790.217	0.0150774
790.295	0.0151083
790.373	0.0150218
790.451	0.0149269
790.530	0.0150340
790.608	0.0150026
790.686	0.0150487
790.764	0.0150728
790.842	0.0148782
790.920	0.0148961
790.998	0.0150500
791.076	0.0151150
791.155	0.0150210
791.233	0.0149207
791.311	0.0151566
791.389	0.0150633
791.467	0.0150686
791.545	0.0150751
791.623	0.0151239
791.701	0.0151751
791.780	0.0153192
791.858	0.0154311
791.936	0.0152853
792.014	0.0153786
792.092	0.0154918
792.170	0.0155616
792.248	0.0154760
792.326	0.0154536
792.405	0.0153912
792.483	0.0154570
792.561	0.0154153
792.639	0.0154620
792.717	0.0154230
792.795	0.0154000
792.873	0.0154087
792.951	0.0153276
793.030	0.0154317
793.108	0.0153741
793.186	0.0153252
793.264	0.0153514
793.342	0.0151932
793.420	0.0153300
793.498	0.0152715
793.576	0.0152111
793.655	0.0152035
793.733	0.0153323
793.811	0.0151686
793.889	0.0152357
793.967	0.0152024
794.045	0.0152051
794.123	0.0151290
794.201	0.0151549
794.280	0.0151342
794.358	0.0150307
794.436	0.0151502
794.514	0.0152148
794.592	0.0152916
794.670	0.0151911
794.748	0.0152811
794.826	0.0152205
794.905	0.0153043
794.983	0.0152093
795.061	0.0152544
795.139	0.0151766
795.217	0.0151482
795.295	0.0152307
795.373	0.0152279
795.451	0.0152489
795.530	0.0152185
795.608	0.0153036
795.686	0.0151952
795.764	0.0151598
795.842	0.0152344
795.920	0.0152140
795.998	0.0151588
796.076	0.0151658
796.155	0.0151786
796.233	0.0151051
796.311	0.0151133
796.389	0.0151431
796.467	0.0150897
796.545	0.0151244
796.623	0.0151696
796.701	0.0152326
796.780	0.0152570
796.858	0.0152786
796.936	0.0153636
797.014	0.0154514
797.092	0.0153301
797.170	0.0153962
797.248	0.0156010
797.326	0.0155833
797.405	0.0155997
797.483	0.0155885
797.561	0.0154599
797.639	0.0154397
797.717	0.0154742
797.795	0.0154474
797.873	0.0155643
797.951	0.0155908
798.030	0.0155625
798.108	0.0154096
798.186	0.0155428
798.264	0.0155259
798.342	0.0154385
798.420	0.0153292
798.498	0.0153270
798.576	0.0151864
798.655	0.0154475
798.733	0.0153594
798.811	0.0152718
798.889	0.0151244
798.967	0.0153387
799.045	0.0154291
799.123	0.0152723
799.201	0.0153394
799.280	0.0152843
799.358	0.0152672
799.436	0.0154050
799.514	0.0153246
799.592	0.0153582
799.670	0.0153329
799.748	0.0152225
799.826	0.0152994
799.905	0.0152411
799.983	0.0152203
800.061	0.0151945
800.139	0.0151077
800.217	0.0152883
800.295	0.0150394
800.373	0.0152574
800.451	0.0151123
800.530	0.0153165
800.608	0.0151948
800.686	0.0153483
800.764	0.0152020
800.842	0.0151997
800.920	0.0152341
800.998	0.0152404
801.076	0.0152408
801.155	0.0153395
801.233	0.0153229
801.311	0.0153109
801.389	0.0152910
801.467	0.0152706
801.545	0.0153760
801.623	0.0153657
801.701	0.0153067
801.780	0.0152425
801.858	0.0153224
801.936	0.0152495
802.014	0.0153497
802.092	0.0154182
802.170	0.0152899
802.248	0.0154282
802.326	0.0154297
802.405	0.0153650
802.483	0.0153419
802.561	0.0153666
802.639	0.0155152
802.717	0.0154552
802.795	0.0154356
802.873	0.0155184
802.951	0.0155258
803.030	0.0155247
803.108	0.0154374
803.186	0.0155120
803.264	0.0153524
803.342	0.0154309
803.420	0.0154459
803.498	0.0154742
803.576	0.0154585
803.655	0.0152893
803.733	0.0153515
803.811	0.0154799
803.889	0.0155009
803.967	0.0153852
804.045	0.0153764
804.123	0.0153405
804.201	0.0152760
804.280	0.0153759
804.358	0.0152590
804.436	0.0152591
804.514	0.0153162
804.592	0.0154519
804.670	0.0152199
804.748	0.0153479
804.826	0.0153036
804.905	0.0152805
804.983	0.0152772
805.061	0.0153446
805.139	0.0152792
805.217	0.0152240
805.295	0.0154322
805.373	0.0154647
805.451	0.0153484
805.530	0.0151012
805.608	0.0152998
805.686	0.0154605
805.764	0.0153806
805.842	0.0152975
805.920	0.0151884
805.998	0.0153487
806.076	0.0153371
806.155	0.0151025
806.233	0.0152491
806.311	0.0152992
806.389	0.0151299
806.467	0.0152140
806.545	0.0153290
806.623	0.0151273
806.701	0.0151301
806.780	0.0151439
806.858	0.0150991
806.936	0.0152051
807.014	0.0152061
807.092	0.0152042
807.170	0.0152504
807.248	0.0152639
807.326	0.0151942
807.405	0.0152017
807.483	0.0152449
807.561	0.0152592
807.639	0.0153551
807.717	0.0152134
807.795	0.0152162
807.873	0.0150881
807.951	0.0151855
808.030	0.0152101
808.108	0.0151260
808.186	0.0152072
808.264	0.0151411
808.342	0.0151304
808.420	0.0152863
808.498	0.0152534
808.576	0.0151974
808.655	0.0152003
808.733	0.0151802
808.811	0.0152177
808.889	0.0152817
808.967	0.0152573
809.045	0.0154333
809.123	0.0152835
809.201	0.0151260
809.280	0.0152428
809.358	0.0153564
809.436	0.0152607
809.514	0.0152802
809.592	0.0154337
809.670	0.0153426
809.748	0.0152703
809.826	0.0151882
809.905	0.0151400
809.983	0.0153651
810.061	0.0153320
810.139	0.0151539
810.217	0.0153745
810.295	0.0152444
810.373	0.0151795
810.451	0.0151189
810.530	0.0150909
810.608	0.0152703
810.686	0.0153039
810.764	0.0151588
810.842	0.0152516
810.920	0.0153671
810.998	0.0152502
811.076	0.0152282
811.155	0.0151713
811.233	0.0153125
811.311	0.0153271
811.389	0.0152991
811.467	0.0151937
811.545	0.0152069
811.623	0.0153350
811.701	0.0151096
811.780	0.0153999
811.858	0.0153325
811.936	0.0152156
812.014	0.0153043
812.092	0.0153595
812.170	0.0152232
812.248	0.0152531
812.326	0.0151594
812.405	0.0152313
812.483	0.0152032
812.561	0.0151846
812.639	0.0153706
812.717	0.0153060
812.795	0.0153538
812.873	0.0151887
812.951	0.0153605
813.030	0.0153866
813.108	0.0154499
813.186	0.0152859
813.264	0.0151926
813.342	0.0153107
813.420	0.0153381
813.498	0.0153846
813.576	0.0152837
813.655	0.0152959
813.733	0.0153462
813.811	0.0153928
813.889	0.0152942
813.967	0.0152618
814.045	0.0153102
814.123	0.0154110
814.201	0.0154264
814.280	0.0151288
814.358	0.0153755
814.436	0.0153004
814.514	0.0152551
814.592	0.0153390
814.670	0.0152363
814.748	0.0152598
814.826	0.0152261
814.905	0.0151280
814.983	0.0151101
815.061	0.0153340
815.139	0.0153977
815.217	0.0153053
815.295	0.0152885
815.373	0.0152303
815.451	0.0154126
815.530	0.0152605
815.608	0.0153224
815.686	0.0151797
815.764	0.0153124
815.842	0.0154088
815.920	0.0153001
815.998	0.0152526
816.076	0.0152197
816.155	0.0153074
816.233	0.0153806
816.311	0.0152107
816.389	0.0151225
816.467	0.0152082
816.545	0.0154488
816.623	0.0151897
816.701	0.0152250
816.780	0.0153192
816.858	0.0152930
816.936	0.0152833
817.014	0.0153012
817.092	0.0151668
817.170	0.0152538
817.248	0.0153048
817.326	0.0153000
817.405	0.0152839
817.483	0.0152398
817.561	0.0152761
817.639	0.0153263
817.717	0.0154459
817.795	0.0152883
817.873	0.0151380
817.951	0.0153289
818.030	0.0154188
818.108	0.0151620
818.186	0.0151518
818.264	0.0152528
818.342	0.0152131
818.420	0.0152258
818.498	0.0153249
818.576	0.0151786
818.655	0.0152129
818.733	0.0154446
818.811	0.0153712
818.889	0.0152227
818.967	0.0152682
819.045	0.0151945
819.123	0.0153120
819.201	0.0152687
819.280	0.0152387
819.358	0.0152001
819.436	0.0153386
819.514	0.0152650
819.592	0.0152665
819.670	0.0152031
819.748	0.0153056
819.826	0.0152163
819.905	0.0150971
819.983	0.0151647
820.061	0.0151774
820.139	0.0151389
820.217	0.0151289
820.295	0.0151760
820.373	0.0152007
820.451	0.0151978
820.530	0.0152659
820.608	0.0151752
820.686	0.0152535
820.764	0.0152734
820.842	0.0152966
820.920	0.0153666
820.998	0.0153415
821.076	0.0152676
821.155	0.0153371
821.233	0.0152296
821.311	0.0153997
821.389	0.0152382
821.467	0.0153581
821.545	0.0153710
821.623	0.0154105
821.701	0.0152840
821.780	0.0152752
821.858	0.0152619
821.936	0.0154553
822.014	0.0153558
822.092	0.0153361
822.170	0.0153262
822.248	0.0153362
822.326	0.0154074
822.405	0.0152924
822.483	0.0153666
822.561	0.0154250
822.639	0.0154644
822.717	0.0154006
822.795	0.0153889
822.873	0.0153832
822.951	0.0154169
823.030	0.0152454
823.108	0.0153391
823.186	0.0153831
823.264	0.0154502
823.342	0.0153281
823.420	0.0153616
823.498	0.0152720
823.576	0.0153842
823.655	0.0155026
823.733	0.0154715
823.811	0.0152301
823.889	0.0153217
823.967	0.0154249
824.045	0.0153677
824.123	0.0153883
824.201	0.0154416
824.280	0.0153149
824.358	0.0154541
824.436	0.0153542
824.514	0.0153776
824.592	0.0153835
824.670	0.0153596
824.748	0.0153365
824.826	0.0153415
824.905	0.0151873
824.983	0.0152860
825.061	0.0152802
825.139	0.0151363
825.217	0.0152233
825.295	0.0152287
825.373	0.0151625
825.451	0.0152129
825.530	0.0152603
825.608	0.0151476
825.686	0.0151289
825.764	0.0151812
825.842	0.0152656
825.920	0.0153132
825.998	0.0153030
826.076	0.0151418
826.155	0.0152163
826.233	0.0152136
826.311	0.0151886
826.389	0.0152568
826.467	0.0153046
826.545	0.0154092
826.623	0.0153043
826.701	0.0153170
826.780	0.0152654
826.858	0.0153967
826.936	0.0154242
827.014	0.0152583
827.092	0.0153629
827.170	0.0152260
827.248	0.0153981
827.326	0.0154536
827.405	0.0151562
827.483	0.0153577
827.561	0.0152139
827.639	0.0154230
827.717	0.0154011
827.795	0.0152324
827.873	0.0153451
827.951	0.0154546
828.030	0.0153818
828.108	0.0153034
828.186	0.0151824
828.264	0.0152708
828.342	0.0154305
828.420	0.0153159
828.498	0.0153606
828.576	0.0153419
828.655	0.0153448
828.733	0.0154264
828.811	0.0153076
828.889	0.0152775
828.967	0.0151416
829.045	0.0152532
829.123	0.0154857
829.201	0.0152757
829.280	0.0152834
829.358	0.0153522
829.436	0.0152571
829.514	0.0153178
829.592	0.0154132
829.670	0.0152649
829.748	0.0152793
829.826	0.0152357
829.905	0.0153259
829.983	0.0152680
830.061	0.0153055
830.139	0.0152836
830.217	0.0152490
830.295	0.0151895
830.373	0.0152270
830.451	0.0152604
830.530	0.0152754
830.608	0.0152911
830.686	0.0152153
830.764	0.0152050
830.842	0.0151289
830.920	0.0151967
830.998	0.0151471
831.076	0.0151569
831.155	0.0151857
831.233	0.0151968
831.311	0.0150921
831.389	0.0152249
831.467	0.0152007
831.545	0.0152262
831.623	0.0151283
831.701	0.0151270
831.780	0.0151290
831.858	0.0150812
831.936	0.0152434
832.014	0.0150918
832.092	0.0150768
832.170	0.0151292
832.248	0.0151942
832.326	0.0151810
832.405	0.0151983
832.483	0.0151387
832.561	0.0152505
832.639	0.0151466
832.717	0.0150630
832.795	0.0151722
832.873	0.0152225
832.951	0.0151737
833.030	0.0151797
833.108	0.0152193
833.186	0.0152258
833.264	0.0151196
833.342	0.0151297
833.420	0.0151830
833.498	0.0152979
833.576	0.0152371
833.655	0.0150799
833.733	0.0151947
833.811	0.0152186
833.889	0.0151230
833.967	0.0152520
834.045	0.0152067
834.123	0.0151704
834.201	0.0151637
834.280	0.0151447
834.358	0.0153423
834.436	0.0152726
834.514	0.0151828
834.592	0.0152611
834.670	0.0152107
834.748	0.0151704
834.826	0.0152538
834.905	0.0153716
834.983	0.0152811
835.061	0.0152452
835.139	0.0152877
835.217	0.0151671
835.295	0.0153353
835.373	0.0154379
835.451	0.0152608
835.530	0.0152982
835.608	0.0152322
835.686	0.0152593
835.764	0.0154007
835.842	0.0153425
835.920	0.0154161
835.998	0.0151971
836.076	0.0153610
836.155	0.0153259
836.233	0.0152077
836.311	0.0152809
836.389	0.0152829
836.467	0.0152754
836.545	0.0153479
836.623	0.0152953
836.701	0.0152689
836.780	0.0153006
836.858	0.0153274
836.936	0.0154546
837.014	0.0154344
837.092	0.0152102
837.170	0.0154903
837.248	0.0155486
837.326	0.0153636
837.405	0.0152586
837.483	0.0153881
837.561	0.0154046
837.639	0.0153127
837.717	0.0153661
837.795	0.0154715
837.873	0.0154227
837.951	0.0154350
838.030	0.0153762
838.108	0.0154891
838.186	0.0154770
838.264	0.0154509
838.342	0.0154395
838.420	0.0154329
838.498	0.0153002
838.576	0.0155301
838.655	0.0155487
838.733	0.0152801
838.811	0.0152871
838.889	0.0154314
838.967	0.0154730
839.045	0.0154016
839.123	0.0154246
839.201	0.0153681
839.280	0.0153253
839.358	0.0153404
839.436	0.0152134
839.514	0.0153133
839.592	0.0154801
839.670	0.0154503
839.748	0.0154993
839.826	0.0152484
839.905	0.0153525
839.983	0.0153530
840.061	0.0153386
840.139	0.0154218
840.217	0.0153867
840.295	0.0153610
840.373	0.0153445
840.451	0.0153584
840.530	0.0153671
840.608	0.0152515
840.686	0.0153068
840.764	0.0153568
840.842	0.0152571
840.920	0.0152559
840.998	0.0153909
841.076	0.0153375
841.155	0.0152838
841.233	0.0152260
841.311	0.0151925
841.389	0.0151979
841.467	0.0152324
841.545	0.0152353
841.623	0.0152184
841.701	0.0152774
841.780	0.0151664
841.858	0.0153802
841.936	0.0151899
842.014	0.0153761
842.092	0.0152811
842.170	0.0152438
842.248	0.0152300
842.326	0.0153648
842.405	0.0153866
842.483	0.0153587
842.561	0.0152570
842.639	0.0152734
842.717	0.0152710
842.795	0.0153345
842.873	0.0152579
842.951	0.0153404
843.030	0.0153705
843.108	0.0152969
843.186	0.0152192
843.264	0.0152576
843.342	0.0152660
843.420	0.0153652
843.498	0.0152207
843.576	0.0153956
843.655	0.0153017
843.733	0.0152445
843.811	0.0153696
843.889	0.0152136
843.967	0.0152432
844.045	0.0152018
844.123	0.0152441
844.201	0.0152607
844.280	0.0151208
844.358	0.0151147
844.436	0.0152869
844.514	0.0152310
844.592	0.0151305
844.670	0.0152972
844.748	0.0152505
844.826	0.0150568
844.905	0.0151627
844.983	0.0151861
845.061	0.0154193
845.139	0.0152632
845.217	0.0152728
845.295	0.0152679
845.373	0.0152032
845.451	0.0151480
845.530	0.0152284
845.608	0.0152667
845.686	0.0152927
845.764	0.0153044
845.842	0.0153834
845.920	0.0153967
845.998	0.0153454
846.076	0.0152792
846.155	0.0153136
846.233	0.0153688
846.311	0.0151915
846.389	0.0153788
846.467	0.0153480
846.545	0.0152996
846.623	0.0152747
846.701	0.0154676
846.780	0.0152901
846.858	0.0153230
846.936	0.0152975
847.014	0.0152921
847.092	0.0152946
847.170	0.0153106
847.248	0.0154086
847.326	0.0154587
847.405	0.0153321
847.483	0.0154409
847.561	0.0152842
847.639	0.0153107
847.717	0.0152554
847.795	0.0153257
847.873	0.0152224
847.951	0.0154343
848.030	0.0154920
848.108	0.0153717
848.186	0.0155244
848.264	0.0154012
848.342	0.0153498
848.420	0.0153508
848.498	0.0153870
848.576	0.0153760
848.655	0.0153278
848.733	0.0153059
848.811	0.0154201
848.889	0.0154088
848.967	0.0154031
849.045	0.0152855
849.123	0.0153658
849.201	0.0152670
849.280	0.0153768
849.358	0.0153086
849.436	0.0152520
849.514	0.0153602
849.592	0.0153762
849.670	0.0153646
849.748	0.0152585
849.826	0.0152515
849.905	0.0152253
849.983	0.0151360
850.061	0.0151309
850.139	0.0152768
850.217	0.0152331
850.295	0.0152683
850.373	0.0153766
850.451	0.0153085
850.530	0.0151827
850.608	0.0152074
850.686	0.0151818
850.764	0.0153139
850.842	0.0152670
850.920	0.0152355
850.998	0.0152053
851.076	0.0152485
851.155	0.0152465
851.233	0.0151875
851.311	0.0152718
851.389	0.0153979
851.467	0.0153140
851.545	0.0151678
851.623	0.0153325
851.701	0.0152998
851.780	0.0153770
851.858	0.0152917
851.936	0.0153292
852.014	0.0151893
852.092	0.0153029
852.170	0.0153224
852.248	0.0153410
852.326	0.0153421
852.405	0.0153016
852.483	0.0154516
852.561	0.0152948
852.639	0.0153633
852.717	0.0152808
852.795	0.0152885
852.873	0.0155537
852.951	0.0153226
853.030	0.0154566
853.108	0.0153516
853.186	0.0153850
853.264	0.0154310
853.342	0.0152987
853.420	0.0153434
853.498	0.0154095
853.576	0.0154483
853.655	0.0154046
853.733	0.0152376
853.811	0.0154099
853.889	0.0153572
853.967	0.0152992
854.045	0.0151627
854.123	0.0152937
854.201	0.0154103
854.280	0.0152077
854.358	0.0151602
854.436	0.0153484
854.514	0.0151255
854.592	0.0151794
854.670	0.0152939
854.748	0.0151975
854.826	0.0151404
854.905	0.0152171
854.983	0.0153114
855.061	0.0153320
855.139	0.0152116
855.217	0.0150762
855.295	0.0153246
855.373	0.0153046
855.451	0.0152552
855.530	0.0153141
855.608	0.0152388
855.686	0.0153510
855.764	0.0152772
855.842	0.0153954
855.920	0.0152749
855.998	0.0152903
856.076	0.0152893
856.155	0.0152562
856.233	0.0151806
856.311	0.0153244
856.389	0.0154271
856.467	0.0154404
856.545	0.0152502
856.623	0.0152872
856.701	0.0152296
856.780	0.0152677
856.858	0.0153560
856.936	0.0154240
857.014	0.0153691
857.092	0.0153786
857.170	0.0152386
857.248	0.0152919
857.326	0.0154189
857.405	0.0154176
857.483	0.0153907
857.561	0.0152608
857.639	0.0152797
857.717	0.0152695
857.795	0.0154218
857.873	0.0151947
857.951	0.0152547
858.030	0.0153442
858.108	0.0152225
858.186	0.0152036
858.264	0.0153088
858.342	0.0152072
858.420	0.0151929
858.498	0.0152398
858.576	0.0153281
858.655	0.0153758
858.733	0.0151063
858.811	0.0152007
858.889	0.0151324
858.967	0.0153500
859.045	0.0152835
859.123	0.0153436
859.201	0.0153085
859.280	0.0154214
859.358	0.0152132
859.436	0.0152507
859.514	0.0151123
859.592	0.0152909
859.670	0.0153186
859.748	0.0153008
859.826	0.0152511
859.905	0.0152888
859.983	0.0153319
860.061	0.0152779
860.139	0.0153545
860.217	0.0153063
860.295	0.0152087
860.373	0.0152299
860.451	0.0151784
860.530	0.0152853
860.608	0.0154152
860.686	0.0151054
860.764	0.0151616
860.842	0.0152066
860.920	0.0153043
860.998	0.0152393
861.076	0.0151342
861.155	0.0151369
861.233	0.0152778
861.311	0.0152409
861.389	0.0152547
861.467	0.0151986
861.545	0.0151893
861.623	0.0150822
861.701	0.0152818
861.780	0.0152248
861.858	0.0152938
861.936	0.0152589
862.014	0.0152693
862.092	0.0153219
862.170	0.0153065
862.248	0.0153284
862.326	0.0152645
862.405	0.0153804
862.483	0.0152316
862.561	0.0151150
862.639	0.0152268
862.717	0.0152777
862.795	0.0152161
862.873	0.0151929
862.951	0.0152313
863.030	0.0151574
863.108	0.0153049
863.186	0.0152851
863.264	0.0153385
863.342	0.0152029
863.420	0.0152779
863.498	0.0152335
863.576	0.0151720
863.655	0.0152341
863.733	0.0150585
863.811	0.0153202
863.889	0.0151311
863.967	0.0151875
864.045	0.0153057
864.123	0.0152901
864.201	0.0154469
864.280	0.0154833
864.358	0.0154031
864.436	0.0151899
864.514	0.0152969
864.592	0.0153349
864.670	0.0154285
864.748	0.0153930
864.826	0.0152790
864.905	0.0150838
864.983	0.0152753
865.061	0.0154704
865.139	0.0153862
865.217	0.0152929
865.295	0.0152999
865.373	0.0153400
865.451	0.0153310
865.530	0.0153079
865.608	0.0152582
865.686	0.0153695
865.764	0.0152979
865.842	0.0152425
865.920	0.0153313
865.998	0.0153078
866.076	0.0153715
866.155	0.0152435
866.233	0.0152528
866.311	0.0153378
866.389	0.0152606
866.467	0.0153358
866.545	0.0152464
866.623	0.0152322
866.701	0.0152524
866.780	0.0153356
866.858	0.0153292
866.936	0.0154301
867.014	0.0152297
867.092	0.0153096
867.170	0.0153918
867.248	0.0153490
867.326	0.0152512
867.405	0.0153458
867.483	0.0154121
867.561	0.0153571
867.639	0.0152341
867.717	0.0152890
867.795	0.0153587
867.873	0.0153001
867.951	0.0153188
868.030	0.0153597
868.108	0.0153363
868.186	0.0152276
868.264	0.0153255
868.342	0.0153416
868.420	0.0152919
868.498	0.0152953
868.576	0.0153322
868.655	0.0152927
868.733	0.0153271
868.811	0.0153429
868.889	0.0152077
868.967	0.0152161
869.045	0.0154386
869.123	0.0152697
869.201	0.0152545
869.280	0.0153629
869.358	0.0153424
869.436	0.0152509
869.514	0.0152378
869.592	0.0152203
869.670	0.0153702
869.748	0.0153152
869.826	0.0152041
869.905	0.0153244
869.983	0.0153724
870.061	0.0154303
870.139	0.0153911
870.217	0.0152660
870.295	0.0153193
870.373	0.0152298
870.451	0.0154624
870.530	0.0153852
870.608	0.0153048
870.686	0.0154086
870.764	0.0153094
870.842	0.0153873
870.920	0.0152887
870.998	0.0152696
871.076	0.0152988
871.155	0.0152792
871.233	0.0152754
871.311	0.0152793
871.389	0.0152376
871.467	0.0153868
871.545	0.0152458
871.623	0.0152691
871.701	0.0152824
871.780	0.0151810
871.858	0.0151775
871.936	0.0151481
872.014	0.0152773
872.092	0.0151949
872.170	0.0152732
872.248	0.0152486
872.326	0.0151939
872.405	0.0151554
872.483	0.0153178
872.561	0.0152383
872.639	0.0151894
872.717	0.0150211
872.795	0.0151357
872.873	0.0153130
872.951	0.0152742
873.030	0.0152528
873.108	0.0151585
873.186	0.0151057
873.264	0.0151167
873.342	0.0151138
873.420	0.0152206
873.498	0.0152529
873.576	0.0152832
873.655	0.0152194
873.733	0.0152920
873.811	0.0153537
873.889	0.0150953
873.967	0.0152168
874.045	0.0155153
874.123	0.0153259
874.201	0.0153568
874.280	0.0153031
874.358	0.0153616
874.436	0.0155042
874.514	0.0154111
874.592	0.0154570
874.670	0.0155502
874.748	0.0153922
874.826	0.0154019
874.905	0.0155817
874.983	0.0154657
875.061	0.0154200
875.139	0.0155181
875.217	0.0154963
875.295	0.0154572
875.373	0.0153551
875.451	0.0156544
875.530	0.0156563
875.608	0.0154426
875.686	0.0153667
875.764	0.0153020
875.842	0.0154750
875.920	0.0153389
875.998	0.0154884
876.076	0.0154782
876.155	0.0153234
876.233	0.0153822
876.311	0.0154401
876.389	0.0153677
876.467	0.0154244
876.545	0.0153798
876.623	0.0152279
876.701	0.0152531
876.780	0.0152623
876.858	0.0153136
876.936	0.0151395
877.014	0.0152790
877.092	0.0152943
877.170	0.0153284
877.248	0.0153452
877.326	0.0153358
877.405	0.0153352
877.483	0.0152992
877.561	0.0151928
877.639	0.0151183
877.717	0.0153011
877.795	0.0153576
877.873	0.0151537
877.951	0.0151737
878.030	0.0152031
878.108	0.0152551
878.186	0.0152620
878.264	0.0153435
878.342	0.0153274
878.420	0.0151827
878.498	0.0150888
878.576	0.0153116
878.655	0.0153766
878.733	0.0151138
878.811	0.0152439
878.889	0.0153491
878.967	0.0153936
879.045	0.0152906
879.123	0.0153368
879.201	0.0153040
879.280	0.0152083
879.358	0.0153639
879.436	0.0154706
879.514	0.0154502
879.592	0.0153090
879.670	0.0154670
879.748	0.0153323
879.826	0.0154579
879.905	0.0153611
879.983	0.0153602
880.061	0.0153431
880.139	0.0153944
880.217	0.0154177
880.295	0.0154130
880.373	0.0154548
880.451	0.0153813
880.530	0.0153349
880.608	0.0153189
880.686	0.0153286
880.764	0.0153005
880.842	0.0153087
880.920	0.0153629
880.998	0.0153203
881.076	0.0153067
881.155	0.0152317
881.233	0.0152552
881.311	0.0151621
881.389	0.0150642
881.467	0.0152378
881.545	0.0152692
881.623	0.0151775
881.701	0.0151540
881.780	0.0151434
881.858	0.0151531
881.936	0.0151164
882.014	0.0151928
882.092	0.0151775
882.170	0.0152273
882.248	0.0152171
882.326	0.0152268
882.405	0.0150871
882.483	0.0151682
882.561	0.0151917
882.639	0.0152330
882.717	0.0151139
882.795	0.0151302
882.873	0.0151303
882.951	0.0152272
883.030	0.0151947
883.108	0.0151997
883.186	0.0152076
883.264	0.0152230
883.342	0.0151797
883.420	0.0153045
883.498	0.0152884
883.576	0.0152415
883.655	0.0152892
883.733	0.0152682
883.811	0.0152656
883.889	0.0153297
883.967	0.0154181
884.045	0.0152563
884.123	0.0151517
884.201	0.0152993
884.280	0.0152625
884.358	0.0152338
884.436	0.0154007
884.514	0.0153541
884.592	0.0152155
884.670	0.0152871
884.748	0.0154929
884.826	0.0153745
884.905	0.0153297
884.983	0.0152100
885.061	0.0151936
885.139	0.0154206
885.217	0.0153989
885.295	0.0153248
885.373	0.0154163
885.451	0.0155109
885.530	0.0154372
885.608	0.0153581
885.686	0.0154402
885.764	0.0152517
885.842	0.0152690
885.920	0.0153561
885.998	0.0153032
886.076	0.0153584
886.155	0.0154194
886.233	0.0152349
886.311	0.0153020
886.389	0.0153436
886.467	0.0152876
886.545	0.0153069
886.623	0.0153044
886.701	0.0153205
886.780	0.0152262
886.858	0.0152995
886.936	0.0152974
887.014	0.0152913
887.092	0.0154142
887.170	0.0153606
887.248	0.0153342
887.326	0.0153824
887.405	0.0153544
887.483	0.0152721
887.561	0.0153026
887.639	0.0152463
887.717	0.0153736
887.795	0.0153326
887.873	0.0152951
887.951	0.0154208
888.030	0.0154288
888.108	0.0153764
888.186	0.0152931
888.264	0.0153175
888.342	0.0151874
888.420	0.0152805
888.498	0.0153048
888.576	0.0152333
888.655	0.0154101
888.733	0.0152022
888.811	0.0152746
888.889	0.0152542
888.967	0.0153146
889.045	0.0152547
889.123	0.0151595
889.201	0.0153635
889.280	0.0152954
889.358	0.0152483
889.436	0.0152228
889.514	0.0153423
889.592	0.0152319
889.670	0.0153484
889.748	0.0152923
889.826	0.0151912
889.905	0.0151543
889.983	0.0152388
890.061	0.0152966
890.139	0.0151251
890.217	0.0152428
890.295	0.0152801
890.373	0.0151305
890.451	0.0151290
890.530	0.0151683
890.608	0.0152537
890.686	0.0151811
890.764	0.0151379
890.842	0.0150748
890.920	0.0151153
890.998	0.0151659
891.076	0.0151247
891.155	0.0152177
891.233	0.0151077
891.311	0.0151501
891.389	0.0151413
891.467	0.0151089
891.545	0.0151577
891.623	0.0151426
891.701	0.0151144
891.780	0.0152611
891.858	0.0151415
891.936	0.0151857
892.014	0.0152555
892.092	0.0152019
892.170	0.0152289
892.248	0.0152008
892.326	0.0152161
892.405	0.0152680
892.483	0.0153250
892.561	0.0152901
892.639	0.0150144
892.717	0.0150795
892.795	0.0152660
892.873	0.0152567
892.951	0.0151604
893.030	0.0152805
893.108	0.0152382
893.186	0.0152236
893.264	0.0151044
893.342	0.0150924
893.420	0.0151855
893.498	0.0151160
893.576	0.0151842
893.655	0.0151652
893.733	0.0151673
893.811	0.0152303
893.889	0.0153557
893.967	0.0151350
894.045	0.0152356
894.123	0.0153297
894.201	0.0151728
894.280	0.0150623
894.358	0.0153124
894.436	0.0152088
894.514	0.0151489
894.592	0.0151513
894.670	0.0151297
894.748	0.0150755
894.826	0.0151650
894.905	0.0150954
894.983	0.0152220
895.061	0.0151089
895.139	0.0149843
895.217	0.0152707
895.295	0.0150993
895.373	0.0150873
895.451	0.0150822
895.530	0.0151778
895.608	0.0153267
895.686	0.0152058
895.764	0.0153338
895.842	0.0152808
895.920	0.0152080
895.998	0.0153898
896.076	0.0153393
896.155	0.0152130
896.233	0.0154175
896.311	0.0153518
896.389	0.0153916
896.467	0.0153915
896.545	0.0154945
896.623	0.0153613
896.701	0.0153679
896.780	0.0154223
896.858	0.0155577
896.936	0.0154145
897.014	0.0153786
897.092	0.0154395
897.170	0.0153931
897.248	0.0153472
897.326	0.0154223
897.405	0.0154922
897.483	0.0154106
897.561	0.0153031
897.639	0.0154012
897.717	0.0154691
897.795	0.0155518
897.873	0.0153863
897.951	0.0153762
898.030	0.0154590
898.108	0.0153653
898.186	0.0153334
898.264	0.0154214
898.342	0.0154202
898.420	0.0154311
898.498	0.0153706
898.576	0.0153983
898.655	0.0152451
898.733	0.0154492
898.811	0.0153193
898.889	0.0154181
898.967	0.0153373
899.045	0.0153323
899.123	0.0152963
899.201	0.0153885
899.280	0.0151926
899.358	0.0152600
899.436	0.0154230
899.514	0.0151431
899.592	0.0151475
899.670	0.0153194
899.748	0.0152305
899.826	0.0152470
899.905	0.0153538
899.983	0.0153281
900.061	0.0153953
900.139	0.0152997
900.217	0.0153307
900.295	0.0152240
900.373	0.0151571
900.451	0.0152903
900.530	0.0151982
900.608	0.0152831
900.686	0.0151871
900.764	0.0152751
900.842	0.0152204
900.920	0.0152676
900.998	0.0152811
901.076	0.0154108
901.155	0.0153334
901.233	0.0151376
901.311	0.0152187
901.389	0.0152490
901.467	0.0152158
901.545	0.0153664
901.623	0.0153012
901.701	0.0151609
901.780	0.0152564
901.858	0.0152433
901.936	0.0150770
902.014	0.0151199
902.092	0.0152654
902.170	0.0152674
902.248	0.0152609
902.326	0.0152917
902.405	0.0152849
902.483	0.0152739
902.561	0.0151834
902.639	0.0151646
902.717	0.0150576
902.795	0.0152752
902.873	0.0153506
902.951	0.0152890
903.030	0.0152116
903.108	0.0151913
903.186	0.0152513
903.264	0.0150204
903.342	0.0151675
903.420	0.0151987
903.498	0.0151694
903.576	0.0152597
903.655	0.0151859
903.733	0.0152280
903.811	0.0150642
903.889	0.0153214
903.967	0.0151811
904.045	0.0152287
904.123	0.0152586
904.201	0.0151917
904.280	0.0153497
904.358	0.0153552
904.436	0.0153133
904.514	0.0153481
904.592	0.0153339
904.670	0.0153275
904.748	0.0154170
904.826	0.0152547
904.905	0.0153493
904.983	0.0153789
905.061	0.0152585
905.139	0.0150871
905.217	0.0152866
905.295	0.0153985
905.373	0.0153137
905.451	0.0152915
905.530	0.0151749
905.608	0.0153203
905.686	0.0153165
905.764	0.0151728
905.842	0.0153699
905.920	0.0153377
905.998	0.0152312
906.076	0.0153365
906.155	0.0151805
906.233	0.0153620
906.311	0.0152831
906.389	0.0151943
906.467	0.0153043
906.545	0.0152630
906.623	0.0153739
906.701	0.0153036
906.780	0.0153024
906.858	0.0152418
906.936	0.0152137
907.014	0.0153056
907.092	0.0152043
907.170	0.0153519
907.248	0.0153139
907.326	0.0152374
907.405	0.0151877
907.483	0.0152930
907.561	0.0152111
907.639	0.0152316
907.717	0.0150782
907.795	0.0151123
907.873	0.0151716
907.951	0.0151577
908.030	0.0151286
908.108	0.0151580
908.186	0.0151788
908.264	0.0151415
908.342	0.0151295
908.420	0.0150298
908.498	0.0151985
908.576	0.0151588
908.655	0.0152652
908.733	0.0151377
908.811	0.0150782
908.889	0.0151920
908.967	0.0151579
909.045	0.0152235
909.123	0.0151855
909.201	0.0151698
909.280	0.0151929
909.358	0.0152150
909.436	0.0152930
909.514	0.0150777
909.592	0.0152963
909.670	0.0149759
909.748	0.0152634
909.826	0.0151973
909.905	0.0154269
909.983	0.0153730
910.061	0.0151176
910.139	0.0150935
910.217	0.0151883
910.295	0.0152372
910.373	0.0152261
910.451	0.0152274
910.530	0.0152037
910.608	0.0151723
910.686	0.0151640
910.764	0.0152772
910.842	0.0151742
910.920	0.0151842
910.998	0.0151771
911.076	0.0151540
911.155	0.0152616
911.233	0.0151873
911.311	0.0153125
911.389	0.0152594
911.467	0.0152191
911.545	0.0151965
911.623	0.0150610
911.701	0.0151524
911.780	0.0153648
911.858	0.0152640
911.936	0.0151323
912.014	0.0151128
912.092	0.0150194
912.170	0.0149968
912.248	0.0151573
912.326	0.0151024
912.405	0.0152055
912.483	0.0152386
912.561	0.0150533
912.639	0.0150426
912.717	0.0151056
912.795	0.0151234
912.873	0.0150304
912.951	0.0150326
913.030	0.0150742
913.108	0.0150682
913.186	0.0151836
913.264	0.0150652
913.342	0.0151275
913.420	0.0151670
913.498	0.0151877
913.576	0.0151994
913.655	0.0151101
913.733	0.0150486
913.811	0.0151121
913.889	0.0152054
913.967	0.0151694
914.045	0.0151856
914.123	0.0150703
914.201	0.0152802
914.280	0.0152235
914.358	0.0153065
914.436	0.0151508
914.514	0.0152169
914.592	0.0151699
914.670	0.0151765
914.748	0.0152718
914.826	0.0152916
914.905	0.0151862
914.983	0.0152823
915.061	0.0153453
915.139	0.0153799
915.217	0.0154315
915.295	0.0152841
915.373	0.0152743
915.451	0.0153294
915.530	0.0152288
915.608	0.0153026
915.686	0.0153207
915.764	0.0152917
915.842	0.0154728
915.920	0.0154978
915.998	0.0153802
916.076	0.0152927
916.155	0.0153197
916.233	0.0152549
916.311	0.0151648
916.389	0.0153424
916.467	0.0153912
916.545	0.0153054
916.623	0.0153732
916.701	0.0153095
916.780	0.0154153
916.858	0.0153316
916.936	0.0154401
917.014	0.0153943
917.092	0.0153478
917.170	0.0153815
917.248	0.0153786
917.326	0.0153859
917.405	0.0152929
917.483	0.0154612
917.561	0.0153033
917.639	0.0152000
917.717	0.0152818
917.795	0.0153286
917.873	0.0153262
917.951	0.0153944
918.030	0.0153114
918.108	0.0154103
918.186	0.0152070
918.264	0.0151365
918.342	0.0152863
918.420	0.0152905
918.498	0.0152853
918.576	0.0153033
918.655	0.0152492
918.733	0.0150673
918.811	0.0150561
918.889	0.0153031
918.967	0.0153223
919.045	0.0152071
919.123	0.0152929
919.201	0.0152145
919.280	0.0151559
919.358	0.0152740
919.436	0.0152430
919.514	0.0152189
919.592	0.0152238
919.670	0.0152590
919.748	0.0153712
919.826	0.0152782
919.905	0.0152923
919.983	0.0152378
920.061	0.0151573
920.139	0.0150871
920.217	0.0152797
920.295	0.0153060
920.373	0.0153697
920.451	0.0152670
920.530	0.0153106
920.608	0.0151037
920.686	0.0152620
920.764	0.0152616
920.842	0.0151304
920.920	0.0152398
920.998	0.0152492
921.076	0.0151975
921.155	0.0152258
921.233	0.0151645
921.311	0.0151999
921.389	0.0153192
921.467	0.0151434
921.545	0.0151080
921.623	0.0152506
921.701	0.0151922
921.780	0.0152296
921.858	0.0150885
921.936	0.0152237
922.014	0.0152177
922.092	0.0152336
922.170	0.0151157
922.248	0.0152370
922.326	0.0152483
922.405	0.0152197
922.483	0.0152763
922.561	0.0152561
922.639	0.0152043
922.717	0.0152887
922.795	0.0153208
922.873	0.0150739
922.951	0.0150932
923.030	0.0150285
923.108	0.0151231
923.186	0.0153080
923.264	0.0151113
923.342	0.0151237
923.420	0.0150758
923.498	0.0151241
923.576	0.0151447
923.655	0.0151210
923.733	0.0151392
923.811	0.0152008
923.889	0.0151164
923.967	0.0151939
924.045	0.0152172
924.123	0.0150975
924.201	0.0151762
924.280	0.0149978
924.358	0.0149877
924.436	0.0153053
924.514	0.0151927
924.592	0.0152602
924.670	0.0152625
924.748	0.0151707
924.826	0.0152671
924.905	0.0152321
924.983	0.0151526
925.061	0.0151012
925.139	0.0150990
925.217	0.0152283
925.295	0.0152253
925.373	0.0153994
925.451	0.0153019
925.530	0.0153053
925.608	0.0152238
925.686	0.0153020
925.764	0.0152142
925.842	0.0152168
925.920	0.0152903
925.998	0.0153880
926.076	0.0153875
926.155	0.0152206
926.233	0.0153109
926.311	0.0152009
926.389	0.0152856
926.467	0.0152291
926.545	0.0153220
926.623	0.0153002
926.701	0.0151707
926.780	0.0153669
926.858	0.0153143
926.936	0.0153437
927.014	0.0152961
927.092	0.0152776
927.170	0.0152266
927.248	0.0152400
927.326	0.0153235
927.405	0.0152852
927.483	0.0151694
927.561	0.0152161
927.639	0.0152528
927.717	0.0152409
927.795	0.0152113
927.873	0.0153993
927.951	0.0152475
928.030	0.0152990
928.108	0.0154105
928.186	0.0153215
928.264	0.0152884
928.342	0.0153499
928.420	0.0153515
928.498	0.0152983
928.576	0.0153670
928.655	0.0153015
928.733	0.0154629
928.811	0.0154037
928.889	0.0153076
928.967	0.0152500
929.045	0.0153350
929.123	0.0154932
929.201	0.0153457
929.280	0.0152177
929.358	0.0153200
929.436	0.0153844
929.514	0.0153318
929.592	0.0151392
929.670	0.0154071
929.748	0.0154135
929.826	0.0152629
929.905	0.0153490
929.983	0.0154050
930.061	0.0154556
930.139	0.0153654
930.217	0.0154787
930.295	0.0154654
930.373	0.0154508
930.451	0.0153419
930.530	0.0153731
930.608	0.0154191
930.686	0.0154060
930.764	0.0154813
930.842	0.0153798
930.920	0.0153524
930.998	0.0154491
931.076	0.0153310
931.155	0.0152666
931.233	0.0154132
931.311	0.0153792
931.389	0.0153059
931.467	0.0154157
931.545	0.0152884
931.623	0.0151489
931.701	0.0152197
931.780	0.0153394
931.858	0.0152858
931.936	0.0152457
932.014	0.0153002
932.092	0.0153139
932.170	0.0152571
932.248	0.0152773
932.326	0.0152374
932.405	0.0154311
932.483	0.0152582
932.561	0.0152848
932.639	0.0152837
932.717	0.0152508
932.795	0.0154070
932.873	0.0151898
932.951	0.0151076
933.030	0.0153038
933.108	0.0151443
933.186	0.0152583
933.264	0.0152601
933.342	0.0152190
933.420	0.0152689
933.498	0.0153569
933.576	0.0151731
933.655	0.0151667
933.733	0.0151846
933.811	0.0151535
933.889	0.0152370
933.967	0.0153998
934.045	0.0152834
934.123	0.0152737
934.201	0.0152254
934.280	0.0152945
934.358	0.0153392
934.436	0.0153642
934.514	0.0153592
934.592	0.0154095
934.670	0.0153345
934.748	0.0153608
934.826	0.0154520
934.905	0.0154607
934.983	0.0152254
935.061	0.0154587
935.139	0.0153909
935.217	0.0153859
935.295	0.0153313
935.373	0.0155325
935.451	0.0153721
935.530	0.0153775
935.608	0.0153028
935.686	0.0154469
935.764	0.0153455
935.842	0.0153770
935.920	0.0154163
935.998	0.0154145
936.076	0.0153288
936.155	0.0153268
936.233	0.0153487
936.311	0.0153244
936.389	0.0153890
936.467	0.0153789
936.545	0.0153562
936.623	0.0153529
936.701	0.0153448
936.780	0.0152222
936.858	0.0152031
936.936	0.0153624
937.014	0.0152878
937.092	0.0152235
937.170	0.0152671
937.248	0.0153032
937.326	0.0152614
937.405	0.0151509
937.483	0.0152866
937.561	0.0153191
937.639	0.0152561
937.717	0.0152625
937.795	0.0152509
937.873	0.0152165
937.951	0.0151226
938.030	0.0151984
938.108	0.0152038
938.186	0.0150451
938.264	0.0150478
938.342	0.0151599
938.420	0.0150963
938.498	0.0151905
938.576	0.0150114
938.655	0.0150888
938.733	0.0150311
938.811	0.0149270
938.889	0.0151774
938.967	0.0151748
939.045	0.0152065
939.123	0.0151414
939.201	0.0150541
939.280	0.0150903
939.358	0.0151907
939.436	0.0149526
939.514	0.0151571
939.592	0.0152049
939.670	0.0151427
939.748	0.0152707
939.826	0.0150137
939.905	0.0151477
939.983	0.0152301
940.061	0.0151560
940.139	0.0152236
940.217	0.0152032
940.295	0.0151691
940.373	0.0151979
940.451	0.0152261
940.530	0.0151331
940.608	0.0152653
940.686	0.0152744
940.764	0.0152024
940.842	0.0151657
940.920	0.0153057
940.998	0.0153590
941.076	0.0152901
941.155	0.0153461
941.233	0.0154237
941.311	0.0151163
941.389	0.0151823
941.467	0.0153487
941.545	0.0152725
941.623	0.0153355
941.701	0.0152909
941.780	0.0152953
941.858	0.0152892
941.936	0.0151612
942.014	0.0152980
942.092	0.0153554
942.170	0.0154376
942.248	0.0152548
942.326	0.0151775
942.405	0.0152252
942.483	0.0153097
942.561	0.0151846
942.639	0.0154532
942.717	0.0153806
942.795	0.0153261
942.873	0.0152600
942.951	0.0152412
943.030	0.0154706
943.108	0.0152975
943.186	0.0152847
943.264	0.0153339
943.342	0.0155099
943.420	0.0153486
943.498	0.0153993
943.576	0.0153383
943.655	0.0153395
943.733	0.0153923
943.811	0.0153900
943.889	0.0153168
943.967	0.0151524
944.045	0.0152933
944.123	0.0153171
944.201	0.0152137
944.280	0.0152999
944.358	0.0153488
944.436	0.0152750
944.514	0.0153197
944.592	0.0152301
944.670	0.0152615
944.748	0.0151897
944.826	0.0153001
944.905	0.0152551
944.983	0.0152271
945.061	0.0153303
945.139	0.0152804
945.217	0.0151330
945.295	0.0152621
945.373	0.0152721
945.451	0.0153242
945.530	0.0153568
945.608	0.0153593
945.686	0.0153445
945.764	0.0154334
945.842	0.0153740
945.920	0.0153674
945.998	0.0154966
946.076	0.0154897
946.155	0.0153749
946.233	0.0153640
946.311	0.0153662
946.389	0.0153932
946.467	0.0154027
946.545	0.0155158
946.623	0.0153670
946.701	0.0152972
946.780	0.0152893
946.858	0.0153857
946.936	0.0153642
947.014	0.0155066
947.092	0.0152715
947.170	0.0152838
947.248	0.0153677
947.326	0.0152929
947.405	0.0154042
947.483	0.0153077
947.561	0.0151614
947.639	0.0152181
947.717	0.0153590
947.795	0.0153377
947.873	0.0152557
947.951	0.0153281
948.030	0.0153236
948.108	0.0152319
948.186	0.0152534
948.264	0.0152315
948.342	0.0152641
948.420	0.0153298
948.498	0.0153063
948.576	0.0153919
948.655	0.0153670
948.733	0.0152706
948.811	0.0152812
948.889	0.0152815
948.967	0.0152466
949.045	0.0153144
949.123	0.0152241
949.201	0.0152589
949.280	0.0153892
949.358	0.0154444
949.436	0.0153085
949.514	0.0152927
949.592	0.0152691
949.670	0.0153378
949.748	0.0154340
949.826	0.0153036
949.905	0.0153886
949.983	0.0152859
950.061	0.0153808
950.139	0.0153757
950.217	0.0152201
950.295	0.0154743
950.373	0.0153485
950.451	0.0154552
950.530	0.0153443
950.608	0.0154114
950.686	0.0153442
950.764	0.0152709
950.842	0.0154861
950.920	0.0154463
950.998	0.0153202
951.076	0.0154892
951.155	0.0153761
951.233	0.0152341
951.311	0.0154153
951.389	0.0154374
951.467	0.0152994
951.545	0.0153871
951.623	0.0155144
951.701	0.0153888
951.780	0.0154163
951.858	0.0154240
951.936	0.0154350
952.014	0.0154336
952.092	0.0153611
952.170	0.0152860
952.248	0.0152860
952.326	0.0152999
952.405	0.0153369
952.483	0.0153359
952.561	0.0153040
952.639	0.0153230
952.717	0.0154913
952.795	0.0152672
952.873	0.0152854
952.951	0.0152223
953.030	0.0152003
953.108	0.0153555
953.186	0.0153152
953.264	0.0153008
953.342	0.0152259
953.420	0.0151663
953.498	0.0152757
953.576	0.0152167
953.655	0.0152633
953.733	0.0154463
953.811	0.0154708
953.889	0.0154240
953.967	0.0151757
954.045	0.0153613
954.123	0.0154323
954.201	0.0154620
954.280	0.0153476
954.358	0.0152763
954.436	0.0154099
954.514	0.0155640
954.592	0.0154015
954.670	0.0152773
954.748	0.0153039
954.826	0.0153040
954.905	0.0154123
954.983	0.0154697
955.061	0.0152384
955.139	0.0154601
955.217	0.0153841
955.295	0.0154071
955.373	0.0154161
955.451	0.0154662
955.530	0.0153915
955.608	0.0153886
955.686	0.0154646
955.764	0.0154433
955.842	0.0153295
955.920	0.0153578
955.998	0.0152351
956.076	0.0153575
956.155	0.0153472
956.233	0.0153731
956.311	0.0153841
956.389	0.0153471
956.467	0.0152929
956.545	0.0152047
956.623	0.0153213
956.701	0.0152262
956.780	0.0152711
956.858	0.0153522
956.936	0.0152599
957.014	0.0153153
957.092	0.0153088
957.170	0.0151720
957.248	0.0152123
957.326	0.0152110
957.405	0.0152948
957.483	0.0152593
957.561	0.0152648
957.639	0.0152946
957.717	0.0151802
957.795	0.0150899
957.873	0.0153116
957.951	0.0152341
958.030	0.0152518
958.108	0.0152651
958.186	0.0152367
958.264	0.0152879
958.342	0.0151630
958.420	0.0151102
958.498	0.0152186
958.576	0.0151829
958.655	0.0151396
958.733	0.0150975
958.811	0.0152334
958.889	0.0152118
958.967	0.0152644
959.045	0.0152354
959.123	0.0151724
959.201	0.0152981
959.280	0.0153522
959.358	0.0152757
959.436	0.0152803
959.514	0.0152826
959.592	0.0152666
959.670	0.0153288
959.748	0.0154401
959.826	0.0153336
959.905	0.0153902
