05/20/2022	17:19:50	Ver.	4.1	UNKNOWN
Optical Delay	639.982744	Delta X		0.078125	Sweeps	1	Scan Rate	0/0
Coordinates	Axis 1	NaN	Axis 2	NaN	Axis 3	NaN	Axis 4	NaN	Axis 5	NaN	Axis 6	0.000000
TX Power	0.000000	RX Power	0.000000

639.983	0.0154979
640.061	0.0153587
640.139	0.0154069
640.217	0.0154002
640.295	0.0153896
640.373	0.0153423
640.451	0.0153769
640.530	0.0153522
640.608	0.0153925
640.686	0.0154964
640.764	0.0155070
640.842	0.0153911
640.920	0.0154267
640.998	0.0154583
641.076	0.0154639
641.155	0.0153369
641.233	0.0153772
641.311	0.0153158
641.389	0.0153597
641.467	0.0153635
641.545	0.0154248
641.623	0.0153214
641.701	0.0152837
641.780	0.0155289
641.858	0.0153011
641.936	0.0152909
642.014	0.0154194
642.092	0.0153366
642.170	0.0153916
642.248	0.0154682
642.326	0.0154131
642.405	0.0153609
642.483	0.0151761
642.561	0.0152341
642.639	0.0152309
642.717	0.0153605
642.795	0.0152338
642.873	0.0151652
642.951	0.0151727
643.030	0.0153343
643.108	0.0151851
643.186	0.0153419
643.264	0.0152542
643.342	0.0153367
643.420	0.0152390
643.498	0.0152835
643.576	0.0152478
643.655	0.0153134
643.733	0.0152302
643.811	0.0152982
643.889	0.0152045
643.967	0.0152769
644.045	0.0152848
644.123	0.0151736
644.201	0.0151476
644.280	0.0151862
644.358	0.0152847
644.436	0.0152724
644.514	0.0151620
644.592	0.0151673
644.670	0.0152165
644.748	0.0153345
644.826	0.0153144
644.905	0.0151774
644.983	0.0152962
645.061	0.0152612
645.139	0.0152639
645.217	0.0153855
645.295	0.0153823
645.373	0.0153322
645.451	0.0153397
645.530	0.0153531
645.608	0.0153502
645.686	0.0153681
645.764	0.0153593
645.842	0.0154668
645.920	0.0154027
645.998	0.0153479
646.076	0.0153841
646.155	0.0155153
646.233	0.0153448
646.311	0.0153483
646.389	0.0153203
646.467	0.0154118
646.545	0.0154829
646.623	0.0153423
646.701	0.0154575
646.780	0.0154449
646.858	0.0154042
646.936	0.0153381
647.014	0.0152419
647.092	0.0152555
647.170	0.0152357
647.248	0.0154134
647.326	0.0153684
647.405	0.0154228
647.483	0.0153712
647.561	0.0153465
647.639	0.0153043
647.717	0.0153017
647.795	0.0154773
647.873	0.0153373
647.951	0.0154511
648.030	0.0154089
648.108	0.0153688
648.186	0.0154260
648.264	0.0154594
648.342	0.0153783
648.420	0.0154713
648.498	0.0153902
648.576	0.0154730
648.655	0.0155357
648.733	0.0154563
648.811	0.0154002
648.889	0.0154368
648.967	0.0154497
649.045	0.0153763
649.123	0.0154623
649.201	0.0155248
649.280	0.0153677
649.358	0.0152532
649.436	0.0154485
649.514	0.0153606
649.592	0.0154327
649.670	0.0154410
649.748	0.0154395
649.826	0.0155135
649.905	0.0153961
649.983	0.0153088
650.061	0.0153955
650.139	0.0153611
650.217	0.0154855
650.295	0.0152977
650.373	0.0153010
650.451	0.0151617
650.530	0.0152790
650.608	0.0151902
650.686	0.0152472
650.764	0.0151877
650.842	0.0152636
650.920	0.0154111
650.998	0.0152778
651.076	0.0154214
651.155	0.0153127
651.233	0.0153654
651.311	0.0153139
651.389	0.0153082
651.467	0.0154298
651.545	0.0154041
651.623	0.0155424
651.701	0.0155083
651.780	0.0156300
651.858	0.0155981
651.936	0.0154433
652.014	0.0156739
652.092	0.0156965
652.170	0.0155414
652.248	0.0155521
652.326	0.0156066
652.405	0.0156425
652.483	0.0154376
652.561	0.0154929
652.639	0.0153961
652.717	0.0153548
652.795	0.0154259
652.873	0.0154644
652.951	0.0153054
653.030	0.0152359
653.108	0.0154040
653.186	0.0154643
653.264	0.0153713
653.342	0.0153256
653.420	0.0153854
653.498	0.0154174
653.576	0.0154617
653.655	0.0153747
653.733	0.0155416
653.811	0.0154880
653.889	0.0154037
653.967	0.0153506
654.045	0.0153938
654.123	0.0155582
654.201	0.0155258
654.280	0.0155484
654.358	0.0156900
654.436	0.0156184
654.514	0.0155963
654.592	0.0155623
654.670	0.0154086
654.748	0.0155286
654.826	0.0155041
654.905	0.0155280
654.983	0.0155313
655.061	0.0153885
655.139	0.0153782
655.217	0.0154754
655.295	0.0154408
655.373	0.0154032
655.451	0.0154242
655.530	0.0154086
655.608	0.0152151
655.686	0.0153233
655.764	0.0152520
655.842	0.0153177
655.920	0.0152046
655.998	0.0153070
656.076	0.0153482
656.155	0.0152565
656.233	0.0152454
656.311	0.0153350
656.389	0.0153130
656.467	0.0152650
656.545	0.0151595
656.623	0.0152406
656.701	0.0153135
656.780	0.0153367
656.858	0.0152450
656.936	0.0153842
657.014	0.0153574
657.092	0.0154860
657.170	0.0153851
657.248	0.0155457
657.326	0.0155069
657.405	0.0154156
657.483	0.0155703
657.561	0.0156370
657.639	0.0156109
657.717	0.0154719
657.795	0.0155443
657.873	0.0153609
657.951	0.0153780
658.030	0.0154560
658.108	0.0154749
658.186	0.0154015
658.264	0.0152869
658.342	0.0152105
658.420	0.0151986
658.498	0.0152373
658.576	0.0152116
658.655	0.0151611
658.733	0.0151491
658.811	0.0152898
658.889	0.0151340
658.967	0.0150040
659.045	0.0152348
659.123	0.0152127
659.201	0.0152084
659.280	0.0150967
659.358	0.0152234
659.436	0.0151219
659.514	0.0152419
659.592	0.0151961
659.670	0.0153790
659.748	0.0151418
659.826	0.0152998
659.905	0.0153259
659.983	0.0153312
660.061	0.0155042
660.139	0.0153436
660.217	0.0153050
660.295	0.0152106
660.373	0.0153528
660.451	0.0153944
660.530	0.0152720
660.608	0.0154061
660.686	0.0153119
660.764	0.0151830
660.842	0.0152158
660.920	0.0152746
660.998	0.0152187
661.076	0.0153343
661.155	0.0151482
661.233	0.0151427
661.311	0.0152286
661.389	0.0151725
661.467	0.0151121
661.545	0.0152753
661.623	0.0151774
661.701	0.0152020
661.780	0.0152738
661.858	0.0152894
661.936	0.0152603
662.014	0.0152670
662.092	0.0153084
662.170	0.0153917
662.248	0.0154330
662.326	0.0153521
662.405	0.0153055
662.483	0.0153217
662.561	0.0154205
662.639	0.0153295
662.717	0.0152908
662.795	0.0153249
662.873	0.0151849
662.951	0.0151237
663.030	0.0152438
663.108	0.0153313
663.186	0.0152775
663.264	0.0151017
663.342	0.0152608
663.420	0.0150220
663.498	0.0151237
663.576	0.0150658
663.655	0.0150710
663.733	0.0151357
663.811	0.0150019
663.889	0.0151477
663.967	0.0151546
664.045	0.0151240
664.123	0.0151553
664.201	0.0151525
664.280	0.0151542
664.358	0.0151226
664.436	0.0151814
664.514	0.0152937
664.592	0.0153367
664.670	0.0152345
664.748	0.0153442
664.826	0.0153822
664.905	0.0154057
664.983	0.0155900
665.061	0.0154732
665.139	0.0155573
665.217	0.0156002
665.295	0.0156324
665.373	0.0156135
665.451	0.0155625
665.530	0.0154919
665.608	0.0156503
665.686	0.0155745
665.764	0.0154988
665.842	0.0155682
665.920	0.0155142
665.998	0.0153088
666.076	0.0153651
666.155	0.0154691
666.233	0.0152597
666.311	0.0153731
666.389	0.0155227
666.467	0.0154292
666.545	0.0154448
666.623	0.0154449
666.701	0.0155249
666.780	0.0153893
666.858	0.0155185
666.936	0.0155711
667.014	0.0154620
667.092	0.0155057
667.170	0.0154095
667.248	0.0153519
667.326	0.0153896
667.405	0.0154869
667.483	0.0154824
667.561	0.0154160
667.639	0.0154453
667.717	0.0153162
667.795	0.0152392
667.873	0.0153771
667.951	0.0152000
668.030	0.0152608
668.108	0.0151998
668.186	0.0151588
668.264	0.0149665
668.342	0.0151804
668.420	0.0150872
668.498	0.0150085
668.576	0.0150467
668.655	0.0150368
668.733	0.0149318
668.811	0.0148886
668.889	0.0149919
668.967	0.0150617
669.045	0.0150717
669.123	0.0149417
669.201	0.0151395
669.280	0.0152483
669.358	0.0151849
669.436	0.0151293
669.514	0.0152807
669.592	0.0153426
669.670	0.0153899
669.748	0.0154477
669.826	0.0155521
669.905	0.0155763
669.983	0.0155014
670.061	0.0156100
670.139	0.0156341
670.217	0.0156622
670.295	0.0156678
670.373	0.0157540
670.451	0.0156338
670.530	0.0156001
670.608	0.0157322
670.686	0.0156812
670.764	0.0155933
670.842	0.0155765
670.920	0.0157040
670.998	0.0155715
671.076	0.0155325
671.155	0.0155779
671.233	0.0155429
671.311	0.0155112
671.389	0.0156090
671.467	0.0154790
671.545	0.0155039
671.623	0.0154297
671.701	0.0155437
671.780	0.0155122
671.858	0.0155827
671.936	0.0154462
672.014	0.0155386
672.092	0.0155422
672.170	0.0154426
672.248	0.0154666
672.326	0.0156320
672.405	0.0155721
672.483	0.0154176
672.561	0.0155003
672.639	0.0153522
672.717	0.0153431
672.795	0.0154654
672.873	0.0154625
672.951	0.0152805
673.030	0.0151569
673.108	0.0152835
673.186	0.0152821
673.264	0.0152540
673.342	0.0152551
673.420	0.0150086
673.498	0.0151160
673.576	0.0151107
673.655	0.0149142
673.733	0.0149124
673.811	0.0147530
673.889	0.0148899
673.967	0.0149026
674.045	0.0147955
674.123	0.0147889
674.201	0.0146871
674.280	0.0147720
674.358	0.0148266
674.436	0.0149199
674.514	0.0149432
674.592	0.0149640
674.670	0.0150220
674.748	0.0152731
674.826	0.0153035
674.905	0.0154220
674.983	0.0154305
675.061	0.0155157
675.139	0.0156518
675.217	0.0156734
675.295	0.0158308
675.373	0.0158549
675.451	0.0160421
675.530	0.0159900
675.608	0.0160383
675.686	0.0162389
675.764	0.0163664
675.842	0.0163966
675.920	0.0162711
675.998	0.0163700
676.076	0.0163855
676.155	0.0163335
676.233	0.0163660
676.311	0.0164117
676.389	0.0164357
676.467	0.0162177
676.545	0.0162656
676.623	0.0162619
676.701	0.0161686
676.780	0.0160514
676.858	0.0159849
676.936	0.0159168
677.014	0.0157049
677.092	0.0157015
677.170	0.0155894
677.248	0.0155637
677.326	0.0155141
677.405	0.0152963
677.483	0.0151845
677.561	0.0152088
677.639	0.0150515
677.717	0.0148741
677.795	0.0149593
677.873	0.0148573
677.951	0.0148357
678.030	0.0147516
678.108	0.0147283
678.186	0.0146838
678.264	0.0146799
678.342	0.0146329
678.420	0.0146637
678.498	0.0147394
678.576	0.0146934
678.655	0.0147626
678.733	0.0149865
678.811	0.0148515
678.889	0.0149149
678.967	0.0150341
679.045	0.0149931
679.123	0.0151048
679.201	0.0151286
679.280	0.0152241
679.358	0.0152392
679.436	0.0152641
679.514	0.0152724
679.592	0.0152950
679.670	0.0154437
679.748	0.0154578
679.826	0.0155588
679.905	0.0156196
679.983	0.0156393
680.061	0.0156171
680.139	0.0158574
680.217	0.0158395
680.295	0.0157133
680.373	0.0158851
680.451	0.0159280
680.530	0.0156822
680.608	0.0157506
680.686	0.0157479
680.764	0.0159520
680.842	0.0157228
680.920	0.0157993
680.998	0.0157308
681.076	0.0157673
681.155	0.0155595
681.233	0.0156465
681.311	0.0157960
681.389	0.0156567
681.467	0.0155243
681.545	0.0153799
681.623	0.0153835
681.701	0.0153461
681.780	0.0153450
681.858	0.0153799
681.936	0.0153089
682.014	0.0152624
682.092	0.0152691
682.170	0.0152097
682.248	0.0151172
682.326	0.0151996
682.405	0.0152048
682.483	0.0150880
682.561	0.0151408
682.639	0.0151393
682.717	0.0149429
682.795	0.0149451
682.873	0.0150179
682.951	0.0151027
683.030	0.0150536
683.108	0.0149043
683.186	0.0149267
683.264	0.0150480
683.342	0.0149992
683.420	0.0150917
683.498	0.0151918
683.576	0.0151924
683.655	0.0151418
683.733	0.0151245
683.811	0.0152617
683.889	0.0152957
683.967	0.0154068
684.045	0.0155044
684.123	0.0154413
684.201	0.0155567
684.280	0.0155980
684.358	0.0156532
684.436	0.0157363
684.514	0.0156387
684.592	0.0156454
684.670	0.0157492
684.748	0.0156963
684.826	0.0157523
684.905	0.0155548
684.983	0.0155812
685.061	0.0156028
685.139	0.0154327
685.217	0.0154126
685.295	0.0155279
685.373	0.0154128
685.451	0.0152489
685.530	0.0152488
685.608	0.0153785
685.686	0.0152336
685.764	0.0152736
685.842	0.0152784
685.920	0.0151591
685.998	0.0152347
686.076	0.0151343
686.155	0.0152735
686.233	0.0152911
686.311	0.0152598
686.389	0.0152864
686.467	0.0153386
686.545	0.0154012
686.623	0.0151713
686.701	0.0152451
686.780	0.0153356
686.858	0.0153414
686.936	0.0153142
687.014	0.0153432
687.092	0.0154840
687.170	0.0153297
687.248	0.0151977
687.326	0.0153526
687.405	0.0153620
687.483	0.0154534
687.561	0.0155013
687.639	0.0154961
687.717	0.0153799
687.795	0.0155196
687.873	0.0156309
687.951	0.0156007
688.030	0.0156573
688.108	0.0156290
688.186	0.0156990
688.264	0.0156583
688.342	0.0156174
688.420	0.0155425
688.498	0.0156761
688.576	0.0156926
688.655	0.0155348
688.733	0.0156421
688.811	0.0157243
688.889	0.0156547
688.967	0.0155598
689.045	0.0155455
689.123	0.0154395
689.201	0.0156281
689.280	0.0155015
689.358	0.0154259
689.436	0.0153867
689.514	0.0154650
689.592	0.0154150
689.670	0.0152159
689.748	0.0153037
689.826	0.0154027
689.905	0.0150690
689.983	0.0150243
690.061	0.0152328
690.139	0.0150787
690.217	0.0150311
690.295	0.0150298
690.373	0.0150912
690.451	0.0149247
690.530	0.0148104
690.608	0.0150767
690.686	0.0149940
690.764	0.0149483
690.842	0.0149475
690.920	0.0151263
690.998	0.0150218
691.076	0.0151150
691.155	0.0151409
691.233	0.0152049
691.311	0.0153009
691.389	0.0152561
691.467	0.0153847
691.545	0.0155192
691.623	0.0156736
691.701	0.0158035
691.780	0.0157306
691.858	0.0157033
691.936	0.0158006
692.014	0.0157643
692.092	0.0158288
692.170	0.0159492
692.248	0.0159592
692.326	0.0158791
692.405	0.0157797
692.483	0.0159027
692.561	0.0157433
692.639	0.0157650
692.717	0.0155518
692.795	0.0156602
692.873	0.0156261
692.951	0.0155324
693.030	0.0155177
693.108	0.0154788
693.186	0.0154514
693.264	0.0154216
693.342	0.0152911
693.420	0.0153744
693.498	0.0154345
693.576	0.0154060
693.655	0.0154184
693.733	0.0152797
693.811	0.0152060
693.889	0.0151390
693.967	0.0150508
694.045	0.0151003
694.123	0.0150994
694.201	0.0151189
694.280	0.0151868
694.358	0.0150196
694.436	0.0150948
694.514	0.0150935
694.592	0.0151044
694.670	0.0151205
694.748	0.0150665
694.826	0.0152850
694.905	0.0153567
694.983	0.0152742
695.061	0.0155098
695.139	0.0155022
695.217	0.0155701
695.295	0.0156974
695.373	0.0157391
695.451	0.0159664
695.530	0.0158639
695.608	0.0159485
695.686	0.0159045
695.764	0.0160845
695.842	0.0160163
695.920	0.0160848
695.998	0.0160947
696.076	0.0161317
696.155	0.0159318
696.233	0.0159258
696.311	0.0158079
696.389	0.0158603
696.467	0.0156779
696.545	0.0155531
696.623	0.0156645
696.701	0.0156253
696.780	0.0156374
696.858	0.0156776
696.936	0.0155794
697.014	0.0156222
697.092	0.0154919
697.170	0.0154606
697.248	0.0155417
697.326	0.0155423
697.405	0.0155537
697.483	0.0154540
697.561	0.0153864
697.639	0.0154906
697.717	0.0156116
697.795	0.0154884
697.873	0.0155018
697.951	0.0153413
698.030	0.0153469
698.108	0.0153191
698.186	0.0153816
698.264	0.0153288
698.342	0.0152375
698.420	0.0153246
698.498	0.0152900
698.576	0.0153010
698.655	0.0151985
698.733	0.0152502
698.811	0.0151060
698.889	0.0150262
698.967	0.0150944
699.045	0.0150895
699.123	0.0150121
699.201	0.0150954
699.280	0.0149044
699.358	0.0149737
699.436	0.0150147
699.514	0.0151348
699.592	0.0149593
699.670	0.0151563
699.748	0.0153029
699.826	0.0152433
699.905	0.0154926
699.983	0.0154404
700.061	0.0155018
700.139	0.0155437
700.217	0.0158227
700.295	0.0156784
700.373	0.0156462
700.451	0.0157192
700.530	0.0157867
700.608	0.0158480
700.686	0.0160581
700.764	0.0160358
700.842	0.0160126
700.920	0.0161715
700.998	0.0161385
701.076	0.0162125
701.155	0.0162469
701.233	0.0160719
701.311	0.0162388
701.389	0.0160910
701.467	0.0160873
701.545	0.0162214
701.623	0.0162408
701.701	0.0162034
701.780	0.0161856
701.858	0.0161705
701.936	0.0162080
702.014	0.0160971
702.092	0.0161124
702.170	0.0159333
702.248	0.0158630
702.326	0.0159778
702.405	0.0158082
702.483	0.0157088
702.561	0.0156184
702.639	0.0156126
702.717	0.0153734
702.795	0.0151346
702.873	0.0153246
702.951	0.0152834
703.030	0.0150756
703.108	0.0149027
703.186	0.0149124
703.264	0.0150039
703.342	0.0148462
703.420	0.0148651
703.498	0.0148919
703.576	0.0147567
703.655	0.0146989
703.733	0.0147225
703.811	0.0148470
703.889	0.0148289
703.967	0.0148184
704.045	0.0148930
704.123	0.0150138
704.201	0.0149164
704.280	0.0151497
704.358	0.0152145
704.436	0.0153388
704.514	0.0152140
704.592	0.0153722
704.670	0.0154699
704.748	0.0155893
704.826	0.0155532
704.905	0.0155451
704.983	0.0155398
705.061	0.0156635
705.139	0.0158479
705.217	0.0157586
705.295	0.0156065
705.373	0.0156115
705.451	0.0157449
705.530	0.0156906
705.608	0.0156442
705.686	0.0156412
705.764	0.0156498
705.842	0.0154820
705.920	0.0155195
705.998	0.0155323
706.076	0.0154485
706.155	0.0155772
706.233	0.0155608
706.311	0.0155055
706.389	0.0155189
706.467	0.0154850
706.545	0.0154076
706.623	0.0155794
706.701	0.0154050
706.780	0.0155988
706.858	0.0156323
706.936	0.0155810
707.014	0.0156684
707.092	0.0156207
707.170	0.0154709
707.248	0.0155324
707.326	0.0155471
707.405	0.0156119
707.483	0.0155888
707.561	0.0155911
707.639	0.0155236
707.717	0.0155235
707.795	0.0154905
707.873	0.0155537
707.951	0.0153326
708.030	0.0153564
708.108	0.0154517
708.186	0.0153344
708.264	0.0155280
708.342	0.0152348
708.420	0.0153600
708.498	0.0153348
708.576	0.0152214
708.655	0.0152687
708.733	0.0151099
708.811	0.0151394
708.889	0.0152580
708.967	0.0150507
709.045	0.0150431
709.123	0.0151762
709.201	0.0151722
709.280	0.0151749
709.358	0.0152180
709.436	0.0152364
709.514	0.0151947
709.592	0.0150920
709.670	0.0150822
709.748	0.0151934
709.826	0.0152842
709.905	0.0151423
709.983	0.0152140
710.061	0.0152350
710.139	0.0151763
710.217	0.0152239
710.295	0.0152259
710.373	0.0153197
710.451	0.0152374
710.530	0.0152230
710.608	0.0153475
710.686	0.0154256
710.764	0.0153160
710.842	0.0154398
710.920	0.0154924
710.998	0.0154534
711.076	0.0155085
711.155	0.0155766
711.233	0.0155573
711.311	0.0154411
711.389	0.0155450
711.467	0.0156035
711.545	0.0156606
711.623	0.0155408
711.701	0.0155074
711.780	0.0156213
711.858	0.0155493
711.936	0.0156487
712.014	0.0156700
712.092	0.0156458
712.170	0.0155923
712.248	0.0156499
712.326	0.0157860
712.405	0.0157514
712.483	0.0155389
712.561	0.0157100
712.639	0.0156508
712.717	0.0156505
712.795	0.0155962
712.873	0.0155675
712.951	0.0154340
713.030	0.0155701
713.108	0.0155717
713.186	0.0155312
713.264	0.0154309
713.342	0.0155195
713.420	0.0153673
713.498	0.0153789
713.576	0.0153841
713.655	0.0152380
713.733	0.0153692
713.811	0.0153666
713.889	0.0152362
713.967	0.0153357
714.045	0.0153732
714.123	0.0151910
714.201	0.0152071
714.280	0.0152944
714.358	0.0152141
714.436	0.0152316
714.514	0.0150367
714.592	0.0151570
714.670	0.0153063
714.748	0.0152189
714.826	0.0153220
714.905	0.0153070
714.983	0.0153399
715.061	0.0154899
715.139	0.0155381
715.217	0.0156737
715.295	0.0156627
715.373	0.0156729
715.451	0.0157946
715.530	0.0157679
715.608	0.0156879
715.686	0.0158045
715.764	0.0159331
715.842	0.0157846
715.920	0.0156968
715.998	0.0158631
716.076	0.0157664
716.155	0.0156800
716.233	0.0157331
716.311	0.0157504
716.389	0.0157482
716.467	0.0155328
716.545	0.0155960
716.623	0.0155220
716.701	0.0154679
716.780	0.0154010
716.858	0.0154250
716.936	0.0153886
717.014	0.0154648
717.092	0.0153299
717.170	0.0153330
717.248	0.0153677
717.326	0.0153050
717.405	0.0152029
717.483	0.0153946
717.561	0.0152824
717.639	0.0153860
717.717	0.0152911
717.795	0.0152708
717.873	0.0152632
717.951	0.0152331
718.030	0.0152796
718.108	0.0153496
718.186	0.0153384
718.264	0.0153706
718.342	0.0152521
718.420	0.0151652
718.498	0.0152258
718.576	0.0152505
718.655	0.0153183
718.733	0.0153706
718.811	0.0154955
718.889	0.0155063
718.967	0.0154446
719.045	0.0154604
719.123	0.0155126
719.201	0.0155413
719.280	0.0155353
719.358	0.0156546
719.436	0.0157267
719.514	0.0157407
719.592	0.0157799
719.670	0.0158644
719.748	0.0158823
719.826	0.0158942
719.905	0.0158136
719.983	0.0158443
720.061	0.0159406
720.139	0.0159215
720.217	0.0159641
720.295	0.0158801
720.373	0.0158409
720.451	0.0158315
720.530	0.0157711
720.608	0.0158738
720.686	0.0158089
720.764	0.0155887
720.842	0.0155739
720.920	0.0157723
720.998	0.0153381
721.076	0.0153658
721.155	0.0154754
721.233	0.0154520
721.311	0.0152605
721.389	0.0154722
721.467	0.0153742
721.545	0.0152375
721.623	0.0153743
721.701	0.0154120
721.780	0.0155647
721.858	0.0153226
721.936	0.0153926
722.014	0.0152640
722.092	0.0153716
722.170	0.0152702
722.248	0.0153417
722.326	0.0152794
722.405	0.0151552
722.483	0.0152645
722.561	0.0152208
722.639	0.0152048
722.717	0.0150468
722.795	0.0152433
722.873	0.0152293
722.951	0.0151228
723.030	0.0150822
723.108	0.0153053
723.186	0.0152238
723.264	0.0153267
723.342	0.0154610
723.420	0.0154175
723.498	0.0154720
723.576	0.0153796
723.655	0.0154299
723.733	0.0154176
723.811	0.0155637
723.889	0.0156339
723.967	0.0156627
724.045	0.0156892
724.123	0.0156059
724.201	0.0157061
724.280	0.0154134
724.358	0.0154639
724.436	0.0154233
724.514	0.0154205
724.592	0.0155028
724.670	0.0154249
724.748	0.0153733
724.826	0.0153383
724.905	0.0152521
724.983	0.0152975
725.061	0.0153611
725.139	0.0154459
725.217	0.0153934
725.295	0.0154416
725.373	0.0154842
725.451	0.0154359
725.530	0.0153951
725.608	0.0156212
725.686	0.0155124
725.764	0.0154793
725.842	0.0153864
725.920	0.0153960
725.998	0.0155799
726.076	0.0154102
726.155	0.0153614
726.233	0.0154030
726.311	0.0154711
726.389	0.0154065
726.467	0.0154007
726.545	0.0154620
726.623	0.0155190
726.701	0.0153785
726.780	0.0155323
726.858	0.0154291
726.936	0.0154266
727.014	0.0154192
727.092	0.0154790
727.170	0.0155513
727.248	0.0154900
727.326	0.0155557
727.405	0.0154996
727.483	0.0155790
727.561	0.0154798
727.639	0.0154709
727.717	0.0156015
727.795	0.0155813
727.873	0.0155713
727.951	0.0156686
728.030	0.0153786
728.108	0.0155175
728.186	0.0154948
728.264	0.0155958
728.342	0.0155245
728.420	0.0153279
728.498	0.0153074
728.576	0.0152390
728.655	0.0152200
728.733	0.0151745
728.811	0.0150329
728.889	0.0149747
728.967	0.0148884
729.045	0.0149650
729.123	0.0147633
729.201	0.0145920
729.280	0.0147688
729.358	0.0146725
729.436	0.0147605
729.514	0.0148331
729.592	0.0147721
729.670	0.0147050
729.748	0.0148817
729.826	0.0149294
729.905	0.0149932
729.983	0.0152202
730.061	0.0154028
730.139	0.0154173
730.217	0.0154838
730.295	0.0157323
730.373	0.0156899
730.451	0.0157755
730.530	0.0160065
730.608	0.0160615
730.686	0.0160603
730.764	0.0159570
730.842	0.0160942
730.920	0.0161214
730.998	0.0161310
731.076	0.0161227
731.155	0.0160785
731.233	0.0160090
731.311	0.0160262
731.389	0.0160500
731.467	0.0158084
731.545	0.0157123
731.623	0.0159222
731.701	0.0159120
731.780	0.0157858
731.858	0.0156477
731.936	0.0156562
732.014	0.0157191
732.092	0.0155576
732.170	0.0153447
732.248	0.0153843
732.326	0.0153727
732.405	0.0152685
732.483	0.0150941
732.561	0.0152325
732.639	0.0149697
732.717	0.0149376
732.795	0.0148847
732.873	0.0148386
732.951	0.0148059
733.030	0.0148463
733.108	0.0147993
733.186	0.0149095
733.264	0.0148139
733.342	0.0148975
733.420	0.0148302
733.498	0.0148376
733.576	0.0150095
733.655	0.0150850
733.733	0.0149585
733.811	0.0152565
733.889	0.0152586
733.967	0.0152565
734.045	0.0154434
734.123	0.0152834
734.201	0.0153480
734.280	0.0154755
734.358	0.0153819
734.436	0.0154411
734.514	0.0154035
734.592	0.0154821
734.670	0.0156011
734.748	0.0154655
734.826	0.0156600
734.905	0.0155386
734.983	0.0155747
735.061	0.0156297
735.139	0.0157177
735.217	0.0155673
735.295	0.0156220
735.373	0.0155198
735.451	0.0156588
735.530	0.0155386
735.608	0.0156283
735.686	0.0156794
735.764	0.0156122
735.842	0.0156461
735.920	0.0156921
735.998	0.0155990
736.076	0.0157238
736.155	0.0156023
736.233	0.0155153
736.311	0.0156168
736.389	0.0155045
736.467	0.0155917
736.545	0.0155047
736.623	0.0154236
736.701	0.0153804
736.780	0.0153832
736.858	0.0153078
736.936	0.0153361
737.014	0.0151574
737.092	0.0151637
737.170	0.0151658
737.248	0.0151279
737.326	0.0151139
737.405	0.0150205
737.483	0.0150450
737.561	0.0151050
737.639	0.0151097
737.717	0.0151734
737.795	0.0150584
737.873	0.0151080
737.951	0.0151627
738.030	0.0151115
738.108	0.0153072
738.186	0.0152346
738.264	0.0154012
738.342	0.0153512
738.420	0.0153572
738.498	0.0156916
738.576	0.0156001
738.655	0.0155289
738.733	0.0156144
738.811	0.0157422
738.889	0.0156374
738.967	0.0156969
739.045	0.0156459
739.123	0.0157051
739.201	0.0158430
739.280	0.0158233
739.358	0.0156903
739.436	0.0157495
739.514	0.0157153
739.592	0.0157938
739.670	0.0157460
739.748	0.0157594
739.826	0.0157603
739.905	0.0156654
739.983	0.0155845
740.061	0.0154960
740.139	0.0154541
740.217	0.0155434
740.295	0.0154786
740.373	0.0152412
740.451	0.0155146
740.530	0.0153572
740.608	0.0152635
740.686	0.0153391
740.764	0.0153998
740.842	0.0154562
740.920	0.0155202
740.998	0.0153271
741.076	0.0153193
741.155	0.0152763
741.233	0.0151936
741.311	0.0151054
741.389	0.0152895
741.467	0.0151971
741.545	0.0153197
741.623	0.0151962
741.701	0.0152737
741.780	0.0152712
741.858	0.0153667
741.936	0.0154046
742.014	0.0151746
742.092	0.0154536
742.170	0.0154694
742.248	0.0153540
742.326	0.0153265
742.405	0.0155517
742.483	0.0153820
742.561	0.0154471
742.639	0.0154199
742.717	0.0153806
742.795	0.0153132
742.873	0.0154879
742.951	0.0153264
743.030	0.0154240
743.108	0.0154678
743.186	0.0155458
743.264	0.0153924
743.342	0.0154893
743.420	0.0155202
743.498	0.0153889
743.576	0.0155310
743.655	0.0155876
743.733	0.0155280
743.811	0.0155405
743.889	0.0156223
743.967	0.0155494
744.045	0.0156142
744.123	0.0154819
744.201	0.0156544
744.280	0.0157887
744.358	0.0157549
744.436	0.0155793
744.514	0.0155293
744.592	0.0155887
744.670	0.0155550
744.748	0.0154584
744.826	0.0154425
744.905	0.0153172
744.983	0.0151923
745.061	0.0152423
745.139	0.0152213
745.217	0.0151612
745.295	0.0151684
745.373	0.0150663
745.451	0.0150073
745.530	0.0151943
745.608	0.0151642
745.686	0.0152605
745.764	0.0153584
745.842	0.0152981
745.920	0.0152979
745.998	0.0153091
746.076	0.0155596
746.155	0.0155275
746.233	0.0155002
746.311	0.0155824
746.389	0.0156979
746.467	0.0157269
746.545	0.0157082
746.623	0.0157701
746.701	0.0157113
746.780	0.0156288
746.858	0.0157329
746.936	0.0156392
747.014	0.0157202
747.092	0.0155106
747.170	0.0154410
747.248	0.0153678
747.326	0.0152766
747.405	0.0152113
747.483	0.0153593
747.561	0.0152651
747.639	0.0152892
747.717	0.0151156
747.795	0.0151918
747.873	0.0152338
747.951	0.0151501
748.030	0.0151315
748.108	0.0151172
748.186	0.0149783
748.264	0.0151397
748.342	0.0151017
748.420	0.0150123
748.498	0.0151432
748.576	0.0151505
748.655	0.0151304
748.733	0.0152472
748.811	0.0153239
748.889	0.0153718
748.967	0.0153554
749.045	0.0153499
749.123	0.0152978
749.201	0.0153693
749.280	0.0153136
749.358	0.0154784
749.436	0.0154305
749.514	0.0155457
749.592	0.0156097
749.670	0.0154492
749.748	0.0153313
749.826	0.0152734
749.905	0.0154519
749.983	0.0153577
750.061	0.0152880
750.139	0.0152975
750.217	0.0152371
750.295	0.0152797
750.373	0.0151617
750.451	0.0151363
750.530	0.0152222
750.608	0.0152775
750.686	0.0152312
750.764	0.0152610
750.842	0.0153358
750.920	0.0154524
750.998	0.0156078
751.076	0.0155782
751.155	0.0154841
751.233	0.0156477
751.311	0.0157165
751.389	0.0156937
751.467	0.0156839
751.545	0.0158585
751.623	0.0157441
751.701	0.0158197
751.780	0.0159261
751.858	0.0157851
751.936	0.0157110
752.014	0.0157484
752.092	0.0157755
752.170	0.0156753
752.248	0.0155659
752.326	0.0154072
752.405	0.0155724
752.483	0.0154968
752.561	0.0155507
752.639	0.0153923
752.717	0.0153802
752.795	0.0154424
752.873	0.0154427
752.951	0.0154821
753.030	0.0154415
753.108	0.0152267
753.186	0.0153834
753.264	0.0153094
753.342	0.0152969
753.420	0.0152840
753.498	0.0152549
753.576	0.0152242
753.655	0.0152899
753.733	0.0152930
753.811	0.0152322
753.889	0.0151998
753.967	0.0153162
754.045	0.0152499
754.123	0.0151592
754.201	0.0151986
754.280	0.0153413
754.358	0.0151113
754.436	0.0152406
754.514	0.0154491
754.592	0.0152744
754.670	0.0153738
754.748	0.0154234
754.826	0.0154892
754.905	0.0155066
754.983	0.0156087
755.061	0.0156015
755.139	0.0156665
755.217	0.0158074
755.295	0.0155179
755.373	0.0155675
755.451	0.0156367
755.530	0.0155461
755.608	0.0156685
755.686	0.0156788
755.764	0.0156792
755.842	0.0154230
755.920	0.0154144
755.998	0.0154223
756.076	0.0153816
756.155	0.0151612
756.233	0.0151859
756.311	0.0151487
756.389	0.0150944
756.467	0.0152401
756.545	0.0152195
756.623	0.0151577
756.701	0.0150999
756.780	0.0151752
756.858	0.0153043
756.936	0.0153255
757.014	0.0153555
757.092	0.0153710
757.170	0.0154701
757.248	0.0155031
757.326	0.0154996
757.405	0.0155281
757.483	0.0154797
757.561	0.0155727
757.639	0.0156297
757.717	0.0155685
757.795	0.0155643
757.873	0.0154632
757.951	0.0155759
758.030	0.0155607
758.108	0.0154373
758.186	0.0153092
758.264	0.0154173
758.342	0.0154368
758.420	0.0152218
758.498	0.0154442
758.576	0.0153556
758.655	0.0151502
758.733	0.0154028
758.811	0.0152515
758.889	0.0153629
758.967	0.0152200
759.045	0.0152277
759.123	0.0153491
759.201	0.0154549
759.280	0.0153075
759.358	0.0154758
759.436	0.0153980
759.514	0.0154051
759.592	0.0154463
759.670	0.0154001
759.748	0.0155015
759.826	0.0154894
759.905	0.0156371
759.983	0.0157092
760.061	0.0157651
760.139	0.0156382
760.217	0.0156923
760.295	0.0158021
760.373	0.0155156
760.451	0.0156762
760.530	0.0156727
760.608	0.0155617
760.686	0.0155667
760.764	0.0156902
760.842	0.0157018
760.920	0.0156641
760.998	0.0156696
761.076	0.0156895
761.155	0.0157083
761.233	0.0156985
761.311	0.0156882
761.389	0.0156744
761.467	0.0154765
761.545	0.0155380
761.623	0.0154471
761.701	0.0155628
761.780	0.0154274
761.858	0.0154793
761.936	0.0155024
762.014	0.0154316
762.092	0.0154386
762.170	0.0154691
762.248	0.0152039
762.326	0.0151477
762.405	0.0153159
762.483	0.0151862
762.561	0.0153119
762.639	0.0152199
762.717	0.0153753
762.795	0.0153304
762.873	0.0151704
762.951	0.0151613
763.030	0.0152149
763.108	0.0152864
763.186	0.0152941
763.264	0.0153246
763.342	0.0153446
763.420	0.0153567
763.498	0.0153875
763.576	0.0152977
763.655	0.0154137
763.733	0.0154580
763.811	0.0154903
763.889	0.0154282
763.967	0.0154579
764.045	0.0155211
764.123	0.0156287
764.201	0.0155167
764.280	0.0155470
764.358	0.0156873
764.436	0.0156576
764.514	0.0156586
764.592	0.0155969
764.670	0.0155472
764.748	0.0155533
764.826	0.0154047
764.905	0.0153735
764.983	0.0154304
765.061	0.0154068
765.139	0.0152690
765.217	0.0153017
765.295	0.0153748
765.373	0.0152020
765.451	0.0152969
765.530	0.0152442
765.608	0.0151649
765.686	0.0152954
765.764	0.0153387
765.842	0.0152908
765.920	0.0153610
765.998	0.0152135
766.076	0.0152549
766.155	0.0152872
766.233	0.0155106
766.311	0.0154102
766.389	0.0154771
766.467	0.0153365
766.545	0.0153061
766.623	0.0154858
766.701	0.0154750
766.780	0.0153816
766.858	0.0154935
766.936	0.0152924
767.014	0.0153036
767.092	0.0153579
767.170	0.0152824
767.248	0.0152406
767.326	0.0154179
767.405	0.0153751
767.483	0.0151433
767.561	0.0153291
767.639	0.0152596
767.717	0.0153403
767.795	0.0152956
767.873	0.0153452
767.951	0.0154153
768.030	0.0154572
768.108	0.0154686
768.186	0.0153757
768.264	0.0154406
768.342	0.0154887
768.420	0.0155223
768.498	0.0155553
768.576	0.0154823
768.655	0.0154537
768.733	0.0154093
768.811	0.0154627
768.889	0.0155470
768.967	0.0154687
769.045	0.0155563
769.123	0.0155161
769.201	0.0154102
769.280	0.0154119
769.358	0.0153178
769.436	0.0155888
769.514	0.0154430
769.592	0.0153762
769.670	0.0153345
769.748	0.0152869
769.826	0.0155173
769.905	0.0156034
769.983	0.0154747
770.061	0.0155609
770.139	0.0156252
770.217	0.0155458
770.295	0.0155429
770.373	0.0154657
770.451	0.0153373
770.530	0.0153489
770.608	0.0153802
770.686	0.0153546
770.764	0.0154128
770.842	0.0152686
770.920	0.0152774
770.998	0.0152705
771.076	0.0152845
771.155	0.0151617
771.233	0.0151710
771.311	0.0152584
771.389	0.0152542
771.467	0.0153038
771.545	0.0152076
771.623	0.0152038
771.701	0.0151120
771.780	0.0151387
771.858	0.0152628
771.936	0.0153319
772.014	0.0152753
772.092	0.0154269
772.170	0.0153064
772.248	0.0153958
772.326	0.0155634
772.405	0.0155033
772.483	0.0154117
772.561	0.0153993
772.639	0.0155096
772.717	0.0154835
772.795	0.0154389
772.873	0.0154471
772.951	0.0155450
773.030	0.0155183
773.108	0.0154503
773.186	0.0154726
773.264	0.0154693
773.342	0.0153889
773.420	0.0155250
773.498	0.0155062
773.576	0.0156663
773.655	0.0156836
773.733	0.0155819
773.811	0.0155408
773.889	0.0156173
773.967	0.0156362
774.045	0.0157493
774.123	0.0157232
774.201	0.0156299
774.280	0.0156007
774.358	0.0156411
774.436	0.0156026
774.514	0.0155354
774.592	0.0155141
774.670	0.0156087
774.748	0.0157005
774.826	0.0155836
774.905	0.0154993
774.983	0.0154247
775.061	0.0154616
775.139	0.0154048
775.217	0.0153888
775.295	0.0154781
775.373	0.0156580
775.451	0.0153648
775.530	0.0152609
775.608	0.0153513
775.686	0.0155145
775.764	0.0152914
775.842	0.0152826
775.920	0.0153362
775.998	0.0152305
776.076	0.0152129
776.155	0.0152416
776.233	0.0152380
776.311	0.0153069
776.389	0.0154189
776.467	0.0152975
776.545	0.0152489
776.623	0.0153172
776.701	0.0152797
776.780	0.0152940
776.858	0.0155614
776.936	0.0154895
777.014	0.0154147
777.092	0.0155092
777.170	0.0154315
777.248	0.0154716
777.326	0.0154024
777.405	0.0153983
777.483	0.0155453
777.561	0.0154998
777.639	0.0154642
777.717	0.0153551
777.795	0.0155961
777.873	0.0155745
777.951	0.0155324
778.030	0.0156037
778.108	0.0156290
778.186	0.0156577
778.264	0.0156182
778.342	0.0156386
778.420	0.0155711
778.498	0.0155074
778.576	0.0155273
778.655	0.0156110
778.733	0.0155019
778.811	0.0155180
778.889	0.0154362
778.967	0.0155769
779.045	0.0154840
779.123	0.0156335
779.201	0.0155322
779.280	0.0153693
779.358	0.0154961
779.436	0.0154719
779.514	0.0154355
779.592	0.0154005
779.670	0.0153432
779.748	0.0155222
779.826	0.0153716
779.905	0.0153161
779.983	0.0153071
780.061	0.0153009
780.139	0.0153836
780.217	0.0154067
780.295	0.0153616
780.373	0.0153074
780.451	0.0152802
780.530	0.0154595
780.608	0.0153532
780.686	0.0154465
780.764	0.0153238
780.842	0.0153797
780.920	0.0155712
780.998	0.0154041
781.076	0.0153365
781.155	0.0153864
781.233	0.0154569
781.311	0.0152154
781.389	0.0154182
781.467	0.0154073
781.545	0.0154851
781.623	0.0153661
781.701	0.0151682
781.780	0.0151857
781.858	0.0153576
781.936	0.0154682
782.014	0.0152472
782.092	0.0152300
782.170	0.0153912
782.248	0.0153873
782.326	0.0153872
782.405	0.0155212
782.483	0.0154797
782.561	0.0154962
782.639	0.0155607
782.717	0.0156165
782.795	0.0155741
782.873	0.0157257
782.951	0.0155399
783.030	0.0155396
783.108	0.0156382
783.186	0.0156804
783.264	0.0157034
783.342	0.0156492
783.420	0.0156742
783.498	0.0156721
783.576	0.0155245
783.655	0.0156395
783.733	0.0157407
783.811	0.0156487
783.889	0.0156746
783.967	0.0156534
784.045	0.0156262
784.123	0.0155597
784.201	0.0155444
784.280	0.0155800
784.358	0.0156759
784.436	0.0157026
784.514	0.0155118
784.592	0.0156181
784.670	0.0156095
784.748	0.0156233
784.826	0.0155898
784.905	0.0156605
784.983	0.0156377
785.061	0.0155363
785.139	0.0154887
785.217	0.0154012
785.295	0.0154386
785.373	0.0154961
785.451	0.0152855
785.530	0.0154016
785.608	0.0151664
785.686	0.0152763
785.764	0.0154050
785.842	0.0151851
785.920	0.0151651
785.998	0.0152509
786.076	0.0153506
786.155	0.0152248
786.233	0.0151677
786.311	0.0151513
786.389	0.0152534
786.467	0.0152885
786.545	0.0151647
786.623	0.0153323
786.701	0.0151625
786.780	0.0152966
786.858	0.0155286
786.936	0.0153487
787.014	0.0153941
787.092	0.0152865
787.170	0.0154087
787.248	0.0152435
787.326	0.0151826
787.405	0.0152937
787.483	0.0152741
787.561	0.0152836
787.639	0.0152744
787.717	0.0153126
787.795	0.0152494
787.873	0.0152021
787.951	0.0153268
788.030	0.0153744
788.108	0.0153139
788.186	0.0154575
788.264	0.0154592
788.342	0.0154350
788.420	0.0152780
788.498	0.0153340
788.576	0.0153577
788.655	0.0153606
788.733	0.0153375
788.811	0.0154565
788.889	0.0154398
788.967	0.0153990
789.045	0.0152731
789.123	0.0152950
789.201	0.0154295
789.280	0.0153912
789.358	0.0154505
789.436	0.0152693
789.514	0.0153165
789.592	0.0153788
789.670	0.0152308
789.748	0.0152189
789.826	0.0153542
789.905	0.0152956
789.983	0.0152722
790.061	0.0152037
790.139	0.0152496
790.217	0.0152718
790.295	0.0150501
790.373	0.0151733
790.451	0.0152753
790.530	0.0151101
790.608	0.0151553
790.686	0.0150342
790.764	0.0152020
790.842	0.0151793
790.920	0.0151967
790.998	0.0151176
791.076	0.0151412
791.155	0.0151694
791.233	0.0151021
791.311	0.0152029
791.389	0.0153374
791.467	0.0150916
791.545	0.0152691
791.623	0.0151479
791.701	0.0153572
791.780	0.0154840
791.858	0.0154381
791.936	0.0155077
792.014	0.0154417
792.092	0.0155437
792.170	0.0156148
792.248	0.0155965
792.326	0.0156573
792.405	0.0154919
792.483	0.0155019
792.561	0.0156036
792.639	0.0155453
792.717	0.0155964
792.795	0.0155022
792.873	0.0155968
792.951	0.0157203
793.030	0.0155349
793.108	0.0154630
793.186	0.0155378
793.264	0.0154544
793.342	0.0155610
793.420	0.0154671
793.498	0.0155474
793.576	0.0154206
793.655	0.0154367
793.733	0.0153631
793.811	0.0154302
793.889	0.0154370
793.967	0.0154890
794.045	0.0155328
794.123	0.0153705
794.201	0.0152843
794.280	0.0153735
794.358	0.0153036
794.436	0.0152782
794.514	0.0152647
794.592	0.0154841
794.670	0.0154714
794.748	0.0154390
794.826	0.0153708
794.905	0.0154699
794.983	0.0154488
795.061	0.0153500
795.139	0.0154990
795.217	0.0154957
795.295	0.0155501
795.373	0.0154594
795.451	0.0154429
795.530	0.0154951
795.608	0.0154441
795.686	0.0155116
795.764	0.0155826
795.842	0.0153725
795.920	0.0154198
795.998	0.0153946
796.076	0.0153614
796.155	0.0155073
796.233	0.0154469
796.311	0.0153932
796.389	0.0154595
796.467	0.0153858
796.545	0.0154573
796.623	0.0154989
796.701	0.0154498
796.780	0.0153654
796.858	0.0155258
796.936	0.0156870
797.014	0.0154804
797.092	0.0154957
797.170	0.0155906
797.248	0.0155531
797.326	0.0156273
797.405	0.0157493
797.483	0.0157499
797.561	0.0156599
797.639	0.0157074
797.717	0.0158200
797.795	0.0156500
797.873	0.0156877
797.951	0.0156268
798.030	0.0155717
798.108	0.0155192
798.186	0.0154810
798.264	0.0155747
798.342	0.0155313
798.420	0.0154139
798.498	0.0154298
798.576	0.0154208
798.655	0.0153344
798.733	0.0154252
798.811	0.0155391
798.889	0.0153673
798.967	0.0153355
799.045	0.0154687
799.123	0.0154054
799.201	0.0153806
799.280	0.0153297
799.358	0.0152687
799.436	0.0153086
799.514	0.0154178
799.592	0.0154869
799.670	0.0151797
799.748	0.0152551
799.826	0.0154047
799.905	0.0153571
799.983	0.0154000
800.061	0.0155126
800.139	0.0153976
800.217	0.0154089
800.295	0.0153389
800.373	0.0152675
800.451	0.0153996
800.530	0.0153956
800.608	0.0153804
800.686	0.0154665
800.764	0.0153880
800.842	0.0153927
800.920	0.0153974
800.998	0.0153156
801.076	0.0153880
801.155	0.0154951
801.233	0.0153934
801.311	0.0155050
801.389	0.0155089
801.467	0.0155175
801.545	0.0155305
801.623	0.0155547
801.701	0.0155055
801.780	0.0156069
801.858	0.0155835
801.936	0.0156812
802.014	0.0156335
802.092	0.0156288
802.170	0.0155833
802.248	0.0153839
802.326	0.0155131
802.405	0.0155558
802.483	0.0155147
802.561	0.0154939
802.639	0.0155560
802.717	0.0155356
802.795	0.0155686
802.873	0.0154562
802.951	0.0155040
803.030	0.0156544
803.108	0.0156075
803.186	0.0156055
803.264	0.0155033
803.342	0.0155456
803.420	0.0156432
803.498	0.0154708
803.576	0.0155361
803.655	0.0155656
803.733	0.0155641
803.811	0.0155106
803.889	0.0155363
803.967	0.0154571
804.045	0.0154416
804.123	0.0155184
804.201	0.0155904
804.280	0.0155022
804.358	0.0155203
804.436	0.0154356
804.514	0.0154112
804.592	0.0154467
804.670	0.0152860
804.748	0.0153239
804.826	0.0153587
804.905	0.0152921
804.983	0.0154417
805.061	0.0153530
805.139	0.0152532
805.217	0.0152901
805.295	0.0153047
805.373	0.0153408
805.451	0.0152422
805.530	0.0152144
805.608	0.0153191
805.686	0.0153232
805.764	0.0152371
805.842	0.0153460
805.920	0.0152815
805.998	0.0153942
806.076	0.0151138
806.155	0.0153198
806.233	0.0153589
806.311	0.0152430
806.389	0.0152127
806.467	0.0152510
806.545	0.0151903
806.623	0.0152696
806.701	0.0152547
806.780	0.0152420
806.858	0.0153568
806.936	0.0152514
807.014	0.0153090
807.092	0.0153997
807.170	0.0153288
807.248	0.0152266
807.326	0.0152316
807.405	0.0152705
807.483	0.0155821
807.561	0.0155787
807.639	0.0154012
807.717	0.0153211
807.795	0.0153371
807.873	0.0155041
807.951	0.0156391
808.030	0.0156154
808.108	0.0155312
808.186	0.0155417
808.264	0.0156116
808.342	0.0156064
808.420	0.0154642
808.498	0.0155548
808.576	0.0154746
808.655	0.0154513
808.733	0.0155865
808.811	0.0155894
808.889	0.0154904
808.967	0.0154598
809.045	0.0156312
809.123	0.0154899
809.201	0.0154115
809.280	0.0153695
809.358	0.0153981
809.436	0.0155695
809.514	0.0156271
809.592	0.0155628
809.670	0.0155376
809.748	0.0156210
809.826	0.0155903
809.905	0.0154785
809.983	0.0153473
810.061	0.0154427
810.139	0.0153695
810.217	0.0153503
810.295	0.0154638
810.373	0.0154166
810.451	0.0154862
810.530	0.0153593
810.608	0.0152892
810.686	0.0154867
810.764	0.0153176
810.842	0.0154240
810.920	0.0152313
810.998	0.0152676
811.076	0.0152991
811.155	0.0153351
811.233	0.0151990
811.311	0.0153839
811.389	0.0154415
811.467	0.0152692
811.545	0.0152594
811.623	0.0152353
811.701	0.0151763
811.780	0.0152145
811.858	0.0154013
811.936	0.0153548
812.014	0.0152872
812.092	0.0152147
812.170	0.0153467
812.248	0.0152755
812.326	0.0153105
812.405	0.0153363
812.483	0.0152663
812.561	0.0152976
812.639	0.0152009
812.717	0.0152783
812.795	0.0153291
812.873	0.0152618
812.951	0.0152548
813.030	0.0153189
813.108	0.0153305
813.186	0.0152011
813.264	0.0154636
813.342	0.0153405
813.420	0.0153555
813.498	0.0155269
813.576	0.0152851
813.655	0.0154310
813.733	0.0153998
813.811	0.0153696
813.889	0.0154691
813.967	0.0153021
814.045	0.0153338
814.123	0.0154640
814.201	0.0154929
814.280	0.0155166
814.358	0.0153320
814.436	0.0154810
814.514	0.0153654
814.592	0.0153106
814.670	0.0153926
814.748	0.0153648
814.826	0.0154554
814.905	0.0154015
814.983	0.0153494
815.061	0.0153304
815.139	0.0154585
815.217	0.0153875
815.295	0.0154624
815.373	0.0155064
815.451	0.0154361
815.530	0.0154517
815.608	0.0154934
815.686	0.0155054
815.764	0.0154798
815.842	0.0156167
815.920	0.0153431
815.998	0.0153880
816.076	0.0154185
816.155	0.0156364
816.233	0.0154546
816.311	0.0153722
816.389	0.0153655
816.467	0.0153632
816.545	0.0155167
816.623	0.0154218
816.701	0.0152950
816.780	0.0153008
816.858	0.0154458
816.936	0.0154666
817.014	0.0152910
817.092	0.0153240
817.170	0.0153719
817.248	0.0153014
817.326	0.0154530
817.405	0.0153687
817.483	0.0154064
817.561	0.0153131
817.639	0.0153397
817.717	0.0153094
817.795	0.0154137
817.873	0.0152997
817.951	0.0153941
818.030	0.0154000
818.108	0.0154330
818.186	0.0153749
818.264	0.0153762
818.342	0.0155218
818.420	0.0153707
818.498	0.0154256
818.576	0.0155040
818.655	0.0154680
818.733	0.0154256
818.811	0.0153672
818.889	0.0153960
818.967	0.0154530
819.045	0.0154566
819.123	0.0154552
819.201	0.0154736
819.280	0.0155258
819.358	0.0154911
819.436	0.0154234
819.514	0.0154089
819.592	0.0153310
819.670	0.0154787
819.748	0.0153476
819.826	0.0154122
819.905	0.0154473
819.983	0.0154490
820.061	0.0153815
820.139	0.0154131
820.217	0.0155469
820.295	0.0154899
820.373	0.0154112
820.451	0.0156449
820.530	0.0155836
820.608	0.0155515
820.686	0.0154337
820.764	0.0154587
820.842	0.0154885
820.920	0.0153157
820.998	0.0155509
821.076	0.0154390
821.155	0.0154512
821.233	0.0154460
821.311	0.0155611
821.389	0.0155628
821.467	0.0154430
821.545	0.0155164
821.623	0.0155334
821.701	0.0155290
821.780	0.0155296
821.858	0.0155120
821.936	0.0155059
822.014	0.0155184
822.092	0.0155767
822.170	0.0154817
822.248	0.0154971
822.326	0.0154927
822.405	0.0155402
822.483	0.0155808
822.561	0.0155177
822.639	0.0153486
822.717	0.0153848
822.795	0.0153355
822.873	0.0155021
822.951	0.0156455
823.030	0.0154124
823.108	0.0156770
823.186	0.0155267
823.264	0.0154100
823.342	0.0155920
823.420	0.0155017
823.498	0.0154375
823.576	0.0155292
823.655	0.0154401
823.733	0.0154324
823.811	0.0154302
823.889	0.0152787
823.967	0.0154679
824.045	0.0154493
824.123	0.0154556
824.201	0.0153819
824.280	0.0153292
824.358	0.0153053
824.436	0.0153123
824.514	0.0153001
824.592	0.0152533
824.670	0.0155053
824.748	0.0153760
824.826	0.0152869
824.905	0.0152353
824.983	0.0153117
825.061	0.0153170
825.139	0.0152793
825.217	0.0152909
825.295	0.0153069
825.373	0.0153860
825.451	0.0153546
825.530	0.0152473
825.608	0.0153136
825.686	0.0153547
825.764	0.0153150
825.842	0.0154652
825.920	0.0153164
825.998	0.0153106
826.076	0.0152722
826.155	0.0153491
826.233	0.0154606
826.311	0.0154380
826.389	0.0154149
826.467	0.0153909
826.545	0.0153835
826.623	0.0153854
826.701	0.0154522
826.780	0.0154433
826.858	0.0155058
826.936	0.0155310
827.014	0.0154947
827.092	0.0155275
827.170	0.0154602
827.248	0.0153986
827.326	0.0156337
827.405	0.0154391
827.483	0.0154967
827.561	0.0155011
827.639	0.0155473
827.717	0.0154560
827.795	0.0153249
827.873	0.0153987
827.951	0.0154881
828.030	0.0155294
828.108	0.0155693
828.186	0.0154836
828.264	0.0155122
828.342	0.0153870
828.420	0.0154242
828.498	0.0154826
828.576	0.0153922
828.655	0.0153170
828.733	0.0154778
828.811	0.0153929
828.889	0.0153432
828.967	0.0152392
829.045	0.0152222
829.123	0.0154145
829.201	0.0152657
829.280	0.0152350
829.358	0.0152194
829.436	0.0151003
829.514	0.0153040
829.592	0.0152676
829.670	0.0151463
829.748	0.0153269
829.826	0.0152629
829.905	0.0152035
829.983	0.0152366
830.061	0.0152358
830.139	0.0151122
830.217	0.0151740
830.295	0.0153854
830.373	0.0153035
830.451	0.0150661
830.530	0.0151551
830.608	0.0151895
830.686	0.0152132
830.764	0.0151723
830.842	0.0152050
830.920	0.0151804
830.998	0.0151892
831.076	0.0153548
831.155	0.0152010
831.233	0.0152333
831.311	0.0152608
831.389	0.0153152
831.467	0.0153153
831.545	0.0152795
831.623	0.0153950
831.701	0.0155430
831.780	0.0154963
831.858	0.0153542
831.936	0.0152234
832.014	0.0153264
832.092	0.0153688
832.170	0.0155335
832.248	0.0153364
832.326	0.0154163
832.405	0.0155069
832.483	0.0153938
832.561	0.0153235
832.639	0.0154076
832.717	0.0153906
832.795	0.0154453
832.873	0.0154610
832.951	0.0154698
833.030	0.0154485
833.108	0.0153992
833.186	0.0155054
833.264	0.0154502
833.342	0.0155408
833.420	0.0154855
833.498	0.0155231
833.576	0.0155125
833.655	0.0154527
833.733	0.0156396
833.811	0.0156097
833.889	0.0154480
833.967	0.0155648
834.045	0.0154355
834.123	0.0154681
834.201	0.0155872
834.280	0.0156592
834.358	0.0157186
834.436	0.0156557
834.514	0.0156728
834.592	0.0155585
834.670	0.0156573
834.748	0.0155284
834.826	0.0154516
834.905	0.0155505
834.983	0.0157275
835.061	0.0155570
835.139	0.0156239
835.217	0.0156081
835.295	0.0156273
835.373	0.0156310
835.451	0.0155824
835.530	0.0154025
835.608	0.0155681
835.686	0.0155178
835.764	0.0155729
835.842	0.0155256
835.920	0.0154680
835.998	0.0155538
836.076	0.0155997
836.155	0.0154700
836.233	0.0156586
836.311	0.0154764
836.389	0.0154671
836.467	0.0155434
836.545	0.0155710
836.623	0.0155038
836.701	0.0155103
836.780	0.0154388
836.858	0.0153806
836.936	0.0154845
837.014	0.0156126
837.092	0.0155448
837.170	0.0155207
837.248	0.0155712
837.326	0.0154929
837.405	0.0154619
837.483	0.0155647
837.561	0.0155499
837.639	0.0156331
837.717	0.0154685
837.795	0.0155053
837.873	0.0155200
837.951	0.0156111
838.030	0.0156141
838.108	0.0156159
838.186	0.0155295
838.264	0.0155859
838.342	0.0155123
838.420	0.0156304
838.498	0.0156855
838.576	0.0156144
838.655	0.0155027
838.733	0.0153968
838.811	0.0154501
838.889	0.0154937
838.967	0.0156106
839.045	0.0155421
839.123	0.0155336
839.201	0.0154725
839.280	0.0154067
839.358	0.0154888
839.436	0.0156168
839.514	0.0155717
839.592	0.0154550
839.670	0.0155048
839.748	0.0154814
839.826	0.0156689
839.905	0.0155642
839.983	0.0155013
840.061	0.0153738
840.139	0.0153359
840.217	0.0154986
840.295	0.0153338
840.373	0.0153208
840.451	0.0152825
840.530	0.0154339
840.608	0.0154781
840.686	0.0153136
840.764	0.0153188
840.842	0.0153584
840.920	0.0154912
840.998	0.0152413
841.076	0.0152687
841.155	0.0153439
841.233	0.0153856
841.311	0.0153751
841.389	0.0153387
841.467	0.0153272
841.545	0.0153589
841.623	0.0154187
841.701	0.0152808
841.780	0.0153315
841.858	0.0154633
841.936	0.0153197
842.014	0.0154571
842.092	0.0154131
842.170	0.0153551
842.248	0.0154135
842.326	0.0154030
842.405	0.0154335
842.483	0.0154737
842.561	0.0155986
842.639	0.0155431
842.717	0.0155393
842.795	0.0154869
842.873	0.0156084
842.951	0.0155008
843.030	0.0153460
843.108	0.0156359
843.186	0.0155618
843.264	0.0155195
843.342	0.0155878
843.420	0.0155622
843.498	0.0154028
843.576	0.0156459
843.655	0.0155352
843.733	0.0155576
843.811	0.0155235
843.889	0.0155045
843.967	0.0156010
844.045	0.0155112
844.123	0.0154109
844.201	0.0154218
844.280	0.0155431
844.358	0.0154020
844.436	0.0155965
844.514	0.0154380
844.592	0.0154541
844.670	0.0154434
844.748	0.0154115
844.826	0.0154089
844.905	0.0154560
844.983	0.0154156
845.061	0.0154427
845.139	0.0153986
845.217	0.0154464
845.295	0.0155874
845.373	0.0154822
845.451	0.0153104
845.530	0.0154333
845.608	0.0155997
845.686	0.0154830
845.764	0.0154531
845.842	0.0154638
845.920	0.0153051
845.998	0.0155749
846.076	0.0154485
846.155	0.0154216
846.233	0.0153798
846.311	0.0152942
846.389	0.0154270
846.467	0.0152472
846.545	0.0154462
846.623	0.0154604
846.701	0.0153613
846.780	0.0154666
846.858	0.0154010
846.936	0.0154384
847.014	0.0154630
847.092	0.0155080
847.170	0.0153914
847.248	0.0154782
847.326	0.0155070
847.405	0.0154286
847.483	0.0154352
847.561	0.0155052
847.639	0.0155017
847.717	0.0153983
847.795	0.0155323
847.873	0.0155307
847.951	0.0154674
848.030	0.0155177
848.108	0.0153769
848.186	0.0153894
848.264	0.0155054
848.342	0.0154189
848.420	0.0155260
848.498	0.0155350
848.576	0.0154187
848.655	0.0155925
848.733	0.0155102
848.811	0.0154364
848.889	0.0154011
848.967	0.0155536
849.045	0.0155818
849.123	0.0154744
849.201	0.0153959
849.280	0.0153174
849.358	0.0153248
849.436	0.0154069
849.514	0.0153741
849.592	0.0153629
849.670	0.0153140
849.748	0.0153180
849.826	0.0153165
849.905	0.0154678
849.983	0.0153189
850.061	0.0154536
850.139	0.0154578
850.217	0.0152364
850.295	0.0152692
850.373	0.0152818
850.451	0.0154198
850.530	0.0154305
850.608	0.0153596
850.686	0.0153951
850.764	0.0154132
850.842	0.0154365
850.920	0.0154448
850.998	0.0154209
851.076	0.0154744
851.155	0.0155141
851.233	0.0154506
851.311	0.0154697
851.389	0.0155204
851.467	0.0154148
851.545	0.0155202
851.623	0.0155134
851.701	0.0155347
851.780	0.0155535
851.858	0.0154501
851.936	0.0154374
852.014	0.0154105
852.092	0.0155500
852.170	0.0155370
852.248	0.0155359
852.326	0.0156453
852.405	0.0154189
852.483	0.0154988
852.561	0.0154726
852.639	0.0154959
852.717	0.0154178
852.795	0.0155757
852.873	0.0155229
852.951	0.0154770
853.030	0.0154415
853.108	0.0154011
853.186	0.0154701
853.264	0.0153981
853.342	0.0154700
853.420	0.0154613
853.498	0.0153609
853.576	0.0154647
853.655	0.0154903
853.733	0.0154433
853.811	0.0155489
853.889	0.0153782
853.967	0.0152632
854.045	0.0153327
854.123	0.0154850
854.201	0.0153529
854.280	0.0152705
854.358	0.0153611
854.436	0.0154034
854.514	0.0153321
854.592	0.0153168
854.670	0.0154122
854.748	0.0152531
854.826	0.0152785
854.905	0.0153325
854.983	0.0152058
855.061	0.0153087
855.139	0.0152793
855.217	0.0152174
855.295	0.0153872
855.373	0.0154622
855.451	0.0154356
855.530	0.0153741
855.608	0.0153446
855.686	0.0155392
855.764	0.0153127
855.842	0.0152252
855.920	0.0154301
855.998	0.0154540
856.076	0.0152657
856.155	0.0152133
856.233	0.0152634
856.311	0.0152716
856.389	0.0154697
856.467	0.0153135
856.545	0.0153379
856.623	0.0153704
856.701	0.0153059
856.780	0.0153568
856.858	0.0153881
856.936	0.0153808
857.014	0.0152981
857.092	0.0154533
857.170	0.0154500
857.248	0.0154317
857.326	0.0154916
857.405	0.0154914
857.483	0.0154353
857.561	0.0153515
857.639	0.0154604
857.717	0.0153916
857.795	0.0154899
857.873	0.0155422
857.951	0.0153131
858.030	0.0153846
858.108	0.0152917
858.186	0.0153339
858.264	0.0153092
858.342	0.0152104
858.420	0.0153712
858.498	0.0153405
858.576	0.0153998
858.655	0.0152197
858.733	0.0152816
858.811	0.0154910
858.889	0.0153452
858.967	0.0154272
859.045	0.0154537
859.123	0.0152950
859.201	0.0153900
859.280	0.0153699
859.358	0.0154804
859.436	0.0154384
859.514	0.0153344
859.592	0.0152825
859.670	0.0155266
859.748	0.0154587
859.826	0.0154199
859.905	0.0154616
859.983	0.0154762
860.061	0.0154695
860.139	0.0153663
860.217	0.0153399
860.295	0.0153545
860.373	0.0154243
860.451	0.0153635
860.530	0.0153693
860.608	0.0154306
860.686	0.0153674
860.764	0.0154559
860.842	0.0153677
860.920	0.0154311
860.998	0.0153430
861.076	0.0153767
861.155	0.0152937
861.233	0.0155741
861.311	0.0154366
861.389	0.0153962
861.467	0.0153752
861.545	0.0153818
861.623	0.0154354
861.701	0.0153790
861.780	0.0153324
861.858	0.0154852
861.936	0.0153812
862.014	0.0155518
862.092	0.0155014
862.170	0.0154070
862.248	0.0154841
862.326	0.0154420
862.405	0.0154527
862.483	0.0154439
862.561	0.0155262
862.639	0.0154832
862.717	0.0155092
862.795	0.0155167
862.873	0.0154154
862.951	0.0155197
863.030	0.0153394
863.108	0.0153748
863.186	0.0154384
863.264	0.0154299
863.342	0.0154267
863.420	0.0153178
863.498	0.0154165
863.576	0.0156036
863.655	0.0154891
863.733	0.0154575
863.811	0.0153993
863.889	0.0154225
863.967	0.0155352
864.045	0.0154514
864.123	0.0154933
864.201	0.0154861
864.280	0.0155561
864.358	0.0154858
864.436	0.0154781
864.514	0.0156434
864.592	0.0155817
864.670	0.0155305
864.748	0.0156015
864.826	0.0156313
864.905	0.0155424
864.983	0.0154562
865.061	0.0155133
865.139	0.0156911
865.217	0.0155157
865.295	0.0155527
865.373	0.0155544
865.451	0.0154934
865.530	0.0154250
865.608	0.0155118
865.686	0.0155523
865.764	0.0156790
865.842	0.0155862
865.920	0.0155425
865.998	0.0155363
866.076	0.0153541
866.155	0.0154259
866.233	0.0155884
866.311	0.0155701
866.389	0.0155930
866.467	0.0155951
866.545	0.0156083
866.623	0.0156263
866.701	0.0155828
866.780	0.0155573
866.858	0.0155075
866.936	0.0155626
867.014	0.0155360
867.092	0.0155640
867.170	0.0154890
867.248	0.0154926
867.326	0.0156496
867.405	0.0154155
867.483	0.0154268
867.561	0.0155733
867.639	0.0156061
867.717	0.0153928
867.795	0.0154983
867.873	0.0154979
867.951	0.0153945
868.030	0.0155143
868.108	0.0153313
868.186	0.0153500
868.264	0.0153492
868.342	0.0154109
868.420	0.0154928
868.498	0.0154380
868.576	0.0155022
868.655	0.0154645
868.733	0.0153485
868.811	0.0153666
868.889	0.0153438
868.967	0.0154943
869.045	0.0155172
869.123	0.0154258
869.201	0.0153845
869.280	0.0152738
869.358	0.0155909
869.436	0.0154510
869.514	0.0153603
869.592	0.0153964
869.670	0.0155294
869.748	0.0152899
869.826	0.0153838
869.905	0.0154398
869.983	0.0154919
870.061	0.0154037
870.139	0.0154138
870.217	0.0153045
870.295	0.0154086
870.373	0.0154626
870.451	0.0153545
870.530	0.0154353
870.608	0.0155035
870.686	0.0153342
870.764	0.0154738
870.842	0.0155964
870.920	0.0155306
870.998	0.0154159
871.076	0.0154829
871.155	0.0154890
871.233	0.0156716
871.311	0.0154938
871.389	0.0152584
871.467	0.0155623
871.545	0.0156210
871.623	0.0155347
871.701	0.0154473
871.780	0.0155573
871.858	0.0154235
871.936	0.0153371
872.014	0.0154759
872.092	0.0154356
872.170	0.0154430
872.248	0.0155449
872.326	0.0153954
872.405	0.0154475
872.483	0.0155463
872.561	0.0154733
872.639	0.0154279
872.717	0.0154623
872.795	0.0155617
872.873	0.0155287
872.951	0.0155548
873.030	0.0155033
873.108	0.0156078
873.186	0.0154908
873.264	0.0154430
873.342	0.0155365
873.420	0.0155283
873.498	0.0155887
873.576	0.0156322
873.655	0.0157130
873.733	0.0156006
873.811	0.0155126
873.889	0.0157233
873.967	0.0156624
874.045	0.0155916
874.123	0.0156421
874.201	0.0156609
874.280	0.0158274
874.358	0.0156361
874.436	0.0155486
874.514	0.0155390
874.592	0.0155344
874.670	0.0156969
874.748	0.0156098
874.826	0.0155650
874.905	0.0156316
874.983	0.0156189
875.061	0.0156179
875.139	0.0154144
875.217	0.0155243
875.295	0.0156326
875.373	0.0154592
875.451	0.0154537
875.530	0.0155128
875.608	0.0155968
875.686	0.0155879
875.764	0.0154961
875.842	0.0153819
875.920	0.0154037
875.998	0.0154847
876.076	0.0154552
876.155	0.0154820
876.233	0.0154769
876.311	0.0153942
876.389	0.0154325
876.467	0.0154443
876.545	0.0154807
876.623	0.0153458
876.701	0.0154916
876.780	0.0153877
876.858	0.0154214
876.936	0.0154699
877.014	0.0153854
877.092	0.0154808
877.170	0.0154161
877.248	0.0154323
877.326	0.0155413
877.405	0.0154815
877.483	0.0153163
877.561	0.0155253
877.639	0.0155247
877.717	0.0153834
877.795	0.0154361
877.873	0.0153965
877.951	0.0153454
878.030	0.0154254
878.108	0.0154192
878.186	0.0154942
878.264	0.0154803
878.342	0.0155670
878.420	0.0154241
878.498	0.0154323
878.576	0.0153343
878.655	0.0154430
878.733	0.0154419
878.811	0.0154320
878.889	0.0155695
878.967	0.0155007
879.045	0.0153949
879.123	0.0154866
879.201	0.0154078
879.280	0.0153382
879.358	0.0153390
879.436	0.0154220
879.514	0.0154368
879.592	0.0154047
879.670	0.0153612
879.748	0.0153452
879.826	0.0152496
879.905	0.0153986
879.983	0.0153493
880.061	0.0154321
880.139	0.0154841
880.217	0.0153318
880.295	0.0153819
880.373	0.0154621
880.451	0.0152471
880.530	0.0153870
880.608	0.0154606
880.686	0.0153864
880.764	0.0153059
880.842	0.0152943
880.920	0.0153211
880.998	0.0154211
881.076	0.0154694
881.155	0.0153943
881.233	0.0154500
881.311	0.0153645
881.389	0.0154548
881.467	0.0153925
881.545	0.0152246
881.623	0.0152290
881.701	0.0153161
881.780	0.0153859
881.858	0.0153655
881.936	0.0154267
882.014	0.0153382
882.092	0.0154792
882.170	0.0154584
882.248	0.0154103
882.326	0.0154381
882.405	0.0153967
882.483	0.0155213
882.561	0.0154265
882.639	0.0155122
882.717	0.0155021
882.795	0.0154458
882.873	0.0155128
882.951	0.0154977
883.030	0.0154414
883.108	0.0154874
883.186	0.0155078
883.264	0.0156807
883.342	0.0154981
883.420	0.0155647
883.498	0.0155241
883.576	0.0155796
883.655	0.0155960
883.733	0.0154486
883.811	0.0155747
883.889	0.0155154
883.967	0.0154944
884.045	0.0155526
884.123	0.0154783
884.201	0.0154649
884.280	0.0155951
884.358	0.0156564
884.436	0.0154649
884.514	0.0155456
884.592	0.0154510
884.670	0.0154714
884.748	0.0154691
884.826	0.0154362
884.905	0.0155146
884.983	0.0153973
885.061	0.0155108
885.139	0.0154412
885.217	0.0155319
885.295	0.0155170
885.373	0.0155331
885.451	0.0156120
885.530	0.0155048
885.608	0.0153640
885.686	0.0154299
885.764	0.0154350
885.842	0.0155573
885.920	0.0154565
885.998	0.0154987
886.076	0.0153854
886.155	0.0154530
886.233	0.0154929
886.311	0.0154957
886.389	0.0154042
886.467	0.0151774
886.545	0.0154771
886.623	0.0153654
886.701	0.0153128
886.780	0.0154371
886.858	0.0153192
886.936	0.0154419
887.014	0.0154620
887.092	0.0153751
887.170	0.0153771
887.248	0.0155219
887.326	0.0154329
887.405	0.0154195
887.483	0.0154505
887.561	0.0155318
887.639	0.0154971
887.717	0.0155094
887.795	0.0155585
887.873	0.0155202
887.951	0.0154140
888.030	0.0154614
888.108	0.0153757
888.186	0.0153661
888.264	0.0154990
888.342	0.0155222
888.420	0.0155058
888.498	0.0154488
888.576	0.0154503
888.655	0.0156493
888.733	0.0154181
888.811	0.0155244
888.889	0.0154845
888.967	0.0153951
889.045	0.0153801
889.123	0.0155855
889.201	0.0155894
889.280	0.0156652
889.358	0.0154366
889.436	0.0153728
889.514	0.0156110
889.592	0.0153399
889.670	0.0154863
889.748	0.0153078
889.826	0.0154189
889.905	0.0154737
889.983	0.0153876
890.061	0.0153039
890.139	0.0154282
890.217	0.0153985
890.295	0.0152838
890.373	0.0153670
890.451	0.0154418
890.530	0.0152808
890.608	0.0153057
890.686	0.0153736
890.764	0.0153511
890.842	0.0153933
890.920	0.0153387
890.998	0.0154476
891.076	0.0153586
891.155	0.0153143
891.233	0.0154449
891.311	0.0154012
891.389	0.0153665
891.467	0.0153534
891.545	0.0153292
891.623	0.0153703
891.701	0.0153600
891.780	0.0152478
891.858	0.0154138
891.936	0.0154027
892.014	0.0152856
892.092	0.0154057
892.170	0.0152819
892.248	0.0154314
892.326	0.0154077
892.405	0.0154468
892.483	0.0154189
892.561	0.0153268
892.639	0.0153340
892.717	0.0154837
892.795	0.0153368
892.873	0.0153646
892.951	0.0154443
893.030	0.0153279
893.108	0.0153796
893.186	0.0154426
893.264	0.0153719
893.342	0.0152854
893.420	0.0154346
893.498	0.0155018
893.576	0.0153979
893.655	0.0154591
893.733	0.0152534
893.811	0.0153787
893.889	0.0153281
893.967	0.0154282
894.045	0.0154974
894.123	0.0154631
894.201	0.0154063
894.280	0.0153386
894.358	0.0153777
894.436	0.0153618
894.514	0.0155047
894.592	0.0154182
894.670	0.0153470
894.748	0.0154091
894.826	0.0154453
894.905	0.0155642
894.983	0.0154527
895.061	0.0155399
895.139	0.0154962
895.217	0.0155767
895.295	0.0156448
895.373	0.0156606
895.451	0.0156255
895.530	0.0156427
895.608	0.0154969
895.686	0.0154179
895.764	0.0155139
895.842	0.0156992
895.920	0.0157050
895.998	0.0155766
896.076	0.0156025
896.155	0.0157088
896.233	0.0156059
896.311	0.0156618
896.389	0.0155784
896.467	0.0155490
896.545	0.0156435
896.623	0.0156982
896.701	0.0155814
896.780	0.0155228
896.858	0.0154119
896.936	0.0153999
897.014	0.0155497
897.092	0.0155657
897.170	0.0155377
897.248	0.0153308
897.326	0.0155012
897.405	0.0153759
897.483	0.0153103
897.561	0.0153600
897.639	0.0153754
897.717	0.0155781
897.795	0.0154611
897.873	0.0154321
897.951	0.0155607
898.030	0.0154144
898.108	0.0154645
898.186	0.0155412
898.264	0.0154756
898.342	0.0151843
898.420	0.0155164
898.498	0.0154547
898.576	0.0154593
898.655	0.0154146
898.733	0.0154839
898.811	0.0155172
898.889	0.0154771
898.967	0.0153630
899.045	0.0153514
899.123	0.0154677
899.201	0.0154736
899.280	0.0154609
899.358	0.0153490
899.436	0.0155357
899.514	0.0153336
899.592	0.0153661
899.670	0.0155420
899.748	0.0154726
899.826	0.0154450
899.905	0.0153636
899.983	0.0154552
900.061	0.0153558
900.139	0.0153635
900.217	0.0154633
900.295	0.0154330
900.373	0.0154525
900.451	0.0154473
900.530	0.0154764
900.608	0.0154073
900.686	0.0155293
900.764	0.0153030
900.842	0.0154677
900.920	0.0153947
900.998	0.0153179
901.076	0.0154374
901.155	0.0153510
901.233	0.0154183
901.311	0.0155779
901.389	0.0153859
901.467	0.0153198
901.545	0.0155993
901.623	0.0152013
901.701	0.0152691
901.780	0.0154822
901.858	0.0154768
901.936	0.0155102
902.014	0.0154033
902.092	0.0154769
902.170	0.0154587
902.248	0.0154072
902.326	0.0153257
902.405	0.0153395
902.483	0.0153586
902.561	0.0154622
902.639	0.0152425
902.717	0.0153496
902.795	0.0154090
902.873	0.0153215
902.951	0.0155100
903.030	0.0153305
903.108	0.0152955
903.186	0.0153397
903.264	0.0152487
903.342	0.0152381
903.420	0.0151144
903.498	0.0151805
903.576	0.0152548
903.655	0.0153611
903.733	0.0152150
903.811	0.0153365
903.889	0.0152717
903.967	0.0152515
904.045	0.0152715
904.123	0.0152305
904.201	0.0152916
904.280	0.0153085
904.358	0.0152798
904.436	0.0153642
904.514	0.0152364
904.592	0.0153506
904.670	0.0152608
904.748	0.0152190
904.826	0.0154240
904.905	0.0153711
904.983	0.0153434
905.061	0.0152663
905.139	0.0152372
905.217	0.0153746
905.295	0.0153701
905.373	0.0153038
905.451	0.0152090
905.530	0.0153184
905.608	0.0152635
905.686	0.0152687
905.764	0.0152300
905.842	0.0153491
905.920	0.0153990
905.998	0.0153951
906.076	0.0154089
906.155	0.0153395
906.233	0.0153072
906.311	0.0152467
906.389	0.0154375
906.467	0.0152545
906.545	0.0154327
906.623	0.0154518
906.701	0.0153837
906.780	0.0154185
906.858	0.0155318
906.936	0.0155218
907.014	0.0153334
907.092	0.0154864
907.170	0.0155059
907.248	0.0154094
907.326	0.0155263
907.405	0.0153801
907.483	0.0154156
907.561	0.0155006
907.639	0.0154144
907.717	0.0153980
907.795	0.0152482
907.873	0.0153609
907.951	0.0154359
908.030	0.0154027
908.108	0.0152563
908.186	0.0152926
908.264	0.0152143
908.342	0.0154605
908.420	0.0152962
908.498	0.0153979
908.576	0.0153949
908.655	0.0153496
908.733	0.0153693
908.811	0.0153025
908.889	0.0153447
908.967	0.0153806
909.045	0.0153935
909.123	0.0154238
909.201	0.0153655
909.280	0.0154478
909.358	0.0154333
909.436	0.0154059
909.514	0.0154431
909.592	0.0156184
909.670	0.0155043
909.748	0.0154471
909.826	0.0154417
909.905	0.0155219
909.983	0.0154471
910.061	0.0154250
910.139	0.0154156
910.217	0.0154464
910.295	0.0154537
910.373	0.0153851
910.451	0.0155611
910.530	0.0154926
910.608	0.0155305
910.686	0.0155499
910.764	0.0155887
910.842	0.0154662
910.920	0.0153436
910.998	0.0154921
911.076	0.0154578
911.155	0.0154153
911.233	0.0153929
911.311	0.0154906
911.389	0.0154166
911.467	0.0155162
911.545	0.0152962
911.623	0.0154701
911.701	0.0153498
911.780	0.0154589
911.858	0.0153336
911.936	0.0153531
912.014	0.0153731
912.092	0.0153119
912.170	0.0154347
912.248	0.0153640
912.326	0.0152380
912.405	0.0152433
912.483	0.0152480
912.561	0.0153401
912.639	0.0154237
912.717	0.0153560
912.795	0.0153510
912.873	0.0153366
912.951	0.0153707
913.030	0.0152938
913.108	0.0153524
913.186	0.0153329
913.264	0.0152412
913.342	0.0152979
913.420	0.0152456
913.498	0.0154092
913.576	0.0151955
913.655	0.0152322
913.733	0.0153315
913.811	0.0152674
913.889	0.0153161
913.967	0.0152970
914.045	0.0153349
914.123	0.0153959
914.201	0.0153440
914.280	0.0153136
914.358	0.0153751
914.436	0.0152776
914.514	0.0152796
914.592	0.0154700
914.670	0.0155440
914.748	0.0153274
914.826	0.0153264
914.905	0.0153899
914.983	0.0154124
915.061	0.0153607
915.139	0.0153571
915.217	0.0154980
915.295	0.0153687
915.373	0.0154061
915.451	0.0153967
915.530	0.0155284
915.608	0.0155349
915.686	0.0154273
915.764	0.0155999
915.842	0.0154602
915.920	0.0154230
915.998	0.0155130
916.076	0.0155198
916.155	0.0153387
916.233	0.0153015
916.311	0.0153793
916.389	0.0154041
916.467	0.0153014
916.545	0.0154132
916.623	0.0154488
916.701	0.0153781
916.780	0.0155299
916.858	0.0154441
916.936	0.0154961
917.014	0.0154707
917.092	0.0155284
917.170	0.0156280
917.248	0.0153590
917.326	0.0154056
917.405	0.0154237
917.483	0.0155321
917.561	0.0154774
917.639	0.0154475
917.717	0.0155417
917.795	0.0155007
917.873	0.0155147
917.951	0.0154184
918.030	0.0155123
918.108	0.0156402
918.186	0.0155053
918.264	0.0155384
918.342	0.0153832
918.420	0.0154896
918.498	0.0154942
918.576	0.0153764
918.655	0.0154697
918.733	0.0152901
918.811	0.0155318
918.889	0.0154770
918.967	0.0153923
919.045	0.0152581
919.123	0.0153764
919.201	0.0153636
919.280	0.0155334
919.358	0.0153430
919.436	0.0152635
919.514	0.0153723
919.592	0.0153236
919.670	0.0152884
919.748	0.0153577
919.826	0.0153310
919.905	0.0153837
919.983	0.0153075
920.061	0.0151960
920.139	0.0152744
920.217	0.0152850
920.295	0.0152744
920.373	0.0152486
920.451	0.0151221
920.530	0.0152205
920.608	0.0153085
920.686	0.0152670
920.764	0.0151559
920.842	0.0151816
920.920	0.0151401
920.998	0.0152376
921.076	0.0152563
921.155	0.0152374
921.233	0.0153000
921.311	0.0151850
921.389	0.0152969
921.467	0.0152107
921.545	0.0153722
921.623	0.0153292
921.701	0.0152685
921.780	0.0153661
921.858	0.0154566
921.936	0.0152995
922.014	0.0153136
922.092	0.0153907
922.170	0.0154180
922.248	0.0154527
922.326	0.0154729
922.405	0.0154420
922.483	0.0154015
922.561	0.0153471
922.639	0.0153361
922.717	0.0154096
922.795	0.0153900
922.873	0.0153490
922.951	0.0153708
923.030	0.0154234
923.108	0.0154548
923.186	0.0153935
923.264	0.0154507
923.342	0.0155566
923.420	0.0153371
923.498	0.0154311
923.576	0.0154703
923.655	0.0154152
923.733	0.0154198
923.811	0.0154714
923.889	0.0153247
923.967	0.0153484
924.045	0.0153927
924.123	0.0154173
924.201	0.0154980
924.280	0.0154380
924.358	0.0153659
924.436	0.0153323
924.514	0.0154849
924.592	0.0155049
924.670	0.0154559
924.748	0.0152586
924.826	0.0153802
924.905	0.0154915
924.983	0.0154359
925.061	0.0154214
925.139	0.0154808
925.217	0.0155291
925.295	0.0154462
925.373	0.0153905
925.451	0.0155154
925.530	0.0154237
925.608	0.0154993
925.686	0.0155249
925.764	0.0155911
925.842	0.0155620
925.920	0.0154930
925.998	0.0154395
926.076	0.0154424
926.155	0.0155434
926.233	0.0156091
926.311	0.0155025
926.389	0.0155038
926.467	0.0155479
926.545	0.0153945
926.623	0.0154231
926.701	0.0153777
926.780	0.0154849
926.858	0.0154051
926.936	0.0154840
927.014	0.0154163
927.092	0.0153735
927.170	0.0154443
927.248	0.0154940
927.326	0.0155291
927.405	0.0154750
927.483	0.0153806
927.561	0.0152523
927.639	0.0154642
927.717	0.0155143
927.795	0.0155377
927.873	0.0155242
927.951	0.0154788
928.030	0.0154328
928.108	0.0154131
928.186	0.0154488
928.264	0.0156013
928.342	0.0155492
928.420	0.0155142
928.498	0.0154867
928.576	0.0155077
928.655	0.0155904
928.733	0.0154034
928.811	0.0154394
928.889	0.0154559
928.967	0.0156935
929.045	0.0154850
929.123	0.0155456
929.201	0.0155085
929.280	0.0155713
929.358	0.0154845
929.436	0.0154018
929.514	0.0154835
929.592	0.0154794
929.670	0.0154993
929.748	0.0155699
929.826	0.0155611
929.905	0.0157010
929.983	0.0155183
930.061	0.0156100
930.139	0.0156074
930.217	0.0156506
930.295	0.0155101
930.373	0.0156442
930.451	0.0156390
930.530	0.0156463
930.608	0.0156046
930.686	0.0155198
930.764	0.0156332
930.842	0.0155801
930.920	0.0155975
930.998	0.0155534
931.076	0.0156287
931.155	0.0155084
931.233	0.0153680
931.311	0.0156475
931.389	0.0154717
931.467	0.0154424
931.545	0.0156883
931.623	0.0155582
931.701	0.0156088
931.780	0.0154092
931.858	0.0155508
931.936	0.0155817
932.014	0.0154716
932.092	0.0154279
932.170	0.0154240
932.248	0.0154625
932.326	0.0154483
932.405	0.0154377
932.483	0.0153889
932.561	0.0154507
932.639	0.0154924
932.717	0.0154013
932.795	0.0153425
932.873	0.0153500
932.951	0.0154542
933.030	0.0152837
933.108	0.0154372
933.186	0.0151625
933.264	0.0151831
933.342	0.0152077
933.420	0.0154423
933.498	0.0154716
933.576	0.0152172
933.655	0.0153287
933.733	0.0153420
933.811	0.0153373
933.889	0.0153574
933.967	0.0153304
934.045	0.0153052
934.123	0.0152706
934.201	0.0153222
934.280	0.0152753
934.358	0.0152392
934.436	0.0152039
934.514	0.0154105
934.592	0.0151880
934.670	0.0151839
934.748	0.0153253
934.826	0.0152782
934.905	0.0151914
934.983	0.0151972
935.061	0.0152660
935.139	0.0152391
935.217	0.0153113
935.295	0.0153255
935.373	0.0152463
935.451	0.0154394
935.530	0.0153419
935.608	0.0152869
935.686	0.0153063
935.764	0.0154150
935.842	0.0152079
935.920	0.0152055
935.998	0.0152699
936.076	0.0152515
936.155	0.0152969
936.233	0.0153198
936.311	0.0152917
936.389	0.0153134
936.467	0.0152879
936.545	0.0154900
936.623	0.0154194
936.701	0.0152834
936.780	0.0154471
936.858	0.0153139
936.936	0.0152023
937.014	0.0154357
937.092	0.0152884
937.170	0.0151965
937.248	0.0153278
937.326	0.0153613
937.405	0.0154236
937.483	0.0153412
937.561	0.0154630
937.639	0.0154711
937.717	0.0153575
937.795	0.0153648
937.873	0.0154319
937.951	0.0155285
938.030	0.0154870
938.108	0.0156025
938.186	0.0155293
938.264	0.0154367
938.342	0.0155047
938.420	0.0155000
938.498	0.0155099
938.576	0.0154517
938.655	0.0155725
938.733	0.0155292
938.811	0.0155569
938.889	0.0153304
938.967	0.0154512
939.045	0.0156322
939.123	0.0155110
939.201	0.0153834
939.280	0.0155066
939.358	0.0156813
939.436	0.0155604
939.514	0.0154063
939.592	0.0154613
939.670	0.0156645
939.748	0.0155309
939.826	0.0155696
939.905	0.0155641
939.983	0.0155994
940.061	0.0155185
940.139	0.0156693
940.217	0.0156304
940.295	0.0156160
940.373	0.0155268
940.451	0.0157271
940.530	0.0154960
940.608	0.0155412
940.686	0.0155811
940.764	0.0155899
940.842	0.0155835
940.920	0.0154781
940.998	0.0156795
941.076	0.0157282
941.155	0.0155918
941.233	0.0155316
941.311	0.0156609
941.389	0.0157465
941.467	0.0156552
941.545	0.0156248
941.623	0.0156366
941.701	0.0155309
941.780	0.0155672
941.858	0.0156490
941.936	0.0155726
942.014	0.0156082
942.092	0.0155327
942.170	0.0155408
942.248	0.0155424
942.326	0.0154945
942.405	0.0155109
942.483	0.0154713
942.561	0.0154730
942.639	0.0155834
942.717	0.0155457
942.795	0.0155208
942.873	0.0154808
942.951	0.0154614
943.030	0.0155936
943.108	0.0154746
943.186	0.0155297
943.264	0.0154792
943.342	0.0154558
943.420	0.0154549
943.498	0.0154886
943.576	0.0153905
943.655	0.0155273
943.733	0.0154768
943.811	0.0155259
943.889	0.0153783
943.967	0.0154617
944.045	0.0155170
944.123	0.0154199
944.201	0.0153422
944.280	0.0154794
944.358	0.0153832
944.436	0.0153719
944.514	0.0153746
944.592	0.0153891
944.670	0.0154195
944.748	0.0154932
944.826	0.0154516
944.905	0.0154585
944.983	0.0155089
945.061	0.0153821
945.139	0.0154876
945.217	0.0155646
945.295	0.0154817
945.373	0.0153595
945.451	0.0154365
945.530	0.0155708
945.608	0.0155250
945.686	0.0156316
945.764	0.0154807
945.842	0.0155876
945.920	0.0156289
945.998	0.0156005
946.076	0.0156256
946.155	0.0155621
946.233	0.0154426
946.311	0.0154725
946.389	0.0156866
946.467	0.0155344
946.545	0.0156518
946.623	0.0155385
946.701	0.0154453
946.780	0.0154293
946.858	0.0156007
946.936	0.0155433
947.014	0.0155197
947.092	0.0155040
947.170	0.0154461
947.248	0.0155272
947.326	0.0154496
947.405	0.0154494
947.483	0.0154681
947.561	0.0154539
947.639	0.0155041
947.717	0.0154704
947.795	0.0154884
947.873	0.0154747
947.951	0.0153617
948.030	0.0154878
948.108	0.0156018
948.186	0.0153782
948.264	0.0154674
948.342	0.0156450
948.420	0.0154108
948.498	0.0155225
948.576	0.0155127
948.655	0.0155325
948.733	0.0154523
948.811	0.0155847
948.889	0.0155672
948.967	0.0154800
949.045	0.0154513
949.123	0.0155563
949.201	0.0155419
949.280	0.0154430
949.358	0.0155570
949.436	0.0154449
949.514	0.0156377
949.592	0.0155077
949.670	0.0155550
949.748	0.0155184
949.826	0.0155153
949.905	0.0155952
949.983	0.0155603
950.061	0.0155959
950.139	0.0155673
950.217	0.0155840
950.295	0.0155574
950.373	0.0156852
950.451	0.0156297
950.530	0.0155925
950.608	0.0155970
950.686	0.0155961
950.764	0.0155913
950.842	0.0156071
950.920	0.0156131
950.998	0.0155559
951.076	0.0155436
951.155	0.0156277
951.233	0.0155715
951.311	0.0155822
951.389	0.0156609
951.467	0.0157238
951.545	0.0155486
951.623	0.0154466
951.701	0.0155770
951.780	0.0154378
951.858	0.0154936
951.936	0.0154760
952.014	0.0155231
952.092	0.0154030
952.170	0.0154573
952.248	0.0154656
952.326	0.0153921
952.405	0.0154866
952.483	0.0154420
952.561	0.0153877
952.639	0.0154261
952.717	0.0153978
952.795	0.0154462
952.873	0.0155875
952.951	0.0155107
953.030	0.0155443
953.108	0.0154994
953.186	0.0154576
953.264	0.0154015
953.342	0.0153915
953.420	0.0155593
953.498	0.0157029
953.576	0.0153561
953.655	0.0154609
953.733	0.0154581
953.811	0.0153783
953.889	0.0155428
953.967	0.0153487
954.045	0.0154256
954.123	0.0154936
954.201	0.0155212
954.280	0.0154510
954.358	0.0154587
954.436	0.0154858
954.514	0.0154967
954.592	0.0155563
954.670	0.0153925
954.748	0.0155814
954.826	0.0156272
954.905	0.0154783
954.983	0.0156754
955.061	0.0157318
955.139	0.0155315
955.217	0.0154851
955.295	0.0156023
955.373	0.0154547
955.451	0.0155936
955.530	0.0155495
955.608	0.0156431
955.686	0.0154447
955.764	0.0155488
955.842	0.0156035
955.920	0.0153854
955.998	0.0153394
956.076	0.0152520
956.155	0.0152888
956.233	0.0154413
956.311	0.0154153
956.389	0.0153009
956.467	0.0153586
956.545	0.0153694
956.623	0.0153472
956.701	0.0153245
956.780	0.0152396
956.858	0.0153270
956.936	0.0154296
957.014	0.0154288
957.092	0.0151379
957.170	0.0153278
957.248	0.0153291
957.326	0.0152950
957.405	0.0152730
957.483	0.0152461
957.561	0.0153700
957.639	0.0153975
957.717	0.0153635
957.795	0.0153178
957.873	0.0153527
957.951	0.0154204
958.030	0.0153646
958.108	0.0153127
958.186	0.0153187
958.264	0.0152818
958.342	0.0154260
958.420	0.0153894
958.498	0.0154586
958.576	0.0153568
958.655	0.0154204
958.733	0.0155178
958.811	0.0154321
958.889	0.0153575
958.967	0.0154295
959.045	0.0154289
959.123	0.0155100
959.201	0.0154951
959.280	0.0153684
959.358	0.0154816
959.436	0.0153904
959.514	0.0155810
959.592	0.0155440
959.670	0.0154316
959.748	0.0155283
959.826	0.0155350
959.905	0.0155309
