05/20/2022	16:08:36	Ver.	4.1	UNKNOWN
Optical Delay	639.989416	Delta X		0.078125	Sweeps	1	Scan Rate	0/0
Coordinates	Axis 1	NaN	Axis 2	NaN	Axis 3	NaN	Axis 4	NaN	Axis 5	NaN	Axis 6	0.000000
TX Power	0.000000	RX Power	0.000000

639.989	0.0150522
640.068	0.0151630
640.146	0.0151475
640.224	0.0150389
640.302	0.0151053
640.380	0.0150957
640.458	0.0151063
640.536	0.0150026
640.614	0.0150948
640.693	0.0150890
640.771	0.0150449
640.849	0.0150700
640.927	0.0151012
641.005	0.0151158
641.083	0.0150939
641.161	0.0149797
641.239	0.0151443
641.318	0.0151904
641.396	0.0150565
641.474	0.0149941
641.552	0.0151158
641.630	0.0150118
641.708	0.0150232
641.786	0.0151328
641.864	0.0152154
641.943	0.0150748
642.021	0.0150459
642.099	0.0150746
642.177	0.0150923
642.255	0.0150820
642.333	0.0151513
642.411	0.0149853
642.489	0.0151009
642.568	0.0150288
642.646	0.0150219
642.724	0.0150298
642.802	0.0149860
642.880	0.0151455
642.958	0.0151018
643.036	0.0149422
643.114	0.0151141
643.193	0.0150663
643.271	0.0151408
643.349	0.0151221
643.427	0.0151357
643.505	0.0150542
643.583	0.0149774
643.661	0.0150751
643.739	0.0150021
643.818	0.0151324
643.896	0.0151215
643.974	0.0150437
644.052	0.0150578
644.130	0.0150273
644.208	0.0150189
644.286	0.0149809
644.364	0.0151672
644.443	0.0151173
644.521	0.0151426
644.599	0.0151154
644.677	0.0150529
644.755	0.0151190
644.833	0.0149715
644.911	0.0149689
644.989	0.0150082
645.068	0.0150492
645.146	0.0149998
645.224	0.0150171
645.302	0.0151455
645.380	0.0150254
645.458	0.0151476
645.536	0.0150714
645.614	0.0149949
645.693	0.0151214
645.771	0.0150711
645.849	0.0150395
645.927	0.0152142
646.005	0.0151401
646.083	0.0151284
646.161	0.0150712
646.239	0.0150055
646.318	0.0149554
646.396	0.0150764
646.474	0.0150367
646.552	0.0151440
646.630	0.0150385
646.708	0.0150904
646.786	0.0150074
646.864	0.0148641
646.943	0.0149634
647.021	0.0149010
647.099	0.0149175
647.177	0.0148949
647.255	0.0149501
647.333	0.0149904
647.411	0.0152586
647.489	0.0150657
647.568	0.0150782
647.646	0.0148946
647.724	0.0150694
647.802	0.0150933
647.880	0.0148737
647.958	0.0149728
648.036	0.0151522
648.114	0.0149894
648.193	0.0150782
648.271	0.0149897
648.349	0.0151311
648.427	0.0150217
648.505	0.0149684
648.583	0.0149945
648.661	0.0150418
648.739	0.0149972
648.818	0.0150414
648.896	0.0150806
648.974	0.0150114
649.052	0.0148904
649.130	0.0150492
649.208	0.0151236
649.286	0.0151294
649.364	0.0151170
649.443	0.0150553
649.521	0.0149962
649.599	0.0150129
649.677	0.0149271
649.755	0.0150923
649.833	0.0150458
649.911	0.0150947
649.989	0.0150793
650.068	0.0151094
650.146	0.0150536
650.224	0.0150264
650.302	0.0149640
650.380	0.0151748
650.458	0.0150890
650.536	0.0150800
650.614	0.0150359
650.693	0.0151036
650.771	0.0149896
650.849	0.0151402
650.927	0.0150144
651.005	0.0149511
651.083	0.0150680
651.161	0.0150552
651.239	0.0150489
651.318	0.0151417
651.396	0.0150273
651.474	0.0150936
651.552	0.0150246
651.630	0.0149972
651.708	0.0150549
651.786	0.0150227
651.864	0.0150455
651.943	0.0151010
652.021	0.0150735
652.099	0.0150420
652.177	0.0150581
652.255	0.0150791
652.333	0.0151025
652.411	0.0149492
652.489	0.0151289
652.568	0.0150809
652.646	0.0151812
652.724	0.0150908
652.802	0.0150681
652.880	0.0151740
652.958	0.0149986
653.036	0.0150380
653.114	0.0150620
653.193	0.0150796
653.271	0.0150356
653.349	0.0150872
653.427	0.0149908
653.505	0.0150985
653.583	0.0151537
653.661	0.0149237
653.739	0.0149963
653.818	0.0150601
653.896	0.0152113
653.974	0.0150964
654.052	0.0150074
654.130	0.0150479
654.208	0.0151228
654.286	0.0152066
654.364	0.0149931
654.443	0.0150714
654.521	0.0150900
654.599	0.0150755
654.677	0.0151447
654.755	0.0150530
654.833	0.0150141
654.911	0.0149836
654.989	0.0151032
655.068	0.0151562
655.146	0.0151711
655.224	0.0149960
655.302	0.0149818
655.380	0.0151864
655.458	0.0151321
655.536	0.0149882
655.614	0.0149762
655.693	0.0150672
655.771	0.0150849
655.849	0.0150967
655.927	0.0150291
656.005	0.0149824
656.083	0.0150074
656.161	0.0151093
656.239	0.0151808
656.318	0.0150358
656.396	0.0150669
656.474	0.0150009
656.552	0.0150520
656.630	0.0150542
656.708	0.0149945
656.786	0.0151975
656.864	0.0150473
656.943	0.0150081
657.021	0.0151284
657.099	0.0150994
657.177	0.0151407
657.255	0.0150153
657.333	0.0150276
657.411	0.0150275
657.489	0.0150430
657.568	0.0150803
657.646	0.0151901
657.724	0.0151084
657.802	0.0151088
657.880	0.0150491
657.958	0.0149966
658.036	0.0150935
658.114	0.0150986
658.193	0.0151868
658.271	0.0149440
658.349	0.0151456
658.427	0.0149642
658.505	0.0150989
658.583	0.0151536
658.661	0.0151197
658.739	0.0151792
658.818	0.0151350
658.896	0.0150378
658.974	0.0150400
659.052	0.0151260
659.130	0.0151382
659.208	0.0147875
659.286	0.0149800
659.364	0.0150986
659.443	0.0150555
659.521	0.0151582
659.599	0.0149993
659.677	0.0150429
659.755	0.0150642
659.833	0.0150916
659.911	0.0150236
659.989	0.0150290
660.068	0.0151012
660.146	0.0152405
660.224	0.0151498
660.302	0.0152563
660.380	0.0150164
660.458	0.0150580
660.536	0.0148131
660.614	0.0151478
660.693	0.0150494
660.771	0.0150818
660.849	0.0151262
660.927	0.0150821
661.005	0.0150845
661.083	0.0151900
661.161	0.0150895
661.239	0.0150985
661.318	0.0151569
661.396	0.0150300
661.474	0.0151229
661.552	0.0149861
661.630	0.0151921
661.708	0.0150522
661.786	0.0150309
661.864	0.0151904
661.943	0.0151272
662.021	0.0151048
662.099	0.0152065
662.177	0.0151834
662.255	0.0150043
662.333	0.0149549
662.411	0.0151161
662.489	0.0151611
662.568	0.0149767
662.646	0.0149590
662.724	0.0151577
662.802	0.0151115
662.880	0.0149284
662.958	0.0150903
663.036	0.0150893
663.114	0.0150788
663.193	0.0150860
663.271	0.0149678
663.349	0.0150406
663.427	0.0150558
663.505	0.0150141
663.583	0.0151002
663.661	0.0150496
663.739	0.0149711
663.818	0.0151807
663.896	0.0150335
663.974	0.0149142
664.052	0.0149592
664.130	0.0151169
664.208	0.0149760
664.286	0.0151664
664.364	0.0151389
664.443	0.0152625
664.521	0.0150019
664.599	0.0149288
664.677	0.0151089
664.755	0.0150132
664.833	0.0151472
664.911	0.0148990
664.989	0.0149461
665.068	0.0149976
665.146	0.0151646
665.224	0.0149989
665.302	0.0149506
665.380	0.0149805
665.458	0.0150545
665.536	0.0150139
665.614	0.0150426
665.693	0.0151239
665.771	0.0150070
665.849	0.0149453
665.927	0.0149658
666.005	0.0151556
666.083	0.0151390
666.161	0.0148970
666.239	0.0150760
666.318	0.0150180
666.396	0.0151050
666.474	0.0149191
666.552	0.0149732
666.630	0.0149790
666.708	0.0149944
666.786	0.0151336
666.864	0.0149407
666.943	0.0150406
667.021	0.0152647
667.099	0.0151083
667.177	0.0149783
667.255	0.0150082
667.333	0.0151979
667.411	0.0149698
667.489	0.0148685
667.568	0.0151025
667.646	0.0150848
667.724	0.0149662
667.802	0.0151204
667.880	0.0151147
667.958	0.0151073
668.036	0.0150562
668.114	0.0150043
668.193	0.0150498
668.271	0.0149851
668.349	0.0151706
668.427	0.0150459
668.505	0.0150925
668.583	0.0152082
668.661	0.0151766
668.739	0.0150254
668.818	0.0150548
668.896	0.0150907
668.974	0.0151640
669.052	0.0150668
669.130	0.0151593
669.208	0.0152309
669.286	0.0151479
669.364	0.0149419
669.443	0.0150343
669.521	0.0151006
669.599	0.0150842
669.677	0.0150546
669.755	0.0150031
669.833	0.0150714
669.911	0.0150648
669.989	0.0150548
670.068	0.0150236
670.146	0.0150124
670.224	0.0151099
670.302	0.0151141
670.380	0.0151406
670.458	0.0151428
670.536	0.0151862
670.614	0.0150923
670.693	0.0151428
670.771	0.0151149
670.849	0.0150931
670.927	0.0152363
671.005	0.0151407
671.083	0.0150278
671.161	0.0151108
671.239	0.0152929
671.318	0.0151026
671.396	0.0151311
671.474	0.0151137
671.552	0.0151353
671.630	0.0150858
671.708	0.0150917
671.786	0.0150790
671.864	0.0150990
671.943	0.0150094
672.021	0.0151096
672.099	0.0152245
672.177	0.0152703
672.255	0.0152291
672.333	0.0151885
672.411	0.0151395
672.489	0.0152432
672.568	0.0151924
672.646	0.0151680
672.724	0.0151678
672.802	0.0151025
672.880	0.0151804
672.958	0.0151565
673.036	0.0152032
673.114	0.0150718
673.193	0.0151467
673.271	0.0151533
673.349	0.0152142
673.427	0.0152483
673.505	0.0153078
673.583	0.0152326
673.661	0.0150637
673.739	0.0151030
673.818	0.0153570
673.896	0.0151936
673.974	0.0151431
674.052	0.0153165
674.130	0.0149526
674.208	0.0151363
674.286	0.0151743
674.364	0.0151794
674.443	0.0151529
674.521	0.0153017
674.599	0.0150740
674.677	0.0151281
674.755	0.0150529
674.833	0.0150468
674.911	0.0150675
674.989	0.0151295
675.068	0.0150743
675.146	0.0152216
675.224	0.0151146
675.302	0.0151471
675.380	0.0151453
675.458	0.0151956
675.536	0.0149570
675.614	0.0150671
675.693	0.0152400
675.771	0.0150761
675.849	0.0151763
675.927	0.0151820
676.005	0.0150157
676.083	0.0151204
676.161	0.0151307
676.239	0.0150172
676.318	0.0150858
676.396	0.0151254
676.474	0.0150123
676.552	0.0151142
676.630	0.0151028
676.708	0.0150486
676.786	0.0149389
676.864	0.0150467
676.943	0.0149764
677.021	0.0151507
677.099	0.0150774
677.177	0.0150160
677.255	0.0149648
677.333	0.0149968
677.411	0.0152086
677.489	0.0150856
677.568	0.0149250
677.646	0.0151472
677.724	0.0150431
677.802	0.0150718
677.880	0.0151189
677.958	0.0149358
678.036	0.0151816
678.114	0.0150162
678.193	0.0150008
678.271	0.0149775
678.349	0.0149164
678.427	0.0149778
678.505	0.0150197
678.583	0.0148974
678.661	0.0149902
678.739	0.0151115
678.818	0.0149712
678.896	0.0149427
678.974	0.0149567
679.052	0.0149759
679.130	0.0148789
679.208	0.0150343
679.286	0.0151232
679.364	0.0150385
679.443	0.0149593
679.521	0.0150755
679.599	0.0149459
679.677	0.0149585
679.755	0.0150211
679.833	0.0149975
679.911	0.0150838
679.989	0.0149842
680.068	0.0149326
680.146	0.0149527
680.224	0.0150430
680.302	0.0149052
680.380	0.0149789
680.458	0.0150773
680.536	0.0150500
680.614	0.0150466
680.693	0.0151138
680.771	0.0152122
680.849	0.0149831
680.927	0.0149872
681.005	0.0149867
681.083	0.0150500
681.161	0.0150428
681.239	0.0150883
681.318	0.0149198
681.396	0.0151031
681.474	0.0150734
681.552	0.0150141
681.630	0.0150230
681.708	0.0149868
681.786	0.0151835
681.864	0.0150973
681.943	0.0150235
682.021	0.0150253
682.099	0.0150700
682.177	0.0150669
682.255	0.0149941
682.333	0.0151228
682.411	0.0150177
682.489	0.0150099
682.568	0.0151132
682.646	0.0150926
682.724	0.0151913
682.802	0.0150320
682.880	0.0150247
682.958	0.0150472
683.036	0.0150234
683.114	0.0149947
683.193	0.0150260
683.271	0.0150172
683.349	0.0152158
683.427	0.0149458
683.505	0.0149085
683.583	0.0150780
683.661	0.0149939
683.739	0.0150619
683.818	0.0149763
683.896	0.0152384
683.974	0.0150136
684.052	0.0150304
684.130	0.0150091
684.208	0.0151338
684.286	0.0151138
684.364	0.0149886
684.443	0.0150008
684.521	0.0150502
684.599	0.0150716
684.677	0.0151366
684.755	0.0152596
684.833	0.0150147
684.911	0.0150369
684.989	0.0151447
685.068	0.0151664
685.146	0.0151304
685.224	0.0150571
685.302	0.0151501
685.380	0.0151505
685.458	0.0152268
685.536	0.0151253
685.614	0.0152633
685.693	0.0152112
685.771	0.0149703
685.849	0.0150713
685.927	0.0152142
686.005	0.0151225
686.083	0.0151590
686.161	0.0152204
686.239	0.0148698
686.318	0.0150514
686.396	0.0148821
686.474	0.0151394
686.552	0.0150082
686.630	0.0150088
686.708	0.0150753
686.786	0.0150593
686.864	0.0150384
686.943	0.0150208
687.021	0.0150807
687.099	0.0150929
687.177	0.0151610
687.255	0.0150765
687.333	0.0149502
687.411	0.0149657
687.489	0.0150527
687.568	0.0148169
687.646	0.0148199
687.724	0.0149277
687.802	0.0148126
687.880	0.0147316
687.958	0.0147458
688.036	0.0149165
688.114	0.0148306
688.193	0.0148764
688.271	0.0148949
688.349	0.0149947
688.427	0.0153147
688.505	0.0153094
688.583	0.0155481
688.661	0.0156987
688.739	0.0158047
688.818	0.0159599
688.896	0.0159621
688.974	0.0160831
689.052	0.0160423
689.130	0.0158466
689.208	0.0155813
689.286	0.0154493
689.364	0.0150526
689.443	0.0144352
689.521	0.0140444
689.599	0.0135782
689.677	0.0130464
689.755	0.0127465
689.833	0.0125600
689.911	0.0124955
689.989	0.0126502
690.068	0.0129196
690.146	0.0133620
690.224	0.0138997
690.302	0.0146470
690.380	0.0154597
690.458	0.0160793
690.536	0.0167306
690.614	0.0173158
690.693	0.0178652
690.771	0.0183721
690.849	0.0185030
690.927	0.0185791
691.005	0.0185971
691.083	0.0183626
691.161	0.0181232
691.239	0.0178745
691.318	0.0174400
691.396	0.0169924
691.474	0.0164751
691.552	0.0159837
691.630	0.0152840
691.708	0.0147176
691.786	0.0139902
691.864	0.0133388
691.943	0.0125040
692.021	0.0117591
692.099	0.0108500
692.177	0.00993134
692.255	0.00949966
692.333	0.00911552
692.411	0.00880569
692.489	0.00861588
692.568	0.00894409
692.646	0.00950287
692.724	0.0101044
692.802	0.0111758
692.880	0.0123834
692.958	0.0135300
693.036	0.0150121
693.114	0.0164242
693.193	0.0180567
693.271	0.0194894
693.349	0.0209044
693.427	0.0221833
693.505	0.0231574
693.583	0.0238375
693.661	0.0243008
693.739	0.0245188
693.818	0.0242426
693.896	0.0236356
693.974	0.0228765
694.052	0.0217008
694.130	0.0205142
694.208	0.0191086
694.286	0.0177289
694.364	0.0165055
694.443	0.0150174
694.521	0.0134605
694.599	0.0124431
694.677	0.0112887
694.755	0.0102899
694.833	0.00923744
694.911	0.00836029
694.989	0.00772789
695.068	0.00706642
695.146	0.00652107
695.224	0.00612144
695.302	0.00581665
695.380	0.00544029
695.458	0.00531654
695.536	0.00548347
695.614	0.00583481
695.693	0.00669853
695.771	0.00748878
695.849	0.00880684
695.927	0.0103851
696.005	0.0121429
696.083	0.0139170
696.161	0.0158390
696.239	0.0179098
696.318	0.0197049
696.396	0.0213583
696.474	0.0230721
696.552	0.0244633
696.630	0.0256470
696.708	0.0267807
696.786	0.0275944
696.864	0.0280797
696.943	0.0283569
697.021	0.0283474
697.099	0.0280702
697.177	0.0275000
697.255	0.0263966
697.333	0.0249837
697.411	0.0233066
697.489	0.0213634
697.568	0.0191315
697.646	0.0167382
697.724	0.0144472
697.802	0.0121729
697.880	0.0100328
697.958	0.00829468
698.036	0.00656532
698.114	0.00559471
698.193	0.00455879
698.271	0.00419998
698.349	0.00377495
698.427	0.00381424
698.505	0.00419403
698.583	0.00446854
698.661	0.00502449
698.739	0.00559502
698.818	0.00620323
698.896	0.00691994
698.974	0.00755974
699.052	0.00833847
699.130	0.00923027
699.208	0.0100065
699.286	0.0109172
699.364	0.0120298
699.443	0.0132270
699.521	0.0144559
699.599	0.0156592
699.677	0.0172668
699.755	0.0184415
699.833	0.0195555
699.911	0.0207140
699.989	0.0217924
700.068	0.0227463
700.146	0.0233295
700.224	0.0239950
700.302	0.0242500
700.380	0.0245244
700.458	0.0247226
700.536	0.0248650
700.614	0.0247225
700.693	0.0245802
700.771	0.0243343
700.849	0.0236143
700.927	0.0228107
701.005	0.0219992
701.083	0.0207771
701.161	0.0196875
701.239	0.0183762
701.318	0.0169290
701.396	0.0153860
701.474	0.0138654
701.552	0.0125669
701.630	0.0110876
701.708	0.00981789
701.786	0.00869545
701.864	0.00794189
701.943	0.00734215
702.021	0.00681953
702.099	0.00666855
702.177	0.00661789
702.255	0.00680771
702.333	0.00725533
702.411	0.00768532
702.489	0.00841446
702.568	0.00900742
702.646	0.00959770
702.724	0.0101396
702.802	0.0107842
702.880	0.0112864
702.958	0.0118266
703.036	0.0121696
703.114	0.0126469
703.193	0.0128741
703.271	0.0134325
703.349	0.0140739
703.427	0.0144084
703.505	0.0147521
703.583	0.0152892
703.661	0.0159292
703.739	0.0166270
703.818	0.0172364
703.896	0.0179022
703.974	0.0186528
704.052	0.0192232
704.130	0.0199004
704.208	0.0205333
704.286	0.0211460
704.364	0.0215668
704.443	0.0219732
704.521	0.0222718
704.599	0.0221401
704.677	0.0221930
704.755	0.0219832
704.833	0.0216212
704.911	0.0210986
704.989	0.0202911
705.068	0.0195803
705.146	0.0186131
705.224	0.0175795
705.302	0.0164919
705.380	0.0155994
705.458	0.0145744
705.536	0.0137614
705.614	0.0126997
705.693	0.0117516
705.771	0.0111892
705.849	0.0105064
705.927	0.00994606
706.005	0.00967644
706.083	0.00944679
706.161	0.00944946
706.239	0.00942688
706.318	0.00959557
706.396	0.00989540
706.474	0.0103247
706.552	0.0106096
706.630	0.0110104
706.708	0.0114563
706.786	0.0121049
706.864	0.0124132
706.943	0.0128165
707.021	0.0130485
707.099	0.0134468
707.177	0.0138810
707.255	0.0140055
707.333	0.0143588
707.411	0.0147240
707.489	0.0149647
707.568	0.0155795
707.646	0.0160292
707.724	0.0166893
707.802	0.0172106
707.880	0.0176662
707.958	0.0179057
708.036	0.0183789
708.114	0.0188148
708.193	0.0191312
708.271	0.0189740
708.349	0.0192162
708.427	0.0191607
708.505	0.0188961
708.583	0.0186443
708.661	0.0182295
708.739	0.0178873
708.818	0.0173797
708.896	0.0168263
708.974	0.0162981
709.052	0.0158548
709.130	0.0152826
709.208	0.0148449
709.286	0.0146851
709.364	0.0143167
709.443	0.0138785
709.521	0.0137292
709.599	0.0134885
709.677	0.0132803
709.755	0.0129382
709.833	0.0125610
709.911	0.0125329
709.989	0.0124864
710.068	0.0124156
710.146	0.0123979
710.224	0.0126279
710.302	0.0127358
710.380	0.0128914
710.458	0.0132360
710.536	0.0134741
710.614	0.0136837
710.693	0.0140372
710.771	0.0142926
710.849	0.0146165
710.927	0.0149134
711.005	0.0151173
711.083	0.0153877
711.161	0.0155611
711.239	0.0157024
711.318	0.0158730
711.396	0.0160566
711.474	0.0161440
711.552	0.0162789
711.630	0.0163480
711.708	0.0164989
711.786	0.0165670
711.864	0.0167800
711.943	0.0168732
712.021	0.0168311
712.099	0.0169336
712.177	0.0169967
712.255	0.0170084
712.333	0.0168063
712.411	0.0166043
712.489	0.0165969
712.568	0.0164661
712.646	0.0159100
712.724	0.0155196
712.802	0.0153806
712.880	0.0150248
712.958	0.0146780
713.036	0.0143715
713.114	0.0140694
713.193	0.0138322
713.271	0.0136471
713.349	0.0133607
713.427	0.0132191
713.505	0.0131269
713.583	0.0130083
713.661	0.0130000
713.739	0.0131340
713.818	0.0132940
713.896	0.0133626
713.974	0.0133693
714.052	0.0133836
714.130	0.0136300
714.208	0.0138422
714.286	0.0138366
714.364	0.0141339
714.443	0.0143531
714.521	0.0146848
714.599	0.0149101
714.677	0.0152574
714.755	0.0154702
714.833	0.0156541
714.911	0.0160009
714.989	0.0160903
715.068	0.0160616
715.146	0.0161571
715.224	0.0160702
715.302	0.0161890
715.380	0.0161254
715.458	0.0159369
715.536	0.0161063
715.614	0.0158567
715.693	0.0156998
715.771	0.0156626
715.849	0.0156963
715.927	0.0157096
716.005	0.0157281
716.083	0.0156214
716.161	0.0157301
716.239	0.0157660
716.318	0.0158311
716.396	0.0159157
716.474	0.0159631
716.552	0.0159157
716.630	0.0160432
716.708	0.0157876
716.786	0.0156196
716.864	0.0154057
716.943	0.0152093
717.021	0.0149166
717.099	0.0148171
717.177	0.0146267
717.255	0.0143575
717.333	0.0141000
717.411	0.0141796
717.489	0.0142290
717.568	0.0140593
717.646	0.0141236
717.724	0.0141190
717.802	0.0141206
717.880	0.0141709
717.958	0.0143677
718.036	0.0143137
718.114	0.0143657
718.193	0.0143823
718.271	0.0144754
718.349	0.0145132
718.427	0.0147462
718.505	0.0149023
718.583	0.0149945
718.661	0.0150085
718.739	0.0152185
718.818	0.0153632
718.896	0.0153978
718.974	0.0155940
719.052	0.0156374
719.130	0.0157758
719.208	0.0156912
719.286	0.0158212
719.364	0.0154814
719.443	0.0156054
719.521	0.0153928
719.599	0.0151585
719.677	0.0149793
719.755	0.0149491
719.833	0.0149007
719.911	0.0146059
719.989	0.0144698
720.068	0.0144738
720.146	0.0144302
720.224	0.0145943
720.302	0.0145850
720.380	0.0146451
720.458	0.0146469
720.536	0.0146780
720.614	0.0146233
720.693	0.0146270
720.771	0.0148070
720.849	0.0146720
720.927	0.0145951
721.005	0.0146564
721.083	0.0147048
721.161	0.0145245
721.239	0.0148568
721.318	0.0149411
721.396	0.0150317
721.474	0.0151857
721.552	0.0153207
721.630	0.0155887
721.708	0.0155456
721.786	0.0156348
721.864	0.0158311
721.943	0.0159415
722.021	0.0159512
722.099	0.0160345
722.177	0.0160768
722.255	0.0159500
722.333	0.0158817
722.411	0.0157385
722.489	0.0158477
722.568	0.0157399
722.646	0.0157291
722.724	0.0156036
722.802	0.0153790
722.880	0.0154326
722.958	0.0153190
723.036	0.0151021
723.114	0.0150492
723.193	0.0148177
723.271	0.0146432
723.349	0.0145080
723.427	0.0143193
723.505	0.0142361
723.583	0.0140765
723.661	0.0139442
723.739	0.0138857
723.818	0.0140356
723.896	0.0142786
723.974	0.0143510
724.052	0.0144775
724.130	0.0145467
724.208	0.0148859
724.286	0.0150013
724.364	0.0151382
724.443	0.0152664
724.521	0.0153129
724.599	0.0155262
724.677	0.0154533
724.755	0.0154647
724.833	0.0155793
724.911	0.0155885
724.989	0.0154208
725.068	0.0152702
725.146	0.0151842
725.224	0.0153035
725.302	0.0150960
725.380	0.0150670
725.458	0.0149295
725.536	0.0149559
725.614	0.0148101
725.693	0.0147841
725.771	0.0147095
725.849	0.0148734
725.927	0.0148312
726.005	0.0147367
726.083	0.0147906
726.161	0.0147647
726.239	0.0148170
726.318	0.0148855
726.396	0.0150210
726.474	0.0151036
726.552	0.0149709
726.630	0.0148405
726.708	0.0151294
726.786	0.0148787
726.864	0.0148446
726.943	0.0149629
727.021	0.0147300
727.099	0.0148738
727.177	0.0148082
727.255	0.0147308
727.333	0.0148102
727.411	0.0149050
727.489	0.0149639
727.568	0.0149708
727.646	0.0150582
727.724	0.0152296
727.802	0.0152014
727.880	0.0155124
727.958	0.0155444
728.036	0.0156525
728.114	0.0158981
728.193	0.0158295
728.271	0.0159694
728.349	0.0157353
728.427	0.0157835
728.505	0.0158343
728.583	0.0158670
728.661	0.0157465
728.739	0.0156690
728.818	0.0155016
728.896	0.0154363
728.974	0.0153201
729.052	0.0152206
729.130	0.0148927
729.208	0.0149537
729.286	0.0148958
729.364	0.0149535
729.443	0.0149007
729.521	0.0146693
729.599	0.0146661
729.677	0.0146635
729.755	0.0147406
729.833	0.0147445
729.911	0.0147600
729.989	0.0148005
730.068	0.0148130
730.146	0.0147939
730.224	0.0147292
730.302	0.0147395
730.380	0.0146665
730.458	0.0146053
730.536	0.0146461
730.614	0.0146429
730.693	0.0144969
730.771	0.0144705
730.849	0.0145123
730.927	0.0144131
731.005	0.0143950
731.083	0.0145259
731.161	0.0146225
731.239	0.0146935
731.318	0.0147906
731.396	0.0150477
731.474	0.0150992
731.552	0.0151973
731.630	0.0153778
731.708	0.0155774
731.786	0.0156700
731.864	0.0158251
731.943	0.0159957
732.021	0.0159254
732.099	0.0160963
732.177	0.0160653
732.255	0.0160110
732.333	0.0161006
732.411	0.0160321
732.489	0.0157026
732.568	0.0155475
732.646	0.0153923
732.724	0.0151678
732.802	0.0149535
732.880	0.0148078
732.958	0.0147141
733.036	0.0145504
733.114	0.0144619
733.193	0.0144368
733.271	0.0142592
733.349	0.0143687
733.427	0.0142625
733.505	0.0143423
733.583	0.0143951
733.661	0.0145704
733.739	0.0145262
733.818	0.0146094
733.896	0.0147989
733.974	0.0150434
734.052	0.0150980
734.130	0.0151655
734.208	0.0152650
734.286	0.0153630
734.364	0.0153448
734.443	0.0155902
734.521	0.0154216
734.599	0.0152412
734.677	0.0152960
734.755	0.0152892
734.833	0.0151448
734.911	0.0151962
734.989	0.0152043
735.068	0.0151495
735.146	0.0153245
735.224	0.0151484
735.302	0.0152746
735.380	0.0152370
735.458	0.0151877
735.536	0.0153976
735.614	0.0153337
735.693	0.0154366
735.771	0.0153744
735.849	0.0155167
735.927	0.0153409
736.005	0.0153696
736.083	0.0152441
736.161	0.0151559
736.239	0.0150052
736.318	0.0149770
736.396	0.0148144
736.474	0.0145399
736.552	0.0143935
736.630	0.0143494
736.708	0.0142454
736.786	0.0143772
736.864	0.0143442
736.943	0.0144637
737.021	0.0146030
737.099	0.0146007
737.177	0.0148352
737.255	0.0150011
737.333	0.0151336
737.411	0.0152885
737.489	0.0152634
737.568	0.0154697
737.646	0.0155691
737.724	0.0155831
737.802	0.0154053
737.880	0.0155679
737.958	0.0155962
738.036	0.0154753
738.114	0.0153917
738.193	0.0153413
738.271	0.0153249
738.349	0.0152080
738.427	0.0152097
738.505	0.0150173
738.583	0.0149194
738.661	0.0148783
738.739	0.0149184
738.818	0.0148424
738.896	0.0148573
738.974	0.0147932
739.052	0.0147075
739.130	0.0145911
739.208	0.0147595
739.286	0.0147839
739.364	0.0146781
739.443	0.0147667
739.521	0.0147939
739.599	0.0145855
739.677	0.0147909
739.755	0.0146637
739.833	0.0149007
739.911	0.0148934
739.989	0.0148296
740.068	0.0150223
740.146	0.0149678
740.224	0.0149273
740.302	0.0150344
740.380	0.0150281
740.458	0.0150838
740.536	0.0150355
740.614	0.0151228
740.693	0.0152354
740.771	0.0153960
740.849	0.0154808
740.927	0.0154147
741.005	0.0152321
741.083	0.0154565
741.161	0.0154629
741.239	0.0155010
741.318	0.0155756
741.396	0.0153977
741.474	0.0154942
741.552	0.0153848
741.630	0.0153837
741.708	0.0153326
741.786	0.0152837
741.864	0.0152155
741.943	0.0150290
742.021	0.0151599
742.099	0.0150967
742.177	0.0151209
742.255	0.0151028
742.333	0.0149303
742.411	0.0148580
742.489	0.0147894
742.568	0.0148643
742.646	0.0148476
742.724	0.0149184
742.802	0.0148341
742.880	0.0147332
742.958	0.0148453
743.036	0.0149091
743.114	0.0149142
743.193	0.0147988
743.271	0.0149705
743.349	0.0148942
743.427	0.0149575
743.505	0.0151234
743.583	0.0149785
743.661	0.0149532
743.739	0.0149171
743.818	0.0150344
743.896	0.0150454
743.974	0.0148906
744.052	0.0148894
744.130	0.0149010
744.208	0.0148587
744.286	0.0149569
744.364	0.0150056
744.443	0.0149433
744.521	0.0149799
744.599	0.0150849
744.677	0.0151650
744.755	0.0152380
744.833	0.0152019
744.911	0.0153310
744.989	0.0153005
745.068	0.0153599
745.146	0.0153620
745.224	0.0152582
745.302	0.0153548
745.380	0.0153003
745.458	0.0153117
745.536	0.0153935
745.614	0.0152573
745.693	0.0151347
745.771	0.0151130
745.849	0.0151308
745.927	0.0149722
746.005	0.0150917
746.083	0.0149766
746.161	0.0150653
746.239	0.0149991
746.318	0.0150452
746.396	0.0148819
746.474	0.0148109
746.552	0.0148154
746.630	0.0148324
746.708	0.0148196
746.786	0.0147025
746.864	0.0147218
746.943	0.0147218
747.021	0.0147413
747.099	0.0146625
747.177	0.0146459
747.255	0.0147355
747.333	0.0147850
747.411	0.0149595
747.489	0.0148938
747.568	0.0150207
747.646	0.0150919
747.724	0.0151427
747.802	0.0152081
747.880	0.0151816
747.958	0.0151835
748.036	0.0151875
748.114	0.0151808
748.193	0.0153403
748.271	0.0152286
748.349	0.0153258
748.427	0.0153436
748.505	0.0151659
748.583	0.0152491
748.661	0.0152758
748.739	0.0152498
748.818	0.0152039
748.896	0.0152240
748.974	0.0152817
749.052	0.0151624
749.130	0.0150378
749.208	0.0150673
749.286	0.0150111
749.364	0.0150838
749.443	0.0150076
749.521	0.0150918
749.599	0.0151419
749.677	0.0151871
749.755	0.0153344
749.833	0.0152484
749.911	0.0152813
749.989	0.0153023
750.068	0.0152410
750.146	0.0152814
750.224	0.0151460
750.302	0.0152238
750.380	0.0151382
750.458	0.0152460
750.536	0.0151012
750.614	0.0149110
750.693	0.0149223
750.771	0.0149130
750.849	0.0148882
750.927	0.0148224
751.005	0.0148055
751.083	0.0149218
751.161	0.0149396
751.239	0.0147583
751.318	0.0148460
751.396	0.0149781
751.474	0.0148827
751.552	0.0149916
751.630	0.0149930
751.708	0.0149288
751.786	0.0150509
751.864	0.0148892
751.943	0.0150700
752.021	0.0150137
752.099	0.0150580
752.177	0.0150364
752.255	0.0149131
752.333	0.0149496
752.411	0.0150351
752.489	0.0148450
752.568	0.0149020
752.646	0.0149088
752.724	0.0149969
752.802	0.0151369
752.880	0.0149774
752.958	0.0149856
753.036	0.0150111
753.114	0.0149227
753.193	0.0151167
753.271	0.0151253
753.349	0.0150195
753.427	0.0153523
753.505	0.0151882
753.583	0.0152791
753.661	0.0152696
753.739	0.0153588
753.818	0.0153381
753.896	0.0153671
753.974	0.0152506
754.052	0.0152163
754.130	0.0152984
754.208	0.0152508
754.286	0.0152071
754.364	0.0149813
754.443	0.0149241
754.521	0.0149692
754.599	0.0149408
754.677	0.0149195
754.755	0.0148505
754.833	0.0147469
754.911	0.0149393
754.989	0.0150513
755.068	0.0151358
755.146	0.0150349
755.224	0.0151498
755.302	0.0151183
755.380	0.0152835
755.458	0.0152203
755.536	0.0152600
755.614	0.0151936
755.693	0.0152707
755.771	0.0152892
755.849	0.0152929
755.927	0.0153130
756.005	0.0152226
756.083	0.0151288
756.161	0.0150708
756.239	0.0151855
756.318	0.0151842
756.396	0.0151446
756.474	0.0150575
756.552	0.0150592
756.630	0.0149328
756.708	0.0150544
756.786	0.0149378
756.864	0.0151091
756.943	0.0151424
757.021	0.0151098
757.099	0.0151932
757.177	0.0151804
757.255	0.0150403
757.333	0.0151620
757.411	0.0151025
757.489	0.0151276
757.568	0.0151464
757.646	0.0153359
757.724	0.0151330
757.802	0.0152030
757.880	0.0152906
757.958	0.0153464
758.036	0.0151396
758.114	0.0149018
758.193	0.0149874
758.271	0.0149653
758.349	0.0148469
758.427	0.0148973
758.505	0.0149309
758.583	0.0148537
758.661	0.0148631
758.739	0.0148324
758.818	0.0148864
758.896	0.0148526
758.974	0.0150382
759.052	0.0148557
759.130	0.0150451
759.208	0.0149331
759.286	0.0148759
759.364	0.0149641
759.443	0.0149586
759.521	0.0148888
759.599	0.0149312
759.677	0.0149445
759.755	0.0148409
759.833	0.0150285
759.911	0.0151493
759.989	0.0149833
760.068	0.0149601
760.146	0.0150715
760.224	0.0151857
760.302	0.0152269
760.380	0.0152718
760.458	0.0152126
760.536	0.0151517
760.614	0.0153226
760.693	0.0154395
760.771	0.0154572
760.849	0.0154614
760.927	0.0154702
761.005	0.0155750
761.083	0.0154580
761.161	0.0154103
761.239	0.0154871
761.318	0.0153790
761.396	0.0155336
761.474	0.0152961
761.552	0.0153274
761.630	0.0153957
761.708	0.0153809
761.786	0.0151498
761.864	0.0151071
761.943	0.0152229
762.021	0.0151400
762.099	0.0150616
762.177	0.0152055
762.255	0.0151524
762.333	0.0149552
762.411	0.0148419
762.489	0.0149228
762.568	0.0148249
762.646	0.0149722
762.724	0.0147285
762.802	0.0147156
762.880	0.0146301
762.958	0.0147784
763.036	0.0148434
763.114	0.0148222
763.193	0.0148055
763.271	0.0147299
763.349	0.0146620
763.427	0.0147736
763.505	0.0148208
763.583	0.0148449
763.661	0.0148791
763.739	0.0147687
763.818	0.0147552
763.896	0.0148632
763.974	0.0148534
764.052	0.0148361
764.130	0.0149609
764.208	0.0149333
764.286	0.0150016
764.364	0.0150925
764.443	0.0151544
764.521	0.0151661
764.599	0.0151380
764.677	0.0152607
764.755	0.0151439
764.833	0.0153746
764.911	0.0155637
764.989	0.0153052
765.068	0.0151831
765.146	0.0151126
765.224	0.0152836
765.302	0.0151820
765.380	0.0152725
765.458	0.0152103
765.536	0.0152247
765.614	0.0152004
765.693	0.0151569
765.771	0.0152106
765.849	0.0151424
765.927	0.0151913
766.005	0.0152896
766.083	0.0151974
766.161	0.0153172
766.239	0.0152211
766.318	0.0153061
766.396	0.0151817
766.474	0.0150835
766.552	0.0152336
766.630	0.0149840
766.708	0.0150134
766.786	0.0151410
766.864	0.0150802
766.943	0.0150842
767.021	0.0151933
767.099	0.0151090
767.177	0.0150064
767.255	0.0149870
767.333	0.0149606
767.411	0.0151275
767.489	0.0150419
767.568	0.0151195
767.646	0.0152429
767.724	0.0152082
767.802	0.0151659
767.880	0.0151501
767.958	0.0151482
768.036	0.0151555
768.114	0.0152235
768.193	0.0152512
768.271	0.0151077
768.349	0.0151681
768.427	0.0150356
768.505	0.0149919
768.583	0.0150845
768.661	0.0150168
768.739	0.0147554
768.818	0.0149118
768.896	0.0147493
768.974	0.0149313
769.052	0.0147755
769.130	0.0147965
769.208	0.0149889
769.286	0.0148420
769.364	0.0148759
769.443	0.0149142
769.521	0.0151155
769.599	0.0151482
769.677	0.0151196
769.755	0.0151119
769.833	0.0152026
769.911	0.0154056
769.989	0.0153185
770.068	0.0152361
770.146	0.0153948
770.224	0.0152429
770.302	0.0151286
770.380	0.0150336
770.458	0.0150764
770.536	0.0150868
770.614	0.0150578
770.693	0.0150172
770.771	0.0149836
770.849	0.0149721
770.927	0.0148994
771.005	0.0149777
771.083	0.0150472
771.161	0.0149178
771.239	0.0149987
771.318	0.0150951
771.396	0.0151124
771.474	0.0149674
771.552	0.0151242
771.630	0.0152508
771.708	0.0152873
771.786	0.0150669
771.864	0.0151026
771.943	0.0151858
772.021	0.0151050
772.099	0.0150671
772.177	0.0152052
772.255	0.0151654
772.333	0.0150980
772.411	0.0151361
772.489	0.0153356
772.568	0.0151783
772.646	0.0151664
772.724	0.0151971
772.802	0.0151251
772.880	0.0152424
772.958	0.0152686
773.036	0.0151241
773.114	0.0152589
773.193	0.0152055
773.271	0.0151792
773.349	0.0151508
773.427	0.0151302
773.505	0.0152766
773.583	0.0151821
773.661	0.0150904
773.739	0.0151512
773.818	0.0150813
773.896	0.0151622
773.974	0.0150827
774.052	0.0150593
774.130	0.0148177
774.208	0.0148315
774.286	0.0148977
774.364	0.0149379
774.443	0.0148258
774.521	0.0148307
774.599	0.0147208
774.677	0.0146323
774.755	0.0147698
774.833	0.0147608
774.911	0.0147359
774.989	0.0148784
775.068	0.0147739
775.146	0.0148989
775.224	0.0148143
775.302	0.0149271
775.380	0.0149680
775.458	0.0149783
775.536	0.0150301
775.614	0.0150511
775.693	0.0149856
775.771	0.0151815
775.849	0.0150655
775.927	0.0150712
776.005	0.0150826
776.083	0.0151446
776.161	0.0152259
776.239	0.0152001
776.318	0.0150581
776.396	0.0152444
776.474	0.0152273
776.552	0.0152679
776.630	0.0154397
776.708	0.0152082
776.786	0.0150336
776.864	0.0151640
776.943	0.0151648
777.021	0.0150758
777.099	0.0149931
777.177	0.0150682
777.255	0.0149924
777.333	0.0150190
777.411	0.0151325
777.489	0.0150196
777.568	0.0150577
777.646	0.0150006
777.724	0.0150899
777.802	0.0148977
777.880	0.0151380
777.958	0.0151280
778.036	0.0150906
778.114	0.0150352
778.193	0.0151368
778.271	0.0152093
778.349	0.0151432
778.427	0.0149788
778.505	0.0150275
778.583	0.0150270
778.661	0.0150575
778.739	0.0149170
778.818	0.0149936
778.896	0.0150227
778.974	0.0150616
779.052	0.0150577
779.130	0.0150555
779.208	0.0150851
779.286	0.0151167
779.364	0.0150848
779.443	0.0151498
779.521	0.0150661
779.599	0.0150124
779.677	0.0151891
779.755	0.0150376
779.833	0.0151490
779.911	0.0151591
779.989	0.0149639
780.068	0.0149933
780.146	0.0150157
780.224	0.0151807
780.302	0.0151192
780.380	0.0151347
780.458	0.0151135
780.536	0.0151044
780.614	0.0150961
780.693	0.0151012
780.771	0.0151521
780.849	0.0151466
780.927	0.0152125
781.005	0.0151363
781.083	0.0150854
781.161	0.0152385
781.239	0.0150938
781.318	0.0150610
781.396	0.0152429
781.474	0.0151243
781.552	0.0151264
781.630	0.0150357
781.708	0.0151823
781.786	0.0151843
781.864	0.0150392
781.943	0.0151395
782.021	0.0150887
782.099	0.0151393
782.177	0.0150040
782.255	0.0150787
782.333	0.0150619
782.411	0.0150129
782.489	0.0150764
782.568	0.0150925
782.646	0.0150418
782.724	0.0150155
782.802	0.0150260
782.880	0.0149753
782.958	0.0151276
783.036	0.0149215
783.114	0.0149600
783.193	0.0149467
783.271	0.0150241
783.349	0.0151085
783.427	0.0150697
783.505	0.0150481
783.583	0.0151357
783.661	0.0151551
783.739	0.0151769
783.818	0.0149657
783.896	0.0151828
783.974	0.0152254
784.052	0.0153160
784.130	0.0152948
784.208	0.0151779
784.286	0.0152413
784.364	0.0153696
784.443	0.0154646
784.521	0.0152812
784.599	0.0151775
784.677	0.0153055
784.755	0.0154440
784.833	0.0152139
784.911	0.0151232
784.989	0.0151355
785.068	0.0152401
785.146	0.0151067
785.224	0.0151646
785.302	0.0151706
785.380	0.0151103
785.458	0.0150529
785.536	0.0151035
785.614	0.0151263
785.693	0.0150462
785.771	0.0149927
785.849	0.0149744
785.927	0.0150144
786.005	0.0150811
786.083	0.0149991
786.161	0.0148564
786.239	0.0148882
786.318	0.0149753
786.396	0.0148682
786.474	0.0149935
786.552	0.0148872
786.630	0.0148593
786.708	0.0148796
786.786	0.0149303
786.864	0.0151229
786.943	0.0150291
787.021	0.0150744
787.099	0.0151574
787.177	0.0152288
787.255	0.0152757
787.333	0.0153787
787.411	0.0155350
787.489	0.0154196
787.568	0.0155058
787.646	0.0156421
787.724	0.0156384
787.802	0.0153519
787.880	0.0152904
787.958	0.0153345
788.036	0.0153551
788.114	0.0152819
788.193	0.0152229
788.271	0.0149409
788.349	0.0149883
788.427	0.0147135
788.505	0.0146834
788.583	0.0145626
788.661	0.0145185
788.739	0.0143807
788.818	0.0144659
788.896	0.0145345
788.974	0.0143684
789.052	0.0144521
789.130	0.0146167
789.208	0.0145410
789.286	0.0148644
789.364	0.0149110
789.443	0.0148974
789.521	0.0150700
789.599	0.0152951
789.677	0.0153848
789.755	0.0155494
789.833	0.0155389
789.911	0.0157966
789.989	0.0157201
790.068	0.0158993
790.146	0.0159293
790.224	0.0157635
790.302	0.0157619
790.380	0.0159393
790.458	0.0158534
790.536	0.0157018
790.614	0.0156255
790.693	0.0155215
790.771	0.0153081
790.849	0.0152917
790.927	0.0151795
791.005	0.0149052
791.083	0.0148846
791.161	0.0146297
791.239	0.0145760
791.318	0.0144017
791.396	0.0142155
791.474	0.0141556
791.552	0.0140942
791.630	0.0139809
791.708	0.0138405
791.786	0.0137526
791.864	0.0137740
791.943	0.0138537
792.021	0.0139381
792.099	0.0140345
792.177	0.0143077
792.255	0.0143148
792.333	0.0144180
792.411	0.0146719
792.489	0.0149174
792.568	0.0151511
792.646	0.0152364
792.724	0.0153681
792.802	0.0155513
792.880	0.0157794
792.958	0.0159265
793.036	0.0161632
793.114	0.0163727
793.193	0.0163463
793.271	0.0163227
793.349	0.0165159
793.427	0.0165785
793.505	0.0165315
793.583	0.0165772
793.661	0.0164881
793.739	0.0163488
793.818	0.0164153
793.896	0.0162937
793.974	0.0160532
794.052	0.0158913
794.130	0.0156289
794.208	0.0154854
794.286	0.0152322
794.364	0.0150163
794.443	0.0146765
794.521	0.0146191
794.599	0.0143951
794.677	0.0142389
794.755	0.0141125
794.833	0.0139343
794.911	0.0138259
794.989	0.0137881
795.068	0.0136192
795.146	0.0136581
795.224	0.0135237
795.302	0.0136573
795.380	0.0137009
795.458	0.0137587
795.536	0.0138194
795.614	0.0138936
795.693	0.0142104
795.771	0.0144798
795.849	0.0145446
795.927	0.0146300
796.005	0.0149343
796.083	0.0150443
796.161	0.0152108
796.239	0.0153737
796.318	0.0155164
796.396	0.0155727
796.474	0.0158263
796.552	0.0158466
796.630	0.0159168
796.708	0.0160181
796.786	0.0161171
796.864	0.0163191
796.943	0.0164614
797.021	0.0163071
797.099	0.0163644
797.177	0.0163397
797.255	0.0162234
797.333	0.0162445
797.411	0.0162754
797.489	0.0161687
797.568	0.0160364
797.646	0.0158397
797.724	0.0157436
797.802	0.0155449
797.880	0.0151641
797.958	0.0150825
798.036	0.0150722
798.114	0.0148506
798.193	0.0146352
798.271	0.0145020
798.349	0.0143980
798.427	0.0142457
798.505	0.0141647
798.583	0.0142366
798.661	0.0140202
798.739	0.0139903
798.818	0.0140222
798.896	0.0139559
798.974	0.0141298
799.052	0.0141540
799.130	0.0141541
799.208	0.0141994
799.286	0.0142686
799.364	0.0142467
799.443	0.0142750
799.521	0.0146784
799.599	0.0148049
799.677	0.0147441
799.755	0.0149043
799.833	0.0150832
799.911	0.0150980
799.989	0.0152736
800.068	0.0155108
800.146	0.0156342
800.224	0.0155699
800.302	0.0156799
800.380	0.0157382
800.458	0.0157706
800.536	0.0157825
800.614	0.0157713
800.693	0.0157392
800.771	0.0158083
800.849	0.0157623
800.927	0.0157278
801.005	0.0157354
801.083	0.0157074
801.161	0.0157456
801.239	0.0156621
801.318	0.0155148
801.396	0.0155634
801.474	0.0154211
801.552	0.0153982
801.630	0.0152763
801.708	0.0152966
801.786	0.0152214
801.864	0.0150438
801.943	0.0149223
802.021	0.0148031
802.099	0.0148525
802.177	0.0148398
802.255	0.0147398
802.333	0.0146548
802.411	0.0146494
802.489	0.0144878
802.568	0.0146367
802.646	0.0146196
802.724	0.0145453
802.802	0.0146172
802.880	0.0144544
802.958	0.0143878
803.036	0.0145872
803.114	0.0146417
803.193	0.0145816
803.271	0.0146764
803.349	0.0145380
803.427	0.0146200
803.505	0.0147169
803.583	0.0148429
803.661	0.0149442
803.739	0.0148483
803.818	0.0150810
803.896	0.0151586
803.974	0.0151754
804.052	0.0152790
804.130	0.0151769
804.208	0.0152662
804.286	0.0153411
804.364	0.0154661
804.443	0.0154666
804.521	0.0152811
804.599	0.0152701
804.677	0.0151917
804.755	0.0151281
804.833	0.0152372
804.911	0.0150698
804.989	0.0152287
805.068	0.0151262
805.146	0.0150860
805.224	0.0151152
805.302	0.0152523
805.380	0.0151338
805.458	0.0151350
805.536	0.0152470
805.614	0.0151402
805.693	0.0153620
805.771	0.0153925
805.849	0.0153139
805.927	0.0154493
806.005	0.0152884
806.083	0.0151929
806.161	0.0151476
806.239	0.0151103
806.318	0.0151582
806.396	0.0149877
806.474	0.0149754
806.552	0.0150370
806.630	0.0148774
806.708	0.0148065
806.786	0.0147217
806.864	0.0148369
806.943	0.0147616
807.021	0.0148515
807.099	0.0148936
807.177	0.0148309
807.255	0.0147112
807.333	0.0147378
807.411	0.0150361
807.489	0.0149896
807.568	0.0148826
807.646	0.0148154
807.724	0.0150206
807.802	0.0152016
807.880	0.0151222
807.958	0.0151389
808.036	0.0152288
808.114	0.0152393
808.193	0.0153132
808.271	0.0152972
808.349	0.0152746
808.427	0.0152822
808.505	0.0153406
808.583	0.0151922
808.661	0.0151817
808.739	0.0153545
808.818	0.0153346
808.896	0.0153586
808.974	0.0152573
809.052	0.0154020
809.130	0.0152811
809.208	0.0151788
809.286	0.0152925
809.364	0.0153223
809.443	0.0152722
809.521	0.0152979
809.599	0.0150867
809.677	0.0151687
809.755	0.0151792
809.833	0.0150483
809.911	0.0149220
809.989	0.0148627
810.068	0.0149433
810.146	0.0147446
810.224	0.0147572
810.302	0.0147890
810.380	0.0145931
810.458	0.0147402
810.536	0.0147245
810.614	0.0148302
810.693	0.0146938
810.771	0.0146055
810.849	0.0146495
810.927	0.0147466
811.005	0.0147460
811.083	0.0147999
811.161	0.0148273
811.239	0.0149290
811.318	0.0149303
811.396	0.0149201
811.474	0.0149033
811.552	0.0149409
811.630	0.0149816
811.708	0.0150772
811.786	0.0150968
811.864	0.0151772
811.943	0.0150948
812.021	0.0152401
812.099	0.0152940
812.177	0.0152081
812.255	0.0152584
812.333	0.0154509
812.411	0.0154299
812.489	0.0153277
812.568	0.0153588
812.646	0.0153783
812.724	0.0153828
812.802	0.0153061
812.880	0.0152786
812.958	0.0151364
813.036	0.0151053
813.114	0.0151340
813.193	0.0150884
813.271	0.0150829
813.349	0.0150863
813.427	0.0150534
813.505	0.0149654
813.583	0.0150397
813.661	0.0151891
813.739	0.0149924
813.818	0.0149952
813.896	0.0149441
813.974	0.0149717
814.052	0.0150212
814.130	0.0149528
814.208	0.0149972
814.286	0.0149857
814.364	0.0149580
814.443	0.0149607
814.521	0.0148453
814.599	0.0148859
814.677	0.0148087
814.755	0.0149465
814.833	0.0148798
814.911	0.0148453
814.989	0.0148726
815.068	0.0149392
815.146	0.0150777
815.224	0.0150787
815.302	0.0150720
815.380	0.0151143
815.458	0.0150919
815.536	0.0150543
815.614	0.0150566
815.693	0.0150362
815.771	0.0149931
815.849	0.0150924
815.927	0.0150262
816.005	0.0150942
816.083	0.0149868
816.161	0.0150070
816.239	0.0149905
816.318	0.0150783
816.396	0.0150474
816.474	0.0148615
816.552	0.0148636
816.630	0.0151319
816.708	0.0149490
816.786	0.0148782
816.864	0.0149345
816.943	0.0150543
817.021	0.0149474
817.099	0.0151316
817.177	0.0150978
817.255	0.0151434
817.333	0.0152706
817.411	0.0153355
817.489	0.0153459
817.568	0.0153201
817.646	0.0154485
817.724	0.0153019
817.802	0.0154984
817.880	0.0152905
817.958	0.0153731
818.036	0.0154768
818.114	0.0155213
818.193	0.0153447
818.271	0.0152053
818.349	0.0151164
818.427	0.0152164
818.505	0.0150727
818.583	0.0149381
818.661	0.0150977
818.739	0.0148997
818.818	0.0148805
818.896	0.0148502
818.974	0.0148138
819.052	0.0148370
819.130	0.0150194
819.208	0.0149222
819.286	0.0147893
819.364	0.0148115
819.443	0.0146815
819.521	0.0148251
819.599	0.0148670
819.677	0.0148303
819.755	0.0148361
819.833	0.0147752
819.911	0.0147579
819.989	0.0148953
820.068	0.0149058
820.146	0.0150665
820.224	0.0149921
820.302	0.0150089
820.380	0.0151334
820.458	0.0150481
820.536	0.0150871
820.614	0.0151181
820.693	0.0153104
820.771	0.0151946
820.849	0.0151975
820.927	0.0153057
821.005	0.0152789
821.083	0.0152763
821.161	0.0152790
821.239	0.0152901
821.318	0.0153894
821.396	0.0152000
821.474	0.0150340
821.552	0.0150432
821.630	0.0151806
821.708	0.0151242
821.786	0.0150526
821.864	0.0149505
821.943	0.0149717
822.021	0.0150576
822.099	0.0150462
822.177	0.0149950
822.255	0.0149168
822.333	0.0150511
822.411	0.0150064
822.489	0.0149301
822.568	0.0149904
822.646	0.0150527
822.724	0.0150143
822.802	0.0149976
822.880	0.0152438
822.958	0.0151122
823.036	0.0150637
823.114	0.0150930
823.193	0.0151447
823.271	0.0152110
823.349	0.0152219
823.427	0.0152749
823.505	0.0151074
823.583	0.0151640
823.661	0.0152116
823.739	0.0152937
823.818	0.0152261
823.896	0.0152053
823.974	0.0152048
824.052	0.0151629
824.130	0.0152363
824.208	0.0151719
824.286	0.0151147
824.364	0.0152348
824.443	0.0151067
824.521	0.0151192
824.599	0.0150967
824.677	0.0148144
824.755	0.0148748
824.833	0.0148247
824.911	0.0149016
824.989	0.0148305
825.068	0.0148407
825.146	0.0147317
825.224	0.0148020
825.302	0.0147945
825.380	0.0148289
825.458	0.0148420
825.536	0.0148905
825.614	0.0148235
825.693	0.0149964
825.771	0.0150145
825.849	0.0149397
825.927	0.0150156
826.005	0.0150217
826.083	0.0149084
826.161	0.0149870
826.239	0.0150671
826.318	0.0150977
826.396	0.0150729
826.474	0.0150954
826.552	0.0151659
826.630	0.0151093
826.708	0.0151637
826.786	0.0152983
826.864	0.0151540
826.943	0.0151692
827.021	0.0152300
827.099	0.0152679
827.177	0.0153393
827.255	0.0152427
827.333	0.0153524
827.411	0.0152705
827.489	0.0152891
827.568	0.0153526
827.646	0.0152857
827.724	0.0152177
827.802	0.0152128
827.880	0.0152065
827.958	0.0151203
828.036	0.0151949
828.114	0.0150439
828.193	0.0152161
828.271	0.0150449
828.349	0.0149664
828.427	0.0151505
828.505	0.0151714
828.583	0.0150271
828.661	0.0149769
828.739	0.0149352
828.818	0.0151950
828.896	0.0150922
828.974	0.0150880
829.052	0.0150620
829.130	0.0150758
829.208	0.0152256
829.286	0.0151777
829.364	0.0151649
829.443	0.0152184
829.521	0.0152341
829.599	0.0151540
829.677	0.0151520
829.755	0.0151603
829.833	0.0150785
829.911	0.0150635
829.989	0.0151037
830.068	0.0151162
830.146	0.0149778
830.224	0.0150640
830.302	0.0150673
830.380	0.0150579
830.458	0.0150128
830.536	0.0150101
830.614	0.0149517
830.693	0.0151103
830.771	0.0149883
830.849	0.0150451
830.927	0.0150260
831.005	0.0150435
831.083	0.0149974
831.161	0.0150328
831.239	0.0150557
831.318	0.0151161
831.396	0.0151513
831.474	0.0149288
831.552	0.0150273
831.630	0.0149622
831.708	0.0150724
831.786	0.0150444
831.864	0.0149895
831.943	0.0149856
832.021	0.0149304
832.099	0.0150273
832.177	0.0151715
832.255	0.0152033
832.333	0.0150140
832.411	0.0151044
832.489	0.0153028
832.568	0.0152345
832.646	0.0151312
832.724	0.0152328
832.802	0.0150677
832.880	0.0150507
832.958	0.0152719
833.036	0.0152341
833.114	0.0151962
833.193	0.0152426
833.271	0.0151389
833.349	0.0150437
833.427	0.0151349
833.505	0.0151837
833.583	0.0152792
833.661	0.0152193
833.739	0.0150130
833.818	0.0151856
833.896	0.0151900
833.974	0.0152397
834.052	0.0153072
834.130	0.0152458
834.208	0.0152864
834.286	0.0152354
834.364	0.0151861
834.443	0.0152780
834.521	0.0152827
834.599	0.0152361
834.677	0.0152826
834.755	0.0151895
834.833	0.0151542
834.911	0.0152170
834.989	0.0150992
835.068	0.0151958
835.146	0.0151332
835.224	0.0151435
835.302	0.0149947
835.380	0.0150188
835.458	0.0150375
835.536	0.0150424
835.614	0.0149844
835.693	0.0149697
835.771	0.0149696
835.849	0.0151495
835.927	0.0150681
836.005	0.0149998
836.083	0.0149496
836.161	0.0148415
836.239	0.0148989
836.318	0.0149765
836.396	0.0148859
836.474	0.0149173
836.552	0.0149606
836.630	0.0148758
836.708	0.0148621
836.786	0.0148852
836.864	0.0149078
836.943	0.0149980
837.021	0.0150918
837.099	0.0149997
837.177	0.0150141
837.255	0.0151299
837.333	0.0150578
837.411	0.0151799
837.489	0.0152016
837.568	0.0152283
837.646	0.0151913
837.724	0.0152460
837.802	0.0153548
837.880	0.0151170
837.958	0.0153233
838.036	0.0153031
838.114	0.0152854
838.193	0.0152919
838.271	0.0151357
838.349	0.0152464
838.427	0.0152572
838.505	0.0152612
838.583	0.0151466
838.661	0.0150987
838.739	0.0151903
838.818	0.0153177
838.896	0.0150839
838.974	0.0151865
839.052	0.0152143
839.130	0.0151395
839.208	0.0150752
839.286	0.0151461
839.364	0.0152611
839.443	0.0151312
839.521	0.0151778
839.599	0.0151320
839.677	0.0151229
839.755	0.0150826
839.833	0.0152289
839.911	0.0150818
839.989	0.0149767
840.068	0.0149339
840.146	0.0149372
840.224	0.0150510
840.302	0.0150989
840.380	0.0151286
840.458	0.0150378
840.536	0.0149570
840.614	0.0149422
840.693	0.0150408
840.771	0.0149844
840.849	0.0149786
840.927	0.0150475
841.005	0.0150133
841.083	0.0150119
841.161	0.0149288
841.239	0.0149082
841.318	0.0149799
841.396	0.0149591
841.474	0.0150047
841.552	0.0151054
841.630	0.0150426
841.708	0.0149482
841.786	0.0151699
841.864	0.0150877
841.943	0.0150703
842.021	0.0151782
842.099	0.0152385
842.177	0.0151830
842.255	0.0151498
842.333	0.0151083
842.411	0.0148985
842.489	0.0151008
842.568	0.0151317
842.646	0.0152506
842.724	0.0151254
842.802	0.0151463
842.880	0.0152052
842.958	0.0151641
843.036	0.0151355
843.114	0.0152361
843.193	0.0149894
843.271	0.0151044
843.349	0.0151890
843.427	0.0151075
843.505	0.0151348
843.583	0.0150633
843.661	0.0151495
843.739	0.0151582
843.818	0.0151514
843.896	0.0150566
843.974	0.0150726
844.052	0.0151373
844.130	0.0151979
844.208	0.0150580
844.286	0.0150983
844.364	0.0149243
844.443	0.0150374
844.521	0.0150838
844.599	0.0149809
844.677	0.0150384
844.755	0.0150912
844.833	0.0151320
844.911	0.0150075
844.989	0.0150380
845.068	0.0149756
845.146	0.0150113
845.224	0.0149996
845.302	0.0150963
845.380	0.0150484
845.458	0.0149136
845.536	0.0149908
845.614	0.0150542
845.693	0.0150095
845.771	0.0150880
845.849	0.0151111
845.927	0.0150642
846.005	0.0150312
846.083	0.0150545
846.161	0.0150008
846.239	0.0150289
846.318	0.0152375
846.396	0.0151250
846.474	0.0151071
846.552	0.0149818
846.630	0.0150945
846.708	0.0151310
846.786	0.0150038
846.864	0.0150985
846.943	0.0151717
847.021	0.0150127
847.099	0.0150692
847.177	0.0150742
847.255	0.0151669
847.333	0.0150609
847.411	0.0150800
847.489	0.0151213
847.568	0.0150295
847.646	0.0152779
847.724	0.0151218
847.802	0.0150540
847.880	0.0151895
847.958	0.0151508
848.036	0.0151287
848.114	0.0151048
848.193	0.0152889
848.271	0.0151849
848.349	0.0152116
848.427	0.0150912
848.505	0.0151758
848.583	0.0152613
848.661	0.0151263
848.739	0.0151089
848.818	0.0151737
848.896	0.0152039
848.974	0.0151163
849.052	0.0151064
849.130	0.0151336
849.208	0.0151044
849.286	0.0150091
849.364	0.0150982
849.443	0.0149839
849.521	0.0151383
849.599	0.0150368
849.677	0.0150158
849.755	0.0150584
849.833	0.0152332
849.911	0.0151521
849.989	0.0151428
850.068	0.0151025
850.146	0.0151368
850.224	0.0152426
850.302	0.0151972
850.380	0.0153377
850.458	0.0152002
850.536	0.0151458
850.614	0.0153075
850.693	0.0152247
850.771	0.0152557
850.849	0.0152799
850.927	0.0153550
851.005	0.0153016
851.083	0.0151402
851.161	0.0153480
851.239	0.0151691
851.318	0.0151945
851.396	0.0152074
851.474	0.0150750
851.552	0.0151949
851.630	0.0150312
851.708	0.0150470
851.786	0.0150730
851.864	0.0150253
851.943	0.0150275
852.021	0.0150385
852.099	0.0148930
852.177	0.0149960
852.255	0.0149411
852.333	0.0148688
852.411	0.0149365
852.489	0.0149940
852.568	0.0148682
852.646	0.0150003
852.724	0.0148655
852.802	0.0149886
852.880	0.0150834
852.958	0.0151244
853.036	0.0148882
853.114	0.0149957
853.193	0.0150712
853.271	0.0149415
853.349	0.0150283
853.427	0.0150605
853.505	0.0150943
853.583	0.0150454
853.661	0.0152032
853.739	0.0150710
853.818	0.0151151
853.896	0.0150487
853.974	0.0151923
854.052	0.0152574
854.130	0.0151911
854.208	0.0154435
854.286	0.0153081
854.364	0.0151627
854.443	0.0153502
854.521	0.0153754
854.599	0.0152463
854.677	0.0152025
854.755	0.0152595
854.833	0.0152402
854.911	0.0152265
854.989	0.0152708
855.068	0.0152356
855.146	0.0150458
855.224	0.0151098
855.302	0.0151369
855.380	0.0150820
855.458	0.0150343
855.536	0.0150994
855.614	0.0150809
855.693	0.0149731
855.771	0.0150197
855.849	0.0149786
855.927	0.0149427
856.005	0.0150498
856.083	0.0149681
856.161	0.0149808
856.239	0.0149959
856.318	0.0149763
856.396	0.0150906
856.474	0.0150269
856.552	0.0151180
856.630	0.0151517
856.708	0.0150493
856.786	0.0152702
856.864	0.0152245
856.943	0.0150988
857.021	0.0151484
857.099	0.0152111
857.177	0.0152436
857.255	0.0152107
857.333	0.0151385
857.411	0.0152951
857.489	0.0152476
857.568	0.0151394
857.646	0.0152037
857.724	0.0151178
857.802	0.0150711
857.880	0.0149334
857.958	0.0151518
858.036	0.0152693
858.114	0.0151515
858.193	0.0150526
858.271	0.0150011
858.349	0.0151216
858.427	0.0149728
858.505	0.0150730
858.583	0.0150261
858.661	0.0149774
858.739	0.0149040
858.818	0.0148676
858.896	0.0150435
858.974	0.0149812
859.052	0.0150793
859.130	0.0151783
859.208	0.0152710
859.286	0.0150303
859.364	0.0150297
859.443	0.0151742
859.521	0.0150799
859.599	0.0151409
859.677	0.0151438
859.755	0.0151171
859.833	0.0150274
859.911	0.0150832
859.989	0.0150405
860.068	0.0150359
860.146	0.0148762
860.224	0.0149667
860.302	0.0150051
860.380	0.0149561
860.458	0.0150410
860.536	0.0150119
860.614	0.0149889
860.693	0.0150741
860.771	0.0149789
860.849	0.0150637
860.927	0.0151034
861.005	0.0152234
861.083	0.0149964
861.161	0.0149568
861.239	0.0152709
861.318	0.0151640
861.396	0.0151626
861.474	0.0151304
861.552	0.0151909
861.630	0.0150579
861.708	0.0150722
861.786	0.0152217
861.864	0.0152926
861.943	0.0150748
862.021	0.0149761
862.099	0.0151910
862.177	0.0149861
862.255	0.0151895
862.333	0.0151592
862.411	0.0151517
862.489	0.0150145
862.568	0.0150156
862.646	0.0149641
862.724	0.0149061
862.802	0.0149106
862.880	0.0149914
862.958	0.0148689
863.036	0.0148302
863.114	0.0149451
863.193	0.0150160
863.271	0.0150770
863.349	0.0149676
863.427	0.0149284
863.505	0.0152048
863.583	0.0150300
863.661	0.0151382
863.739	0.0152210
863.818	0.0150510
863.896	0.0151601
863.974	0.0151748
864.052	0.0153593
864.130	0.0152859
864.208	0.0151013
864.286	0.0150838
864.364	0.0152166
864.443	0.0151838
864.521	0.0151027
864.599	0.0151591
864.677	0.0149954
864.755	0.0151003
864.833	0.0150898
864.911	0.0150988
864.989	0.0151356
865.068	0.0152161
865.146	0.0150729
865.224	0.0150776
865.302	0.0150201
865.380	0.0151779
865.458	0.0150248
865.536	0.0150755
865.614	0.0150706
865.693	0.0149837
865.771	0.0150544
865.849	0.0150298
865.927	0.0150718
866.005	0.0150822
866.083	0.0149329
866.161	0.0149618
866.239	0.0149745
866.318	0.0150885
866.396	0.0150446
866.474	0.0150133
866.552	0.0149649
866.630	0.0150607
866.708	0.0149036
866.786	0.0149220
866.864	0.0151280
866.943	0.0150771
867.021	0.0148746
867.099	0.0150412
867.177	0.0151277
867.255	0.0151581
867.333	0.0151356
867.411	0.0150711
867.489	0.0151308
867.568	0.0150671
867.646	0.0151324
867.724	0.0151524
867.802	0.0151955
867.880	0.0150719
867.958	0.0150679
868.036	0.0152027
868.114	0.0150134
868.193	0.0150342
868.271	0.0149805
868.349	0.0149905
868.427	0.0150215
868.505	0.0149413
868.583	0.0150574
868.661	0.0149512
868.739	0.0149844
868.818	0.0149361
868.896	0.0150961
868.974	0.0150931
869.052	0.0149720
869.130	0.0151678
869.208	0.0150346
869.286	0.0151141
869.364	0.0151698
869.443	0.0150291
869.521	0.0150539
869.599	0.0150529
869.677	0.0151563
869.755	0.0150191
869.833	0.0150517
869.911	0.0150993
869.989	0.0148952
870.068	0.0149970
870.146	0.0151321
870.224	0.0150597
870.302	0.0149781
870.380	0.0150137
870.458	0.0150174
870.536	0.0151340
870.614	0.0150478
870.693	0.0150867
870.771	0.0150587
870.849	0.0150359
870.927	0.0150465
871.005	0.0150387
871.083	0.0150514
871.161	0.0149672
871.239	0.0150402
871.318	0.0151219
871.396	0.0149583
871.474	0.0150780
871.552	0.0148901
871.630	0.0150934
871.708	0.0150209
871.786	0.0148923
871.864	0.0150425
871.943	0.0149650
872.021	0.0149332
872.099	0.0148048
872.177	0.0149660
872.255	0.0149780
872.333	0.0150143
872.411	0.0150011
872.489	0.0150629
872.568	0.0148932
872.646	0.0152135
872.724	0.0152328
872.802	0.0150020
872.880	0.0150605
872.958	0.0150576
873.036	0.0151530
873.114	0.0151189
873.193	0.0150654
873.271	0.0150504
873.349	0.0150844
873.427	0.0151952
873.505	0.0151078
873.583	0.0150675
873.661	0.0150740
873.739	0.0149874
873.818	0.0149442
873.896	0.0149349
873.974	0.0149014
874.052	0.0147956
874.130	0.0148286
874.208	0.0149384
874.286	0.0148695
874.364	0.0148570
874.443	0.0147900
874.521	0.0149289
874.599	0.0148506
874.677	0.0149889
874.755	0.0150626
874.833	0.0148644
874.911	0.0149640
874.989	0.0150278
875.068	0.0151918
875.146	0.0150797
875.224	0.0150623
875.302	0.0149863
875.380	0.0150888
875.458	0.0151989
875.536	0.0152374
875.614	0.0151485
875.693	0.0151284
875.771	0.0152293
875.849	0.0152710
875.927	0.0151230
876.005	0.0152925
876.083	0.0150362
876.161	0.0150906
876.239	0.0152092
876.318	0.0150550
876.396	0.0151361
876.474	0.0152154
876.552	0.0151208
876.630	0.0151438
876.708	0.0150957
876.786	0.0150999
876.864	0.0151314
876.943	0.0150072
877.021	0.0151546
877.099	0.0151384
877.177	0.0150013
877.255	0.0150347
877.333	0.0149049
877.411	0.0149770
877.489	0.0150222
877.568	0.0150056
877.646	0.0149203
877.724	0.0149390
877.802	0.0149005
877.880	0.0149153
877.958	0.0150761
878.036	0.0149686
878.114	0.0149312
878.193	0.0149216
878.271	0.0149114
878.349	0.0148692
878.427	0.0151337
878.505	0.0150872
878.583	0.0150739
878.661	0.0150645
878.739	0.0149194
878.818	0.0150252
878.896	0.0150239
878.974	0.0150028
879.052	0.0151529
879.130	0.0149815
879.208	0.0151072
879.286	0.0150935
879.364	0.0150558
879.443	0.0150649
879.521	0.0151071
879.599	0.0151630
879.677	0.0149538
879.755	0.0151009
879.833	0.0152036
879.911	0.0150846
879.989	0.0151123
880.068	0.0150133
880.146	0.0149261
880.224	0.0151758
880.302	0.0151180
880.380	0.0151316
880.458	0.0151437
880.536	0.0151535
880.614	0.0151674
880.693	0.0150675
880.771	0.0151411
880.849	0.0152770
880.927	0.0152625
881.005	0.0150603
881.083	0.0150500
881.161	0.0149660
881.239	0.0149467
881.318	0.0148106
881.396	0.0147466
881.474	0.0147528
881.552	0.0147132
881.630	0.0146396
881.708	0.0147175
881.786	0.0147135
881.864	0.0149088
881.943	0.0148907
882.021	0.0150773
882.099	0.0149644
882.177	0.0150078
882.255	0.0153315
882.333	0.0152257
882.411	0.0152331
882.489	0.0152853
882.568	0.0152653
882.646	0.0151742
882.724	0.0153881
882.802	0.0151439
882.880	0.0152132
882.958	0.0151933
883.036	0.0151999
883.114	0.0149082
883.193	0.0149825
883.271	0.0150347
883.349	0.0148791
883.427	0.0148819
883.505	0.0148665
883.583	0.0148833
883.661	0.0148634
883.739	0.0147667
883.818	0.0147083
883.896	0.0146922
883.974	0.0146761
884.052	0.0147778
884.130	0.0146255
884.208	0.0145678
884.286	0.0146460
884.364	0.0148396
884.443	0.0149581
884.521	0.0149136
884.599	0.0151211
884.677	0.0152687
884.755	0.0153371
884.833	0.0153140
884.911	0.0155024
884.989	0.0156187
885.068	0.0156995
885.146	0.0156339
885.224	0.0157333
885.302	0.0159169
885.380	0.0156507
885.458	0.0157040
885.536	0.0156499
885.614	0.0153079
885.693	0.0153086
885.771	0.0152161
885.849	0.0150555
885.927	0.0148503
886.005	0.0148824
886.083	0.0145554
886.161	0.0144771
886.239	0.0145770
886.318	0.0143723
886.396	0.0142644
886.474	0.0143295
886.552	0.0143630
886.630	0.0145317
886.708	0.0145186
886.786	0.0145390
886.864	0.0146613
886.943	0.0146928
887.021	0.0146063
887.099	0.0147559
887.177	0.0148154
887.255	0.0148208
887.333	0.0149813
887.411	0.0150578
887.489	0.0151423
887.568	0.0153057
887.646	0.0155166
887.724	0.0154246
887.802	0.0158414
887.880	0.0157950
887.958	0.0158228
888.036	0.0159692
888.114	0.0160256
888.193	0.0159517
888.271	0.0161501
888.349	0.0159516
888.427	0.0158766
888.505	0.0158352
888.583	0.0156860
888.661	0.0157468
888.739	0.0155143
888.818	0.0152700
888.896	0.0151783
888.974	0.0150858
889.052	0.0149665
889.130	0.0147616
889.208	0.0143987
889.286	0.0145100
889.364	0.0143407
889.443	0.0141866
889.521	0.0140777
889.599	0.0140635
889.677	0.0141182
889.755	0.0139615
889.833	0.0140408
889.911	0.0141224
889.989	0.0142450
890.068	0.0144044
890.146	0.0144308
890.224	0.0147237
890.302	0.0148383
890.380	0.0149841
890.458	0.0150636
890.536	0.0152342
890.614	0.0153825
890.693	0.0153357
890.771	0.0154850
890.849	0.0154484
890.927	0.0154758
891.005	0.0156408
891.083	0.0156865
891.161	0.0156256
891.239	0.0154504
891.318	0.0155895
891.396	0.0156602
891.474	0.0155398
891.552	0.0154799
891.630	0.0155053
891.708	0.0154642
891.786	0.0154482
891.864	0.0153846
891.943	0.0154536
892.021	0.0153748
892.099	0.0151229
892.177	0.0152020
892.255	0.0152137
892.333	0.0149789
892.411	0.0149236
892.489	0.0150634
892.568	0.0149556
892.646	0.0148981
892.724	0.0148797
892.802	0.0148310
892.880	0.0148852
892.958	0.0147191
893.036	0.0146865
893.114	0.0146212
893.193	0.0146857
893.271	0.0145532
893.349	0.0145213
893.427	0.0145403
893.505	0.0145550
893.583	0.0143861
893.661	0.0144608
893.739	0.0145924
893.818	0.0147807
893.896	0.0149432
893.974	0.0149462
894.052	0.0150711
894.130	0.0151662
894.208	0.0152374
894.286	0.0154100
894.364	0.0153243
894.443	0.0154040
894.521	0.0155756
894.599	0.0154301
894.677	0.0153216
894.755	0.0153401
894.833	0.0152563
894.911	0.0153494
894.989	0.0152132
895.068	0.0152114
895.146	0.0151839
895.224	0.0149500
895.302	0.0148865
895.380	0.0148941
895.458	0.0150466
895.536	0.0148853
895.614	0.0148556
895.693	0.0148322
895.771	0.0150040
895.849	0.0150577
895.927	0.0151016
896.005	0.0150984
896.083	0.0152020
896.161	0.0151600
896.239	0.0153020
896.318	0.0152837
896.396	0.0152402
896.474	0.0152628
896.552	0.0151191
896.630	0.0151048
896.708	0.0152583
896.786	0.0151584
896.864	0.0148991
896.943	0.0148855
897.021	0.0149532
897.099	0.0150989
897.177	0.0147916
897.255	0.0147608
897.333	0.0147613
897.411	0.0148949
897.489	0.0149070
897.568	0.0148193
897.646	0.0148989
897.724	0.0150274
897.802	0.0149692
897.880	0.0150182
897.958	0.0149802
898.036	0.0150408
898.114	0.0150701
898.193	0.0149757
898.271	0.0150509
898.349	0.0151480
898.427	0.0151630
898.505	0.0153169
898.583	0.0151683
898.661	0.0149407
898.739	0.0150448
898.818	0.0151753
898.896	0.0151624
898.974	0.0150696
899.052	0.0150458
899.130	0.0148949
899.208	0.0149735
899.286	0.0150587
899.364	0.0151044
899.443	0.0150122
899.521	0.0149599
899.599	0.0150297
899.677	0.0150420
899.755	0.0150357
899.833	0.0151092
899.911	0.0152631
899.989	0.0151725
900.068	0.0151482
900.146	0.0153623
900.224	0.0153435
900.302	0.0152993
900.380	0.0152451
900.458	0.0152377
900.536	0.0152397
900.614	0.0152466
900.693	0.0153433
900.771	0.0153190
900.849	0.0152940
900.927	0.0152257
901.005	0.0150967
901.083	0.0150473
901.161	0.0152691
901.239	0.0151369
901.318	0.0150300
901.396	0.0151203
901.474	0.0150874
901.552	0.0148951
901.630	0.0149738
901.708	0.0148954
901.786	0.0150545
901.864	0.0148997
901.943	0.0148055
902.021	0.0147484
902.099	0.0148167
902.177	0.0147815
902.255	0.0146651
902.333	0.0147177
902.411	0.0148074
902.489	0.0146680
902.568	0.0146620
902.646	0.0147307
902.724	0.0148638
902.802	0.0148449
902.880	0.0149807
902.958	0.0150557
903.036	0.0150566
903.114	0.0151814
903.193	0.0152325
903.271	0.0153932
903.349	0.0153523
903.427	0.0154498
903.505	0.0153441
903.583	0.0153799
903.661	0.0155149
903.739	0.0156367
903.818	0.0153822
903.896	0.0155155
903.974	0.0155005
904.052	0.0153381
904.130	0.0153423
904.208	0.0153238
904.286	0.0152502
904.364	0.0153905
904.443	0.0151623
904.521	0.0152395
904.599	0.0153180
904.677	0.0150288
904.755	0.0151276
904.833	0.0152110
904.911	0.0151088
904.989	0.0149689
905.068	0.0149318
905.146	0.0148189
905.224	0.0148833
905.302	0.0150961
905.380	0.0149969
905.458	0.0148376
905.536	0.0148942
905.614	0.0149586
905.693	0.0149451
905.771	0.0148018
905.849	0.0148122
905.927	0.0148613
906.005	0.0148576
906.083	0.0148443
906.161	0.0149532
906.239	0.0149655
906.318	0.0150003
906.396	0.0148714
906.474	0.0148956
906.552	0.0148693
906.630	0.0149760
906.708	0.0149911
906.786	0.0151555
906.864	0.0151867
906.943	0.0150436
907.021	0.0150793
907.099	0.0151638
907.177	0.0151823
907.255	0.0151511
907.333	0.0150378
907.411	0.0151826
907.489	0.0150672
907.568	0.0151434
907.646	0.0151437
907.724	0.0152300
907.802	0.0151829
907.880	0.0151812
907.958	0.0152011
908.036	0.0152734
908.114	0.0152696
908.193	0.0153754
908.271	0.0153685
908.349	0.0151961
908.427	0.0153880
908.505	0.0152850
908.583	0.0153249
908.661	0.0153059
908.739	0.0152247
908.818	0.0152663
908.896	0.0151328
908.974	0.0150585
909.052	0.0150245
909.130	0.0150436
909.208	0.0151138
909.286	0.0151614
909.364	0.0151046
909.443	0.0151637
909.521	0.0151477
909.599	0.0150377
909.677	0.0152570
909.755	0.0149867
909.833	0.0150246
909.911	0.0151028
909.989	0.0150592
910.068	0.0149798
910.146	0.0148863
910.224	0.0147624
910.302	0.0148058
910.380	0.0148232
910.458	0.0148694
910.536	0.0148203
910.614	0.0146511
910.693	0.0147555
910.771	0.0148350
910.849	0.0147549
910.927	0.0149859
911.005	0.0148850
911.083	0.0148151
911.161	0.0149658
911.239	0.0148885
911.318	0.0150633
911.396	0.0150761
911.474	0.0151011
911.552	0.0150649
911.630	0.0151862
911.708	0.0154182
911.786	0.0153852
911.864	0.0152194
911.943	0.0153831
912.021	0.0153374
912.099	0.0153516
912.177	0.0153938
912.255	0.0154609
912.333	0.0154842
912.411	0.0153439
912.489	0.0152587
912.568	0.0151802
912.646	0.0152668
912.724	0.0151413
912.802	0.0150071
912.880	0.0149860
912.958	0.0150071
913.036	0.0150742
913.114	0.0148761
913.193	0.0149625
913.271	0.0150237
913.349	0.0149432
913.427	0.0147781
913.505	0.0150485
913.583	0.0149563
913.661	0.0148014
913.739	0.0147491
913.818	0.0149319
913.896	0.0150291
913.974	0.0149622
914.052	0.0148313
914.130	0.0149390
914.208	0.0150085
914.286	0.0149534
914.364	0.0150499
914.443	0.0150379
914.521	0.0149981
914.599	0.0150645
914.677	0.0150924
914.755	0.0151083
914.833	0.0151346
914.911	0.0151106
914.989	0.0150365
915.068	0.0151860
915.146	0.0151093
915.224	0.0151622
915.302	0.0150633
915.380	0.0151154
915.458	0.0150571
915.536	0.0151236
915.614	0.0151624
915.693	0.0152435
915.771	0.0150695
915.849	0.0151961
915.927	0.0151478
916.005	0.0151479
916.083	0.0152612
916.161	0.0152686
916.239	0.0152381
916.318	0.0150452
916.396	0.0151392
916.474	0.0150757
916.552	0.0150744
916.630	0.0152117
916.708	0.0149469
916.786	0.0149351
916.864	0.0150397
916.943	0.0150085
917.021	0.0151437
917.099	0.0150764
917.177	0.0150156
917.255	0.0149419
917.333	0.0149953
917.411	0.0151347
917.489	0.0152007
917.568	0.0151829
917.646	0.0151618
917.724	0.0152422
917.802	0.0152874
917.880	0.0152254
917.958	0.0152860
918.036	0.0152650
918.114	0.0151376
918.193	0.0151865
918.271	0.0152867
918.349	0.0151641
918.427	0.0150760
918.505	0.0152009
918.583	0.0150816
918.661	0.0149401
918.739	0.0149883
918.818	0.0149962
918.896	0.0148956
918.974	0.0149738
919.052	0.0149859
919.130	0.0150505
919.208	0.0149584
919.286	0.0149907
919.364	0.0150019
919.443	0.0148843
919.521	0.0150656
919.599	0.0149838
919.677	0.0149744
919.755	0.0150799
919.833	0.0149872
919.911	0.0150480
919.989	0.0150181
920.068	0.0152159
920.146	0.0150540
920.224	0.0151926
920.302	0.0150572
920.380	0.0151239
920.458	0.0150271
920.536	0.0150204
920.614	0.0151579
920.693	0.0150655
920.771	0.0151307
920.849	0.0150820
920.927	0.0151435
921.005	0.0151322
921.083	0.0151656
921.161	0.0151777
921.239	0.0151146
921.318	0.0150620
921.396	0.0152333
921.474	0.0152133
921.552	0.0151562
921.630	0.0150916
921.708	0.0151606
921.786	0.0152197
921.864	0.0151057
921.943	0.0151339
922.021	0.0153091
922.099	0.0153130
922.177	0.0152805
922.255	0.0151789
922.333	0.0150652
922.411	0.0151159
922.489	0.0151443
922.568	0.0151682
922.646	0.0151096
922.724	0.0151125
922.802	0.0150233
922.880	0.0151745
922.958	0.0151667
923.036	0.0150689
923.114	0.0151898
923.193	0.0152135
923.271	0.0151418
923.349	0.0150882
923.427	0.0151207
923.505	0.0151682
923.583	0.0150727
923.661	0.0150401
923.739	0.0152531
923.818	0.0151740
923.896	0.0149910
923.974	0.0149782
924.052	0.0151485
924.130	0.0149610
924.208	0.0149352
924.286	0.0150136
924.364	0.0149968
924.443	0.0150554
924.521	0.0150305
924.599	0.0150119
924.677	0.0149470
924.755	0.0150396
924.833	0.0149632
924.911	0.0149889
924.989	0.0151240
925.068	0.0151298
925.146	0.0151453
925.224	0.0151963
925.302	0.0150807
925.380	0.0151821
925.458	0.0151994
925.536	0.0152691
925.614	0.0153105
925.693	0.0153024
925.771	0.0152892
925.849	0.0154223
925.927	0.0154246
926.005	0.0153617
926.083	0.0152288
926.161	0.0153305
926.239	0.0153097
926.318	0.0153661
926.396	0.0151701
926.474	0.0152460
926.552	0.0152599
926.630	0.0151257
926.708	0.0152567
926.786	0.0152640
926.864	0.0150782
926.943	0.0150108
927.021	0.0152237
927.099	0.0151660
927.177	0.0151159
927.255	0.0150637
927.333	0.0151137
927.411	0.0150926
927.489	0.0149323
927.568	0.0148714
927.646	0.0149670
927.724	0.0150414
927.802	0.0148932
927.880	0.0148689
927.958	0.0151335
928.036	0.0149400
928.114	0.0149116
928.193	0.0149444
928.271	0.0149430
928.349	0.0149509
928.427	0.0148328
928.505	0.0148385
928.583	0.0148969
928.661	0.0150075
928.739	0.0151150
928.818	0.0150646
928.896	0.0152753
928.974	0.0153110
929.052	0.0152074
929.130	0.0152469
929.208	0.0153342
929.286	0.0153286
929.364	0.0154586
929.443	0.0153438
929.521	0.0155328
929.599	0.0154906
929.677	0.0155276
929.755	0.0153268
929.833	0.0153870
929.911	0.0154007
929.989	0.0155117
930.068	0.0154291
930.146	0.0154480
930.224	0.0153749
930.302	0.0153120
930.380	0.0153430
930.458	0.0153532
930.536	0.0153086
930.614	0.0152470
930.693	0.0152313
930.771	0.0152553
930.849	0.0152328
930.927	0.0150813
931.005	0.0150562
931.083	0.0150101
931.161	0.0150876
931.239	0.0149794
931.318	0.0149389
931.396	0.0148996
931.474	0.0150059
931.552	0.0148919
931.630	0.0148675
931.708	0.0150024
931.786	0.0149738
931.864	0.0150499
931.943	0.0150896
932.021	0.0150304
932.099	0.0150365
932.177	0.0149505
932.255	0.0151627
932.333	0.0150658
932.411	0.0152139
932.489	0.0152182
932.568	0.0152666
932.646	0.0150748
932.724	0.0150812
932.802	0.0153152
932.880	0.0153622
932.958	0.0151346
933.036	0.0151613
933.114	0.0151143
933.193	0.0151263
933.271	0.0152592
933.349	0.0151226
933.427	0.0151306
933.505	0.0151567
933.583	0.0151542
933.661	0.0151485
933.739	0.0151403
933.818	0.0151761
933.896	0.0151302
933.974	0.0151235
934.052	0.0149122
934.130	0.0148954
934.208	0.0149848
934.286	0.0150464
934.364	0.0149746
934.443	0.0150919
934.521	0.0151327
934.599	0.0149824
934.677	0.0150346
934.755	0.0152639
934.833	0.0152525
934.911	0.0152736
934.989	0.0153233
935.068	0.0152087
935.146	0.0152361
935.224	0.0153437
935.302	0.0152606
935.380	0.0152958
935.458	0.0152413
935.536	0.0151286
935.614	0.0151091
935.693	0.0152091
935.771	0.0150590
935.849	0.0150124
935.927	0.0149303
936.005	0.0149789
936.083	0.0148774
936.161	0.0150946
936.239	0.0150237
936.318	0.0148978
936.396	0.0148500
936.474	0.0150865
936.552	0.0151311
936.630	0.0148930
936.708	0.0150141
936.786	0.0150273
936.864	0.0151626
936.943	0.0151511
937.021	0.0150756
937.099	0.0150557
937.177	0.0150558
937.255	0.0151246
937.333	0.0150501
937.411	0.0152273
937.489	0.0152637
937.568	0.0150642
937.646	0.0150571
937.724	0.0152071
937.802	0.0149375
937.880	0.0151479
937.958	0.0152662
938.036	0.0151679
938.114	0.0151862
938.193	0.0151476
938.271	0.0151847
938.349	0.0151386
938.427	0.0151855
938.505	0.0152142
938.583	0.0151575
938.661	0.0151816
938.739	0.0150742
938.818	0.0151802
938.896	0.0151129
938.974	0.0150154
939.052	0.0150831
939.130	0.0151400
939.208	0.0149830
939.286	0.0150357
939.364	0.0148827
939.443	0.0149181
939.521	0.0150909
939.599	0.0150199
939.677	0.0150468
939.755	0.0150557
939.833	0.0149191
939.911	0.0148933
939.989	0.0151497
940.068	0.0150770
940.146	0.0152116
940.224	0.0151503
940.302	0.0151382
940.380	0.0152235
940.458	0.0152186
940.536	0.0151496
940.614	0.0150617
940.693	0.0152295
940.771	0.0152028
940.849	0.0152122
940.927	0.0151516
941.005	0.0152956
941.083	0.0152135
941.161	0.0152296
941.239	0.0151910
941.318	0.0152443
941.396	0.0151035
941.474	0.0149363
941.552	0.0149834
941.630	0.0149268
941.708	0.0149629
941.786	0.0148278
941.864	0.0148557
941.943	0.0147559
942.021	0.0147525
942.099	0.0148317
942.177	0.0148037
942.255	0.0146542
942.333	0.0146690
942.411	0.0147251
942.489	0.0147272
942.568	0.0147344
942.646	0.0148222
942.724	0.0149583
942.802	0.0148919
942.880	0.0149912
942.958	0.0149519
943.036	0.0150347
943.114	0.0150355
943.193	0.0151722
943.271	0.0153131
943.349	0.0153431
943.427	0.0154345
943.505	0.0153909
943.583	0.0154725
943.661	0.0155454
943.739	0.0154500
943.818	0.0154629
943.896	0.0154527
943.974	0.0155067
944.052	0.0153625
944.130	0.0154802
944.208	0.0155013
944.286	0.0153510
944.364	0.0154127
944.443	0.0153842
944.521	0.0152165
944.599	0.0153368
944.677	0.0152532
944.755	0.0151434
944.833	0.0151358
944.911	0.0149437
944.989	0.0148839
945.068	0.0148531
945.146	0.0148537
945.224	0.0147899
945.302	0.0148502
945.380	0.0148470
945.458	0.0147836
945.536	0.0148181
945.614	0.0147591
945.693	0.0148113
945.771	0.0149281
945.849	0.0147266
945.927	0.0149957
946.005	0.0149153
946.083	0.0148669
946.161	0.0149591
946.239	0.0150111
946.318	0.0151331
946.396	0.0151921
946.474	0.0151916
946.552	0.0150922
946.630	0.0151661
946.708	0.0150893
946.786	0.0153152
946.864	0.0152316
946.943	0.0152110
947.021	0.0152856
947.099	0.0152986
947.177	0.0152572
947.255	0.0152520
947.333	0.0152560
947.411	0.0152470
947.489	0.0152783
947.568	0.0152984
947.646	0.0153902
947.724	0.0151989
947.802	0.0152125
947.880	0.0151171
947.958	0.0151501
948.036	0.0151372
948.114	0.0151281
948.193	0.0150986
948.271	0.0151096
948.349	0.0150512
948.427	0.0149786
948.505	0.0150552
948.583	0.0151543
948.661	0.0150056
948.739	0.0150692
948.818	0.0150082
948.896	0.0150303
948.974	0.0150116
949.052	0.0150685
949.130	0.0149288
949.208	0.0150310
949.286	0.0149850
949.364	0.0151108
949.443	0.0151107
949.521	0.0151558
949.599	0.0150902
949.677	0.0151139
949.755	0.0151218
949.833	0.0151663
949.911	0.0150794
949.989	0.0151134
950.068	0.0150645
950.146	0.0151232
950.224	0.0151375
950.302	0.0150950
950.380	0.0151255
950.458	0.0149815
950.536	0.0150677
950.614	0.0151276
950.693	0.0149422
950.771	0.0150608
950.849	0.0151794
950.927	0.0151681
951.005	0.0150391
951.083	0.0151669
951.161	0.0151737
951.239	0.0151360
951.318	0.0151128
951.396	0.0151102
951.474	0.0150980
951.552	0.0150265
951.630	0.0150317
951.708	0.0151926
951.786	0.0150991
951.864	0.0150853
951.943	0.0150623
952.021	0.0151329
952.099	0.0151359
952.177	0.0149726
952.255	0.0151277
952.333	0.0149980
952.411	0.0150948
952.489	0.0151582
952.568	0.0151031
952.646	0.0150673
952.724	0.0151681
952.802	0.0151995
952.880	0.0151624
952.958	0.0152090
953.036	0.0151926
953.114	0.0151542
953.193	0.0153733
953.271	0.0151810
953.349	0.0152084
953.427	0.0151874
953.505	0.0150459
953.583	0.0150713
953.661	0.0150568
953.739	0.0151519
953.818	0.0151235
953.896	0.0149286
953.974	0.0151654
954.052	0.0151469
954.130	0.0148871
954.208	0.0150603
954.286	0.0151108
954.364	0.0150682
954.443	0.0151356
954.521	0.0150529
954.599	0.0149504
954.677	0.0151109
954.755	0.0150513
954.833	0.0151430
954.911	0.0150534
954.989	0.0151472
955.068	0.0151983
955.146	0.0150833
955.224	0.0150998
955.302	0.0150838
955.380	0.0152335
955.458	0.0151174
955.536	0.0151540
955.614	0.0151227
955.693	0.0149982
955.771	0.0149586
955.849	0.0150681
955.927	0.0151883
956.005	0.0150482
956.083	0.0148955
956.161	0.0149024
956.239	0.0151438
956.318	0.0150463
956.396	0.0149722
956.474	0.0149821
956.552	0.0149812
956.630	0.0149112
956.708	0.0150066
956.786	0.0149953
956.864	0.0150363
956.943	0.0149205
957.021	0.0150149
957.099	0.0150169
957.177	0.0148957
957.255	0.0149323
957.333	0.0148922
957.411	0.0150977
957.489	0.0149905
957.568	0.0149403
957.646	0.0150130
957.724	0.0149087
957.802	0.0150446
957.880	0.0150732
957.958	0.0151450
958.036	0.0149841
958.114	0.0150580
958.193	0.0151270
958.271	0.0150496
958.349	0.0150031
958.427	0.0150640
958.505	0.0150468
958.583	0.0150314
958.661	0.0149663
958.739	0.0149193
958.818	0.0150574
958.896	0.0150268
958.974	0.0149566
959.052	0.0151274
959.130	0.0149885
959.208	0.0149026
959.286	0.0150656
959.364	0.0151172
959.443	0.0149600
959.521	0.0149357
959.599	0.0149255
959.677	0.0148975
959.755	0.0149911
959.833	0.0150787
959.911	0.0150109
