05/20/2022	16:18:22	Ver.	4.1	UNKNOWN
Optical Delay	639.982744	Delta X		0.078125	Sweeps	1	Scan Rate	0/0
Coordinates	Axis 1	NaN	Axis 2	NaN	Axis 3	NaN	Axis 4	NaN	Axis 5	NaN	Axis 6	0.000000
TX Power	0.000000	RX Power	0.000000

639.983	0.0138786
640.061	0.0140031
640.139	0.0137427
640.217	0.0137667
640.295	0.0138940
640.373	0.0138921
640.451	0.0138499
640.530	0.0138776
640.608	0.0137971
640.686	0.0139342
640.764	0.0139980
640.842	0.0137267
640.920	0.0138940
640.998	0.0139265
641.076	0.0138871
641.155	0.0139238
641.233	0.0138500
641.311	0.0139484
641.389	0.0138903
641.467	0.0137692
641.545	0.0138905
641.623	0.0138925
641.701	0.0138182
641.780	0.0137656
641.858	0.0138065
641.936	0.0138876
642.014	0.0138742
642.092	0.0137168
642.170	0.0138402
642.248	0.0138407
642.326	0.0136824
642.405	0.0138140
642.483	0.0138573
642.561	0.0138152
642.639	0.0139503
642.717	0.0140060
642.795	0.0137881
642.873	0.0138673
642.951	0.0139538
643.030	0.0138827
643.108	0.0138811
643.186	0.0139659
643.264	0.0138174
643.342	0.0137872
643.420	0.0138814
643.498	0.0139746
643.576	0.0138051
643.655	0.0136685
643.733	0.0139352
643.811	0.0138591
643.889	0.0138528
643.967	0.0139222
644.045	0.0140711
644.123	0.0138285
644.201	0.0138097
644.280	0.0138240
644.358	0.0138129
644.436	0.0139386
644.514	0.0139016
644.592	0.0139346
644.670	0.0137531
644.748	0.0138293
644.826	0.0139068
644.905	0.0139480
644.983	0.0139043
645.061	0.0138181
645.139	0.0139143
645.217	0.0138574
645.295	0.0139668
645.373	0.0139482
645.451	0.0140045
645.530	0.0138893
645.608	0.0138404
645.686	0.0138523
645.764	0.0137793
645.842	0.0139069
645.920	0.0139130
645.998	0.0138675
646.076	0.0137804
646.155	0.0138885
646.233	0.0137987
646.311	0.0138067
646.389	0.0138379
646.467	0.0137411
646.545	0.0139011
646.623	0.0139195
646.701	0.0139440
646.780	0.0138219
646.858	0.0137791
646.936	0.0137938
647.014	0.0139000
647.092	0.0138767
647.170	0.0138689
647.248	0.0137666
647.326	0.0139615
647.405	0.0138600
647.483	0.0139326
647.561	0.0137728
647.639	0.0138197
647.717	0.0138631
647.795	0.0138322
647.873	0.0139038
647.951	0.0138921
648.030	0.0138466
648.108	0.0137241
648.186	0.0137857
648.264	0.0138514
648.342	0.0139468
648.420	0.0139374
648.498	0.0138634
648.576	0.0137898
648.655	0.0137831
648.733	0.0140033
648.811	0.0139593
648.889	0.0139848
648.967	0.0139188
649.045	0.0137719
649.123	0.0139023
649.201	0.0139624
649.280	0.0139710
649.358	0.0138474
649.436	0.0138662
649.514	0.0140586
649.592	0.0139379
649.670	0.0140271
649.748	0.0137080
649.826	0.0139001
649.905	0.0139642
649.983	0.0139791
650.061	0.0139259
650.139	0.0139305
650.217	0.0138685
650.295	0.0139986
650.373	0.0138698
650.451	0.0139845
650.530	0.0140365
650.608	0.0139470
650.686	0.0139592
650.764	0.0138819
650.842	0.0139163
650.920	0.0139941
650.998	0.0138810
651.076	0.0138409
651.155	0.0139803
651.233	0.0139433
651.311	0.0138394
651.389	0.0139272
651.467	0.0139466
651.545	0.0139539
651.623	0.0139196
651.701	0.0140046
651.780	0.0140568
651.858	0.0138874
651.936	0.0140018
652.014	0.0139503
652.092	0.0139767
652.170	0.0138660
652.248	0.0139299
652.326	0.0139766
652.405	0.0139642
652.483	0.0139338
652.561	0.0139138
652.639	0.0140204
652.717	0.0138931
652.795	0.0138901
652.873	0.0139837
652.951	0.0138725
653.030	0.0139169
653.108	0.0138998
653.186	0.0139606
653.264	0.0139892
653.342	0.0140649
653.420	0.0139935
653.498	0.0138866
653.576	0.0139275
653.655	0.0139868
653.733	0.0137883
653.811	0.0138280
653.889	0.0138647
653.967	0.0138119
654.045	0.0139797
654.123	0.0140128
654.201	0.0140842
654.280	0.0139958
654.358	0.0137522
654.436	0.0139227
654.514	0.0139421
654.592	0.0139040
654.670	0.0139227
654.748	0.0139319
654.826	0.0140457
654.905	0.0138395
654.983	0.0137984
655.061	0.0138158
655.139	0.0138865
655.217	0.0137041
655.295	0.0137813
655.373	0.0139075
655.451	0.0139388
655.530	0.0138235
655.608	0.0139233
655.686	0.0138882
655.764	0.0138720
655.842	0.0137958
655.920	0.0138117
655.998	0.0139851
656.076	0.0139081
656.155	0.0138649
656.233	0.0138199
656.311	0.0139551
656.389	0.0137939
656.467	0.0139721
656.545	0.0139426
656.623	0.0138865
656.701	0.0138200
656.780	0.0139221
656.858	0.0139503
656.936	0.0138057
657.014	0.0138907
657.092	0.0138628
657.170	0.0139057
657.248	0.0138387
657.326	0.0137469
657.405	0.0138327
657.483	0.0139276
657.561	0.0138437
657.639	0.0138170
657.717	0.0138310
657.795	0.0138963
657.873	0.0138155
657.951	0.0137328
658.030	0.0137791
658.108	0.0138799
658.186	0.0138432
658.264	0.0138838
658.342	0.0138786
658.420	0.0139633
658.498	0.0138599
658.576	0.0136841
658.655	0.0138618
658.733	0.0139233
658.811	0.0138937
658.889	0.0138205
658.967	0.0137526
659.045	0.0138594
659.123	0.0137440
659.201	0.0137644
659.280	0.0139433
659.358	0.0138895
659.436	0.0138325
659.514	0.0137465
659.592	0.0137254
659.670	0.0138579
659.748	0.0138112
659.826	0.0136713
659.905	0.0138333
659.983	0.0138489
660.061	0.0138332
660.139	0.0137867
660.217	0.0136938
660.295	0.0138488
660.373	0.0138638
660.451	0.0138412
660.530	0.0138786
660.608	0.0138992
660.686	0.0137834
660.764	0.0138358
660.842	0.0138210
660.920	0.0138109
660.998	0.0138000
661.076	0.0138004
661.155	0.0138047
661.233	0.0137851
661.311	0.0137394
661.389	0.0137456
661.467	0.0136800
661.545	0.0137938
661.623	0.0137933
661.701	0.0138219
661.780	0.0138324
661.858	0.0136269
661.936	0.0137325
662.014	0.0137985
662.092	0.0136652
662.170	0.0136896
662.248	0.0138358
662.326	0.0137162
662.405	0.0137923
662.483	0.0138072
662.561	0.0138068
662.639	0.0137394
662.717	0.0136990
662.795	0.0137896
662.873	0.0137105
662.951	0.0137753
663.030	0.0139489
663.108	0.0136869
663.186	0.0137417
663.264	0.0136942
663.342	0.0138123
663.420	0.0136479
663.498	0.0138139
663.576	0.0138268
663.655	0.0136551
663.733	0.0137204
663.811	0.0137439
663.889	0.0137833
663.967	0.0138987
664.045	0.0137995
664.123	0.0137967
664.201	0.0139066
664.280	0.0138698
664.358	0.0138414
664.436	0.0136937
664.514	0.0138061
664.592	0.0137804
664.670	0.0136442
664.748	0.0137292
664.826	0.0139220
664.905	0.0138229
664.983	0.0137102
665.061	0.0137863
665.139	0.0137581
665.217	0.0137741
665.295	0.0136882
665.373	0.0137922
665.451	0.0138102
665.530	0.0137356
665.608	0.0138177
665.686	0.0138674
665.764	0.0137478
665.842	0.0136949
665.920	0.0137964
665.998	0.0137386
666.076	0.0138235
666.155	0.0137738
666.233	0.0137989
666.311	0.0138057
666.389	0.0137808
666.467	0.0138273
666.545	0.0138924
666.623	0.0138860
666.701	0.0139032
666.780	0.0138834
666.858	0.0138194
666.936	0.0137965
667.014	0.0137085
667.092	0.0138039
667.170	0.0137831
667.248	0.0139824
667.326	0.0138245
667.405	0.0139056
667.483	0.0138918
667.561	0.0138490
667.639	0.0137708
667.717	0.0138835
667.795	0.0138326
667.873	0.0138953
667.951	0.0137682
668.030	0.0136764
668.108	0.0138903
668.186	0.0139191
668.264	0.0139839
668.342	0.0137030
668.420	0.0138193
668.498	0.0138911
668.576	0.0139143
668.655	0.0138108
668.733	0.0139902
668.811	0.0139046
668.889	0.0138543
668.967	0.0137720
669.045	0.0136881
669.123	0.0138528
669.201	0.0139050
669.280	0.0139629
669.358	0.0138698
669.436	0.0138609
669.514	0.0138893
669.592	0.0138089
669.670	0.0139650
669.748	0.0139197
669.826	0.0141135
669.905	0.0139671
669.983	0.0138447
670.061	0.0139410
670.139	0.0139256
670.217	0.0138818
670.295	0.0139539
670.373	0.0138132
670.451	0.0139606
670.530	0.0139928
670.608	0.0138670
670.686	0.0138570
670.764	0.0139150
670.842	0.0138486
670.920	0.0138802
670.998	0.0139572
671.076	0.0140226
671.155	0.0139788
671.233	0.0139144
671.311	0.0139680
671.389	0.0138277
671.467	0.0140546
671.545	0.0139856
671.623	0.0138246
671.701	0.0139100
671.780	0.0140150
671.858	0.0139772
671.936	0.0138978
672.014	0.0139086
672.092	0.0138218
672.170	0.0138532
672.248	0.0139588
672.326	0.0140750
672.405	0.0139160
672.483	0.0139652
672.561	0.0138304
672.639	0.0138882
672.717	0.0139119
672.795	0.0138832
672.873	0.0139516
672.951	0.0141109
673.030	0.0138577
673.108	0.0138180
673.186	0.0139649
673.264	0.0138882
673.342	0.0138809
673.420	0.0137820
673.498	0.0138672
673.576	0.0139044
673.655	0.0139386
673.733	0.0138980
673.811	0.0139503
673.889	0.0137498
673.967	0.0138254
674.045	0.0140237
674.123	0.0138406
674.201	0.0139599
674.280	0.0140220
674.358	0.0139574
674.436	0.0140186
674.514	0.0139923
674.592	0.0140744
674.670	0.0139404
674.748	0.0140154
674.826	0.0140459
674.905	0.0140343
674.983	0.0139913
675.061	0.0139513
675.139	0.0139618
675.217	0.0138354
675.295	0.0138445
675.373	0.0139892
675.451	0.0139911
675.530	0.0138964
675.608	0.0139667
675.686	0.0139158
675.764	0.0138371
675.842	0.0137876
675.920	0.0138737
675.998	0.0138597
676.076	0.0138811
676.155	0.0139143
676.233	0.0139594
676.311	0.0139743
676.389	0.0141125
676.467	0.0140393
676.545	0.0139452
676.623	0.0139724
676.701	0.0140119
676.780	0.0141637
676.858	0.0140002
676.936	0.0140793
677.014	0.0140882
677.092	0.0140816
677.170	0.0140439
677.248	0.0139178
677.326	0.0140424
677.405	0.0139385
677.483	0.0139217
677.561	0.0138969
677.639	0.0138736
677.717	0.0140413
677.795	0.0140379
677.873	0.0139302
677.951	0.0139392
678.030	0.0138609
678.108	0.0139745
678.186	0.0139577
678.264	0.0140392
678.342	0.0140147
678.420	0.0140001
678.498	0.0139450
678.576	0.0139130
678.655	0.0139462
678.733	0.0138145
678.811	0.0137891
678.889	0.0141025
678.967	0.0138821
679.045	0.0139053
679.123	0.0139371
679.201	0.0138372
679.280	0.0139444
679.358	0.0138974
679.436	0.0138509
679.514	0.0138740
679.592	0.0138108
679.670	0.0139017
679.748	0.0139422
679.826	0.0140044
679.905	0.0139199
679.983	0.0140153
680.061	0.0139069
680.139	0.0139075
680.217	0.0139739
680.295	0.0139850
680.373	0.0139610
680.451	0.0140207
680.530	0.0138635
680.608	0.0139540
680.686	0.0138790
680.764	0.0139051
680.842	0.0138927
680.920	0.0138123
680.998	0.0136872
681.076	0.0137276
681.155	0.0136994
681.233	0.0137916
681.311	0.0137542
681.389	0.0136529
681.467	0.0137260
681.545	0.0137546
681.623	0.0138351
681.701	0.0137512
681.780	0.0136880
681.858	0.0136546
681.936	0.0136007
682.014	0.0138196
682.092	0.0138831
682.170	0.0137849
682.248	0.0137583
682.326	0.0138531
682.405	0.0139413
682.483	0.0139529
682.561	0.0140309
682.639	0.0139441
682.717	0.0139081
682.795	0.0139568
682.873	0.0138096
682.951	0.0138084
683.030	0.0138772
683.108	0.0138335
683.186	0.0139232
683.264	0.0138577
683.342	0.0138820
683.420	0.0138410
683.498	0.0137756
683.576	0.0137698
683.655	0.0137083
683.733	0.0136677
683.811	0.0136973
683.889	0.0135840
683.967	0.0135714
684.045	0.0135283
684.123	0.0133558
684.201	0.0134764
684.280	0.0135060
684.358	0.0135025
684.436	0.0134766
684.514	0.0134596
684.592	0.0136047
684.670	0.0136206
684.748	0.0136722
684.826	0.0138059
684.905	0.0137775
684.983	0.0137936
685.061	0.0139807
685.139	0.0141256
685.217	0.0140866
685.295	0.0140793
685.373	0.0141453
685.451	0.0141975
685.530	0.0143095
685.608	0.0141352
685.686	0.0141632
685.764	0.0142958
685.842	0.0141589
685.920	0.0140009
685.998	0.0140189
686.076	0.0139612
686.155	0.0137667
686.233	0.0135895
686.311	0.0134471
686.389	0.0133887
686.467	0.0132542
686.545	0.0133083
686.623	0.0132557
686.701	0.0134328
686.780	0.0133422
686.858	0.0135038
686.936	0.0135129
687.014	0.0136186
687.092	0.0137228
687.170	0.0137577
687.248	0.0137207
687.326	0.0140131
687.405	0.0139489
687.483	0.0139480
687.561	0.0138354
687.639	0.0139485
687.717	0.0138094
687.795	0.0137978
687.873	0.0136237
687.951	0.0136433
688.030	0.0136880
688.108	0.0136119
688.186	0.0135903
688.264	0.0137069
688.342	0.0136527
688.420	0.0137746
688.498	0.0139125
688.576	0.0139087
688.655	0.0139082
688.733	0.0140289
688.811	0.0139208
688.889	0.0138969
688.967	0.0138963
689.045	0.0138353
689.123	0.0137315
689.201	0.0136480
689.280	0.0136024
689.358	0.0134263
689.436	0.0135809
689.514	0.0137189
689.592	0.0136862
689.670	0.0136686
689.748	0.0139312
689.826	0.0140470
689.905	0.0141080
689.983	0.0141999
690.061	0.0143974
690.139	0.0143951
690.217	0.0144942
690.295	0.0144103
690.373	0.0144434
690.451	0.0145257
690.530	0.0141827
690.608	0.0141068
690.686	0.0139143
690.764	0.0136377
690.842	0.0134531
690.920	0.0132710
690.998	0.0134309
691.076	0.0133865
691.155	0.0133636
691.233	0.0135609
691.311	0.0136561
691.389	0.0138187
691.467	0.0139790
691.545	0.0141981
691.623	0.0141620
691.701	0.0142048
691.780	0.0140680
691.858	0.0140465
691.936	0.0140041
692.014	0.0139832
692.092	0.0139122
692.170	0.0137543
692.248	0.0135693
692.326	0.0133705
692.405	0.0133904
692.483	0.0135411
692.561	0.0135456
692.639	0.0135378
692.717	0.0135136
692.795	0.0135825
692.873	0.0136494
692.951	0.0135598
693.030	0.0136526
693.108	0.0133340
693.186	0.0131635
693.264	0.0132286
693.342	0.0131041
693.420	0.0132584
693.498	0.0132571
693.576	0.0133123
693.655	0.0135049
693.733	0.0137199
693.811	0.0138459
693.889	0.0142943
693.967	0.0144559
694.045	0.0143879
694.123	0.0145625
694.201	0.0146833
694.280	0.0145460
694.358	0.0143311
694.436	0.0144931
694.514	0.0141233
694.592	0.0140603
694.670	0.0141256
694.748	0.0142666
694.826	0.0142558
694.905	0.0143380
694.983	0.0145599
695.061	0.0144341
695.139	0.0146860
695.217	0.0147536
695.295	0.0147587
695.373	0.0147172
695.451	0.0145423
695.530	0.0143427
695.608	0.0141180
695.686	0.0137708
695.764	0.0136502
695.842	0.0134682
695.920	0.0133167
695.998	0.0132439
696.076	0.0131367
696.155	0.0131065
696.233	0.0131370
696.311	0.0134351
696.389	0.0136140
696.467	0.0137534
696.545	0.0138580
696.623	0.0138187
696.701	0.0139171
696.780	0.0140334
696.858	0.0139941
696.936	0.0141088
697.014	0.0140903
697.092	0.0139183
697.170	0.0138543
697.248	0.0138208
697.326	0.0136444
697.405	0.0136559
697.483	0.0135720
697.561	0.0134442
697.639	0.0133464
697.717	0.0132109
697.795	0.0130817
697.873	0.0130469
697.951	0.0129967
698.030	0.0131047
698.108	0.0131363
698.186	0.0132941
698.264	0.0134283
698.342	0.0134044
698.420	0.0136761
698.498	0.0138414
698.576	0.0140715
698.655	0.0139758
698.733	0.0141724
698.811	0.0143549
698.889	0.0143985
698.967	0.0142319
699.045	0.0141341
699.123	0.0143187
699.201	0.0143590
699.280	0.0143458
699.358	0.0142782
699.436	0.0145219
699.514	0.0145840
699.592	0.0147268
699.670	0.0147878
699.748	0.0147849
699.826	0.0148309
699.905	0.0148840
699.983	0.0146954
700.061	0.0146903
700.139	0.0144965
700.217	0.0143182
700.295	0.0139108
700.373	0.0136838
700.451	0.0134331
700.530	0.0132851
700.608	0.0130810
700.686	0.0130640
700.764	0.0130543
700.842	0.0132278
700.920	0.0134963
700.998	0.0135059
701.076	0.0136652
701.155	0.0139268
701.233	0.0140364
701.311	0.0141259
701.389	0.0142995
701.467	0.0144978
701.545	0.0144253
701.623	0.0143613
701.701	0.0143853
701.780	0.0140886
701.858	0.0139603
701.936	0.0137816
702.014	0.0136353
702.092	0.0135957
702.170	0.0133154
702.248	0.0134486
702.326	0.0133799
702.405	0.0132545
702.483	0.0134954
702.561	0.0136340
702.639	0.0137897
702.717	0.0138911
702.795	0.0140623
702.873	0.0141896
702.951	0.0144537
703.030	0.0146118
703.108	0.0147920
703.186	0.0148680
703.264	0.0149867
703.342	0.0149423
703.420	0.0147607
703.498	0.0147827
703.576	0.0146478
703.655	0.0144109
703.733	0.0141484
703.811	0.0137917
703.889	0.0135339
703.967	0.0130431
704.045	0.0126453
704.123	0.0123989
704.201	0.0122518
704.280	0.0119665
704.358	0.0117857
704.436	0.0115861
704.514	0.0114799
704.592	0.0113132
704.670	0.0113561
704.748	0.0115333
704.826	0.0115978
704.905	0.0116389
704.983	0.0119609
705.061	0.0122781
705.139	0.0124141
705.217	0.0127107
705.295	0.0130228
705.373	0.0133705
705.451	0.0136982
705.530	0.0140354
705.608	0.0141805
705.686	0.0144607
705.764	0.0148870
705.842	0.0152660
705.920	0.0155287
705.998	0.0157116
706.076	0.0160830
706.155	0.0162756
706.233	0.0164211
706.311	0.0164889
706.389	0.0167328
706.467	0.0167486
706.545	0.0168570
706.623	0.0168725
706.701	0.0167791
706.780	0.0167251
706.858	0.0165867
706.936	0.0163924
707.014	0.0165340
707.092	0.0161272
707.170	0.0159232
707.248	0.0156411
707.326	0.0153877
707.405	0.0151586
707.483	0.0148106
707.561	0.0142118
707.639	0.0139407
707.717	0.0135553
707.795	0.0132821
707.873	0.0129449
707.951	0.0126578
708.030	0.0122332
708.108	0.0119740
708.186	0.0117036
708.264	0.0114641
708.342	0.0112811
708.420	0.0113203
708.498	0.0110632
708.576	0.0109406
708.655	0.0109808
708.733	0.0110133
708.811	0.0109287
708.889	0.0110030
708.967	0.0111971
709.045	0.0115809
709.123	0.0117069
709.201	0.0119170
709.280	0.0120561
709.358	0.0120625
709.436	0.0123817
709.514	0.0124873
709.592	0.0124884
709.670	0.0126544
709.748	0.0126350
709.826	0.0127782
709.905	0.0128687
709.983	0.0130469
710.061	0.0129887
710.139	0.0131282
710.217	0.0134462
710.295	0.0136957
710.373	0.0139102
710.451	0.0141515
710.530	0.0144079
710.608	0.0146709
710.686	0.0147861
710.764	0.0150094
710.842	0.0152486
710.920	0.0154495
710.998	0.0156400
711.076	0.0157484
711.155	0.0157672
711.233	0.0159757
711.311	0.0158961
711.389	0.0161138
711.467	0.0163123
711.545	0.0163075
711.623	0.0162944
711.701	0.0162328
711.780	0.0162936
711.858	0.0163698
711.936	0.0160116
712.014	0.0158442
712.092	0.0157902
712.170	0.0155729
712.248	0.0155335
712.326	0.0155360
712.405	0.0151759
712.483	0.0150867
712.561	0.0150089
712.639	0.0148784
712.717	0.0148489
712.795	0.0146884
712.873	0.0144873
712.951	0.0143346
713.030	0.0142692
713.108	0.0138124
713.186	0.0137062
713.264	0.0134877
713.342	0.0133292
713.420	0.0130159
713.498	0.0128487
713.576	0.0125713
713.655	0.0121098
713.733	0.0118961
713.811	0.0116865
713.889	0.0114614
713.967	0.0110744
714.045	0.0110247
714.123	0.0108918
714.201	0.0108289
714.280	0.0107049
714.358	0.0107571
714.436	0.0107079
714.514	0.0110300
714.592	0.0113039
714.670	0.0114002
714.748	0.0116768
714.826	0.0121149
714.905	0.0123916
714.983	0.0127726
715.061	0.0128922
715.139	0.0132323
715.217	0.0136077
715.295	0.0138802
715.373	0.0140114
715.451	0.0140996
715.530	0.0142668
715.608	0.0142304
715.686	0.0142902
715.764	0.0145110
715.842	0.0144234
715.920	0.0146593
715.998	0.0146829
716.076	0.0149673
716.155	0.0150169
716.233	0.0151402
716.311	0.0152068
716.389	0.0152908
716.467	0.0152538
716.545	0.0153979
716.623	0.0153368
716.701	0.0153138
716.780	0.0151852
716.858	0.0150653
716.936	0.0150304
717.014	0.0148479
717.092	0.0147732
717.170	0.0147135
717.248	0.0146252
717.326	0.0145934
717.405	0.0144167
717.483	0.0141970
717.561	0.0141684
717.639	0.0140605
717.717	0.0136965
717.795	0.0136695
717.873	0.0137167
717.951	0.0135574
718.030	0.0136672
718.108	0.0135207
718.186	0.0135348
718.264	0.0136201
718.342	0.0137717
718.420	0.0137476
718.498	0.0138425
718.576	0.0138916
718.655	0.0140658
718.733	0.0141661
718.811	0.0141656
718.889	0.0141996
718.967	0.0143617
719.045	0.0141349
719.123	0.0143279
719.201	0.0144186
719.280	0.0146310
719.358	0.0145905
719.436	0.0148384
719.514	0.0149470
719.592	0.0150881
719.670	0.0151573
719.748	0.0151331
719.826	0.0151627
719.905	0.0150545
719.983	0.0148898
720.061	0.0148230
720.139	0.0146146
720.217	0.0143699
720.295	0.0137849
720.373	0.0134681
720.451	0.0130231
720.530	0.0125656
720.608	0.0122282
720.686	0.0118403
720.764	0.0115813
720.842	0.0113194
720.920	0.0111737
720.998	0.0109557
721.076	0.0109656
721.155	0.0109750
721.233	0.0111045
721.311	0.0113249
721.389	0.0115672
721.467	0.0118401
721.545	0.0121127
721.623	0.0124792
721.701	0.0128902
721.780	0.0133740
721.858	0.0137888
721.936	0.0140899
722.014	0.0144861
722.092	0.0148823
722.170	0.0152602
722.248	0.0153058
722.326	0.0153110
722.405	0.0155038
722.483	0.0154246
722.561	0.0153760
722.639	0.0151765
722.717	0.0151030
722.795	0.0148040
722.873	0.0145555
722.951	0.0144503
723.030	0.0140372
723.108	0.0138253
723.186	0.0134609
723.264	0.0133115
723.342	0.0131306
723.420	0.0130170
723.498	0.0128182
723.576	0.0129759
723.655	0.0128983
723.733	0.0129743
723.811	0.0131914
723.889	0.0132933
723.967	0.0134676
724.045	0.0137953
724.123	0.0139486
724.201	0.0143336
724.280	0.0145262
724.358	0.0147973
724.436	0.0151438
724.514	0.0154655
724.592	0.0156168
724.670	0.0159422
724.748	0.0159566
724.826	0.0162128
724.905	0.0163603
724.983	0.0162337
725.061	0.0160135
725.139	0.0159834
725.217	0.0157091
725.295	0.0155018
725.373	0.0154604
725.451	0.0151720
725.530	0.0147415
725.608	0.0145166
725.686	0.0146813
725.764	0.0144221
725.842	0.0140440
725.920	0.0139040
725.998	0.0137286
726.076	0.0137876
726.155	0.0135592
726.233	0.0135480
726.311	0.0137743
726.389	0.0138316
726.467	0.0136728
726.545	0.0136639
726.623	0.0137062
726.701	0.0136828
726.780	0.0135603
726.858	0.0135062
726.936	0.0133733
727.014	0.0131126
727.092	0.0131216
727.170	0.0128441
727.248	0.0125861
727.326	0.0123151
727.405	0.0119691
727.483	0.0117625
727.561	0.0114614
727.639	0.0113235
727.717	0.0112389
727.795	0.0110191
727.873	0.0109441
727.951	0.0108126
728.030	0.0109955
728.108	0.0112281
728.186	0.0114109
728.264	0.0117220
728.342	0.0120956
728.420	0.0126484
728.498	0.0129282
728.576	0.0135093
728.655	0.0139532
728.733	0.0142815
728.811	0.0147002
728.889	0.0152538
728.967	0.0153290
729.045	0.0155412
729.123	0.0157076
729.201	0.0157961
729.280	0.0158491
729.358	0.0159066
729.436	0.0156567
729.514	0.0154893
729.592	0.0152603
729.670	0.0151059
729.748	0.0147352
729.826	0.0143938
729.905	0.0141648
729.983	0.0138554
730.061	0.0136447
730.139	0.0136267
730.217	0.0133562
730.295	0.0133263
730.373	0.0131606
730.451	0.0131492
730.530	0.0132062
730.608	0.0132584
730.686	0.0134523
730.764	0.0135773
730.842	0.0138138
730.920	0.0139075
730.998	0.0141053
731.076	0.0145550
731.155	0.0148191
731.233	0.0150617
731.311	0.0153650
731.389	0.0155467
731.467	0.0157925
731.545	0.0159038
731.623	0.0160040
731.701	0.0160790
731.780	0.0161612
731.858	0.0158799
731.936	0.0157275
732.014	0.0155911
732.092	0.0154796
732.170	0.0150944
732.248	0.0148039
732.326	0.0145741
732.405	0.0142880
732.483	0.0140335
732.561	0.0138068
732.639	0.0134443
732.717	0.0132905
732.795	0.0131143
732.873	0.0127860
732.951	0.0127445
733.030	0.0128149
733.108	0.0125213
733.186	0.0123537
733.264	0.0124183
733.342	0.0125654
733.420	0.0125707
733.498	0.0127335
733.576	0.0128827
733.655	0.0129702
733.733	0.0132151
733.811	0.0132656
733.889	0.0133453
733.967	0.0133762
734.045	0.0131979
734.123	0.0131346
734.201	0.0131290
734.280	0.0128912
734.358	0.0127586
734.436	0.0126191
734.514	0.0125227
734.592	0.0123418
734.670	0.0124387
734.748	0.0122374
734.826	0.0121848
734.905	0.0122238
734.983	0.0123319
735.061	0.0125117
735.139	0.0126465
735.217	0.0127702
735.295	0.0129027
735.373	0.0132257
735.451	0.0134081
735.530	0.0137121
735.608	0.0138863
735.686	0.0142371
735.764	0.0145167
735.842	0.0146705
735.920	0.0147515
735.998	0.0150900
736.076	0.0150851
736.155	0.0151911
736.233	0.0152508
736.311	0.0151945
736.389	0.0152718
736.467	0.0152419
736.545	0.0152230
736.623	0.0150693
736.701	0.0148692
736.780	0.0146216
736.858	0.0146894
736.936	0.0144086
737.014	0.0142242
737.092	0.0139308
737.170	0.0138164
737.248	0.0136100
737.326	0.0134208
737.405	0.0132212
737.483	0.0130391
737.561	0.0129266
737.639	0.0130138
737.717	0.0129718
737.795	0.0129749
737.873	0.0132618
737.951	0.0133250
738.030	0.0136656
738.108	0.0139900
738.186	0.0143025
738.264	0.0144910
738.342	0.0149086
738.420	0.0152393
738.498	0.0154366
738.576	0.0157213
738.655	0.0158960
738.733	0.0159180
738.811	0.0158650
738.889	0.0158522
738.967	0.0155852
739.045	0.0154638
739.123	0.0152680
739.201	0.0151010
739.280	0.0146839
739.358	0.0144051
739.436	0.0141573
739.514	0.0137873
739.592	0.0136520
739.670	0.0134448
739.748	0.0130722
739.826	0.0130829
739.905	0.0129652
739.983	0.0127624
740.061	0.0128833
740.139	0.0129522
740.217	0.0127410
740.295	0.0129854
740.373	0.0128970
740.451	0.0131072
740.530	0.0130258
740.608	0.0132475
740.686	0.0134346
740.764	0.0133344
740.842	0.0134901
740.920	0.0133560
740.998	0.0134034
741.076	0.0132267
741.155	0.0132588
741.233	0.0131599
741.311	0.0130602
741.389	0.0128276
741.467	0.0129970
741.545	0.0127548
741.623	0.0126804
741.701	0.0127676
741.780	0.0128001
741.858	0.0126864
741.936	0.0127330
742.014	0.0128419
742.092	0.0129364
742.170	0.0129967
742.248	0.0130296
742.326	0.0132027
742.405	0.0132437
742.483	0.0134004
742.561	0.0133963
742.639	0.0135378
742.717	0.0138482
742.795	0.0138384
742.873	0.0140564
742.951	0.0142946
743.030	0.0143575
743.108	0.0145650
743.186	0.0145145
743.264	0.0146687
743.342	0.0148027
743.420	0.0147333
743.498	0.0148236
743.576	0.0146156
743.655	0.0147215
743.733	0.0147324
743.811	0.0147068
743.889	0.0147620
743.967	0.0146632
744.045	0.0148470
744.123	0.0146907
744.201	0.0146363
744.280	0.0143516
744.358	0.0145802
744.436	0.0144502
744.514	0.0142048
744.592	0.0139040
744.670	0.0137960
744.748	0.0137753
744.826	0.0135467
744.905	0.0134044
744.983	0.0133759
745.061	0.0134727
745.139	0.0133866
745.217	0.0135033
745.295	0.0135313
745.373	0.0136330
745.451	0.0139388
745.530	0.0141167
745.608	0.0142551
745.686	0.0145115
745.764	0.0148267
745.842	0.0149757
745.920	0.0152177
745.998	0.0153316
746.076	0.0155669
746.155	0.0157756
746.233	0.0157037
746.311	0.0155219
746.389	0.0153304
746.467	0.0152318
746.545	0.0150294
746.623	0.0146823
746.701	0.0143362
746.780	0.0140963
746.858	0.0137965
746.936	0.0134151
747.014	0.0131617
747.092	0.0129899
747.170	0.0128228
747.248	0.0126815
747.326	0.0125116
747.405	0.0125854
747.483	0.0125757
747.561	0.0126315
747.639	0.0128246
747.717	0.0128238
747.795	0.0129716
747.873	0.0130820
747.951	0.0132848
748.030	0.0133418
748.108	0.0134470
748.186	0.0135482
748.264	0.0135953
748.342	0.0135621
748.420	0.0135757
748.498	0.0135418
748.576	0.0134372
748.655	0.0133875
748.733	0.0135204
748.811	0.0134653
748.889	0.0133275
748.967	0.0133968
749.045	0.0134345
749.123	0.0133789
749.201	0.0133707
749.280	0.0133324
749.358	0.0132543
749.436	0.0131710
749.514	0.0133697
749.592	0.0133476
749.670	0.0134430
749.748	0.0133790
749.826	0.0135366
749.905	0.0137469
749.983	0.0137700
750.061	0.0139745
750.139	0.0142538
750.217	0.0143328
750.295	0.0146526
750.373	0.0147298
750.451	0.0147984
750.530	0.0149157
750.608	0.0148757
750.686	0.0149156
750.764	0.0150085
750.842	0.0149216
750.920	0.0148782
750.998	0.0147543
751.076	0.0145799
751.155	0.0144805
751.233	0.0143513
751.311	0.0143053
751.389	0.0142085
751.467	0.0140931
751.545	0.0140057
751.623	0.0139294
751.701	0.0137954
751.780	0.0137991
751.858	0.0136347
751.936	0.0136557
752.014	0.0136044
752.092	0.0136669
752.170	0.0135690
752.248	0.0134708
752.326	0.0136814
752.405	0.0137521
752.483	0.0136409
752.561	0.0139504
752.639	0.0139361
752.717	0.0140321
752.795	0.0141661
752.873	0.0141547
752.951	0.0143413
753.030	0.0144753
753.108	0.0145325
753.186	0.0144752
753.264	0.0147101
753.342	0.0146223
753.420	0.0147449
753.498	0.0145989
753.576	0.0147691
753.655	0.0148029
753.733	0.0144435
753.811	0.0144985
753.889	0.0144692
753.967	0.0142790
754.045	0.0141920
754.123	0.0140853
754.201	0.0139892
754.280	0.0139185
754.358	0.0135490
754.436	0.0133487
754.514	0.0133918
754.592	0.0130760
754.670	0.0131250
754.748	0.0131007
754.826	0.0129399
754.905	0.0129017
754.983	0.0130577
755.061	0.0130355
755.139	0.0133144
755.217	0.0134121
755.295	0.0134308
755.373	0.0135782
755.451	0.0135516
755.530	0.0137669
755.608	0.0136340
755.686	0.0136797
755.764	0.0136710
755.842	0.0136309
755.920	0.0135007
755.998	0.0133398
756.076	0.0134303
756.155	0.0132022
756.233	0.0131836
756.311	0.0130773
756.389	0.0129767
756.467	0.0130904
756.545	0.0129794
756.623	0.0130126
756.701	0.0133205
756.780	0.0131532
756.858	0.0133303
756.936	0.0135454
757.014	0.0136813
757.092	0.0138487
757.170	0.0140011
757.248	0.0139330
757.326	0.0140509
757.405	0.0142043
757.483	0.0143020
757.561	0.0144495
757.639	0.0146835
757.717	0.0146870
757.795	0.0146926
757.873	0.0147446
757.951	0.0147321
758.030	0.0146303
758.108	0.0146532
758.186	0.0144908
758.264	0.0145950
758.342	0.0143259
758.420	0.0142532
758.498	0.0142255
758.576	0.0141258
758.655	0.0139876
758.733	0.0138412
758.811	0.0138636
758.889	0.0136175
758.967	0.0135291
759.045	0.0136378
759.123	0.0133997
759.201	0.0135327
759.280	0.0133057
759.358	0.0133564
759.436	0.0133870
759.514	0.0134810
759.592	0.0134053
759.670	0.0135512
759.748	0.0136080
759.826	0.0136797
759.905	0.0138475
759.983	0.0140462
760.061	0.0140906
760.139	0.0141869
760.217	0.0142076
760.295	0.0142382
760.373	0.0144647
760.451	0.0144463
760.530	0.0145866
760.608	0.0145427
760.686	0.0144727
760.764	0.0145934
760.842	0.0145279
760.920	0.0144922
760.998	0.0145737
761.076	0.0144459
761.155	0.0142898
761.233	0.0143701
761.311	0.0142317
761.389	0.0142789
761.467	0.0142020
761.545	0.0138549
761.623	0.0137744
761.701	0.0138550
761.780	0.0136638
761.858	0.0134859
761.936	0.0133520
762.014	0.0133482
762.092	0.0133915
762.170	0.0133327
762.248	0.0131308
762.326	0.0132278
762.405	0.0133154
762.483	0.0132687
762.561	0.0133058
762.639	0.0133024
762.717	0.0134632
762.795	0.0135322
762.873	0.0135217
762.951	0.0136919
763.030	0.0137758
763.108	0.0137308
763.186	0.0135642
763.264	0.0135817
763.342	0.0135766
763.420	0.0133364
763.498	0.0131539
763.576	0.0131160
763.655	0.0130830
763.733	0.0129064
763.811	0.0128304
763.889	0.0127456
763.967	0.0128027
764.045	0.0128463
764.123	0.0131560
764.201	0.0131853
764.280	0.0131497
764.358	0.0133011
764.436	0.0136048
764.514	0.0138611
764.592	0.0139597
764.670	0.0140866
764.748	0.0143964
764.826	0.0145143
764.905	0.0146407
764.983	0.0147337
765.061	0.0147581
765.139	0.0148059
765.217	0.0147115
765.295	0.0148266
765.373	0.0146980
765.451	0.0147499
765.530	0.0145405
765.608	0.0144827
765.686	0.0143599
765.764	0.0141760
765.842	0.0142015
765.920	0.0140830
765.998	0.0137788
766.076	0.0136997
766.155	0.0136024
766.233	0.0136865
766.311	0.0134613
766.389	0.0134081
766.467	0.0132388
766.545	0.0131699
766.623	0.0133022
766.701	0.0133254
766.780	0.0133228
766.858	0.0132526
766.936	0.0134772
767.014	0.0133688
767.092	0.0134045
767.170	0.0134979
767.248	0.0135727
767.326	0.0137739
767.405	0.0138612
767.483	0.0138960
767.561	0.0139606
767.639	0.0143290
767.717	0.0143449
767.795	0.0144506
767.873	0.0146205
767.951	0.0146400
768.030	0.0147559
768.108	0.0146896
768.186	0.0148785
768.264	0.0148008
768.342	0.0147446
768.420	0.0146667
768.498	0.0146516
768.576	0.0143862
768.655	0.0142366
768.733	0.0141917
768.811	0.0142992
768.889	0.0140643
768.967	0.0139944
769.045	0.0137919
769.123	0.0139095
769.201	0.0137671
769.280	0.0136214
769.358	0.0136246
769.436	0.0135532
769.514	0.0134405
769.592	0.0133067
769.670	0.0135159
769.748	0.0134142
769.826	0.0133633
769.905	0.0134010
769.983	0.0133057
770.061	0.0135103
770.139	0.0135236
770.217	0.0136154
770.295	0.0135600
770.373	0.0136429
770.451	0.0138475
770.530	0.0138093
770.608	0.0138002
770.686	0.0138597
770.764	0.0138309
770.842	0.0136251
770.920	0.0136367
770.998	0.0135252
771.076	0.0134306
771.155	0.0133807
771.233	0.0132459
771.311	0.0133584
771.389	0.0131225
771.467	0.0131388
771.545	0.0132623
771.623	0.0132230
771.701	0.0132906
771.780	0.0133934
771.858	0.0132089
771.936	0.0135034
772.014	0.0137199
772.092	0.0139317
772.170	0.0140395
772.248	0.0140620
772.326	0.0142277
772.405	0.0143465
772.483	0.0144951
772.561	0.0145558
772.639	0.0146441
772.717	0.0147022
772.795	0.0148098
772.873	0.0146746
772.951	0.0149171
773.030	0.0146747
773.108	0.0145007
773.186	0.0144659
773.264	0.0143486
773.342	0.0142650
773.420	0.0141374
773.498	0.0140412
773.576	0.0138881
773.655	0.0137428
773.733	0.0138017
773.811	0.0135862
773.889	0.0134053
773.967	0.0133067
774.045	0.0133788
774.123	0.0133155
774.201	0.0131636
774.280	0.0132964
774.358	0.0133019
774.436	0.0132081
774.514	0.0133620
774.592	0.0134783
774.670	0.0136562
774.748	0.0135781
774.826	0.0138284
774.905	0.0139892
774.983	0.0139713
775.061	0.0141564
775.139	0.0143489
775.217	0.0142490
775.295	0.0144030
775.373	0.0145943
775.451	0.0147155
775.530	0.0147381
775.608	0.0147663
775.686	0.0148993
775.764	0.0148125
775.842	0.0147681
775.920	0.0147977
775.998	0.0146317
776.076	0.0146073
776.155	0.0144771
776.233	0.0143715
776.311	0.0142908
776.389	0.0142645
776.467	0.0139632
776.545	0.0138462
776.623	0.0137494
776.701	0.0136687
776.780	0.0136333
776.858	0.0134215
776.936	0.0133317
777.014	0.0134145
777.092	0.0132921
777.170	0.0133442
777.248	0.0133935
777.326	0.0131683
777.405	0.0133482
777.483	0.0135289
777.561	0.0134188
777.639	0.0135820
777.717	0.0136278
777.795	0.0137298
777.873	0.0137079
777.951	0.0138836
778.030	0.0137976
778.108	0.0138338
778.186	0.0139462
778.264	0.0139344
778.342	0.0137903
778.420	0.0139298
778.498	0.0138513
778.576	0.0136466
778.655	0.0137495
778.733	0.0136342
778.811	0.0136532
778.889	0.0135860
778.967	0.0134873
779.045	0.0135001
779.123	0.0133285
779.201	0.0132085
779.280	0.0133914
779.358	0.0134038
779.436	0.0133509
779.514	0.0135290
779.592	0.0136214
779.670	0.0137403
779.748	0.0137855
779.826	0.0138049
779.905	0.0139754
779.983	0.0139343
780.061	0.0141702
780.139	0.0142310
780.217	0.0142717
780.295	0.0143541
780.373	0.0145096
780.451	0.0144623
780.530	0.0145383
780.608	0.0145875
780.686	0.0144219
780.764	0.0143794
780.842	0.0144349
780.920	0.0142828
780.998	0.0140407
781.076	0.0139777
781.155	0.0139957
781.233	0.0139120
781.311	0.0137720
781.389	0.0136620
781.467	0.0135995
781.545	0.0134827
781.623	0.0135079
781.701	0.0134898
781.780	0.0134563
781.858	0.0133629
781.936	0.0134689
782.014	0.0134319
782.092	0.0134979
782.170	0.0135881
782.248	0.0135799
782.326	0.0135842
782.405	0.0138033
782.483	0.0137429
782.561	0.0138136
782.639	0.0140577
782.717	0.0140481
782.795	0.0140285
782.873	0.0142529
782.951	0.0142937
783.030	0.0143075
783.108	0.0143809
783.186	0.0145152
783.264	0.0143324
783.342	0.0143259
783.420	0.0145959
783.498	0.0145055
783.576	0.0143797
783.655	0.0143607
783.733	0.0142440
783.811	0.0142417
783.889	0.0141692
783.967	0.0140929
784.045	0.0139840
784.123	0.0137691
784.201	0.0137616
784.280	0.0138441
784.358	0.0136240
784.436	0.0136964
784.514	0.0135250
784.592	0.0133308
784.670	0.0133626
784.748	0.0133968
784.826	0.0133710
784.905	0.0134451
784.983	0.0134409
785.061	0.0133466
785.139	0.0134824
785.217	0.0135523
785.295	0.0133753
785.373	0.0134935
785.451	0.0136150
785.530	0.0136012
785.608	0.0135893
785.686	0.0136325
785.764	0.0136858
785.842	0.0138445
785.920	0.0138485
785.998	0.0136606
786.076	0.0137025
786.155	0.0137273
786.233	0.0138811
786.311	0.0137227
786.389	0.0137514
786.467	0.0138008
786.545	0.0136434
786.623	0.0136458
786.701	0.0134988
786.780	0.0136864
786.858	0.0137263
786.936	0.0136364
787.014	0.0135593
787.092	0.0135387
787.170	0.0136514
787.248	0.0136451
787.326	0.0137533
787.405	0.0136631
787.483	0.0137061
787.561	0.0137394
787.639	0.0138542
787.717	0.0139262
787.795	0.0140020
787.873	0.0140907
787.951	0.0140544
788.030	0.0141389
788.108	0.0141497
788.186	0.0141583
788.264	0.0141711
788.342	0.0141805
788.420	0.0143195
788.498	0.0140944
788.576	0.0142102
788.655	0.0141591
788.733	0.0141555
788.811	0.0140653
788.889	0.0140301
788.967	0.0140886
789.045	0.0139146
789.123	0.0137660
789.201	0.0136685
789.280	0.0136740
789.358	0.0135712
789.436	0.0135081
789.514	0.0133974
789.592	0.0134374
789.670	0.0134425
789.748	0.0134248
789.826	0.0133742
789.905	0.0133465
789.983	0.0135450
790.061	0.0135796
790.139	0.0134512
790.217	0.0137335
790.295	0.0137478
790.373	0.0137047
790.451	0.0137895
790.530	0.0140821
790.608	0.0141106
790.686	0.0141241
790.764	0.0141691
790.842	0.0142609
790.920	0.0143844
790.998	0.0143311
791.076	0.0144675
791.155	0.0142953
791.233	0.0142683
791.311	0.0143769
791.389	0.0142319
791.467	0.0142706
791.545	0.0141056
791.623	0.0141764
791.701	0.0140777
791.780	0.0138039
791.858	0.0139297
791.936	0.0139249
792.014	0.0138767
792.092	0.0136995
792.170	0.0135997
792.248	0.0136672
792.326	0.0135476
792.405	0.0133530
792.483	0.0134299
792.561	0.0135094
792.639	0.0135009
792.717	0.0135966
792.795	0.0135272
792.873	0.0135078
792.951	0.0136430
793.030	0.0135899
793.108	0.0136109
793.186	0.0137204
793.264	0.0136436
793.342	0.0135403
793.420	0.0135285
793.498	0.0135974
793.576	0.0136745
793.655	0.0136275
793.733	0.0135929
793.811	0.0136857
793.889	0.0137209
793.967	0.0135580
794.045	0.0136464
794.123	0.0137683
794.201	0.0136343
794.280	0.0136302
794.358	0.0135911
794.436	0.0136130
794.514	0.0135510
794.592	0.0135720
794.670	0.0136208
794.748	0.0136066
794.826	0.0136672
794.905	0.0137419
794.983	0.0137665
795.061	0.0140520
795.139	0.0138228
795.217	0.0137613
795.295	0.0139475
795.373	0.0140237
795.451	0.0140509
795.530	0.0142049
795.608	0.0142057
795.686	0.0141982
795.764	0.0140354
795.842	0.0142426
795.920	0.0143137
795.998	0.0143569
796.076	0.0143568
796.155	0.0142537
796.233	0.0141468
796.311	0.0141169
796.389	0.0141462
796.467	0.0141701
796.545	0.0140002
796.623	0.0138033
796.701	0.0139091
796.780	0.0139221
796.858	0.0138391
796.936	0.0135802
797.014	0.0136908
797.092	0.0138338
797.170	0.0138364
797.248	0.0137508
797.326	0.0135963
797.405	0.0136853
797.483	0.0138425
797.561	0.0137212
797.639	0.0136770
797.717	0.0137785
797.795	0.0137376
797.873	0.0138178
797.951	0.0138002
798.030	0.0139226
798.108	0.0141053
798.186	0.0139702
798.264	0.0139696
798.342	0.0141058
798.420	0.0141122
798.498	0.0142065
798.576	0.0142888
798.655	0.0141596
798.733	0.0142087
798.811	0.0143447
798.889	0.0143748
798.967	0.0142565
799.045	0.0142827
799.123	0.0144018
799.201	0.0143307
799.280	0.0142217
799.358	0.0143270
799.436	0.0142141
799.514	0.0141667
799.592	0.0141163
799.670	0.0141940
799.748	0.0141145
799.826	0.0137937
799.905	0.0138890
799.983	0.0137708
800.061	0.0136426
800.139	0.0137136
800.217	0.0135331
800.295	0.0134998
800.373	0.0134913
800.451	0.0134359
800.530	0.0133749
800.608	0.0134573
800.686	0.0135395
800.764	0.0134314
800.842	0.0135751
800.920	0.0136158
800.998	0.0136749
801.076	0.0136437
801.155	0.0136208
801.233	0.0136463
801.311	0.0137856
801.389	0.0136788
801.467	0.0137022
801.545	0.0137096
801.623	0.0136932
801.701	0.0137032
801.780	0.0135952
801.858	0.0137463
801.936	0.0138322
802.014	0.0139567
802.092	0.0138841
802.170	0.0137980
802.248	0.0138128
802.326	0.0139285
802.405	0.0140035
802.483	0.0141245
802.561	0.0141100
802.639	0.0140587
802.717	0.0142027
802.795	0.0140182
802.873	0.0140765
802.951	0.0142449
803.030	0.0142482
803.108	0.0141806
803.186	0.0142500
803.264	0.0142121
803.342	0.0142799
803.420	0.0141418
803.498	0.0143203
803.576	0.0141665
803.655	0.0143116
803.733	0.0141325
803.811	0.0142137
803.889	0.0143766
803.967	0.0144064
804.045	0.0140939
804.123	0.0140459
804.201	0.0139228
804.280	0.0138720
804.358	0.0139118
804.436	0.0136959
804.514	0.0137930
804.592	0.0136776
804.670	0.0137043
804.748	0.0135345
804.826	0.0133801
804.905	0.0134328
804.983	0.0133372
805.061	0.0131366
805.139	0.0133569
805.217	0.0133009
805.295	0.0130905
805.373	0.0132530
805.451	0.0132191
805.530	0.0133287
805.608	0.0134327
805.686	0.0134026
805.764	0.0134516
805.842	0.0134535
805.920	0.0135559
805.998	0.0136761
806.076	0.0137225
806.155	0.0136546
806.233	0.0137707
806.311	0.0136703
806.389	0.0138983
806.467	0.0138476
806.545	0.0138987
806.623	0.0139026
806.701	0.0139482
806.780	0.0140737
806.858	0.0142403
806.936	0.0142499
807.014	0.0143835
807.092	0.0144022
807.170	0.0142452
807.248	0.0141686
807.326	0.0143361
807.405	0.0144051
807.483	0.0142200
807.561	0.0141986
807.639	0.0141949
807.717	0.0140590
807.795	0.0140902
807.873	0.0138931
807.951	0.0137899
808.030	0.0140029
808.108	0.0139474
808.186	0.0138773
808.264	0.0140260
808.342	0.0140258
808.420	0.0139792
808.498	0.0139660
808.576	0.0140297
808.655	0.0138747
808.733	0.0141695
808.811	0.0140443
808.889	0.0139364
808.967	0.0140664
809.045	0.0140410
809.123	0.0140259
809.201	0.0140232
809.280	0.0139145
809.358	0.0140508
809.436	0.0139340
809.514	0.0138371
809.592	0.0139060
809.670	0.0136817
809.748	0.0135941
809.826	0.0136079
809.905	0.0137841
809.983	0.0136211
810.061	0.0134863
810.139	0.0135341
810.217	0.0135443
810.295	0.0134206
810.373	0.0133085
810.451	0.0135041
810.530	0.0135047
810.608	0.0134707
810.686	0.0133755
810.764	0.0132648
810.842	0.0133085
810.920	0.0135263
810.998	0.0133592
811.076	0.0134008
811.155	0.0134720
811.233	0.0134555
811.311	0.0136028
811.389	0.0134986
811.467	0.0136725
811.545	0.0137978
811.623	0.0138266
811.701	0.0137510
811.780	0.0138158
811.858	0.0139829
811.936	0.0139842
812.014	0.0139303
812.092	0.0137514
812.170	0.0140349
812.248	0.0141045
812.326	0.0138814
812.405	0.0138754
812.483	0.0139320
812.561	0.0139944
812.639	0.0138912
812.717	0.0139996
812.795	0.0139128
812.873	0.0140106
812.951	0.0139263
813.030	0.0138861
813.108	0.0139090
813.186	0.0140029
813.264	0.0140739
813.342	0.0140913
813.420	0.0139233
813.498	0.0141103
813.576	0.0141137
813.655	0.0140804
813.733	0.0141503
813.811	0.0141887
813.889	0.0140370
813.967	0.0142135
814.045	0.0141784
814.123	0.0141825
814.201	0.0142224
814.280	0.0140121
814.358	0.0141764
814.436	0.0141183
814.514	0.0141161
814.592	0.0141759
814.670	0.0142129
814.748	0.0141994
814.826	0.0141209
814.905	0.0140174
814.983	0.0140473
815.061	0.0140389
815.139	0.0139536
815.217	0.0140182
815.295	0.0141662
815.373	0.0140625
815.451	0.0139211
815.530	0.0140923
815.608	0.0140298
815.686	0.0139919
815.764	0.0139461
815.842	0.0139939
815.920	0.0138316
815.998	0.0139497
816.076	0.0139804
816.155	0.0138844
816.233	0.0136892
816.311	0.0138173
816.389	0.0136437
816.467	0.0136867
816.545	0.0136790
816.623	0.0136477
816.701	0.0135935
816.780	0.0136794
816.858	0.0135735
816.936	0.0135951
817.014	0.0135942
817.092	0.0137310
817.170	0.0135995
817.248	0.0135118
817.326	0.0135361
817.405	0.0135455
817.483	0.0135981
817.561	0.0134904
817.639	0.0136734
817.717	0.0134833
817.795	0.0136018
817.873	0.0134944
817.951	0.0136945
818.030	0.0136301
818.108	0.0133821
818.186	0.0136021
818.264	0.0136708
818.342	0.0137865
818.420	0.0137515
818.498	0.0137591
818.576	0.0137511
818.655	0.0138614
818.733	0.0139253
818.811	0.0138264
818.889	0.0140228
818.967	0.0139703
819.045	0.0139742
819.123	0.0140874
819.201	0.0140790
819.280	0.0140733
819.358	0.0142564
819.436	0.0140915
819.514	0.0142175
819.592	0.0142391
819.670	0.0141290
819.748	0.0141667
819.826	0.0141893
819.905	0.0142397
819.983	0.0143007
820.061	0.0141930
820.139	0.0141319
820.217	0.0141463
820.295	0.0141352
820.373	0.0142957
820.451	0.0143268
820.530	0.0140487
820.608	0.0141365
820.686	0.0141605
820.764	0.0140988
820.842	0.0139513
820.920	0.0140581
820.998	0.0141250
821.076	0.0140083
821.155	0.0139954
821.233	0.0138172
821.311	0.0138711
821.389	0.0140419
821.467	0.0139389
821.545	0.0139392
821.623	0.0139008
821.701	0.0138873
821.780	0.0139034
821.858	0.0141784
821.936	0.0139514
822.014	0.0139908
822.092	0.0140531
822.170	0.0141456
822.248	0.0141139
822.326	0.0142281
822.405	0.0142410
822.483	0.0141409
822.561	0.0141418
822.639	0.0140195
822.717	0.0141641
822.795	0.0140958
822.873	0.0141116
822.951	0.0139792
823.030	0.0138259
823.108	0.0136797
823.186	0.0137411
823.264	0.0138371
823.342	0.0136813
823.420	0.0135224
823.498	0.0136349
823.576	0.0134547
823.655	0.0134042
823.733	0.0134081
823.811	0.0132143
823.889	0.0132941
823.967	0.0132843
824.045	0.0132146
824.123	0.0132680
824.201	0.0131616
824.280	0.0133768
824.358	0.0133785
824.436	0.0133585
824.514	0.0134827
824.592	0.0133102
824.670	0.0135065
824.748	0.0136185
824.826	0.0137429
824.905	0.0137112
824.983	0.0138640
825.061	0.0137310
825.139	0.0138106
825.217	0.0140300
825.295	0.0139785
825.373	0.0139314
825.451	0.0140818
825.530	0.0140744
825.608	0.0140778
825.686	0.0140460
825.764	0.0141480
825.842	0.0141602
825.920	0.0140508
825.998	0.0141112
826.076	0.0140453
826.155	0.0141071
826.233	0.0140261
826.311	0.0141816
826.389	0.0140981
826.467	0.0140604
826.545	0.0140252
826.623	0.0140549
826.701	0.0140249
826.780	0.0139222
826.858	0.0138425
826.936	0.0139407
827.014	0.0138950
827.092	0.0138385
827.170	0.0139127
827.248	0.0139695
827.326	0.0138634
827.405	0.0137962
827.483	0.0138579
827.561	0.0139621
827.639	0.0139594
827.717	0.0137556
827.795	0.0138559
827.873	0.0139366
827.951	0.0139748
828.030	0.0141071
828.108	0.0140765
828.186	0.0139146
828.264	0.0139716
828.342	0.0138212
828.420	0.0140282
828.498	0.0140492
828.576	0.0140255
828.655	0.0138680
828.733	0.0138990
828.811	0.0138470
828.889	0.0138026
828.967	0.0138033
829.045	0.0137041
829.123	0.0137108
829.201	0.0137983
829.280	0.0137019
829.358	0.0137411
829.436	0.0136036
829.514	0.0135474
829.592	0.0137606
829.670	0.0137340
829.748	0.0136398
829.826	0.0136449
829.905	0.0137087
829.983	0.0137717
830.061	0.0137109
830.139	0.0136472
830.217	0.0136515
830.295	0.0137511
830.373	0.0137469
830.451	0.0138388
830.530	0.0136851
830.608	0.0136643
830.686	0.0138165
830.764	0.0138337
830.842	0.0137942
830.920	0.0137480
830.998	0.0136716
831.076	0.0137370
831.155	0.0137779
831.233	0.0137328
831.311	0.0137234
831.389	0.0135876
831.467	0.0137994
831.545	0.0137904
831.623	0.0137522
831.701	0.0136906
831.780	0.0137660
831.858	0.0137237
831.936	0.0137250
832.014	0.0138753
832.092	0.0139055
832.170	0.0140133
832.248	0.0139282
832.326	0.0141039
832.405	0.0140460
832.483	0.0141284
832.561	0.0141154
832.639	0.0139912
832.717	0.0140904
832.795	0.0142531
832.873	0.0142245
832.951	0.0141840
833.030	0.0141612
833.108	0.0141186
833.186	0.0140455
833.264	0.0140554
833.342	0.0140755
833.420	0.0138981
833.498	0.0139687
833.576	0.0139514
833.655	0.0139790
833.733	0.0138811
833.811	0.0139123
833.889	0.0137576
833.967	0.0137608
834.045	0.0137911
834.123	0.0137954
834.201	0.0136134
834.280	0.0136964
834.358	0.0137672
834.436	0.0136066
834.514	0.0137007
834.592	0.0137840
834.670	0.0137209
834.748	0.0137091
834.826	0.0137746
834.905	0.0137753
834.983	0.0138287
835.061	0.0137688
835.139	0.0139064
835.217	0.0138265
835.295	0.0139088
835.373	0.0138492
835.451	0.0138877
835.530	0.0138872
835.608	0.0139448
835.686	0.0138871
835.764	0.0140059
835.842	0.0138698
835.920	0.0138013
835.998	0.0137885
836.076	0.0139518
836.155	0.0139087
836.233	0.0138767
836.311	0.0138583
836.389	0.0138263
836.467	0.0139072
836.545	0.0140694
836.623	0.0137969
836.701	0.0138655
836.780	0.0138078
836.858	0.0139536
836.936	0.0139334
837.014	0.0139500
837.092	0.0138484
837.170	0.0138596
837.248	0.0139388
837.326	0.0138741
837.405	0.0139037
837.483	0.0139174
837.561	0.0138184
837.639	0.0138406
837.717	0.0138649
837.795	0.0137807
837.873	0.0138422
837.951	0.0137849
838.030	0.0137939
838.108	0.0138260
838.186	0.0137921
838.264	0.0138240
838.342	0.0138467
838.420	0.0138946
838.498	0.0139126
838.576	0.0138522
838.655	0.0140077
838.733	0.0140977
838.811	0.0140681
838.889	0.0140475
838.967	0.0139870
839.045	0.0139816
839.123	0.0139326
839.201	0.0140333
839.280	0.0139413
839.358	0.0140475
839.436	0.0141074
839.514	0.0140150
839.592	0.0141216
839.670	0.0140376
839.748	0.0139302
839.826	0.0140098
839.905	0.0139867
839.983	0.0138403
840.061	0.0138604
840.139	0.0139588
840.217	0.0138579
840.295	0.0138882
840.373	0.0140580
840.451	0.0137178
840.530	0.0137470
840.608	0.0139291
840.686	0.0139374
840.764	0.0139240
840.842	0.0139721
840.920	0.0139507
840.998	0.0138746
841.076	0.0137367
841.155	0.0136848
841.233	0.0138268
841.311	0.0139980
841.389	0.0138889
841.467	0.0138879
841.545	0.0138223
841.623	0.0138573
841.701	0.0137757
841.780	0.0138986
841.858	0.0139262
841.936	0.0140607
842.014	0.0140069
842.092	0.0139752
842.170	0.0140115
842.248	0.0138866
842.326	0.0139294
842.405	0.0140797
842.483	0.0139637
842.561	0.0140295
842.639	0.0140147
842.717	0.0140088
842.795	0.0141125
842.873	0.0139975
842.951	0.0140575
843.030	0.0141059
843.108	0.0139779
843.186	0.0138556
843.264	0.0139163
843.342	0.0138725
843.420	0.0137717
843.498	0.0138084
843.576	0.0138475
843.655	0.0136827
843.733	0.0137949
843.811	0.0139157
843.889	0.0138544
843.967	0.0137001
844.045	0.0137201
844.123	0.0137341
844.201	0.0137069
844.280	0.0137424
844.358	0.0137563
844.436	0.0136688
844.514	0.0137169
844.592	0.0138339
844.670	0.0136988
844.748	0.0138078
844.826	0.0138735
844.905	0.0137958
844.983	0.0137038
845.061	0.0137118
845.139	0.0137939
845.217	0.0137663
845.295	0.0137673
845.373	0.0137917
845.451	0.0138022
845.530	0.0138335
845.608	0.0137653
845.686	0.0137543
845.764	0.0138240
845.842	0.0139481
845.920	0.0139239
845.998	0.0139463
846.076	0.0138082
846.155	0.0139556
846.233	0.0140010
846.311	0.0138042
846.389	0.0139661
846.467	0.0139163
846.545	0.0139011
846.623	0.0139754
846.701	0.0140923
846.780	0.0138844
846.858	0.0139993
846.936	0.0139414
847.014	0.0139510
847.092	0.0139877
847.170	0.0138573
847.248	0.0139312
847.326	0.0139877
847.405	0.0137988
847.483	0.0139109
847.561	0.0138636
847.639	0.0137746
847.717	0.0137439
847.795	0.0137472
847.873	0.0140131
847.951	0.0138724
848.030	0.0138392
848.108	0.0138011
848.186	0.0136987
848.264	0.0138763
848.342	0.0138948
848.420	0.0137514
848.498	0.0138660
848.576	0.0138834
848.655	0.0136497
848.733	0.0137917
848.811	0.0138919
848.889	0.0139182
848.967	0.0137717
849.045	0.0139572
849.123	0.0137941
849.201	0.0139395
849.280	0.0138366
849.358	0.0138802
849.436	0.0137627
849.514	0.0138201
849.592	0.0139576
849.670	0.0139025
849.748	0.0138644
849.826	0.0139993
849.905	0.0138785
849.983	0.0138505
850.061	0.0137576
850.139	0.0138405
850.217	0.0138556
850.295	0.0139404
850.373	0.0138396
850.451	0.0139208
850.530	0.0138215
850.608	0.0138239
850.686	0.0138274
850.764	0.0136841
850.842	0.0138169
850.920	0.0138258
850.998	0.0139880
851.076	0.0137388
851.155	0.0136555
851.233	0.0137195
851.311	0.0139295
851.389	0.0137473
851.467	0.0137540
851.545	0.0138112
851.623	0.0138670
851.701	0.0137906
851.780	0.0137246
851.858	0.0137103
851.936	0.0138083
852.014	0.0138497
852.092	0.0137029
852.170	0.0137139
852.248	0.0137796
852.326	0.0137697
852.405	0.0137531
852.483	0.0137882
852.561	0.0137645
852.639	0.0137529
852.717	0.0138192
852.795	0.0139448
852.873	0.0137331
852.951	0.0137819
853.030	0.0140279
853.108	0.0139303
853.186	0.0138470
853.264	0.0139161
853.342	0.0138410
853.420	0.0138635
853.498	0.0137337
853.576	0.0139366
853.655	0.0138806
853.733	0.0139635
853.811	0.0138425
853.889	0.0139752
853.967	0.0139523
854.045	0.0139756
854.123	0.0141137
854.201	0.0141568
854.280	0.0141062
854.358	0.0141879
854.436	0.0141772
854.514	0.0140395
854.592	0.0139629
854.670	0.0138693
854.748	0.0140614
854.826	0.0140180
854.905	0.0139322
854.983	0.0138496
855.061	0.0139758
855.139	0.0139390
855.217	0.0137735
855.295	0.0137766
855.373	0.0137044
855.451	0.0137668
855.530	0.0138347
855.608	0.0138940
855.686	0.0138790
855.764	0.0138403
855.842	0.0137263
855.920	0.0137995
855.998	0.0139646
856.076	0.0138886
856.155	0.0140485
856.233	0.0138290
856.311	0.0138783
856.389	0.0137672
856.467	0.0138648
856.545	0.0139672
856.623	0.0137317
856.701	0.0138628
856.780	0.0137920
856.858	0.0138921
856.936	0.0139506
857.014	0.0139484
857.092	0.0139455
857.170	0.0139371
857.248	0.0138067
857.326	0.0137171
857.405	0.0137669
857.483	0.0139635
857.561	0.0138831
857.639	0.0137192
857.717	0.0139356
857.795	0.0138008
857.873	0.0139410
857.951	0.0137891
858.030	0.0137742
858.108	0.0138601
858.186	0.0138496
858.264	0.0138363
858.342	0.0139131
858.420	0.0138326
858.498	0.0137157
858.576	0.0139395
858.655	0.0138534
858.733	0.0138239
858.811	0.0137316
858.889	0.0138591
858.967	0.0139016
859.045	0.0138921
859.123	0.0138414
859.201	0.0137914
859.280	0.0137746
859.358	0.0137389
859.436	0.0138269
859.514	0.0137968
859.592	0.0136848
859.670	0.0138152
859.748	0.0135690
859.826	0.0136563
859.905	0.0137093
859.983	0.0137080
860.061	0.0137414
860.139	0.0137505
860.217	0.0137727
860.295	0.0139818
860.373	0.0137326
860.451	0.0137273
860.530	0.0137463
860.608	0.0137078
860.686	0.0138806
860.764	0.0138644
860.842	0.0139337
860.920	0.0137946
860.998	0.0138990
861.076	0.0139835
861.155	0.0140012
861.233	0.0140434
861.311	0.0139695
861.389	0.0141039
861.467	0.0139618
861.545	0.0140694
861.623	0.0140341
861.701	0.0141900
861.780	0.0140507
861.858	0.0141086
861.936	0.0141768
862.014	0.0140807
862.092	0.0139970
862.170	0.0140788
862.248	0.0138686
862.326	0.0139642
862.405	0.0139702
862.483	0.0139629
862.561	0.0140807
862.639	0.0140073
862.717	0.0137907
862.795	0.0139474
862.873	0.0139925
862.951	0.0138198
863.030	0.0138747
863.108	0.0138606
863.186	0.0139396
863.264	0.0138883
863.342	0.0139748
863.420	0.0138943
863.498	0.0138104
863.576	0.0138351
863.655	0.0137910
863.733	0.0138881
863.811	0.0138921
863.889	0.0137961
863.967	0.0138647
864.045	0.0139356
864.123	0.0137694
864.201	0.0138995
864.280	0.0136768
864.358	0.0138052
864.436	0.0139095
864.514	0.0139005
864.592	0.0139549
864.670	0.0138966
864.748	0.0138850
864.826	0.0139019
864.905	0.0138539
864.983	0.0138689
865.061	0.0137428
865.139	0.0139108
865.217	0.0138886
865.295	0.0137685
865.373	0.0138256
865.451	0.0138595
865.530	0.0138425
865.608	0.0139383
865.686	0.0139619
865.764	0.0138041
865.842	0.0138471
865.920	0.0138843
865.998	0.0138166
866.076	0.0137585
866.155	0.0138365
866.233	0.0138638
866.311	0.0138058
866.389	0.0139600
866.467	0.0137685
866.545	0.0137392
866.623	0.0138256
866.701	0.0139296
866.780	0.0139260
866.858	0.0138648
866.936	0.0139510
867.014	0.0138678
867.092	0.0138168
867.170	0.0138519
867.248	0.0140043
867.326	0.0139874
867.405	0.0140234
867.483	0.0139957
867.561	0.0140130
867.639	0.0139983
867.717	0.0139982
867.795	0.0138769
867.873	0.0138940
867.951	0.0140589
868.030	0.0139866
868.108	0.0137246
868.186	0.0138969
868.264	0.0138493
868.342	0.0138282
868.420	0.0139074
868.498	0.0140491
868.576	0.0139368
868.655	0.0138095
868.733	0.0138900
868.811	0.0139394
868.889	0.0139384
868.967	0.0139130
869.045	0.0139019
869.123	0.0138831
869.201	0.0138508
869.280	0.0137161
869.358	0.0138732
869.436	0.0138051
869.514	0.0138692
869.592	0.0139262
869.670	0.0137909
869.748	0.0137252
869.826	0.0138326
869.905	0.0138269
869.983	0.0138247
870.061	0.0138943
870.139	0.0138404
870.217	0.0138526
870.295	0.0137617
870.373	0.0138663
870.451	0.0138467
870.530	0.0137984
870.608	0.0138190
870.686	0.0139948
870.764	0.0138640
870.842	0.0136492
870.920	0.0138626
870.998	0.0138910
871.076	0.0136658
871.155	0.0138764
871.233	0.0139264
871.311	0.0138958
871.389	0.0138499
871.467	0.0137443
871.545	0.0138543
871.623	0.0137811
871.701	0.0138449
871.780	0.0137066
871.858	0.0139009
871.936	0.0139243
872.014	0.0137562
872.092	0.0137394
872.170	0.0138363
872.248	0.0139352
872.326	0.0139677
872.405	0.0138532
872.483	0.0137474
872.561	0.0138669
872.639	0.0138972
872.717	0.0137975
872.795	0.0140346
872.873	0.0138338
872.951	0.0138317
873.030	0.0137711
873.108	0.0137975
873.186	0.0137827
873.264	0.0138123
873.342	0.0137807
873.420	0.0139048
873.498	0.0138575
873.576	0.0136260
873.655	0.0137675
873.733	0.0137132
873.811	0.0138463
873.889	0.0137447
873.967	0.0136935
874.045	0.0137833
874.123	0.0138182
874.201	0.0137317
874.280	0.0136241
874.358	0.0138727
874.436	0.0137138
874.514	0.0137211
874.592	0.0137743
874.670	0.0138908
874.748	0.0137241
874.826	0.0137776
874.905	0.0137112
874.983	0.0138085
875.061	0.0139000
875.139	0.0139443
875.217	0.0138287
875.295	0.0140063
875.373	0.0139388
875.451	0.0138816
875.530	0.0138848
875.608	0.0140540
875.686	0.0138659
875.764	0.0139095
875.842	0.0137984
875.920	0.0138200
875.998	0.0138646
876.076	0.0137032
876.155	0.0137933
876.233	0.0138513
876.311	0.0137935
876.389	0.0139015
876.467	0.0137939
876.545	0.0139532
876.623	0.0137897
876.701	0.0138885
876.780	0.0139324
876.858	0.0139019
876.936	0.0139117
877.014	0.0139188
877.092	0.0139773
877.170	0.0141203
877.248	0.0139477
877.326	0.0139919
877.405	0.0139210
877.483	0.0139270
877.561	0.0139217
877.639	0.0139234
877.717	0.0139405
877.795	0.0139110
877.873	0.0138985
877.951	0.0138396
878.030	0.0138353
878.108	0.0138329
878.186	0.0138869
878.264	0.0138616
878.342	0.0139762
878.420	0.0138039
878.498	0.0139050
878.576	0.0139314
878.655	0.0137686
878.733	0.0137792
878.811	0.0137952
878.889	0.0139156
878.967	0.0138214
879.045	0.0138615
879.123	0.0136889
879.201	0.0138279
879.280	0.0139449
879.358	0.0138850
879.436	0.0138815
879.514	0.0138272
879.592	0.0138219
879.670	0.0139230
879.748	0.0139412
879.826	0.0138710
879.905	0.0139092
879.983	0.0139497
880.061	0.0141679
880.139	0.0140379
880.217	0.0139903
880.295	0.0140429
880.373	0.0139709
880.451	0.0138657
880.530	0.0138686
880.608	0.0138639
880.686	0.0137438
880.764	0.0137391
880.842	0.0137520
880.920	0.0137831
880.998	0.0138064
881.076	0.0136935
881.155	0.0137263
881.233	0.0138557
881.311	0.0137962
881.389	0.0138421
881.467	0.0138492
881.545	0.0139068
881.623	0.0139000
881.701	0.0139037
881.780	0.0140139
881.858	0.0141351
881.936	0.0140581
882.014	0.0140258
882.092	0.0142142
882.170	0.0141801
882.248	0.0139014
882.326	0.0139034
882.405	0.0138644
882.483	0.0138709
882.561	0.0138898
882.639	0.0138827
882.717	0.0138444
882.795	0.0137966
882.873	0.0137925
882.951	0.0137812
883.030	0.0138235
883.108	0.0139355
883.186	0.0138860
883.264	0.0139032
883.342	0.0138750
883.420	0.0137853
883.498	0.0136663
883.576	0.0136214
883.655	0.0138050
883.733	0.0138067
883.811	0.0138261
883.889	0.0137878
883.967	0.0138078
884.045	0.0138160
884.123	0.0137871
884.201	0.0137092
884.280	0.0137470
884.358	0.0138143
884.436	0.0139198
884.514	0.0138988
884.592	0.0137794
884.670	0.0139006
884.748	0.0137549
884.826	0.0137247
884.905	0.0138464
884.983	0.0137312
885.061	0.0137176
885.139	0.0137800
885.217	0.0137455
885.295	0.0137349
885.373	0.0138039
885.451	0.0137698
885.530	0.0137157
885.608	0.0139671
885.686	0.0139442
885.764	0.0140103
885.842	0.0139632
885.920	0.0138526
885.998	0.0137537
886.076	0.0138058
886.155	0.0138249
886.233	0.0138696
886.311	0.0138756
886.389	0.0138238
886.467	0.0137867
886.545	0.0138384
886.623	0.0137614
886.701	0.0138599
886.780	0.0139757
886.858	0.0139586
886.936	0.0139117
887.014	0.0140163
887.092	0.0139227
887.170	0.0140259
887.248	0.0139265
887.326	0.0141366
887.405	0.0139207
887.483	0.0137724
887.561	0.0138014
887.639	0.0137920
887.717	0.0137623
887.795	0.0138816
887.873	0.0138563
887.951	0.0138194
888.030	0.0138541
888.108	0.0137661
888.186	0.0140012
888.264	0.0139537
888.342	0.0138908
888.420	0.0138548
888.498	0.0138245
888.576	0.0138338
888.655	0.0138770
888.733	0.0137443
888.811	0.0137407
888.889	0.0138058
888.967	0.0137740
889.045	0.0137301
889.123	0.0139610
889.201	0.0138235
889.280	0.0137605
889.358	0.0138170
889.436	0.0137875
889.514	0.0136942
889.592	0.0137190
889.670	0.0137347
889.748	0.0138496
889.826	0.0137818
889.905	0.0137396
889.983	0.0138284
890.061	0.0137898
890.139	0.0138009
890.217	0.0138304
890.295	0.0138232
890.373	0.0139080
890.451	0.0138757
890.530	0.0138960
890.608	0.0137681
890.686	0.0138579
890.764	0.0138273
890.842	0.0138358
890.920	0.0139110
890.998	0.0137465
891.076	0.0137428
891.155	0.0138907
891.233	0.0138586
891.311	0.0138213
891.389	0.0137153
891.467	0.0138095
891.545	0.0137228
891.623	0.0139235
891.701	0.0138816
891.780	0.0138420
891.858	0.0137624
891.936	0.0138360
892.014	0.0137800
892.092	0.0136856
892.170	0.0137661
892.248	0.0137634
892.326	0.0137624
892.405	0.0138269
892.483	0.0138250
892.561	0.0138908
892.639	0.0139023
892.717	0.0139076
892.795	0.0138831
892.873	0.0140462
892.951	0.0139565
893.030	0.0139572
893.108	0.0138442
893.186	0.0139214
893.264	0.0140598
893.342	0.0139708
893.420	0.0138904
893.498	0.0137734
893.576	0.0137926
893.655	0.0138068
893.733	0.0137729
893.811	0.0138403
893.889	0.0137965
893.967	0.0136901
894.045	0.0137743
894.123	0.0137769
894.201	0.0137645
894.280	0.0137404
894.358	0.0139042
894.436	0.0139036
894.514	0.0140137
894.592	0.0138985
894.670	0.0139083
894.748	0.0139097
894.826	0.0139143
894.905	0.0138583
894.983	0.0138257
895.061	0.0139780
895.139	0.0140430
895.217	0.0138419
895.295	0.0138699
895.373	0.0139190
895.451	0.0137954
895.530	0.0138055
895.608	0.0138235
895.686	0.0138397
895.764	0.0138007
895.842	0.0137632
895.920	0.0136852
895.998	0.0138352
896.076	0.0137270
896.155	0.0137935
896.233	0.0137173
896.311	0.0137225
896.389	0.0135284
896.467	0.0138028
896.545	0.0137971
896.623	0.0137687
896.701	0.0137099
896.780	0.0138651
896.858	0.0137773
896.936	0.0138477
897.014	0.0139111
897.092	0.0137971
897.170	0.0138383
897.248	0.0138491
897.326	0.0137975
897.405	0.0138927
897.483	0.0138418
897.561	0.0139359
897.639	0.0139852
897.717	0.0140125
897.795	0.0139433
897.873	0.0138581
897.951	0.0140041
898.030	0.0140327
898.108	0.0140858
898.186	0.0139228
898.264	0.0138764
898.342	0.0139099
898.420	0.0139330
898.498	0.0138226
898.576	0.0139548
898.655	0.0138982
898.733	0.0138277
898.811	0.0138610
898.889	0.0137950
898.967	0.0136610
899.045	0.0138465
899.123	0.0138100
899.201	0.0138215
899.280	0.0138036
899.358	0.0137836
899.436	0.0138110
899.514	0.0138529
899.592	0.0138997
899.670	0.0137868
899.748	0.0138930
899.826	0.0139559
899.905	0.0139708
899.983	0.0139228
900.061	0.0138898
900.139	0.0140555
900.217	0.0139008
900.295	0.0138342
900.373	0.0140253
900.451	0.0140966
900.530	0.0140165
900.608	0.0140215
900.686	0.0139005
900.764	0.0139642
900.842	0.0140898
900.920	0.0140168
900.998	0.0140865
901.076	0.0141206
901.155	0.0139867
901.233	0.0139439
901.311	0.0140476
901.389	0.0138539
901.467	0.0139500
901.545	0.0138605
901.623	0.0140401
901.701	0.0138628
901.780	0.0137656
901.858	0.0139002
901.936	0.0139058
902.014	0.0138692
902.092	0.0138203
902.170	0.0139797
902.248	0.0139744
902.326	0.0139281
902.405	0.0139956
902.483	0.0141125
902.561	0.0139664
902.639	0.0138599
902.717	0.0138917
902.795	0.0139893
902.873	0.0138580
902.951	0.0138911
903.030	0.0138463
903.108	0.0138438
903.186	0.0139135
903.264	0.0139388
903.342	0.0137960
903.420	0.0138036
903.498	0.0137655
903.576	0.0137375
903.655	0.0139014
903.733	0.0137758
903.811	0.0139118
903.889	0.0138811
903.967	0.0137085
904.045	0.0138075
904.123	0.0139084
904.201	0.0139120
904.280	0.0138027
904.358	0.0140111
904.436	0.0139547
904.514	0.0139811
904.592	0.0139410
904.670	0.0139478
904.748	0.0139680
904.826	0.0139552
904.905	0.0138789
904.983	0.0140014
905.061	0.0138767
905.139	0.0139088
905.217	0.0138511
905.295	0.0138895
905.373	0.0137942
905.451	0.0137260
905.530	0.0136681
905.608	0.0137479
905.686	0.0135893
905.764	0.0137316
905.842	0.0138227
905.920	0.0137072
905.998	0.0137405
906.076	0.0138293
906.155	0.0139139
906.233	0.0139368
906.311	0.0138404
906.389	0.0138558
906.467	0.0138976
906.545	0.0140183
906.623	0.0140005
906.701	0.0138889
906.780	0.0139847
906.858	0.0139735
906.936	0.0138510
907.014	0.0138211
907.092	0.0139336
907.170	0.0137831
907.248	0.0138043
907.326	0.0138287
907.405	0.0139155
907.483	0.0139220
907.561	0.0137480
907.639	0.0137101
907.717	0.0136234
907.795	0.0138692
907.873	0.0139764
907.951	0.0137479
908.030	0.0138876
908.108	0.0139059
908.186	0.0137643
908.264	0.0137660
908.342	0.0138109
908.420	0.0138212
908.498	0.0138933
908.576	0.0136829
908.655	0.0137292
908.733	0.0136367
908.811	0.0138611
908.889	0.0136490
908.967	0.0135676
909.045	0.0138092
909.123	0.0137444
909.201	0.0137915
909.280	0.0138835
909.358	0.0137092
909.436	0.0138655
909.514	0.0138136
909.592	0.0138519
909.670	0.0139516
909.748	0.0137916
909.826	0.0137918
909.905	0.0138441
909.983	0.0138914
910.061	0.0138297
910.139	0.0138917
910.217	0.0138976
910.295	0.0140105
910.373	0.0141836
910.451	0.0139108
910.530	0.0140879
910.608	0.0140738
910.686	0.0140554
910.764	0.0140085
910.842	0.0140490
910.920	0.0140931
910.998	0.0140996
911.076	0.0141019
911.155	0.0140436
911.233	0.0139854
911.311	0.0139715
911.389	0.0139104
911.467	0.0140120
911.545	0.0139479
911.623	0.0138193
911.701	0.0137189
911.780	0.0138331
911.858	0.0136402
911.936	0.0138249
912.014	0.0136262
912.092	0.0136635
912.170	0.0136822
912.248	0.0137224
912.326	0.0138776
912.405	0.0136118
912.483	0.0136138
912.561	0.0137744
912.639	0.0137987
912.717	0.0138942
912.795	0.0139204
912.873	0.0139401
912.951	0.0139093
913.030	0.0139749
913.108	0.0139262
913.186	0.0140657
913.264	0.0139610
913.342	0.0139375
913.420	0.0139120
913.498	0.0139999
913.576	0.0140746
913.655	0.0140890
913.733	0.0140473
913.811	0.0139664
913.889	0.0139981
913.967	0.0139778
914.045	0.0139582
914.123	0.0140539
914.201	0.0138950
914.280	0.0139780
914.358	0.0138695
914.436	0.0138682
914.514	0.0138767
914.592	0.0137215
914.670	0.0137627
914.748	0.0139523
914.826	0.0136668
914.905	0.0137593
914.983	0.0138144
915.061	0.0138104
915.139	0.0137207
915.217	0.0136813
915.295	0.0137840
915.373	0.0137565
915.451	0.0138038
915.530	0.0139201
915.608	0.0138045
915.686	0.0138724
915.764	0.0139256
915.842	0.0139169
915.920	0.0137786
915.998	0.0138712
916.076	0.0137501
916.155	0.0140324
916.233	0.0140186
916.311	0.0141136
916.389	0.0141208
916.467	0.0140861
916.545	0.0140655
916.623	0.0141560
916.701	0.0141348
916.780	0.0141384
916.858	0.0139870
916.936	0.0140881
917.014	0.0139890
917.092	0.0139519
917.170	0.0139209
917.248	0.0139477
917.326	0.0140066
917.405	0.0137523
917.483	0.0139720
917.561	0.0140649
917.639	0.0136340
917.717	0.0139599
917.795	0.0138549
917.873	0.0137109
917.951	0.0137347
918.030	0.0138195
918.108	0.0137960
918.186	0.0138126
918.264	0.0137727
918.342	0.0136446
918.420	0.0138102
918.498	0.0138204
918.576	0.0138912
918.655	0.0139867
918.733	0.0138162
918.811	0.0138067
918.889	0.0137959
918.967	0.0138087
919.045	0.0138736
919.123	0.0139390
919.201	0.0137595
919.280	0.0139272
919.358	0.0138978
919.436	0.0138003
919.514	0.0139736
919.592	0.0139245
919.670	0.0138638
919.748	0.0138329
919.826	0.0140663
919.905	0.0139356
919.983	0.0140659
920.061	0.0140145
920.139	0.0139254
920.217	0.0140447
920.295	0.0140592
920.373	0.0140302
920.451	0.0139697
920.530	0.0138548
920.608	0.0139330
920.686	0.0140351
920.764	0.0140980
920.842	0.0140212
920.920	0.0139261
920.998	0.0139341
921.076	0.0139518
921.155	0.0139656
921.233	0.0140141
921.311	0.0139837
921.389	0.0139648
921.467	0.0139273
921.545	0.0137209
921.623	0.0139414
921.701	0.0137128
921.780	0.0138000
921.858	0.0138335
921.936	0.0137643
922.014	0.0137348
922.092	0.0137503
922.170	0.0137695
922.248	0.0137531
922.326	0.0138361
922.405	0.0136402
922.483	0.0138789
922.561	0.0137794
922.639	0.0138291
922.717	0.0139208
922.795	0.0138898
922.873	0.0140010
922.951	0.0140498
923.030	0.0138811
923.108	0.0139622
923.186	0.0140784
923.264	0.0141347
923.342	0.0140385
923.420	0.0140109
923.498	0.0141289
923.576	0.0141039
923.655	0.0143056
923.733	0.0141573
923.811	0.0143034
923.889	0.0141620
923.967	0.0141019
924.045	0.0140858
924.123	0.0140607
924.201	0.0140430
924.280	0.0139113
924.358	0.0140154
924.436	0.0138781
924.514	0.0138374
924.592	0.0139202
924.670	0.0138424
924.748	0.0137424
924.826	0.0137757
924.905	0.0137909
924.983	0.0137553
925.061	0.0138548
925.139	0.0138375
925.217	0.0137957
925.295	0.0139009
925.373	0.0137847
925.451	0.0138343
925.530	0.0139239
925.608	0.0138223
925.686	0.0138269
925.764	0.0139206
925.842	0.0139536
925.920	0.0140619
925.998	0.0140372
926.076	0.0138276
926.155	0.0139649
926.233	0.0137981
926.311	0.0138416
926.389	0.0140584
926.467	0.0139543
926.545	0.0138182
926.623	0.0139038
926.701	0.0138519
926.780	0.0139529
926.858	0.0139776
926.936	0.0138085
927.014	0.0138477
927.092	0.0139833
927.170	0.0138897
927.248	0.0138520
927.326	0.0137325
927.405	0.0138094
927.483	0.0140144
927.561	0.0140105
927.639	0.0138771
927.717	0.0138391
927.795	0.0137704
927.873	0.0138289
927.951	0.0137950
928.030	0.0138192
928.108	0.0137999
928.186	0.0137935
928.264	0.0138873
928.342	0.0137488
928.420	0.0138634
928.498	0.0138814
928.576	0.0138835
928.655	0.0139157
928.733	0.0138461
928.811	0.0139369
928.889	0.0138564
928.967	0.0137679
929.045	0.0137656
929.123	0.0138145
929.201	0.0138393
929.280	0.0137424
929.358	0.0138069
929.436	0.0138420
929.514	0.0137232
929.592	0.0137347
929.670	0.0138626
929.748	0.0140085
929.826	0.0139799
929.905	0.0137954
929.983	0.0139156
930.061	0.0140020
930.139	0.0141727
930.217	0.0141049
930.295	0.0141541
930.373	0.0141079
930.451	0.0140109
930.530	0.0139806
930.608	0.0139380
930.686	0.0139223
930.764	0.0141165
930.842	0.0139963
930.920	0.0138518
930.998	0.0137553
931.076	0.0136238
931.155	0.0137299
931.233	0.0136622
931.311	0.0138446
931.389	0.0137103
931.467	0.0135691
931.545	0.0137191
931.623	0.0137764
931.701	0.0138772
931.780	0.0138518
931.858	0.0135336
931.936	0.0136743
932.014	0.0137872
932.092	0.0138573
932.170	0.0138450
932.248	0.0138334
932.326	0.0139444
932.405	0.0138039
932.483	0.0137626
932.561	0.0139262
932.639	0.0138461
932.717	0.0139056
932.795	0.0140672
932.873	0.0141389
932.951	0.0140536
933.030	0.0139832
933.108	0.0139584
933.186	0.0138575
933.264	0.0139332
933.342	0.0138907
933.420	0.0140561
933.498	0.0138684
933.576	0.0137414
933.655	0.0138352
933.733	0.0138737
933.811	0.0138103
933.889	0.0137854
933.967	0.0135984
934.045	0.0138113
934.123	0.0138099
934.201	0.0138366
934.280	0.0137925
934.358	0.0136587
934.436	0.0137253
934.514	0.0136788
934.592	0.0137572
934.670	0.0137435
934.748	0.0138567
934.826	0.0138306
934.905	0.0137852
934.983	0.0138867
935.061	0.0138291
935.139	0.0138774
935.217	0.0139300
935.295	0.0139833
935.373	0.0140074
935.451	0.0139887
935.530	0.0138994
935.608	0.0139731
935.686	0.0138689
935.764	0.0138448
935.842	0.0139384
935.920	0.0139841
935.998	0.0138736
936.076	0.0139082
936.155	0.0139954
936.233	0.0138073
936.311	0.0139447
936.389	0.0138425
936.467	0.0138029
936.545	0.0138339
936.623	0.0138053
936.701	0.0138565
936.780	0.0139244
936.858	0.0138020
936.936	0.0137913
937.014	0.0139302
937.092	0.0139524
937.170	0.0139667
937.248	0.0138910
937.326	0.0140377
937.405	0.0140759
937.483	0.0140730
937.561	0.0141780
937.639	0.0141643
937.717	0.0140675
937.795	0.0140730
937.873	0.0140075
937.951	0.0139803
938.030	0.0140600
938.108	0.0140478
938.186	0.0140170
938.264	0.0137704
938.342	0.0138383
938.420	0.0139246
938.498	0.0136598
938.576	0.0136691
938.655	0.0137993
938.733	0.0137538
938.811	0.0137735
938.889	0.0135910
938.967	0.0136379
939.045	0.0136776
939.123	0.0138161
939.201	0.0139460
939.280	0.0139352
939.358	0.0139658
939.436	0.0138323
939.514	0.0138645
939.592	0.0138557
939.670	0.0140411
939.748	0.0140161
939.826	0.0139845
939.905	0.0139349
939.983	0.0140170
940.061	0.0139595
940.139	0.0139983
940.217	0.0138803
940.295	0.0139194
940.373	0.0139160
940.451	0.0140697
940.530	0.0139679
940.608	0.0139597
940.686	0.0139815
940.764	0.0138642
940.842	0.0139415
940.920	0.0139877
940.998	0.0139062
941.076	0.0139443
941.155	0.0139725
941.233	0.0140031
941.311	0.0139976
941.389	0.0139375
941.467	0.0139125
941.545	0.0140186
941.623	0.0138854
941.701	0.0138836
941.780	0.0139032
941.858	0.0138635
941.936	0.0138584
942.014	0.0137859
942.092	0.0137776
942.170	0.0139701
942.248	0.0139205
942.326	0.0138195
942.405	0.0136263
942.483	0.0137530
942.561	0.0137945
942.639	0.0137907
942.717	0.0137883
942.795	0.0138300
942.873	0.0138489
942.951	0.0138715
943.030	0.0138059
943.108	0.0137666
943.186	0.0138003
943.264	0.0138582
943.342	0.0139522
943.420	0.0138832
943.498	0.0137143
943.576	0.0137376
943.655	0.0139040
943.733	0.0138833
943.811	0.0137116
943.889	0.0138925
943.967	0.0139087
944.045	0.0139265
944.123	0.0138322
944.201	0.0138391
944.280	0.0138253
944.358	0.0138568
944.436	0.0137955
944.514	0.0139219
944.592	0.0138944
944.670	0.0139499
944.748	0.0139123
944.826	0.0138673
944.905	0.0139644
944.983	0.0139296
945.061	0.0138604
945.139	0.0141237
945.217	0.0141177
945.295	0.0141293
945.373	0.0141574
945.451	0.0142301
945.530	0.0140845
945.608	0.0141328
945.686	0.0140969
945.764	0.0140906
945.842	0.0140877
945.920	0.0140828
945.998	0.0139581
946.076	0.0140376
946.155	0.0141330
946.233	0.0140884
946.311	0.0139768
946.389	0.0139958
946.467	0.0140025
946.545	0.0139550
946.623	0.0138990
946.701	0.0141222
946.780	0.0139435
946.858	0.0138905
946.936	0.0139407
947.014	0.0137794
947.092	0.0139424
947.170	0.0139104
947.248	0.0139271
947.326	0.0138808
947.405	0.0139712
947.483	0.0139030
947.561	0.0138447
947.639	0.0138431
947.717	0.0139138
947.795	0.0138929
947.873	0.0138458
947.951	0.0137563
948.030	0.0137119
948.108	0.0137306
948.186	0.0136413
948.264	0.0137004
948.342	0.0136133
948.420	0.0137160
948.498	0.0137756
948.576	0.0138400
948.655	0.0138657
948.733	0.0137424
948.811	0.0138014
948.889	0.0136988
948.967	0.0137393
949.045	0.0137541
949.123	0.0137873
949.201	0.0137978
949.280	0.0137735
949.358	0.0137048
949.436	0.0136911
949.514	0.0137939
949.592	0.0137300
949.670	0.0137931
949.748	0.0137367
949.826	0.0136703
949.905	0.0137977
949.983	0.0137366
950.061	0.0137932
950.139	0.0139246
950.217	0.0137038
950.295	0.0137267
950.373	0.0139121
950.451	0.0138256
950.530	0.0139076
950.608	0.0140779
950.686	0.0137782
950.764	0.0138021
950.842	0.0138290
950.920	0.0139705
950.998	0.0139706
951.076	0.0139368
951.155	0.0138626
951.233	0.0138539
951.311	0.0138093
951.389	0.0138439
951.467	0.0137413
951.545	0.0139219
951.623	0.0137717
951.701	0.0136414
951.780	0.0138325
951.858	0.0139561
951.936	0.0138673
952.014	0.0138895
952.092	0.0138824
952.170	0.0137608
952.248	0.0138333
952.326	0.0139903
952.405	0.0139600
952.483	0.0140469
952.561	0.0139195
952.639	0.0140687
952.717	0.0140462
952.795	0.0139867
952.873	0.0139030
952.951	0.0139354
953.030	0.0140137
953.108	0.0139773
953.186	0.0139235
953.264	0.0138703
953.342	0.0138605
953.420	0.0137565
953.498	0.0138352
953.576	0.0138789
953.655	0.0137458
953.733	0.0136984
953.811	0.0137921
953.889	0.0136217
953.967	0.0137106
954.045	0.0136956
954.123	0.0136510
954.201	0.0136257
954.280	0.0135808
954.358	0.0136714
954.436	0.0136233
954.514	0.0137978
954.592	0.0137514
954.670	0.0137185
954.748	0.0136788
954.826	0.0138407
954.905	0.0138633
954.983	0.0137121
955.061	0.0138535
955.139	0.0139584
955.217	0.0139220
955.295	0.0138068
955.373	0.0138629
955.451	0.0137981
955.530	0.0137852
955.608	0.0139004
955.686	0.0138380
955.764	0.0138354
955.842	0.0139612
955.920	0.0138751
955.998	0.0138139
956.076	0.0137302
956.155	0.0139149
956.233	0.0139684
956.311	0.0139290
956.389	0.0140564
956.467	0.0139673
956.545	0.0138982
956.623	0.0138641
956.701	0.0140572
956.780	0.0139671
956.858	0.0139492
956.936	0.0140336
957.014	0.0140066
957.092	0.0139772
957.170	0.0139452
957.248	0.0138081
957.326	0.0138652
957.405	0.0139386
957.483	0.0139385
957.561	0.0138757
957.639	0.0137930
957.717	0.0138906
957.795	0.0138898
957.873	0.0138145
957.951	0.0139902
958.030	0.0139314
958.108	0.0136676
958.186	0.0137726
958.264	0.0139069
958.342	0.0138236
958.420	0.0137705
958.498	0.0139070
958.576	0.0138243
958.655	0.0138258
958.733	0.0137463
958.811	0.0139076
958.889	0.0138496
958.967	0.0139837
959.045	0.0140350
959.123	0.0139909
959.201	0.0140041
959.280	0.0139651
959.358	0.0139905
959.436	0.0141956
959.514	0.0140935
959.592	0.0139545
959.670	0.0141502
959.748	0.0140394
959.826	0.0139507
959.905	0.0140025
