05/20/2022	16:20:52	Ver.	4.1	UNKNOWN
Optical Delay	639.989416	Delta X		0.078125	Sweeps	1	Scan Rate	0/0
Coordinates	Axis 1	NaN	Axis 2	NaN	Axis 3	NaN	Axis 4	NaN	Axis 5	NaN	Axis 6	0.000000
TX Power	0.000000	RX Power	0.000000

639.989	0.0141805
640.068	0.0143192
640.146	0.0143300
640.224	0.0142300
640.302	0.0141898
640.380	0.0141610
640.458	0.0144070
640.536	0.0141545
640.614	0.0143027
640.693	0.0142209
640.771	0.0142447
640.849	0.0141206
640.927	0.0142036
641.005	0.0143031
641.083	0.0142269
641.161	0.0142800
641.239	0.0141712
641.318	0.0142892
641.396	0.0142491
641.474	0.0143632
641.552	0.0142879
641.630	0.0143280
641.708	0.0142364
641.786	0.0143643
641.864	0.0143410
641.943	0.0141848
642.021	0.0140773
642.099	0.0142867
642.177	0.0143382
642.255	0.0142658
642.333	0.0142397
642.411	0.0141440
642.489	0.0142242
642.568	0.0142465
642.646	0.0142345
642.724	0.0142671
642.802	0.0141975
642.880	0.0140373
642.958	0.0143932
643.036	0.0143596
643.114	0.0143342
643.193	0.0143623
643.271	0.0142607
643.349	0.0142009
643.427	0.0142970
643.505	0.0143169
643.583	0.0142905
643.661	0.0144330
643.739	0.0142557
643.818	0.0141880
643.896	0.0143385
643.974	0.0143352
644.052	0.0143353
644.130	0.0142148
644.208	0.0142204
644.286	0.0142600
644.364	0.0143769
644.443	0.0144105
644.521	0.0143349
644.599	0.0141456
644.677	0.0143460
644.755	0.0142200
644.833	0.0141915
644.911	0.0142570
644.989	0.0142277
645.068	0.0143520
645.146	0.0142877
645.224	0.0142358
645.302	0.0143335
645.380	0.0143696
645.458	0.0142364
645.536	0.0142551
645.614	0.0143977
645.693	0.0142532
645.771	0.0142975
645.849	0.0142343
645.927	0.0142138
646.005	0.0142394
646.083	0.0141357
646.161	0.0143132
646.239	0.0142923
646.318	0.0142931
646.396	0.0143571
646.474	0.0143926
646.552	0.0143754
646.630	0.0141846
646.708	0.0143376
646.786	0.0143129
646.864	0.0141325
646.943	0.0142442
647.021	0.0142924
647.099	0.0141978
647.177	0.0141949
647.255	0.0143251
647.333	0.0143118
647.411	0.0142194
647.489	0.0142852
647.568	0.0143311
647.646	0.0140545
647.724	0.0142227
647.802	0.0141434
647.880	0.0142602
647.958	0.0141918
648.036	0.0140742
648.114	0.0142519
648.193	0.0142529
648.271	0.0141677
648.349	0.0140940
648.427	0.0142065
648.505	0.0141299
648.583	0.0141795
648.661	0.0140812
648.739	0.0141765
648.818	0.0141552
648.896	0.0141201
648.974	0.0141001
649.052	0.0140682
649.130	0.0140912
649.208	0.0140924
649.286	0.0142491
649.364	0.0141531
649.443	0.0140534
649.521	0.0140947
649.599	0.0140723
649.677	0.0141021
649.755	0.0139856
649.833	0.0141093
649.911	0.0141399
649.989	0.0139944
650.068	0.0140327
650.146	0.0140084
650.224	0.0139667
650.302	0.0141252
650.380	0.0140366
650.458	0.0139442
650.536	0.0139420
650.614	0.0139211
650.693	0.0140622
650.771	0.0140389
650.849	0.0139952
650.927	0.0140246
651.005	0.0139421
651.083	0.0140784
651.161	0.0141521
651.239	0.0139728
651.318	0.0139774
651.396	0.0141631
651.474	0.0139763
651.552	0.0141165
651.630	0.0140240
651.708	0.0140858
651.786	0.0140560
651.864	0.0139941
651.943	0.0140267
652.021	0.0140879
652.099	0.0141257
652.177	0.0140150
652.255	0.0139619
652.333	0.0139790
652.411	0.0141013
652.489	0.0140137
652.568	0.0141109
652.646	0.0139388
652.724	0.0140487
652.802	0.0140993
652.880	0.0139380
652.958	0.0140613
653.036	0.0140557
653.114	0.0139817
653.193	0.0140068
653.271	0.0140224
653.349	0.0140817
653.427	0.0140708
653.505	0.0139973
653.583	0.0140667
653.661	0.0140464
653.739	0.0138691
653.818	0.0139365
653.896	0.0140472
653.974	0.0139801
654.052	0.0139611
654.130	0.0138928
654.208	0.0139407
654.286	0.0140341
654.364	0.0139893
654.443	0.0139552
654.521	0.0141373
654.599	0.0140279
654.677	0.0141251
654.755	0.0140916
654.833	0.0139983
654.911	0.0139316
654.989	0.0139445
655.068	0.0139585
655.146	0.0140128
655.224	0.0140057
655.302	0.0140079
655.380	0.0139644
655.458	0.0142475
655.536	0.0141133
655.614	0.0139561
655.693	0.0140444
655.771	0.0139814
655.849	0.0140725
655.927	0.0141790
656.005	0.0140783
656.083	0.0140397
656.161	0.0140747
656.239	0.0140468
656.318	0.0141364
656.396	0.0142068
656.474	0.0139790
656.552	0.0139793
656.630	0.0140798
656.708	0.0141265
656.786	0.0140777
656.864	0.0141019
656.943	0.0140881
657.021	0.0141596
657.099	0.0140429
657.177	0.0141824
657.255	0.0141331
657.333	0.0141077
657.411	0.0140486
657.489	0.0140628
657.568	0.0142085
657.646	0.0141098
657.724	0.0140938
657.802	0.0141170
657.880	0.0141941
657.958	0.0141093
658.036	0.0141166
658.114	0.0141751
658.193	0.0142173
658.271	0.0142677
658.349	0.0143188
658.427	0.0140591
658.505	0.0140209
658.583	0.0141841
658.661	0.0142373
658.739	0.0140411
658.818	0.0141599
658.896	0.0142092
658.974	0.0141100
659.052	0.0142038
659.130	0.0141057
659.208	0.0139750
659.286	0.0140098
659.364	0.0141558
659.443	0.0141858
659.521	0.0141705
659.599	0.0142316
659.677	0.0141551
659.755	0.0141307
659.833	0.0140575
659.911	0.0141376
659.989	0.0142104
660.068	0.0141656
660.146	0.0141275
660.224	0.0142567
660.302	0.0141593
660.380	0.0141922
660.458	0.0141723
660.536	0.0141344
660.614	0.0140324
660.693	0.0142205
660.771	0.0140626
660.849	0.0142031
660.927	0.0143549
661.005	0.0143340
661.083	0.0141403
661.161	0.0142159
661.239	0.0140968
661.318	0.0141115
661.396	0.0141696
661.474	0.0140835
661.552	0.0141270
661.630	0.0142213
661.708	0.0140707
661.786	0.0141324
661.864	0.0140742
661.943	0.0141178
662.021	0.0142319
662.099	0.0142020
662.177	0.0142902
662.255	0.0141730
662.333	0.0141496
662.411	0.0142353
662.489	0.0142905
662.568	0.0141628
662.646	0.0142099
662.724	0.0142795
662.802	0.0141097
662.880	0.0142602
662.958	0.0142414
663.036	0.0141705
663.114	0.0143602
663.193	0.0143755
663.271	0.0142452
663.349	0.0142019
663.427	0.0142116
663.505	0.0143545
663.583	0.0142651
663.661	0.0142725
663.739	0.0142912
663.818	0.0141106
663.896	0.0142313
663.974	0.0142271
664.052	0.0142464
664.130	0.0141783
664.208	0.0142741
664.286	0.0142335
664.364	0.0141770
664.443	0.0141014
664.521	0.0141676
664.599	0.0142642
664.677	0.0140932
664.755	0.0140302
664.833	0.0140454
664.911	0.0143110
664.989	0.0143233
665.068	0.0141569
665.146	0.0141071
665.224	0.0142728
665.302	0.0141840
665.380	0.0141945
665.458	0.0142535
665.536	0.0142381
665.614	0.0141960
665.693	0.0141232
665.771	0.0141772
665.849	0.0141648
665.927	0.0141994
666.005	0.0141932
666.083	0.0141361
666.161	0.0141383
666.239	0.0141000
666.318	0.0141685
666.396	0.0141737
666.474	0.0142581
666.552	0.0141154
666.630	0.0141178
666.708	0.0140820
666.786	0.0140641
666.864	0.0140274
666.943	0.0140765
667.021	0.0140328
667.099	0.0142199
667.177	0.0141492
667.255	0.0140086
667.333	0.0141206
667.411	0.0142642
667.489	0.0142026
667.568	0.0142295
667.646	0.0140877
667.724	0.0142211
667.802	0.0142226
667.880	0.0141780
667.958	0.0141629
668.036	0.0141940
668.114	0.0141335
668.193	0.0142508
668.271	0.0140549
668.349	0.0141942
668.427	0.0141655
668.505	0.0142047
668.583	0.0142107
668.661	0.0142256
668.739	0.0141841
668.818	0.0140556
668.896	0.0142046
668.974	0.0140078
669.052	0.0141269
669.130	0.0141955
669.208	0.0142512
669.286	0.0141165
669.364	0.0141667
669.443	0.0140961
669.521	0.0141563
669.599	0.0143098
669.677	0.0141750
669.755	0.0141334
669.833	0.0140968
669.911	0.0143008
669.989	0.0142781
670.068	0.0140773
670.146	0.0142413
670.224	0.0142299
670.302	0.0140987
670.380	0.0142052
670.458	0.0141922
670.536	0.0141254
670.614	0.0142157
670.693	0.0141902
670.771	0.0140971
670.849	0.0140570
670.927	0.0141276
671.005	0.0141996
671.083	0.0141331
671.161	0.0141615
671.239	0.0142477
671.318	0.0141074
671.396	0.0140857
671.474	0.0141560
671.552	0.0141051
671.630	0.0141609
671.708	0.0142054
671.786	0.0142097
671.864	0.0140830
671.943	0.0141178
672.021	0.0141396
672.099	0.0141895
672.177	0.0141083
672.255	0.0140492
672.333	0.0140079
672.411	0.0139828
672.489	0.0141098
672.568	0.0141022
672.646	0.0140730
672.724	0.0140352
672.802	0.0140708
672.880	0.0140705
672.958	0.0140510
673.036	0.0139284
673.114	0.0140841
673.193	0.0141277
673.271	0.0142329
673.349	0.0141930
673.427	0.0141610
673.505	0.0141345
673.583	0.0142088
673.661	0.0141866
673.739	0.0142233
673.818	0.0143920
673.896	0.0143689
673.974	0.0141483
674.052	0.0141704
674.130	0.0141635
674.208	0.0141703
674.286	0.0140779
674.364	0.0140305
674.443	0.0140795
674.521	0.0138733
674.599	0.0139683
674.677	0.0139508
674.755	0.0139218
674.833	0.0140346
674.911	0.0139392
674.989	0.0138967
675.068	0.0140029
675.146	0.0140377
675.224	0.0139887
675.302	0.0140335
675.380	0.0141792
675.458	0.0142003
675.536	0.0140850
675.614	0.0141142
675.693	0.0142890
675.771	0.0142242
675.849	0.0142269
675.927	0.0143060
676.005	0.0142082
676.083	0.0141195
676.161	0.0141888
676.239	0.0140638
676.318	0.0140437
676.396	0.0140354
676.474	0.0139455
676.552	0.0141085
676.630	0.0137981
676.708	0.0138909
676.786	0.0138423
676.864	0.0139139
676.943	0.0138496
677.021	0.0138593
677.099	0.0138110
677.177	0.0139426
677.255	0.0138908
677.333	0.0139078
677.411	0.0140708
677.489	0.0140252
677.568	0.0139940
677.646	0.0142474
677.724	0.0142080
677.802	0.0141626
677.880	0.0142632
677.958	0.0142056
678.036	0.0141063
678.114	0.0142186
678.193	0.0142867
678.271	0.0142610
678.349	0.0140810
678.427	0.0141182
678.505	0.0140449
678.583	0.0141555
678.661	0.0141364
678.739	0.0140235
678.818	0.0139342
678.896	0.0139603
678.974	0.0139942
679.052	0.0139326
679.130	0.0139628
679.208	0.0138317
679.286	0.0139254
679.364	0.0137309
679.443	0.0138911
679.521	0.0139803
679.599	0.0140740
679.677	0.0140919
679.755	0.0140182
679.833	0.0140965
679.911	0.0141659
679.989	0.0142158
680.068	0.0142551
680.146	0.0141256
680.224	0.0141948
680.302	0.0141055
680.380	0.0142361
680.458	0.0142632
680.536	0.0143807
680.614	0.0142764
680.693	0.0140571
680.771	0.0142457
680.849	0.0140374
680.927	0.0141139
681.005	0.0141543
681.083	0.0140034
681.161	0.0138766
681.239	0.0137667
681.318	0.0139012
681.396	0.0136674
681.474	0.0136594
681.552	0.0136823
681.630	0.0136379
681.708	0.0136527
681.786	0.0138854
681.864	0.0140977
681.943	0.0141299
682.021	0.0141975
682.099	0.0143527
682.177	0.0143708
682.255	0.0145612
682.333	0.0146162
682.411	0.0146182
682.489	0.0145864
682.568	0.0146936
682.646	0.0146377
682.724	0.0144265
682.802	0.0144950
682.880	0.0143610
682.958	0.0141564
683.036	0.0141030
683.114	0.0139854
683.193	0.0139680
683.271	0.0138554
683.349	0.0138921
683.427	0.0138735
683.505	0.0139909
683.583	0.0138161
683.661	0.0138908
683.739	0.0138936
683.818	0.0138770
683.896	0.0137502
683.974	0.0140260
684.052	0.0137796
684.130	0.0138051
684.208	0.0135531
684.286	0.0135822
684.364	0.0136357
684.443	0.0135070
684.521	0.0135130
684.599	0.0135589
684.677	0.0136245
684.755	0.0135985
684.833	0.0137212
684.911	0.0138365
684.989	0.0140291
685.068	0.0141580
685.146	0.0144946
685.224	0.0145016
685.302	0.0146867
685.380	0.0148843
685.458	0.0149132
685.536	0.0150047
685.614	0.0150419
685.693	0.0152126
685.771	0.0150636
685.849	0.0149704
685.927	0.0149896
686.005	0.0147916
686.083	0.0148522
686.161	0.0146443
686.239	0.0144534
686.318	0.0143556
686.396	0.0142615
686.474	0.0140376
686.552	0.0140683
686.630	0.0140413
686.708	0.0138539
686.786	0.0138405
686.864	0.0138239
686.943	0.0136868
687.021	0.0135706
687.099	0.0134299
687.177	0.0134544
687.255	0.0132951
687.333	0.0130791
687.411	0.0130566
687.489	0.0130897
687.568	0.0132142
687.646	0.0133440
687.724	0.0134383
687.802	0.0138209
687.880	0.0140463
687.958	0.0143049
688.036	0.0145814
688.114	0.0148461
688.193	0.0150849
688.271	0.0151801
688.349	0.0151867
688.427	0.0152213
688.505	0.0153326
688.583	0.0150471
688.661	0.0147772
688.739	0.0145871
688.818	0.0143807
688.896	0.0143085
688.974	0.0140917
689.052	0.0139610
689.130	0.0138361
689.208	0.0139681
689.286	0.0140479
689.364	0.0139452
689.443	0.0139719
689.521	0.0142957
689.599	0.0143056
689.677	0.0142369
689.755	0.0140542
689.833	0.0140011
689.911	0.0138093
689.989	0.0137624
690.068	0.0137184
690.146	0.0134060
690.224	0.0133912
690.302	0.0134618
690.380	0.0134276
690.458	0.0135366
690.536	0.0136898
690.614	0.0138869
690.693	0.0139471
690.771	0.0142732
690.849	0.0144914
690.927	0.0148228
691.005	0.0148522
691.083	0.0148972
691.161	0.0152904
691.239	0.0154861
691.318	0.0155888
691.396	0.0155284
691.474	0.0154592
691.552	0.0156361
691.630	0.0155030
691.708	0.0153511
691.786	0.0152808
691.864	0.0150198
691.943	0.0147482
692.021	0.0145032
692.099	0.0142698
692.177	0.0139170
692.255	0.0136445
692.333	0.0134727
692.411	0.0130904
692.489	0.0129314
692.568	0.0126614
692.646	0.0124563
692.724	0.0124582
692.802	0.0125452
692.880	0.0124612
692.958	0.0127805
693.036	0.0127930
693.114	0.0130782
693.193	0.0131606
693.271	0.0136093
693.349	0.0139744
693.427	0.0141230
693.505	0.0142991
693.583	0.0145097
693.661	0.0145554
693.739	0.0146655
693.818	0.0147470
693.896	0.0148954
693.974	0.0148563
694.052	0.0148976
694.130	0.0147917
694.208	0.0149715
694.286	0.0149475
694.364	0.0148804
694.443	0.0150493
694.521	0.0150519
694.599	0.0149921
694.677	0.0150954
694.755	0.0149887
694.833	0.0150262
694.911	0.0150243
694.989	0.0147812
695.068	0.0147432
695.146	0.0146654
695.224	0.0145199
695.302	0.0143838
695.380	0.0142424
695.458	0.0141610
695.536	0.0139108
695.614	0.0137728
695.693	0.0137117
695.771	0.0134008
695.849	0.0132207
695.927	0.0131850
696.005	0.0128642
696.083	0.0129075
696.161	0.0128367
696.239	0.0128954
696.318	0.0128739
696.396	0.0130353
696.474	0.0131854
696.552	0.0131046
696.630	0.0134826
696.708	0.0137395
696.786	0.0139796
696.864	0.0140606
696.943	0.0144354
697.021	0.0145293
697.099	0.0148592
697.177	0.0150044
697.255	0.0151142
697.333	0.0152041
697.411	0.0153318
697.489	0.0153185
697.568	0.0151003
697.646	0.0149966
697.724	0.0150746
697.802	0.0151806
697.880	0.0150147
697.958	0.0150789
698.036	0.0149937
698.114	0.0149693
698.193	0.0149944
698.271	0.0148221
698.349	0.0148540
698.427	0.0147971
698.505	0.0144659
698.583	0.0141309
698.661	0.0138797
698.739	0.0136587
698.818	0.0132191
698.896	0.0130512
698.974	0.0128574
699.052	0.0125610
699.130	0.0125932
699.208	0.0125016
699.286	0.0123448
699.364	0.0125096
699.443	0.0125669
699.521	0.0126569
699.599	0.0128497
699.677	0.0129296
699.755	0.0130096
699.833	0.0131118
699.911	0.0133137
699.989	0.0134612
700.068	0.0134592
700.146	0.0135063
700.224	0.0136328
700.302	0.0138322
700.380	0.0140788
700.458	0.0144884
700.536	0.0146505
700.614	0.0149416
700.693	0.0152922
700.771	0.0157007
700.849	0.0159809
700.927	0.0161190
701.005	0.0163763
701.083	0.0162524
701.161	0.0162736
701.239	0.0161434
701.318	0.0157081
701.396	0.0153976
701.474	0.0149117
701.552	0.0147412
701.630	0.0143152
701.708	0.0138984
701.786	0.0136814
701.864	0.0134093
701.943	0.0130829
702.021	0.0132034
702.099	0.0133743
702.177	0.0131396
702.255	0.0132932
702.333	0.0135390
702.411	0.0134422
702.489	0.0137307
702.568	0.0139294
702.646	0.0139964
702.724	0.0139485
702.802	0.0140237
702.880	0.0140139
702.958	0.0139752
703.036	0.0139960
703.114	0.0138277
703.193	0.0138284
703.271	0.0139288
703.349	0.0137556
703.427	0.0137275
703.505	0.0138207
703.583	0.0138647
703.661	0.0137132
703.739	0.0140051
703.818	0.0140823
703.896	0.0141820
703.974	0.0144643
704.052	0.0146180
704.130	0.0147573
704.208	0.0150112
704.286	0.0152155
704.364	0.0153265
704.443	0.0154380
704.521	0.0154000
704.599	0.0154308
704.677	0.0153196
704.755	0.0150962
704.833	0.0148006
704.911	0.0145883
704.989	0.0140871
705.068	0.0137560
705.146	0.0134899
705.224	0.0131802
705.302	0.0129031
705.380	0.0127509
705.458	0.0127242
705.536	0.0126097
705.614	0.0127100
705.693	0.0127407
705.771	0.0129138
705.849	0.0131060
705.927	0.0131525
706.005	0.0134464
706.083	0.0137235
706.161	0.0137815
706.239	0.0137821
706.318	0.0141349
706.396	0.0140170
706.474	0.0140182
706.552	0.0139587
706.630	0.0141354
706.708	0.0141810
706.786	0.0140590
706.864	0.0140040
706.943	0.0142311
707.021	0.0142278
707.099	0.0142457
707.177	0.0144337
707.255	0.0145697
707.333	0.0146084
707.411	0.0146989
707.489	0.0147757
707.568	0.0148283
707.646	0.0149783
707.724	0.0151103
707.802	0.0151162
707.880	0.0151878
707.958	0.0150574
708.036	0.0152496
708.114	0.0152184
708.193	0.0152426
708.271	0.0152296
708.349	0.0151191
708.427	0.0150521
708.505	0.0150237
708.583	0.0148863
708.661	0.0148745
708.739	0.0147429
708.818	0.0145699
708.896	0.0143369
708.974	0.0142840
709.052	0.0142719
709.130	0.0140825
709.208	0.0138708
709.286	0.0139200
709.364	0.0138271
709.443	0.0138583
709.521	0.0138129
709.599	0.0135781
709.677	0.0135667
709.755	0.0134150
709.833	0.0135633
709.911	0.0135694
709.989	0.0135345
710.068	0.0133801
710.146	0.0135396
710.224	0.0135695
710.302	0.0134587
710.380	0.0135719
710.458	0.0136290
710.536	0.0134443
710.614	0.0135493
710.693	0.0134869
710.771	0.0133815
710.849	0.0134724
710.927	0.0132279
711.005	0.0133620
711.083	0.0130748
711.161	0.0129433
711.239	0.0131632
711.318	0.0132784
711.396	0.0134461
711.474	0.0135678
711.552	0.0136795
711.630	0.0138103
711.708	0.0141772
711.786	0.0145387
711.864	0.0147746
711.943	0.0149560
712.021	0.0151474
712.099	0.0152842
712.177	0.0154883
712.255	0.0155747
712.333	0.0156038
712.411	0.0154478
712.489	0.0153916
712.568	0.0153873
712.646	0.0152592
712.724	0.0150564
712.802	0.0149283
712.880	0.0146877
712.958	0.0146612
713.036	0.0144003
713.114	0.0144218
713.193	0.0143017
713.271	0.0142402
713.349	0.0140924
713.427	0.0138487
713.505	0.0137560
713.583	0.0137776
713.661	0.0136319
713.739	0.0135437
713.818	0.0131880
713.896	0.0131031
713.974	0.0130412
714.052	0.0131284
714.130	0.0128586
714.208	0.0129219
714.286	0.0130294
714.364	0.0130485
714.443	0.0130533
714.521	0.0132256
714.599	0.0132506
714.677	0.0135080
714.755	0.0138165
714.833	0.0137472
714.911	0.0140031
714.989	0.0141875
715.068	0.0144477
715.146	0.0144138
715.224	0.0146019
715.302	0.0147598
715.380	0.0148431
715.458	0.0148434
715.536	0.0147742
715.614	0.0149949
715.693	0.0149864
715.771	0.0150810
715.849	0.0151219
715.927	0.0152522
716.005	0.0152732
716.083	0.0153268
716.161	0.0154217
716.239	0.0152167
716.318	0.0150738
716.396	0.0149123
716.474	0.0148905
716.552	0.0147585
716.630	0.0145505
716.708	0.0142453
716.786	0.0142551
716.864	0.0141678
716.943	0.0140298
717.021	0.0139184
717.099	0.0140575
717.177	0.0139792
717.255	0.0139146
717.333	0.0140159
717.411	0.0141026
717.489	0.0141883
717.568	0.0142855
717.646	0.0142648
717.724	0.0143668
717.802	0.0141267
717.880	0.0143974
717.958	0.0141870
718.036	0.0140722
718.114	0.0139747
718.193	0.0139091
718.271	0.0137431
718.349	0.0136700
718.427	0.0135366
718.505	0.0133792
718.583	0.0134615
718.661	0.0133231
718.739	0.0132948
718.818	0.0131895
718.896	0.0135471
718.974	0.0136344
719.052	0.0135166
719.130	0.0136661
719.208	0.0138882
719.286	0.0137891
719.364	0.0136706
719.443	0.0137976
719.521	0.0138271
719.599	0.0135871
719.677	0.0137006
719.755	0.0136155
719.833	0.0136451
719.911	0.0137930
719.989	0.0137868
720.068	0.0137668
720.146	0.0137856
720.224	0.0139319
720.302	0.0141418
720.380	0.0142307
720.458	0.0142384
720.536	0.0143258
720.614	0.0143748
720.693	0.0145569
720.771	0.0145151
720.849	0.0146941
720.927	0.0148964
721.005	0.0148291
721.083	0.0147849
721.161	0.0148902
721.239	0.0148347
721.318	0.0148228
721.396	0.0147564
721.474	0.0146536
721.552	0.0146803
721.630	0.0146707
721.708	0.0145516
721.786	0.0146030
721.864	0.0145853
721.943	0.0145322
722.021	0.0147070
722.099	0.0147215
722.177	0.0147865
722.255	0.0148017
722.333	0.0148633
722.411	0.0149957
722.489	0.0149595
722.568	0.0150302
722.646	0.0149007
722.724	0.0147173
722.802	0.0146345
722.880	0.0144704
722.958	0.0143611
723.036	0.0143797
723.114	0.0141730
723.193	0.0142490
723.271	0.0141968
723.349	0.0141692
723.427	0.0141178
723.505	0.0140457
723.583	0.0141153
723.661	0.0142646
723.739	0.0144012
723.818	0.0144257
723.896	0.0143826
723.974	0.0141785
724.052	0.0142604
724.130	0.0140220
724.208	0.0140318
724.286	0.0137843
724.364	0.0137515
724.443	0.0135022
724.521	0.0134580
724.599	0.0133916
724.677	0.0133041
724.755	0.0132545
724.833	0.0130875
724.911	0.0131001
724.989	0.0130291
725.068	0.0129763
725.146	0.0129865
725.224	0.0130666
725.302	0.0130070
725.380	0.0130566
725.458	0.0129395
725.536	0.0130555
725.614	0.0132671
725.693	0.0131915
725.771	0.0133679
725.849	0.0135412
725.927	0.0136738
726.005	0.0137904
726.083	0.0138302
726.161	0.0139134
726.239	0.0140430
726.318	0.0141029
726.396	0.0143386
726.474	0.0143706
726.552	0.0145853
726.630	0.0146910
726.708	0.0149129
726.786	0.0147990
726.864	0.0146320
726.943	0.0146553
727.021	0.0147357
727.099	0.0145923
727.177	0.0146445
727.255	0.0144241
727.333	0.0143367
727.411	0.0142621
727.489	0.0140852
727.568	0.0139820
727.646	0.0140439
727.724	0.0140930
727.802	0.0142388
727.880	0.0143684
727.958	0.0144361
728.036	0.0146472
728.114	0.0146977
728.193	0.0149165
728.271	0.0150135
728.349	0.0150529
728.427	0.0151362
728.505	0.0155397
728.583	0.0156232
728.661	0.0153516
728.739	0.0154655
728.818	0.0154443
728.896	0.0153646
728.974	0.0150232
729.052	0.0147811
729.130	0.0148199
729.208	0.0145182
729.286	0.0141564
729.364	0.0142970
729.443	0.0141010
729.521	0.0139808
729.599	0.0139220
729.677	0.0138441
729.755	0.0137835
729.833	0.0138742
729.911	0.0139229
729.989	0.0138861
730.068	0.0139648
730.146	0.0141238
730.224	0.0140397
730.302	0.0141161
730.380	0.0142322
730.458	0.0140934
730.536	0.0139555
730.614	0.0139810
730.693	0.0138296
730.771	0.0137264
730.849	0.0135522
730.927	0.0133778
731.005	0.0132754
731.083	0.0130566
731.161	0.0128127
731.239	0.0129507
731.318	0.0129326
731.396	0.0126991
731.474	0.0129359
731.552	0.0129871
731.630	0.0131901
731.708	0.0131885
731.786	0.0132851
731.864	0.0133627
731.943	0.0134632
732.021	0.0136760
732.099	0.0138639
732.177	0.0139237
732.255	0.0140761
732.333	0.0140237
732.411	0.0141500
732.489	0.0142905
732.568	0.0143643
732.646	0.0144187
732.724	0.0144168
732.802	0.0143918
732.880	0.0142592
732.958	0.0143297
733.036	0.0142498
733.114	0.0140421
733.193	0.0140330
733.271	0.0140379
733.349	0.0140780
733.427	0.0139697
733.505	0.0137726
733.583	0.0138717
733.661	0.0138975
733.739	0.0139520
733.818	0.0139733
733.896	0.0141019
733.974	0.0141056
734.052	0.0143228
734.130	0.0144599
734.208	0.0145136
734.286	0.0145818
734.364	0.0146383
734.443	0.0146905
734.521	0.0147882
734.599	0.0147314
734.677	0.0148015
734.755	0.0147285
734.833	0.0146763
734.911	0.0146655
734.989	0.0146094
735.068	0.0144804
735.146	0.0144380
735.224	0.0143991
735.302	0.0142832
735.380	0.0141315
735.458	0.0140841
735.536	0.0140970
735.614	0.0141930
735.693	0.0142617
735.771	0.0143602
735.849	0.0145140
735.927	0.0145724
736.005	0.0145377
736.083	0.0146512
736.161	0.0146011
736.239	0.0147671
736.318	0.0148515
736.396	0.0149844
736.474	0.0150537
736.552	0.0149581
736.630	0.0146716
736.708	0.0146347
736.786	0.0146889
736.864	0.0145209
736.943	0.0145222
737.021	0.0142873
737.099	0.0141450
737.177	0.0140961
737.255	0.0141653
737.333	0.0140446
737.411	0.0138960
737.489	0.0137321
737.568	0.0138979
737.646	0.0139117
737.724	0.0138415
737.802	0.0138983
737.880	0.0139182
737.958	0.0140647
738.036	0.0137946
738.114	0.0138248
738.193	0.0137103
738.271	0.0137298
738.349	0.0138021
738.427	0.0135235
738.505	0.0134119
738.583	0.0134323
738.661	0.0132939
738.739	0.0133522
738.818	0.0131774
738.896	0.0131886
738.974	0.0131091
739.052	0.0130415
739.130	0.0132634
739.208	0.0132914
739.286	0.0133405
739.364	0.0137209
739.443	0.0137675
739.521	0.0139615
739.599	0.0143057
739.677	0.0143039
739.755	0.0144380
739.833	0.0145501
739.911	0.0146320
739.989	0.0146175
740.068	0.0148190
740.146	0.0146846
740.224	0.0146972
740.302	0.0146555
740.380	0.0145988
740.458	0.0146544
740.536	0.0144745
740.614	0.0143933
740.693	0.0144142
740.771	0.0144007
740.849	0.0143884
740.927	0.0142614
741.005	0.0141448
741.083	0.0141538
741.161	0.0140759
741.239	0.0140866
741.318	0.0140520
741.396	0.0138814
741.474	0.0140109
741.552	0.0141458
741.630	0.0141024
741.708	0.0143015
741.786	0.0142830
741.864	0.0143220
741.943	0.0144339
742.021	0.0143646
742.099	0.0144716
742.177	0.0146489
742.255	0.0147309
742.333	0.0147637
742.411	0.0146410
742.489	0.0149165
742.568	0.0149966
742.646	0.0148379
742.724	0.0147916
742.802	0.0147022
742.880	0.0147428
742.958	0.0147308
743.036	0.0145254
743.114	0.0145753
743.193	0.0145803
743.271	0.0142067
743.349	0.0141760
743.427	0.0142594
743.505	0.0141859
743.583	0.0144383
743.661	0.0142165
743.739	0.0142505
743.818	0.0143318
743.896	0.0144386
743.974	0.0145241
744.052	0.0145429
744.130	0.0145741
744.208	0.0146651
744.286	0.0147913
744.364	0.0146911
744.443	0.0147183
744.521	0.0146851
744.599	0.0147747
744.677	0.0145471
744.755	0.0145586
744.833	0.0143954
744.911	0.0140030
744.989	0.0138980
745.068	0.0138831
745.146	0.0137792
745.224	0.0136454
745.302	0.0134942
745.380	0.0135746
745.458	0.0134341
745.536	0.0133600
745.614	0.0133679
745.693	0.0134108
745.771	0.0133600
745.849	0.0131683
745.927	0.0132101
746.005	0.0132394
746.083	0.0132307
746.161	0.0132671
746.239	0.0132732
746.318	0.0132444
746.396	0.0133070
746.474	0.0133118
746.552	0.0133487
746.630	0.0134322
746.708	0.0136493
746.786	0.0136204
746.864	0.0137769
746.943	0.0138298
747.021	0.0140334
747.099	0.0141897
747.177	0.0142621
747.255	0.0143327
747.333	0.0146000
747.411	0.0147404
747.489	0.0147183
747.568	0.0149684
747.646	0.0149782
747.724	0.0150399
747.802	0.0149750
747.880	0.0150494
747.958	0.0149673
748.036	0.0149796
748.114	0.0148491
748.193	0.0147714
748.271	0.0146672
748.349	0.0145756
748.427	0.0145303
748.505	0.0143986
748.583	0.0142698
748.661	0.0140936
748.739	0.0140668
748.818	0.0139790
748.896	0.0139095
748.974	0.0138128
749.052	0.0136767
749.130	0.0136816
749.208	0.0137620
749.286	0.0136630
749.364	0.0136327
749.443	0.0135529
749.521	0.0138103
749.599	0.0137119
749.677	0.0139647
749.755	0.0138480
749.833	0.0139317
749.911	0.0142120
749.989	0.0144503
750.068	0.0145218
750.146	0.0145978
750.224	0.0147446
750.302	0.0149242
750.380	0.0149689
750.458	0.0147666
750.536	0.0147259
750.614	0.0148553
750.693	0.0144910
750.771	0.0145412
750.849	0.0146037
750.927	0.0143818
751.005	0.0142599
751.083	0.0140618
751.161	0.0140500
751.239	0.0139638
751.318	0.0138612
751.396	0.0138890
751.474	0.0138792
751.552	0.0139780
751.630	0.0139072
751.708	0.0140363
751.786	0.0141293
751.864	0.0141522
751.943	0.0142859
752.021	0.0143559
752.099	0.0144724
752.177	0.0145914
752.255	0.0146393
752.333	0.0145821
752.411	0.0147441
752.489	0.0146299
752.568	0.0145654
752.646	0.0144086
752.724	0.0143577
752.802	0.0142067
752.880	0.0140100
752.958	0.0138432
753.036	0.0137508
753.114	0.0134631
753.193	0.0133658
753.271	0.0132362
753.349	0.0131325
753.427	0.0131326
753.505	0.0131541
753.583	0.0130035
753.661	0.0130093
753.739	0.0130552
753.818	0.0129433
753.896	0.0130187
753.974	0.0130123
754.052	0.0129377
754.130	0.0132687
754.208	0.0132542
754.286	0.0131499
754.364	0.0135586
754.443	0.0135217
754.521	0.0136164
754.599	0.0138470
754.677	0.0140332
754.755	0.0140782
754.833	0.0142696
754.911	0.0144025
754.989	0.0144609
755.068	0.0147598
755.146	0.0147911
755.224	0.0149519
755.302	0.0150832
755.380	0.0152101
755.458	0.0151826
755.536	0.0151196
755.614	0.0152441
755.693	0.0151263
755.771	0.0150378
755.849	0.0148593
755.927	0.0147298
756.005	0.0146334
756.083	0.0143916
756.161	0.0143832
756.239	0.0142374
756.318	0.0141099
756.396	0.0139812
756.474	0.0140885
756.552	0.0139374
756.630	0.0138650
756.708	0.0138590
756.786	0.0138243
756.864	0.0138714
756.943	0.0135535
757.021	0.0135490
757.099	0.0136768
757.177	0.0136188
757.255	0.0137432
757.333	0.0136935
757.411	0.0138022
757.489	0.0139093
757.568	0.0140613
757.646	0.0142968
757.724	0.0144143
757.802	0.0145750
757.880	0.0146931
757.958	0.0148395
758.036	0.0148392
758.114	0.0150199
758.193	0.0149055
758.271	0.0149052
758.349	0.0150395
758.427	0.0149381
758.505	0.0147922
758.583	0.0148788
758.661	0.0146658
758.739	0.0144401
758.818	0.0144980
758.896	0.0144669
758.974	0.0141530
759.052	0.0140524
759.130	0.0140656
759.208	0.0137566
759.286	0.0136861
759.364	0.0136391
759.443	0.0136018
759.521	0.0136534
759.599	0.0136809
759.677	0.0137823
759.755	0.0137459
759.833	0.0137020
759.911	0.0140318
759.989	0.0140012
760.068	0.0142021
760.146	0.0143679
760.224	0.0142585
760.302	0.0143066
760.380	0.0144722
760.458	0.0144105
760.536	0.0144463
760.614	0.0143198
760.693	0.0142274
760.771	0.0140989
760.849	0.0139610
760.927	0.0137679
761.005	0.0135832
761.083	0.0134308
761.161	0.0132665
761.239	0.0131644
761.318	0.0131843
761.396	0.0130856
761.474	0.0128732
761.552	0.0129370
761.630	0.0131547
761.708	0.0130013
761.786	0.0131345
761.864	0.0132694
761.943	0.0133315
762.021	0.0134594
762.099	0.0135435
762.177	0.0138140
762.255	0.0138832
762.333	0.0140054
762.411	0.0141811
762.489	0.0143147
762.568	0.0144215
762.646	0.0145082
762.724	0.0147289
762.802	0.0149710
762.880	0.0150073
762.958	0.0149276
763.036	0.0149751
763.114	0.0150240
763.193	0.0152084
763.271	0.0151359
763.349	0.0152088
763.427	0.0149628
763.505	0.0148956
763.583	0.0149187
763.661	0.0147752
763.739	0.0146691
763.818	0.0146228
763.896	0.0144547
763.974	0.0144283
764.052	0.0143187
764.130	0.0142860
764.208	0.0140595
764.286	0.0140415
764.364	0.0140498
764.443	0.0140118
764.521	0.0140533
764.599	0.0138537
764.677	0.0137568
764.755	0.0138486
764.833	0.0136954
764.911	0.0138434
764.989	0.0137981
765.068	0.0135376
765.146	0.0136852
765.224	0.0138386
765.302	0.0138454
765.380	0.0138821
765.458	0.0140480
765.536	0.0142657
765.614	0.0144749
765.693	0.0147460
765.771	0.0148648
765.849	0.0150355
765.927	0.0151916
766.005	0.0152251
766.083	0.0152578
766.161	0.0155070
766.239	0.0153681
766.318	0.0152711
766.396	0.0152534
766.474	0.0152417
766.552	0.0150237
766.630	0.0146257
766.708	0.0145663
766.786	0.0145559
766.864	0.0142639
766.943	0.0140271
767.021	0.0137854
767.099	0.0136858
767.177	0.0134712
767.255	0.0134338
767.333	0.0133363
767.411	0.0133198
767.489	0.0132148
767.568	0.0132264
767.646	0.0132646
767.724	0.0134673
767.802	0.0135407
767.880	0.0136641
767.958	0.0139798
768.036	0.0140421
768.114	0.0142664
768.193	0.0143233
768.271	0.0145246
768.349	0.0145563
768.427	0.0146259
768.505	0.0146653
768.583	0.0145147
768.661	0.0143793
768.739	0.0142088
768.818	0.0140867
768.896	0.0139178
768.974	0.0137155
769.052	0.0133938
769.130	0.0132916
769.208	0.0132785
769.286	0.0132158
769.364	0.0131476
769.443	0.0131342
769.521	0.0130781
769.599	0.0131911
769.677	0.0132540
769.755	0.0134899
769.833	0.0135651
769.911	0.0137750
769.989	0.0139135
770.068	0.0140375
770.146	0.0141143
770.224	0.0143266
770.302	0.0145277
770.380	0.0145673
770.458	0.0146991
770.536	0.0146758
770.614	0.0148594
770.693	0.0150361
770.771	0.0150474
770.849	0.0151224
770.927	0.0150666
771.005	0.0152427
771.083	0.0150321
771.161	0.0149590
771.239	0.0149748
771.318	0.0150694
771.396	0.0148050
771.474	0.0148163
771.552	0.0146364
771.630	0.0146401
771.708	0.0145225
771.786	0.0146056
771.864	0.0145210
771.943	0.0142235
772.021	0.0139835
772.099	0.0140039
772.177	0.0139029
772.255	0.0137733
772.333	0.0137057
772.411	0.0136266
772.489	0.0133112
772.568	0.0134654
772.646	0.0135059
772.724	0.0135653
772.802	0.0133364
772.880	0.0133718
772.958	0.0135018
773.036	0.0136071
773.114	0.0136269
773.193	0.0137925
773.271	0.0139614
773.349	0.0139878
773.427	0.0142116
773.505	0.0145291
773.583	0.0146715
773.661	0.0146783
773.739	0.0147831
773.818	0.0150069
773.896	0.0150728
773.974	0.0151324
774.052	0.0151005
774.130	0.0150399
774.208	0.0151894
774.286	0.0151419
774.364	0.0149317
774.443	0.0148726
774.521	0.0145528
774.599	0.0143555
774.677	0.0142643
774.755	0.0140707
774.833	0.0138316
774.911	0.0136193
774.989	0.0135797
775.068	0.0134536
775.146	0.0133131
775.224	0.0131837
775.302	0.0131143
775.380	0.0131136
775.458	0.0130148
775.536	0.0131659
775.614	0.0131718
775.693	0.0132056
775.771	0.0134948
775.849	0.0134968
775.927	0.0138863
776.005	0.0141011
776.083	0.0143011
776.161	0.0143507
776.239	0.0144205
776.318	0.0146745
776.396	0.0146563
776.474	0.0146641
776.552	0.0145923
776.630	0.0145298
776.708	0.0144716
776.786	0.0142423
776.864	0.0139435
776.943	0.0138422
777.021	0.0136504
777.099	0.0134913
777.177	0.0132966
777.255	0.0133288
777.333	0.0131296
777.411	0.0131005
777.489	0.0132125
777.568	0.0132330
777.646	0.0135332
777.724	0.0134250
777.802	0.0137026
777.880	0.0138516
777.958	0.0139924
778.036	0.0141283
778.114	0.0144819
778.193	0.0145924
778.271	0.0144669
778.349	0.0146680
778.427	0.0148177
778.505	0.0149183
778.583	0.0148288
778.661	0.0148844
778.739	0.0150919
778.818	0.0148827
778.896	0.0148779
778.974	0.0148597
779.052	0.0147596
779.130	0.0146884
779.208	0.0147957
779.286	0.0147134
779.364	0.0145705
779.443	0.0144901
779.521	0.0143966
779.599	0.0142664
779.677	0.0141061
779.755	0.0142992
779.833	0.0140591
779.911	0.0139718
779.989	0.0138597
780.068	0.0138995
780.146	0.0137795
780.224	0.0137827
780.302	0.0136777
780.380	0.0136454
780.458	0.0136990
780.536	0.0136687
780.614	0.0134914
780.693	0.0135313
780.771	0.0136601
780.849	0.0137249
780.927	0.0136314
781.005	0.0138377
781.083	0.0139557
781.161	0.0140281
781.239	0.0141841
781.318	0.0141354
781.396	0.0143422
781.474	0.0144315
781.552	0.0145653
781.630	0.0145924
781.708	0.0148609
781.786	0.0147822
781.864	0.0148254
781.943	0.0150011
782.021	0.0148542
782.099	0.0150725
782.177	0.0150893
782.255	0.0148454
782.333	0.0147588
782.411	0.0147362
782.489	0.0144388
782.568	0.0145300
782.646	0.0142493
782.724	0.0140004
782.802	0.0139996
782.880	0.0137812
782.958	0.0136992
783.036	0.0134496
783.114	0.0134265
783.193	0.0132142
783.271	0.0132771
783.349	0.0131895
783.427	0.0132079
783.505	0.0131964
783.583	0.0133062
783.661	0.0134612
783.739	0.0135774
783.818	0.0136797
783.896	0.0136904
783.974	0.0139535
784.052	0.0140028
784.130	0.0142249
784.208	0.0143846
784.286	0.0143685
784.364	0.0145361
784.443	0.0144913
784.521	0.0146255
784.599	0.0145791
784.677	0.0144349
784.755	0.0144738
784.833	0.0142811
784.911	0.0139527
784.989	0.0139263
785.068	0.0139394
785.146	0.0138088
785.224	0.0136047
785.302	0.0135234
785.380	0.0135551
785.458	0.0136037
785.536	0.0135886
785.614	0.0135853
785.693	0.0136612
785.771	0.0139265
785.849	0.0138921
785.927	0.0140600
786.005	0.0141863
786.083	0.0145199
786.161	0.0146220
786.239	0.0146079
786.318	0.0147181
786.396	0.0148753
786.474	0.0150169
786.552	0.0148232
786.630	0.0148766
786.708	0.0148215
786.786	0.0147425
786.864	0.0147961
786.943	0.0145688
787.021	0.0146129
787.099	0.0145079
787.177	0.0144703
787.255	0.0144917
787.333	0.0143906
787.411	0.0142436
787.489	0.0142110
787.568	0.0142006
787.646	0.0142346
787.724	0.0142303
787.802	0.0139975
787.880	0.0141980
787.958	0.0141773
788.036	0.0141934
788.114	0.0141717
788.193	0.0140054
788.271	0.0140132
788.349	0.0139362
788.427	0.0138336
788.505	0.0139672
788.583	0.0140009
788.661	0.0138443
788.739	0.0137692
788.818	0.0136687
788.896	0.0138905
788.974	0.0139151
789.052	0.0139481
789.130	0.0139759
789.208	0.0141296
789.286	0.0142576
789.364	0.0143063
789.443	0.0144007
789.521	0.0143541
789.599	0.0143810
789.677	0.0144702
789.755	0.0145824
789.833	0.0144545
789.911	0.0144100
789.989	0.0144765
790.068	0.0144487
790.146	0.0145609
790.224	0.0143881
790.302	0.0143126
790.380	0.0143911
790.458	0.0143922
790.536	0.0143270
790.614	0.0141891
790.693	0.0140842
790.771	0.0140781
790.849	0.0141387
790.927	0.0139874
791.005	0.0139364
791.083	0.0139883
791.161	0.0139249
791.239	0.0138091
791.318	0.0138030
791.396	0.0136327
791.474	0.0138297
791.552	0.0138666
791.630	0.0137463
791.708	0.0139257
791.786	0.0139358
791.864	0.0141012
791.943	0.0140626
792.021	0.0139512
792.099	0.0141123
792.177	0.0142184
792.255	0.0141759
792.333	0.0141811
792.411	0.0143092
792.489	0.0141748
792.568	0.0143493
792.646	0.0143268
792.724	0.0143033
792.802	0.0141370
792.880	0.0142018
792.958	0.0141198
793.036	0.0141093
793.114	0.0140638
793.193	0.0141145
793.271	0.0139897
793.349	0.0138549
793.427	0.0139097
793.505	0.0138240
793.583	0.0138466
793.661	0.0138867
793.739	0.0138928
793.818	0.0140198
793.896	0.0140916
793.974	0.0141619
794.052	0.0140909
794.130	0.0142120
794.208	0.0145011
794.286	0.0146625
794.364	0.0146461
794.443	0.0145921
794.521	0.0147902
794.599	0.0146507
794.677	0.0147222
794.755	0.0147631
794.833	0.0146254
794.911	0.0146105
794.989	0.0144508
795.068	0.0142913
795.146	0.0143412
795.224	0.0143134
795.302	0.0141204
795.380	0.0138865
795.458	0.0138096
795.536	0.0136793
795.614	0.0136010
795.693	0.0136137
795.771	0.0136939
795.849	0.0137288
795.927	0.0138251
796.005	0.0137351
796.083	0.0138969
796.161	0.0138901
796.239	0.0138518
796.318	0.0137676
796.396	0.0138886
796.474	0.0139194
796.552	0.0138873
796.630	0.0138454
796.708	0.0139759
796.786	0.0140064
796.864	0.0142162
796.943	0.0141726
797.021	0.0144075
797.099	0.0142213
797.177	0.0143553
797.255	0.0144194
797.333	0.0145226
797.411	0.0145819
797.489	0.0146898
797.568	0.0147251
797.646	0.0145863
797.724	0.0146384
797.802	0.0146138
797.880	0.0144562
797.958	0.0146355
798.036	0.0144341
798.114	0.0144335
798.193	0.0144034
798.271	0.0141690
798.349	0.0141939
798.427	0.0141265
798.505	0.0141685
798.583	0.0139336
798.661	0.0139617
798.739	0.0140202
798.818	0.0139110
798.896	0.0138499
798.974	0.0138551
799.052	0.0136724
799.130	0.0136895
799.208	0.0138384
799.286	0.0137701
799.364	0.0135653
799.443	0.0136250
799.521	0.0138873
799.599	0.0137290
799.677	0.0138591
799.755	0.0137675
799.833	0.0139912
799.911	0.0140052
799.989	0.0139246
800.068	0.0140227
800.146	0.0141477
800.224	0.0140788
800.302	0.0140033
800.380	0.0141041
800.458	0.0142062
800.536	0.0142002
800.614	0.0142818
800.693	0.0142202
800.771	0.0140841
800.849	0.0141039
800.927	0.0143717
801.005	0.0142558
801.083	0.0142382
801.161	0.0143428
801.239	0.0143980
801.318	0.0141740
801.396	0.0142306
801.474	0.0140553
801.552	0.0140988
801.630	0.0140337
801.708	0.0141430
801.786	0.0140871
801.864	0.0140062
801.943	0.0139790
802.021	0.0139356
802.099	0.0140765
802.177	0.0140248
802.255	0.0142072
802.333	0.0142912
802.411	0.0142170
802.489	0.0142500
802.568	0.0143781
802.646	0.0143963
802.724	0.0145862
802.802	0.0146038
802.880	0.0144633
802.958	0.0144661
803.036	0.0145131
803.114	0.0144608
803.193	0.0143681
803.271	0.0143501
803.349	0.0142175
803.427	0.0144244
803.505	0.0142690
803.583	0.0140457
803.661	0.0142432
803.739	0.0140738
803.818	0.0140068
803.896	0.0141672
803.974	0.0142603
804.052	0.0141081
804.130	0.0142640
804.208	0.0142860
804.286	0.0142326
804.364	0.0143214
804.443	0.0143778
804.521	0.0144129
804.599	0.0143446
804.677	0.0144837
804.755	0.0144155
804.833	0.0143849
804.911	0.0142935
804.989	0.0142657
805.068	0.0143246
805.146	0.0143952
805.224	0.0142478
805.302	0.0144015
805.380	0.0142764
805.458	0.0142504
805.536	0.0143232
805.614	0.0142667
805.693	0.0143856
805.771	0.0143143
805.849	0.0142054
805.927	0.0142866
806.005	0.0141137
806.083	0.0141243
806.161	0.0141906
806.239	0.0141730
806.318	0.0140636
806.396	0.0140036
806.474	0.0139986
806.552	0.0138843
806.630	0.0139880
806.708	0.0140125
806.786	0.0138461
806.864	0.0139278
806.943	0.0139721
807.021	0.0139064
807.099	0.0138663
807.177	0.0139745
807.255	0.0140803
807.333	0.0140286
807.411	0.0141550
807.489	0.0141037
807.568	0.0140165
807.646	0.0140647
807.724	0.0140774
807.802	0.0142386
807.880	0.0142219
807.958	0.0140899
808.036	0.0142094
808.114	0.0142796
808.193	0.0141576
808.271	0.0142043
808.349	0.0142935
808.427	0.0142606
808.505	0.0141873
808.583	0.0141017
808.661	0.0141059
808.739	0.0141338
808.818	0.0141278
808.896	0.0140355
808.974	0.0141483
809.052	0.0139857
809.130	0.0140333
809.208	0.0142499
809.286	0.0142375
809.364	0.0142452
809.443	0.0143176
809.521	0.0143842
809.599	0.0143693
809.677	0.0143753
809.755	0.0143361
809.833	0.0141900
809.911	0.0142586
809.989	0.0142607
810.068	0.0139956
810.146	0.0141012
810.224	0.0140663
810.302	0.0141811
810.380	0.0140656
810.458	0.0140331
810.536	0.0141426
810.614	0.0141692
810.693	0.0140832
810.771	0.0141016
810.849	0.0141722
810.927	0.0142468
811.005	0.0142653
811.083	0.0142736
811.161	0.0141585
811.239	0.0143034
811.318	0.0142116
811.396	0.0142477
811.474	0.0143187
811.552	0.0141633
811.630	0.0141525
811.708	0.0141003
811.786	0.0142043
811.864	0.0140786
811.943	0.0139720
812.021	0.0140453
812.099	0.0141282
812.177	0.0140855
812.255	0.0140582
812.333	0.0141166
812.411	0.0140734
812.489	0.0140445
812.568	0.0142979
812.646	0.0142828
812.724	0.0144650
812.802	0.0143110
812.880	0.0143246
812.958	0.0145570
813.036	0.0145421
813.114	0.0145783
813.193	0.0145031
813.271	0.0145252
813.349	0.0145021
813.427	0.0144434
813.505	0.0143067
813.583	0.0143613
813.661	0.0143037
813.739	0.0143119
813.818	0.0143179
813.896	0.0141962
813.974	0.0140602
814.052	0.0139485
814.130	0.0141136
814.208	0.0139804
814.286	0.0139215
814.364	0.0138288
814.443	0.0138435
814.521	0.0137589
814.599	0.0138550
814.677	0.0139527
814.755	0.0138596
814.833	0.0137045
814.911	0.0138013
814.989	0.0139616
815.068	0.0138000
815.146	0.0137682
815.224	0.0138770
815.302	0.0139336
815.380	0.0138723
815.458	0.0140836
815.536	0.0138924
815.614	0.0139901
815.693	0.0140307
815.771	0.0140808
815.849	0.0140797
815.927	0.0141983
816.005	0.0142798
816.083	0.0140711
816.161	0.0142386
816.239	0.0141653
816.318	0.0140903
816.396	0.0138748
816.474	0.0139336
816.552	0.0139230
816.630	0.0139129
816.708	0.0139615
816.786	0.0139015
816.864	0.0138351
816.943	0.0139213
817.021	0.0138631
817.099	0.0139054
817.177	0.0139430
817.255	0.0139371
817.333	0.0140821
817.411	0.0141154
817.489	0.0141254
817.568	0.0141973
817.646	0.0142833
817.724	0.0143488
817.802	0.0143700
817.880	0.0144031
817.958	0.0144663
818.036	0.0144540
818.114	0.0144578
818.193	0.0145309
818.271	0.0144918
818.349	0.0144733
818.427	0.0146152
818.505	0.0143623
818.583	0.0144652
818.661	0.0143974
818.739	0.0144054
818.818	0.0141771
818.896	0.0142098
818.974	0.0143758
819.052	0.0142679
819.130	0.0143825
819.208	0.0142046
819.286	0.0142884
819.364	0.0141010
819.443	0.0141328
819.521	0.0141157
819.599	0.0142446
819.677	0.0141087
819.755	0.0141052
819.833	0.0141154
819.911	0.0141528
819.989	0.0140627
820.068	0.0139928
820.146	0.0138412
820.224	0.0139351
820.302	0.0138927
820.380	0.0139793
820.458	0.0138734
820.536	0.0140182
820.614	0.0140309
820.693	0.0139907
820.771	0.0140102
820.849	0.0140611
820.927	0.0142320
821.005	0.0141592
821.083	0.0143120
821.161	0.0144038
821.239	0.0143418
821.318	0.0144310
821.396	0.0145032
821.474	0.0144308
821.552	0.0143447
821.630	0.0141721
821.708	0.0143150
821.786	0.0142358
821.864	0.0141235
821.943	0.0141120
822.021	0.0139928
822.099	0.0138620
822.177	0.0138483
822.255	0.0137733
822.333	0.0136769
822.411	0.0137550
822.489	0.0137889
822.568	0.0136941
822.646	0.0136618
822.724	0.0137319
822.802	0.0137405
822.880	0.0137003
822.958	0.0137505
823.036	0.0138662
823.114	0.0139458
823.193	0.0138744
823.271	0.0139223
823.349	0.0139661
823.427	0.0140573
823.505	0.0139646
823.583	0.0141522
823.661	0.0142106
823.739	0.0143512
823.818	0.0145160
823.896	0.0143606
823.974	0.0145129
824.052	0.0146350
824.130	0.0145188
824.208	0.0145763
824.286	0.0147825
824.364	0.0144648
824.443	0.0144260
824.521	0.0144256
824.599	0.0143336
824.677	0.0142970
824.755	0.0143490
824.833	0.0142908
824.911	0.0140858
824.989	0.0141587
825.068	0.0140358
825.146	0.0140823
825.224	0.0139776
825.302	0.0139817
825.380	0.0139058
825.458	0.0139771
825.536	0.0140421
825.614	0.0140164
825.693	0.0140750
825.771	0.0141189
825.849	0.0141631
825.927	0.0143134
826.005	0.0143491
826.083	0.0143708
826.161	0.0143098
826.239	0.0143176
826.318	0.0144204
826.396	0.0145392
826.474	0.0145976
826.552	0.0144245
826.630	0.0144913
826.708	0.0143951
826.786	0.0141953
826.864	0.0142007
826.943	0.0141832
827.021	0.0141527
827.099	0.0142143
827.177	0.0141275
827.255	0.0140476
827.333	0.0138700
827.411	0.0139273
827.489	0.0138367
827.568	0.0140635
827.646	0.0139264
827.724	0.0137995
827.802	0.0140233
827.880	0.0140001
827.958	0.0139467
828.036	0.0139628
828.114	0.0140476
828.193	0.0140810
828.271	0.0140352
828.349	0.0141585
828.427	0.0141918
828.505	0.0139605
828.583	0.0140144
828.661	0.0140663
828.739	0.0142262
828.818	0.0141541
828.896	0.0142471
828.974	0.0142628
829.052	0.0144916
829.130	0.0142836
829.208	0.0145200
829.286	0.0145520
829.364	0.0145446
829.443	0.0145620
829.521	0.0145226
829.599	0.0145499
829.677	0.0144748
829.755	0.0143529
829.833	0.0145484
829.911	0.0144286
829.989	0.0143208
830.068	0.0143881
830.146	0.0143214
830.224	0.0140620
830.302	0.0139816
830.380	0.0139959
830.458	0.0140430
830.536	0.0140398
830.614	0.0139442
830.693	0.0139837
830.771	0.0137646
830.849	0.0138338
830.927	0.0139592
831.005	0.0140401
831.083	0.0139833
831.161	0.0140862
831.239	0.0141522
831.318	0.0141251
831.396	0.0142461
831.474	0.0142096
831.552	0.0141974
831.630	0.0141805
831.708	0.0140299
831.786	0.0141017
831.864	0.0143101
831.943	0.0142323
832.021	0.0142551
832.099	0.0141769
832.177	0.0142088
832.255	0.0143225
832.333	0.0142216
832.411	0.0142233
832.489	0.0142447
832.568	0.0143130
832.646	0.0142205
832.724	0.0142844
832.802	0.0141460
832.880	0.0140720
832.958	0.0141031
833.036	0.0139224
833.114	0.0139343
833.193	0.0139037
833.271	0.0137280
833.349	0.0139523
833.427	0.0139869
833.505	0.0138781
833.583	0.0139613
833.661	0.0138834
833.739	0.0139988
833.818	0.0141000
833.896	0.0141949
833.974	0.0141275
834.052	0.0141378
834.130	0.0143711
834.208	0.0143922
834.286	0.0145369
834.364	0.0143978
834.443	0.0145647
834.521	0.0145274
834.599	0.0145380
834.677	0.0146307
834.755	0.0145548
834.833	0.0143970
834.911	0.0145747
834.989	0.0144121
835.068	0.0143623
835.146	0.0143436
835.224	0.0143298
835.302	0.0141164
835.380	0.0142549
835.458	0.0140976
835.536	0.0139771
835.614	0.0139458
835.693	0.0139434
835.771	0.0140109
835.849	0.0138976
835.927	0.0139542
836.005	0.0140120
836.083	0.0139265
836.161	0.0140913
836.239	0.0141449
836.318	0.0141460
836.396	0.0139991
836.474	0.0142659
836.552	0.0142699
836.630	0.0142339
836.708	0.0143997
836.786	0.0143054
836.864	0.0143253
836.943	0.0143426
837.021	0.0143184
837.099	0.0143143
837.177	0.0143849
837.255	0.0143015
837.333	0.0144659
837.411	0.0143707
837.489	0.0144019
837.568	0.0142868
837.646	0.0143372
837.724	0.0144572
837.802	0.0144094
837.880	0.0143797
837.958	0.0144250
838.036	0.0143257
838.114	0.0142971
838.193	0.0144146
838.271	0.0142196
838.349	0.0142767
838.427	0.0140215
838.505	0.0138784
838.583	0.0140283
838.661	0.0140113
838.739	0.0138642
838.818	0.0137556
838.896	0.0137734
838.974	0.0137690
839.052	0.0137610
839.130	0.0138439
839.208	0.0137706
839.286	0.0138563
839.364	0.0139377
839.443	0.0139069
839.521	0.0140130
839.599	0.0141772
839.677	0.0140544
839.755	0.0142242
839.833	0.0140520
839.911	0.0142625
839.989	0.0143609
840.068	0.0141985
840.146	0.0141678
840.224	0.0142027
840.302	0.0141862
840.380	0.0141460
840.458	0.0144395
840.536	0.0141824
840.614	0.0143333
840.693	0.0141927
840.771	0.0141552
840.849	0.0140461
840.927	0.0140685
841.005	0.0141319
841.083	0.0141094
841.161	0.0139539
841.239	0.0140339
841.318	0.0139556
841.396	0.0139325
841.474	0.0137475
841.552	0.0138451
841.630	0.0138958
841.708	0.0138901
841.786	0.0138850
841.864	0.0138362
841.943	0.0139665
842.021	0.0138752
842.099	0.0138967
842.177	0.0139034
842.255	0.0141950
842.333	0.0141439
842.411	0.0142523
842.489	0.0141308
842.568	0.0142561
842.646	0.0141848
842.724	0.0141531
842.802	0.0143189
842.880	0.0143604
842.958	0.0143031
843.036	0.0144917
843.114	0.0143781
843.193	0.0143542
843.271	0.0142736
843.349	0.0142725
843.427	0.0142809
843.505	0.0143563
843.583	0.0143526
843.661	0.0142000
843.739	0.0141477
843.818	0.0141107
843.896	0.0141727
843.974	0.0141256
844.052	0.0141069
844.130	0.0140002
844.208	0.0140823
844.286	0.0138884
844.364	0.0141268
844.443	0.0140197
844.521	0.0139858
844.599	0.0141567
844.677	0.0141508
844.755	0.0141254
844.833	0.0142705
844.911	0.0141696
844.989	0.0142379
845.068	0.0142505
845.146	0.0142838
845.224	0.0143485
845.302	0.0144490
845.380	0.0142658
845.458	0.0142013
845.536	0.0142645
845.614	0.0142173
845.693	0.0143015
845.771	0.0142055
845.849	0.0141785
845.927	0.0142066
846.005	0.0141948
846.083	0.0141512
846.161	0.0140971
846.239	0.0139860
846.318	0.0140326
846.396	0.0142654
846.474	0.0141228
846.552	0.0139440
846.630	0.0140108
846.708	0.0139742
846.786	0.0139074
846.864	0.0140552
846.943	0.0138842
847.021	0.0138563
847.099	0.0138818
847.177	0.0139047
847.255	0.0138854
847.333	0.0138621
847.411	0.0138831
847.489	0.0139481
847.568	0.0139340
847.646	0.0139512
847.724	0.0139826
847.802	0.0141776
847.880	0.0141589
847.958	0.0141893
848.036	0.0140783
848.114	0.0143259
848.193	0.0141718
848.271	0.0141375
848.349	0.0143467
848.427	0.0143559
848.505	0.0142409
848.583	0.0143196
848.661	0.0144326
848.739	0.0142362
848.818	0.0142885
848.896	0.0143996
848.974	0.0143048
849.052	0.0142002
849.130	0.0143492
849.208	0.0142098
849.286	0.0140768
849.364	0.0141289
849.443	0.0141130
849.521	0.0141212
849.599	0.0140906
849.677	0.0140395
849.755	0.0140324
849.833	0.0141615
849.911	0.0140567
849.989	0.0140775
850.068	0.0140559
850.146	0.0141016
850.224	0.0139739
850.302	0.0140302
850.380	0.0140752
850.458	0.0142460
850.536	0.0141872
850.614	0.0141740
850.693	0.0142912
850.771	0.0142766
850.849	0.0142582
850.927	0.0142855
851.005	0.0144079
851.083	0.0143363
851.161	0.0143376
851.239	0.0146016
851.318	0.0144874
851.396	0.0144329
851.474	0.0143106
851.552	0.0142702
851.630	0.0143571
851.708	0.0143207
851.786	0.0142203
851.864	0.0142468
851.943	0.0141042
852.021	0.0140816
852.099	0.0140836
852.177	0.0140345
852.255	0.0139819
852.333	0.0139619
852.411	0.0140285
852.489	0.0140647
852.568	0.0139625
852.646	0.0138719
852.724	0.0140008
852.802	0.0140324
852.880	0.0139481
852.958	0.0140089
853.036	0.0141766
853.114	0.0139995
853.193	0.0142920
853.271	0.0143143
853.349	0.0142963
853.427	0.0142369
853.505	0.0141532
853.583	0.0142671
853.661	0.0143108
853.739	0.0142863
853.818	0.0141111
853.896	0.0142220
853.974	0.0141211
854.052	0.0141988
854.130	0.0140808
854.208	0.0140432
854.286	0.0140140
854.364	0.0139958
854.443	0.0139144
854.521	0.0139776
854.599	0.0141183
854.677	0.0141166
854.755	0.0138291
854.833	0.0139192
854.911	0.0140800
854.989	0.0140198
855.068	0.0139838
855.146	0.0141164
855.224	0.0139878
855.302	0.0141730
855.380	0.0141965
855.458	0.0142182
855.536	0.0141458
855.614	0.0141728
855.693	0.0141003
855.771	0.0141170
855.849	0.0140609
855.927	0.0139613
856.005	0.0142116
856.083	0.0141372
856.161	0.0142886
856.239	0.0140653
856.318	0.0141154
856.396	0.0141783
856.474	0.0142402
856.552	0.0141072
856.630	0.0142692
856.708	0.0141879
856.786	0.0141400
856.864	0.0142518
856.943	0.0141767
857.021	0.0141266
857.099	0.0141215
857.177	0.0141409
857.255	0.0141131
857.333	0.0141415
857.411	0.0140491
857.489	0.0140154
857.568	0.0140083
857.646	0.0142052
857.724	0.0141093
857.802	0.0140855
857.880	0.0141211
857.958	0.0141238
858.036	0.0140271
858.114	0.0141169
858.193	0.0140926
858.271	0.0139571
858.349	0.0141322
858.427	0.0141033
858.505	0.0142269
858.583	0.0141127
858.661	0.0141543
858.739	0.0141435
858.818	0.0142715
858.896	0.0142226
858.974	0.0141581
859.052	0.0142239
859.130	0.0142410
859.208	0.0143901
859.286	0.0143374
859.364	0.0141392
859.443	0.0141498
859.521	0.0142668
859.599	0.0142213
859.677	0.0142451
859.755	0.0141904
859.833	0.0142333
859.911	0.0142455
859.989	0.0143134
860.068	0.0142874
860.146	0.0142926
860.224	0.0141852
860.302	0.0142424
860.380	0.0142532
860.458	0.0142207
860.536	0.0141216
860.614	0.0140048
860.693	0.0141441
860.771	0.0140993
860.849	0.0140944
860.927	0.0139031
861.005	0.0140253
861.083	0.0140798
861.161	0.0140212
861.239	0.0140922
861.318	0.0139825
861.396	0.0140056
861.474	0.0139767
861.552	0.0140612
861.630	0.0140946
861.708	0.0141351
861.786	0.0140450
861.864	0.0141688
861.943	0.0141434
862.021	0.0142398
862.099	0.0141246
862.177	0.0140717
862.255	0.0141963
862.333	0.0140934
862.411	0.0142393
862.489	0.0140730
862.568	0.0142339
862.646	0.0141592
862.724	0.0140812
862.802	0.0140000
862.880	0.0140214
862.958	0.0139439
863.036	0.0140572
863.114	0.0139942
863.193	0.0140719
863.271	0.0141747
863.349	0.0140771
863.427	0.0139767
863.505	0.0141060
863.583	0.0141868
863.661	0.0141412
863.739	0.0140869
863.818	0.0140364
863.896	0.0141327
863.974	0.0141307
864.052	0.0142415
864.130	0.0141821
864.208	0.0141756
864.286	0.0140153
864.364	0.0141303
864.443	0.0143356
864.521	0.0142363
864.599	0.0142869
864.677	0.0143132
864.755	0.0142017
864.833	0.0142079
864.911	0.0141830
864.989	0.0142149
865.068	0.0142883
865.146	0.0140888
865.224	0.0141134
865.302	0.0142201
865.380	0.0141431
865.458	0.0142155
865.536	0.0141198
865.614	0.0140260
865.693	0.0141460
865.771	0.0140657
865.849	0.0141682
865.927	0.0141123
866.005	0.0141232
866.083	0.0142628
866.161	0.0141151
866.239	0.0142929
866.318	0.0142877
866.396	0.0142533
866.474	0.0143069
866.552	0.0142012
866.630	0.0143443
866.708	0.0142013
866.786	0.0142699
866.864	0.0142723
866.943	0.0141260
867.021	0.0142281
867.099	0.0142368
867.177	0.0141489
867.255	0.0141586
867.333	0.0141382
867.411	0.0140919
867.489	0.0141615
867.568	0.0141520
867.646	0.0142669
867.724	0.0141149
867.802	0.0141373
867.880	0.0142349
867.958	0.0142189
868.036	0.0141203
868.114	0.0140009
868.193	0.0142368
868.271	0.0143625
868.349	0.0142281
868.427	0.0140838
868.505	0.0142328
868.583	0.0142004
868.661	0.0142873
868.739	0.0144147
868.818	0.0144017
868.896	0.0142338
868.974	0.0140771
869.052	0.0142573
869.130	0.0141860
869.208	0.0143346
869.286	0.0142915
869.364	0.0142681
869.443	0.0143367
869.521	0.0142579
869.599	0.0142520
869.677	0.0141496
869.755	0.0141173
869.833	0.0141605
869.911	0.0141971
869.989	0.0140123
870.068	0.0142097
870.146	0.0141731
870.224	0.0140994
870.302	0.0141980
870.380	0.0140788
870.458	0.0141085
870.536	0.0141862
870.614	0.0142722
870.693	0.0142316
870.771	0.0140933
870.849	0.0141058
870.927	0.0141199
871.005	0.0140662
871.083	0.0140472
871.161	0.0140979
871.239	0.0139690
871.318	0.0141021
871.396	0.0141850
871.474	0.0139870
871.552	0.0141803
871.630	0.0141072
871.708	0.0141312
871.786	0.0141576
871.864	0.0141483
871.943	0.0140093
872.021	0.0142027
872.099	0.0140517
872.177	0.0140030
872.255	0.0141231
872.333	0.0141209
872.411	0.0141329
872.489	0.0141699
872.568	0.0141767
872.646	0.0141425
872.724	0.0140327
872.802	0.0141190
872.880	0.0140675
872.958	0.0140134
873.036	0.0141425
873.114	0.0141494
873.193	0.0139621
873.271	0.0140694
873.349	0.0140739
873.427	0.0140688
873.505	0.0140751
873.583	0.0141274
873.661	0.0140123
873.739	0.0141213
873.818	0.0140239
873.896	0.0141842
873.974	0.0141766
874.052	0.0140669
874.130	0.0141630
874.208	0.0141856
874.286	0.0141508
874.364	0.0141954
874.443	0.0140614
874.521	0.0140793
874.599	0.0141708
874.677	0.0142896
874.755	0.0140546
874.833	0.0141049
874.911	0.0141272
874.989	0.0140356
875.068	0.0141645
875.146	0.0140716
875.224	0.0141613
875.302	0.0140115
875.380	0.0140768
875.458	0.0140947
875.536	0.0140692
875.614	0.0140275
875.693	0.0139253
875.771	0.0138864
875.849	0.0139700
875.927	0.0139172
876.005	0.0139368
876.083	0.0140185
876.161	0.0140248
876.239	0.0139096
876.318	0.0138671
876.396	0.0140191
876.474	0.0140399
876.552	0.0140308
876.630	0.0139297
876.708	0.0140574
876.786	0.0140710
876.864	0.0142169
876.943	0.0141010
877.021	0.0142097
877.099	0.0142532
877.177	0.0142250
877.255	0.0142472
877.333	0.0142347
877.411	0.0141225
877.489	0.0143309
877.568	0.0142799
877.646	0.0141264
877.724	0.0142429
877.802	0.0141841
877.880	0.0141683
877.958	0.0142015
878.036	0.0142303
878.114	0.0139942
878.193	0.0140195
878.271	0.0142253
878.349	0.0141068
878.427	0.0140146
878.505	0.0139776
878.583	0.0141666
878.661	0.0141531
878.739	0.0141819
878.818	0.0141119
878.896	0.0142630
878.974	0.0142034
879.052	0.0139896
879.130	0.0140760
879.208	0.0142459
879.286	0.0143377
879.364	0.0143241
879.443	0.0141732
879.521	0.0142375
879.599	0.0142834
879.677	0.0142882
879.755	0.0142706
879.833	0.0143648
879.911	0.0144204
879.989	0.0144450
880.068	0.0142794
880.146	0.0143168
880.224	0.0143407
880.302	0.0143137
880.380	0.0141824
880.458	0.0142300
880.536	0.0141510
880.614	0.0141796
880.693	0.0140102
880.771	0.0140689
880.849	0.0139968
880.927	0.0140788
881.005	0.0141411
881.083	0.0140565
881.161	0.0139939
881.239	0.0141128
881.318	0.0141098
881.396	0.0140816
881.474	0.0141093
881.552	0.0139320
881.630	0.0139392
881.708	0.0139589
881.786	0.0139870
881.864	0.0139442
881.943	0.0139170
882.021	0.0139030
882.099	0.0138588
882.177	0.0140092
882.255	0.0140450
882.333	0.0141633
882.411	0.0140891
882.489	0.0142765
882.568	0.0142995
882.646	0.0142860
882.724	0.0142625
882.802	0.0142995
882.880	0.0143642
882.958	0.0143659
883.036	0.0145071
883.114	0.0143210
883.193	0.0143960
883.271	0.0143073
883.349	0.0142928
883.427	0.0142569
883.505	0.0141487
883.583	0.0140411
883.661	0.0141558
883.739	0.0139892
883.818	0.0140582
883.896	0.0141734
883.974	0.0139150
884.052	0.0140274
884.130	0.0139021
884.208	0.0138029
884.286	0.0138587
884.364	0.0138866
884.443	0.0138981
884.521	0.0140869
884.599	0.0139809
884.677	0.0139532
884.755	0.0140932
884.833	0.0141302
884.911	0.0141071
884.989	0.0141747
885.068	0.0144226
885.146	0.0143845
885.224	0.0143513
885.302	0.0143722
885.380	0.0144072
885.458	0.0144038
885.536	0.0143547
885.614	0.0144366
885.693	0.0144532
885.771	0.0142123
885.849	0.0142555
885.927	0.0143352
886.005	0.0142073
886.083	0.0142747
886.161	0.0141913
886.239	0.0141868
886.318	0.0140551
886.396	0.0140686
886.474	0.0141340
886.552	0.0141108
886.630	0.0140973
886.708	0.0139160
886.786	0.0139604
886.864	0.0140266
886.943	0.0141693
887.021	0.0140497
887.099	0.0140649
887.177	0.0140312
887.255	0.0139678
887.333	0.0141364
887.411	0.0141153
887.489	0.0140816
887.568	0.0140230
887.646	0.0141107
887.724	0.0141357
887.802	0.0139996
887.880	0.0141310
887.958	0.0142425
888.036	0.0141888
888.114	0.0142838
888.193	0.0141830
888.271	0.0141917
888.349	0.0142216
888.427	0.0142007
888.505	0.0142699
888.583	0.0143232
888.661	0.0142503
888.739	0.0142377
888.818	0.0142811
888.896	0.0142001
888.974	0.0142351
889.052	0.0141740
889.130	0.0141481
889.208	0.0141324
889.286	0.0142149
889.364	0.0140677
889.443	0.0141177
889.521	0.0140462
889.599	0.0140186
889.677	0.0139370
889.755	0.0139934
889.833	0.0140544
889.911	0.0140462
889.989	0.0140710
890.068	0.0139310
890.146	0.0141337
890.224	0.0139786
890.302	0.0139165
890.380	0.0141032
890.458	0.0142631
890.536	0.0141148
890.614	0.0140263
890.693	0.0140131
890.771	0.0140751
890.849	0.0141924
890.927	0.0140880
891.005	0.0141069
891.083	0.0142200
891.161	0.0143117
891.239	0.0143136
891.318	0.0143703
891.396	0.0142416
891.474	0.0143079
891.552	0.0144356
891.630	0.0142548
891.708	0.0142883
891.786	0.0143120
891.864	0.0141224
891.943	0.0142332
892.021	0.0142496
892.099	0.0140119
892.177	0.0142261
892.255	0.0141933
892.333	0.0140945
892.411	0.0142510
892.489	0.0142435
892.568	0.0141956
892.646	0.0142333
892.724	0.0142371
892.802	0.0142194
892.880	0.0142023
892.958	0.0142563
893.036	0.0142135
893.114	0.0140921
893.193	0.0140553
893.271	0.0141865
893.349	0.0140289
893.427	0.0139362
893.505	0.0139635
893.583	0.0139613
893.661	0.0139336
893.739	0.0140233
893.818	0.0140356
893.896	0.0141252
893.974	0.0141612
894.052	0.0141798
894.130	0.0142405
894.208	0.0141447
894.286	0.0142142
894.364	0.0141378
894.443	0.0141315
894.521	0.0142192
894.599	0.0140472
894.677	0.0141224
894.755	0.0142230
894.833	0.0141265
894.911	0.0141101
894.989	0.0141664
895.068	0.0140785
895.146	0.0141484
895.224	0.0141503
895.302	0.0142078
895.380	0.0140602
895.458	0.0140791
895.536	0.0143146
895.614	0.0141881
895.693	0.0142543
895.771	0.0142807
895.849	0.0143287
895.927	0.0143507
896.005	0.0142356
896.083	0.0142551
896.161	0.0142751
896.239	0.0142727
896.318	0.0143484
896.396	0.0142375
896.474	0.0141737
896.552	0.0140549
896.630	0.0140407
896.708	0.0139832
896.786	0.0138560
896.864	0.0138564
896.943	0.0139275
897.021	0.0138699
897.099	0.0138728
897.177	0.0139474
897.255	0.0139797
897.333	0.0138329
897.411	0.0139889
897.489	0.0140472
897.568	0.0141360
897.646	0.0141588
897.724	0.0140658
897.802	0.0141390
897.880	0.0142291
897.958	0.0143224
898.036	0.0142412
898.114	0.0141599
898.193	0.0141456
898.271	0.0141792
898.349	0.0140133
898.427	0.0141346
898.505	0.0141101
898.583	0.0141279
898.661	0.0143027
898.739	0.0142423
898.818	0.0141007
898.896	0.0140192
898.974	0.0141013
899.052	0.0142152
899.130	0.0141207
899.208	0.0141370
899.286	0.0140710
899.364	0.0142645
899.443	0.0141113
899.521	0.0141525
899.599	0.0142105
899.677	0.0139903
899.755	0.0141904
899.833	0.0140707
899.911	0.0141073
899.989	0.0141679
900.068	0.0140849
900.146	0.0140552
900.224	0.0139589
900.302	0.0141771
900.380	0.0141964
900.458	0.0141926
900.536	0.0142279
900.614	0.0141489
900.693	0.0143090
900.771	0.0142180
900.849	0.0142998
900.927	0.0141347
901.005	0.0142395
901.083	0.0141509
901.161	0.0142694
901.239	0.0143022
901.318	0.0142307
901.396	0.0141351
901.474	0.0141425
901.552	0.0141706
901.630	0.0141496
901.708	0.0141782
901.786	0.0142213
901.864	0.0141522
901.943	0.0142218
902.021	0.0141598
902.099	0.0142228
902.177	0.0141683
902.255	0.0140913
902.333	0.0141337
902.411	0.0140838
902.489	0.0141019
902.568	0.0141311
902.646	0.0141219
902.724	0.0141080
902.802	0.0139539
902.880	0.0141172
902.958	0.0140493
903.036	0.0141206
903.114	0.0139957
903.193	0.0141319
903.271	0.0140816
903.349	0.0142289
903.427	0.0141756
903.505	0.0140379
903.583	0.0140453
903.661	0.0141462
903.739	0.0141905
903.818	0.0141975
903.896	0.0141354
903.974	0.0142136
904.052	0.0141940
904.130	0.0141890
904.208	0.0139902
904.286	0.0140706
904.364	0.0141777
904.443	0.0141127
904.521	0.0142397
904.599	0.0141560
904.677	0.0141949
904.755	0.0140858
904.833	0.0142271
904.911	0.0142075
904.989	0.0141199
905.068	0.0141053
905.146	0.0141354
905.224	0.0142066
905.302	0.0142383
905.380	0.0140414
905.458	0.0140401
905.536	0.0140288
905.614	0.0140930
905.693	0.0141343
905.771	0.0141198
905.849	0.0140378
905.927	0.0140448
906.005	0.0139908
906.083	0.0139898
906.161	0.0141059
906.239	0.0141307
906.318	0.0140041
906.396	0.0142867
906.474	0.0142346
906.552	0.0141115
906.630	0.0143176
906.708	0.0143676
906.786	0.0144030
906.864	0.0142770
906.943	0.0142062
907.021	0.0142909
907.099	0.0143170
907.177	0.0141367
907.255	0.0141653
907.333	0.0142295
907.411	0.0142068
907.489	0.0141725
907.568	0.0140791
907.646	0.0141943
907.724	0.0141602
907.802	0.0141586
907.880	0.0141834
907.958	0.0141418
908.036	0.0142246
908.114	0.0141317
908.193	0.0141386
908.271	0.0142200
908.349	0.0141446
908.427	0.0140791
908.505	0.0139717
908.583	0.0142184
908.661	0.0142476
908.739	0.0143544
908.818	0.0142654
908.896	0.0141126
908.974	0.0142802
909.052	0.0143491
909.130	0.0142139
909.208	0.0142463
909.286	0.0142216
909.364	0.0143742
909.443	0.0143089
909.521	0.0142459
909.599	0.0141095
909.677	0.0140849
909.755	0.0141665
909.833	0.0140827
909.911	0.0141865
909.989	0.0140892
910.068	0.0141747
910.146	0.0140398
910.224	0.0142052
910.302	0.0141883
910.380	0.0141467
910.458	0.0141431
910.536	0.0140695
910.614	0.0140464
910.693	0.0141172
910.771	0.0142090
910.849	0.0142680
910.927	0.0141531
911.005	0.0142692
911.083	0.0141883
911.161	0.0141925
911.239	0.0141269
911.318	0.0141799
911.396	0.0143633
911.474	0.0142323
911.552	0.0142471
911.630	0.0141171
911.708	0.0143033
911.786	0.0143336
911.864	0.0142058
911.943	0.0142427
912.021	0.0144048
912.099	0.0142361
912.177	0.0143254
912.255	0.0142575
912.333	0.0141855
912.411	0.0143848
912.489	0.0143171
912.568	0.0143275
912.646	0.0142631
912.724	0.0142416
912.802	0.0142457
912.880	0.0144154
912.958	0.0141010
913.036	0.0141684
913.114	0.0142191
913.193	0.0141488
913.271	0.0142622
913.349	0.0140556
913.427	0.0139984
913.505	0.0140531
913.583	0.0141735
913.661	0.0141304
913.739	0.0141053
913.818	0.0140425
913.896	0.0141042
913.974	0.0141734
914.052	0.0141298
914.130	0.0142085
914.208	0.0141603
914.286	0.0140867
914.364	0.0140933
914.443	0.0140552
914.521	0.0141838
914.599	0.0140894
914.677	0.0141183
914.755	0.0140918
914.833	0.0139981
914.911	0.0140311
914.989	0.0141334
915.068	0.0141077
915.146	0.0139835
915.224	0.0140125
915.302	0.0140676
915.380	0.0141749
915.458	0.0141493
915.536	0.0140569
915.614	0.0140363
915.693	0.0142025
915.771	0.0139568
915.849	0.0141800
915.927	0.0141737
916.005	0.0141629
916.083	0.0141476
916.161	0.0141151
916.239	0.0142049
916.318	0.0142202
916.396	0.0142159
916.474	0.0141016
916.552	0.0141520
916.630	0.0141925
916.708	0.0142595
916.786	0.0142078
916.864	0.0142727
916.943	0.0142700
917.021	0.0142758
917.099	0.0141827
917.177	0.0141960
917.255	0.0143191
917.333	0.0141559
917.411	0.0140574
917.489	0.0142047
917.568	0.0141949
917.646	0.0140071
917.724	0.0140925
917.802	0.0141512
917.880	0.0141545
917.958	0.0142699
918.036	0.0142130
918.114	0.0141345
918.193	0.0141320
918.271	0.0139716
918.349	0.0139402
918.427	0.0140293
918.505	0.0139080
918.583	0.0139809
918.661	0.0140519
918.739	0.0139390
918.818	0.0139447
918.896	0.0138841
918.974	0.0139156
919.052	0.0138808
919.130	0.0139206
919.208	0.0140671
919.286	0.0139654
919.364	0.0140281
919.443	0.0141332
919.521	0.0140655
919.599	0.0141689
919.677	0.0142607
919.755	0.0141704
919.833	0.0140560
919.911	0.0142523
919.989	0.0142225
920.068	0.0141679
920.146	0.0142699
920.224	0.0143242
920.302	0.0140829
920.380	0.0141530
920.458	0.0141593
920.536	0.0140762
920.614	0.0140120
920.693	0.0140263
920.771	0.0140005
920.849	0.0139790
920.927	0.0140075
921.005	0.0139919
921.083	0.0141084
921.161	0.0140229
921.239	0.0140296
921.318	0.0139598
921.396	0.0142015
921.474	0.0141663
921.552	0.0141787
921.630	0.0143017
921.708	0.0142998
921.786	0.0142691
921.864	0.0142333
921.943	0.0143202
922.021	0.0143787
922.099	0.0142419
922.177	0.0144044
922.255	0.0144174
922.333	0.0142859
922.411	0.0142652
922.489	0.0142188
922.568	0.0141866
922.646	0.0143438
922.724	0.0142840
922.802	0.0141242
922.880	0.0141343
922.958	0.0141314
923.036	0.0140794
923.114	0.0141239
923.193	0.0141089
923.271	0.0141475
923.349	0.0141526
923.427	0.0142266
923.505	0.0142235
923.583	0.0142741
923.661	0.0142185
923.739	0.0142506
923.818	0.0142629
923.896	0.0141229
923.974	0.0140660
924.052	0.0141026
924.130	0.0141622
924.208	0.0142694
924.286	0.0140792
924.364	0.0141759
924.443	0.0139890
924.521	0.0141460
924.599	0.0141026
924.677	0.0140558
924.755	0.0140948
924.833	0.0141369
924.911	0.0139940
924.989	0.0140402
925.068	0.0141715
925.146	0.0140077
925.224	0.0141648
925.302	0.0141508
925.380	0.0141933
925.458	0.0140607
925.536	0.0142012
925.614	0.0141750
925.693	0.0142295
925.771	0.0142181
925.849	0.0142247
925.927	0.0141995
926.005	0.0142306
926.083	0.0142958
926.161	0.0143742
926.239	0.0141762
926.318	0.0142848
926.396	0.0142285
926.474	0.0141454
926.552	0.0141618
926.630	0.0141603
926.708	0.0140607
926.786	0.0141183
926.864	0.0142280
926.943	0.0142934
927.021	0.0140854
927.099	0.0141280
927.177	0.0141621
927.255	0.0141586
927.333	0.0142146
927.411	0.0142922
927.489	0.0141183
927.568	0.0142606
927.646	0.0142357
927.724	0.0142471
927.802	0.0142403
927.880	0.0143191
927.958	0.0143121
928.036	0.0142986
928.114	0.0143330
928.193	0.0144062
928.271	0.0145656
928.349	0.0142850
928.427	0.0143439
928.505	0.0143146
928.583	0.0143269
928.661	0.0143400
928.739	0.0143797
928.818	0.0144341
928.896	0.0141574
928.974	0.0140999
929.052	0.0142238
929.130	0.0141985
929.208	0.0141666
929.286	0.0140881
929.364	0.0142151
929.443	0.0140786
929.521	0.0142413
929.599	0.0140859
929.677	0.0141039
929.755	0.0140771
929.833	0.0141206
929.911	0.0141225
929.989	0.0140527
930.068	0.0142075
930.146	0.0141424
930.224	0.0140891
930.302	0.0140981
930.380	0.0141771
930.458	0.0141373
930.536	0.0142639
930.614	0.0142196
930.693	0.0141747
930.771	0.0141743
930.849	0.0142268
930.927	0.0143713
931.005	0.0141205
931.083	0.0141549
931.161	0.0142157
931.239	0.0142105
931.318	0.0143248
931.396	0.0141620
931.474	0.0142271
931.552	0.0142150
931.630	0.0141550
931.708	0.0141797
931.786	0.0141924
931.864	0.0141456
931.943	0.0140948
932.021	0.0140858
932.099	0.0140285
932.177	0.0141129
932.255	0.0139272
932.333	0.0140874
932.411	0.0140490
932.489	0.0140657
932.568	0.0141360
932.646	0.0141378
932.724	0.0141862
932.802	0.0141466
932.880	0.0142237
932.958	0.0142406
933.036	0.0141815
933.114	0.0142143
933.193	0.0142194
933.271	0.0142620
933.349	0.0141277
933.427	0.0142883
933.505	0.0141728
933.583	0.0142539
933.661	0.0141843
933.739	0.0142198
933.818	0.0140903
933.896	0.0141032
933.974	0.0142141
934.052	0.0141976
934.130	0.0141831
934.208	0.0141800
934.286	0.0141880
934.364	0.0141877
934.443	0.0140596
934.521	0.0140849
934.599	0.0140391
934.677	0.0139594
934.755	0.0140915
934.833	0.0139941
934.911	0.0140709
934.989	0.0139754
935.068	0.0140604
935.146	0.0141833
935.224	0.0140990
935.302	0.0141793
935.380	0.0140849
935.458	0.0142445
935.536	0.0142286
935.614	0.0141508
935.693	0.0142886
935.771	0.0143411
935.849	0.0140961
935.927	0.0142668
936.005	0.0145826
936.083	0.0142724
936.161	0.0143025
936.239	0.0142602
936.318	0.0142458
936.396	0.0142899
936.474	0.0139887
936.552	0.0140672
936.630	0.0141336
936.708	0.0140699
936.786	0.0140398
936.864	0.0141102
936.943	0.0139796
937.021	0.0141019
937.099	0.0142416
937.177	0.0141896
937.255	0.0139719
937.333	0.0140591
937.411	0.0140472
937.489	0.0140430
937.568	0.0139657
937.646	0.0140415
937.724	0.0141998
937.802	0.0140078
937.880	0.0139732
937.958	0.0140020
938.036	0.0140077
938.114	0.0141139
938.193	0.0140579
938.271	0.0139890
938.349	0.0140694
938.427	0.0139571
938.505	0.0140157
938.583	0.0139341
938.661	0.0141095
938.739	0.0142262
938.818	0.0141812
938.896	0.0142480
938.974	0.0141044
939.052	0.0141072
939.130	0.0141226
939.208	0.0141648
939.286	0.0142039
939.364	0.0140963
939.443	0.0142181
939.521	0.0140960
939.599	0.0139806
939.677	0.0140092
939.755	0.0139930
939.833	0.0139563
939.911	0.0138624
939.989	0.0138236
940.068	0.0140524
940.146	0.0139866
940.224	0.0138753
940.302	0.0140219
940.380	0.0140743
940.458	0.0140313
940.536	0.0140885
940.614	0.0141866
940.693	0.0139310
940.771	0.0140493
940.849	0.0140251
940.927	0.0141682
941.005	0.0141492
941.083	0.0140767
941.161	0.0140860
941.239	0.0142283
941.318	0.0140778
941.396	0.0142096
941.474	0.0142870
941.552	0.0141113
941.630	0.0141335
941.708	0.0142949
941.786	0.0141152
941.864	0.0142057
941.943	0.0142050
942.021	0.0142540
942.099	0.0141948
942.177	0.0142271
942.255	0.0143579
942.333	0.0142137
942.411	0.0141367
942.489	0.0142714
942.568	0.0140844
942.646	0.0140973
942.724	0.0142606
942.802	0.0141563
942.880	0.0141169
942.958	0.0141251
943.036	0.0141459
943.114	0.0142804
943.193	0.0141354
943.271	0.0141656
943.349	0.0141409
943.427	0.0142071
943.505	0.0143049
943.583	0.0141366
943.661	0.0142622
943.739	0.0142163
943.818	0.0141815
943.896	0.0141079
943.974	0.0141182
944.052	0.0142346
944.130	0.0142205
944.208	0.0141217
944.286	0.0139417
944.364	0.0140852
944.443	0.0141518
944.521	0.0140247
944.599	0.0141121
944.677	0.0139404
944.755	0.0140829
944.833	0.0141080
944.911	0.0140415
944.989	0.0140786
945.068	0.0140966
945.146	0.0140260
945.224	0.0141444
945.302	0.0141353
945.380	0.0140993
945.458	0.0140551
945.536	0.0142465
945.614	0.0142885
945.693	0.0142225
945.771	0.0142657
945.849	0.0142827
945.927	0.0141238
946.005	0.0141488
946.083	0.0142866
946.161	0.0142111
946.239	0.0140542
946.318	0.0141708
946.396	0.0143237
946.474	0.0142540
946.552	0.0141454
946.630	0.0141728
946.708	0.0141165
946.786	0.0141685
946.864	0.0140097
946.943	0.0141763
947.021	0.0143115
947.099	0.0141167
947.177	0.0141925
947.255	0.0142234
947.333	0.0142484
947.411	0.0142233
947.489	0.0142012
947.568	0.0141262
947.646	0.0141831
947.724	0.0143217
947.802	0.0142094
947.880	0.0141594
947.958	0.0141409
948.036	0.0142222
948.114	0.0143473
948.193	0.0142770
948.271	0.0141372
948.349	0.0140903
948.427	0.0141212
948.505	0.0142227
948.583	0.0141028
948.661	0.0140782
948.739	0.0141080
948.818	0.0140130
948.896	0.0140372
948.974	0.0140300
949.052	0.0140654
949.130	0.0141395
949.208	0.0140102
949.286	0.0140445
949.364	0.0140694
949.443	0.0141412
949.521	0.0140633
949.599	0.0140713
949.677	0.0140952
949.755	0.0141386
949.833	0.0141622
949.911	0.0141916
949.989	0.0140548
950.068	0.0140694
950.146	0.0143211
950.224	0.0141392
950.302	0.0142873
950.380	0.0142425
950.458	0.0141934
950.536	0.0141816
950.614	0.0142361
950.693	0.0143165
950.771	0.0142174
950.849	0.0142121
950.927	0.0143239
951.005	0.0141329
951.083	0.0141528
951.161	0.0141191
951.239	0.0142119
951.318	0.0141572
951.396	0.0142314
951.474	0.0142740
951.552	0.0142500
951.630	0.0140640
951.708	0.0141188
951.786	0.0142308
951.864	0.0141086
951.943	0.0140510
952.021	0.0141061
952.099	0.0140749
952.177	0.0140516
952.255	0.0141557
952.333	0.0140148
952.411	0.0140009
952.489	0.0141882
952.568	0.0141013
952.646	0.0141579
952.724	0.0140157
952.802	0.0140019
952.880	0.0140425
952.958	0.0139271
953.036	0.0141086
953.114	0.0139861
953.193	0.0140014
953.271	0.0142310
953.349	0.0141336
953.427	0.0141191
953.505	0.0142229
953.583	0.0141716
953.661	0.0142169
953.739	0.0142250
953.818	0.0142044
953.896	0.0141326
953.974	0.0140632
954.052	0.0141512
954.130	0.0141258
954.208	0.0140438
954.286	0.0141956
954.364	0.0141667
954.443	0.0141933
954.521	0.0140933
954.599	0.0141938
954.677	0.0140420
954.755	0.0142001
954.833	0.0141487
954.911	0.0141288
954.989	0.0141380
955.068	0.0142094
955.146	0.0140690
955.224	0.0139771
955.302	0.0141471
955.380	0.0142323
955.458	0.0141109
955.536	0.0141608
955.614	0.0140583
955.693	0.0139980
955.771	0.0141185
955.849	0.0141564
955.927	0.0141189
956.005	0.0141199
956.083	0.0141272
956.161	0.0141270
956.239	0.0143061
956.318	0.0143466
956.396	0.0141309
956.474	0.0141702
956.552	0.0141979
956.630	0.0141430
956.708	0.0140733
956.786	0.0141025
956.864	0.0142075
956.943	0.0142569
957.021	0.0141639
957.099	0.0141876
957.177	0.0141511
957.255	0.0141788
957.333	0.0141415
957.411	0.0142687
957.489	0.0140606
957.568	0.0141125
957.646	0.0141978
957.724	0.0139916
957.802	0.0142474
957.880	0.0140355
957.958	0.0141386
958.036	0.0141727
958.114	0.0142955
958.193	0.0141492
958.271	0.0141340
958.349	0.0141315
958.427	0.0140783
958.505	0.0142250
958.583	0.0140759
958.661	0.0139581
958.739	0.0141051
958.818	0.0142012
958.896	0.0141611
958.974	0.0142878
959.052	0.0141713
959.130	0.0139632
959.208	0.0142457
959.286	0.0140228
959.364	0.0143153
959.443	0.0142569
959.521	0.0141592
959.599	0.0141812
959.677	0.0141756
959.755	0.0140816
959.833	0.0142432
959.911	0.0142414
