05/20/2022	16:03:06	Ver.	4.1	UNKNOWN
Optical Delay	639.982744	Delta X		0.078125	Sweeps	1	Scan Rate	0/0
Coordinates	Axis 1	NaN	Axis 2	NaN	Axis 3	NaN	Axis 4	NaN	Axis 5	NaN	Axis 6	0.000000
TX Power	0.000000	RX Power	0.000000

639.983	0.0154018
640.061	0.0155036
640.139	0.0153403
640.217	0.0153751
640.295	0.0154019
640.373	0.0155038
640.451	0.0154341
640.530	0.0153405
640.608	0.0154422
640.686	0.0155742
640.764	0.0154207
640.842	0.0153960
640.920	0.0154417
640.998	0.0154179
641.076	0.0153810
641.155	0.0154598
641.233	0.0154305
641.311	0.0154467
641.389	0.0154922
641.467	0.0153004
641.545	0.0153781
641.623	0.0153507
641.701	0.0153295
641.780	0.0154570
641.858	0.0153627
641.936	0.0154493
642.014	0.0154283
642.092	0.0153760
642.170	0.0153318
642.248	0.0154852
642.326	0.0154523
642.405	0.0154301
642.483	0.0153854
642.561	0.0153930
642.639	0.0155622
642.717	0.0154737
642.795	0.0153622
642.873	0.0154572
642.951	0.0154038
643.030	0.0152773
643.108	0.0155528
643.186	0.0154677
643.264	0.0154700
643.342	0.0155105
643.420	0.0154411
643.498	0.0153764
643.576	0.0155560
643.655	0.0154136
643.733	0.0152957
643.811	0.0154163
643.889	0.0153802
643.967	0.0155051
644.045	0.0155061
644.123	0.0154115
644.201	0.0154424
644.280	0.0153909
644.358	0.0154296
644.436	0.0153623
644.514	0.0151975
644.592	0.0154730
644.670	0.0154950
644.748	0.0154185
644.826	0.0153380
644.905	0.0153287
644.983	0.0155170
645.061	0.0153288
645.139	0.0153732
645.217	0.0154419
645.295	0.0155025
645.373	0.0155077
645.451	0.0153506
645.530	0.0153531
645.608	0.0154303
645.686	0.0153808
645.764	0.0153338
645.842	0.0154947
645.920	0.0153299
645.998	0.0154686
646.076	0.0154122
646.155	0.0153928
646.233	0.0153576
646.311	0.0153143
646.389	0.0153867
646.467	0.0154816
646.545	0.0154670
646.623	0.0154688
646.701	0.0153470
646.780	0.0153957
646.858	0.0154404
646.936	0.0155106
647.014	0.0153739
647.092	0.0154720
647.170	0.0154409
647.248	0.0153535
647.326	0.0154722
647.405	0.0154867
647.483	0.0153632
647.561	0.0152861
647.639	0.0154178
647.717	0.0154227
647.795	0.0154182
647.873	0.0153670
647.951	0.0154382
648.030	0.0154842
648.108	0.0153849
648.186	0.0154935
648.264	0.0154439
648.342	0.0153438
648.420	0.0154172
648.498	0.0153693
648.576	0.0154095
648.655	0.0153788
648.733	0.0154906
648.811	0.0154874
648.889	0.0153702
648.967	0.0154692
649.045	0.0152988
649.123	0.0154343
649.201	0.0154910
649.280	0.0153870
649.358	0.0154071
649.436	0.0154301
649.514	0.0154433
649.592	0.0155114
649.670	0.0154284
649.748	0.0153864
649.826	0.0153620
649.905	0.0154759
649.983	0.0153266
650.061	0.0153676
650.139	0.0153770
650.217	0.0154311
650.295	0.0155180
650.373	0.0154432
650.451	0.0154259
650.530	0.0154140
650.608	0.0155293
650.686	0.0154649
650.764	0.0154636
650.842	0.0153150
650.920	0.0154223
650.998	0.0154799
651.076	0.0155218
651.155	0.0154137
651.233	0.0153175
651.311	0.0153948
651.389	0.0154343
651.467	0.0153725
651.545	0.0152682
651.623	0.0153357
651.701	0.0152982
651.780	0.0155312
651.858	0.0154472
651.936	0.0153345
652.014	0.0153371
652.092	0.0153804
652.170	0.0154675
652.248	0.0153695
652.326	0.0152658
652.405	0.0153644
652.483	0.0154041
652.561	0.0153304
652.639	0.0154709
652.717	0.0153954
652.795	0.0153179
652.873	0.0153008
652.951	0.0153918
653.030	0.0155031
653.108	0.0155640
653.186	0.0154095
653.264	0.0153886
653.342	0.0152015
653.420	0.0153140
653.498	0.0155345
653.576	0.0155051
653.655	0.0154169
653.733	0.0153124
653.811	0.0153728
653.889	0.0154063
653.967	0.0153415
654.045	0.0153377
654.123	0.0153442
654.201	0.0152647
654.280	0.0154581
654.358	0.0155059
654.436	0.0154784
654.514	0.0152695
654.592	0.0154960
654.670	0.0154204
654.748	0.0155302
654.826	0.0154438
654.905	0.0154496
654.983	0.0153577
655.061	0.0153365
655.139	0.0154330
655.217	0.0156062
655.295	0.0154240
655.373	0.0153418
655.451	0.0154842
655.530	0.0153895
655.608	0.0155666
655.686	0.0155553
655.764	0.0154198
655.842	0.0153543
655.920	0.0152283
655.998	0.0154412
656.076	0.0154765
656.155	0.0152885
656.233	0.0152965
656.311	0.0153891
656.389	0.0155081
656.467	0.0154408
656.545	0.0154200
656.623	0.0154655
656.701	0.0153410
656.780	0.0154220
656.858	0.0153785
656.936	0.0154474
657.014	0.0154150
657.092	0.0153238
657.170	0.0153943
657.248	0.0153690
657.326	0.0154146
657.405	0.0155426
657.483	0.0154507
657.561	0.0153796
657.639	0.0153365
657.717	0.0155091
657.795	0.0154440
657.873	0.0154140
657.951	0.0154752
658.030	0.0153905
658.108	0.0154047
658.186	0.0154633
658.264	0.0153174
658.342	0.0152802
658.420	0.0153008
658.498	0.0154417
658.576	0.0152966
658.655	0.0154615
658.733	0.0154202
658.811	0.0154461
658.889	0.0153371
658.967	0.0154370
659.045	0.0152748
659.123	0.0153983
659.201	0.0154870
659.280	0.0154585
659.358	0.0154471
659.436	0.0154432
659.514	0.0154296
659.592	0.0154349
659.670	0.0154941
659.748	0.0155038
659.826	0.0154052
659.905	0.0155070
659.983	0.0153545
660.061	0.0153481
660.139	0.0154359
660.217	0.0154142
660.295	0.0154882
660.373	0.0154601
660.451	0.0154372
660.530	0.0153265
660.608	0.0153500
660.686	0.0155024
660.764	0.0154104
660.842	0.0153214
660.920	0.0154823
660.998	0.0155200
661.076	0.0153851
661.155	0.0153371
661.233	0.0153909
661.311	0.0154403
661.389	0.0154270
661.467	0.0153680
661.545	0.0153663
661.623	0.0154399
661.701	0.0153985
661.780	0.0154338
661.858	0.0155412
661.936	0.0153866
662.014	0.0153619
662.092	0.0154118
662.170	0.0152589
662.248	0.0153757
662.326	0.0154774
662.405	0.0152940
662.483	0.0153316
662.561	0.0152608
662.639	0.0154122
662.717	0.0153455
662.795	0.0153788
662.873	0.0155176
662.951	0.0154008
663.030	0.0152357
663.108	0.0154945
663.186	0.0153443
663.264	0.0153267
663.342	0.0154118
663.420	0.0154752
663.498	0.0154836
663.576	0.0154429
663.655	0.0154189
663.733	0.0153989
663.811	0.0152793
663.889	0.0155585
663.967	0.0154574
664.045	0.0153497
664.123	0.0155511
664.201	0.0153184
664.280	0.0152962
664.358	0.0155015
664.436	0.0154857
664.514	0.0153671
664.592	0.0154090
664.670	0.0154028
664.748	0.0155077
664.826	0.0153642
664.905	0.0154173
664.983	0.0155217
665.061	0.0155352
665.139	0.0156128
665.217	0.0153886
665.295	0.0153866
665.373	0.0153722
665.451	0.0153689
665.530	0.0154625
665.608	0.0153481
665.686	0.0154433
665.764	0.0154424
665.842	0.0155505
665.920	0.0153501
665.998	0.0154739
666.076	0.0154298
666.155	0.0153153
666.233	0.0154333
666.311	0.0154973
666.389	0.0155183
666.467	0.0153972
666.545	0.0153715
666.623	0.0154313
666.701	0.0153125
666.780	0.0153732
666.858	0.0153345
666.936	0.0153835
667.014	0.0153513
667.092	0.0155332
667.170	0.0155659
667.248	0.0153072
667.326	0.0153286
667.405	0.0153590
667.483	0.0153799
667.561	0.0153986
667.639	0.0156427
667.717	0.0153990
667.795	0.0153625
667.873	0.0154813
667.951	0.0154417
668.030	0.0154523
668.108	0.0154325
668.186	0.0153902
668.264	0.0155117
668.342	0.0154090
668.420	0.0154319
668.498	0.0155364
668.576	0.0153838
668.655	0.0154857
668.733	0.0153595
668.811	0.0154681
668.889	0.0153068
668.967	0.0154566
669.045	0.0154216
669.123	0.0154247
669.201	0.0153138
669.280	0.0154280
669.358	0.0154462
669.436	0.0154797
669.514	0.0154014
669.592	0.0153535
669.670	0.0153239
669.748	0.0154908
669.826	0.0153970
669.905	0.0153677
669.983	0.0154018
670.061	0.0153456
670.139	0.0152158
670.217	0.0154214
670.295	0.0154763
670.373	0.0152996
670.451	0.0154208
670.530	0.0152425
670.608	0.0152808
670.686	0.0154812
670.764	0.0152921
670.842	0.0154211
670.920	0.0154208
670.998	0.0153333
671.076	0.0151977
671.155	0.0154362
671.233	0.0154289
671.311	0.0153800
671.389	0.0153434
671.467	0.0153252
671.545	0.0153580
671.623	0.0153793
671.701	0.0153895
671.780	0.0152567
671.858	0.0153084
671.936	0.0152555
672.014	0.0151913
672.092	0.0151978
672.170	0.0154837
672.248	0.0155212
672.326	0.0153934
672.405	0.0151477
672.483	0.0152081
672.561	0.0153400
672.639	0.0153921
672.717	0.0153219
672.795	0.0153236
672.873	0.0153851
672.951	0.0153998
673.030	0.0153126
673.108	0.0153325
673.186	0.0153844
673.264	0.0153496
673.342	0.0153206
673.420	0.0152714
673.498	0.0152784
673.576	0.0151507
673.655	0.0152697
673.733	0.0151974
673.811	0.0151021
673.889	0.0152332
673.967	0.0152371
674.045	0.0153249
674.123	0.0154137
674.201	0.0153789
674.280	0.0153258
674.358	0.0153016
674.436	0.0152671
674.514	0.0152819
674.592	0.0152757
674.670	0.0152830
674.748	0.0153320
674.826	0.0153517
674.905	0.0153215
674.983	0.0152124
675.061	0.0153167
675.139	0.0153313
675.217	0.0154178
675.295	0.0152217
675.373	0.0153347
675.451	0.0154477
675.530	0.0153597
675.608	0.0153329
675.686	0.0152666
675.764	0.0153461
675.842	0.0153787
675.920	0.0155244
675.998	0.0154901
676.076	0.0154404
676.155	0.0155276
676.233	0.0153179
676.311	0.0153060
676.389	0.0154720
676.467	0.0155736
676.545	0.0154413
676.623	0.0154393
676.701	0.0156488
676.780	0.0153561
676.858	0.0155242
676.936	0.0155224
677.014	0.0153699
677.092	0.0154002
677.170	0.0153974
677.248	0.0153876
677.326	0.0155824
677.405	0.0154377
677.483	0.0155318
677.561	0.0154942
677.639	0.0154639
677.717	0.0154439
677.795	0.0155196
677.873	0.0154978
677.951	0.0155994
678.030	0.0154897
678.108	0.0153832
678.186	0.0156313
678.264	0.0155537
678.342	0.0153552
678.420	0.0152842
678.498	0.0155564
678.576	0.0154700
678.655	0.0154645
678.733	0.0155062
678.811	0.0155770
678.889	0.0155134
678.967	0.0153891
679.045	0.0154585
679.123	0.0155759
679.201	0.0154279
679.280	0.0154528
679.358	0.0155348
679.436	0.0154449
679.514	0.0155769
679.592	0.0154974
679.670	0.0155943
679.748	0.0154388
679.826	0.0155075
679.905	0.0155190
679.983	0.0154527
680.061	0.0155602
680.139	0.0155342
680.217	0.0155203
680.295	0.0156223
680.373	0.0155855
680.451	0.0154013
680.530	0.0153738
680.608	0.0153181
680.686	0.0154326
680.764	0.0155293
680.842	0.0153553
680.920	0.0153126
680.998	0.0154264
681.076	0.0155860
681.155	0.0154590
681.233	0.0155965
681.311	0.0154865
681.389	0.0153523
681.467	0.0153960
681.545	0.0155183
681.623	0.0155254
681.701	0.0154778
681.780	0.0153601
681.858	0.0152872
681.936	0.0154373
682.014	0.0154375
682.092	0.0153672
682.170	0.0154736
682.248	0.0154504
682.326	0.0153817
682.405	0.0153693
682.483	0.0154204
682.561	0.0154480
682.639	0.0154784
682.717	0.0154153
682.795	0.0153497
682.873	0.0153964
682.951	0.0153792
683.030	0.0152487
683.108	0.0154144
683.186	0.0154729
683.264	0.0152939
683.342	0.0153592
683.420	0.0154398
683.498	0.0152093
683.576	0.0154134
683.655	0.0155560
683.733	0.0152876
683.811	0.0152435
683.889	0.0153667
683.967	0.0153036
684.045	0.0152959
684.123	0.0154129
684.201	0.0154323
684.280	0.0153706
684.358	0.0154146
684.436	0.0153077
684.514	0.0154352
684.592	0.0154469
684.670	0.0152348
684.748	0.0154385
684.826	0.0154012
684.905	0.0153452
684.983	0.0154670
685.061	0.0153715
685.139	0.0154186
685.217	0.0154582
685.295	0.0153600
685.373	0.0154379
685.451	0.0152754
685.530	0.0153266
685.608	0.0152123
685.686	0.0154336
685.764	0.0153128
685.842	0.0153138
685.920	0.0153355
685.998	0.0153031
686.076	0.0153953
686.155	0.0155470
686.233	0.0152721
686.311	0.0153649
686.389	0.0153299
686.467	0.0155139
686.545	0.0154592
686.623	0.0153387
686.701	0.0154325
686.780	0.0153403
686.858	0.0153327
686.936	0.0154138
687.014	0.0153811
687.092	0.0154335
687.170	0.0154032
687.248	0.0153722
687.326	0.0153619
687.405	0.0153113
687.483	0.0154404
687.561	0.0154562
687.639	0.0155389
687.717	0.0153028
687.795	0.0154538
687.873	0.0153596
687.951	0.0155120
688.030	0.0154617
688.108	0.0153300
688.186	0.0154391
688.264	0.0154050
688.342	0.0153864
688.420	0.0154004
688.498	0.0153963
688.576	0.0155547
688.655	0.0154098
688.733	0.0154659
688.811	0.0153311
688.889	0.0151132
688.967	0.0151134
689.045	0.0151712
689.123	0.0150954
689.201	0.0150115
689.280	0.0151270
689.358	0.0153454
689.436	0.0155916
689.514	0.0156729
689.592	0.0158877
689.670	0.0161186
689.748	0.0161011
689.826	0.0161024
689.905	0.0161539
689.983	0.0160421
690.061	0.0158042
690.139	0.0156544
690.217	0.0153269
690.295	0.0150618
690.373	0.0147069
690.451	0.0143974
690.530	0.0143272
690.608	0.0139046
690.686	0.0140110
690.764	0.0140185
690.842	0.0141629
690.920	0.0147071
690.998	0.0149238
691.076	0.0154662
691.155	0.0159237
691.233	0.0163548
691.311	0.0166135
691.389	0.0168912
691.467	0.0170669
691.545	0.0171896
691.623	0.0170453
691.701	0.0167545
691.780	0.0166325
691.858	0.0164529
691.936	0.0159462
692.014	0.0156238
692.092	0.0151843
692.170	0.0149323
692.248	0.0144786
692.326	0.0140894
692.405	0.0139936
692.483	0.0139105
692.561	0.0138192
692.639	0.0137872
692.717	0.0137292
692.795	0.0139589
692.873	0.0143276
692.951	0.0145275
693.030	0.0148055
693.108	0.0150887
693.186	0.0154021
693.264	0.0155419
693.342	0.0158221
693.420	0.0160876
693.498	0.0161680
693.576	0.0163576
693.655	0.0163695
693.733	0.0163853
693.811	0.0164728
693.889	0.0163231
693.967	0.0162250
694.045	0.0161734
694.123	0.0159527
694.201	0.0159341
694.280	0.0157469
694.358	0.0156369
694.436	0.0154549
694.514	0.0150918
694.592	0.0150657
694.670	0.0152219
694.748	0.0151467
694.826	0.0150338
694.905	0.0150903
694.983	0.0150307
695.061	0.0151965
695.139	0.0150607
695.217	0.0151189
695.295	0.0150922
695.373	0.0151591
695.451	0.0151344
695.530	0.0151702
695.608	0.0151288
695.686	0.0151856
695.764	0.0151698
695.842	0.0149733
695.920	0.0148709
695.998	0.0149263
696.076	0.0149142
696.155	0.0148195
696.233	0.0149727
696.311	0.0150094
696.389	0.0150150
696.467	0.0152101
696.545	0.0152012
696.623	0.0153272
696.701	0.0154648
696.780	0.0155545
696.858	0.0155198
696.936	0.0156469
697.014	0.0158903
697.092	0.0159006
697.170	0.0160182
697.248	0.0161512
697.326	0.0161363
697.405	0.0163344
697.483	0.0163962
697.561	0.0163683
697.639	0.0161439
697.717	0.0162106
697.795	0.0162892
697.873	0.0160703
697.951	0.0158778
698.030	0.0156131
698.108	0.0153683
698.186	0.0153403
698.264	0.0152956
698.342	0.0150845
698.420	0.0148423
698.498	0.0146804
698.576	0.0147968
698.655	0.0148402
698.733	0.0146836
698.811	0.0146916
698.889	0.0146542
698.967	0.0148872
699.045	0.0149142
699.123	0.0150481
699.201	0.0150614
699.280	0.0150424
699.358	0.0153369
699.436	0.0152891
699.514	0.0152944
699.592	0.0153526
699.670	0.0155045
699.748	0.0153651
699.826	0.0154292
699.905	0.0154320
699.983	0.0154741
700.061	0.0156023
700.139	0.0155255
700.217	0.0154861
700.295	0.0154604
700.373	0.0154345
700.451	0.0153859
700.530	0.0152564
700.608	0.0151714
700.686	0.0153357
700.764	0.0151436
700.842	0.0152560
700.920	0.0153923
700.998	0.0154122
701.076	0.0155905
701.155	0.0155151
701.233	0.0155933
701.311	0.0157651
701.389	0.0157886
701.467	0.0159338
701.545	0.0158740
701.623	0.0159862
701.701	0.0158439
701.780	0.0158603
701.858	0.0159210
701.936	0.0158172
702.014	0.0156892
702.092	0.0156045
702.170	0.0154838
702.248	0.0155722
702.326	0.0152747
702.405	0.0151769
702.483	0.0151793
702.561	0.0151649
702.639	0.0151180
702.717	0.0150791
702.795	0.0149989
702.873	0.0151604
702.951	0.0151028
703.030	0.0152341
703.108	0.0151417
703.186	0.0150605
703.264	0.0150753
703.342	0.0152092
703.420	0.0152374
703.498	0.0152125
703.576	0.0151547
703.655	0.0152982
703.733	0.0153185
703.811	0.0153109
703.889	0.0154037
703.967	0.0154321
704.045	0.0152827
704.123	0.0154031
704.201	0.0155540
704.280	0.0156228
704.358	0.0154333
704.436	0.0156454
704.514	0.0156256
704.592	0.0156330
704.670	0.0155298
704.748	0.0155642
704.826	0.0156994
704.905	0.0156670
704.983	0.0156799
705.061	0.0155870
705.139	0.0154937
705.217	0.0156470
705.295	0.0155662
705.373	0.0155749
705.451	0.0156277
705.530	0.0155818
705.608	0.0154145
705.686	0.0153869
705.764	0.0154216
705.842	0.0153394
705.920	0.0153927
705.998	0.0153506
706.076	0.0151283
706.155	0.0152284
706.233	0.0151890
706.311	0.0153797
706.389	0.0152173
706.467	0.0153969
706.545	0.0154951
706.623	0.0155852
706.701	0.0153165
706.780	0.0155065
706.858	0.0155139
706.936	0.0154073
707.014	0.0154855
707.092	0.0154798
707.170	0.0153699
707.248	0.0151400
707.326	0.0153570
707.405	0.0153181
707.483	0.0153738
707.561	0.0152605
707.639	0.0152225
707.717	0.0152975
707.795	0.0152021
707.873	0.0152796
707.951	0.0152312
708.030	0.0152168
708.108	0.0153032
708.186	0.0153352
708.264	0.0152377
708.342	0.0154483
708.420	0.0154266
708.498	0.0155109
708.576	0.0154180
708.655	0.0155457
708.733	0.0155679
708.811	0.0156238
708.889	0.0156119
708.967	0.0156042
709.045	0.0157488
709.123	0.0156372
709.201	0.0155713
709.280	0.0155439
709.358	0.0156877
709.436	0.0156708
709.514	0.0154246
709.592	0.0152442
709.670	0.0152264
709.748	0.0154133
709.826	0.0153242
709.905	0.0152571
709.983	0.0152079
710.061	0.0152753
710.139	0.0152168
710.217	0.0153133
710.295	0.0153036
710.373	0.0152969
710.451	0.0152394
710.530	0.0152527
710.608	0.0153056
710.686	0.0153488
710.764	0.0154575
710.842	0.0153770
710.920	0.0153944
710.998	0.0154848
711.076	0.0155280
711.155	0.0154263
711.233	0.0155327
711.311	0.0154454
711.389	0.0155101
711.467	0.0154893
711.545	0.0154817
711.623	0.0155917
711.701	0.0156403
711.780	0.0155263
711.858	0.0154643
711.936	0.0155214
712.014	0.0156127
712.092	0.0154067
712.170	0.0155720
712.248	0.0155106
712.326	0.0155263
712.405	0.0154452
712.483	0.0154191
712.561	0.0155199
712.639	0.0154885
712.717	0.0153129
712.795	0.0153783
712.873	0.0152659
712.951	0.0152481
713.030	0.0152335
713.108	0.0152872
713.186	0.0153326
713.264	0.0154837
713.342	0.0154571
713.420	0.0155972
713.498	0.0153445
713.576	0.0154150
713.655	0.0155593
713.733	0.0153830
713.811	0.0154431
713.889	0.0153193
713.967	0.0153798
714.045	0.0154330
714.123	0.0155389
714.201	0.0154108
714.280	0.0154880
714.358	0.0153162
714.436	0.0152402
714.514	0.0151995
714.592	0.0152163
714.670	0.0151777
714.748	0.0151409
714.826	0.0150703
714.905	0.0150934
714.983	0.0151648
715.061	0.0150708
715.139	0.0151444
715.217	0.0152312
715.295	0.0153294
715.373	0.0154278
715.451	0.0154577
715.530	0.0154684
715.608	0.0155427
715.686	0.0154711
715.764	0.0155095
715.842	0.0155621
715.920	0.0156727
715.998	0.0157446
716.076	0.0157521
716.155	0.0156029
716.233	0.0156540
716.311	0.0156761
716.389	0.0155438
716.467	0.0154559
716.545	0.0152854
716.623	0.0153791
716.701	0.0152271
716.780	0.0153238
716.858	0.0154536
716.936	0.0152563
717.014	0.0152900
717.092	0.0153251
717.170	0.0151971
717.248	0.0152612
717.326	0.0152229
717.405	0.0153194
717.483	0.0154829
717.561	0.0153616
717.639	0.0154787
717.717	0.0155118
717.795	0.0155000
717.873	0.0154446
717.951	0.0154718
718.030	0.0154820
718.108	0.0154427
718.186	0.0155794
718.264	0.0155214
718.342	0.0153882
718.420	0.0153747
718.498	0.0154142
718.576	0.0154574
718.655	0.0152552
718.733	0.0153339
718.811	0.0153331
718.889	0.0153011
718.967	0.0154323
719.045	0.0154128
719.123	0.0154368
719.201	0.0153983
719.280	0.0153880
719.358	0.0154378
719.436	0.0154604
719.514	0.0155016
719.592	0.0153802
719.670	0.0155459
719.748	0.0154896
719.826	0.0153391
719.905	0.0154956
719.983	0.0153648
720.061	0.0152664
720.139	0.0152937
720.217	0.0154202
720.295	0.0152652
720.373	0.0153139
720.451	0.0152435
720.530	0.0152666
720.608	0.0152998
720.686	0.0151901
720.764	0.0153885
720.842	0.0154161
720.920	0.0152852
720.998	0.0154828
721.076	0.0155016
721.155	0.0153361
721.233	0.0154102
721.311	0.0155696
721.389	0.0153168
721.467	0.0153299
721.545	0.0154871
721.623	0.0155250
721.701	0.0154560
721.780	0.0152005
721.858	0.0154401
721.936	0.0154865
722.014	0.0153539
722.092	0.0154011
722.170	0.0154897
722.248	0.0154745
722.326	0.0154465
722.405	0.0152892
722.483	0.0154890
722.561	0.0155154
722.639	0.0154752
722.717	0.0155413
722.795	0.0154642
722.873	0.0153632
722.951	0.0154099
723.030	0.0155519
723.108	0.0155221
723.186	0.0155045
723.264	0.0154822
723.342	0.0153989
723.420	0.0153156
723.498	0.0153221
723.576	0.0153344
723.655	0.0153624
723.733	0.0153658
723.811	0.0152777
723.889	0.0151673
723.967	0.0151304
724.045	0.0151689
724.123	0.0150665
724.201	0.0149821
724.280	0.0152729
724.358	0.0151684
724.436	0.0148835
724.514	0.0152474
724.592	0.0152071
724.670	0.0152264
724.748	0.0152670
724.826	0.0153418
724.905	0.0153532
724.983	0.0153575
725.061	0.0154884
725.139	0.0156278
725.217	0.0155469
725.295	0.0155138
725.373	0.0156272
725.451	0.0155965
725.530	0.0156081
725.608	0.0155334
725.686	0.0154097
725.764	0.0154070
725.842	0.0155630
725.920	0.0154578
725.998	0.0155216
726.076	0.0153988
726.155	0.0153664
726.233	0.0153708
726.311	0.0153180
726.389	0.0153313
726.467	0.0154001
726.545	0.0153696
726.623	0.0153594
726.701	0.0153268
726.780	0.0151177
726.858	0.0152748
726.936	0.0153178
727.014	0.0151774
727.092	0.0152995
727.170	0.0153411
727.248	0.0153681
727.326	0.0152664
727.405	0.0154937
727.483	0.0154357
727.561	0.0154298
727.639	0.0154808
727.717	0.0155099
727.795	0.0156448
727.873	0.0157051
727.951	0.0156467
728.030	0.0156387
728.108	0.0155090
728.186	0.0156831
728.264	0.0157721
728.342	0.0155909
728.420	0.0157905
728.498	0.0158939
728.576	0.0155071
728.655	0.0156091
728.733	0.0157285
728.811	0.0155876
728.889	0.0154484
728.967	0.0153809
729.045	0.0153978
729.123	0.0153484
729.201	0.0154179
729.280	0.0154279
729.358	0.0152914
729.436	0.0152241
729.514	0.0152287
729.592	0.0153014
729.670	0.0153967
729.748	0.0154684
729.826	0.0153940
729.905	0.0154801
729.983	0.0154163
730.061	0.0154033
730.139	0.0154440
730.217	0.0155331
730.295	0.0155544
730.373	0.0154940
730.451	0.0155725
730.530	0.0153947
730.608	0.0155498
730.686	0.0154475
730.764	0.0153681
730.842	0.0154121
730.920	0.0154375
730.998	0.0154308
731.076	0.0153612
731.155	0.0153032
731.233	0.0153786
731.311	0.0153374
731.389	0.0151908
731.467	0.0153240
731.545	0.0152754
731.623	0.0152888
731.701	0.0154646
731.780	0.0154679
731.858	0.0155827
731.936	0.0153523
732.014	0.0153748
732.092	0.0153505
732.170	0.0154739
732.248	0.0153078
732.326	0.0154131
732.405	0.0153244
732.483	0.0153267
732.561	0.0154161
732.639	0.0153855
732.717	0.0153442
732.795	0.0153779
732.873	0.0153419
732.951	0.0153516
733.030	0.0154587
733.108	0.0154905
733.186	0.0153432
733.264	0.0154221
733.342	0.0155534
733.420	0.0154993
733.498	0.0154109
733.576	0.0155084
733.655	0.0155556
733.733	0.0155016
733.811	0.0155254
733.889	0.0153804
733.967	0.0153619
734.045	0.0154905
734.123	0.0153005
734.201	0.0153150
734.280	0.0153645
734.358	0.0153861
734.436	0.0153367
734.514	0.0154784
734.592	0.0154898
734.670	0.0154659
734.748	0.0153802
734.826	0.0153687
734.905	0.0153441
734.983	0.0155340
735.061	0.0154917
735.139	0.0153996
735.217	0.0153809
735.295	0.0153023
735.373	0.0155519
735.451	0.0153574
735.530	0.0154292
735.608	0.0152337
735.686	0.0152911
735.764	0.0154984
735.842	0.0154654
735.920	0.0151516
735.998	0.0152621
736.076	0.0152864
736.155	0.0152203
736.233	0.0152818
736.311	0.0150819
736.389	0.0151293
736.467	0.0151027
736.545	0.0151747
736.623	0.0151563
736.701	0.0152082
736.780	0.0151205
736.858	0.0152151
736.936	0.0152887
737.014	0.0152328
737.092	0.0152377
737.170	0.0152861
737.248	0.0154185
737.326	0.0153483
737.405	0.0154086
737.483	0.0154464
737.561	0.0154331
737.639	0.0152646
737.717	0.0153948
737.795	0.0155695
737.873	0.0155492
737.951	0.0155811
738.030	0.0154533
738.108	0.0154728
738.186	0.0155460
738.264	0.0155697
738.342	0.0154976
738.420	0.0154193
738.498	0.0154469
738.576	0.0154127
738.655	0.0153077
738.733	0.0155019
738.811	0.0153591
738.889	0.0153329
738.967	0.0152454
739.045	0.0154076
739.123	0.0153713
739.201	0.0152568
739.280	0.0153062
739.358	0.0154121
739.436	0.0153778
739.514	0.0152757
739.592	0.0152892
739.670	0.0152368
739.748	0.0152467
739.826	0.0152729
739.905	0.0153117
739.983	0.0153619
740.061	0.0153578
740.139	0.0152868
740.217	0.0154668
740.295	0.0153266
740.373	0.0152923
740.451	0.0153464
740.530	0.0155216
740.608	0.0154542
740.686	0.0156491
740.764	0.0154586
740.842	0.0154398
740.920	0.0156242
740.998	0.0155620
741.076	0.0155875
741.155	0.0154859
741.233	0.0152835
741.311	0.0154365
741.389	0.0154478
741.467	0.0153175
741.545	0.0153084
741.623	0.0153756
741.701	0.0152228
741.780	0.0153118
741.858	0.0151884
741.936	0.0154423
742.014	0.0151678
742.092	0.0153346
742.170	0.0153271
742.248	0.0152506
742.326	0.0154042
742.405	0.0154192
742.483	0.0154278
742.561	0.0154112
742.639	0.0154884
742.717	0.0154347
742.795	0.0154794
742.873	0.0155573
742.951	0.0155643
743.030	0.0155091
743.108	0.0155180
743.186	0.0154056
743.264	0.0155132
743.342	0.0154831
743.420	0.0155037
743.498	0.0155312
743.576	0.0153698
743.655	0.0153308
743.733	0.0152749
743.811	0.0154213
743.889	0.0152825
743.967	0.0154106
744.045	0.0154775
744.123	0.0152047
744.201	0.0153625
744.280	0.0153625
744.358	0.0154139
744.436	0.0152483
744.514	0.0153091
744.592	0.0154003
744.670	0.0152864
744.748	0.0153622
744.826	0.0154376
744.905	0.0152852
744.983	0.0153615
745.061	0.0152598
745.139	0.0154971
745.217	0.0152518
745.295	0.0154559
745.373	0.0153746
745.451	0.0154179
745.530	0.0152574
745.608	0.0152056
745.686	0.0152554
745.764	0.0154654
745.842	0.0153528
745.920	0.0153510
745.998	0.0154589
746.076	0.0153951
746.155	0.0154459
746.233	0.0153466
746.311	0.0154538
746.389	0.0154895
746.467	0.0153576
746.545	0.0154374
746.623	0.0152995
746.701	0.0154285
746.780	0.0153705
746.858	0.0153476
746.936	0.0155268
747.014	0.0154722
747.092	0.0153283
747.170	0.0154207
747.248	0.0153696
747.326	0.0153416
747.405	0.0152298
747.483	0.0153201
747.561	0.0152801
747.639	0.0152489
747.717	0.0153062
747.795	0.0153432
747.873	0.0153096
747.951	0.0152924
748.030	0.0152930
748.108	0.0155202
748.186	0.0155010
748.264	0.0154301
748.342	0.0155593
748.420	0.0155090
748.498	0.0154234
748.576	0.0154640
748.655	0.0154929
748.733	0.0153941
748.811	0.0154134
748.889	0.0154462
748.967	0.0153835
749.045	0.0154279
749.123	0.0154240
749.201	0.0154251
749.280	0.0154542
749.358	0.0153306
749.436	0.0152854
749.514	0.0154903
749.592	0.0153677
749.670	0.0153870
749.748	0.0153180
749.826	0.0154411
749.905	0.0154202
749.983	0.0153358
750.061	0.0152206
750.139	0.0154521
750.217	0.0154048
750.295	0.0153591
750.373	0.0154111
750.451	0.0153470
750.530	0.0154606
750.608	0.0154957
750.686	0.0154240
750.764	0.0153519
750.842	0.0153401
750.920	0.0154041
750.998	0.0153313
751.076	0.0154403
751.155	0.0154260
751.233	0.0153925
751.311	0.0153036
751.389	0.0154607
751.467	0.0154113
751.545	0.0154097
751.623	0.0154325
751.701	0.0154403
751.780	0.0154669
751.858	0.0154469
751.936	0.0154048
752.014	0.0154736
752.092	0.0153870
752.170	0.0154839
752.248	0.0154271
752.326	0.0153986
752.405	0.0153717
752.483	0.0154459
752.561	0.0153806
752.639	0.0154674
752.717	0.0153687
752.795	0.0153722
752.873	0.0153726
752.951	0.0153745
753.030	0.0154985
753.108	0.0154330
753.186	0.0155890
753.264	0.0154789
753.342	0.0155116
753.420	0.0155650
753.498	0.0155649
753.576	0.0155357
753.655	0.0154561
753.733	0.0153952
753.811	0.0153755
753.889	0.0155418
753.967	0.0153556
754.045	0.0154803
754.123	0.0154911
754.201	0.0155505
754.280	0.0155047
754.358	0.0154473
754.436	0.0155548
754.514	0.0154738
754.592	0.0155283
754.670	0.0154252
754.748	0.0153345
754.826	0.0154814
754.905	0.0155271
754.983	0.0154700
755.061	0.0154134
755.139	0.0153329
755.217	0.0154326
755.295	0.0154636
755.373	0.0154029
755.451	0.0153579
755.530	0.0154823
755.608	0.0156012
755.686	0.0154395
755.764	0.0152637
755.842	0.0152579
755.920	0.0153474
755.998	0.0153000
756.076	0.0153683
756.155	0.0152494
756.233	0.0153666
756.311	0.0154050
756.389	0.0153787
756.467	0.0155084
756.545	0.0153861
756.623	0.0153773
756.701	0.0153465
756.780	0.0154085
756.858	0.0154048
756.936	0.0153420
757.014	0.0154023
757.092	0.0153970
757.170	0.0154881
757.248	0.0154300
757.326	0.0155914
757.405	0.0154041
757.483	0.0154041
757.561	0.0153770
757.639	0.0154504
757.717	0.0156266
757.795	0.0154990
757.873	0.0154956
757.951	0.0152923
758.030	0.0154372
758.108	0.0153853
758.186	0.0154168
758.264	0.0153193
758.342	0.0153461
758.420	0.0151412
758.498	0.0153362
758.576	0.0153378
758.655	0.0153742
758.733	0.0152979
758.811	0.0152254
758.889	0.0153839
758.967	0.0153469
759.045	0.0153354
759.123	0.0152798
759.201	0.0152895
759.280	0.0152925
759.358	0.0154592
759.436	0.0154783
759.514	0.0153649
759.592	0.0153079
759.670	0.0152798
759.748	0.0154070
759.826	0.0153948
759.905	0.0153960
759.983	0.0153145
760.061	0.0151070
760.139	0.0152685
760.217	0.0153823
760.295	0.0154266
760.373	0.0153033
760.451	0.0152817
760.530	0.0153699
760.608	0.0153860
760.686	0.0153398
760.764	0.0153210
760.842	0.0151185
760.920	0.0152523
760.998	0.0153690
761.076	0.0152845
761.155	0.0152207
761.233	0.0153204
761.311	0.0153316
761.389	0.0152452
761.467	0.0152952
761.545	0.0152644
761.623	0.0152879
761.701	0.0154270
761.780	0.0154449
761.858	0.0153767
761.936	0.0152666
762.014	0.0153799
762.092	0.0154058
762.170	0.0152753
762.248	0.0153987
762.326	0.0153283
762.405	0.0153533
762.483	0.0154745
762.561	0.0153735
762.639	0.0153387
762.717	0.0153964
762.795	0.0153569
762.873	0.0154728
762.951	0.0154342
763.030	0.0154482
763.108	0.0154401
763.186	0.0153922
763.264	0.0155154
763.342	0.0154522
763.420	0.0156039
763.498	0.0155332
763.576	0.0154345
763.655	0.0155279
763.733	0.0154315
763.811	0.0155828
763.889	0.0154832
763.967	0.0154824
764.045	0.0156528
764.123	0.0156531
764.201	0.0155973
764.280	0.0154604
764.358	0.0155219
764.436	0.0154953
764.514	0.0154730
764.592	0.0154865
764.670	0.0153812
764.748	0.0153352
764.826	0.0154614
764.905	0.0152333
764.983	0.0153082
765.061	0.0153303
765.139	0.0151521
765.217	0.0151204
765.295	0.0151928
765.373	0.0152888
765.451	0.0152982
765.530	0.0152611
765.608	0.0152194
765.686	0.0153847
765.764	0.0153251
765.842	0.0152300
765.920	0.0154237
765.998	0.0153378
766.076	0.0153217
766.155	0.0153039
766.233	0.0152274
766.311	0.0153117
766.389	0.0154117
766.467	0.0152692
766.545	0.0152870
766.623	0.0152096
766.701	0.0153954
766.780	0.0155289
766.858	0.0153155
766.936	0.0154085
767.014	0.0154561
767.092	0.0154250
767.170	0.0155817
767.248	0.0153777
767.326	0.0154848
767.405	0.0155657
767.483	0.0155263
767.561	0.0154213
767.639	0.0155625
767.717	0.0155488
767.795	0.0154657
767.873	0.0155012
767.951	0.0154930
768.030	0.0154816
768.108	0.0155753
768.186	0.0154361
768.264	0.0153683
768.342	0.0155178
768.420	0.0153313
768.498	0.0154947
768.576	0.0154728
768.655	0.0155659
768.733	0.0155373
768.811	0.0154395
768.889	0.0153908
768.967	0.0153256
769.045	0.0154485
769.123	0.0155244
769.201	0.0154253
769.280	0.0154217
769.358	0.0154530
769.436	0.0155124
769.514	0.0154578
769.592	0.0154876
769.670	0.0155826
769.748	0.0154952
769.826	0.0153591
769.905	0.0154562
769.983	0.0154084
770.061	0.0156260
770.139	0.0155072
770.217	0.0152898
770.295	0.0152882
770.373	0.0154308
770.451	0.0153593
770.530	0.0154282
770.608	0.0153413
770.686	0.0152054
770.764	0.0155177
770.842	0.0154575
770.920	0.0153025
770.998	0.0152205
771.076	0.0152756
771.155	0.0153452
771.233	0.0153322
771.311	0.0154277
771.389	0.0154012
771.467	0.0154006
771.545	0.0153810
771.623	0.0153872
771.701	0.0153240
771.780	0.0153191
771.858	0.0153609
771.936	0.0154626
772.014	0.0154161
772.092	0.0155065
772.170	0.0154138
772.248	0.0153593
772.326	0.0153931
772.405	0.0153371
772.483	0.0154642
772.561	0.0155455
772.639	0.0154204
772.717	0.0153100
772.795	0.0154716
772.873	0.0152876
772.951	0.0155468
773.030	0.0155018
773.108	0.0154271
773.186	0.0153985
773.264	0.0155021
773.342	0.0154768
773.420	0.0155608
773.498	0.0154585
773.576	0.0153535
773.655	0.0154208
773.733	0.0153457
773.811	0.0155008
773.889	0.0154147
773.967	0.0154568
774.045	0.0156184
774.123	0.0155315
774.201	0.0154735
774.280	0.0154982
774.358	0.0154861
774.436	0.0154416
774.514	0.0155370
774.592	0.0154505
774.670	0.0154587
774.748	0.0155213
774.826	0.0154968
774.905	0.0156283
774.983	0.0155013
775.061	0.0153581
775.139	0.0155268
775.217	0.0154481
775.295	0.0154869
775.373	0.0153505
775.451	0.0154211
775.530	0.0154058
775.608	0.0155107
775.686	0.0153370
775.764	0.0152993
775.842	0.0154263
775.920	0.0155746
775.998	0.0154858
776.076	0.0153145
776.155	0.0154191
776.233	0.0154056
776.311	0.0153941
776.389	0.0154089
776.467	0.0154150
776.545	0.0154730
776.623	0.0155266
776.701	0.0155450
776.780	0.0154439
776.858	0.0154203
776.936	0.0155329
777.014	0.0154761
777.092	0.0155899
777.170	0.0156158
777.248	0.0154972
777.326	0.0154235
777.405	0.0155407
777.483	0.0156094
777.561	0.0153873
777.639	0.0154247
777.717	0.0155112
777.795	0.0154177
777.873	0.0154797
777.951	0.0154467
778.030	0.0154121
778.108	0.0154439
778.186	0.0154372
778.264	0.0155621
778.342	0.0155421
778.420	0.0154443
778.498	0.0153905
778.576	0.0154078
778.655	0.0153177
778.733	0.0153391
778.811	0.0154946
778.889	0.0152873
778.967	0.0153931
779.045	0.0152923
779.123	0.0154917
779.201	0.0154997
779.280	0.0155722
779.358	0.0153442
779.436	0.0154236
779.514	0.0155028
779.592	0.0153651
779.670	0.0154988
779.748	0.0154375
779.826	0.0154751
779.905	0.0155499
779.983	0.0153921
780.061	0.0154720
780.139	0.0154880
780.217	0.0154814
780.295	0.0153525
780.373	0.0155986
780.451	0.0153498
780.530	0.0153667
780.608	0.0154333
780.686	0.0152878
780.764	0.0153979
780.842	0.0153541
780.920	0.0154333
780.998	0.0153973
781.076	0.0154234
781.155	0.0153310
781.233	0.0153581
781.311	0.0153435
781.389	0.0154884
781.467	0.0153150
781.545	0.0155034
781.623	0.0155009
781.701	0.0154261
781.780	0.0153893
781.858	0.0153597
781.936	0.0154057
782.014	0.0154347
782.092	0.0154612
782.170	0.0154312
782.248	0.0153938
782.326	0.0153226
782.405	0.0153717
782.483	0.0154414
782.561	0.0153011
782.639	0.0154984
782.717	0.0154331
782.795	0.0154813
782.873	0.0152984
782.951	0.0153641
783.030	0.0153206
783.108	0.0154420
783.186	0.0153300
783.264	0.0154582
783.342	0.0153307
783.420	0.0154893
783.498	0.0154769
783.576	0.0154243
783.655	0.0154160
783.733	0.0153635
783.811	0.0154391
783.889	0.0155354
783.967	0.0154301
784.045	0.0153010
784.123	0.0153978
784.201	0.0152953
784.280	0.0153375
784.358	0.0153951
784.436	0.0152683
784.514	0.0154088
784.592	0.0153448
784.670	0.0154497
784.748	0.0155445
784.826	0.0154353
784.905	0.0154755
784.983	0.0154121
785.061	0.0154808
785.139	0.0154256
785.217	0.0156123
785.295	0.0155324
785.373	0.0155487
785.451	0.0155063
785.530	0.0153310
785.608	0.0154446
785.686	0.0154265
785.764	0.0155597
785.842	0.0154151
785.920	0.0155476
785.998	0.0155038
786.076	0.0153615
786.155	0.0154492
786.233	0.0154859
786.311	0.0153108
786.389	0.0155075
786.467	0.0155320
786.545	0.0153600
786.623	0.0154731
786.701	0.0153139
786.780	0.0151312
786.858	0.0152029
786.936	0.0153226
787.014	0.0153654
787.092	0.0154443
787.170	0.0152135
787.248	0.0152015
787.326	0.0152554
787.405	0.0155073
787.483	0.0153097
787.561	0.0153212
787.639	0.0153362
787.717	0.0153535
787.795	0.0154558
787.873	0.0156087
787.951	0.0155458
788.030	0.0154102
788.108	0.0156055
788.186	0.0156302
788.264	0.0154616
788.342	0.0155297
788.420	0.0155171
788.498	0.0155074
788.576	0.0154453
788.655	0.0154658
788.733	0.0155810
788.811	0.0154155
788.889	0.0153287
788.967	0.0154233
789.045	0.0153709
789.123	0.0153643
789.201	0.0153438
789.280	0.0152925
789.358	0.0153166
789.436	0.0152617
789.514	0.0152477
789.592	0.0153490
789.670	0.0153228
789.748	0.0152749
789.826	0.0152685
789.905	0.0153651
789.983	0.0154170
790.061	0.0153360
790.139	0.0154550
790.217	0.0155407
790.295	0.0153848
790.373	0.0156008
790.451	0.0156231
790.530	0.0155657
790.608	0.0154888
790.686	0.0156174
790.764	0.0156521
790.842	0.0156067
790.920	0.0153886
790.998	0.0154990
791.076	0.0155809
791.155	0.0155630
791.233	0.0154813
791.311	0.0154056
791.389	0.0154097
791.467	0.0154584
791.545	0.0154862
791.623	0.0153391
791.701	0.0153377
791.780	0.0153641
791.858	0.0153453
791.936	0.0152283
792.014	0.0151913
792.092	0.0152642
792.170	0.0152129
792.248	0.0152899
792.326	0.0152081
792.405	0.0152968
792.483	0.0153672
792.561	0.0153033
792.639	0.0153329
792.717	0.0153683
792.795	0.0154481
792.873	0.0154459
792.951	0.0155423
793.030	0.0154581
793.108	0.0155232
793.186	0.0155097
793.264	0.0156381
793.342	0.0154319
793.420	0.0155537
793.498	0.0155608
793.576	0.0154711
793.655	0.0153699
793.733	0.0156506
793.811	0.0154762
793.889	0.0156616
793.967	0.0156412
794.045	0.0153944
794.123	0.0154502
794.201	0.0154612
794.280	0.0154148
794.358	0.0156123
794.436	0.0154972
794.514	0.0154539
794.592	0.0153907
794.670	0.0153361
794.748	0.0153261
794.826	0.0155058
794.905	0.0153561
794.983	0.0155082
795.061	0.0153906
795.139	0.0155029
795.217	0.0156149
795.295	0.0154158
795.373	0.0153963
795.451	0.0155118
795.530	0.0152796
795.608	0.0153677
795.686	0.0154182
795.764	0.0153548
795.842	0.0154535
795.920	0.0153455
795.998	0.0152454
796.076	0.0152920
796.155	0.0154112
796.233	0.0152164
796.311	0.0152315
796.389	0.0153821
796.467	0.0153948
796.545	0.0154155
796.623	0.0153056
796.701	0.0154332
796.780	0.0153870
796.858	0.0154059
796.936	0.0154644
797.014	0.0154189
797.092	0.0154861
797.170	0.0154782
797.248	0.0153194
797.326	0.0155515
797.405	0.0154996
797.483	0.0153439
797.561	0.0155202
797.639	0.0153517
797.717	0.0154025
797.795	0.0153874
797.873	0.0153106
797.951	0.0153599
798.030	0.0154115
798.108	0.0154202
798.186	0.0154687
798.264	0.0153509
798.342	0.0154193
798.420	0.0154482
798.498	0.0154898
798.576	0.0155843
798.655	0.0153270
798.733	0.0154134
798.811	0.0153917
798.889	0.0153558
798.967	0.0155503
799.045	0.0155347
799.123	0.0154466
799.201	0.0153234
799.280	0.0153991
799.358	0.0154350
799.436	0.0153120
799.514	0.0153354
799.592	0.0153893
799.670	0.0154417
799.748	0.0153748
799.826	0.0152831
799.905	0.0153895
799.983	0.0153375
800.061	0.0151923
800.139	0.0154197
800.217	0.0153741
800.295	0.0153049
800.373	0.0153193
800.451	0.0154380
800.530	0.0154622
800.608	0.0154462
800.686	0.0154205
800.764	0.0155665
800.842	0.0154807
800.920	0.0153955
800.998	0.0153954
801.076	0.0154555
801.155	0.0154247
801.233	0.0154935
801.311	0.0154583
801.389	0.0155306
801.467	0.0155376
801.545	0.0155128
801.623	0.0155415
801.701	0.0155221
801.780	0.0154150
801.858	0.0154419
801.936	0.0153054
802.014	0.0155087
802.092	0.0154607
802.170	0.0152383
802.248	0.0152947
802.326	0.0154012
802.405	0.0153280
802.483	0.0154108
802.561	0.0153040
802.639	0.0154547
802.717	0.0154105
802.795	0.0153046
802.873	0.0152672
802.951	0.0152319
803.030	0.0152805
803.108	0.0152970
803.186	0.0153731
803.264	0.0154713
803.342	0.0154789
803.420	0.0153886
803.498	0.0154231
803.576	0.0156087
803.655	0.0155928
803.733	0.0153474
803.811	0.0156157
803.889	0.0154255
803.967	0.0153025
804.045	0.0155148
804.123	0.0154285
804.201	0.0152468
804.280	0.0153297
804.358	0.0154554
804.436	0.0154485
804.514	0.0153759
804.592	0.0154604
804.670	0.0153535
804.748	0.0152285
804.826	0.0154237
804.905	0.0153472
804.983	0.0153979
805.061	0.0154030
805.139	0.0153436
805.217	0.0153960
805.295	0.0154788
805.373	0.0154887
805.451	0.0154956
805.530	0.0155273
805.608	0.0155476
805.686	0.0153353
805.764	0.0153779
805.842	0.0155230
805.920	0.0153773
805.998	0.0154482
806.076	0.0154431
806.155	0.0152814
806.233	0.0152606
806.311	0.0152775
806.389	0.0153217
806.467	0.0154337
806.545	0.0154179
806.623	0.0152934
806.701	0.0153103
806.780	0.0153124
806.858	0.0152688
806.936	0.0154089
807.014	0.0153793
807.092	0.0153138
807.170	0.0152969
807.248	0.0153959
807.326	0.0154163
807.405	0.0154025
807.483	0.0155420
807.561	0.0153760
807.639	0.0155074
807.717	0.0155170
807.795	0.0154096
807.873	0.0154475
807.951	0.0153703
808.030	0.0153825
808.108	0.0153692
808.186	0.0154208
808.264	0.0154657
808.342	0.0154194
808.420	0.0154510
808.498	0.0154133
808.576	0.0153661
808.655	0.0155003
808.733	0.0153207
808.811	0.0154082
808.889	0.0154622
808.967	0.0153546
809.045	0.0154697
809.123	0.0153957
809.201	0.0154798
809.280	0.0153822
809.358	0.0153488
809.436	0.0152862
809.514	0.0152764
809.592	0.0154018
809.670	0.0153841
809.748	0.0154079
809.826	0.0155228
809.905	0.0155304
809.983	0.0154315
810.061	0.0154138
810.139	0.0154548
810.217	0.0155064
810.295	0.0154217
810.373	0.0154833
810.451	0.0155354
810.530	0.0156741
810.608	0.0155006
810.686	0.0154594
810.764	0.0153939
810.842	0.0153638
810.920	0.0154953
810.998	0.0155099
811.076	0.0154117
811.155	0.0153843
811.233	0.0154739
811.311	0.0154162
811.389	0.0154325
811.467	0.0154919
811.545	0.0155410
811.623	0.0153661
811.701	0.0152339
811.780	0.0153760
811.858	0.0154934
811.936	0.0154213
812.014	0.0153970
812.092	0.0153178
812.170	0.0153336
812.248	0.0154259
812.326	0.0153956
812.405	0.0153722
812.483	0.0154420
812.561	0.0153679
812.639	0.0153983
812.717	0.0153620
812.795	0.0155071
812.873	0.0154814
812.951	0.0152868
813.030	0.0154207
813.108	0.0154454
813.186	0.0153598
813.264	0.0153838
813.342	0.0154522
813.420	0.0151916
813.498	0.0153410
813.576	0.0154473
813.655	0.0153085
813.733	0.0153662
813.811	0.0153367
813.889	0.0154089
813.967	0.0152619
814.045	0.0152822
814.123	0.0153125
814.201	0.0153499
814.280	0.0152183
814.358	0.0154104
814.436	0.0153716
814.514	0.0152976
814.592	0.0153127
814.670	0.0154699
814.748	0.0154715
814.826	0.0152875
814.905	0.0153039
814.983	0.0152893
815.061	0.0155627
815.139	0.0155236
815.217	0.0154934
815.295	0.0156268
815.373	0.0153749
815.451	0.0152901
815.530	0.0154299
815.608	0.0154941
815.686	0.0154690
815.764	0.0154036
815.842	0.0154948
815.920	0.0155100
815.998	0.0155734
816.076	0.0155263
816.155	0.0154778
816.233	0.0155063
816.311	0.0153943
816.389	0.0154672
816.467	0.0154919
816.545	0.0154076
816.623	0.0152307
816.701	0.0154340
816.780	0.0154939
816.858	0.0153777
816.936	0.0152181
817.014	0.0153420
817.092	0.0152422
817.170	0.0152415
817.248	0.0152377
817.326	0.0152995
817.405	0.0151862
817.483	0.0152232
817.561	0.0153777
817.639	0.0152284
817.717	0.0152708
817.795	0.0152958
817.873	0.0152512
817.951	0.0152231
818.030	0.0152242
818.108	0.0153143
818.186	0.0152823
818.264	0.0152332
818.342	0.0154271
818.420	0.0154025
818.498	0.0152875
818.576	0.0152934
818.655	0.0153782
818.733	0.0154290
818.811	0.0154141
818.889	0.0153653
818.967	0.0155288
819.045	0.0154363
819.123	0.0154323
819.201	0.0153375
819.280	0.0153095
819.358	0.0154264
819.436	0.0154451
819.514	0.0153268
819.592	0.0153276
819.670	0.0153352
819.748	0.0153768
819.826	0.0152713
819.905	0.0152886
819.983	0.0152655
820.061	0.0152116
820.139	0.0153384
820.217	0.0153907
820.295	0.0154945
820.373	0.0154368
820.451	0.0154757
820.530	0.0155236
820.608	0.0153822
820.686	0.0154742
820.764	0.0154850
820.842	0.0156343
820.920	0.0155304
820.998	0.0154013
821.076	0.0155358
821.155	0.0154926
821.233	0.0155066
821.311	0.0154276
821.389	0.0154160
821.467	0.0154199
821.545	0.0154501
821.623	0.0154252
821.701	0.0154424
821.780	0.0154974
821.858	0.0155139
821.936	0.0153804
822.014	0.0153584
822.092	0.0154179
822.170	0.0153201
822.248	0.0153117
822.326	0.0152290
822.405	0.0153912
822.483	0.0153556
822.561	0.0153743
822.639	0.0152527
822.717	0.0153473
822.795	0.0154552
822.873	0.0152831
822.951	0.0153819
823.030	0.0152555
823.108	0.0154235
823.186	0.0154331
823.264	0.0154152
823.342	0.0154578
823.420	0.0153172
823.498	0.0152940
823.576	0.0155236
823.655	0.0154575
823.733	0.0153849
823.811	0.0154875
823.889	0.0153625
823.967	0.0152452
824.045	0.0152063
824.123	0.0152641
824.201	0.0153004
824.280	0.0152415
824.358	0.0152510
824.436	0.0152010
824.514	0.0152827
824.592	0.0152677
824.670	0.0151776
824.748	0.0152246
824.826	0.0151558
824.905	0.0151859
824.983	0.0152442
825.061	0.0152047
825.139	0.0152535
825.217	0.0153264
825.295	0.0151863
825.373	0.0153059
825.451	0.0153838
825.530	0.0154249
825.608	0.0153902
825.686	0.0152895
825.764	0.0154742
825.842	0.0155645
825.920	0.0154665
825.998	0.0155379
826.076	0.0157156
826.155	0.0156178
826.233	0.0154548
826.311	0.0155652
826.389	0.0156712
826.467	0.0155497
826.545	0.0156396
826.623	0.0156139
826.701	0.0155720
826.780	0.0155766
826.858	0.0155164
826.936	0.0155502
827.014	0.0154821
827.092	0.0156257
827.170	0.0154989
827.248	0.0153993
827.326	0.0155082
827.405	0.0155178
827.483	0.0155898
827.561	0.0154591
827.639	0.0153385
827.717	0.0153895
827.795	0.0152920
827.873	0.0151723
827.951	0.0153004
828.030	0.0151815
828.108	0.0153456
828.186	0.0151617
828.264	0.0150763
828.342	0.0151697
828.420	0.0152713
828.498	0.0152463
828.576	0.0152129
828.655	0.0152472
828.733	0.0151726
828.811	0.0151961
828.889	0.0151141
828.967	0.0151439
829.045	0.0151387
829.123	0.0151743
829.201	0.0152642
829.280	0.0151783
829.358	0.0153099
829.436	0.0153231
829.514	0.0153616
829.592	0.0152773
829.670	0.0154176
829.748	0.0154704
829.826	0.0152699
829.905	0.0154594
829.983	0.0153290
830.061	0.0152756
830.139	0.0154006
830.217	0.0153049
830.295	0.0154412
830.373	0.0155450
830.451	0.0154906
830.530	0.0155191
830.608	0.0154708
830.686	0.0154066
830.764	0.0154778
830.842	0.0155576
830.920	0.0154780
830.998	0.0155466
831.076	0.0155334
831.155	0.0154990
831.233	0.0154704
831.311	0.0154656
831.389	0.0155369
831.467	0.0154475
831.545	0.0153723
831.623	0.0154189
831.701	0.0155762
831.780	0.0154632
831.858	0.0154799
831.936	0.0154152
832.014	0.0153281
832.092	0.0154234
832.170	0.0153938
832.248	0.0153707
832.326	0.0154086
832.405	0.0154369
832.483	0.0154337
832.561	0.0152955
832.639	0.0153349
832.717	0.0153466
832.795	0.0154599
832.873	0.0153587
832.951	0.0152647
833.030	0.0153304
833.108	0.0153752
833.186	0.0154598
833.264	0.0153142
833.342	0.0155238
833.420	0.0153486
833.498	0.0153165
833.576	0.0153214
833.655	0.0153623
833.733	0.0152985
833.811	0.0153283
833.889	0.0152610
833.967	0.0153223
834.045	0.0152697
834.123	0.0153532
834.201	0.0151907
834.280	0.0153815
834.358	0.0152917
834.436	0.0153583
834.514	0.0153356
834.592	0.0152991
834.670	0.0154055
834.748	0.0153185
834.826	0.0154096
834.905	0.0154341
834.983	0.0153601
835.061	0.0154121
835.139	0.0153910
835.217	0.0153928
835.295	0.0153754
835.373	0.0153790
835.451	0.0153918
835.530	0.0155109
835.608	0.0154031
835.686	0.0153164
835.764	0.0152707
835.842	0.0154531
835.920	0.0152787
835.998	0.0153528
836.076	0.0154243
836.155	0.0154131
836.233	0.0153324
836.311	0.0154500
836.389	0.0154661
836.467	0.0153902
836.545	0.0152692
836.623	0.0153747
836.701	0.0153769
836.780	0.0152702
836.858	0.0152871
836.936	0.0154982
837.014	0.0153664
837.092	0.0153180
837.170	0.0153106
837.248	0.0153413
837.326	0.0152805
837.405	0.0151645
837.483	0.0152218
837.561	0.0153137
837.639	0.0152792
837.717	0.0152470
837.795	0.0153482
837.873	0.0153574
837.951	0.0153326
838.030	0.0152940
838.108	0.0153963
838.186	0.0154205
838.264	0.0153500
838.342	0.0154775
838.420	0.0153922
838.498	0.0154791
838.576	0.0155064
838.655	0.0154948
838.733	0.0154718
838.811	0.0155152
838.889	0.0154008
838.967	0.0154609
839.045	0.0155692
839.123	0.0154536
839.201	0.0154054
839.280	0.0155070
839.358	0.0155138
839.436	0.0155560
839.514	0.0153574
839.592	0.0154667
839.670	0.0154880
839.748	0.0154607
839.826	0.0154294
839.905	0.0153024
839.983	0.0154654
840.061	0.0154503
840.139	0.0153029
840.217	0.0152924
840.295	0.0154319
840.373	0.0153423
840.451	0.0153603
840.530	0.0153039
840.608	0.0153570
840.686	0.0154467
840.764	0.0152982
840.842	0.0153748
840.920	0.0153980
840.998	0.0154230
841.076	0.0154008
841.155	0.0152528
841.233	0.0152749
841.311	0.0153024
841.389	0.0153841
841.467	0.0154549
841.545	0.0152493
841.623	0.0152712
841.701	0.0152130
841.780	0.0153306
841.858	0.0153391
841.936	0.0153238
842.014	0.0154552
842.092	0.0152179
842.170	0.0153811
842.248	0.0152840
842.326	0.0151998
842.405	0.0154224
842.483	0.0155202
842.561	0.0153120
842.639	0.0153726
842.717	0.0155025
842.795	0.0154642
842.873	0.0154413
842.951	0.0155858
843.030	0.0153392
843.108	0.0153055
843.186	0.0154937
843.264	0.0154499
843.342	0.0154115
843.420	0.0153627
843.498	0.0154383
843.576	0.0153728
843.655	0.0154176
843.733	0.0154268
843.811	0.0154791
843.889	0.0155087
843.967	0.0153623
844.045	0.0154238
844.123	0.0153629
844.201	0.0154275
844.280	0.0154330
844.358	0.0153526
844.436	0.0152183
844.514	0.0153391
844.592	0.0154366
844.670	0.0154025
844.748	0.0155415
844.826	0.0152911
844.905	0.0151978
844.983	0.0152878
845.061	0.0153379
845.139	0.0152528
845.217	0.0153094
845.295	0.0153333
845.373	0.0152227
845.451	0.0153412
845.530	0.0153964
845.608	0.0154426
845.686	0.0154698
845.764	0.0154388
845.842	0.0155351
845.920	0.0153747
845.998	0.0153614
846.076	0.0155222
846.155	0.0155276
846.233	0.0154288
846.311	0.0153714
846.389	0.0155556
846.467	0.0154290
846.545	0.0154459
846.623	0.0154438
846.701	0.0155234
846.780	0.0153415
846.858	0.0155186
846.936	0.0156179
847.014	0.0153882
847.092	0.0155424
847.170	0.0154193
847.248	0.0153325
847.326	0.0154314
847.405	0.0153777
847.483	0.0155840
847.561	0.0154665
847.639	0.0153236
847.717	0.0154531
847.795	0.0153768
847.873	0.0154288
847.951	0.0153560
848.030	0.0154980
848.108	0.0154316
848.186	0.0153812
848.264	0.0154285
848.342	0.0153238
848.420	0.0153733
848.498	0.0153967
848.576	0.0154344
848.655	0.0154507
848.733	0.0154336
848.811	0.0153829
848.889	0.0153117
848.967	0.0153017
849.045	0.0152570
849.123	0.0152005
849.201	0.0154089
849.280	0.0153236
849.358	0.0151477
849.436	0.0151540
849.514	0.0152314
849.592	0.0152176
849.670	0.0152901
849.748	0.0153628
849.826	0.0152048
849.905	0.0152396
849.983	0.0151876
850.061	0.0152325
850.139	0.0152400
850.217	0.0154521
850.295	0.0152556
850.373	0.0151369
850.451	0.0153873
850.530	0.0153733
850.608	0.0153255
850.686	0.0153997
850.764	0.0154647
850.842	0.0153517
850.920	0.0155379
850.998	0.0153933
851.076	0.0153855
851.155	0.0154929
851.233	0.0154192
851.311	0.0155347
851.389	0.0154839
851.467	0.0154650
851.545	0.0155325
851.623	0.0153634
851.701	0.0155100
851.780	0.0154958
851.858	0.0155701
851.936	0.0155821
852.014	0.0154213
852.092	0.0155151
852.170	0.0154359
852.248	0.0155559
852.326	0.0154271
852.405	0.0156260
852.483	0.0154414
852.561	0.0153954
852.639	0.0155016
852.717	0.0154774
852.795	0.0155643
852.873	0.0154884
852.951	0.0154604
853.030	0.0154484
853.108	0.0154185
853.186	0.0154844
853.264	0.0155563
853.342	0.0155326
853.420	0.0155270
853.498	0.0154129
853.576	0.0153172
853.655	0.0154757
853.733	0.0154735
853.811	0.0152871
853.889	0.0153138
853.967	0.0153712
854.045	0.0155197
854.123	0.0153693
854.201	0.0154784
854.280	0.0153766
854.358	0.0152914
854.436	0.0154671
854.514	0.0154005
854.592	0.0154008
854.670	0.0154655
854.748	0.0153788
854.826	0.0153803
854.905	0.0155195
854.983	0.0155631
855.061	0.0153449
855.139	0.0152900
855.217	0.0154626
855.295	0.0152237
855.373	0.0154586
855.451	0.0152481
855.530	0.0153830
855.608	0.0154202
855.686	0.0155192
855.764	0.0153461
855.842	0.0152706
855.920	0.0153020
855.998	0.0153343
856.076	0.0153007
856.155	0.0154078
856.233	0.0154078
856.311	0.0153532
856.389	0.0153342
856.467	0.0153944
856.545	0.0153672
856.623	0.0154666
856.701	0.0155172
856.780	0.0153726
856.858	0.0155396
856.936	0.0155007
857.014	0.0155098
857.092	0.0155315
857.170	0.0156848
857.248	0.0156110
857.326	0.0156829
857.405	0.0155783
857.483	0.0155004
857.561	0.0156306
857.639	0.0154350
857.717	0.0155288
857.795	0.0156033
857.873	0.0154877
857.951	0.0155194
858.030	0.0155655
858.108	0.0155436
858.186	0.0153690
858.264	0.0154351
858.342	0.0154950
858.420	0.0155856
858.498	0.0155829
858.576	0.0154767
858.655	0.0154120
858.733	0.0153786
858.811	0.0154623
858.889	0.0154205
858.967	0.0154773
859.045	0.0154792
859.123	0.0152895
859.201	0.0155848
859.280	0.0154099
859.358	0.0154054
859.436	0.0154211
859.514	0.0153716
859.592	0.0155353
859.670	0.0153222
859.748	0.0153770
859.826	0.0153372
859.905	0.0153886
859.983	0.0152684
860.061	0.0153325
860.139	0.0153943
860.217	0.0153818
860.295	0.0153473
860.373	0.0154214
860.451	0.0154089
860.530	0.0154072
860.608	0.0154211
860.686	0.0153658
860.764	0.0154082
860.842	0.0153992
860.920	0.0154031
860.998	0.0154019
861.076	0.0153794
861.155	0.0153175
861.233	0.0154213
861.311	0.0155080
861.389	0.0153773
861.467	0.0153830
861.545	0.0153968
861.623	0.0155177
861.701	0.0155757
861.780	0.0156361
861.858	0.0153745
861.936	0.0154519
862.014	0.0154219
862.092	0.0153944
862.170	0.0153819
862.248	0.0154484
862.326	0.0154721
862.405	0.0154120
862.483	0.0154996
862.561	0.0155597
862.639	0.0154552
862.717	0.0154594
862.795	0.0155508
862.873	0.0154771
862.951	0.0156249
863.030	0.0154536
863.108	0.0154482
863.186	0.0155973
863.264	0.0155502
863.342	0.0155293
863.420	0.0155807
863.498	0.0155717
863.576	0.0153643
863.655	0.0155547
863.733	0.0154103
863.811	0.0154423
863.889	0.0155305
863.967	0.0154903
864.045	0.0153153
864.123	0.0154214
864.201	0.0154581
864.280	0.0153493
864.358	0.0155112
864.436	0.0154565
864.514	0.0153352
864.592	0.0154215
864.670	0.0155141
864.748	0.0153414
864.826	0.0153835
864.905	0.0154345
864.983	0.0154179
865.061	0.0153752
865.139	0.0153701
865.217	0.0154052
865.295	0.0154365
865.373	0.0155499
865.451	0.0154582
865.530	0.0154200
865.608	0.0153114
865.686	0.0153410
865.764	0.0153308
865.842	0.0152837
865.920	0.0153332
865.998	0.0154846
866.076	0.0153382
866.155	0.0153349
866.233	0.0153455
866.311	0.0154432
866.389	0.0154452
866.467	0.0154280
866.545	0.0153317
866.623	0.0152915
866.701	0.0155046
866.780	0.0154324
866.858	0.0152906
866.936	0.0155151
867.014	0.0154312
867.092	0.0154749
867.170	0.0154334
867.248	0.0153550
867.326	0.0155671
867.405	0.0153811
867.483	0.0154005
867.561	0.0153971
867.639	0.0154345
867.717	0.0155520
867.795	0.0155401
867.873	0.0155097
867.951	0.0154710
868.030	0.0156718
868.108	0.0155048
868.186	0.0154150
868.264	0.0155600
868.342	0.0155699
868.420	0.0155730
868.498	0.0154505
868.576	0.0155532
868.655	0.0154970
868.733	0.0154945
868.811	0.0153884
868.889	0.0154248
868.967	0.0154074
869.045	0.0154629
869.123	0.0155768
869.201	0.0155011
869.280	0.0155121
869.358	0.0153676
869.436	0.0153123
869.514	0.0153479
869.592	0.0154561
869.670	0.0155585
869.748	0.0155061
869.826	0.0154512
869.905	0.0154375
869.983	0.0154969
870.061	0.0154158
870.139	0.0151957
870.217	0.0155334
870.295	0.0155143
870.373	0.0152975
870.451	0.0154174
870.530	0.0155359
870.608	0.0153928
870.686	0.0153632
870.764	0.0154565
870.842	0.0154206
870.920	0.0153491
870.998	0.0154043
871.076	0.0154223
871.155	0.0154916
871.233	0.0154677
871.311	0.0154204
871.389	0.0154488
871.467	0.0154906
871.545	0.0154278
871.623	0.0152721
871.701	0.0154179
871.780	0.0153973
871.858	0.0153758
871.936	0.0153576
872.014	0.0155307
872.092	0.0154488
872.170	0.0154789
872.248	0.0155699
872.326	0.0154697
872.405	0.0154823
872.483	0.0154961
872.561	0.0155848
872.639	0.0154884
872.717	0.0155241
872.795	0.0154826
872.873	0.0153499
872.951	0.0154610
873.030	0.0154552
873.108	0.0154891
873.186	0.0154258
873.264	0.0155724
873.342	0.0154305
873.420	0.0154629
873.498	0.0154682
873.576	0.0155489
873.655	0.0155075
873.733	0.0155659
873.811	0.0155052
873.889	0.0154007
873.967	0.0154121
874.045	0.0153761
874.123	0.0155737
874.201	0.0154224
874.280	0.0155238
874.358	0.0154980
874.436	0.0155365
874.514	0.0155135
874.592	0.0154695
874.670	0.0154600
874.748	0.0154649
874.826	0.0154726
874.905	0.0154108
874.983	0.0154342
875.061	0.0154189
875.139	0.0153598
875.217	0.0153998
875.295	0.0154631
875.373	0.0154554
875.451	0.0154152
875.530	0.0154189
875.608	0.0152302
875.686	0.0155156
875.764	0.0154089
875.842	0.0154807
875.920	0.0154006
875.998	0.0154956
876.076	0.0154791
876.155	0.0154994
876.233	0.0153922
876.311	0.0155937
876.389	0.0155447
876.467	0.0154542
876.545	0.0153300
876.623	0.0155556
876.701	0.0154965
876.780	0.0155839
876.858	0.0155029
876.936	0.0154250
877.014	0.0154384
877.092	0.0156649
877.170	0.0156008
877.248	0.0155193
877.326	0.0155753
877.405	0.0154610
877.483	0.0153637
877.561	0.0156116
877.639	0.0154108
877.717	0.0155302
877.795	0.0154735
877.873	0.0153877
877.951	0.0154766
878.030	0.0154520
878.108	0.0154539
878.186	0.0153790
878.264	0.0154160
878.342	0.0154509
878.420	0.0155329
878.498	0.0154225
878.576	0.0154773
878.655	0.0153210
878.733	0.0153041
878.811	0.0153416
878.889	0.0154443
878.967	0.0154420
879.045	0.0154146
879.123	0.0154423
879.201	0.0152537
879.280	0.0154755
879.358	0.0153642
879.436	0.0154211
879.514	0.0152616
879.592	0.0153574
879.670	0.0155215
879.748	0.0152824
879.826	0.0152246
879.905	0.0155158
879.983	0.0154774
880.061	0.0154586
880.139	0.0154824
880.217	0.0155244
880.295	0.0152745
880.373	0.0154192
880.451	0.0155145
880.530	0.0154370
880.608	0.0154583
880.686	0.0154604
880.764	0.0155631
880.842	0.0156577
880.920	0.0155290
880.998	0.0155217
881.076	0.0155873
881.155	0.0156432
881.233	0.0156841
881.311	0.0156307
881.389	0.0156142
881.467	0.0157600
881.545	0.0157712
881.623	0.0156775
881.701	0.0157570
881.780	0.0154667
881.858	0.0156009
881.936	0.0155821
882.014	0.0155434
882.092	0.0153104
882.170	0.0153103
882.248	0.0153835
882.326	0.0152515
882.405	0.0153332
882.483	0.0153477
882.561	0.0153409
882.639	0.0152935
882.717	0.0154185
882.795	0.0155739
882.873	0.0156839
882.951	0.0155467
883.030	0.0155801
883.108	0.0156308
883.186	0.0157957
883.264	0.0155167
883.342	0.0155194
883.420	0.0156646
883.498	0.0155957
883.576	0.0155742
883.655	0.0155529
883.733	0.0154794
883.811	0.0154539
883.889	0.0155083
883.967	0.0153712
884.045	0.0153533
884.123	0.0153802
884.201	0.0155249
884.280	0.0154077
884.358	0.0153858
884.436	0.0152311
884.514	0.0153837
884.592	0.0154360
884.670	0.0154813
884.748	0.0154829
884.826	0.0155872
884.905	0.0154659
884.983	0.0154949
885.061	0.0156194
885.139	0.0156046
885.217	0.0154780
885.295	0.0156213
885.373	0.0156153
885.451	0.0154660
885.530	0.0153796
885.608	0.0154232
885.686	0.0154642
885.764	0.0153949
885.842	0.0152902
885.920	0.0152721
885.998	0.0151706
886.076	0.0154128
886.155	0.0152307
886.233	0.0152599
886.311	0.0153510
886.389	0.0151384
886.467	0.0152666
886.545	0.0153138
886.623	0.0152809
886.701	0.0152452
886.780	0.0152604
886.858	0.0152032
886.936	0.0153371
887.014	0.0152917
887.092	0.0154140
887.170	0.0153618
887.248	0.0153502
887.326	0.0154805
887.405	0.0153887
887.483	0.0154200
887.561	0.0154145
887.639	0.0153664
887.717	0.0152948
887.795	0.0153830
887.873	0.0154453
887.951	0.0155128
888.030	0.0155057
888.108	0.0153349
888.186	0.0155239
888.264	0.0155190
888.342	0.0155119
888.420	0.0153352
888.498	0.0154220
888.576	0.0154736
888.655	0.0154919
888.733	0.0153718
888.811	0.0154346
888.889	0.0155716
888.967	0.0155640
889.045	0.0154839
889.123	0.0155442
889.201	0.0156925
889.280	0.0155408
889.358	0.0154901
889.436	0.0156869
889.514	0.0156075
889.592	0.0155260
889.670	0.0155686
889.748	0.0153963
889.826	0.0154092
889.905	0.0155096
889.983	0.0154977
890.061	0.0153587
890.139	0.0153252
890.217	0.0152890
890.295	0.0152178
890.373	0.0151552
890.451	0.0151684
890.530	0.0151061
890.608	0.0151612
890.686	0.0152274
890.764	0.0150805
890.842	0.0152009
890.920	0.0152261
890.998	0.0151946
891.076	0.0152042
891.155	0.0152722
891.233	0.0152208
891.311	0.0151881
891.389	0.0152563
891.467	0.0153603
891.545	0.0154025
891.623	0.0153388
891.701	0.0152495
891.780	0.0152863
891.858	0.0152991
891.936	0.0153440
892.014	0.0153465
892.092	0.0152030
892.170	0.0152970
892.248	0.0153035
892.326	0.0152470
892.405	0.0152805
892.483	0.0153069
892.561	0.0152718
892.639	0.0153952
892.717	0.0154678
892.795	0.0154440
892.873	0.0152435
892.951	0.0153603
893.030	0.0153785
893.108	0.0154080
893.186	0.0153987
893.264	0.0154252
893.342	0.0155309
893.420	0.0153087
893.498	0.0153016
893.576	0.0153895
893.655	0.0154180
893.733	0.0153887
893.811	0.0153651
893.889	0.0153999
893.967	0.0155124
894.045	0.0153854
894.123	0.0154664
894.201	0.0154307
894.280	0.0154254
894.358	0.0154270
894.436	0.0154395
894.514	0.0154816
894.592	0.0155174
894.670	0.0154462
894.748	0.0154986
894.826	0.0153793
894.905	0.0153953
894.983	0.0154375
895.061	0.0154941
895.139	0.0154514
895.217	0.0154950
895.295	0.0154814
895.373	0.0153619
895.451	0.0155538
895.530	0.0154562
895.608	0.0153094
895.686	0.0152994
895.764	0.0153881
895.842	0.0153468
895.920	0.0153719
895.998	0.0153613
896.076	0.0153714
896.155	0.0154457
896.233	0.0153246
896.311	0.0152834
896.389	0.0154018
896.467	0.0153264
896.545	0.0152249
896.623	0.0153705
896.701	0.0153966
896.780	0.0153805
896.858	0.0154932
896.936	0.0154862
897.014	0.0154727
897.092	0.0154292
897.170	0.0152792
897.248	0.0154494
897.326	0.0155193
897.405	0.0154003
897.483	0.0154530
897.561	0.0155898
897.639	0.0154948
897.717	0.0154147
897.795	0.0155416
897.873	0.0155405
897.951	0.0153203
898.030	0.0153731
898.108	0.0154290
898.186	0.0155505
898.264	0.0155549
898.342	0.0154751
898.420	0.0156110
898.498	0.0155703
898.576	0.0153876
898.655	0.0154897
898.733	0.0154959
898.811	0.0155285
898.889	0.0153430
898.967	0.0154615
899.045	0.0154494
899.123	0.0154673
899.201	0.0154259
899.280	0.0155034
899.358	0.0156156
899.436	0.0156295
899.514	0.0154530
899.592	0.0153602
899.670	0.0152863
899.748	0.0154305
899.826	0.0153775
899.905	0.0154094
899.983	0.0154520
900.061	0.0153134
900.139	0.0153569
900.217	0.0155203
900.295	0.0155924
900.373	0.0154927
900.451	0.0153798
900.530	0.0153607
900.608	0.0153683
900.686	0.0154441
900.764	0.0154048
900.842	0.0154203
900.920	0.0153481
900.998	0.0154062
901.076	0.0154240
901.155	0.0154406
901.233	0.0154180
901.311	0.0154071
901.389	0.0153615
901.467	0.0154585
901.545	0.0154740
901.623	0.0154297
901.701	0.0154588
901.780	0.0156702
901.858	0.0153992
901.936	0.0155310
902.014	0.0153696
902.092	0.0153754
902.170	0.0154447
902.248	0.0154661
902.326	0.0154523
902.405	0.0155349
902.483	0.0155030
902.561	0.0153661
902.639	0.0152988
902.717	0.0153905
902.795	0.0153751
902.873	0.0153852
902.951	0.0152950
903.030	0.0153990
903.108	0.0153826
903.186	0.0153084
903.264	0.0153941
903.342	0.0153144
903.420	0.0155404
903.498	0.0154486
903.576	0.0153980
903.655	0.0154620
903.733	0.0155370
903.811	0.0154868
903.889	0.0153298
903.967	0.0154391
904.045	0.0154269
904.123	0.0154563
904.201	0.0154651
904.280	0.0154107
904.358	0.0153741
904.436	0.0155171
904.514	0.0154314
904.592	0.0153584
904.670	0.0153679
904.748	0.0154087
904.826	0.0155277
904.905	0.0153178
904.983	0.0153658
905.061	0.0154211
905.139	0.0156194
905.217	0.0154638
905.295	0.0153925
905.373	0.0154079
905.451	0.0154984
905.530	0.0154232
905.608	0.0154615
905.686	0.0154418
905.764	0.0154853
905.842	0.0153835
905.920	0.0154020
905.998	0.0154134
906.076	0.0153908
906.155	0.0153220
906.233	0.0153333
906.311	0.0152768
906.389	0.0154681
906.467	0.0154858
906.545	0.0152364
906.623	0.0153764
906.701	0.0153741
906.780	0.0152842
906.858	0.0152538
906.936	0.0152731
907.014	0.0155148
907.092	0.0154064
907.170	0.0153410
907.248	0.0153905
907.326	0.0153013
907.405	0.0154049
907.483	0.0154181
907.561	0.0155157
907.639	0.0154205
907.717	0.0153954
907.795	0.0153074
907.873	0.0153074
907.951	0.0154346
908.030	0.0154151
908.108	0.0153608
908.186	0.0154087
908.264	0.0153850
908.342	0.0155344
908.420	0.0153801
908.498	0.0153442
908.576	0.0153445
908.655	0.0153811
908.733	0.0152647
908.811	0.0153552
908.889	0.0153855
908.967	0.0154732
909.045	0.0154657
909.123	0.0154510
909.201	0.0154326
909.280	0.0153131
909.358	0.0153320
909.436	0.0154849
909.514	0.0152888
909.592	0.0152938
909.670	0.0154771
909.748	0.0153079
909.826	0.0153040
909.905	0.0153465
909.983	0.0152876
910.061	0.0153212
910.139	0.0151553
910.217	0.0152836
910.295	0.0153945
910.373	0.0153495
910.451	0.0151963
910.530	0.0153179
910.608	0.0152625
910.686	0.0152016
910.764	0.0152564
910.842	0.0152788
910.920	0.0152653
910.998	0.0154362
911.076	0.0153983
911.155	0.0152715
911.233	0.0153042
911.311	0.0153654
911.389	0.0152699
911.467	0.0153654
911.545	0.0152781
911.623	0.0153511
911.701	0.0153168
911.780	0.0153207
911.858	0.0152222
911.936	0.0152778
912.014	0.0151987
912.092	0.0153024
912.170	0.0152212
912.248	0.0152503
912.326	0.0152975
912.405	0.0154098
912.483	0.0154775
912.561	0.0154114
912.639	0.0155531
912.717	0.0154359
912.795	0.0154218
912.873	0.0155324
912.951	0.0154686
913.030	0.0155729
913.108	0.0154823
913.186	0.0153017
913.264	0.0153146
913.342	0.0152976
913.420	0.0154878
913.498	0.0152758
913.576	0.0152103
913.655	0.0151709
913.733	0.0153114
913.811	0.0152599
913.889	0.0152007
913.967	0.0152062
914.045	0.0151751
914.123	0.0152226
914.201	0.0152747
914.280	0.0152890
914.358	0.0153963
914.436	0.0153133
914.514	0.0152582
914.592	0.0152980
914.670	0.0152908
914.748	0.0151756
914.826	0.0154813
914.905	0.0154575
914.983	0.0154885
915.061	0.0155102
915.139	0.0154424
915.217	0.0153208
915.295	0.0155122
915.373	0.0154878
915.451	0.0154070
915.530	0.0154568
915.608	0.0153989
915.686	0.0153669
915.764	0.0153576
915.842	0.0154542
915.920	0.0152835
915.998	0.0152730
916.076	0.0153365
916.155	0.0153618
916.233	0.0152982
916.311	0.0152785
916.389	0.0153678
916.467	0.0153451
916.545	0.0153709
916.623	0.0153336
916.701	0.0154187
916.780	0.0153419
916.858	0.0153472
916.936	0.0154741
917.014	0.0153917
917.092	0.0153728
917.170	0.0153069
917.248	0.0153400
917.326	0.0152392
917.405	0.0153254
917.483	0.0153767
917.561	0.0155102
917.639	0.0154520
917.717	0.0153609
917.795	0.0153510
917.873	0.0154720
917.951	0.0153455
918.030	0.0153712
918.108	0.0154816
918.186	0.0155162
918.264	0.0153931
918.342	0.0153378
918.420	0.0153605
918.498	0.0153609
918.576	0.0153324
918.655	0.0154482
918.733	0.0154205
918.811	0.0153569
918.889	0.0154884
918.967	0.0154144
919.045	0.0154125
919.123	0.0154241
919.201	0.0153271
919.280	0.0152782
919.358	0.0154968
919.436	0.0154188
919.514	0.0153799
919.592	0.0154320
919.670	0.0153543
919.748	0.0154982
919.826	0.0156445
919.905	0.0153183
919.983	0.0155035
920.061	0.0155285
920.139	0.0155247
920.217	0.0153110
920.295	0.0153835
920.373	0.0153473
920.451	0.0154307
920.530	0.0153789
920.608	0.0152701
920.686	0.0155502
920.764	0.0154715
920.842	0.0154633
920.920	0.0155307
920.998	0.0154787
921.076	0.0154463
921.155	0.0153542
921.233	0.0154859
921.311	0.0154367
921.389	0.0154007
921.467	0.0153374
921.545	0.0154815
921.623	0.0153553
921.701	0.0154800
921.780	0.0154879
921.858	0.0155102
921.936	0.0155775
922.014	0.0155399
922.092	0.0152879
922.170	0.0153577
922.248	0.0153506
922.326	0.0153568
922.405	0.0154066
922.483	0.0154465
922.561	0.0154205
922.639	0.0154193
922.717	0.0155343
922.795	0.0154352
922.873	0.0153654
922.951	0.0153700
923.030	0.0154179
923.108	0.0155153
923.186	0.0154332
923.264	0.0154719
923.342	0.0155138
923.420	0.0154824
923.498	0.0154012
923.576	0.0153754
923.655	0.0154488
923.733	0.0154186
923.811	0.0153829
923.889	0.0154577
923.967	0.0153358
924.045	0.0154468
924.123	0.0154752
924.201	0.0154604
924.280	0.0154055
924.358	0.0154050
924.436	0.0154203
924.514	0.0154993
924.592	0.0154040
924.670	0.0152358
924.748	0.0153855
924.826	0.0153146
924.905	0.0152827
924.983	0.0154490
925.061	0.0154669
925.139	0.0155022
925.217	0.0154921
925.295	0.0155082
925.373	0.0154386
925.451	0.0154102
925.530	0.0154931
925.608	0.0154118
925.686	0.0154948
925.764	0.0154650
925.842	0.0153756
925.920	0.0153947
925.998	0.0155296
926.076	0.0154326
926.155	0.0154268
926.233	0.0154909
926.311	0.0155544
926.389	0.0153709
926.467	0.0153845
926.545	0.0154379
926.623	0.0155248
926.701	0.0153431
926.780	0.0153514
926.858	0.0152610
926.936	0.0153800
927.014	0.0153882
927.092	0.0153911
927.170	0.0153860
927.248	0.0153656
927.326	0.0151509
927.405	0.0152303
927.483	0.0153700
927.561	0.0153955
927.639	0.0153057
927.717	0.0152304
927.795	0.0153172
927.873	0.0153614
927.951	0.0154103
928.030	0.0154156
928.108	0.0154682
928.186	0.0154079
928.264	0.0154281
928.342	0.0154510
928.420	0.0153959
928.498	0.0155013
928.576	0.0154309
928.655	0.0154068
928.733	0.0155183
928.811	0.0154980
928.889	0.0154479
928.967	0.0153863
929.045	0.0154074
929.123	0.0154219
929.201	0.0155530
929.280	0.0154743
929.358	0.0154634
929.436	0.0154388
929.514	0.0153500
929.592	0.0154170
929.670	0.0155041
929.748	0.0154371
929.826	0.0154732
929.905	0.0154641
929.983	0.0155093
930.061	0.0152985
930.139	0.0153728
930.217	0.0153135
930.295	0.0155265
930.373	0.0154348
930.451	0.0152828
930.530	0.0153885
930.608	0.0152142
930.686	0.0154552
930.764	0.0154799
930.842	0.0154002
930.920	0.0153383
930.998	0.0154585
931.076	0.0153146
931.155	0.0155244
931.233	0.0154575
931.311	0.0153569
931.389	0.0153392
931.467	0.0155334
931.545	0.0155708
931.623	0.0155614
931.701	0.0154058
931.780	0.0154597
931.858	0.0154308
931.936	0.0154572
932.014	0.0153913
932.092	0.0154819
932.170	0.0152592
932.248	0.0152621
932.326	0.0153916
932.405	0.0154182
932.483	0.0153642
932.561	0.0153255
932.639	0.0153751
932.717	0.0154855
932.795	0.0151946
932.873	0.0153367
932.951	0.0154366
933.030	0.0153810
933.108	0.0153835
933.186	0.0154666
933.264	0.0154553
933.342	0.0153679
933.420	0.0155187
933.498	0.0154372
933.576	0.0153188
933.655	0.0156106
933.733	0.0154598
933.811	0.0154095
933.889	0.0154352
933.967	0.0153934
934.045	0.0154024
934.123	0.0155453
934.201	0.0153874
934.280	0.0154712
934.358	0.0154057
934.436	0.0155061
934.514	0.0153313
934.592	0.0153011
934.670	0.0154633
934.748	0.0154323
934.826	0.0154214
934.905	0.0153586
934.983	0.0154094
935.061	0.0153236
935.139	0.0154784
935.217	0.0153479
935.295	0.0154993
935.373	0.0154863
935.451	0.0155313
935.530	0.0153514
935.608	0.0155079
935.686	0.0154128
935.764	0.0153288
935.842	0.0154137
935.920	0.0153802
935.998	0.0154716
936.076	0.0155611
936.155	0.0154231
936.233	0.0153464
936.311	0.0154285
936.389	0.0155019
936.467	0.0152383
936.545	0.0152494
936.623	0.0155043
936.701	0.0155291
936.780	0.0154839
936.858	0.0153072
936.936	0.0153333
937.014	0.0153540
937.092	0.0153330
937.170	0.0154008
937.248	0.0153382
937.326	0.0153828
937.405	0.0154576
937.483	0.0153255
937.561	0.0154121
937.639	0.0154470
937.717	0.0153647
937.795	0.0154369
937.873	0.0153931
937.951	0.0152922
938.030	0.0152641
938.108	0.0153761
938.186	0.0153260
938.264	0.0151964
938.342	0.0153323
938.420	0.0153263
938.498	0.0153914
938.576	0.0153953
938.655	0.0153706
938.733	0.0153922
938.811	0.0155066
938.889	0.0152381
938.967	0.0152796
939.045	0.0154328
939.123	0.0154508
939.201	0.0154187
939.280	0.0154290
939.358	0.0154233
939.436	0.0153336
939.514	0.0154588
939.592	0.0154495
939.670	0.0154882
939.748	0.0154490
939.826	0.0153665
939.905	0.0152718
939.983	0.0153314
940.061	0.0154157
940.139	0.0153602
940.217	0.0155751
940.295	0.0153545
940.373	0.0154173
940.451	0.0155326
940.530	0.0154536
940.608	0.0153940
940.686	0.0153581
940.764	0.0155122
940.842	0.0155569
940.920	0.0152706
940.998	0.0154250
941.076	0.0154143
941.155	0.0156216
941.233	0.0153925
941.311	0.0155837
941.389	0.0156187
941.467	0.0153572
941.545	0.0154324
941.623	0.0154549
941.701	0.0155031
941.780	0.0155028
941.858	0.0154319
941.936	0.0152679
942.014	0.0154424
942.092	0.0154138
942.170	0.0153308
942.248	0.0154449
942.326	0.0153252
942.405	0.0152348
942.483	0.0152724
942.561	0.0154291
942.639	0.0153895
942.717	0.0154137
942.795	0.0154103
942.873	0.0153349
942.951	0.0153812
943.030	0.0156239
943.108	0.0152990
943.186	0.0153369
943.264	0.0154045
943.342	0.0153926
943.420	0.0154419
943.498	0.0152986
943.576	0.0153027
943.655	0.0154506
943.733	0.0153606
943.811	0.0154871
943.889	0.0154334
943.967	0.0154029
944.045	0.0154510
944.123	0.0153647
944.201	0.0154963
944.280	0.0153773
944.358	0.0154704
944.436	0.0154031
944.514	0.0152732
944.592	0.0154871
944.670	0.0155669
944.748	0.0154538
944.826	0.0153851
944.905	0.0153586
944.983	0.0152964
945.061	0.0155750
945.139	0.0155353
945.217	0.0153989
945.295	0.0155004
945.373	0.0153900
945.451	0.0154478
945.530	0.0154653
945.608	0.0155063
945.686	0.0155853
945.764	0.0154317
945.842	0.0154707
945.920	0.0154715
945.998	0.0156332
946.076	0.0155611
946.155	0.0154704
946.233	0.0154003
946.311	0.0154322
946.389	0.0153822
946.467	0.0154202
946.545	0.0153762
946.623	0.0153943
946.701	0.0153404
946.780	0.0155513
946.858	0.0153822
946.936	0.0153160
947.014	0.0155051
947.092	0.0153674
947.170	0.0154614
947.248	0.0153451
947.326	0.0155039
947.405	0.0155523
947.483	0.0154011
947.561	0.0154745
947.639	0.0153930
947.717	0.0154283
947.795	0.0154616
947.873	0.0155914
947.951	0.0155392
948.030	0.0154872
948.108	0.0154993
948.186	0.0154900
948.264	0.0155355
948.342	0.0155100
948.420	0.0154440
948.498	0.0155581
948.576	0.0154761
948.655	0.0154453
948.733	0.0154662
948.811	0.0154749
948.889	0.0154757
948.967	0.0154932
949.045	0.0154846
949.123	0.0155123
949.201	0.0154852
949.280	0.0154192
949.358	0.0154408
949.436	0.0155466
949.514	0.0154655
949.592	0.0155210
949.670	0.0155168
949.748	0.0156078
949.826	0.0154702
949.905	0.0153221
949.983	0.0153885
950.061	0.0154458
950.139	0.0153500
950.217	0.0154730
950.295	0.0154351
950.373	0.0154785
950.451	0.0153117
950.530	0.0152743
950.608	0.0153853
950.686	0.0154290
950.764	0.0154691
950.842	0.0154958
950.920	0.0154390
950.998	0.0153850
951.076	0.0154861
951.155	0.0154244
951.233	0.0154401
951.311	0.0154568
951.389	0.0153779
951.467	0.0155938
951.545	0.0155239
951.623	0.0153782
951.701	0.0153661
951.780	0.0155026
951.858	0.0154903
951.936	0.0154474
952.014	0.0154520
952.092	0.0154129
952.170	0.0154957
952.248	0.0154733
952.326	0.0154748
952.405	0.0154601
952.483	0.0154617
952.561	0.0154552
952.639	0.0155042
952.717	0.0153278
952.795	0.0154636
952.873	0.0154856
952.951	0.0153844
953.030	0.0153869
953.108	0.0153777
953.186	0.0154665
953.264	0.0153919
953.342	0.0153032
953.420	0.0153450
953.498	0.0153934
953.576	0.0153467
953.655	0.0155154
953.733	0.0153782
953.811	0.0154241
953.889	0.0154437
953.967	0.0155193
954.045	0.0153425
954.123	0.0153516
954.201	0.0154460
954.280	0.0155797
954.358	0.0155601
954.436	0.0154172
954.514	0.0155130
954.592	0.0155161
954.670	0.0155032
954.748	0.0154552
954.826	0.0155354
954.905	0.0154393
954.983	0.0153661
955.061	0.0153783
955.139	0.0153680
955.217	0.0154295
955.295	0.0155030
955.373	0.0154139
955.451	0.0153850
955.530	0.0154346
955.608	0.0153621
955.686	0.0154362
955.764	0.0154285
955.842	0.0153548
955.920	0.0153620
955.998	0.0154504
956.076	0.0153795
956.155	0.0153550
956.233	0.0153282
956.311	0.0155075
956.389	0.0153564
956.467	0.0154253
956.545	0.0153551
956.623	0.0154324
956.701	0.0152743
956.780	0.0154366
956.858	0.0153803
956.936	0.0154822
957.014	0.0153990
957.092	0.0154563
957.170	0.0154053
957.248	0.0153220
957.326	0.0153527
957.405	0.0153076
957.483	0.0154300
957.561	0.0154717
957.639	0.0155440
957.717	0.0153798
957.795	0.0154111
957.873	0.0152728
957.951	0.0154845
958.030	0.0154026
958.108	0.0154259
958.186	0.0153629
958.264	0.0154018
958.342	0.0156306
958.420	0.0153738
958.498	0.0153787
958.576	0.0154987
958.655	0.0153834
958.733	0.0153516
958.811	0.0154638
958.889	0.0154299
958.967	0.0154264
959.045	0.0154038
959.123	0.0155304
959.201	0.0156067
959.280	0.0155340
959.358	0.0154102
959.436	0.0153348
959.514	0.0154803
959.592	0.0155798
959.670	0.0155569
959.748	0.0154736
959.826	0.0154017
959.905	0.0155856
