05/20/2022	16:28:37	Ver.	4.1	UNKNOWN
Optical Delay	639.982744	Delta X		0.078125	Sweeps	1	Scan Rate	0/0
Coordinates	Axis 1	NaN	Axis 2	NaN	Axis 3	NaN	Axis 4	NaN	Axis 5	NaN	Axis 6	0.000000
TX Power	0.000000	RX Power	0.000000

639.983	0.0153559
640.061	0.0153678
640.139	0.0153855
640.217	0.0153658
640.295	0.0151511
640.373	0.0153587
640.451	0.0153964
640.530	0.0153086
640.608	0.0152945
640.686	0.0152103
640.764	0.0152431
640.842	0.0153819
640.920	0.0154067
640.998	0.0153251
641.076	0.0153181
641.155	0.0154108
641.233	0.0152621
641.311	0.0153242
641.389	0.0152738
641.467	0.0153486
641.545	0.0153872
641.623	0.0153182
641.701	0.0153403
641.780	0.0153117
641.858	0.0154053
641.936	0.0153397
642.014	0.0153564
642.092	0.0154488
642.170	0.0152547
642.248	0.0154605
642.326	0.0153287
642.405	0.0153651
642.483	0.0153111
642.561	0.0152715
642.639	0.0151961
642.717	0.0152499
642.795	0.0151762
642.873	0.0150931
642.951	0.0153095
643.030	0.0154164
643.108	0.0153751
643.186	0.0153792
643.264	0.0152645
643.342	0.0152130
643.420	0.0152497
643.498	0.0153811
643.576	0.0154144
643.655	0.0153148
643.733	0.0151943
643.811	0.0152954
643.889	0.0152635
643.967	0.0153029
644.045	0.0152396
644.123	0.0154118
644.201	0.0153624
644.280	0.0152180
644.358	0.0151809
644.436	0.0153286
644.514	0.0153181
644.592	0.0152793
644.670	0.0153493
644.748	0.0152978
644.826	0.0152518
644.905	0.0152256
644.983	0.0153540
645.061	0.0153176
645.139	0.0152588
645.217	0.0153810
645.295	0.0153175
645.373	0.0152032
645.451	0.0152721
645.530	0.0153096
645.608	0.0151550
645.686	0.0153195
645.764	0.0151268
645.842	0.0150588
645.920	0.0151668
645.998	0.0152000
646.076	0.0152760
646.155	0.0151855
646.233	0.0152951
646.311	0.0152502
646.389	0.0152445
646.467	0.0152325
646.545	0.0151839
646.623	0.0151186
646.701	0.0151311
646.780	0.0152869
646.858	0.0152450
646.936	0.0150423
647.014	0.0152579
647.092	0.0152215
647.170	0.0152615
647.248	0.0151984
647.326	0.0152264
647.405	0.0152380
647.483	0.0152341
647.561	0.0152610
647.639	0.0152322
647.717	0.0151945
647.795	0.0152643
647.873	0.0151048
647.951	0.0152191
648.030	0.0151852
648.108	0.0152602
648.186	0.0151689
648.264	0.0151237
648.342	0.0152094
648.420	0.0151701
648.498	0.0152021
648.576	0.0151800
648.655	0.0151670
648.733	0.0150925
648.811	0.0152351
648.889	0.0151577
648.967	0.0150698
649.045	0.0151841
649.123	0.0151050
649.201	0.0151707
649.280	0.0150513
649.358	0.0151170
649.436	0.0152595
649.514	0.0151958
649.592	0.0152009
649.670	0.0152451
649.748	0.0153433
649.826	0.0152188
649.905	0.0151278
649.983	0.0152189
650.061	0.0152889
650.139	0.0153171
650.217	0.0153005
650.295	0.0152428
650.373	0.0152194
650.451	0.0151802
650.530	0.0152411
650.608	0.0152304
650.686	0.0152509
650.764	0.0151382
650.842	0.0151563
650.920	0.0151812
650.998	0.0152065
651.076	0.0151086
651.155	0.0152379
651.233	0.0150952
651.311	0.0152169
651.389	0.0151891
651.467	0.0152540
651.545	0.0153652
651.623	0.0153765
651.701	0.0154131
651.780	0.0153568
651.858	0.0152430
651.936	0.0152928
652.014	0.0153397
652.092	0.0153795
652.170	0.0154526
652.248	0.0153724
652.326	0.0154276
652.405	0.0153819
652.483	0.0152491
652.561	0.0153083
652.639	0.0153042
652.717	0.0153001
652.795	0.0151440
652.873	0.0152249
652.951	0.0153608
653.030	0.0152854
653.108	0.0150993
653.186	0.0151863
653.264	0.0152094
653.342	0.0152251
653.420	0.0150951
653.498	0.0152568
653.576	0.0153469
653.655	0.0152184
653.733	0.0152780
653.811	0.0153369
653.889	0.0152657
653.967	0.0152445
654.045	0.0154285
654.123	0.0153391
654.201	0.0153947
654.280	0.0153883
654.358	0.0153718
654.436	0.0153236
654.514	0.0154403
654.592	0.0153397
654.670	0.0152513
654.748	0.0154503
654.826	0.0154160
654.905	0.0152981
654.983	0.0153530
655.061	0.0152453
655.139	0.0152256
655.217	0.0152537
655.295	0.0152794
655.373	0.0152347
655.451	0.0152530
655.530	0.0152709
655.608	0.0152338
655.686	0.0151720
655.764	0.0151849
655.842	0.0152393
655.920	0.0152192
655.998	0.0151057
656.076	0.0152561
656.155	0.0153221
656.233	0.0153151
656.311	0.0153099
656.389	0.0153670
656.467	0.0154990
656.545	0.0153961
656.623	0.0154626
656.701	0.0154051
656.780	0.0153743
656.858	0.0153181
656.936	0.0155319
657.014	0.0153427
657.092	0.0153376
657.170	0.0153203
657.248	0.0154248
657.326	0.0152651
657.405	0.0153159
657.483	0.0152265
657.561	0.0152142
657.639	0.0153373
657.717	0.0152187
657.795	0.0153422
657.873	0.0152090
657.951	0.0151427
658.030	0.0152634
658.108	0.0153963
658.186	0.0152854
658.264	0.0152079
658.342	0.0152990
658.420	0.0152917
658.498	0.0154243
658.576	0.0154928
658.655	0.0155523
658.733	0.0154245
658.811	0.0153693
658.889	0.0154939
658.967	0.0155352
659.045	0.0154333
659.123	0.0155142
659.201	0.0154659
659.280	0.0154076
659.358	0.0154159
659.436	0.0153785
659.514	0.0153530
659.592	0.0153625
659.670	0.0152178
659.748	0.0152730
659.826	0.0153470
659.905	0.0151506
659.983	0.0152302
660.061	0.0152139
660.139	0.0151817
660.217	0.0151459
660.295	0.0151781
660.373	0.0152360
660.451	0.0153844
660.530	0.0152866
660.608	0.0153165
660.686	0.0153146
660.764	0.0153707
660.842	0.0154633
660.920	0.0154440
660.998	0.0153922
661.076	0.0155576
661.155	0.0154934
661.233	0.0153443
661.311	0.0153924
661.389	0.0154234
661.467	0.0152348
661.545	0.0153938
661.623	0.0153410
661.701	0.0151622
661.780	0.0153828
661.858	0.0153249
661.936	0.0151157
662.014	0.0151288
662.092	0.0151752
662.170	0.0151623
662.248	0.0151507
662.326	0.0152020
662.405	0.0151428
662.483	0.0150905
662.561	0.0152335
662.639	0.0151615
662.717	0.0153522
662.795	0.0152797
662.873	0.0153831
662.951	0.0154141
663.030	0.0153519
663.108	0.0152418
663.186	0.0152071
663.264	0.0152554
663.342	0.0153568
663.420	0.0152769
663.498	0.0153396
663.576	0.0151089
663.655	0.0153809
663.733	0.0153025
663.811	0.0153424
663.889	0.0152133
663.967	0.0152193
664.045	0.0153455
664.123	0.0151441
664.201	0.0151949
664.280	0.0153287
664.358	0.0152633
664.436	0.0152134
664.514	0.0151342
664.592	0.0151479
664.670	0.0152859
664.748	0.0153165
664.826	0.0153826
664.905	0.0152232
664.983	0.0151845
665.061	0.0150655
665.139	0.0152281
665.217	0.0152697
665.295	0.0150909
665.373	0.0151655
665.451	0.0152214
665.530	0.0152680
665.608	0.0151723
665.686	0.0152135
665.764	0.0151463
665.842	0.0151234
665.920	0.0152053
665.998	0.0153030
666.076	0.0152071
666.155	0.0153208
666.233	0.0152322
666.311	0.0153458
666.389	0.0152604
666.467	0.0152837
666.545	0.0152547
666.623	0.0151991
666.701	0.0152129
666.780	0.0152483
666.858	0.0151962
666.936	0.0154078
667.014	0.0153068
667.092	0.0152821
667.170	0.0151564
667.248	0.0152113
667.326	0.0152394
667.405	0.0151083
667.483	0.0151061
667.561	0.0152422
667.639	0.0151247
667.717	0.0151738
667.795	0.0152686
667.873	0.0151221
667.951	0.0152491
668.030	0.0150764
668.108	0.0153309
668.186	0.0150450
668.264	0.0151033
668.342	0.0151647
668.420	0.0152414
668.498	0.0152633
668.576	0.0152414
668.655	0.0152256
668.733	0.0152071
668.811	0.0152824
668.889	0.0151859
668.967	0.0152384
669.045	0.0151077
669.123	0.0151088
669.201	0.0152758
669.280	0.0152898
669.358	0.0151387
669.436	0.0150716
669.514	0.0151736
669.592	0.0149670
669.670	0.0148909
669.748	0.0151041
669.826	0.0150299
669.905	0.0149786
669.983	0.0150016
670.061	0.0149384
670.139	0.0148797
670.217	0.0149891
670.295	0.0149005
670.373	0.0151486
670.451	0.0151090
670.530	0.0152621
670.608	0.0152495
670.686	0.0151980
670.764	0.0152261
670.842	0.0152347
670.920	0.0154304
670.998	0.0152791
671.076	0.0151735
671.155	0.0153336
671.233	0.0153435
671.311	0.0153763
671.389	0.0153426
671.467	0.0152483
671.545	0.0152793
671.623	0.0153249
671.701	0.0152894
671.780	0.0151736
671.858	0.0152031
671.936	0.0152023
672.014	0.0150818
672.092	0.0150402
672.170	0.0150616
672.248	0.0148961
672.326	0.0151147
672.405	0.0150723
672.483	0.0151588
672.561	0.0149879
672.639	0.0149591
672.717	0.0150249
672.795	0.0150980
672.873	0.0153096
672.951	0.0150939
673.030	0.0151306
673.108	0.0151440
673.186	0.0151997
673.264	0.0153600
673.342	0.0152957
673.420	0.0153226
673.498	0.0152932
673.576	0.0152296
673.655	0.0153741
673.733	0.0153351
673.811	0.0153744
673.889	0.0155313
673.967	0.0155253
674.045	0.0154090
674.123	0.0153993
674.201	0.0153091
674.280	0.0151851
674.358	0.0152892
674.436	0.0150617
674.514	0.0151675
674.592	0.0149203
674.670	0.0149266
674.748	0.0149930
674.826	0.0150478
674.905	0.0149489
674.983	0.0148853
675.061	0.0150156
675.139	0.0150430
675.217	0.0152269
675.295	0.0151613
675.373	0.0153477
675.451	0.0153269
675.530	0.0155688
675.608	0.0155905
675.686	0.0156676
675.764	0.0156372
675.842	0.0157434
675.920	0.0157865
675.998	0.0157947
676.076	0.0157732
676.155	0.0157237
676.233	0.0155566
676.311	0.0156669
676.389	0.0154308
676.467	0.0153410
676.545	0.0153291
676.623	0.0152251
676.701	0.0151913
676.780	0.0149768
676.858	0.0148016
676.936	0.0147385
677.014	0.0146702
677.092	0.0146401
677.170	0.0146589
677.248	0.0146744
677.326	0.0146841
677.405	0.0147346
677.483	0.0150007
677.561	0.0149512
677.639	0.0149724
677.717	0.0152216
677.795	0.0154055
677.873	0.0155611
677.951	0.0156725
678.030	0.0158450
678.108	0.0159662
678.186	0.0159785
678.264	0.0162303
678.342	0.0160519
678.420	0.0160749
678.498	0.0162547
678.576	0.0160069
678.655	0.0158506
678.733	0.0158547
678.811	0.0157030
678.889	0.0155058
678.967	0.0153337
679.045	0.0151804
679.123	0.0150220
679.201	0.0151359
679.280	0.0148505
679.358	0.0148698
679.436	0.0146738
679.514	0.0146202
679.592	0.0144794
679.670	0.0144602
679.748	0.0145309
679.826	0.0146523
679.905	0.0147244
679.983	0.0146709
680.061	0.0147444
680.139	0.0148977
680.217	0.0148895
680.295	0.0149422
680.373	0.0151553
680.451	0.0150705
680.530	0.0151216
680.608	0.0151527
680.686	0.0153257
680.764	0.0152702
680.842	0.0153358
680.920	0.0154124
680.998	0.0154780
681.076	0.0155412
681.155	0.0155042
681.233	0.0156897
681.311	0.0158266
681.389	0.0158614
681.467	0.0157552
681.545	0.0157294
681.623	0.0157810
681.701	0.0157581
681.780	0.0157777
681.858	0.0158900
681.936	0.0159496
682.014	0.0157576
682.092	0.0157494
682.170	0.0156797
682.248	0.0156133
682.326	0.0154562
682.405	0.0154073
682.483	0.0153858
682.561	0.0151806
682.639	0.0150388
682.717	0.0150470
682.795	0.0151233
682.873	0.0149488
682.951	0.0147948
683.030	0.0150042
683.108	0.0148893
683.186	0.0148923
683.264	0.0149607
683.342	0.0150038
683.420	0.0150252
683.498	0.0150758
683.576	0.0152238
683.655	0.0154091
683.733	0.0153008
683.811	0.0155180
683.889	0.0157829
683.967	0.0157652
684.045	0.0158332
684.123	0.0159476
684.201	0.0159568
684.280	0.0160474
684.358	0.0158862
684.436	0.0158990
684.514	0.0158656
684.592	0.0156712
684.670	0.0155203
684.748	0.0153082
684.826	0.0150710
684.905	0.0150056
684.983	0.0147408
685.061	0.0146484
685.139	0.0143599
685.217	0.0141278
685.295	0.0140812
685.373	0.0140070
685.451	0.0139474
685.530	0.0138704
685.608	0.0138775
685.686	0.0139165
685.764	0.0141612
685.842	0.0145515
685.920	0.0147359
685.998	0.0150120
686.076	0.0152719
686.155	0.0155467
686.233	0.0158809
686.311	0.0160524
686.389	0.0164556
686.467	0.0165639
686.545	0.0167330
686.623	0.0168655
686.701	0.0169164
686.780	0.0169542
686.858	0.0168089
686.936	0.0167865
687.014	0.0167392
687.092	0.0164600
687.170	0.0162379
687.248	0.0162166
687.326	0.0161046
687.405	0.0157289
687.483	0.0156173
687.561	0.0154480
687.639	0.0153157
687.717	0.0151505
687.795	0.0149732
687.873	0.0148046
687.951	0.0146252
688.030	0.0146032
688.108	0.0143773
688.186	0.0144998
688.264	0.0142330
688.342	0.0141836
688.420	0.0140816
688.498	0.0140166
688.576	0.0139588
688.655	0.0138570
688.733	0.0137959
688.811	0.0137659
688.889	0.0139091
688.967	0.0139009
689.045	0.0139621
689.123	0.0140286
689.201	0.0141125
689.280	0.0141751
689.358	0.0142147
689.436	0.0143097
689.514	0.0143576
689.592	0.0144891
689.670	0.0146352
689.748	0.0147904
689.826	0.0149290
689.905	0.0150955
689.983	0.0151910
690.061	0.0153514
690.139	0.0155261
690.217	0.0156158
690.295	0.0157896
690.373	0.0158878
690.451	0.0161874
690.530	0.0162525
690.608	0.0164113
690.686	0.0164387
690.764	0.0165460
690.842	0.0166523
690.920	0.0166790
690.998	0.0167937
691.076	0.0166696
691.155	0.0168153
691.233	0.0168221
691.311	0.0166627
691.389	0.0164411
691.467	0.0165692
691.545	0.0165106
691.623	0.0164523
691.701	0.0163573
691.780	0.0162264
691.858	0.0161932
691.936	0.0161179
692.014	0.0159118
692.092	0.0157864
692.170	0.0155785
692.248	0.0151471
692.326	0.0149780
692.405	0.0147832
692.483	0.0143405
692.561	0.0140458
692.639	0.0137711
692.717	0.0134982
692.795	0.0133379
692.873	0.0130276
692.951	0.0128091
693.030	0.0128614
693.108	0.0126612
693.186	0.0128278
693.264	0.0131695
693.342	0.0131499
693.420	0.0132712
693.498	0.0137128
693.576	0.0142314
693.655	0.0144205
693.733	0.0148519
693.811	0.0152196
693.889	0.0152620
693.967	0.0156495
694.045	0.0159295
694.123	0.0161011
694.201	0.0162473
694.280	0.0164204
694.358	0.0164645
694.436	0.0163457
694.514	0.0165187
694.592	0.0166626
694.670	0.0165868
694.748	0.0163488
694.826	0.0165341
694.905	0.0166165
694.983	0.0164195
695.061	0.0163696
695.139	0.0164720
695.217	0.0164079
695.295	0.0161497
695.373	0.0162576
695.451	0.0162300
695.530	0.0161216
695.608	0.0160949
695.686	0.0159760
695.764	0.0157120
695.842	0.0157015
695.920	0.0155253
695.998	0.0153966
696.076	0.0152676
696.155	0.0153287
696.233	0.0151320
696.311	0.0149069
696.389	0.0148724
696.467	0.0148484
696.545	0.0147237
696.623	0.0146047
696.701	0.0146909
696.780	0.0146135
696.858	0.0146236
696.936	0.0145483
697.014	0.0145375
697.092	0.0145065
697.170	0.0144236
697.248	0.0144278
697.326	0.0141965
697.405	0.0140580
697.483	0.0143075
697.561	0.0143663
697.639	0.0143146
697.717	0.0145027
697.795	0.0145415
697.873	0.0146648
697.951	0.0149439
698.030	0.0150485
698.108	0.0151792
698.186	0.0153312
698.264	0.0158012
698.342	0.0159033
698.420	0.0159012
698.498	0.0163068
698.576	0.0163682
698.655	0.0164333
698.733	0.0166734
698.811	0.0168639
698.889	0.0167850
698.967	0.0169079
699.045	0.0169106
699.123	0.0169886
699.201	0.0167408
699.280	0.0168671
699.358	0.0169008
699.436	0.0168806
699.514	0.0167258
699.592	0.0166488
699.670	0.0165350
699.748	0.0163346
699.826	0.0161327
699.905	0.0159077
699.983	0.0156618
700.061	0.0154517
700.139	0.0150105
700.217	0.0145343
700.295	0.0143172
700.373	0.0139256
700.451	0.0136909
700.530	0.0135455
700.608	0.0133224
700.686	0.0131607
700.764	0.0130537
700.842	0.0131406
700.920	0.0133205
700.998	0.0132754
701.076	0.0134850
701.155	0.0135397
701.233	0.0136290
701.311	0.0140369
701.389	0.0142393
701.467	0.0143863
701.545	0.0146168
701.623	0.0147924
701.701	0.0149854
701.780	0.0151049
701.858	0.0154038
701.936	0.0154409
702.014	0.0156442
702.092	0.0157189
702.170	0.0159480
702.248	0.0161969
702.326	0.0161252
702.405	0.0164043
702.483	0.0164691
702.561	0.0165060
702.639	0.0166248
702.717	0.0165977
702.795	0.0167551
702.873	0.0165609
702.951	0.0165396
703.030	0.0163624
703.108	0.0164043
703.186	0.0163871
703.264	0.0163156
703.342	0.0160983
703.420	0.0160810
703.498	0.0158964
703.576	0.0159598
703.655	0.0158293
703.733	0.0154748
703.811	0.0154084
703.889	0.0153999
703.967	0.0150428
704.045	0.0148808
704.123	0.0148463
704.201	0.0145827
704.280	0.0143633
704.358	0.0142639
704.436	0.0142209
704.514	0.0140976
704.592	0.0140472
704.670	0.0140368
704.748	0.0142706
704.826	0.0143177
704.905	0.0146346
704.983	0.0147462
705.061	0.0150401
705.139	0.0152590
705.217	0.0153567
705.295	0.0155647
705.373	0.0156056
705.451	0.0158899
705.530	0.0158809
705.608	0.0158407
705.686	0.0159501
705.764	0.0159605
705.842	0.0155103
705.920	0.0155302
705.998	0.0152032
706.076	0.0151166
706.155	0.0148731
706.233	0.0146855
706.311	0.0146190
706.389	0.0142808
706.467	0.0143298
706.545	0.0144006
706.623	0.0143087
706.701	0.0142941
706.780	0.0143339
706.858	0.0145271
706.936	0.0146995
707.014	0.0148741
707.092	0.0149107
707.170	0.0150385
707.248	0.0152612
707.326	0.0153067
707.405	0.0154052
707.483	0.0154728
707.561	0.0155749
707.639	0.0156329
707.717	0.0158928
707.795	0.0158865
707.873	0.0159001
707.951	0.0160619
708.030	0.0162730
708.108	0.0162940
708.186	0.0162168
708.264	0.0163416
708.342	0.0160204
708.420	0.0161700
708.498	0.0160709
708.576	0.0160012
708.655	0.0157278
708.733	0.0156408
708.811	0.0156824
708.889	0.0153974
708.967	0.0153088
709.045	0.0151713
709.123	0.0150561
709.201	0.0150724
709.280	0.0149970
709.358	0.0150623
709.436	0.0149179
709.514	0.0150194
709.592	0.0149775
709.670	0.0149411
709.748	0.0148930
709.826	0.0150374
709.905	0.0149260
709.983	0.0148637
710.061	0.0149473
710.139	0.0148772
710.217	0.0146248
710.295	0.0148806
710.373	0.0148203
710.451	0.0148707
710.530	0.0148997
710.608	0.0145530
710.686	0.0146124
710.764	0.0147236
710.842	0.0146408
710.920	0.0148511
710.998	0.0146907
711.076	0.0146471
711.155	0.0146064
711.233	0.0148120
711.311	0.0149117
711.389	0.0151885
711.467	0.0153608
711.545	0.0155060
711.623	0.0157423
711.701	0.0160412
711.780	0.0161639
711.858	0.0163487
711.936	0.0163525
712.014	0.0166299
712.092	0.0167309
712.170	0.0166817
712.248	0.0166487
712.326	0.0167010
712.405	0.0164561
712.483	0.0164078
712.561	0.0160659
712.639	0.0159140
712.717	0.0158132
712.795	0.0156473
712.873	0.0152444
712.951	0.0151422
713.030	0.0148659
713.108	0.0147260
713.186	0.0148929
713.264	0.0146211
713.342	0.0143774
713.420	0.0145303
713.498	0.0143975
713.576	0.0145752
713.655	0.0146263
713.733	0.0147121
713.811	0.0147867
713.889	0.0148485
713.967	0.0149819
714.045	0.0149593
714.123	0.0150796
714.201	0.0151117
714.280	0.0150519
714.358	0.0150898
714.436	0.0151432
714.514	0.0152190
714.592	0.0151170
714.670	0.0150748
714.748	0.0151277
714.826	0.0152183
714.905	0.0150658
714.983	0.0150884
715.061	0.0150640
715.139	0.0153310
715.217	0.0152870
715.295	0.0154902
715.373	0.0155794
715.451	0.0156804
715.530	0.0157744
715.608	0.0159481
715.686	0.0159720
715.764	0.0161606
715.842	0.0161257
715.920	0.0161943
715.998	0.0161736
716.076	0.0161393
716.155	0.0160213
716.233	0.0159425
716.311	0.0158769
716.389	0.0158031
716.467	0.0157431
716.545	0.0155800
716.623	0.0155441
716.701	0.0151976
716.780	0.0151276
716.858	0.0151135
716.936	0.0149783
717.014	0.0148431
717.092	0.0149332
717.170	0.0148077
717.248	0.0147385
717.326	0.0148381
717.405	0.0148923
717.483	0.0150289
717.561	0.0148923
717.639	0.0149465
717.717	0.0150488
717.795	0.0152383
717.873	0.0153221
717.951	0.0154389
718.030	0.0155358
718.108	0.0155748
718.186	0.0156052
718.264	0.0155861
718.342	0.0155632
718.420	0.0154540
718.498	0.0154742
718.576	0.0153375
718.655	0.0151475
718.733	0.0150352
718.811	0.0147861
718.889	0.0147031
718.967	0.0148334
719.045	0.0146017
719.123	0.0145148
719.201	0.0145592
719.280	0.0145365
719.358	0.0146820
719.436	0.0147086
719.514	0.0149040
719.592	0.0150048
719.670	0.0152736
719.748	0.0152961
719.826	0.0155251
719.905	0.0156707
719.983	0.0158049
720.061	0.0159354
720.139	0.0162031
720.217	0.0161126
720.295	0.0161526
720.373	0.0162448
720.451	0.0164754
720.530	0.0163387
720.608	0.0163897
720.686	0.0162278
720.764	0.0161035
720.842	0.0160056
720.920	0.0159289
720.998	0.0157082
721.076	0.0156803
721.155	0.0154523
721.233	0.0153738
721.311	0.0153094
721.389	0.0152504
721.467	0.0151743
721.545	0.0152831
721.623	0.0150601
721.701	0.0151014
721.780	0.0151996
721.858	0.0152045
721.936	0.0152539
722.014	0.0152725
722.092	0.0152254
722.170	0.0151485
722.248	0.0152350
722.326	0.0151316
722.405	0.0151805
722.483	0.0149625
722.561	0.0148813
722.639	0.0149371
722.717	0.0147849
722.795	0.0147050
722.873	0.0146130
722.951	0.0146378
723.030	0.0145895
723.108	0.0145293
723.186	0.0146461
723.264	0.0145586
723.342	0.0148141
723.420	0.0148893
723.498	0.0149004
723.576	0.0148926
723.655	0.0150919
723.733	0.0153635
723.811	0.0152502
723.889	0.0155365
723.967	0.0157868
724.045	0.0158125
724.123	0.0158609
724.201	0.0158875
724.280	0.0159619
724.358	0.0157509
724.436	0.0157297
724.514	0.0155846
724.592	0.0155001
724.670	0.0153870
724.748	0.0152045
724.826	0.0149388
724.905	0.0149986
724.983	0.0149689
725.061	0.0150162
725.139	0.0148556
725.217	0.0150628
725.295	0.0151247
725.373	0.0151157
725.451	0.0152564
725.530	0.0152805
725.608	0.0154269
725.686	0.0155264
725.764	0.0155384
725.842	0.0156310
725.920	0.0156056
725.998	0.0156306
726.076	0.0156589
726.155	0.0157315
726.233	0.0156595
726.311	0.0155704
726.389	0.0154591
726.467	0.0155154
726.545	0.0155254
726.623	0.0154032
726.701	0.0153974
726.780	0.0153382
726.858	0.0153951
726.936	0.0153063
727.014	0.0152172
727.092	0.0151772
727.170	0.0151974
727.248	0.0151849
727.326	0.0152312
727.405	0.0150956
727.483	0.0150863
727.561	0.0151894
727.639	0.0150180
727.717	0.0149757
727.795	0.0149845
727.873	0.0149860
727.951	0.0148146
728.030	0.0148203
728.108	0.0149102
728.186	0.0147317
728.264	0.0146980
728.342	0.0147896
728.420	0.0146903
728.498	0.0148361
728.576	0.0146755
728.655	0.0148283
728.733	0.0149579
728.811	0.0150384
728.889	0.0151447
728.967	0.0151389
729.045	0.0151441
729.123	0.0151557
729.201	0.0153784
729.280	0.0152811
729.358	0.0152626
729.436	0.0154137
729.514	0.0152370
729.592	0.0153528
729.670	0.0152580
729.748	0.0151961
729.826	0.0152349
729.905	0.0151456
729.983	0.0151817
730.061	0.0152450
730.139	0.0153001
730.217	0.0152132
730.295	0.0153124
730.373	0.0152944
730.451	0.0153465
730.530	0.0152979
730.608	0.0153233
730.686	0.0152815
730.764	0.0153538
730.842	0.0152409
730.920	0.0153093
730.998	0.0152480
731.076	0.0151596
731.155	0.0152151
731.233	0.0151538
731.311	0.0152361
731.389	0.0152151
731.467	0.0152674
731.545	0.0153180
731.623	0.0153024
731.701	0.0153672
731.780	0.0153604
731.858	0.0154704
731.936	0.0153903
732.014	0.0155595
732.092	0.0155453
732.170	0.0154469
732.248	0.0155078
732.326	0.0155489
732.405	0.0154594
732.483	0.0155851
732.561	0.0153057
732.639	0.0153647
732.717	0.0154192
732.795	0.0155573
732.873	0.0155116
732.951	0.0154284
733.030	0.0155678
733.108	0.0155630
733.186	0.0155556
733.264	0.0155112
733.342	0.0154905
733.420	0.0155890
733.498	0.0154594
733.576	0.0153962
733.655	0.0153865
733.733	0.0154639
733.811	0.0153948
733.889	0.0154105
733.967	0.0153067
734.045	0.0152494
734.123	0.0151835
734.201	0.0152998
734.280	0.0150703
734.358	0.0150255
734.436	0.0150839
734.514	0.0150225
734.592	0.0148927
734.670	0.0148178
734.748	0.0149097
734.826	0.0149312
734.905	0.0148125
734.983	0.0148500
735.061	0.0146680
735.139	0.0147137
735.217	0.0146632
735.295	0.0146275
735.373	0.0146130
735.451	0.0147460
735.530	0.0147071
735.608	0.0148321
735.686	0.0149124
735.764	0.0150484
735.842	0.0151402
735.920	0.0151465
735.998	0.0152954
736.076	0.0153570
736.155	0.0152805
736.233	0.0154758
736.311	0.0154160
736.389	0.0154783
736.467	0.0155452
736.545	0.0156922
736.623	0.0156005
736.701	0.0157281
736.780	0.0156052
736.858	0.0157226
736.936	0.0155795
737.014	0.0156997
737.092	0.0157098
737.170	0.0158559
737.248	0.0157275
737.326	0.0155410
737.405	0.0153974
737.483	0.0153213
737.561	0.0152222
737.639	0.0152544
737.717	0.0152354
737.795	0.0151825
737.873	0.0152641
737.951	0.0150323
738.030	0.0151347
738.108	0.0153044
738.186	0.0152202
738.264	0.0153565
738.342	0.0152242
738.420	0.0153910
738.498	0.0155558
738.576	0.0155221
738.655	0.0153806
738.733	0.0154742
738.811	0.0155062
738.889	0.0154981
738.967	0.0156387
739.045	0.0155321
739.123	0.0155297
739.201	0.0153702
739.280	0.0155666
739.358	0.0154783
739.436	0.0153893
739.514	0.0152095
739.592	0.0151561
739.670	0.0152023
739.748	0.0149064
739.826	0.0150611
739.905	0.0149454
739.983	0.0149314
740.061	0.0148524
740.139	0.0147501
740.217	0.0146962
740.295	0.0148248
740.373	0.0146014
740.451	0.0147641
740.530	0.0147838
740.608	0.0148872
740.686	0.0149647
740.764	0.0151880
740.842	0.0154063
740.920	0.0154474
740.998	0.0156170
741.076	0.0156966
741.155	0.0157803
741.233	0.0158970
741.311	0.0159622
741.389	0.0159465
741.467	0.0159676
741.545	0.0158290
741.623	0.0155830
741.701	0.0155624
741.780	0.0156965
741.858	0.0155236
741.936	0.0153096
742.014	0.0151781
742.092	0.0150590
742.170	0.0150216
742.248	0.0149664
742.326	0.0149320
742.405	0.0148377
742.483	0.0149673
742.561	0.0149223
742.639	0.0149234
742.717	0.0149410
742.795	0.0151501
742.873	0.0152371
742.951	0.0154521
743.030	0.0155550
743.108	0.0157030
743.186	0.0157040
743.264	0.0157989
743.342	0.0156818
743.420	0.0157877
743.498	0.0157668
743.576	0.0158228
743.655	0.0158177
743.733	0.0157185
743.811	0.0156380
743.889	0.0154865
743.967	0.0155499
744.045	0.0153935
744.123	0.0151475
744.201	0.0152532
744.280	0.0152871
744.358	0.0151693
744.436	0.0151544
744.514	0.0151014
744.592	0.0150869
744.670	0.0151364
744.748	0.0150814
744.826	0.0151094
744.905	0.0151626
744.983	0.0153217
745.061	0.0152465
745.139	0.0152624
745.217	0.0153834
745.295	0.0152592
745.373	0.0153481
745.451	0.0154354
745.530	0.0154725
745.608	0.0154076
745.686	0.0153555
745.764	0.0152927
745.842	0.0153931
745.920	0.0152696
745.998	0.0151701
746.076	0.0149528
746.155	0.0151019
746.233	0.0150647
746.311	0.0149003
746.389	0.0149601
746.467	0.0149723
746.545	0.0148765
746.623	0.0148819
746.701	0.0150227
746.780	0.0151315
746.858	0.0150153
746.936	0.0151604
747.014	0.0151965
747.092	0.0151324
747.170	0.0153036
747.248	0.0151536
747.326	0.0152341
747.405	0.0152592
747.483	0.0153620
747.561	0.0152058
747.639	0.0150952
747.717	0.0151899
747.795	0.0153505
747.873	0.0152380
747.951	0.0150874
748.030	0.0151162
748.108	0.0151960
748.186	0.0152961
748.264	0.0152363
748.342	0.0153230
748.420	0.0152347
748.498	0.0152889
748.576	0.0153590
748.655	0.0154523
748.733	0.0152660
748.811	0.0152409
748.889	0.0153355
748.967	0.0153178
749.045	0.0152800
749.123	0.0153572
749.201	0.0151794
749.280	0.0152296
749.358	0.0153074
749.436	0.0153017
749.514	0.0151475
749.592	0.0150741
749.670	0.0151350
749.748	0.0151257
749.826	0.0152132
749.905	0.0150644
749.983	0.0150157
750.061	0.0151818
750.139	0.0149941
750.217	0.0151674
750.295	0.0151620
750.373	0.0151010
750.451	0.0151171
750.530	0.0152199
750.608	0.0151733
750.686	0.0153078
750.764	0.0152373
750.842	0.0153091
750.920	0.0153820
750.998	0.0155190
751.076	0.0154210
751.155	0.0154260
751.233	0.0156077
751.311	0.0155494
751.389	0.0155247
751.467	0.0156156
751.545	0.0154958
751.623	0.0156158
751.701	0.0153540
751.780	0.0151746
751.858	0.0152389
751.936	0.0153300
752.014	0.0151241
752.092	0.0149686
752.170	0.0152140
752.248	0.0151416
752.326	0.0149956
752.405	0.0150002
752.483	0.0150992
752.561	0.0150217
752.639	0.0150811
752.717	0.0151517
752.795	0.0151739
752.873	0.0149759
752.951	0.0150909
753.030	0.0152172
753.108	0.0153543
753.186	0.0153844
753.264	0.0154751
753.342	0.0153062
753.420	0.0154877
753.498	0.0154018
753.576	0.0154536
753.655	0.0153386
753.733	0.0153756
753.811	0.0152215
753.889	0.0153867
753.967	0.0152506
754.045	0.0152563
754.123	0.0152738
754.201	0.0152597
754.280	0.0150305
754.358	0.0150844
754.436	0.0151260
754.514	0.0150220
754.592	0.0151466
754.670	0.0152957
754.748	0.0152267
754.826	0.0151664
754.905	0.0152687
754.983	0.0154028
755.061	0.0154143
755.139	0.0155296
755.217	0.0154933
755.295	0.0155157
755.373	0.0154203
755.451	0.0153368
755.530	0.0153814
755.608	0.0153738
755.686	0.0154265
755.764	0.0154065
755.842	0.0153236
755.920	0.0151311
755.998	0.0152645
756.076	0.0153652
756.155	0.0152179
756.233	0.0152477
756.311	0.0153178
756.389	0.0152944
756.467	0.0151807
756.545	0.0153178
756.623	0.0154303
756.701	0.0153175
756.780	0.0152837
756.858	0.0154001
756.936	0.0153080
757.014	0.0151084
757.092	0.0152284
757.170	0.0152180
757.248	0.0151144
757.326	0.0151230
757.405	0.0149447
757.483	0.0150488
757.561	0.0149676
757.639	0.0148651
757.717	0.0149783
757.795	0.0150165
757.873	0.0151707
757.951	0.0150080
758.030	0.0150717
758.108	0.0150842
758.186	0.0151050
758.264	0.0151694
758.342	0.0149912
758.420	0.0151709
758.498	0.0152041
758.576	0.0153066
758.655	0.0151463
758.733	0.0153233
758.811	0.0153291
758.889	0.0152017
758.967	0.0151124
759.045	0.0151685
759.123	0.0152274
759.201	0.0151905
759.280	0.0151714
759.358	0.0150678
759.436	0.0150877
759.514	0.0152876
759.592	0.0150750
759.670	0.0151505
759.748	0.0151455
759.826	0.0151272
759.905	0.0152097
759.983	0.0150824
760.061	0.0152498
760.139	0.0150616
760.217	0.0150424
760.295	0.0151799
760.373	0.0151361
760.451	0.0153625
760.530	0.0153345
760.608	0.0153437
760.686	0.0155013
760.764	0.0154301
760.842	0.0154255
760.920	0.0154945
760.998	0.0155129
761.076	0.0155579
761.155	0.0154224
761.233	0.0155023
761.311	0.0155300
761.389	0.0154884
761.467	0.0153866
761.545	0.0153072
761.623	0.0151517
761.701	0.0152026
761.780	0.0151603
761.858	0.0151960
761.936	0.0150740
762.014	0.0149835
762.092	0.0150005
762.170	0.0150045
762.248	0.0150134
762.326	0.0150563
762.405	0.0149763
762.483	0.0150108
762.561	0.0149895
762.639	0.0152469
762.717	0.0152373
762.795	0.0152202
762.873	0.0153091
762.951	0.0152497
763.030	0.0153983
763.108	0.0152927
763.186	0.0153313
763.264	0.0153896
763.342	0.0153441
763.420	0.0153230
763.498	0.0153154
763.576	0.0153814
763.655	0.0152787
763.733	0.0154134
763.811	0.0153696
763.889	0.0152394
763.967	0.0152064
764.045	0.0153843
764.123	0.0153030
764.201	0.0153075
764.280	0.0153862
764.358	0.0152419
764.436	0.0153613
764.514	0.0152792
764.592	0.0152683
764.670	0.0153351
764.748	0.0151469
764.826	0.0152310
764.905	0.0153241
764.983	0.0152717
765.061	0.0152879
765.139	0.0153171
765.217	0.0154018
765.295	0.0151980
765.373	0.0153009
765.451	0.0152113
765.530	0.0153273
765.608	0.0154069
765.686	0.0154109
765.764	0.0152825
765.842	0.0152372
765.920	0.0152553
765.998	0.0152828
766.076	0.0152097
766.155	0.0150928
766.233	0.0149339
766.311	0.0150260
766.389	0.0150755
766.467	0.0148727
766.545	0.0148978
766.623	0.0150108
766.701	0.0150809
766.780	0.0149960
766.858	0.0149667
766.936	0.0151959
767.014	0.0152494
767.092	0.0152507
767.170	0.0151216
767.248	0.0150968
767.326	0.0152509
767.405	0.0153445
767.483	0.0151825
767.561	0.0153063
767.639	0.0151364
767.717	0.0153703
767.795	0.0152208
767.873	0.0153806
767.951	0.0152802
768.030	0.0151202
768.108	0.0151751
768.186	0.0154163
768.264	0.0152668
768.342	0.0151942
768.420	0.0154131
768.498	0.0154510
768.576	0.0153049
768.655	0.0154063
768.733	0.0155027
768.811	0.0155451
768.889	0.0153897
768.967	0.0154923
769.045	0.0154468
769.123	0.0154973
769.201	0.0155054
769.280	0.0154960
769.358	0.0155783
769.436	0.0154292
769.514	0.0155814
769.592	0.0156362
769.670	0.0155022
769.748	0.0155361
769.826	0.0154232
769.905	0.0154707
769.983	0.0154086
770.061	0.0153598
770.139	0.0154839
770.217	0.0154446
770.295	0.0153587
770.373	0.0153715
770.451	0.0153904
770.530	0.0153259
770.608	0.0151438
770.686	0.0151777
770.764	0.0152274
770.842	0.0152728
770.920	0.0152267
770.998	0.0150780
771.076	0.0152646
771.155	0.0151854
771.233	0.0151666
771.311	0.0153823
771.389	0.0154051
771.467	0.0153297
771.545	0.0151911
771.623	0.0151954
771.701	0.0152878
771.780	0.0152213
771.858	0.0153249
771.936	0.0154416
772.014	0.0153471
772.092	0.0153222
772.170	0.0153220
772.248	0.0152560
772.326	0.0152193
772.405	0.0152264
772.483	0.0152087
772.561	0.0152581
772.639	0.0151413
772.717	0.0152815
772.795	0.0152315
772.873	0.0151428
772.951	0.0151241
773.030	0.0151555
773.108	0.0151217
773.186	0.0152344
773.264	0.0152669
773.342	0.0152580
773.420	0.0151944
773.498	0.0152235
773.576	0.0152444
773.655	0.0153282
773.733	0.0153728
773.811	0.0153032
773.889	0.0152742
773.967	0.0153957
774.045	0.0154891
774.123	0.0153942
774.201	0.0155029
774.280	0.0153860
774.358	0.0155156
774.436	0.0154248
774.514	0.0155450
774.592	0.0154885
774.670	0.0153303
774.748	0.0155055
774.826	0.0153973
774.905	0.0154536
774.983	0.0155800
775.061	0.0155100
775.139	0.0154994
775.217	0.0154388
775.295	0.0154456
775.373	0.0154900
775.451	0.0153156
775.530	0.0152714
775.608	0.0153963
775.686	0.0154387
775.764	0.0151316
775.842	0.0150744
775.920	0.0153017
775.998	0.0151911
776.076	0.0150814
776.155	0.0151723
776.233	0.0151456
776.311	0.0152457
776.389	0.0151905
776.467	0.0151948
776.545	0.0151514
776.623	0.0151365
776.701	0.0152655
776.780	0.0153342
776.858	0.0153770
776.936	0.0153310
777.014	0.0154594
777.092	0.0153961
777.170	0.0155315
777.248	0.0154321
777.326	0.0153660
777.405	0.0154222
777.483	0.0153284
777.561	0.0154509
777.639	0.0155242
777.717	0.0155629
777.795	0.0155617
777.873	0.0154156
777.951	0.0152792
778.030	0.0152954
778.108	0.0152699
778.186	0.0153492
778.264	0.0152994
778.342	0.0153266
778.420	0.0152995
778.498	0.0153387
778.576	0.0152750
778.655	0.0152523
778.733	0.0153957
778.811	0.0153185
778.889	0.0152865
778.967	0.0153873
779.045	0.0153794
779.123	0.0153419
779.201	0.0153308
779.280	0.0154601
779.358	0.0154967
779.436	0.0153838
779.514	0.0153806
779.592	0.0153313
779.670	0.0154952
779.748	0.0153358
779.826	0.0154868
779.905	0.0154524
779.983	0.0153796
780.061	0.0152218
780.139	0.0151077
780.217	0.0151524
780.295	0.0151998
780.373	0.0150479
780.451	0.0150466
780.530	0.0150412
780.608	0.0151104
780.686	0.0151157
780.764	0.0151373
780.842	0.0151762
780.920	0.0150140
780.998	0.0151160
781.076	0.0151225
781.155	0.0151436
781.233	0.0151457
781.311	0.0151138
781.389	0.0150955
781.467	0.0151225
781.545	0.0151266
781.623	0.0151740
781.701	0.0150576
781.780	0.0150336
781.858	0.0150951
781.936	0.0150329
782.014	0.0150414
782.092	0.0149649
782.170	0.0149079
782.248	0.0149271
782.326	0.0150482
782.405	0.0149583
782.483	0.0151444
782.561	0.0152494
782.639	0.0150047
782.717	0.0150731
782.795	0.0152974
782.873	0.0151949
782.951	0.0153413
783.030	0.0153653
783.108	0.0154056
783.186	0.0153766
783.264	0.0153816
783.342	0.0154641
783.420	0.0154765
783.498	0.0154951
783.576	0.0153937
783.655	0.0153972
783.733	0.0154073
783.811	0.0153976
783.889	0.0153820
783.967	0.0152940
784.045	0.0152488
784.123	0.0152380
784.201	0.0153362
784.280	0.0153194
784.358	0.0152023
784.436	0.0153242
784.514	0.0153153
784.592	0.0151406
784.670	0.0151704
784.748	0.0153375
784.826	0.0152656
784.905	0.0152787
784.983	0.0152171
785.061	0.0151328
785.139	0.0152941
785.217	0.0153156
785.295	0.0151312
785.373	0.0152547
785.451	0.0152966
785.530	0.0152502
785.608	0.0152258
785.686	0.0152454
785.764	0.0152098
785.842	0.0151041
785.920	0.0151612
785.998	0.0151201
786.076	0.0151231
786.155	0.0152255
786.233	0.0151992
786.311	0.0153271
786.389	0.0153096
786.467	0.0152218
786.545	0.0153403
786.623	0.0154018
786.701	0.0154399
786.780	0.0153979
786.858	0.0155187
786.936	0.0154869
787.014	0.0153512
787.092	0.0154970
787.170	0.0155436
787.248	0.0153785
787.326	0.0155392
787.405	0.0156413
787.483	0.0154926
787.561	0.0156154
787.639	0.0154386
787.717	0.0154826
787.795	0.0155370
787.873	0.0154420
787.951	0.0156422
788.030	0.0153546
788.108	0.0154391
788.186	0.0154751
788.264	0.0153327
788.342	0.0152884
788.420	0.0154217
788.498	0.0151426
788.576	0.0151447
788.655	0.0150971
788.733	0.0149950
788.811	0.0150030
788.889	0.0149658
788.967	0.0150046
789.045	0.0149833
789.123	0.0150272
789.201	0.0150282
789.280	0.0150030
789.358	0.0150024
789.436	0.0148552
789.514	0.0148169
789.592	0.0150394
789.670	0.0150430
789.748	0.0149795
789.826	0.0150063
789.905	0.0149141
789.983	0.0150890
790.061	0.0150695
790.139	0.0151705
790.217	0.0151117
790.295	0.0150034
790.373	0.0151859
790.451	0.0152405
790.530	0.0150935
790.608	0.0152685
790.686	0.0151817
790.764	0.0152496
790.842	0.0153190
790.920	0.0154468
790.998	0.0153831
791.076	0.0154752
791.155	0.0154533
791.233	0.0155399
791.311	0.0156153
791.389	0.0155293
791.467	0.0156323
791.545	0.0155258
791.623	0.0156117
791.701	0.0156385
791.780	0.0155357
791.858	0.0154654
791.936	0.0156904
792.014	0.0155029
792.092	0.0154792
792.170	0.0153456
792.248	0.0153819
792.326	0.0154854
792.405	0.0154240
792.483	0.0153428
792.561	0.0152462
792.639	0.0151919
792.717	0.0152742
792.795	0.0152187
792.873	0.0152273
792.951	0.0151440
793.030	0.0152741
793.108	0.0152744
793.186	0.0152769
793.264	0.0151037
793.342	0.0151931
793.420	0.0152510
793.498	0.0152464
793.576	0.0151982
793.655	0.0151926
793.733	0.0152063
793.811	0.0151287
793.889	0.0152641
793.967	0.0151662
794.045	0.0152358
794.123	0.0153503
794.201	0.0152959
794.280	0.0152682
794.358	0.0154066
794.436	0.0153816
794.514	0.0153501
794.592	0.0154483
794.670	0.0153347
794.748	0.0155890
794.826	0.0156477
794.905	0.0156089
794.983	0.0154750
795.061	0.0155954
795.139	0.0156793
795.217	0.0155640
795.295	0.0156962
795.373	0.0157317
795.451	0.0155978
795.530	0.0157080
795.608	0.0155966
795.686	0.0156460
795.764	0.0156664
795.842	0.0156299
795.920	0.0155909
795.998	0.0155540
796.076	0.0153390
796.155	0.0153071
796.233	0.0153412
796.311	0.0153684
796.389	0.0153357
796.467	0.0152776
796.545	0.0153398
796.623	0.0151414
796.701	0.0151495
796.780	0.0151397
796.858	0.0152853
796.936	0.0151180
797.014	0.0152327
797.092	0.0151162
797.170	0.0151262
797.248	0.0151349
797.326	0.0150497
797.405	0.0151670
797.483	0.0152850
797.561	0.0152460
797.639	0.0152820
797.717	0.0153793
797.795	0.0152764
797.873	0.0151859
797.951	0.0152325
798.030	0.0153345
798.108	0.0153284
798.186	0.0152617
798.264	0.0152579
798.342	0.0152783
798.420	0.0153515
798.498	0.0153403
798.576	0.0154017
798.655	0.0153695
798.733	0.0152675
798.811	0.0153356
798.889	0.0154864
798.967	0.0154218
799.045	0.0153561
799.123	0.0153854
799.201	0.0154038
799.280	0.0155921
799.358	0.0155715
799.436	0.0153880
799.514	0.0153824
799.592	0.0155370
799.670	0.0154939
799.748	0.0154090
799.826	0.0155650
799.905	0.0155337
799.983	0.0155242
800.061	0.0153427
800.139	0.0154198
800.217	0.0154402
800.295	0.0154391
800.373	0.0152934
800.451	0.0153487
800.530	0.0154208
800.608	0.0153163
800.686	0.0152023
800.764	0.0150536
800.842	0.0151739
800.920	0.0152037
800.998	0.0152093
801.076	0.0150743
801.155	0.0149703
801.233	0.0149614
801.311	0.0151210
801.389	0.0151661
801.467	0.0151897
801.545	0.0150800
801.623	0.0150320
801.701	0.0151519
801.780	0.0153263
801.858	0.0152696
801.936	0.0151569
802.014	0.0152257
802.092	0.0152890
802.170	0.0151856
802.248	0.0150883
802.326	0.0153206
802.405	0.0150273
802.483	0.0152184
802.561	0.0151977
802.639	0.0150955
802.717	0.0150843
802.795	0.0150503
802.873	0.0150671
802.951	0.0150527
803.030	0.0152676
803.108	0.0150945
803.186	0.0151112
803.264	0.0150510
803.342	0.0150685
803.420	0.0150618
803.498	0.0150311
803.576	0.0151221
803.655	0.0149706
803.733	0.0150492
803.811	0.0150484
803.889	0.0151258
803.967	0.0151736
804.045	0.0151060
804.123	0.0151164
804.201	0.0153229
804.280	0.0151717
804.358	0.0153655
804.436	0.0151259
804.514	0.0152397
804.592	0.0153077
804.670	0.0152699
804.748	0.0152859
804.826	0.0154158
804.905	0.0152338
804.983	0.0152972
805.061	0.0152331
805.139	0.0152382
805.217	0.0153368
805.295	0.0153449
805.373	0.0152299
805.451	0.0152210
805.530	0.0152508
805.608	0.0153297
805.686	0.0152547
805.764	0.0153139
805.842	0.0151475
805.920	0.0152611
805.998	0.0152484
806.076	0.0153470
806.155	0.0152419
806.233	0.0152653
806.311	0.0152937
806.389	0.0151523
806.467	0.0151816
806.545	0.0151079
806.623	0.0152351
806.701	0.0153097
806.780	0.0151237
806.858	0.0150948
806.936	0.0151241
807.014	0.0151895
807.092	0.0151417
807.170	0.0151127
807.248	0.0150323
807.326	0.0149689
807.405	0.0152572
807.483	0.0151650
807.561	0.0150481
807.639	0.0150728
807.717	0.0151840
807.795	0.0152641
807.873	0.0152823
807.951	0.0152067
808.030	0.0151572
808.108	0.0153335
808.186	0.0154385
808.264	0.0152733
808.342	0.0153304
808.420	0.0154057
808.498	0.0154176
808.576	0.0153623
808.655	0.0151620
808.733	0.0153985
808.811	0.0152647
808.889	0.0153055
808.967	0.0153125
809.045	0.0155066
809.123	0.0153187
809.201	0.0152316
809.280	0.0153128
809.358	0.0152999
809.436	0.0151994
809.514	0.0152808
809.592	0.0153599
809.670	0.0153025
809.748	0.0153080
809.826	0.0152373
809.905	0.0151966
809.983	0.0152984
810.061	0.0153091
810.139	0.0152507
810.217	0.0153403
810.295	0.0153101
810.373	0.0153484
810.451	0.0153693
810.530	0.0153333
810.608	0.0151758
810.686	0.0152687
810.764	0.0153989
810.842	0.0153456
810.920	0.0152480
810.998	0.0152987
811.076	0.0153540
811.155	0.0153696
811.233	0.0152277
811.311	0.0153997
811.389	0.0153427
811.467	0.0152200
811.545	0.0153684
811.623	0.0153706
811.701	0.0153703
811.780	0.0153797
811.858	0.0152848
811.936	0.0152463
812.014	0.0152544
812.092	0.0153208
812.170	0.0152641
812.248	0.0152472
812.326	0.0151963
812.405	0.0152773
812.483	0.0153154
812.561	0.0153796
812.639	0.0153489
812.717	0.0153564
812.795	0.0154347
812.873	0.0153384
812.951	0.0153015
813.030	0.0151874
813.108	0.0152663
813.186	0.0152948
813.264	0.0154827
813.342	0.0152393
813.420	0.0151671
813.498	0.0153457
813.576	0.0152204
813.655	0.0152656
813.733	0.0152961
813.811	0.0153684
813.889	0.0152432
813.967	0.0152696
814.045	0.0153099
814.123	0.0153515
814.201	0.0153755
814.280	0.0152895
814.358	0.0153918
814.436	0.0154620
814.514	0.0152451
814.592	0.0153172
814.670	0.0152935
814.748	0.0153932
814.826	0.0153629
814.905	0.0152322
814.983	0.0151857
815.061	0.0151739
815.139	0.0153739
815.217	0.0151633
815.295	0.0151155
815.373	0.0152063
815.451	0.0151630
815.530	0.0152177
815.608	0.0152045
815.686	0.0152567
815.764	0.0151454
815.842	0.0153846
815.920	0.0153596
815.998	0.0154012
816.076	0.0154058
816.155	0.0154202
816.233	0.0155189
816.311	0.0155046
816.389	0.0155685
816.467	0.0156006
816.545	0.0155398
816.623	0.0156946
816.701	0.0155557
816.780	0.0155499
816.858	0.0157241
816.936	0.0155096
817.014	0.0155449
817.092	0.0155997
817.170	0.0154230
817.248	0.0155142
817.326	0.0154906
817.405	0.0155576
817.483	0.0154424
817.561	0.0153751
817.639	0.0152790
817.717	0.0153115
817.795	0.0154018
817.873	0.0153338
817.951	0.0152370
818.030	0.0152172
818.108	0.0153795
818.186	0.0154269
818.264	0.0153050
818.342	0.0154237
818.420	0.0152027
818.498	0.0153119
818.576	0.0153421
818.655	0.0152768
818.733	0.0152161
818.811	0.0153081
818.889	0.0153059
818.967	0.0152431
819.045	0.0152229
819.123	0.0153466
819.201	0.0151641
819.280	0.0152901
819.358	0.0154511
819.436	0.0151938
819.514	0.0151898
819.592	0.0153366
819.670	0.0152503
819.748	0.0153712
819.826	0.0154382
819.905	0.0152927
819.983	0.0152304
820.061	0.0153466
820.139	0.0153801
820.217	0.0152790
820.295	0.0153381
820.373	0.0153919
820.451	0.0154062
820.530	0.0152792
820.608	0.0153707
820.686	0.0153172
820.764	0.0153329
820.842	0.0153558
820.920	0.0153005
820.998	0.0153547
821.076	0.0153590
821.155	0.0152261
821.233	0.0153100
821.311	0.0154253
821.389	0.0153527
821.467	0.0154068
821.545	0.0154303
821.623	0.0153156
821.701	0.0152697
821.780	0.0152638
821.858	0.0153747
821.936	0.0152634
822.014	0.0152161
822.092	0.0154323
822.170	0.0152411
822.248	0.0152348
822.326	0.0152953
822.405	0.0152046
822.483	0.0152557
822.561	0.0151855
822.639	0.0153240
822.717	0.0153259
822.795	0.0153095
822.873	0.0153454
822.951	0.0153398
823.030	0.0151778
823.108	0.0152982
823.186	0.0153017
823.264	0.0151360
823.342	0.0150745
823.420	0.0152900
823.498	0.0151389
823.576	0.0151889
823.655	0.0150906
823.733	0.0151582
823.811	0.0151403
823.889	0.0150845
823.967	0.0151978
824.045	0.0151546
824.123	0.0150822
824.201	0.0151394
824.280	0.0152780
824.358	0.0151035
824.436	0.0151530
824.514	0.0152731
824.592	0.0153313
824.670	0.0152882
824.748	0.0153418
824.826	0.0152622
824.905	0.0153076
824.983	0.0152170
825.061	0.0152425
825.139	0.0151145
825.217	0.0152201
825.295	0.0152208
825.373	0.0152290
825.451	0.0151955
825.530	0.0149994
825.608	0.0151261
825.686	0.0151806
825.764	0.0151157
825.842	0.0152585
825.920	0.0150124
825.998	0.0150713
826.076	0.0150722
826.155	0.0151197
826.233	0.0151827
826.311	0.0152284
826.389	0.0152122
826.467	0.0151997
826.545	0.0152484
826.623	0.0151490
826.701	0.0152908
826.780	0.0153811
826.858	0.0152686
826.936	0.0153718
827.014	0.0152927
827.092	0.0153057
827.170	0.0153268
827.248	0.0154178
827.326	0.0154300
827.405	0.0153642
827.483	0.0152720
827.561	0.0153053
827.639	0.0153717
827.717	0.0152139
827.795	0.0152607
827.873	0.0152419
827.951	0.0151460
828.030	0.0152587
828.108	0.0154178
828.186	0.0152087
828.264	0.0151954
828.342	0.0152621
828.420	0.0152947
828.498	0.0152024
828.576	0.0151653
828.655	0.0153084
828.733	0.0152625
828.811	0.0151474
828.889	0.0152192
828.967	0.0153444
829.045	0.0151733
829.123	0.0152007
829.201	0.0152131
829.280	0.0153410
829.358	0.0152811
829.436	0.0152657
829.514	0.0151874
829.592	0.0151492
829.670	0.0152534
829.748	0.0151851
829.826	0.0150738
829.905	0.0151421
829.983	0.0152158
830.061	0.0151460
830.139	0.0151797
830.217	0.0150363
830.295	0.0147841
830.373	0.0149519
830.451	0.0150739
830.530	0.0150052
830.608	0.0150858
830.686	0.0148966
830.764	0.0148685
830.842	0.0149471
830.920	0.0150845
830.998	0.0151651
831.076	0.0151051
831.155	0.0150478
831.233	0.0149379
831.311	0.0151549
831.389	0.0151229
831.467	0.0150362
831.545	0.0150566
831.623	0.0151479
831.701	0.0152148
831.780	0.0152408
831.858	0.0153124
831.936	0.0153882
832.014	0.0151560
832.092	0.0152955
832.170	0.0152134
832.248	0.0152599
832.326	0.0152307
832.405	0.0152249
832.483	0.0152398
832.561	0.0152722
832.639	0.0152857
832.717	0.0153513
832.795	0.0153284
832.873	0.0154427
832.951	0.0152612
833.030	0.0152817
833.108	0.0154921
833.186	0.0155304
833.264	0.0153789
833.342	0.0153557
833.420	0.0155101
833.498	0.0154335
833.576	0.0154419
833.655	0.0153437
833.733	0.0152461
833.811	0.0153949
833.889	0.0153117
833.967	0.0151891
834.045	0.0153774
834.123	0.0153087
834.201	0.0151414
834.280	0.0151923
834.358	0.0151615
834.436	0.0152645
834.514	0.0152613
834.592	0.0151147
834.670	0.0152523
834.748	0.0152212
834.826	0.0151920
834.905	0.0153633
834.983	0.0153104
835.061	0.0151804
835.139	0.0151223
835.217	0.0153602
835.295	0.0152915
835.373	0.0153364
835.451	0.0153761
835.530	0.0153751
835.608	0.0153947
835.686	0.0152577
835.764	0.0151978
835.842	0.0153121
835.920	0.0153068
835.998	0.0152921
836.076	0.0153895
836.155	0.0153453
836.233	0.0153045
836.311	0.0153031
836.389	0.0151777
836.467	0.0152360
836.545	0.0153669
836.623	0.0152699
836.701	0.0153137
836.780	0.0151982
836.858	0.0152576
836.936	0.0152789
837.014	0.0153143
837.092	0.0154011
837.170	0.0153419
837.248	0.0152634
837.326	0.0154156
837.405	0.0154075
837.483	0.0155444
837.561	0.0155502
837.639	0.0154054
837.717	0.0155046
837.795	0.0154929
837.873	0.0155948
837.951	0.0155744
838.030	0.0153986
838.108	0.0153459
838.186	0.0155573
838.264	0.0154170
838.342	0.0152760
838.420	0.0154619
838.498	0.0153318
838.576	0.0154482
838.655	0.0154839
838.733	0.0154403
838.811	0.0153204
838.889	0.0152280
838.967	0.0151614
839.045	0.0153027
839.123	0.0152892
839.201	0.0153831
839.280	0.0152798
839.358	0.0153927
839.436	0.0153808
839.514	0.0153725
839.592	0.0153440
839.670	0.0154103
839.748	0.0154256
839.826	0.0155114
839.905	0.0154160
839.983	0.0154307
840.061	0.0155254
840.139	0.0155378
840.217	0.0154562
840.295	0.0154790
840.373	0.0155152
840.451	0.0155918
840.530	0.0155513
840.608	0.0154817
840.686	0.0154858
840.764	0.0154732
840.842	0.0154539
840.920	0.0155592
840.998	0.0155087
841.076	0.0154929
841.155	0.0154778
841.233	0.0154237
841.311	0.0154510
841.389	0.0154530
841.467	0.0156227
841.545	0.0155772
841.623	0.0154966
841.701	0.0156040
841.780	0.0155596
841.858	0.0155679
841.936	0.0156138
842.014	0.0155705
842.092	0.0156356
842.170	0.0156309
842.248	0.0154897
842.326	0.0155257
842.405	0.0154578
842.483	0.0156535
842.561	0.0154709
842.639	0.0154313
842.717	0.0155814
842.795	0.0153814
842.873	0.0153369
842.951	0.0154523
843.030	0.0153628
843.108	0.0153938
843.186	0.0154556
843.264	0.0153997
843.342	0.0153832
843.420	0.0154462
843.498	0.0154622
843.576	0.0154320
843.655	0.0153072
843.733	0.0153671
843.811	0.0153400
843.889	0.0152790
843.967	0.0154450
844.045	0.0153859
844.123	0.0152663
844.201	0.0152947
844.280	0.0152278
844.358	0.0153209
844.436	0.0154077
844.514	0.0151713
844.592	0.0152292
844.670	0.0152938
844.748	0.0152258
844.826	0.0151536
844.905	0.0152794
844.983	0.0152428
845.061	0.0151646
845.139	0.0153287
845.217	0.0152599
845.295	0.0151205
845.373	0.0153114
845.451	0.0151510
845.530	0.0150320
845.608	0.0151896
845.686	0.0151904
845.764	0.0152231
845.842	0.0150594
845.920	0.0151517
845.998	0.0151642
846.076	0.0151994
846.155	0.0150307
846.233	0.0152250
846.311	0.0150693
846.389	0.0150943
846.467	0.0151952
846.545	0.0151590
846.623	0.0150397
846.701	0.0151529
846.780	0.0150426
846.858	0.0149361
846.936	0.0150726
847.014	0.0152616
847.092	0.0152064
847.170	0.0150909
847.248	0.0151407
847.326	0.0150463
847.405	0.0151335
847.483	0.0151076
847.561	0.0150553
847.639	0.0153215
847.717	0.0150555
847.795	0.0150510
847.873	0.0151707
847.951	0.0150574
848.030	0.0151508
848.108	0.0151164
848.186	0.0153021
848.264	0.0151281
848.342	0.0151574
848.420	0.0151233
848.498	0.0151153
848.576	0.0152260
848.655	0.0151499
848.733	0.0150741
848.811	0.0151524
848.889	0.0151147
848.967	0.0152023
849.045	0.0151392
849.123	0.0151952
849.201	0.0152731
849.280	0.0150701
849.358	0.0152386
849.436	0.0151700
849.514	0.0150199
849.592	0.0151214
849.670	0.0151676
849.748	0.0152030
849.826	0.0153225
849.905	0.0153242
849.983	0.0154172
850.061	0.0152466
850.139	0.0152667
850.217	0.0152523
850.295	0.0153247
850.373	0.0154074
850.451	0.0153428
850.530	0.0153854
850.608	0.0153645
850.686	0.0153780
850.764	0.0153465
850.842	0.0152872
850.920	0.0151524
850.998	0.0153308
851.076	0.0152526
851.155	0.0152917
851.233	0.0152271
851.311	0.0151644
851.389	0.0151457
851.467	0.0151299
851.545	0.0152129
851.623	0.0152948
851.701	0.0152905
851.780	0.0152667
851.858	0.0151596
851.936	0.0151457
852.014	0.0152607
852.092	0.0151293
852.170	0.0152602
852.248	0.0153047
852.326	0.0152190
852.405	0.0153129
852.483	0.0153030
852.561	0.0150960
852.639	0.0151192
852.717	0.0151775
852.795	0.0151306
852.873	0.0152215
852.951	0.0151107
853.030	0.0152999
853.108	0.0152286
853.186	0.0151330
853.264	0.0151842
853.342	0.0150535
853.420	0.0151790
853.498	0.0153064
853.576	0.0152325
853.655	0.0151802
853.733	0.0151888
853.811	0.0152230
853.889	0.0152553
853.967	0.0153473
854.045	0.0152576
854.123	0.0151248
854.201	0.0153478
854.280	0.0153162
854.358	0.0151560
854.436	0.0150784
854.514	0.0152870
854.592	0.0153370
854.670	0.0153005
854.748	0.0152434
854.826	0.0154422
854.905	0.0153513
854.983	0.0152442
855.061	0.0153504
855.139	0.0153905
855.217	0.0152277
855.295	0.0152114
855.373	0.0152856
855.451	0.0152344
855.530	0.0152334
855.608	0.0151410
855.686	0.0152612
855.764	0.0152374
855.842	0.0152297
855.920	0.0151739
855.998	0.0152288
856.076	0.0152525
856.155	0.0151461
856.233	0.0149939
856.311	0.0150737
856.389	0.0151466
856.467	0.0151671
856.545	0.0153196
856.623	0.0151077
856.701	0.0150266
856.780	0.0152719
856.858	0.0152359
856.936	0.0153403
857.014	0.0153393
857.092	0.0154169
857.170	0.0152363
857.248	0.0153559
857.326	0.0153080
857.405	0.0153629
857.483	0.0152899
857.561	0.0153809
857.639	0.0152206
857.717	0.0152026
857.795	0.0153568
857.873	0.0152173
857.951	0.0152427
858.030	0.0152987
858.108	0.0152188
858.186	0.0151336
858.264	0.0153046
858.342	0.0152431
858.420	0.0152026
858.498	0.0152272
858.576	0.0153094
858.655	0.0153254
858.733	0.0153957
858.811	0.0152709
858.889	0.0152453
858.967	0.0154225
859.045	0.0154132
859.123	0.0153416
859.201	0.0152927
859.280	0.0153733
859.358	0.0153101
859.436	0.0153207
859.514	0.0155054
859.592	0.0152499
859.670	0.0152695
859.748	0.0153577
859.826	0.0151364
859.905	0.0152119
859.983	0.0151974
860.061	0.0152383
860.139	0.0152079
860.217	0.0153147
860.295	0.0152986
860.373	0.0152760
860.451	0.0152998
860.530	0.0152118
860.608	0.0151374
860.686	0.0153332
860.764	0.0153069
860.842	0.0153750
860.920	0.0151912
860.998	0.0152599
861.076	0.0150989
861.155	0.0152798
861.233	0.0151931
861.311	0.0151057
861.389	0.0153217
861.467	0.0154794
861.545	0.0154176
861.623	0.0151846
861.701	0.0151853
861.780	0.0153678
861.858	0.0153313
861.936	0.0154170
862.014	0.0154143
862.092	0.0152724
862.170	0.0153451
862.248	0.0153091
862.326	0.0154556
862.405	0.0153787
862.483	0.0154908
862.561	0.0153763
862.639	0.0154960
862.717	0.0154267
862.795	0.0153655
862.873	0.0153322
862.951	0.0152448
863.030	0.0152930
863.108	0.0154358
863.186	0.0154216
863.264	0.0154341
863.342	0.0154519
863.420	0.0154389
863.498	0.0153938
863.576	0.0153224
863.655	0.0152856
863.733	0.0153431
863.811	0.0154485
863.889	0.0153564
863.967	0.0153704
864.045	0.0153902
864.123	0.0153394
864.201	0.0153769
864.280	0.0154167
864.358	0.0153432
864.436	0.0153058
864.514	0.0153861
864.592	0.0153217
864.670	0.0152839
864.748	0.0154208
864.826	0.0154056
864.905	0.0153152
864.983	0.0153775
865.061	0.0154312
865.139	0.0152761
865.217	0.0153827
865.295	0.0153371
865.373	0.0152510
865.451	0.0152911
865.530	0.0155724
865.608	0.0154510
865.686	0.0154203
865.764	0.0153819
865.842	0.0153179
865.920	0.0153355
865.998	0.0154408
866.076	0.0153675
866.155	0.0154259
866.233	0.0152760
866.311	0.0153770
866.389	0.0153334
866.467	0.0152645
866.545	0.0154081
866.623	0.0153422
866.701	0.0153905
866.780	0.0153953
866.858	0.0153763
866.936	0.0154667
867.014	0.0154420
867.092	0.0154182
867.170	0.0153907
867.248	0.0154581
867.326	0.0156221
867.405	0.0153833
867.483	0.0154384
867.561	0.0155022
867.639	0.0154601
867.717	0.0154256
867.795	0.0153002
867.873	0.0154597
867.951	0.0153892
868.030	0.0153156
868.108	0.0154459
868.186	0.0153001
868.264	0.0152904
868.342	0.0152704
868.420	0.0153238
868.498	0.0153084
868.576	0.0152853
868.655	0.0150953
868.733	0.0152844
868.811	0.0152843
868.889	0.0152888
868.967	0.0153777
869.045	0.0153268
869.123	0.0152634
869.201	0.0153336
869.280	0.0152522
869.358	0.0153375
869.436	0.0154317
869.514	0.0152635
869.592	0.0152703
869.670	0.0154221
869.748	0.0154447
869.826	0.0152497
869.905	0.0153682
869.983	0.0153058
870.061	0.0153741
870.139	0.0153876
870.217	0.0153259
870.295	0.0152490
870.373	0.0153393
870.451	0.0152893
870.530	0.0153894
870.608	0.0152081
870.686	0.0150945
870.764	0.0153556
870.842	0.0153085
870.920	0.0152232
870.998	0.0152662
871.076	0.0154060
871.155	0.0153075
871.233	0.0152857
871.311	0.0153559
871.389	0.0152998
871.467	0.0153221
871.545	0.0155418
871.623	0.0154184
871.701	0.0153257
871.780	0.0152632
871.858	0.0153489
871.936	0.0153561
872.014	0.0151358
872.092	0.0151913
872.170	0.0152261
872.248	0.0153548
872.326	0.0153336
872.405	0.0151725
872.483	0.0151601
872.561	0.0151720
872.639	0.0153062
872.717	0.0152943
872.795	0.0152159
872.873	0.0152310
872.951	0.0153501
873.030	0.0152375
873.108	0.0153937
873.186	0.0153051
873.264	0.0152754
873.342	0.0152898
873.420	0.0154237
873.498	0.0154287
873.576	0.0152906
873.655	0.0152921
873.733	0.0153111
873.811	0.0154916
873.889	0.0154416
873.967	0.0153939
874.045	0.0154661
874.123	0.0153735
874.201	0.0153831
874.280	0.0153643
874.358	0.0154376
874.436	0.0153648
874.514	0.0154029
874.592	0.0153403
874.670	0.0153988
874.748	0.0152838
874.826	0.0151196
874.905	0.0151982
874.983	0.0153564
875.061	0.0153661
875.139	0.0151644
875.217	0.0152209
875.295	0.0152792
875.373	0.0154309
875.451	0.0153638
875.530	0.0153195
875.608	0.0153378
875.686	0.0154376
875.764	0.0153929
875.842	0.0153591
875.920	0.0151424
875.998	0.0152365
876.076	0.0152856
876.155	0.0153439
876.233	0.0152321
876.311	0.0152752
876.389	0.0152316
876.467	0.0152995
876.545	0.0151036
876.623	0.0151303
876.701	0.0152080
876.780	0.0151364
876.858	0.0152133
876.936	0.0151801
877.014	0.0150974
877.092	0.0149741
877.170	0.0151578
877.248	0.0152535
877.326	0.0152088
877.405	0.0152345
877.483	0.0153116
877.561	0.0152202
877.639	0.0153477
877.717	0.0152720
877.795	0.0153168
877.873	0.0154604
877.951	0.0154052
878.030	0.0153596
878.108	0.0153392
878.186	0.0152728
878.264	0.0152572
878.342	0.0152660
878.420	0.0151601
878.498	0.0151202
878.576	0.0152275
878.655	0.0153426
878.733	0.0151322
878.811	0.0152174
878.889	0.0152671
878.967	0.0152560
879.045	0.0151635
879.123	0.0151590
879.201	0.0152837
879.280	0.0153731
879.358	0.0152535
879.436	0.0153234
879.514	0.0151440
879.592	0.0154251
879.670	0.0152573
879.748	0.0152364
879.826	0.0151053
879.905	0.0152676
879.983	0.0152579
880.061	0.0152466
880.139	0.0153902
880.217	0.0152099
880.295	0.0151408
880.373	0.0152187
880.451	0.0154179
880.530	0.0152364
880.608	0.0152398
880.686	0.0153091
880.764	0.0152798
880.842	0.0152202
880.920	0.0152736
880.998	0.0153175
881.076	0.0153990
881.155	0.0153761
881.233	0.0152207
881.311	0.0152750
881.389	0.0151953
881.467	0.0152171
881.545	0.0152512
881.623	0.0151926
881.701	0.0151711
881.780	0.0152142
881.858	0.0151740
881.936	0.0153394
882.014	0.0153197
882.092	0.0152022
882.170	0.0152038
882.248	0.0153153
882.326	0.0151656
882.405	0.0151804
882.483	0.0152016
882.561	0.0151159
882.639	0.0151667
882.717	0.0151360
882.795	0.0151537
882.873	0.0152547
882.951	0.0151093
883.030	0.0151321
883.108	0.0151898
883.186	0.0150831
883.264	0.0152630
883.342	0.0151324
883.420	0.0150311
883.498	0.0151011
883.576	0.0151648
883.655	0.0151962
883.733	0.0152622
883.811	0.0150803
883.889	0.0151460
883.967	0.0152512
884.045	0.0152430
884.123	0.0151042
884.201	0.0152407
884.280	0.0152248
884.358	0.0150964
884.436	0.0151283
884.514	0.0150351
884.592	0.0149712
884.670	0.0149985
884.748	0.0151297
884.826	0.0150888
884.905	0.0150953
884.983	0.0152470
885.061	0.0151904
885.139	0.0151662
885.217	0.0152290
885.295	0.0152621
885.373	0.0152684
885.451	0.0152504
885.530	0.0153125
885.608	0.0153605
885.686	0.0153916
885.764	0.0153708
885.842	0.0154813
885.920	0.0154370
885.998	0.0154452
886.076	0.0154226
886.155	0.0152753
886.233	0.0153069
886.311	0.0153457
886.389	0.0153666
886.467	0.0152740
886.545	0.0150987
886.623	0.0152995
886.701	0.0152836
886.780	0.0152370
886.858	0.0150787
886.936	0.0151418
887.014	0.0152771
887.092	0.0153112
887.170	0.0152154
887.248	0.0153875
887.326	0.0152303
887.405	0.0152295
887.483	0.0152115
887.561	0.0151141
887.639	0.0152810
887.717	0.0153323
887.795	0.0151263
887.873	0.0152697
887.951	0.0153041
888.030	0.0152888
888.108	0.0152749
888.186	0.0154395
888.264	0.0153741
888.342	0.0154044
888.420	0.0154269
888.498	0.0153378
888.576	0.0153480
888.655	0.0152663
888.733	0.0154403
888.811	0.0153645
888.889	0.0153678
888.967	0.0152233
889.045	0.0153660
889.123	0.0153116
889.201	0.0153885
889.280	0.0152263
889.358	0.0152783
889.436	0.0152964
889.514	0.0152246
889.592	0.0153818
889.670	0.0153809
889.748	0.0154435
889.826	0.0153165
889.905	0.0153486
889.983	0.0155183
890.061	0.0154195
890.139	0.0155489
890.217	0.0155704
890.295	0.0155177
890.373	0.0155890
890.451	0.0154865
890.530	0.0155724
890.608	0.0155414
890.686	0.0156390
890.764	0.0154823
890.842	0.0154723
890.920	0.0155268
890.998	0.0154782
891.076	0.0154507
891.155	0.0155405
891.233	0.0154855
891.311	0.0154200
891.389	0.0153880
891.467	0.0153081
891.545	0.0153661
891.623	0.0153298
891.701	0.0153671
891.780	0.0152785
891.858	0.0152809
891.936	0.0151507
892.014	0.0152029
892.092	0.0151094
892.170	0.0150877
892.248	0.0150631
892.326	0.0150560
892.405	0.0151895
892.483	0.0151418
892.561	0.0152007
892.639	0.0153326
892.717	0.0150983
892.795	0.0153747
892.873	0.0154977
892.951	0.0152797
893.030	0.0154341
893.108	0.0153942
893.186	0.0153886
893.264	0.0154619
893.342	0.0154547
893.420	0.0153111
893.498	0.0153985
893.576	0.0152785
893.655	0.0152434
893.733	0.0152570
893.811	0.0154022
893.889	0.0153707
893.967	0.0152747
894.045	0.0152457
894.123	0.0153560
894.201	0.0153642
894.280	0.0152329
894.358	0.0152332
894.436	0.0152828
894.514	0.0154012
894.592	0.0153011
894.670	0.0153378
894.748	0.0153767
894.826	0.0153455
894.905	0.0152998
894.983	0.0152669
895.061	0.0153919
895.139	0.0153730
895.217	0.0153010
895.295	0.0153127
895.373	0.0152400
895.451	0.0152905
895.530	0.0153495
895.608	0.0151952
895.686	0.0152074
895.764	0.0153644
895.842	0.0152660
895.920	0.0153087
895.998	0.0152654
896.076	0.0153795
896.155	0.0151530
896.233	0.0152580
896.311	0.0153186
896.389	0.0153545
896.467	0.0153879
896.545	0.0153666
896.623	0.0152577
896.701	0.0153987
896.780	0.0154057
896.858	0.0154647
896.936	0.0154600
897.014	0.0153972
897.092	0.0154251
897.170	0.0152952
897.248	0.0154295
897.326	0.0153414
897.405	0.0153953
897.483	0.0153465
897.561	0.0152831
897.639	0.0153896
897.717	0.0152187
897.795	0.0151948
897.873	0.0152251
897.951	0.0151808
898.030	0.0152506
898.108	0.0152298
898.186	0.0153231
898.264	0.0153478
898.342	0.0154330
898.420	0.0153994
898.498	0.0154562
898.576	0.0153924
898.655	0.0151851
898.733	0.0153922
898.811	0.0155235
898.889	0.0155269
898.967	0.0154765
899.045	0.0154877
899.123	0.0156292
899.201	0.0155209
899.280	0.0154271
899.358	0.0154136
899.436	0.0153719
899.514	0.0154597
899.592	0.0153201
899.670	0.0152977
899.748	0.0153671
899.826	0.0154736
899.905	0.0153369
899.983	0.0152539
900.061	0.0152921
900.139	0.0152449
900.217	0.0152834
900.295	0.0152454
900.373	0.0153220
900.451	0.0152136
900.530	0.0152932
900.608	0.0153313
900.686	0.0152054
900.764	0.0152872
900.842	0.0152911
900.920	0.0153088
900.998	0.0152990
901.076	0.0153908
901.155	0.0152977
901.233	0.0152585
901.311	0.0153095
901.389	0.0152939
901.467	0.0153007
901.545	0.0153446
901.623	0.0152774
901.701	0.0152513
901.780	0.0153674
901.858	0.0153358
901.936	0.0151898
902.014	0.0152139
902.092	0.0152360
902.170	0.0153865
902.248	0.0152666
902.326	0.0150996
902.405	0.0152863
902.483	0.0152216
902.561	0.0153492
902.639	0.0152844
902.717	0.0152996
902.795	0.0152521
902.873	0.0152885
902.951	0.0153386
903.030	0.0153825
903.108	0.0153088
903.186	0.0154665
903.264	0.0153908
903.342	0.0153197
903.420	0.0153846
903.498	0.0152493
903.576	0.0153952
903.655	0.0152864
903.733	0.0154423
903.811	0.0153305
903.889	0.0153030
903.967	0.0152811
904.045	0.0153307
904.123	0.0153682
904.201	0.0153619
904.280	0.0152567
904.358	0.0151534
904.436	0.0153920
904.514	0.0153107
904.592	0.0151579
904.670	0.0153073
904.748	0.0152498
904.826	0.0151944
904.905	0.0152528
904.983	0.0150861
905.061	0.0151189
905.139	0.0152120
905.217	0.0152308
905.295	0.0151026
905.373	0.0152256
905.451	0.0151208
905.530	0.0152537
905.608	0.0151977
905.686	0.0153004
905.764	0.0151846
905.842	0.0151413
905.920	0.0152785
905.998	0.0152885
906.076	0.0151540
906.155	0.0152384
906.233	0.0152686
906.311	0.0152348
906.389	0.0151866
906.467	0.0151449
906.545	0.0152121
906.623	0.0153015
906.701	0.0152871
906.780	0.0152580
906.858	0.0153759
906.936	0.0151873
907.014	0.0153078
907.092	0.0154245
907.170	0.0154294
907.248	0.0153363
907.326	0.0152962
907.405	0.0152880
907.483	0.0152862
907.561	0.0153128
907.639	0.0150748
907.717	0.0151196
907.795	0.0152834
907.873	0.0152138
907.951	0.0150744
908.030	0.0152258
908.108	0.0151727
908.186	0.0151228
908.264	0.0150088
908.342	0.0150269
908.420	0.0149492
908.498	0.0150808
908.576	0.0150551
908.655	0.0149975
908.733	0.0150224
908.811	0.0149553
908.889	0.0149902
908.967	0.0149527
909.045	0.0151127
909.123	0.0151601
909.201	0.0151990
909.280	0.0151044
909.358	0.0152905
909.436	0.0151911
909.514	0.0151862
909.592	0.0152911
909.670	0.0152792
909.748	0.0152235
909.826	0.0153198
909.905	0.0153219
909.983	0.0152076
910.061	0.0153181
910.139	0.0153156
910.217	0.0151028
910.295	0.0152861
910.373	0.0151971
910.451	0.0151754
910.530	0.0152382
910.608	0.0151421
910.686	0.0151644
910.764	0.0151837
910.842	0.0151047
910.920	0.0150742
910.998	0.0149577
911.076	0.0151247
911.155	0.0153062
911.233	0.0153631
911.311	0.0152582
911.389	0.0152838
911.467	0.0152461
911.545	0.0153102
911.623	0.0153566
911.701	0.0152423
911.780	0.0153085
911.858	0.0153163
911.936	0.0153314
912.014	0.0153108
912.092	0.0153583
912.170	0.0153497
912.248	0.0152933
912.326	0.0152197
912.405	0.0150660
912.483	0.0152689
912.561	0.0152598
912.639	0.0150822
912.717	0.0151677
912.795	0.0151886
912.873	0.0152037
912.951	0.0151675
913.030	0.0150851
913.108	0.0151337
913.186	0.0150743
913.264	0.0151126
913.342	0.0153342
913.420	0.0151716
913.498	0.0150383
913.576	0.0152683
913.655	0.0151893
913.733	0.0151974
913.811	0.0151816
913.889	0.0152425
913.967	0.0151095
914.045	0.0151727
914.123	0.0151627
914.201	0.0151679
914.280	0.0151541
914.358	0.0153001
914.436	0.0151313
914.514	0.0151465
914.592	0.0151744
914.670	0.0151630
914.748	0.0152630
914.826	0.0150713
914.905	0.0150767
914.983	0.0152569
915.061	0.0153362
915.139	0.0151666
915.217	0.0150819
915.295	0.0151355
915.373	0.0152731
915.451	0.0153399
915.530	0.0153018
915.608	0.0153245
915.686	0.0151777
915.764	0.0152857
915.842	0.0152908
915.920	0.0154353
915.998	0.0153559
916.076	0.0153135
916.155	0.0152910
916.233	0.0151825
916.311	0.0152592
916.389	0.0154139
916.467	0.0153069
916.545	0.0152248
916.623	0.0152765
916.701	0.0152690
916.780	0.0152908
916.858	0.0153294
916.936	0.0152502
917.014	0.0152528
917.092	0.0153084
917.170	0.0152072
917.248	0.0153446
917.326	0.0152963
917.405	0.0152887
917.483	0.0153984
917.561	0.0152270
917.639	0.0154895
917.717	0.0154057
917.795	0.0153799
917.873	0.0153246
917.951	0.0153276
918.030	0.0155155
918.108	0.0153333
918.186	0.0152681
918.264	0.0152841
918.342	0.0152927
918.420	0.0152349
918.498	0.0151744
918.576	0.0153168
918.655	0.0152781
918.733	0.0152819
918.811	0.0152715
918.889	0.0153158
918.967	0.0152339
919.045	0.0153158
919.123	0.0153764
919.201	0.0153288
919.280	0.0153714
919.358	0.0153613
919.436	0.0152081
919.514	0.0153575
919.592	0.0153435
919.670	0.0152983
919.748	0.0154461
919.826	0.0153798
919.905	0.0153903
919.983	0.0154165
920.061	0.0154576
920.139	0.0153990
920.217	0.0153807
920.295	0.0153868
920.373	0.0153886
920.451	0.0155030
920.530	0.0155174
920.608	0.0155608
920.686	0.0155698
920.764	0.0155700
920.842	0.0154997
920.920	0.0155370
920.998	0.0153721
921.076	0.0153632
921.155	0.0154910
921.233	0.0153593
921.311	0.0153973
921.389	0.0154522
921.467	0.0153085
921.545	0.0153016
921.623	0.0153196
921.701	0.0153316
921.780	0.0152633
921.858	0.0151976
921.936	0.0153270
922.014	0.0154846
922.092	0.0153362
922.170	0.0152071
922.248	0.0153307
922.326	0.0152667
922.405	0.0153206
922.483	0.0153172
922.561	0.0153723
922.639	0.0153770
922.717	0.0152222
922.795	0.0152903
922.873	0.0153041
922.951	0.0152531
923.030	0.0152271
923.108	0.0152403
923.186	0.0153278
923.264	0.0153283
923.342	0.0153214
923.420	0.0152689
923.498	0.0153545
923.576	0.0152464
923.655	0.0152973
923.733	0.0154089
923.811	0.0152812
923.889	0.0152628
923.967	0.0151483
924.045	0.0153146
924.123	0.0152456
924.201	0.0151356
924.280	0.0152802
924.358	0.0153265
924.436	0.0153427
924.514	0.0151680
924.592	0.0152290
924.670	0.0153494
924.748	0.0152800
924.826	0.0153719
924.905	0.0153316
924.983	0.0153341
925.061	0.0153442
925.139	0.0152849
925.217	0.0152778
925.295	0.0153327
925.373	0.0153090
925.451	0.0155090
925.530	0.0153667
925.608	0.0153917
925.686	0.0152905
925.764	0.0153303
925.842	0.0152995
925.920	0.0153307
925.998	0.0153311
926.076	0.0151885
926.155	0.0152126
926.233	0.0153328
926.311	0.0151894
926.389	0.0152254
926.467	0.0153547
926.545	0.0152988
926.623	0.0152167
926.701	0.0152125
926.780	0.0152183
926.858	0.0151846
926.936	0.0152502
927.014	0.0152710
927.092	0.0152721
927.170	0.0151672
927.248	0.0152048
927.326	0.0153163
927.405	0.0151830
927.483	0.0151223
927.561	0.0151389
927.639	0.0151845
927.717	0.0152428
927.795	0.0153592
927.873	0.0153931
927.951	0.0153094
928.030	0.0154067
928.108	0.0153533
928.186	0.0153756
928.264	0.0153693
928.342	0.0153250
928.420	0.0152165
928.498	0.0153351
928.576	0.0153931
928.655	0.0152411
928.733	0.0153079
928.811	0.0153268
928.889	0.0153478
928.967	0.0152166
929.045	0.0152313
929.123	0.0151971
929.201	0.0152525
929.280	0.0150810
929.358	0.0150351
929.436	0.0151752
929.514	0.0150318
929.592	0.0150301
929.670	0.0151320
929.748	0.0149774
929.826	0.0151007
929.905	0.0151797
929.983	0.0150422
930.061	0.0151733
930.139	0.0150829
930.217	0.0152126
930.295	0.0151489
930.373	0.0152579
930.451	0.0152805
930.530	0.0152818
930.608	0.0154350
930.686	0.0152940
930.764	0.0152679
930.842	0.0153777
930.920	0.0153395
930.998	0.0153219
931.076	0.0153015
931.155	0.0151257
931.233	0.0151839
931.311	0.0152628
931.389	0.0151791
931.467	0.0151682
931.545	0.0152184
931.623	0.0151467
931.701	0.0150668
931.780	0.0151154
931.858	0.0150663
931.936	0.0152137
932.014	0.0151243
932.092	0.0151492
932.170	0.0152516
932.248	0.0151505
932.326	0.0152885
932.405	0.0152678
932.483	0.0151981
932.561	0.0152586
932.639	0.0153370
932.717	0.0155188
932.795	0.0153233
932.873	0.0153529
932.951	0.0153363
933.030	0.0153999
933.108	0.0152718
933.186	0.0152209
933.264	0.0153780
933.342	0.0151865
933.420	0.0152364
933.498	0.0152378
933.576	0.0152138
933.655	0.0151408
933.733	0.0151533
933.811	0.0151913
933.889	0.0151497
933.967	0.0150858
934.045	0.0152040
934.123	0.0151229
934.201	0.0150912
934.280	0.0152904
934.358	0.0151166
934.436	0.0151537
934.514	0.0152764
934.592	0.0151888
934.670	0.0151643
934.748	0.0151575
934.826	0.0151504
934.905	0.0151563
934.983	0.0151178
935.061	0.0151409
935.139	0.0149943
935.217	0.0150072
935.295	0.0151488
935.373	0.0151983
935.451	0.0152015
935.530	0.0151317
935.608	0.0151727
935.686	0.0151505
935.764	0.0152377
935.842	0.0151666
935.920	0.0152950
935.998	0.0152963
936.076	0.0152462
936.155	0.0152679
936.233	0.0153232
936.311	0.0152827
936.389	0.0153743
936.467	0.0153522
936.545	0.0154377
936.623	0.0153036
936.701	0.0153259
936.780	0.0154256
936.858	0.0154407
936.936	0.0152327
937.014	0.0154336
937.092	0.0153910
937.170	0.0153208
937.248	0.0152602
937.326	0.0153545
937.405	0.0153890
937.483	0.0153791
937.561	0.0153913
937.639	0.0154649
937.717	0.0153097
937.795	0.0153249
937.873	0.0154571
937.951	0.0153511
938.030	0.0151668
938.108	0.0154137
938.186	0.0152506
938.264	0.0153431
938.342	0.0153979
938.420	0.0152716
938.498	0.0152724
938.576	0.0154182
938.655	0.0151309
938.733	0.0151956
938.811	0.0152094
938.889	0.0151697
938.967	0.0152090
939.045	0.0151082
939.123	0.0151470
939.201	0.0152308
939.280	0.0151733
939.358	0.0150632
939.436	0.0150723
939.514	0.0150591
939.592	0.0150971
939.670	0.0151427
939.748	0.0150311
939.826	0.0151183
939.905	0.0152068
939.983	0.0150498
940.061	0.0152349
940.139	0.0150872
940.217	0.0151805
940.295	0.0150353
940.373	0.0152654
940.451	0.0152236
940.530	0.0152592
940.608	0.0153539
940.686	0.0153656
940.764	0.0153757
940.842	0.0153955
940.920	0.0152392
940.998	0.0152625
941.076	0.0154274
941.155	0.0154152
941.233	0.0154625
941.311	0.0153070
941.389	0.0153359
941.467	0.0154330
941.545	0.0153807
941.623	0.0153006
941.701	0.0153976
941.780	0.0154391
941.858	0.0153537
941.936	0.0152902
942.014	0.0153698
942.092	0.0153643
942.170	0.0154875
942.248	0.0154195
942.326	0.0152281
942.405	0.0152146
942.483	0.0152448
942.561	0.0154019
942.639	0.0152802
942.717	0.0152113
942.795	0.0153384
942.873	0.0153691
942.951	0.0152689
943.030	0.0151679
943.108	0.0152377
943.186	0.0151832
943.264	0.0152425
943.342	0.0153341
943.420	0.0153707
943.498	0.0151811
943.576	0.0150220
943.655	0.0152408
943.733	0.0151804
943.811	0.0150957
943.889	0.0152656
943.967	0.0150940
944.045	0.0150711
944.123	0.0151877
944.201	0.0152019
944.280	0.0152380
944.358	0.0152382
944.436	0.0152251
944.514	0.0151955
944.592	0.0150819
944.670	0.0153207
944.748	0.0153638
944.826	0.0152486
944.905	0.0153125
944.983	0.0151474
945.061	0.0152875
945.139	0.0153303
945.217	0.0152745
945.295	0.0151611
945.373	0.0152290
945.451	0.0151840
945.530	0.0152662
945.608	0.0154082
945.686	0.0153255
945.764	0.0152383
945.842	0.0152664
945.920	0.0154276
945.998	0.0153242
946.076	0.0153131
946.155	0.0153597
946.233	0.0153558
946.311	0.0154344
946.389	0.0154237
946.467	0.0152520
946.545	0.0152772
946.623	0.0154050
946.701	0.0153342
946.780	0.0153710
946.858	0.0154472
946.936	0.0154332
947.014	0.0153004
947.092	0.0151376
947.170	0.0153341
947.248	0.0153750
947.326	0.0152371
947.405	0.0154050
947.483	0.0154564
947.561	0.0153391
947.639	0.0152679
947.717	0.0153896
947.795	0.0153056
947.873	0.0152578
947.951	0.0152589
948.030	0.0152290
948.108	0.0153297
948.186	0.0153468
948.264	0.0153117
948.342	0.0153026
948.420	0.0153049
948.498	0.0154369
948.576	0.0153877
948.655	0.0153827
948.733	0.0152469
948.811	0.0153741
948.889	0.0152916
948.967	0.0152439
949.045	0.0152454
949.123	0.0154793
949.201	0.0154275
949.280	0.0154208
949.358	0.0153809
949.436	0.0155740
949.514	0.0153471
949.592	0.0154057
949.670	0.0153490
949.748	0.0153483
949.826	0.0155012
949.905	0.0153738
949.983	0.0156450
950.061	0.0154580
950.139	0.0153526
950.217	0.0155820
950.295	0.0153721
950.373	0.0153271
950.451	0.0153297
950.530	0.0154346
950.608	0.0154772
950.686	0.0151831
950.764	0.0154291
950.842	0.0154420
950.920	0.0154202
950.998	0.0153783
951.076	0.0152973
951.155	0.0153638
951.233	0.0153399
951.311	0.0152793
951.389	0.0152464
951.467	0.0153194
951.545	0.0152304
951.623	0.0153410
951.701	0.0152965
951.780	0.0153326
951.858	0.0152737
951.936	0.0152197
952.014	0.0152100
952.092	0.0152483
952.170	0.0151402
952.248	0.0150838
952.326	0.0152152
952.405	0.0152013
952.483	0.0153170
952.561	0.0151161
952.639	0.0152622
952.717	0.0153457
952.795	0.0151852
952.873	0.0150768
952.951	0.0153553
953.030	0.0151247
953.108	0.0151485
953.186	0.0151787
953.264	0.0152794
953.342	0.0152512
953.420	0.0152358
953.498	0.0152167
953.576	0.0151153
953.655	0.0150892
953.733	0.0151993
953.811	0.0152336
953.889	0.0149625
953.967	0.0150609
954.045	0.0151289
954.123	0.0151099
954.201	0.0151933
954.280	0.0151192
954.358	0.0149922
954.436	0.0150582
954.514	0.0151069
954.592	0.0151400
954.670	0.0150779
954.748	0.0152277
954.826	0.0152209
954.905	0.0151817
954.983	0.0151565
955.061	0.0151441
955.139	0.0151702
955.217	0.0151751
955.295	0.0151699
955.373	0.0151618
955.451	0.0152336
955.530	0.0151279
955.608	0.0151884
955.686	0.0153435
955.764	0.0151440
955.842	0.0151334
955.920	0.0153029
955.998	0.0152522
956.076	0.0153194
956.155	0.0152657
956.233	0.0152679
956.311	0.0153240
956.389	0.0153445
956.467	0.0151728
956.545	0.0153116
956.623	0.0152022
956.701	0.0152595
956.780	0.0152751
956.858	0.0153239
956.936	0.0151366
957.014	0.0151342
957.092	0.0154074
957.170	0.0151698
957.248	0.0152589
957.326	0.0153086
957.405	0.0152805
957.483	0.0153010
957.561	0.0154007
957.639	0.0153618
957.717	0.0151482
957.795	0.0152924
957.873	0.0152636
957.951	0.0152338
958.030	0.0152423
958.108	0.0153477
958.186	0.0152850
958.264	0.0153617
958.342	0.0152743
958.420	0.0152454
958.498	0.0152133
958.576	0.0153239
958.655	0.0153273
958.733	0.0152280
958.811	0.0153072
958.889	0.0152628
958.967	0.0152100
959.045	0.0152379
959.123	0.0152693
959.201	0.0152002
959.280	0.0151815
959.358	0.0153625
959.436	0.0153522
959.514	0.0152362
959.592	0.0152728
959.670	0.0152766
959.748	0.0153432
959.826	0.0151356
959.905	0.0153004
