05/20/2022	16:30:42	Ver.	4.1	UNKNOWN
Optical Delay	639.982744	Delta X		0.078125	Sweeps	1	Scan Rate	0/0
Coordinates	Axis 1	NaN	Axis 2	NaN	Axis 3	NaN	Axis 4	NaN	Axis 5	NaN	Axis 6	0.000000
TX Power	0.000000	RX Power	0.000000

639.983	0.0154895
640.061	0.0153853
640.139	0.0154628
640.217	0.0154659
640.295	0.0154660
640.373	0.0154597
640.451	0.0155599
640.530	0.0154444
640.608	0.0155076
640.686	0.0155642
640.764	0.0153571
640.842	0.0155551
640.920	0.0155444
640.998	0.0154755
641.076	0.0153424
641.155	0.0155736
641.233	0.0154881
641.311	0.0154144
641.389	0.0154968
641.467	0.0155284
641.545	0.0154233
641.623	0.0154151
641.701	0.0154848
641.780	0.0154937
641.858	0.0154893
641.936	0.0155212
642.014	0.0153786
642.092	0.0153112
642.170	0.0154785
642.248	0.0155084
642.326	0.0154577
642.405	0.0154032
642.483	0.0154152
642.561	0.0153765
642.639	0.0154594
642.717	0.0154330
642.795	0.0153890
642.873	0.0153448
642.951	0.0153992
643.030	0.0153894
643.108	0.0153996
643.186	0.0153307
643.264	0.0152490
643.342	0.0153519
643.420	0.0154862
643.498	0.0154760
643.576	0.0152711
643.655	0.0155551
643.733	0.0155066
643.811	0.0154865
643.889	0.0153639
643.967	0.0154947
644.045	0.0154208
644.123	0.0152050
644.201	0.0154026
644.280	0.0153561
644.358	0.0152340
644.436	0.0152884
644.514	0.0151926
644.592	0.0153965
644.670	0.0154595
644.748	0.0154389
644.826	0.0153309
644.905	0.0153845
644.983	0.0155019
645.061	0.0154269
645.139	0.0155317
645.217	0.0155460
645.295	0.0153463
645.373	0.0154011
645.451	0.0154890
645.530	0.0153592
645.608	0.0155273
645.686	0.0153068
645.764	0.0153728
645.842	0.0154926
645.920	0.0154296
645.998	0.0152757
646.076	0.0153699
646.155	0.0153461
646.233	0.0154321
646.311	0.0153015
646.389	0.0153497
646.467	0.0154209
646.545	0.0152779
646.623	0.0152960
646.701	0.0153091
646.780	0.0153764
646.858	0.0154150
646.936	0.0153313
647.014	0.0154003
647.092	0.0153570
647.170	0.0154646
647.248	0.0154295
647.326	0.0154339
647.405	0.0153913
647.483	0.0154224
647.561	0.0153476
647.639	0.0154307
647.717	0.0153753
647.795	0.0154849
647.873	0.0154041
647.951	0.0154601
648.030	0.0154187
648.108	0.0154305
648.186	0.0153601
648.264	0.0155206
648.342	0.0155329
648.420	0.0154404
648.498	0.0153229
648.576	0.0152687
648.655	0.0152927
648.733	0.0154221
648.811	0.0153772
648.889	0.0152807
648.967	0.0153739
649.045	0.0153106
649.123	0.0154446
649.201	0.0153145
649.280	0.0153271
649.358	0.0152103
649.436	0.0152209
649.514	0.0153859
649.592	0.0154048
649.670	0.0153489
649.748	0.0154313
649.826	0.0154684
649.905	0.0154467
649.983	0.0153568
650.061	0.0153558
650.139	0.0156165
650.217	0.0155081
650.295	0.0154679
650.373	0.0154631
650.451	0.0155716
650.530	0.0154360
650.608	0.0154793
650.686	0.0156079
650.764	0.0156086
650.842	0.0154703
650.920	0.0156164
650.998	0.0154837
651.076	0.0154022
651.155	0.0155460
651.233	0.0156224
651.311	0.0155871
651.389	0.0155805
651.467	0.0154993
651.545	0.0154727
651.623	0.0156438
651.701	0.0155544
651.780	0.0154939
651.858	0.0155509
651.936	0.0156670
652.014	0.0156939
652.092	0.0156714
652.170	0.0156508
652.248	0.0156508
652.326	0.0155685
652.405	0.0154855
652.483	0.0155474
652.561	0.0155571
652.639	0.0156423
652.717	0.0155273
652.795	0.0154632
652.873	0.0154578
652.951	0.0154053
653.030	0.0155033
653.108	0.0156013
653.186	0.0154773
653.264	0.0155373
653.342	0.0155067
653.420	0.0154005
653.498	0.0153773
653.576	0.0152972
653.655	0.0154909
653.733	0.0154418
653.811	0.0153035
653.889	0.0152894
653.967	0.0155307
654.045	0.0153170
654.123	0.0154503
654.201	0.0154573
654.280	0.0153596
654.358	0.0154828
654.436	0.0154713
654.514	0.0155109
654.592	0.0155360
654.670	0.0154573
654.748	0.0156474
654.826	0.0156339
654.905	0.0156674
654.983	0.0156429
655.061	0.0156583
655.139	0.0156376
655.217	0.0155866
655.295	0.0155694
655.373	0.0156200
655.451	0.0155151
655.530	0.0155814
655.608	0.0155464
655.686	0.0155537
655.764	0.0154435
655.842	0.0154805
655.920	0.0154694
655.998	0.0155322
656.076	0.0154098
656.155	0.0154153
656.233	0.0153838
656.311	0.0153614
656.389	0.0153536
656.467	0.0155051
656.545	0.0154802
656.623	0.0155724
656.701	0.0155101
656.780	0.0155388
656.858	0.0154334
656.936	0.0153823
657.014	0.0155540
657.092	0.0155926
657.170	0.0156077
657.248	0.0155731
657.326	0.0155525
657.405	0.0155796
657.483	0.0155735
657.561	0.0153883
657.639	0.0155188
657.717	0.0154427
657.795	0.0155145
657.873	0.0154384
657.951	0.0154873
658.030	0.0151799
658.108	0.0154140
658.186	0.0153336
658.264	0.0155553
658.342	0.0154508
658.420	0.0154243
658.498	0.0154274
658.576	0.0154388
658.655	0.0154471
658.733	0.0153826
658.811	0.0153786
658.889	0.0154325
658.967	0.0154823
659.045	0.0155040
659.123	0.0154462
659.201	0.0153777
659.280	0.0154771
659.358	0.0154515
659.436	0.0154319
659.514	0.0153857
659.592	0.0154233
659.670	0.0155383
659.748	0.0153616
659.826	0.0153345
659.905	0.0156067
659.983	0.0155256
660.061	0.0155225
660.139	0.0155644
660.217	0.0154793
660.295	0.0155237
660.373	0.0153586
660.451	0.0154527
660.530	0.0154865
660.608	0.0155110
660.686	0.0153591
660.764	0.0155307
660.842	0.0155595
660.920	0.0154599
660.998	0.0153619
661.076	0.0154689
661.155	0.0155711
661.233	0.0155428
661.311	0.0154962
661.389	0.0155244
661.467	0.0155421
661.545	0.0153482
661.623	0.0152908
661.701	0.0154729
661.780	0.0154967
661.858	0.0154775
661.936	0.0155457
662.014	0.0153662
662.092	0.0153066
662.170	0.0154744
662.248	0.0155364
662.326	0.0153458
662.405	0.0153606
662.483	0.0155184
662.561	0.0154986
662.639	0.0155083
662.717	0.0152837
662.795	0.0154163
662.873	0.0155888
662.951	0.0155025
663.030	0.0155315
663.108	0.0156252
663.186	0.0154005
663.264	0.0153963
663.342	0.0155302
663.420	0.0155782
663.498	0.0155458
663.576	0.0154761
663.655	0.0154333
663.733	0.0154590
663.811	0.0154347
663.889	0.0152110
663.967	0.0153383
664.045	0.0153745
664.123	0.0153094
664.201	0.0154016
664.280	0.0153189
664.358	0.0154235
664.436	0.0154681
664.514	0.0153194
664.592	0.0153784
664.670	0.0154357
664.748	0.0154404
664.826	0.0155434
664.905	0.0154681
664.983	0.0153336
665.061	0.0154014
665.139	0.0155949
665.217	0.0156120
665.295	0.0154445
665.373	0.0153446
665.451	0.0153793
665.530	0.0154953
665.608	0.0155411
665.686	0.0152762
665.764	0.0152987
665.842	0.0154330
665.920	0.0153866
665.998	0.0152528
666.076	0.0153407
666.155	0.0153137
666.233	0.0153101
666.311	0.0153889
666.389	0.0153134
666.467	0.0153288
666.545	0.0153094
666.623	0.0154745
666.701	0.0153490
666.780	0.0153069
666.858	0.0154807
666.936	0.0154697
667.014	0.0155758
667.092	0.0155278
667.170	0.0153551
667.248	0.0154599
667.326	0.0153947
667.405	0.0154211
667.483	0.0153072
667.561	0.0154891
667.639	0.0154147
667.717	0.0153803
667.795	0.0153429
667.873	0.0154678
667.951	0.0154302
668.030	0.0153479
668.108	0.0153410
668.186	0.0153994
668.264	0.0154619
668.342	0.0154805
668.420	0.0155125
668.498	0.0155373
668.576	0.0155046
668.655	0.0153551
668.733	0.0156007
668.811	0.0156576
668.889	0.0154185
668.967	0.0155664
669.045	0.0156480
669.123	0.0155824
669.201	0.0156612
669.280	0.0154559
669.358	0.0155371
669.436	0.0155400
669.514	0.0154852
669.592	0.0155363
669.670	0.0154663
669.748	0.0154164
669.826	0.0154604
669.905	0.0155347
669.983	0.0153851
670.061	0.0155456
670.139	0.0154089
670.217	0.0153212
670.295	0.0155690
670.373	0.0155210
670.451	0.0153002
670.530	0.0155244
670.608	0.0155390
670.686	0.0156206
670.764	0.0154887
670.842	0.0153273
670.920	0.0154243
670.998	0.0154377
671.076	0.0155436
671.155	0.0156569
671.233	0.0156004
671.311	0.0156205
671.389	0.0156889
671.467	0.0157252
671.545	0.0157922
671.623	0.0156294
671.701	0.0156540
671.780	0.0158491
671.858	0.0158192
671.936	0.0157372
672.014	0.0157294
672.092	0.0155711
672.170	0.0157029
672.248	0.0156837
672.326	0.0155204
672.405	0.0155281
672.483	0.0155401
672.561	0.0154581
672.639	0.0154205
672.717	0.0154193
672.795	0.0152654
672.873	0.0153748
672.951	0.0153132
673.030	0.0152335
673.108	0.0152940
673.186	0.0154002
673.264	0.0154636
673.342	0.0156567
673.420	0.0154638
673.498	0.0155674
673.576	0.0155653
673.655	0.0157452
673.733	0.0157707
673.811	0.0158621
673.889	0.0159106
673.967	0.0159626
674.045	0.0159077
674.123	0.0159750
674.201	0.0158620
674.280	0.0157228
674.358	0.0155189
674.436	0.0158135
674.514	0.0156165
674.592	0.0154678
674.670	0.0154320
674.748	0.0152812
674.826	0.0151856
674.905	0.0150709
674.983	0.0149940
675.061	0.0150156
675.139	0.0149750
675.217	0.0148864
675.295	0.0150136
675.373	0.0149625
675.451	0.0149094
675.530	0.0151920
675.608	0.0151431
675.686	0.0152454
675.764	0.0154758
675.842	0.0154724
675.920	0.0156652
675.998	0.0157710
676.076	0.0159268
676.155	0.0159954
676.233	0.0161095
676.311	0.0161551
676.389	0.0163577
676.467	0.0165296
676.545	0.0164552
676.623	0.0165099
676.701	0.0164016
676.780	0.0162249
676.858	0.0161309
676.936	0.0159971
677.014	0.0159529
677.092	0.0157218
677.170	0.0156390
677.248	0.0154830
677.326	0.0153339
677.405	0.0151269
677.483	0.0151569
677.561	0.0150240
677.639	0.0148128
677.717	0.0148289
677.795	0.0147393
677.873	0.0147534
677.951	0.0147471
678.030	0.0146735
678.108	0.0147281
678.186	0.0146783
678.264	0.0148476
678.342	0.0148660
678.420	0.0149854
678.498	0.0150726
678.576	0.0152110
678.655	0.0153403
678.733	0.0152431
678.811	0.0155607
678.889	0.0156078
678.967	0.0156803
679.045	0.0158672
679.123	0.0158653
679.201	0.0159834
679.280	0.0160013
679.358	0.0159181
679.436	0.0159619
679.514	0.0160322
679.592	0.0160623
679.670	0.0160464
679.748	0.0160934
679.826	0.0160593
679.905	0.0159514
679.983	0.0159781
680.061	0.0158488
680.139	0.0156167
680.217	0.0154855
680.295	0.0156697
680.373	0.0155057
680.451	0.0154781
680.530	0.0154502
680.608	0.0151694
680.686	0.0152096
680.764	0.0150571
680.842	0.0147786
680.920	0.0147152
680.998	0.0146606
681.076	0.0145969
681.155	0.0148816
681.233	0.0146603
681.311	0.0146187
681.389	0.0146382
681.467	0.0146187
681.545	0.0147353
681.623	0.0148428
681.701	0.0148010
681.780	0.0148885
681.858	0.0151569
681.936	0.0152944
682.014	0.0155122
682.092	0.0154398
682.170	0.0156497
682.248	0.0157214
682.326	0.0158918
682.405	0.0157813
682.483	0.0159222
682.561	0.0159480
682.639	0.0160880
682.717	0.0159310
682.795	0.0160210
682.873	0.0159969
682.951	0.0160039
683.030	0.0157681
683.108	0.0157925
683.186	0.0155597
683.264	0.0155289
683.342	0.0155579
683.420	0.0154993
683.498	0.0153465
683.576	0.0152321
683.655	0.0151150
683.733	0.0150765
683.811	0.0151121
683.889	0.0151060
683.967	0.0150468
684.045	0.0151044
684.123	0.0150717
684.201	0.0150449
684.280	0.0152525
684.358	0.0151865
684.436	0.0152233
684.514	0.0152916
684.592	0.0152255
684.670	0.0155232
684.748	0.0155899
684.826	0.0156240
684.905	0.0155853
684.983	0.0157988
685.061	0.0157041
685.139	0.0159138
685.217	0.0160070
685.295	0.0161130
685.373	0.0160307
685.451	0.0160915
685.530	0.0161392
685.608	0.0161521
685.686	0.0160989
685.764	0.0160171
685.842	0.0160197
685.920	0.0161462
685.998	0.0159635
686.076	0.0159280
686.155	0.0159673
686.233	0.0159492
686.311	0.0156657
686.389	0.0155975
686.467	0.0155472
686.545	0.0153133
686.623	0.0152850
686.701	0.0151279
686.780	0.0147921
686.858	0.0147773
686.936	0.0148093
687.014	0.0147006
687.092	0.0144877
687.170	0.0142112
687.248	0.0142039
687.326	0.0143706
687.405	0.0143425
687.483	0.0145922
687.561	0.0143736
687.639	0.0145129
687.717	0.0147577
687.795	0.0150072
687.873	0.0151369
687.951	0.0153997
688.030	0.0155859
688.108	0.0156421
688.186	0.0158436
688.264	0.0158603
688.342	0.0160719
688.420	0.0162235
688.498	0.0160850
688.576	0.0160851
688.655	0.0160709
688.733	0.0160931
688.811	0.0161298
688.889	0.0161003
688.967	0.0162222
689.045	0.0161363
689.123	0.0161179
689.201	0.0161434
689.280	0.0162495
689.358	0.0161178
689.436	0.0163268
689.514	0.0164253
689.592	0.0163680
689.670	0.0166537
689.748	0.0167304
689.826	0.0166058
689.905	0.0166069
689.983	0.0165556
690.061	0.0165089
690.139	0.0162497
690.217	0.0161558
690.295	0.0161016
690.373	0.0160082
690.451	0.0159167
690.530	0.0157664
690.608	0.0156275
690.686	0.0154238
690.764	0.0153395
690.842	0.0152647
690.920	0.0152485
690.998	0.0153949
691.076	0.0151902
691.155	0.0153194
691.233	0.0152892
691.311	0.0151476
691.389	0.0149995
691.467	0.0149950
691.545	0.0150516
691.623	0.0148823
691.701	0.0146293
691.780	0.0145286
691.858	0.0144041
691.936	0.0143954
692.014	0.0141457
692.092	0.0142267
692.170	0.0142152
692.248	0.0140148
692.326	0.0140208
692.405	0.0139050
692.483	0.0139133
692.561	0.0138875
692.639	0.0139616
692.717	0.0140585
692.795	0.0141208
692.873	0.0142566
692.951	0.0144402
693.030	0.0146326
693.108	0.0148557
693.186	0.0152811
693.264	0.0154646
693.342	0.0157204
693.420	0.0160552
693.498	0.0164915
693.576	0.0167200
693.655	0.0170789
693.733	0.0174889
693.811	0.0176027
693.889	0.0179546
693.967	0.0182095
694.045	0.0182941
694.123	0.0183833
694.201	0.0185001
694.280	0.0185489
694.358	0.0184251
694.436	0.0181602
694.514	0.0179093
694.592	0.0177202
694.670	0.0174480
694.748	0.0170748
694.826	0.0166451
694.905	0.0163010
694.983	0.0157782
695.061	0.0154280
695.139	0.0149191
695.217	0.0145822
695.295	0.0142029
695.373	0.0138893
695.451	0.0135772
695.530	0.0131446
695.608	0.0128111
695.686	0.0128068
695.764	0.0125832
695.842	0.0125314
695.920	0.0125948
695.998	0.0126412
696.076	0.0128730
696.155	0.0130396
696.233	0.0133714
696.311	0.0135303
696.389	0.0138367
696.467	0.0143758
696.545	0.0146641
696.623	0.0151055
696.701	0.0155204
696.780	0.0160051
696.858	0.0162380
696.936	0.0166992
697.014	0.0169915
697.092	0.0172057
697.170	0.0174833
697.248	0.0177338
697.326	0.0177700
697.405	0.0178623
697.483	0.0177183
697.561	0.0177103
697.639	0.0174844
697.717	0.0172594
697.795	0.0170937
697.873	0.0168705
697.951	0.0165001
698.030	0.0161607
698.108	0.0158277
698.186	0.0155859
698.264	0.0152888
698.342	0.0150906
698.420	0.0149590
698.498	0.0148611
698.576	0.0149449
698.655	0.0147004
698.733	0.0147574
698.811	0.0145177
698.889	0.0147091
698.967	0.0148485
699.045	0.0150483
699.123	0.0149054
699.201	0.0151549
699.280	0.0151014
699.358	0.0152140
699.436	0.0153548
699.514	0.0155106
699.592	0.0153820
699.670	0.0154429
699.748	0.0155666
699.826	0.0154010
699.905	0.0156152
699.983	0.0157918
700.061	0.0155824
700.139	0.0154854
700.217	0.0155922
700.295	0.0154868
700.373	0.0152959
700.451	0.0153022
700.530	0.0152570
700.608	0.0150558
700.686	0.0151096
700.764	0.0150861
700.842	0.0150019
700.920	0.0150853
700.998	0.0151533
701.076	0.0152438
701.155	0.0152891
701.233	0.0152809
701.311	0.0154457
701.389	0.0155055
701.467	0.0156104
701.545	0.0156177
701.623	0.0157357
701.701	0.0157417
701.780	0.0158233
701.858	0.0159089
701.936	0.0159238
702.014	0.0159994
702.092	0.0159274
702.170	0.0160051
702.248	0.0160773
702.326	0.0161584
702.405	0.0160406
702.483	0.0160533
702.561	0.0161169
702.639	0.0161204
702.717	0.0160691
702.795	0.0160315
702.873	0.0159088
702.951	0.0157936
703.030	0.0157703
703.108	0.0157739
703.186	0.0156291
703.264	0.0154946
703.342	0.0155401
703.420	0.0152892
703.498	0.0152728
703.576	0.0150119
703.655	0.0148316
703.733	0.0145539
703.811	0.0144781
703.889	0.0143501
703.967	0.0142487
704.045	0.0140264
704.123	0.0142377
704.201	0.0141396
704.280	0.0141714
704.358	0.0143263
704.436	0.0144284
704.514	0.0145257
704.592	0.0145242
704.670	0.0146506
704.748	0.0148164
704.826	0.0150311
704.905	0.0152471
704.983	0.0153065
705.061	0.0153886
705.139	0.0153665
705.217	0.0154646
705.295	0.0155994
705.373	0.0155329
705.451	0.0156795
705.530	0.0157868
705.608	0.0158221
705.686	0.0159409
705.764	0.0162077
705.842	0.0164395
705.920	0.0162617
705.998	0.0163528
706.076	0.0164448
706.155	0.0163685
706.233	0.0163803
706.311	0.0164861
706.389	0.0164854
706.467	0.0163313
706.545	0.0163328
706.623	0.0163795
706.701	0.0164204
706.780	0.0161710
706.858	0.0160870
706.936	0.0160259
707.014	0.0159068
707.092	0.0158049
707.170	0.0157991
707.248	0.0157073
707.326	0.0154379
707.405	0.0155354
707.483	0.0153445
707.561	0.0152154
707.639	0.0152631
707.717	0.0150837
707.795	0.0150903
707.873	0.0150114
707.951	0.0149451
708.030	0.0149471
708.108	0.0148737
708.186	0.0148931
708.264	0.0149295
708.342	0.0148519
708.420	0.0149134
708.498	0.0148924
708.576	0.0148698
708.655	0.0150842
708.733	0.0149819
708.811	0.0152026
708.889	0.0151742
708.967	0.0152113
709.045	0.0151447
709.123	0.0152994
709.201	0.0152114
709.280	0.0152192
709.358	0.0153111
709.436	0.0152807
709.514	0.0155728
709.592	0.0156395
709.670	0.0156478
709.748	0.0155027
709.826	0.0156121
709.905	0.0156933
709.983	0.0155915
710.061	0.0154339
710.139	0.0155101
710.217	0.0154812
710.295	0.0155128
710.373	0.0155328
710.451	0.0154360
710.530	0.0153772
710.608	0.0153311
710.686	0.0154298
710.764	0.0154013
710.842	0.0153822
710.920	0.0152919
710.998	0.0153184
711.076	0.0154717
711.155	0.0155618
711.233	0.0154695
711.311	0.0155448
711.389	0.0154305
711.467	0.0156849
711.545	0.0155767
711.623	0.0155997
711.701	0.0159226
711.780	0.0157896
711.858	0.0158599
711.936	0.0158723
712.014	0.0160567
712.092	0.0160937
712.170	0.0161075
712.248	0.0161833
712.326	0.0162825
712.405	0.0162930
712.483	0.0163143
712.561	0.0162567
712.639	0.0160971
712.717	0.0161431
712.795	0.0160340
712.873	0.0159498
712.951	0.0157246
713.030	0.0155682
713.108	0.0152404
713.186	0.0152454
713.264	0.0149260
713.342	0.0148106
713.420	0.0146350
713.498	0.0144582
713.576	0.0143913
713.655	0.0142700
713.733	0.0142946
713.811	0.0142725
713.889	0.0144852
713.967	0.0145527
714.045	0.0147384
714.123	0.0148862
714.201	0.0150187
714.280	0.0150627
714.358	0.0153367
714.436	0.0154861
714.514	0.0156898
714.592	0.0158325
714.670	0.0159015
714.748	0.0161150
714.826	0.0160674
714.905	0.0159556
714.983	0.0158350
715.061	0.0158173
715.139	0.0157279
715.217	0.0154692
715.295	0.0152901
715.373	0.0152367
715.451	0.0151957
715.530	0.0150262
715.608	0.0150054
715.686	0.0149897
715.764	0.0150902
715.842	0.0152381
715.920	0.0153398
715.998	0.0154752
716.076	0.0156110
716.155	0.0159393
716.233	0.0160252
716.311	0.0162232
716.389	0.0162617
716.467	0.0165311
716.545	0.0167187
716.623	0.0168211
716.701	0.0169204
716.780	0.0169346
716.858	0.0167914
716.936	0.0167111
717.014	0.0167391
717.092	0.0165348
717.170	0.0162349
717.248	0.0159509
717.326	0.0157590
717.405	0.0153513
717.483	0.0150654
717.561	0.0147488
717.639	0.0147243
717.717	0.0146112
717.795	0.0143330
717.873	0.0142327
717.951	0.0142667
718.030	0.0143259
718.108	0.0142766
718.186	0.0145336
718.264	0.0144566
718.342	0.0146828
718.420	0.0147645
718.498	0.0149104
718.576	0.0150027
718.655	0.0151668
718.733	0.0151688
718.811	0.0153208
718.889	0.0151262
718.967	0.0152279
719.045	0.0153586
719.123	0.0152208
719.201	0.0151100
719.280	0.0152697
719.358	0.0150987
719.436	0.0153070
719.514	0.0152934
719.592	0.0153640
719.670	0.0155075
719.748	0.0153763
719.826	0.0155068
719.905	0.0157459
719.983	0.0158521
720.061	0.0159029
720.139	0.0160187
720.217	0.0163227
720.295	0.0163602
720.373	0.0164220
720.451	0.0165247
720.530	0.0166957
720.608	0.0165697
720.686	0.0165135
720.764	0.0165682
720.842	0.0166555
720.920	0.0165878
720.998	0.0165002
721.076	0.0162653
721.155	0.0161333
721.233	0.0161581
721.311	0.0160083
721.389	0.0158398
721.467	0.0158398
721.545	0.0157162
721.623	0.0153739
721.701	0.0153516
721.780	0.0152298
721.858	0.0150167
721.936	0.0150642
722.014	0.0149332
722.092	0.0149386
722.170	0.0150408
722.248	0.0148833
722.326	0.0149001
722.405	0.0149160
722.483	0.0150143
722.561	0.0149854
722.639	0.0150590
722.717	0.0150151
722.795	0.0150201
722.873	0.0149693
722.951	0.0150415
723.030	0.0149588
723.108	0.0149931
723.186	0.0149502
723.264	0.0147943
723.342	0.0150373
723.420	0.0149691
723.498	0.0151177
723.576	0.0152885
723.655	0.0150831
723.733	0.0151604
723.811	0.0153517
723.889	0.0153316
723.967	0.0153745
724.045	0.0153608
724.123	0.0153816
724.201	0.0154303
724.280	0.0153604
724.358	0.0153227
724.436	0.0154408
724.514	0.0154895
724.592	0.0154102
724.670	0.0154103
724.748	0.0154984
724.826	0.0154722
724.905	0.0155835
724.983	0.0155962
725.061	0.0156348
725.139	0.0157439
725.217	0.0157364
725.295	0.0157950
725.373	0.0158529
725.451	0.0158180
725.530	0.0158647
725.608	0.0158407
725.686	0.0158662
725.764	0.0156853
725.842	0.0159116
725.920	0.0158749
725.998	0.0158578
726.076	0.0158319
726.155	0.0157640
726.233	0.0158393
726.311	0.0157809
726.389	0.0157534
726.467	0.0158902
726.545	0.0157660
726.623	0.0157829
726.701	0.0157911
726.780	0.0157219
726.858	0.0156838
726.936	0.0156748
727.014	0.0155142
727.092	0.0153675
727.170	0.0151678
727.248	0.0152055
727.326	0.0151316
727.405	0.0150311
727.483	0.0150618
727.561	0.0149998
727.639	0.0151196
727.717	0.0150237
727.795	0.0149989
727.873	0.0151903
727.951	0.0150061
728.030	0.0151863
728.108	0.0152371
728.186	0.0152625
728.264	0.0153773
728.342	0.0154489
728.420	0.0153916
728.498	0.0153918
728.576	0.0153560
728.655	0.0151998
728.733	0.0154285
728.811	0.0152367
728.889	0.0152278
728.967	0.0151979
729.045	0.0152852
729.123	0.0152038
729.201	0.0153053
729.280	0.0151455
729.358	0.0153345
729.436	0.0152805
729.514	0.0153878
729.592	0.0153690
729.670	0.0154408
729.748	0.0155550
729.826	0.0155952
729.905	0.0155453
729.983	0.0156968
730.061	0.0157994
730.139	0.0157078
730.217	0.0158609
730.295	0.0157952
730.373	0.0159120
730.451	0.0157095
730.530	0.0157036
730.608	0.0157374
730.686	0.0158225
730.764	0.0157126
730.842	0.0153914
730.920	0.0154969
730.998	0.0155010
731.076	0.0153366
731.155	0.0153310
731.233	0.0152343
731.311	0.0152969
731.389	0.0152515
731.467	0.0152367
731.545	0.0153395
731.623	0.0152485
731.701	0.0153817
731.780	0.0154958
731.858	0.0156179
731.936	0.0156428
732.014	0.0155753
732.092	0.0156480
732.170	0.0158625
732.248	0.0158163
732.326	0.0158698
732.405	0.0158847
732.483	0.0158138
732.561	0.0157858
732.639	0.0158311
732.717	0.0157818
732.795	0.0155213
732.873	0.0156197
732.951	0.0155933
733.030	0.0154312
733.108	0.0153950
733.186	0.0152013
733.264	0.0152286
733.342	0.0151778
733.420	0.0152220
733.498	0.0152203
733.576	0.0151993
733.655	0.0152024
733.733	0.0153079
733.811	0.0152467
733.889	0.0152662
733.967	0.0153939
734.045	0.0152956
734.123	0.0154488
734.201	0.0155211
734.280	0.0155138
734.358	0.0155322
734.436	0.0154543
734.514	0.0154259
734.592	0.0153671
734.670	0.0152720
734.748	0.0151772
734.826	0.0151569
734.905	0.0149384
734.983	0.0149026
735.061	0.0147682
735.139	0.0149186
735.217	0.0148375
735.295	0.0148997
735.373	0.0149542
735.451	0.0147855
735.530	0.0148280
735.608	0.0148525
735.686	0.0149123
735.764	0.0150359
735.842	0.0150433
735.920	0.0150735
735.998	0.0152016
736.076	0.0153802
736.155	0.0153551
736.233	0.0154662
736.311	0.0154021
736.389	0.0155136
736.467	0.0156289
736.545	0.0157664
736.623	0.0157106
736.701	0.0156721
736.780	0.0156239
736.858	0.0157490
736.936	0.0157819
737.014	0.0155720
737.092	0.0155470
737.170	0.0155545
737.248	0.0155331
737.326	0.0155083
737.405	0.0154942
737.483	0.0155092
737.561	0.0156040
737.639	0.0155042
737.717	0.0155141
737.795	0.0156497
737.873	0.0155531
737.951	0.0155725
738.030	0.0155264
738.108	0.0155406
738.186	0.0156915
738.264	0.0156774
738.342	0.0156134
738.420	0.0155991
738.498	0.0156711
738.576	0.0156022
738.655	0.0155253
738.733	0.0154681
738.811	0.0153753
738.889	0.0154401
738.967	0.0155393
739.045	0.0154060
739.123	0.0154276
739.201	0.0153027
739.280	0.0150341
739.358	0.0150670
739.436	0.0151051
739.514	0.0150376
739.592	0.0151700
739.670	0.0151212
739.748	0.0150481
739.826	0.0149892
739.905	0.0150705
739.983	0.0151318
740.061	0.0151800
740.139	0.0153016
740.217	0.0151440
740.295	0.0152690
740.373	0.0152401
740.451	0.0153762
740.530	0.0153697
740.608	0.0154214
740.686	0.0154745
740.764	0.0153712
740.842	0.0154744
740.920	0.0153534
740.998	0.0153785
741.076	0.0152576
741.155	0.0153689
741.233	0.0152113
741.311	0.0151667
741.389	0.0151464
741.467	0.0152269
741.545	0.0151124
741.623	0.0151831
741.701	0.0151795
741.780	0.0151956
741.858	0.0153418
741.936	0.0152845
742.014	0.0153939
742.092	0.0153236
742.170	0.0154771
742.248	0.0154751
742.326	0.0155044
742.405	0.0155555
742.483	0.0155653
742.561	0.0157290
742.639	0.0158813
742.717	0.0157827
742.795	0.0157207
742.873	0.0158630
742.951	0.0159199
743.030	0.0160030
743.108	0.0158450
743.186	0.0158585
743.264	0.0158552
743.342	0.0158101
743.420	0.0158006
743.498	0.0157047
743.576	0.0156573
743.655	0.0155585
743.733	0.0155446
743.811	0.0155276
743.889	0.0154288
743.967	0.0153786
744.045	0.0154433
744.123	0.0153318
744.201	0.0153393
744.280	0.0153415
744.358	0.0153745
744.436	0.0152596
744.514	0.0154332
744.592	0.0152588
744.670	0.0153602
744.748	0.0152559
744.826	0.0152874
744.905	0.0152573
744.983	0.0152380
745.061	0.0151583
745.139	0.0152243
745.217	0.0151582
745.295	0.0151770
745.373	0.0153434
745.451	0.0152435
745.530	0.0153554
745.608	0.0155795
745.686	0.0154594
745.764	0.0155910
745.842	0.0159041
745.920	0.0158585
745.998	0.0158592
746.076	0.0160139
746.155	0.0159470
746.233	0.0159280
746.311	0.0159041
746.389	0.0158523
746.467	0.0156554
746.545	0.0157789
746.623	0.0156100
746.701	0.0154834
746.780	0.0155279
746.858	0.0152784
746.936	0.0154187
747.014	0.0152962
747.092	0.0153189
747.170	0.0153900
747.248	0.0153625
747.326	0.0153094
747.405	0.0152885
747.483	0.0153818
747.561	0.0153687
747.639	0.0153519
747.717	0.0155598
747.795	0.0155178
747.873	0.0154437
747.951	0.0154208
748.030	0.0154404
748.108	0.0154774
748.186	0.0153930
748.264	0.0152599
748.342	0.0153400
748.420	0.0153305
748.498	0.0153414
748.576	0.0151997
748.655	0.0152385
748.733	0.0153648
748.811	0.0154306
748.889	0.0153678
748.967	0.0154719
749.045	0.0152085
749.123	0.0154575
749.201	0.0154303
749.280	0.0155353
749.358	0.0156533
749.436	0.0155920
749.514	0.0155887
749.592	0.0154827
749.670	0.0155921
749.748	0.0157278
749.826	0.0157173
749.905	0.0156776
749.983	0.0158005
750.061	0.0159536
750.139	0.0160746
750.217	0.0160397
750.295	0.0160034
750.373	0.0160217
750.451	0.0159277
750.530	0.0160326
750.608	0.0161619
750.686	0.0159436
750.764	0.0160158
750.842	0.0158419
750.920	0.0158199
750.998	0.0157388
751.076	0.0157144
751.155	0.0156707
751.233	0.0155470
751.311	0.0156075
751.389	0.0154696
751.467	0.0153348
751.545	0.0153198
751.623	0.0153045
751.701	0.0154030
751.780	0.0153065
751.858	0.0152277
751.936	0.0153145
752.014	0.0153021
752.092	0.0153262
752.170	0.0153515
752.248	0.0155035
752.326	0.0154011
752.405	0.0154998
752.483	0.0155569
752.561	0.0156204
752.639	0.0154397
752.717	0.0155682
752.795	0.0155085
752.873	0.0154975
752.951	0.0154251
753.030	0.0155191
753.108	0.0155053
753.186	0.0155319
753.264	0.0155215
753.342	0.0154801
753.420	0.0153451
753.498	0.0152862
753.576	0.0153222
753.655	0.0152071
753.733	0.0153432
753.811	0.0153226
753.889	0.0153854
753.967	0.0154088
754.045	0.0155611
754.123	0.0155785
754.201	0.0155340
754.280	0.0155566
754.358	0.0156856
754.436	0.0155688
754.514	0.0155339
754.592	0.0155740
754.670	0.0156703
754.748	0.0156326
754.826	0.0157936
754.905	0.0155933
754.983	0.0156528
755.061	0.0157371
755.139	0.0155348
755.217	0.0155357
755.295	0.0156208
755.373	0.0157262
755.451	0.0155061
755.530	0.0155585
755.608	0.0153998
755.686	0.0152455
755.764	0.0151993
755.842	0.0151957
755.920	0.0150292
755.998	0.0149756
756.076	0.0150025
756.155	0.0150470
756.233	0.0151117
756.311	0.0151845
756.389	0.0151735
756.467	0.0151299
756.545	0.0150745
756.623	0.0153551
756.701	0.0153857
756.780	0.0153519
756.858	0.0153835
756.936	0.0154572
757.014	0.0155982
757.092	0.0155405
757.170	0.0154939
757.248	0.0153866
757.326	0.0154423
757.405	0.0155091
757.483	0.0153714
757.561	0.0154858
757.639	0.0151870
757.717	0.0152858
757.795	0.0153317
757.873	0.0152564
757.951	0.0152584
758.030	0.0150734
758.108	0.0152441
758.186	0.0151419
758.264	0.0151826
758.342	0.0151297
758.420	0.0152120
758.498	0.0151145
758.576	0.0151946
758.655	0.0152372
758.733	0.0153075
758.811	0.0152688
758.889	0.0153186
758.967	0.0154069
759.045	0.0154738
759.123	0.0155190
759.201	0.0155314
759.280	0.0154179
759.358	0.0156450
759.436	0.0155276
759.514	0.0155583
759.592	0.0155904
759.670	0.0156300
759.748	0.0154079
759.826	0.0155391
759.905	0.0154549
759.983	0.0154349
760.061	0.0154381
760.139	0.0155112
760.217	0.0155723
760.295	0.0154412
760.373	0.0154969
760.451	0.0155459
760.530	0.0156892
760.608	0.0155317
760.686	0.0153841
760.764	0.0154187
760.842	0.0155128
760.920	0.0154539
760.998	0.0154215
761.076	0.0154193
761.155	0.0154601
761.233	0.0153365
761.311	0.0154682
761.389	0.0155199
761.467	0.0154623
761.545	0.0155199
761.623	0.0155357
761.701	0.0155795
761.780	0.0157252
761.858	0.0156556
761.936	0.0156201
762.014	0.0156295
762.092	0.0156332
762.170	0.0155927
762.248	0.0156527
762.326	0.0155376
762.405	0.0155652
762.483	0.0155360
762.561	0.0155024
762.639	0.0154797
762.717	0.0154652
762.795	0.0153866
762.873	0.0152999
762.951	0.0153091
763.030	0.0153416
763.108	0.0153004
763.186	0.0153384
763.264	0.0152754
763.342	0.0152711
763.420	0.0153104
763.498	0.0151635
763.576	0.0152524
763.655	0.0152998
763.733	0.0152312
763.811	0.0152740
763.889	0.0152889
763.967	0.0152522
764.045	0.0151906
764.123	0.0153101
764.201	0.0154868
764.280	0.0157262
764.358	0.0155795
764.436	0.0156333
764.514	0.0157857
764.592	0.0157315
764.670	0.0157664
764.748	0.0156764
764.826	0.0157293
764.905	0.0156591
764.983	0.0157455
765.061	0.0158174
765.139	0.0156186
765.217	0.0154630
765.295	0.0155233
765.373	0.0155952
765.451	0.0155118
765.530	0.0155804
765.608	0.0154705
765.686	0.0154325
765.764	0.0153970
765.842	0.0154069
765.920	0.0153953
765.998	0.0153216
766.076	0.0154306
766.155	0.0153820
766.233	0.0152544
766.311	0.0154044
766.389	0.0153490
766.467	0.0152850
766.545	0.0154345
766.623	0.0152140
766.701	0.0153191
766.780	0.0153355
766.858	0.0154439
766.936	0.0153909
767.014	0.0154172
767.092	0.0154406
767.170	0.0154270
767.248	0.0156161
767.326	0.0155827
767.405	0.0156143
767.483	0.0157607
767.561	0.0156837
767.639	0.0155712
767.717	0.0157077
767.795	0.0156551
767.873	0.0156318
767.951	0.0155566
768.030	0.0155427
768.108	0.0155624
768.186	0.0155974
768.264	0.0155537
768.342	0.0155897
768.420	0.0156379
768.498	0.0155585
768.576	0.0155820
768.655	0.0155371
768.733	0.0157070
768.811	0.0156979
768.889	0.0157230
768.967	0.0157140
769.045	0.0156019
769.123	0.0156815
769.201	0.0157533
769.280	0.0157276
769.358	0.0158198
769.436	0.0157018
769.514	0.0157625
769.592	0.0157938
769.670	0.0157976
769.748	0.0156338
769.826	0.0157211
769.905	0.0158125
769.983	0.0157565
770.061	0.0155503
770.139	0.0156637
770.217	0.0157549
770.295	0.0157109
770.373	0.0155404
770.451	0.0156033
770.530	0.0156182
770.608	0.0155722
770.686	0.0155924
770.764	0.0155451
770.842	0.0154699
770.920	0.0153564
770.998	0.0155183
771.076	0.0152320
771.155	0.0153557
771.233	0.0153304
771.311	0.0153767
771.389	0.0153698
771.467	0.0152827
771.545	0.0152528
771.623	0.0152970
771.701	0.0154688
771.780	0.0155109
771.858	0.0154562
771.936	0.0155128
772.014	0.0155173
772.092	0.0155820
772.170	0.0154896
772.248	0.0154587
772.326	0.0155784
772.405	0.0155817
772.483	0.0156212
772.561	0.0157185
772.639	0.0156110
772.717	0.0155828
772.795	0.0156908
772.873	0.0157213
772.951	0.0155700
773.030	0.0156710
773.108	0.0155710
773.186	0.0156864
773.264	0.0157410
773.342	0.0155881
773.420	0.0155605
773.498	0.0155319
773.576	0.0155022
773.655	0.0155929
773.733	0.0154881
773.811	0.0155064
773.889	0.0153776
773.967	0.0153763
774.045	0.0154556
774.123	0.0154465
774.201	0.0152819
774.280	0.0153899
774.358	0.0154346
774.436	0.0154041
774.514	0.0154920
774.592	0.0155038
774.670	0.0154758
774.748	0.0154617
774.826	0.0156847
774.905	0.0156076
774.983	0.0157896
775.061	0.0158504
775.139	0.0156634
775.217	0.0158485
775.295	0.0158546
775.373	0.0158179
775.451	0.0158147
775.530	0.0159655
775.608	0.0158054
775.686	0.0157334
775.764	0.0157970
775.842	0.0156657
775.920	0.0155842
775.998	0.0155388
776.076	0.0155628
776.155	0.0156321
776.233	0.0155183
776.311	0.0154468
776.389	0.0156315
776.467	0.0155702
776.545	0.0155235
776.623	0.0156300
776.701	0.0154834
776.780	0.0154534
776.858	0.0153520
776.936	0.0156027
777.014	0.0155953
777.092	0.0154326
777.170	0.0153462
777.248	0.0153608
777.326	0.0154348
777.405	0.0153288
777.483	0.0153191
777.561	0.0153983
777.639	0.0154577
777.717	0.0152728
777.795	0.0153449
777.873	0.0153130
777.951	0.0153784
778.030	0.0153506
778.108	0.0153500
778.186	0.0155340
778.264	0.0154647
778.342	0.0153390
778.420	0.0154195
778.498	0.0152833
778.576	0.0152441
778.655	0.0154917
778.733	0.0155369
778.811	0.0153828
778.889	0.0153569
778.967	0.0155737
779.045	0.0155838
779.123	0.0154977
779.201	0.0155125
779.280	0.0154916
779.358	0.0154162
779.436	0.0153507
779.514	0.0153650
779.592	0.0153982
779.670	0.0155384
779.748	0.0154696
779.826	0.0153148
779.905	0.0152843
779.983	0.0154140
780.061	0.0153894
780.139	0.0154003
780.217	0.0153057
780.295	0.0154430
780.373	0.0153563
780.451	0.0154088
780.530	0.0151980
780.608	0.0153416
780.686	0.0154413
780.764	0.0154070
780.842	0.0153269
780.920	0.0152494
780.998	0.0154382
781.076	0.0153555
781.155	0.0154056
781.233	0.0153907
781.311	0.0153873
781.389	0.0154783
781.467	0.0154906
781.545	0.0155313
781.623	0.0153540
781.701	0.0154648
781.780	0.0152605
781.858	0.0154678
781.936	0.0155568
782.014	0.0153733
782.092	0.0153955
782.170	0.0153981
782.248	0.0155312
782.326	0.0154269
782.405	0.0153579
782.483	0.0154278
782.561	0.0153430
782.639	0.0153856
782.717	0.0154987
782.795	0.0154604
782.873	0.0154637
782.951	0.0155329
783.030	0.0153446
783.108	0.0153932
783.186	0.0153770
783.264	0.0154175
783.342	0.0153633
783.420	0.0153924
783.498	0.0153059
783.576	0.0153577
783.655	0.0153526
783.733	0.0153357
783.811	0.0154429
783.889	0.0153648
783.967	0.0154116
784.045	0.0153568
784.123	0.0153675
784.201	0.0153463
784.280	0.0153902
784.358	0.0153272
784.436	0.0153857
784.514	0.0152177
784.592	0.0152873
784.670	0.0152797
784.748	0.0152814
784.826	0.0154714
784.905	0.0154940
784.983	0.0154156
785.061	0.0154725
785.139	0.0153635
785.217	0.0154140
785.295	0.0155710
785.373	0.0156284
785.451	0.0155392
785.530	0.0155148
785.608	0.0156123
785.686	0.0155599
785.764	0.0155740
785.842	0.0157130
785.920	0.0156654
785.998	0.0155584
786.076	0.0155075
786.155	0.0156385
786.233	0.0156813
786.311	0.0157159
786.389	0.0156879
786.467	0.0156189
786.545	0.0156806
786.623	0.0156512
786.701	0.0155769
786.780	0.0155434
786.858	0.0154654
786.936	0.0155989
787.014	0.0154031
787.092	0.0154838
787.170	0.0154211
787.248	0.0154742
787.326	0.0154079
787.405	0.0154455
787.483	0.0154464
787.561	0.0154510
787.639	0.0153636
787.717	0.0153243
787.795	0.0153125
787.873	0.0154771
787.951	0.0151695
788.030	0.0154494
788.108	0.0153205
788.186	0.0152451
788.264	0.0153561
788.342	0.0153744
788.420	0.0153226
788.498	0.0154290
788.576	0.0153276
788.655	0.0154175
788.733	0.0154127
788.811	0.0153642
788.889	0.0153275
788.967	0.0153411
789.045	0.0153025
789.123	0.0153269
789.201	0.0154784
789.280	0.0154936
789.358	0.0154458
789.436	0.0153969
789.514	0.0154984
789.592	0.0154237
789.670	0.0155800
789.748	0.0154165
789.826	0.0155090
789.905	0.0156561
789.983	0.0156641
790.061	0.0154183
790.139	0.0156672
790.217	0.0156898
790.295	0.0157487
790.373	0.0157903
790.451	0.0157481
790.530	0.0158302
790.608	0.0159137
790.686	0.0159446
790.764	0.0160042
790.842	0.0159952
790.920	0.0158811
790.998	0.0158843
791.076	0.0158411
791.155	0.0158601
791.233	0.0159116
791.311	0.0158890
791.389	0.0158929
791.467	0.0157026
791.545	0.0156519
791.623	0.0157775
791.701	0.0157089
791.780	0.0154963
791.858	0.0152953
791.936	0.0153369
792.014	0.0152542
792.092	0.0152286
792.170	0.0151963
792.248	0.0152935
792.326	0.0151836
792.405	0.0151872
792.483	0.0151220
792.561	0.0151268
792.639	0.0152444
792.717	0.0153835
792.795	0.0151880
792.873	0.0153185
792.951	0.0153933
793.030	0.0153923
793.108	0.0153699
793.186	0.0155566
793.264	0.0156936
793.342	0.0156486
793.420	0.0155653
793.498	0.0155435
793.576	0.0156892
793.655	0.0156322
793.733	0.0157916
793.811	0.0157915
793.889	0.0157190
793.967	0.0159180
794.045	0.0156299
794.123	0.0156938
794.201	0.0159454
794.280	0.0159286
794.358	0.0157919
794.436	0.0158646
794.514	0.0157745
794.592	0.0158179
794.670	0.0156704
794.748	0.0156039
794.826	0.0156857
794.905	0.0155675
794.983	0.0156509
795.061	0.0155447
795.139	0.0153339
795.217	0.0155244
795.295	0.0153986
795.373	0.0154714
795.451	0.0153841
795.530	0.0154526
795.608	0.0153891
795.686	0.0152441
795.764	0.0153823
795.842	0.0153999
795.920	0.0154283
795.998	0.0154512
796.076	0.0155815
796.155	0.0156149
796.233	0.0155145
796.311	0.0155736
796.389	0.0155425
796.467	0.0156257
796.545	0.0156080
796.623	0.0154728
796.701	0.0155364
796.780	0.0156226
796.858	0.0156812
796.936	0.0153983
797.014	0.0155293
797.092	0.0156567
797.170	0.0154747
797.248	0.0153894
797.326	0.0154769
797.405	0.0155244
797.483	0.0155719
797.561	0.0154380
797.639	0.0154760
797.717	0.0154530
797.795	0.0155160
797.873	0.0154050
797.951	0.0152934
798.030	0.0153496
798.108	0.0152842
798.186	0.0152517
798.264	0.0152807
798.342	0.0152541
798.420	0.0153037
798.498	0.0154303
798.576	0.0153052
798.655	0.0153452
798.733	0.0154442
798.811	0.0153344
798.889	0.0154965
798.967	0.0154487
799.045	0.0155495
799.123	0.0156628
799.201	0.0155714
799.280	0.0155495
799.358	0.0155770
799.436	0.0155512
799.514	0.0155399
799.592	0.0153643
799.670	0.0154198
799.748	0.0153772
799.826	0.0153882
799.905	0.0153553
799.983	0.0154848
800.061	0.0153534
800.139	0.0153651
800.217	0.0153770
800.295	0.0153905
800.373	0.0154175
800.451	0.0152505
800.530	0.0153677
800.608	0.0154288
800.686	0.0154455
800.764	0.0154037
800.842	0.0153822
800.920	0.0155556
800.998	0.0155498
801.076	0.0154327
801.155	0.0155357
801.233	0.0154834
801.311	0.0154098
801.389	0.0154352
801.467	0.0155508
801.545	0.0154632
801.623	0.0153712
801.701	0.0155018
801.780	0.0154179
801.858	0.0154771
801.936	0.0155312
802.014	0.0153963
802.092	0.0154494
802.170	0.0155569
802.248	0.0154901
802.326	0.0154282
802.405	0.0155483
802.483	0.0156253
802.561	0.0155854
802.639	0.0154922
802.717	0.0156202
802.795	0.0157180
802.873	0.0156213
802.951	0.0155681
803.030	0.0155957
803.108	0.0155181
803.186	0.0154111
803.264	0.0155014
803.342	0.0153864
803.420	0.0154496
803.498	0.0154017
803.576	0.0153691
803.655	0.0152818
803.733	0.0152987
803.811	0.0152959
803.889	0.0153702
803.967	0.0153551
804.045	0.0152173
804.123	0.0152036
804.201	0.0152394
804.280	0.0152559
804.358	0.0152725
804.436	0.0152470
804.514	0.0152098
804.592	0.0152447
804.670	0.0151736
804.748	0.0152682
804.826	0.0151624
804.905	0.0152013
804.983	0.0150490
805.061	0.0151204
805.139	0.0150076
805.217	0.0152174
805.295	0.0151099
805.373	0.0152483
805.451	0.0152988
805.530	0.0151815
805.608	0.0152483
805.686	0.0153125
805.764	0.0152943
805.842	0.0152283
805.920	0.0154113
805.998	0.0154323
806.076	0.0153385
806.155	0.0153290
806.233	0.0154733
806.311	0.0155816
806.389	0.0154639
806.467	0.0155111
806.545	0.0154839
806.623	0.0156158
806.701	0.0154185
806.780	0.0154651
806.858	0.0155692
806.936	0.0155491
807.014	0.0155820
807.092	0.0156530
807.170	0.0154772
807.248	0.0155386
807.326	0.0155146
807.405	0.0153688
807.483	0.0154772
807.561	0.0155767
807.639	0.0154878
807.717	0.0154523
807.795	0.0154301
807.873	0.0154099
807.951	0.0154951
808.030	0.0153631
808.108	0.0154317
808.186	0.0154500
808.264	0.0154380
808.342	0.0153886
808.420	0.0155362
808.498	0.0157176
808.576	0.0155142
808.655	0.0156033
808.733	0.0155440
808.811	0.0155477
808.889	0.0155899
808.967	0.0154842
809.045	0.0157062
809.123	0.0157020
809.201	0.0156586
809.280	0.0156282
809.358	0.0155530
809.436	0.0155415
809.514	0.0156267
809.592	0.0155210
809.670	0.0155546
809.748	0.0154414
809.826	0.0153733
809.905	0.0153461
809.983	0.0153432
810.061	0.0154573
810.139	0.0153381
810.217	0.0151826
810.295	0.0153902
810.373	0.0153149
810.451	0.0152044
810.530	0.0152747
810.608	0.0154494
810.686	0.0152512
810.764	0.0153310
810.842	0.0154522
810.920	0.0154270
810.998	0.0153345
811.076	0.0154057
811.155	0.0153535
811.233	0.0154618
811.311	0.0154744
811.389	0.0154276
811.467	0.0153992
811.545	0.0153769
811.623	0.0153070
811.701	0.0153960
811.780	0.0154475
811.858	0.0153978
811.936	0.0153989
812.014	0.0154703
812.092	0.0154072
812.170	0.0155741
812.248	0.0156675
812.326	0.0155620
812.405	0.0156848
812.483	0.0156142
812.561	0.0157343
812.639	0.0157378
812.717	0.0155554
812.795	0.0155874
812.873	0.0155721
812.951	0.0156023
813.030	0.0156366
813.108	0.0155753
813.186	0.0153624
813.264	0.0157050
813.342	0.0154915
813.420	0.0157151
813.498	0.0155036
813.576	0.0155487
813.655	0.0154665
813.733	0.0154191
813.811	0.0153355
813.889	0.0154138
813.967	0.0153062
814.045	0.0153100
814.123	0.0152937
814.201	0.0155729
814.280	0.0154950
814.358	0.0152774
814.436	0.0155759
814.514	0.0154704
814.592	0.0154314
814.670	0.0155476
814.748	0.0154554
814.826	0.0155225
814.905	0.0153358
814.983	0.0155171
815.061	0.0155186
815.139	0.0153954
815.217	0.0155946
815.295	0.0155846
815.373	0.0154812
815.451	0.0154726
815.530	0.0154907
815.608	0.0155151
815.686	0.0154829
815.764	0.0155923
815.842	0.0155608
815.920	0.0157008
815.998	0.0155421
816.076	0.0155566
816.155	0.0157030
816.233	0.0155428
816.311	0.0156086
816.389	0.0156637
816.467	0.0156641
816.545	0.0156549
816.623	0.0155430
816.701	0.0156113
816.780	0.0156312
816.858	0.0155709
816.936	0.0155674
817.014	0.0156760
817.092	0.0157964
817.170	0.0158019
817.248	0.0157670
817.326	0.0156765
817.405	0.0157298
817.483	0.0159119
817.561	0.0159388
817.639	0.0157050
817.717	0.0157539
817.795	0.0157581
817.873	0.0158002
817.951	0.0157275
818.030	0.0156936
818.108	0.0156020
818.186	0.0157185
818.264	0.0156631
818.342	0.0155588
818.420	0.0157137
818.498	0.0155942
818.576	0.0154018
818.655	0.0155825
818.733	0.0156102
818.811	0.0155101
818.889	0.0154681
818.967	0.0155981
819.045	0.0155081
819.123	0.0155923
819.201	0.0155274
819.280	0.0155370
819.358	0.0154517
819.436	0.0155758
819.514	0.0153613
819.592	0.0154929
819.670	0.0155709
819.748	0.0154668
819.826	0.0155192
819.905	0.0154973
819.983	0.0154343
820.061	0.0155222
820.139	0.0155581
820.217	0.0155143
820.295	0.0153888
820.373	0.0155492
820.451	0.0155209
820.530	0.0153541
820.608	0.0155005
820.686	0.0154166
820.764	0.0154754
820.842	0.0153873
820.920	0.0155291
820.998	0.0155260
821.076	0.0154538
821.155	0.0153712
821.233	0.0154886
821.311	0.0153642
821.389	0.0152988
821.467	0.0152961
821.545	0.0154190
821.623	0.0154768
821.701	0.0154236
821.780	0.0153141
821.858	0.0154565
821.936	0.0154426
822.014	0.0153545
822.092	0.0154414
822.170	0.0152996
822.248	0.0155494
822.326	0.0154694
822.405	0.0155542
822.483	0.0154242
822.561	0.0154045
822.639	0.0155891
822.717	0.0155265
822.795	0.0156387
822.873	0.0155981
822.951	0.0155478
823.030	0.0155541
823.108	0.0154238
823.186	0.0154781
823.264	0.0154590
823.342	0.0154092
823.420	0.0153762
823.498	0.0154985
823.576	0.0154063
823.655	0.0154449
823.733	0.0154987
823.811	0.0153282
823.889	0.0152122
823.967	0.0152637
824.045	0.0152700
824.123	0.0153270
824.201	0.0154002
824.280	0.0154037
824.358	0.0152680
824.436	0.0152550
824.514	0.0153252
824.592	0.0150821
824.670	0.0151587
824.748	0.0153470
824.826	0.0152154
824.905	0.0152084
824.983	0.0153039
825.061	0.0152232
825.139	0.0151869
825.217	0.0152921
825.295	0.0153436
825.373	0.0154117
825.451	0.0154338
825.530	0.0154137
825.608	0.0154445
825.686	0.0153916
825.764	0.0153531
825.842	0.0153770
825.920	0.0153748
825.998	0.0153069
826.076	0.0154609
826.155	0.0154253
826.233	0.0153893
826.311	0.0154402
826.389	0.0153929
826.467	0.0153829
826.545	0.0152709
826.623	0.0153566
826.701	0.0154049
826.780	0.0154573
826.858	0.0153883
826.936	0.0152565
827.014	0.0155620
827.092	0.0152852
827.170	0.0153734
827.248	0.0155254
827.326	0.0154287
827.405	0.0154922
827.483	0.0154477
827.561	0.0153909
827.639	0.0154513
827.717	0.0154298
827.795	0.0154682
827.873	0.0154082
827.951	0.0152256
828.030	0.0153200
828.108	0.0153574
828.186	0.0153073
828.264	0.0152942
828.342	0.0153295
828.420	0.0152544
828.498	0.0152654
828.576	0.0153607
828.655	0.0153396
828.733	0.0153915
828.811	0.0154018
828.889	0.0153716
828.967	0.0153499
829.045	0.0154052
829.123	0.0155141
829.201	0.0153339
829.280	0.0153327
829.358	0.0154722
829.436	0.0154749
829.514	0.0153513
829.592	0.0153700
829.670	0.0152511
829.748	0.0153123
829.826	0.0153326
829.905	0.0153551
829.983	0.0153945
830.061	0.0152070
830.139	0.0153175
830.217	0.0152728
830.295	0.0153430
830.373	0.0153630
830.451	0.0155206
830.530	0.0153155
830.608	0.0154549
830.686	0.0154884
830.764	0.0154755
830.842	0.0154699
830.920	0.0154443
830.998	0.0154698
831.076	0.0155428
831.155	0.0155045
831.233	0.0154095
831.311	0.0153975
831.389	0.0154311
831.467	0.0154484
831.545	0.0154626
831.623	0.0154205
831.701	0.0154943
831.780	0.0156981
831.858	0.0155660
831.936	0.0154742
832.014	0.0153957
832.092	0.0153709
832.170	0.0156177
832.248	0.0155352
832.326	0.0155421
832.405	0.0155688
832.483	0.0156522
832.561	0.0155280
832.639	0.0155287
832.717	0.0156944
832.795	0.0156270
832.873	0.0155629
832.951	0.0155598
833.030	0.0154926
833.108	0.0154964
833.186	0.0154636
833.264	0.0156940
833.342	0.0155936
833.420	0.0155634
833.498	0.0155240
833.576	0.0155434
833.655	0.0155345
833.733	0.0156346
833.811	0.0155946
833.889	0.0157005
833.967	0.0156033
834.045	0.0156473
834.123	0.0155388
834.201	0.0155447
834.280	0.0155647
834.358	0.0155371
834.436	0.0154950
834.514	0.0156469
834.592	0.0154897
834.670	0.0154974
834.748	0.0155147
834.826	0.0152999
834.905	0.0154067
834.983	0.0154354
835.061	0.0153387
835.139	0.0154809
835.217	0.0154179
835.295	0.0154180
835.373	0.0155459
835.451	0.0153594
835.530	0.0153014
835.608	0.0153446
835.686	0.0155487
835.764	0.0154128
835.842	0.0154108
835.920	0.0153720
835.998	0.0155220
836.076	0.0154922
836.155	0.0153516
836.233	0.0155454
836.311	0.0155038
836.389	0.0154722
836.467	0.0155756
836.545	0.0154423
836.623	0.0154153
836.701	0.0154681
836.780	0.0155067
836.858	0.0153819
836.936	0.0154121
837.014	0.0154295
837.092	0.0154183
837.170	0.0154668
837.248	0.0154572
837.326	0.0153772
837.405	0.0153916
837.483	0.0155327
837.561	0.0154245
837.639	0.0154280
837.717	0.0153388
837.795	0.0154752
837.873	0.0153535
837.951	0.0155070
838.030	0.0153971
838.108	0.0155140
838.186	0.0155547
838.264	0.0154261
838.342	0.0154243
838.420	0.0155607
838.498	0.0155944
838.576	0.0154497
838.655	0.0156355
838.733	0.0154687
838.811	0.0154106
838.889	0.0155595
838.967	0.0155680
839.045	0.0156325
839.123	0.0156863
839.201	0.0155358
839.280	0.0156395
839.358	0.0156762
839.436	0.0156637
839.514	0.0156264
839.592	0.0156119
839.670	0.0155269
839.748	0.0154580
839.826	0.0155084
839.905	0.0154411
839.983	0.0156249
840.061	0.0156997
840.139	0.0155933
840.217	0.0154956
840.295	0.0156210
840.373	0.0155339
840.451	0.0154940
840.530	0.0155846
840.608	0.0155672
840.686	0.0155684
840.764	0.0154756
840.842	0.0155531
840.920	0.0155841
840.998	0.0154560
841.076	0.0154559
841.155	0.0155338
841.233	0.0154517
841.311	0.0154284
841.389	0.0154271
841.467	0.0154913
841.545	0.0154488
841.623	0.0153900
841.701	0.0155028
841.780	0.0153970
841.858	0.0155447
841.936	0.0154790
842.014	0.0156036
842.092	0.0154308
842.170	0.0156480
842.248	0.0156523
842.326	0.0157578
842.405	0.0156117
842.483	0.0155321
842.561	0.0154771
842.639	0.0155008
842.717	0.0156436
842.795	0.0155379
842.873	0.0156816
842.951	0.0155539
843.030	0.0155888
843.108	0.0154498
843.186	0.0156586
843.264	0.0155538
843.342	0.0155169
843.420	0.0156008
843.498	0.0155199
843.576	0.0155379
843.655	0.0155332
843.733	0.0155329
843.811	0.0155451
843.889	0.0154736
843.967	0.0156567
844.045	0.0156198
844.123	0.0155252
844.201	0.0154383
844.280	0.0156152
844.358	0.0156297
844.436	0.0155972
844.514	0.0157033
844.592	0.0156406
844.670	0.0156194
844.748	0.0155826
844.826	0.0156333
844.905	0.0155460
844.983	0.0155996
845.061	0.0154681
845.139	0.0155201
845.217	0.0154482
845.295	0.0154598
845.373	0.0155417
845.451	0.0155284
845.530	0.0155980
845.608	0.0155074
845.686	0.0154528
845.764	0.0154846
845.842	0.0155100
845.920	0.0154901
845.998	0.0155688
846.076	0.0155145
846.155	0.0155173
846.233	0.0155483
846.311	0.0156048
846.389	0.0157066
846.467	0.0154665
846.545	0.0155426
846.623	0.0156287
846.701	0.0156317
846.780	0.0153577
846.858	0.0155430
846.936	0.0156087
847.014	0.0154861
847.092	0.0156100
847.170	0.0154960
847.248	0.0156367
847.326	0.0154375
847.405	0.0153748
847.483	0.0154475
847.561	0.0155156
847.639	0.0155164
847.717	0.0154633
847.795	0.0153475
847.873	0.0154332
847.951	0.0155114
848.030	0.0154379
848.108	0.0155217
848.186	0.0156541
848.264	0.0155923
848.342	0.0154147
848.420	0.0155386
848.498	0.0155633
848.576	0.0155297
848.655	0.0156020
848.733	0.0154349
848.811	0.0153517
848.889	0.0155208
848.967	0.0155258
849.045	0.0154915
849.123	0.0153587
849.201	0.0154340
849.280	0.0155334
849.358	0.0155495
849.436	0.0153668
849.514	0.0154147
849.592	0.0154399
849.670	0.0156480
849.748	0.0155946
849.826	0.0154739
849.905	0.0155574
849.983	0.0156401
850.061	0.0155101
850.139	0.0154928
850.217	0.0154417
850.295	0.0155302
850.373	0.0153394
850.451	0.0154491
850.530	0.0154637
850.608	0.0154871
850.686	0.0155325
850.764	0.0154961
850.842	0.0154401
850.920	0.0154720
850.998	0.0156318
851.076	0.0155596
851.155	0.0156279
851.233	0.0155512
851.311	0.0154013
851.389	0.0153980
851.467	0.0155519
851.545	0.0153593
851.623	0.0154057
851.701	0.0154693
851.780	0.0153940
851.858	0.0154999
851.936	0.0153521
852.014	0.0153647
852.092	0.0154297
852.170	0.0154026
852.248	0.0156302
852.326	0.0154870
852.405	0.0153001
852.483	0.0154828
852.561	0.0156820
852.639	0.0155723
852.717	0.0156097
852.795	0.0156565
852.873	0.0156030
852.951	0.0154836
853.030	0.0155650
853.108	0.0156677
853.186	0.0153873
853.264	0.0153983
853.342	0.0155038
853.420	0.0154739
853.498	0.0155949
853.576	0.0155049
853.655	0.0155186
853.733	0.0156990
853.811	0.0155914
853.889	0.0154999
853.967	0.0155589
854.045	0.0154248
854.123	0.0155843
854.201	0.0155649
854.280	0.0154680
854.358	0.0156142
854.436	0.0155392
854.514	0.0155342
854.592	0.0153648
854.670	0.0154108
854.748	0.0154759
854.826	0.0155215
854.905	0.0155457
854.983	0.0154279
855.061	0.0154412
855.139	0.0153699
855.217	0.0154445
855.295	0.0154292
855.373	0.0153975
855.451	0.0154610
855.530	0.0153431
855.608	0.0153201
855.686	0.0154057
855.764	0.0154636
855.842	0.0154770
855.920	0.0152701
855.998	0.0152519
856.076	0.0154467
856.155	0.0153864
856.233	0.0152840
856.311	0.0153249
856.389	0.0153803
856.467	0.0152097
856.545	0.0152838
856.623	0.0154299
856.701	0.0153194
856.780	0.0154532
856.858	0.0153651
856.936	0.0153872
857.014	0.0154678
857.092	0.0154278
857.170	0.0153761
857.248	0.0152973
857.326	0.0153257
857.405	0.0153903
857.483	0.0152995
857.561	0.0152228
857.639	0.0152717
857.717	0.0155141
857.795	0.0154385
857.873	0.0154282
857.951	0.0153130
858.030	0.0153745
858.108	0.0154903
858.186	0.0153690
858.264	0.0154502
858.342	0.0154357
858.420	0.0154707
858.498	0.0153556
858.576	0.0154476
858.655	0.0154076
858.733	0.0154391
858.811	0.0153798
858.889	0.0154952
858.967	0.0153330
859.045	0.0153898
859.123	0.0154306
859.201	0.0155136
859.280	0.0154348
859.358	0.0155515
859.436	0.0153763
859.514	0.0153658
859.592	0.0154835
859.670	0.0154846
859.748	0.0154195
859.826	0.0154509
859.905	0.0153993
859.983	0.0154080
860.061	0.0154256
860.139	0.0154176
860.217	0.0154745
860.295	0.0154631
860.373	0.0154018
860.451	0.0155302
860.530	0.0154093
860.608	0.0153108
860.686	0.0153042
860.764	0.0154643
860.842	0.0154822
860.920	0.0153589
860.998	0.0152875
861.076	0.0154398
861.155	0.0154858
861.233	0.0153592
861.311	0.0154441
861.389	0.0154118
861.467	0.0154282
861.545	0.0154893
861.623	0.0155660
861.701	0.0155040
861.780	0.0155121
861.858	0.0155307
861.936	0.0154837
862.014	0.0155125
862.092	0.0155054
862.170	0.0156271
862.248	0.0154446
862.326	0.0155856
862.405	0.0154518
862.483	0.0154684
862.561	0.0154086
862.639	0.0154551
862.717	0.0153745
862.795	0.0154416
862.873	0.0154286
862.951	0.0155177
863.030	0.0154752
863.108	0.0154775
863.186	0.0155268
863.264	0.0153886
863.342	0.0153669
863.420	0.0154444
863.498	0.0154731
863.576	0.0155083
863.655	0.0154777
863.733	0.0155238
863.811	0.0154474
863.889	0.0155111
863.967	0.0153863
864.045	0.0154108
864.123	0.0155234
864.201	0.0153432
864.280	0.0154492
864.358	0.0154464
864.436	0.0154992
864.514	0.0153825
864.592	0.0154817
864.670	0.0155829
864.748	0.0156540
864.826	0.0155222
864.905	0.0154050
864.983	0.0155079
865.061	0.0155552
865.139	0.0156884
865.217	0.0154391
865.295	0.0156197
865.373	0.0156371
865.451	0.0155817
865.530	0.0155363
865.608	0.0156100
865.686	0.0154738
865.764	0.0154601
865.842	0.0156938
865.920	0.0155128
865.998	0.0154701
866.076	0.0155219
866.155	0.0155489
866.233	0.0155070
866.311	0.0155759
866.389	0.0155518
866.467	0.0155112
866.545	0.0154961
866.623	0.0156053
866.701	0.0155435
866.780	0.0154531
866.858	0.0156351
866.936	0.0155785
867.014	0.0154728
867.092	0.0156375
867.170	0.0156019
867.248	0.0155192
867.326	0.0156693
867.405	0.0155977
867.483	0.0155632
867.561	0.0155479
867.639	0.0154954
867.717	0.0156603
867.795	0.0156741
867.873	0.0155015
867.951	0.0154956
868.030	0.0155307
868.108	0.0155341
868.186	0.0154707
868.264	0.0155708
868.342	0.0155569
868.420	0.0155326
868.498	0.0155720
868.576	0.0154322
868.655	0.0154701
868.733	0.0152497
868.811	0.0154840
868.889	0.0154290
868.967	0.0153474
869.045	0.0154920
869.123	0.0153896
869.201	0.0153904
869.280	0.0153813
869.358	0.0153768
869.436	0.0155195
869.514	0.0154335
869.592	0.0154498
869.670	0.0156381
869.748	0.0156587
869.826	0.0156154
869.905	0.0154946
869.983	0.0156178
870.061	0.0155489
870.139	0.0156081
870.217	0.0155403
870.295	0.0154948
870.373	0.0155846
870.451	0.0154291
870.530	0.0155753
870.608	0.0155006
870.686	0.0155453
870.764	0.0155093
870.842	0.0154386
870.920	0.0153866
870.998	0.0155360
871.076	0.0156304
871.155	0.0155854
871.233	0.0154680
871.311	0.0154745
871.389	0.0154452
871.467	0.0154348
871.545	0.0156446
871.623	0.0155820
871.701	0.0156471
871.780	0.0156319
871.858	0.0156524
871.936	0.0156627
872.014	0.0156371
872.092	0.0155492
872.170	0.0155019
872.248	0.0155038
872.326	0.0155962
872.405	0.0156234
872.483	0.0155826
872.561	0.0156075
872.639	0.0154463
872.717	0.0154361
872.795	0.0156360
872.873	0.0155248
872.951	0.0155344
873.030	0.0155408
873.108	0.0156855
873.186	0.0155846
873.264	0.0155280
873.342	0.0156016
873.420	0.0154840
873.498	0.0155222
873.576	0.0155299
873.655	0.0154870
873.733	0.0155553
873.811	0.0155244
873.889	0.0153872
873.967	0.0156009
874.045	0.0154690
874.123	0.0155285
874.201	0.0154816
874.280	0.0155905
874.358	0.0154817
874.436	0.0155688
874.514	0.0154728
874.592	0.0155853
874.670	0.0156320
874.748	0.0155730
874.826	0.0154010
874.905	0.0154982
874.983	0.0155974
875.061	0.0155286
875.139	0.0156087
875.217	0.0155128
875.295	0.0155237
875.373	0.0157196
875.451	0.0157227
875.530	0.0155989
875.608	0.0155944
875.686	0.0155130
875.764	0.0154216
875.842	0.0154893
875.920	0.0155675
875.998	0.0154291
876.076	0.0155289
876.155	0.0156172
876.233	0.0154049
876.311	0.0154952
876.389	0.0155700
876.467	0.0153820
876.545	0.0154937
876.623	0.0154575
876.701	0.0154383
876.780	0.0154559
876.858	0.0155203
876.936	0.0154021
877.014	0.0155170
877.092	0.0155399
877.170	0.0155600
877.248	0.0155046
877.326	0.0154929
877.405	0.0155663
877.483	0.0153860
877.561	0.0154559
877.639	0.0154202
877.717	0.0153002
877.795	0.0155109
877.873	0.0156670
877.951	0.0154565
878.030	0.0154138
878.108	0.0154723
878.186	0.0154961
878.264	0.0153304
878.342	0.0152465
878.420	0.0153790
878.498	0.0153963
878.576	0.0153888
878.655	0.0154433
878.733	0.0153709
878.811	0.0153691
878.889	0.0154523
878.967	0.0153928
879.045	0.0154230
879.123	0.0155119
879.201	0.0154107
879.280	0.0156029
879.358	0.0155118
879.436	0.0155331
879.514	0.0155498
879.592	0.0156643
879.670	0.0155501
879.748	0.0156393
879.826	0.0155420
879.905	0.0155364
879.983	0.0156477
880.061	0.0156909
880.139	0.0156117
880.217	0.0154907
880.295	0.0155051
880.373	0.0154541
880.451	0.0154795
880.530	0.0154873
880.608	0.0154240
880.686	0.0153780
880.764	0.0156116
880.842	0.0154996
880.920	0.0153883
880.998	0.0153823
881.076	0.0155701
881.155	0.0154619
881.233	0.0153246
881.311	0.0154787
881.389	0.0156416
881.467	0.0153646
881.545	0.0153859
881.623	0.0154507
881.701	0.0152366
881.780	0.0154327
881.858	0.0154073
881.936	0.0154171
882.014	0.0155386
882.092	0.0152921
882.170	0.0153859
882.248	0.0154574
882.326	0.0152371
882.405	0.0153513
882.483	0.0153837
882.561	0.0153418
882.639	0.0154609
882.717	0.0153768
882.795	0.0153848
882.873	0.0153486
882.951	0.0152947
883.030	0.0153798
883.108	0.0154262
883.186	0.0153613
883.264	0.0154012
883.342	0.0152956
883.420	0.0154004
883.498	0.0154436
883.576	0.0153153
883.655	0.0152020
883.733	0.0153128
883.811	0.0153059
883.889	0.0153165
883.967	0.0154018
884.045	0.0153513
884.123	0.0152831
884.201	0.0152290
884.280	0.0152615
884.358	0.0153004
884.436	0.0152230
884.514	0.0152504
884.592	0.0153588
884.670	0.0153041
884.748	0.0153891
884.826	0.0153994
884.905	0.0154247
884.983	0.0154169
885.061	0.0153700
885.139	0.0153397
885.217	0.0153487
885.295	0.0155128
885.373	0.0154093
885.451	0.0154980
885.530	0.0155392
885.608	0.0154364
885.686	0.0155669
885.764	0.0155808
885.842	0.0154424
885.920	0.0155219
885.998	0.0154224
886.076	0.0154650
886.155	0.0153411
886.233	0.0153490
886.311	0.0152973
886.389	0.0152901
886.467	0.0151913
886.545	0.0153506
886.623	0.0153294
886.701	0.0152455
886.780	0.0152923
886.858	0.0154406
886.936	0.0153294
887.014	0.0152484
887.092	0.0154237
887.170	0.0152541
887.248	0.0153482
887.326	0.0153835
887.405	0.0154648
887.483	0.0152979
887.561	0.0154079
887.639	0.0153417
887.717	0.0153567
887.795	0.0153929
887.873	0.0153413
887.951	0.0154977
888.030	0.0155018
888.108	0.0155167
888.186	0.0155643
888.264	0.0155756
888.342	0.0154944
888.420	0.0154646
888.498	0.0155036
888.576	0.0156620
888.655	0.0155662
888.733	0.0155428
888.811	0.0156694
888.889	0.0155917
888.967	0.0155074
889.045	0.0154572
889.123	0.0154054
889.201	0.0154761
889.280	0.0153832
889.358	0.0152415
889.436	0.0154107
889.514	0.0154517
889.592	0.0153251
889.670	0.0152316
889.748	0.0152956
889.826	0.0152910
889.905	0.0152377
889.983	0.0152097
890.061	0.0154541
890.139	0.0152348
890.217	0.0153213
890.295	0.0153983
890.373	0.0154784
890.451	0.0154736
890.530	0.0155185
890.608	0.0155725
890.686	0.0154560
890.764	0.0155771
890.842	0.0156236
890.920	0.0156500
890.998	0.0156701
891.076	0.0156152
891.155	0.0156347
891.233	0.0158224
891.311	0.0156341
891.389	0.0156400
891.467	0.0155676
891.545	0.0154566
891.623	0.0155317
891.701	0.0156033
891.780	0.0154155
891.858	0.0154980
891.936	0.0156274
892.014	0.0156220
892.092	0.0154755
892.170	0.0156126
892.248	0.0154359
892.326	0.0153605
892.405	0.0154053
892.483	0.0153918
892.561	0.0155482
892.639	0.0154914
892.717	0.0154549
892.795	0.0154618
892.873	0.0155438
892.951	0.0155140
893.030	0.0155064
893.108	0.0155595
893.186	0.0155290
893.264	0.0156677
893.342	0.0155538
893.420	0.0155856
893.498	0.0156030
893.576	0.0155777
893.655	0.0155476
893.733	0.0155087
893.811	0.0155816
893.889	0.0155251
893.967	0.0156188
894.045	0.0155925
894.123	0.0156641
894.201	0.0156249
894.280	0.0156049
894.358	0.0155231
894.436	0.0155849
894.514	0.0155244
894.592	0.0155150
894.670	0.0155671
894.748	0.0156664
894.826	0.0156281
894.905	0.0156035
894.983	0.0155732
895.061	0.0154787
895.139	0.0154668
895.217	0.0156645
895.295	0.0155040
895.373	0.0155460
895.451	0.0153346
895.530	0.0154726
895.608	0.0154487
895.686	0.0155058
895.764	0.0154340
895.842	0.0154929
895.920	0.0154570
895.998	0.0154368
896.076	0.0154735
896.155	0.0154585
896.233	0.0154131
896.311	0.0154156
896.389	0.0155138
896.467	0.0153865
896.545	0.0155025
896.623	0.0155609
896.701	0.0156055
896.780	0.0154904
896.858	0.0155677
896.936	0.0154713
897.014	0.0155252
897.092	0.0155315
897.170	0.0155851
897.248	0.0155009
897.326	0.0154506
897.405	0.0157518
897.483	0.0156522
897.561	0.0156271
897.639	0.0155892
897.717	0.0156628
897.795	0.0155466
897.873	0.0156467
897.951	0.0156675
898.030	0.0155305
898.108	0.0157272
898.186	0.0155404
898.264	0.0156537
898.342	0.0155811
898.420	0.0154712
898.498	0.0155679
898.576	0.0155270
898.655	0.0153554
898.733	0.0155592
898.811	0.0155926
898.889	0.0155550
898.967	0.0154681
899.045	0.0154829
899.123	0.0155572
899.201	0.0155965
899.280	0.0154402
899.358	0.0154619
899.436	0.0154510
899.514	0.0154746
899.592	0.0154400
899.670	0.0154808
899.748	0.0154103
899.826	0.0153310
899.905	0.0153877
899.983	0.0153652
900.061	0.0155731
900.139	0.0155820
900.217	0.0155614
900.295	0.0153978
900.373	0.0153613
900.451	0.0153723
900.530	0.0155042
900.608	0.0154967
900.686	0.0155203
900.764	0.0155991
900.842	0.0154105
900.920	0.0154010
900.998	0.0153524
901.076	0.0154624
901.155	0.0154158
901.233	0.0155325
901.311	0.0154591
901.389	0.0154226
901.467	0.0154095
901.545	0.0155248
901.623	0.0154928
901.701	0.0154391
901.780	0.0154333
901.858	0.0154871
901.936	0.0152597
902.014	0.0153910
902.092	0.0154620
902.170	0.0153702
902.248	0.0154116
902.326	0.0154857
902.405	0.0153891
902.483	0.0154910
902.561	0.0155097
902.639	0.0154100
902.717	0.0154704
902.795	0.0154050
902.873	0.0154764
902.951	0.0155585
903.030	0.0154697
903.108	0.0153870
903.186	0.0155549
903.264	0.0154202
903.342	0.0154018
903.420	0.0154388
903.498	0.0154939
903.576	0.0155641
903.655	0.0155641
903.733	0.0155288
903.811	0.0154545
903.889	0.0154404
903.967	0.0154169
904.045	0.0153928
904.123	0.0154745
904.201	0.0153751
904.280	0.0154916
904.358	0.0155111
904.436	0.0153860
904.514	0.0154011
904.592	0.0153203
904.670	0.0154491
904.748	0.0152975
904.826	0.0153395
904.905	0.0153087
904.983	0.0154627
905.061	0.0152106
905.139	0.0153053
905.217	0.0151543
905.295	0.0153346
905.373	0.0155325
905.451	0.0153220
905.530	0.0152214
905.608	0.0154247
905.686	0.0153577
905.764	0.0154449
905.842	0.0154620
905.920	0.0155244
905.998	0.0154021
906.076	0.0155548
906.155	0.0155558
906.233	0.0154163
906.311	0.0154028
906.389	0.0154460
906.467	0.0154403
906.545	0.0153369
906.623	0.0153964
906.701	0.0154152
906.780	0.0154577
906.858	0.0153181
906.936	0.0154036
907.014	0.0154619
907.092	0.0153453
907.170	0.0153603
907.248	0.0153889
907.326	0.0152742
907.405	0.0153117
907.483	0.0154670
907.561	0.0153535
907.639	0.0153468
907.717	0.0153107
907.795	0.0153432
907.873	0.0153873
907.951	0.0153879
908.030	0.0153557
908.108	0.0154358
908.186	0.0154551
908.264	0.0154380
908.342	0.0153392
908.420	0.0153928
908.498	0.0153458
908.576	0.0153469
908.655	0.0152901
908.733	0.0153618
908.811	0.0154407
908.889	0.0155239
908.967	0.0153593
909.045	0.0152729
909.123	0.0153511
909.201	0.0154522
909.280	0.0154448
909.358	0.0154758
909.436	0.0153426
909.514	0.0153796
909.592	0.0154603
909.670	0.0154082
909.748	0.0155681
909.826	0.0154311
909.905	0.0153614
909.983	0.0154947
910.061	0.0156465
910.139	0.0155563
910.217	0.0154867
910.295	0.0154480
910.373	0.0155209
910.451	0.0154337
910.530	0.0153836
910.608	0.0154713
910.686	0.0153783
910.764	0.0153114
910.842	0.0152757
910.920	0.0151907
910.998	0.0153070
911.076	0.0152010
911.155	0.0153027
911.233	0.0153490
911.311	0.0153699
911.389	0.0152467
911.467	0.0152915
911.545	0.0152254
911.623	0.0153935
911.701	0.0155057
911.780	0.0153450
911.858	0.0154482
911.936	0.0154265
912.014	0.0153534
912.092	0.0153422
912.170	0.0156161
912.248	0.0153684
912.326	0.0155166
912.405	0.0156157
912.483	0.0156155
912.561	0.0153719
912.639	0.0153651
912.717	0.0154198
912.795	0.0154045
912.873	0.0154768
912.951	0.0155022
913.030	0.0153389
913.108	0.0153410
913.186	0.0153008
913.264	0.0154217
913.342	0.0154221
913.420	0.0154128
913.498	0.0155486
913.576	0.0153912
913.655	0.0154596
913.733	0.0154163
913.811	0.0156387
913.889	0.0153897
913.967	0.0154353
914.045	0.0154745
914.123	0.0154636
914.201	0.0155331
914.280	0.0155575
914.358	0.0154176
914.436	0.0154467
914.514	0.0155748
914.592	0.0155998
914.670	0.0152934
914.748	0.0154359
914.826	0.0155653
914.905	0.0154771
914.983	0.0154770
915.061	0.0154301
915.139	0.0154900
915.217	0.0155408
915.295	0.0155438
915.373	0.0154999
915.451	0.0154075
915.530	0.0154705
915.608	0.0154885
915.686	0.0154392
915.764	0.0155414
915.842	0.0155180
915.920	0.0154523
915.998	0.0152465
916.076	0.0153883
916.155	0.0154514
916.233	0.0153664
916.311	0.0156203
916.389	0.0153628
916.467	0.0154629
916.545	0.0153802
916.623	0.0154626
916.701	0.0153782
916.780	0.0154060
916.858	0.0154156
916.936	0.0153674
917.014	0.0154059
917.092	0.0153168
917.170	0.0153845
917.248	0.0153886
917.326	0.0154423
917.405	0.0153656
917.483	0.0153249
917.561	0.0153403
917.639	0.0152712
917.717	0.0154285
917.795	0.0153438
917.873	0.0155142
917.951	0.0155422
918.030	0.0156088
918.108	0.0155017
918.186	0.0156853
918.264	0.0156151
918.342	0.0154825
918.420	0.0154887
918.498	0.0156062
918.576	0.0155502
918.655	0.0154640
918.733	0.0155075
918.811	0.0156997
918.889	0.0155267
918.967	0.0154823
919.045	0.0155502
919.123	0.0154300
919.201	0.0156076
919.280	0.0156306
919.358	0.0154039
919.436	0.0155112
919.514	0.0154335
919.592	0.0155645
919.670	0.0154693
919.748	0.0155144
919.826	0.0156423
919.905	0.0156094
919.983	0.0156478
920.061	0.0156499
920.139	0.0155718
920.217	0.0155083
920.295	0.0155322
920.373	0.0154179
920.451	0.0154587
920.530	0.0154753
920.608	0.0156047
920.686	0.0154978
920.764	0.0154494
920.842	0.0154433
920.920	0.0155015
920.998	0.0153596
921.076	0.0154698
921.155	0.0156586
921.233	0.0154564
921.311	0.0153870
921.389	0.0154800
921.467	0.0155382
921.545	0.0155688
921.623	0.0155501
921.701	0.0153770
921.780	0.0155457
921.858	0.0154321
921.936	0.0156803
922.014	0.0155721
922.092	0.0155979
922.170	0.0155509
922.248	0.0155192
922.326	0.0155266
922.405	0.0155343
922.483	0.0154729
922.561	0.0155408
922.639	0.0154398
922.717	0.0155250
922.795	0.0155061
922.873	0.0154541
922.951	0.0154623
923.030	0.0154185
923.108	0.0156126
923.186	0.0154219
923.264	0.0154259
923.342	0.0156245
923.420	0.0154736
923.498	0.0154506
923.576	0.0156026
923.655	0.0156045
923.733	0.0155556
923.811	0.0155644
923.889	0.0154758
923.967	0.0154718
924.045	0.0155410
924.123	0.0155323
924.201	0.0155564
924.280	0.0155054
924.358	0.0156044
924.436	0.0156062
924.514	0.0155568
924.592	0.0155491
924.670	0.0153848
924.748	0.0154067
924.826	0.0153773
924.905	0.0154679
924.983	0.0153399
925.061	0.0153809
925.139	0.0154159
925.217	0.0154803
925.295	0.0154691
925.373	0.0154539
925.451	0.0154924
925.530	0.0154445
925.608	0.0155173
925.686	0.0154362
925.764	0.0153892
925.842	0.0153253
925.920	0.0154491
925.998	0.0154478
926.076	0.0154881
926.155	0.0154912
926.233	0.0154348
926.311	0.0154541
926.389	0.0155531
926.467	0.0154244
926.545	0.0154631
926.623	0.0154223
926.701	0.0153888
926.780	0.0155178
926.858	0.0154628
926.936	0.0154155
927.014	0.0154591
927.092	0.0154327
927.170	0.0154162
927.248	0.0155721
927.326	0.0152930
927.405	0.0154575
927.483	0.0155472
927.561	0.0156082
927.639	0.0154219
927.717	0.0155064
927.795	0.0155341
927.873	0.0154923
927.951	0.0154240
928.030	0.0154965
928.108	0.0154303
928.186	0.0154616
928.264	0.0153802
928.342	0.0154005
928.420	0.0155582
928.498	0.0153941
928.576	0.0154247
928.655	0.0152936
928.733	0.0154175
928.811	0.0155345
928.889	0.0153603
928.967	0.0154377
929.045	0.0154669
929.123	0.0155083
929.201	0.0155612
929.280	0.0155032
929.358	0.0154913
929.436	0.0154967
929.514	0.0154838
929.592	0.0155970
929.670	0.0154908
929.748	0.0154671
929.826	0.0155353
929.905	0.0154446
929.983	0.0155220
930.061	0.0156394
930.139	0.0155198
930.217	0.0155154
930.295	0.0155637
930.373	0.0154375
930.451	0.0154192
930.530	0.0155186
930.608	0.0154794
930.686	0.0154283
930.764	0.0153776
930.842	0.0154753
930.920	0.0153593
930.998	0.0153764
931.076	0.0154305
931.155	0.0154510
931.233	0.0154661
931.311	0.0152802
931.389	0.0153718
931.467	0.0154491
931.545	0.0154034
931.623	0.0152858
931.701	0.0155345
931.780	0.0153307
931.858	0.0153586
931.936	0.0154570
932.014	0.0154574
932.092	0.0153683
932.170	0.0153847
932.248	0.0156321
932.326	0.0156667
932.405	0.0156377
932.483	0.0156734
932.561	0.0155977
932.639	0.0156090
932.717	0.0157533
932.795	0.0155912
932.873	0.0156020
932.951	0.0154526
933.030	0.0155865
933.108	0.0155387
933.186	0.0154947
933.264	0.0155508
933.342	0.0155243
933.420	0.0156532
933.498	0.0153875
933.576	0.0153437
933.655	0.0154980
933.733	0.0154796
933.811	0.0155361
933.889	0.0152857
933.967	0.0154087
934.045	0.0154012
934.123	0.0152737
934.201	0.0154560
934.280	0.0152657
934.358	0.0152902
934.436	0.0153527
934.514	0.0154249
934.592	0.0153391
934.670	0.0153677
934.748	0.0153796
934.826	0.0152380
934.905	0.0154355
934.983	0.0154954
935.061	0.0153761
935.139	0.0152852
935.217	0.0154300
935.295	0.0154961
935.373	0.0153642
935.451	0.0152798
935.530	0.0154260
935.608	0.0154620
935.686	0.0154553
935.764	0.0153485
935.842	0.0154313
935.920	0.0154635
935.998	0.0153329
936.076	0.0155887
936.155	0.0154901
936.233	0.0152509
936.311	0.0154293
936.389	0.0154579
936.467	0.0152957
936.545	0.0154096
936.623	0.0153696
936.701	0.0153614
936.780	0.0152503
936.858	0.0152045
936.936	0.0153641
937.014	0.0153086
937.092	0.0152954
937.170	0.0154423
937.248	0.0153588
937.326	0.0154427
937.405	0.0153142
937.483	0.0153165
937.561	0.0153128
937.639	0.0153500
937.717	0.0152927
937.795	0.0153020
937.873	0.0154113
937.951	0.0154491
938.030	0.0152988
938.108	0.0152802
938.186	0.0152145
938.264	0.0152541
938.342	0.0152776
938.420	0.0153989
938.498	0.0154250
938.576	0.0153194
938.655	0.0152974
938.733	0.0152605
938.811	0.0153529
938.889	0.0153564
938.967	0.0153410
939.045	0.0153015
939.123	0.0153889
939.201	0.0153981
939.280	0.0154395
939.358	0.0154253
939.436	0.0154345
939.514	0.0154629
939.592	0.0154724
939.670	0.0154140
939.748	0.0152878
939.826	0.0153438
939.905	0.0155099
939.983	0.0154431
940.061	0.0153967
940.139	0.0154275
940.217	0.0153959
940.295	0.0155479
940.373	0.0155903
940.451	0.0155847
940.530	0.0156382
940.608	0.0155962
940.686	0.0154600
940.764	0.0156186
940.842	0.0156932
940.920	0.0156016
940.998	0.0157802
941.076	0.0156550
941.155	0.0156656
941.233	0.0157117
941.311	0.0156722
941.389	0.0155645
941.467	0.0156408
941.545	0.0157323
941.623	0.0156607
941.701	0.0154959
941.780	0.0156152
941.858	0.0155263
941.936	0.0154977
942.014	0.0155074
942.092	0.0154594
942.170	0.0153580
942.248	0.0154382
942.326	0.0153774
942.405	0.0152943
942.483	0.0153905
942.561	0.0154300
942.639	0.0153470
942.717	0.0151762
942.795	0.0151884
942.873	0.0153669
942.951	0.0154118
943.030	0.0155100
943.108	0.0152752
943.186	0.0153228
943.264	0.0153580
943.342	0.0154598
943.420	0.0154747
943.498	0.0155473
943.576	0.0154478
943.655	0.0154506
943.733	0.0153853
943.811	0.0154918
943.889	0.0155890
943.967	0.0155656
944.045	0.0154115
944.123	0.0154576
944.201	0.0155025
944.280	0.0154543
944.358	0.0155218
944.436	0.0153661
944.514	0.0154993
944.592	0.0154986
944.670	0.0153530
944.748	0.0154905
944.826	0.0154720
944.905	0.0153864
944.983	0.0154500
945.061	0.0154288
945.139	0.0154055
945.217	0.0153634
945.295	0.0154101
945.373	0.0154369
945.451	0.0155190
945.530	0.0155038
945.608	0.0154451
945.686	0.0154246
945.764	0.0154472
945.842	0.0155145
945.920	0.0155104
945.998	0.0155733
946.076	0.0155787
946.155	0.0154703
946.233	0.0155219
946.311	0.0156729
946.389	0.0155030
946.467	0.0154536
946.545	0.0157384
946.623	0.0156060
946.701	0.0155814
946.780	0.0154955
946.858	0.0156615
946.936	0.0156445
947.014	0.0155137
947.092	0.0155916
947.170	0.0156056
947.248	0.0156369
947.326	0.0156136
947.405	0.0156400
947.483	0.0156468
947.561	0.0155830
947.639	0.0155561
947.717	0.0156420
947.795	0.0155426
947.873	0.0157443
947.951	0.0154416
948.030	0.0154593
948.108	0.0155990
948.186	0.0154494
948.264	0.0155252
948.342	0.0155333
948.420	0.0155583
948.498	0.0154489
948.576	0.0155121
948.655	0.0155135
948.733	0.0155522
948.811	0.0154562
948.889	0.0154833
948.967	0.0154807
949.045	0.0154688
949.123	0.0154472
949.201	0.0153977
949.280	0.0155295
949.358	0.0154337
949.436	0.0155283
949.514	0.0156629
949.592	0.0155615
949.670	0.0154401
949.748	0.0154681
949.826	0.0157196
949.905	0.0156264
949.983	0.0155067
950.061	0.0154907
950.139	0.0155885
950.217	0.0155421
950.295	0.0156016
950.373	0.0153902
950.451	0.0154735
950.530	0.0155470
950.608	0.0155067
950.686	0.0156436
950.764	0.0155619
950.842	0.0155504
950.920	0.0154784
950.998	0.0155798
951.076	0.0154372
951.155	0.0153822
951.233	0.0154240
951.311	0.0155956
951.389	0.0154509
951.467	0.0154842
951.545	0.0155685
951.623	0.0154076
951.701	0.0154523
951.780	0.0155656
951.858	0.0155436
951.936	0.0155340
952.014	0.0156580
952.092	0.0155147
952.170	0.0154496
952.248	0.0155051
952.326	0.0156359
952.405	0.0156614
952.483	0.0157891
952.561	0.0155582
952.639	0.0154786
952.717	0.0155798
952.795	0.0155040
952.873	0.0154865
952.951	0.0154507
953.030	0.0154269
953.108	0.0154659
953.186	0.0155461
953.264	0.0155802
953.342	0.0154726
953.420	0.0153932
953.498	0.0154315
953.576	0.0154761
953.655	0.0154675
953.733	0.0154125
953.811	0.0154935
953.889	0.0155937
953.967	0.0154620
954.045	0.0153677
954.123	0.0156198
954.201	0.0155624
954.280	0.0154506
954.358	0.0153708
954.436	0.0155295
954.514	0.0156516
954.592	0.0153729
954.670	0.0154507
954.748	0.0155724
954.826	0.0154503
954.905	0.0154604
954.983	0.0155215
955.061	0.0155656
955.139	0.0154613
955.217	0.0155488
955.295	0.0154802
955.373	0.0155418
955.451	0.0154959
955.530	0.0155519
955.608	0.0155106
955.686	0.0155159
955.764	0.0155386
955.842	0.0155432
955.920	0.0155576
955.998	0.0155456
956.076	0.0156700
956.155	0.0156490
956.233	0.0155923
956.311	0.0154813
956.389	0.0155570
956.467	0.0155526
956.545	0.0158034
956.623	0.0156909
956.701	0.0155687
956.780	0.0154940
956.858	0.0155054
956.936	0.0155970
957.014	0.0153879
957.092	0.0155605
957.170	0.0154850
957.248	0.0154210
957.326	0.0153093
957.405	0.0155690
957.483	0.0154919
957.561	0.0153393
957.639	0.0153808
957.717	0.0154488
957.795	0.0154369
957.873	0.0153215
957.951	0.0153595
958.030	0.0154403
958.108	0.0154546
958.186	0.0155272
958.264	0.0154522
958.342	0.0154758
958.420	0.0155331
958.498	0.0155653
958.576	0.0156097
958.655	0.0156681
958.733	0.0155114
958.811	0.0154913
958.889	0.0156168
958.967	0.0156272
959.045	0.0155727
959.123	0.0156028
959.201	0.0154900
959.280	0.0155964
959.358	0.0155527
959.436	0.0155424
959.514	0.0155588
959.592	0.0156080
959.670	0.0155056
959.748	0.0156091
959.826	0.0154869
959.905	0.0155526
