05/20/2022	16:46:48	Ver.	4.1	UNKNOWN
Optical Delay	639.982744	Delta X		0.078125	Sweeps	1	Scan Rate	0/0
Coordinates	Axis 1	NaN	Axis 2	NaN	Axis 3	NaN	Axis 4	NaN	Axis 5	NaN	Axis 6	0.000000
TX Power	0.000000	RX Power	0.000000

639.983	0.0150422
640.061	0.0149277
640.139	0.0149551
640.217	0.0152237
640.295	0.0150715
640.373	0.0150727
640.451	0.0153011
640.530	0.0150278
640.608	0.0151225
640.686	0.0151554
640.764	0.0150008
640.842	0.0151447
640.920	0.0151472
640.998	0.0151452
641.076	0.0149747
641.155	0.0150678
641.233	0.0150755
641.311	0.0149918
641.389	0.0151260
641.467	0.0151571
641.545	0.0151257
641.623	0.0151143
641.701	0.0149491
641.780	0.0150349
641.858	0.0151073
641.936	0.0152048
642.014	0.0151301
642.092	0.0152261
642.170	0.0151212
642.248	0.0150417
642.326	0.0151402
642.405	0.0152729
642.483	0.0149888
642.561	0.0152288
642.639	0.0152528
642.717	0.0150497
642.795	0.0151608
642.873	0.0152935
642.951	0.0153086
643.030	0.0150444
643.108	0.0151451
643.186	0.0152153
643.264	0.0150362
643.342	0.0152304
643.420	0.0152206
643.498	0.0152073
643.576	0.0152191
643.655	0.0153238
643.733	0.0151524
643.811	0.0151417
643.889	0.0152194
643.967	0.0152287
644.045	0.0151721
644.123	0.0151939
644.201	0.0151634
644.280	0.0152357
644.358	0.0152686
644.436	0.0152251
644.514	0.0152189
644.592	0.0152381
644.670	0.0152974
644.748	0.0152876
644.826	0.0152859
644.905	0.0152750
644.983	0.0150654
645.061	0.0152432
645.139	0.0154204
645.217	0.0152174
645.295	0.0153327
645.373	0.0152622
645.451	0.0152275
645.530	0.0152448
645.608	0.0153116
645.686	0.0151649
645.764	0.0152737
645.842	0.0152345
645.920	0.0151292
645.998	0.0152118
646.076	0.0151886
646.155	0.0151528
646.233	0.0152258
646.311	0.0153202
646.389	0.0152327
646.467	0.0152333
646.545	0.0151143
646.623	0.0150931
646.701	0.0152303
646.780	0.0151597
646.858	0.0152738
646.936	0.0151342
647.014	0.0151958
647.092	0.0150643
647.170	0.0151733
647.248	0.0152546
647.326	0.0153819
647.405	0.0151311
647.483	0.0151871
647.561	0.0151665
647.639	0.0151350
647.717	0.0151405
647.795	0.0151860
647.873	0.0152319
647.951	0.0152056
648.030	0.0150524
648.108	0.0151617
648.186	0.0152390
648.264	0.0152557
648.342	0.0152467
648.420	0.0151953
648.498	0.0151009
648.576	0.0152051
648.655	0.0151524
648.733	0.0152271
648.811	0.0152345
648.889	0.0152662
648.967	0.0151324
649.045	0.0152619
649.123	0.0152475
649.201	0.0150937
649.280	0.0152098
649.358	0.0152763
649.436	0.0153392
649.514	0.0152611
649.592	0.0151878
649.670	0.0152910
649.748	0.0152961
649.826	0.0150797
649.905	0.0151734
649.983	0.0151456
650.061	0.0152364
650.139	0.0153313
650.217	0.0151333
650.295	0.0151462
650.373	0.0151935
650.451	0.0151437
650.530	0.0151944
650.608	0.0151964
650.686	0.0152280
650.764	0.0152667
650.842	0.0151729
650.920	0.0152480
650.998	0.0151834
651.076	0.0151948
651.155	0.0151368
651.233	0.0151214
651.311	0.0152184
651.389	0.0150574
651.467	0.0150565
651.545	0.0151984
651.623	0.0150825
651.701	0.0151575
651.780	0.0151984
651.858	0.0150516
651.936	0.0150150
652.014	0.0152151
652.092	0.0151162
652.170	0.0151922
652.248	0.0151362
652.326	0.0151982
652.405	0.0151186
652.483	0.0151994
652.561	0.0151377
652.639	0.0151952
652.717	0.0150566
652.795	0.0151380
652.873	0.0152177
652.951	0.0150722
653.030	0.0151135
653.108	0.0151448
653.186	0.0152654
653.264	0.0152319
653.342	0.0151240
653.420	0.0151942
653.498	0.0153105
653.576	0.0152113
653.655	0.0151731
653.733	0.0151781
653.811	0.0151453
653.889	0.0150463
653.967	0.0150684
654.045	0.0151214
654.123	0.0151907
654.201	0.0151039
654.280	0.0150266
654.358	0.0149547
654.436	0.0149667
654.514	0.0150702
654.592	0.0149982
654.670	0.0151788
654.748	0.0149737
654.826	0.0150558
654.905	0.0150731
654.983	0.0150334
655.061	0.0152151
655.139	0.0150668
655.217	0.0150742
655.295	0.0151662
655.373	0.0152863
655.451	0.0152176
655.530	0.0150270
655.608	0.0152034
655.686	0.0152158
655.764	0.0150358
655.842	0.0152390
655.920	0.0150975
655.998	0.0151103
656.076	0.0152163
656.155	0.0152253
656.233	0.0151691
656.311	0.0151374
656.389	0.0151233
656.467	0.0149727
656.545	0.0150204
656.623	0.0151460
656.701	0.0151379
656.780	0.0150051
656.858	0.0149567
656.936	0.0149489
657.014	0.0151009
657.092	0.0150170
657.170	0.0151291
657.248	0.0150941
657.326	0.0151321
657.405	0.0150946
657.483	0.0151061
657.561	0.0151906
657.639	0.0151416
657.717	0.0150987
657.795	0.0150613
657.873	0.0150903
657.951	0.0150779
658.030	0.0151948
658.108	0.0150999
658.186	0.0151577
658.264	0.0150045
658.342	0.0151240
658.420	0.0151390
658.498	0.0149848
658.576	0.0150287
658.655	0.0150739
658.733	0.0150603
658.811	0.0149578
658.889	0.0149559
658.967	0.0149635
659.045	0.0148973
659.123	0.0150203
659.201	0.0148912
659.280	0.0149110
659.358	0.0148563
659.436	0.0149380
659.514	0.0149886
659.592	0.0147952
659.670	0.0148872
659.748	0.0149638
659.826	0.0149292
659.905	0.0150039
659.983	0.0150297
660.061	0.0151962
660.139	0.0151582
660.217	0.0149557
660.295	0.0150616
660.373	0.0151019
660.451	0.0149906
660.530	0.0150577
660.608	0.0151028
660.686	0.0150771
660.764	0.0149923
660.842	0.0150533
660.920	0.0151575
660.998	0.0151671
661.076	0.0151221
661.155	0.0150198
661.233	0.0149801
661.311	0.0151164
661.389	0.0151065
661.467	0.0150517
661.545	0.0150559
661.623	0.0150030
661.701	0.0150418
661.780	0.0150012
661.858	0.0150619
661.936	0.0151189
662.014	0.0151911
662.092	0.0150703
662.170	0.0150934
662.248	0.0151872
662.326	0.0151308
662.405	0.0151520
662.483	0.0150745
662.561	0.0151434
662.639	0.0152381
662.717	0.0152666
662.795	0.0151952
662.873	0.0152105
662.951	0.0151590
663.030	0.0150458
663.108	0.0150300
663.186	0.0151351
663.264	0.0150249
663.342	0.0150565
663.420	0.0150835
663.498	0.0151437
663.576	0.0149157
663.655	0.0148540
663.733	0.0151564
663.811	0.0150231
663.889	0.0151005
663.967	0.0151878
664.045	0.0151396
664.123	0.0151758
664.201	0.0151920
664.280	0.0153333
664.358	0.0151098
664.436	0.0152158
664.514	0.0152253
664.592	0.0151053
664.670	0.0150690
664.748	0.0151988
664.826	0.0152463
664.905	0.0152571
664.983	0.0151724
665.061	0.0150529
665.139	0.0149683
665.217	0.0150984
665.295	0.0150597
665.373	0.0149943
665.451	0.0150301
665.530	0.0151835
665.608	0.0151634
665.686	0.0151505
665.764	0.0150735
665.842	0.0151552
665.920	0.0153165
665.998	0.0150882
666.076	0.0150954
666.155	0.0152133
666.233	0.0151174
666.311	0.0150950
666.389	0.0151376
666.467	0.0152306
666.545	0.0150965
666.623	0.0152447
666.701	0.0151835
666.780	0.0151765
666.858	0.0151950
666.936	0.0151112
667.014	0.0152204
667.092	0.0152920
667.170	0.0152426
667.248	0.0153151
667.326	0.0153632
667.405	0.0154826
667.483	0.0154691
667.561	0.0156085
667.639	0.0155750
667.717	0.0156867
667.795	0.0155807
667.873	0.0157145
667.951	0.0159776
668.030	0.0158789
668.108	0.0158059
668.186	0.0159557
668.264	0.0159254
668.342	0.0159558
668.420	0.0159664
668.498	0.0159757
668.576	0.0158561
668.655	0.0159268
668.733	0.0158556
668.811	0.0159320
668.889	0.0157235
668.967	0.0157464
669.045	0.0156001
669.123	0.0156358
669.201	0.0155087
669.280	0.0155372
669.358	0.0152503
669.436	0.0152253
669.514	0.0151004
669.592	0.0148697
669.670	0.0148529
669.748	0.0147250
669.826	0.0145895
669.905	0.0146305
669.983	0.0145082
670.061	0.0145306
670.139	0.0143078
670.217	0.0144209
670.295	0.0143000
670.373	0.0144207
670.451	0.0144478
670.530	0.0145464
670.608	0.0145184
670.686	0.0146229
670.764	0.0146594
670.842	0.0147917
670.920	0.0149341
670.998	0.0150418
671.076	0.0151469
671.155	0.0153422
671.233	0.0152380
671.311	0.0154652
671.389	0.0156432
671.467	0.0157919
671.545	0.0159362
671.623	0.0159406
671.701	0.0159261
671.780	0.0159631
671.858	0.0160944
671.936	0.0160696
672.014	0.0161353
672.092	0.0160933
672.170	0.0160042
672.248	0.0158445
672.326	0.0158099
672.405	0.0158882
672.483	0.0157268
672.561	0.0156107
672.639	0.0154270
672.717	0.0152905
672.795	0.0151209
672.873	0.0149488
672.951	0.0148338
673.030	0.0146085
673.108	0.0145653
673.186	0.0142884
673.264	0.0140772
673.342	0.0139891
673.420	0.0140392
673.498	0.0139282
673.576	0.0137884
673.655	0.0139045
673.733	0.0138114
673.811	0.0138622
673.889	0.0137814
673.967	0.0138206
674.045	0.0140226
674.123	0.0141615
674.201	0.0143373
674.280	0.0142969
674.358	0.0144631
674.436	0.0146332
674.514	0.0147672
674.592	0.0150159
674.670	0.0150526
674.748	0.0151455
674.826	0.0156586
674.905	0.0156980
674.983	0.0157923
675.061	0.0159674
675.139	0.0162249
675.217	0.0162467
675.295	0.0161681
675.373	0.0161395
675.451	0.0162556
675.530	0.0161060
675.608	0.0161795
675.686	0.0161252
675.764	0.0161659
675.842	0.0161015
675.920	0.0159505
675.998	0.0158601
676.076	0.0157185
676.155	0.0156232
676.233	0.0157068
676.311	0.0153058
676.389	0.0152084
676.467	0.0150523
676.545	0.0149496
676.623	0.0148676
676.701	0.0146424
676.780	0.0145188
676.858	0.0145002
676.936	0.0143671
677.014	0.0142020
677.092	0.0142767
677.170	0.0142536
677.248	0.0143034
677.326	0.0144039
677.405	0.0142779
677.483	0.0143060
677.561	0.0143895
677.639	0.0144922
677.717	0.0145859
677.795	0.0145879
677.873	0.0147550
677.951	0.0146905
678.030	0.0149648
678.108	0.0150820
678.186	0.0149659
678.264	0.0150769
678.342	0.0150637
678.420	0.0151824
678.498	0.0151717
678.576	0.0152088
678.655	0.0152837
678.733	0.0153607
678.811	0.0153883
678.889	0.0154578
678.967	0.0153681
679.045	0.0153789
679.123	0.0155196
679.201	0.0155320
679.280	0.0155239
679.358	0.0156519
679.436	0.0155586
679.514	0.0156760
679.592	0.0157059
679.670	0.0157652
679.748	0.0157146
679.826	0.0158582
679.905	0.0158324
679.983	0.0158575
680.061	0.0158187
680.139	0.0158495
680.217	0.0159197
680.295	0.0159992
680.373	0.0158903
680.451	0.0159045
680.530	0.0159202
680.608	0.0158359
680.686	0.0158443
680.764	0.0157404
680.842	0.0158014
680.920	0.0156285
680.998	0.0155082
681.076	0.0156189
681.155	0.0154761
681.233	0.0152744
681.311	0.0152445
681.389	0.0148270
681.467	0.0150093
681.545	0.0148160
681.623	0.0145907
681.701	0.0146236
681.780	0.0143321
681.858	0.0142871
681.936	0.0141060
682.014	0.0139371
682.092	0.0140239
682.170	0.0139639
682.248	0.0140031
682.326	0.0139677
682.405	0.0139053
682.483	0.0139549
682.561	0.0141759
682.639	0.0144111
682.717	0.0145059
682.795	0.0146005
682.873	0.0149030
682.951	0.0151160
683.030	0.0152583
683.108	0.0154552
683.186	0.0155154
683.264	0.0156734
683.342	0.0159007
683.420	0.0160431
683.498	0.0162328
683.576	0.0162716
683.655	0.0164124
683.733	0.0164751
683.811	0.0166255
683.889	0.0166557
683.967	0.0165514
684.045	0.0165974
684.123	0.0164873
684.201	0.0164335
684.280	0.0163466
684.358	0.0161985
684.436	0.0162766
684.514	0.0160783
684.592	0.0158429
684.670	0.0156785
684.748	0.0156387
684.826	0.0153954
684.905	0.0153008
684.983	0.0152789
685.061	0.0150830
685.139	0.0148831
685.217	0.0148536
685.295	0.0145777
685.373	0.0145576
685.451	0.0145204
685.530	0.0143517
685.608	0.0144457
685.686	0.0143098
685.764	0.0142123
685.842	0.0142138
685.920	0.0142352
685.998	0.0142493
686.076	0.0143236
686.155	0.0144415
686.233	0.0144658
686.311	0.0144044
686.389	0.0145715
686.467	0.0148540
686.545	0.0146378
686.623	0.0146774
686.701	0.0150006
686.780	0.0149834
686.858	0.0150140
686.936	0.0149374
687.014	0.0152840
687.092	0.0152271
687.170	0.0154239
687.248	0.0154330
687.326	0.0155975
687.405	0.0158308
687.483	0.0158121
687.561	0.0159621
687.639	0.0159981
687.717	0.0161045
687.795	0.0160559
687.873	0.0161300
687.951	0.0162680
688.030	0.0163271
688.108	0.0162141
688.186	0.0162217
688.264	0.0162357
688.342	0.0162114
688.420	0.0161436
688.498	0.0160756
688.576	0.0162095
688.655	0.0160872
688.733	0.0160212
688.811	0.0157327
688.889	0.0157303
688.967	0.0157843
689.045	0.0156243
689.123	0.0154564
689.201	0.0153404
689.280	0.0151009
689.358	0.0148666
689.436	0.0148196
689.514	0.0148168
689.592	0.0147131
689.670	0.0143325
689.748	0.0144585
689.826	0.0143676
689.905	0.0143073
689.983	0.0143325
690.061	0.0142459
690.139	0.0142540
690.217	0.0141848
690.295	0.0141243
690.373	0.0142758
690.451	0.0142588
690.530	0.0143140
690.608	0.0144068
690.686	0.0144892
690.764	0.0145303
690.842	0.0147670
690.920	0.0148219
690.998	0.0148938
691.076	0.0150200
691.155	0.0151518
691.233	0.0153003
691.311	0.0154152
691.389	0.0155428
691.467	0.0155289
691.545	0.0157331
691.623	0.0158464
691.701	0.0158747
691.780	0.0160402
691.858	0.0159954
691.936	0.0160756
692.014	0.0160508
692.092	0.0161330
692.170	0.0159930
692.248	0.0158372
692.326	0.0157420
692.405	0.0158140
692.483	0.0156564
692.561	0.0155992
692.639	0.0155171
692.717	0.0153439
692.795	0.0152127
692.873	0.0152056
692.951	0.0152076
693.030	0.0151364
693.108	0.0150437
693.186	0.0148397
693.264	0.0148586
693.342	0.0146424
693.420	0.0146040
693.498	0.0143941
693.576	0.0143221
693.655	0.0144320
693.733	0.0142654
693.811	0.0142263
693.889	0.0142753
693.967	0.0143688
694.045	0.0144819
694.123	0.0145129
694.201	0.0146971
694.280	0.0147944
694.358	0.0149826
694.436	0.0150025
694.514	0.0149575
694.592	0.0152076
694.670	0.0154218
694.748	0.0152702
694.826	0.0154435
694.905	0.0153165
694.983	0.0153188
695.061	0.0154022
695.139	0.0152810
695.217	0.0153194
695.295	0.0154639
695.373	0.0155530
695.451	0.0155211
695.530	0.0157623
695.608	0.0157047
695.686	0.0156812
695.764	0.0157551
695.842	0.0159182
695.920	0.0157730
695.998	0.0157829
696.076	0.0160195
696.155	0.0158367
696.233	0.0158373
696.311	0.0156968
696.389	0.0156532
696.467	0.0156481
696.545	0.0154289
696.623	0.0154607
696.701	0.0154752
696.780	0.0153399
696.858	0.0153254
696.936	0.0153955
697.014	0.0153911
697.092	0.0153627
697.170	0.0151920
697.248	0.0150792
697.326	0.0151914
697.405	0.0152299
697.483	0.0150111
697.561	0.0147182
697.639	0.0148996
697.717	0.0148115
697.795	0.0147466
697.873	0.0145828
697.951	0.0145209
698.030	0.0145596
698.108	0.0146468
698.186	0.0145570
698.264	0.0143280
698.342	0.0143694
698.420	0.0144809
698.498	0.0143805
698.576	0.0145512
698.655	0.0145791
698.733	0.0146161
698.811	0.0146748
698.889	0.0146446
698.967	0.0148134
699.045	0.0149788
699.123	0.0152771
699.201	0.0153300
699.280	0.0154193
699.358	0.0156791
699.436	0.0158211
699.514	0.0159380
699.592	0.0160883
699.670	0.0161804
699.748	0.0163576
699.826	0.0162887
699.905	0.0164227
699.983	0.0166180
700.061	0.0166776
700.139	0.0167542
700.217	0.0165996
700.295	0.0166516
700.373	0.0165350
700.451	0.0166517
700.530	0.0165516
700.608	0.0165791
700.686	0.0163364
700.764	0.0161176
700.842	0.0159521
700.920	0.0156172
700.998	0.0153246
701.076	0.0150045
701.155	0.0146115
701.233	0.0146369
701.311	0.0141531
701.389	0.0138316
701.467	0.0136323
701.545	0.0134350
701.623	0.0132863
701.701	0.0131808
701.780	0.0130892
701.858	0.0131497
701.936	0.0130291
702.014	0.0131976
702.092	0.0132002
702.170	0.0131194
702.248	0.0133419
702.326	0.0134722
702.405	0.0135025
702.483	0.0137241
702.561	0.0140619
702.639	0.0141360
702.717	0.0144551
702.795	0.0148321
702.873	0.0148954
702.951	0.0151744
703.030	0.0154500
703.108	0.0156796
703.186	0.0159793
703.264	0.0160139
703.342	0.0162452
703.420	0.0166135
703.498	0.0168430
703.576	0.0167778
703.655	0.0169835
703.733	0.0171684
703.811	0.0171902
703.889	0.0172725
703.967	0.0172900
704.045	0.0170242
704.123	0.0171193
704.201	0.0168001
704.280	0.0165146
704.358	0.0163033
704.436	0.0164411
704.514	0.0160455
704.592	0.0158212
704.670	0.0156860
704.748	0.0154455
704.826	0.0152579
704.905	0.0149603
704.983	0.0148766
705.061	0.0147307
705.139	0.0145747
705.217	0.0144080
705.295	0.0142348
705.373	0.0141904
705.451	0.0141757
705.530	0.0140614
705.608	0.0139696
705.686	0.0139996
705.764	0.0139420
705.842	0.0138390
705.920	0.0140294
705.998	0.0139717
706.076	0.0139934
706.155	0.0139342
706.233	0.0141201
706.311	0.0142764
706.389	0.0144072
706.467	0.0145277
706.545	0.0145900
706.623	0.0147301
706.701	0.0150122
706.780	0.0150194
706.858	0.0151807
706.936	0.0152228
707.014	0.0151737
707.092	0.0151929
707.170	0.0153535
707.248	0.0153508
707.326	0.0154442
707.405	0.0153088
707.483	0.0154660
707.561	0.0155552
707.639	0.0154278
707.717	0.0154318
707.795	0.0153374
707.873	0.0151931
707.951	0.0152184
708.030	0.0153626
708.108	0.0154441
708.186	0.0152724
708.264	0.0152708
708.342	0.0152292
708.420	0.0154445
708.498	0.0154873
708.576	0.0155640
708.655	0.0155136
708.733	0.0153610
708.811	0.0154856
708.889	0.0156336
708.967	0.0154459
709.045	0.0154404
709.123	0.0153766
709.201	0.0153130
709.280	0.0152275
709.358	0.0154402
709.436	0.0154364
709.514	0.0153315
709.592	0.0153245
709.670	0.0153199
709.748	0.0152733
709.826	0.0151874
709.905	0.0152839
709.983	0.0151662
710.061	0.0149602
710.139	0.0150809
710.217	0.0151339
710.295	0.0149435
710.373	0.0150483
710.451	0.0149035
710.530	0.0151373
710.608	0.0149065
710.686	0.0149345
710.764	0.0149538
710.842	0.0148108
710.920	0.0148664
710.998	0.0147919
711.076	0.0148289
711.155	0.0149054
711.233	0.0150783
711.311	0.0150208
711.389	0.0150053
711.467	0.0152680
711.545	0.0153656
711.623	0.0154572
711.701	0.0155245
711.780	0.0155640
711.858	0.0157788
711.936	0.0159540
712.014	0.0161263
712.092	0.0161517
712.170	0.0161836
712.248	0.0162136
712.326	0.0161538
712.405	0.0161955
712.483	0.0161668
712.561	0.0160261
712.639	0.0161028
712.717	0.0160204
712.795	0.0159421
712.873	0.0157750
712.951	0.0156403
713.030	0.0156354
713.108	0.0153991
713.186	0.0153763
713.264	0.0152691
713.342	0.0149377
713.420	0.0148872
713.498	0.0148327
713.576	0.0146201
713.655	0.0145439
713.733	0.0142863
713.811	0.0142806
713.889	0.0142521
713.967	0.0139594
714.045	0.0138816
714.123	0.0140421
714.201	0.0139337
714.280	0.0138894
714.358	0.0140466
714.436	0.0140249
714.514	0.0139312
714.592	0.0139733
714.670	0.0138927
714.748	0.0141460
714.826	0.0143340
714.905	0.0142050
714.983	0.0143980
715.061	0.0143237
715.139	0.0145806
715.217	0.0146643
715.295	0.0148450
715.373	0.0148942
715.451	0.0149123
715.530	0.0151138
715.608	0.0152721
715.686	0.0153825
715.764	0.0155009
715.842	0.0155128
715.920	0.0157315
715.998	0.0158228
716.076	0.0160070
716.155	0.0158195
716.233	0.0162098
716.311	0.0163044
716.389	0.0160706
716.467	0.0160557
716.545	0.0160626
716.623	0.0161698
716.701	0.0159981
716.780	0.0159864
716.858	0.0159045
716.936	0.0157105
717.014	0.0158234
717.092	0.0157708
717.170	0.0156810
717.248	0.0155141
717.326	0.0156250
717.405	0.0154459
717.483	0.0152915
717.561	0.0153842
717.639	0.0153066
717.717	0.0150697
717.795	0.0151801
717.873	0.0151903
717.951	0.0150747
718.030	0.0149895
718.108	0.0150888
718.186	0.0150781
718.264	0.0149935
718.342	0.0151516
718.420	0.0150471
718.498	0.0150635
718.576	0.0149872
718.655	0.0150797
718.733	0.0149506
718.811	0.0148640
718.889	0.0147381
718.967	0.0148328
719.045	0.0146553
719.123	0.0145465
719.201	0.0146941
719.280	0.0145510
719.358	0.0144701
719.436	0.0145038
719.514	0.0145135
719.592	0.0144131
719.670	0.0145221
719.748	0.0146594
719.826	0.0146320
719.905	0.0144492
719.983	0.0148232
720.061	0.0148626
720.139	0.0148930
720.217	0.0147964
720.295	0.0149440
720.373	0.0149833
720.451	0.0152336
720.530	0.0150714
720.608	0.0151376
720.686	0.0152699
720.764	0.0152989
720.842	0.0153676
720.920	0.0153972
720.998	0.0153035
721.076	0.0153767
721.155	0.0155053
721.233	0.0155390
721.311	0.0154602
721.389	0.0153542
721.467	0.0155313
721.545	0.0154024
721.623	0.0155517
721.701	0.0154969
721.780	0.0154380
721.858	0.0154934
721.936	0.0153896
722.014	0.0155238
722.092	0.0153827
722.170	0.0153577
722.248	0.0153504
722.326	0.0154391
722.405	0.0152281
722.483	0.0153120
722.561	0.0152447
722.639	0.0153607
722.717	0.0155001
722.795	0.0153156
722.873	0.0152502
722.951	0.0152899
723.030	0.0152814
723.108	0.0152772
723.186	0.0152705
723.264	0.0151694
723.342	0.0151207
723.420	0.0153093
723.498	0.0151351
723.576	0.0150395
723.655	0.0150547
723.733	0.0150863
723.811	0.0150193
723.889	0.0150311
723.967	0.0150443
724.045	0.0150117
724.123	0.0148858
724.201	0.0148448
724.280	0.0148270
724.358	0.0147375
724.436	0.0147986
724.514	0.0147827
724.592	0.0146728
724.670	0.0147249
724.748	0.0147088
724.826	0.0148985
724.905	0.0149417
724.983	0.0150594
725.061	0.0151619
725.139	0.0152171
725.217	0.0154240
725.295	0.0154565
725.373	0.0157013
725.451	0.0157997
725.530	0.0158693
725.608	0.0158811
725.686	0.0160171
725.764	0.0161031
725.842	0.0161241
725.920	0.0160151
725.998	0.0162029
726.076	0.0162387
726.155	0.0159470
726.233	0.0160966
726.311	0.0161289
726.389	0.0159960
726.467	0.0157875
726.545	0.0157302
726.623	0.0157218
726.701	0.0155706
726.780	0.0154977
726.858	0.0153446
726.936	0.0152256
727.014	0.0151387
727.092	0.0149235
727.170	0.0147292
727.248	0.0147993
727.326	0.0147820
727.405	0.0145647
727.483	0.0144704
727.561	0.0144499
727.639	0.0143439
727.717	0.0142197
727.795	0.0144090
727.873	0.0143296
727.951	0.0142308
728.030	0.0142719
728.108	0.0141728
728.186	0.0143291
728.264	0.0145412
728.342	0.0144057
728.420	0.0146183
728.498	0.0146297
728.576	0.0146456
728.655	0.0147925
728.733	0.0149337
728.811	0.0149841
728.889	0.0151527
728.967	0.0154107
729.045	0.0153680
729.123	0.0154465
729.201	0.0156365
729.280	0.0155967
729.358	0.0156628
729.436	0.0156674
729.514	0.0157465
729.592	0.0158845
729.670	0.0158228
729.748	0.0158448
729.826	0.0156781
729.905	0.0156310
729.983	0.0156441
730.061	0.0155354
730.139	0.0156449
730.217	0.0155537
730.295	0.0154971
730.373	0.0154311
730.451	0.0151881
730.530	0.0151971
730.608	0.0151785
730.686	0.0152007
730.764	0.0150942
730.842	0.0151863
730.920	0.0150316
730.998	0.0148067
731.076	0.0149529
731.155	0.0148689
731.233	0.0149654
731.311	0.0151086
731.389	0.0150333
731.467	0.0149780
731.545	0.0149920
731.623	0.0150146
731.701	0.0148823
731.780	0.0149585
731.858	0.0150959
731.936	0.0149261
732.014	0.0148387
732.092	0.0147275
732.170	0.0147842
732.248	0.0146374
732.326	0.0146285
732.405	0.0147025
732.483	0.0148013
732.561	0.0148918
732.639	0.0147993
732.717	0.0148076
732.795	0.0148545
732.873	0.0149117
732.951	0.0148236
733.030	0.0149252
733.108	0.0149936
733.186	0.0148569
733.264	0.0148981
733.342	0.0149633
733.420	0.0149409
733.498	0.0148626
733.576	0.0148840
733.655	0.0149046
733.733	0.0148073
733.811	0.0149146
733.889	0.0148022
733.967	0.0148779
734.045	0.0148174
734.123	0.0147368
734.201	0.0147923
734.280	0.0149132
734.358	0.0148426
734.436	0.0147613
734.514	0.0147997
734.592	0.0148364
734.670	0.0148595
734.748	0.0148631
734.826	0.0148131
734.905	0.0149604
734.983	0.0151172
735.061	0.0150520
735.139	0.0150306
735.217	0.0151730
735.295	0.0152328
735.373	0.0152536
735.451	0.0151631
735.530	0.0153235
735.608	0.0152206
735.686	0.0152769
735.764	0.0154308
735.842	0.0154742
735.920	0.0153358
735.998	0.0155038
736.076	0.0153404
736.155	0.0154053
736.233	0.0152074
736.311	0.0152129
736.389	0.0154535
736.467	0.0153885
736.545	0.0152686
736.623	0.0152773
736.701	0.0153182
736.780	0.0152043
736.858	0.0152602
736.936	0.0153564
737.014	0.0151394
737.092	0.0151805
737.170	0.0151682
737.248	0.0152094
737.326	0.0152119
737.405	0.0151105
737.483	0.0151929
737.561	0.0150697
737.639	0.0151853
737.717	0.0151240
737.795	0.0151645
737.873	0.0150746
737.951	0.0151527
738.030	0.0150939
738.108	0.0151789
738.186	0.0151772
738.264	0.0152217
738.342	0.0150840
738.420	0.0150492
738.498	0.0152193
738.576	0.0150730
738.655	0.0150299
738.733	0.0150541
738.811	0.0149818
738.889	0.0149217
738.967	0.0150075
739.045	0.0149780
739.123	0.0150164
739.201	0.0151487
739.280	0.0151948
739.358	0.0150296
739.436	0.0150373
739.514	0.0151292
739.592	0.0151954
739.670	0.0149509
739.748	0.0151004
739.826	0.0149851
739.905	0.0150551
739.983	0.0150964
740.061	0.0151108
740.139	0.0151324
740.217	0.0151631
740.295	0.0151929
740.373	0.0152484
740.451	0.0152585
740.530	0.0153054
740.608	0.0153293
740.686	0.0154105
740.764	0.0154324
740.842	0.0153876
740.920	0.0152795
740.998	0.0153174
741.076	0.0156425
741.155	0.0155959
741.233	0.0154539
741.311	0.0156994
741.389	0.0156882
741.467	0.0154077
741.545	0.0155434
741.623	0.0155455
741.701	0.0154630
741.780	0.0154939
741.858	0.0155132
741.936	0.0154859
742.014	0.0154235
742.092	0.0153525
742.170	0.0152881
742.248	0.0153476
742.326	0.0151466
742.405	0.0152805
742.483	0.0152541
742.561	0.0151442
742.639	0.0152215
742.717	0.0151649
742.795	0.0151028
742.873	0.0151661
742.951	0.0151730
743.030	0.0151432
743.108	0.0150914
743.186	0.0150049
743.264	0.0151288
743.342	0.0150356
743.420	0.0150859
743.498	0.0150650
743.576	0.0149345
743.655	0.0149559
743.733	0.0150464
743.811	0.0149461
743.889	0.0148774
743.967	0.0148985
744.045	0.0150726
744.123	0.0149348
744.201	0.0149426
744.280	0.0151154
744.358	0.0152043
744.436	0.0150854
744.514	0.0150485
744.592	0.0152287
744.670	0.0152415
744.748	0.0152238
744.826	0.0153020
744.905	0.0151584
744.983	0.0152792
745.061	0.0153710
745.139	0.0154457
745.217	0.0153456
745.295	0.0154495
745.373	0.0155489
745.451	0.0155769
745.530	0.0156285
745.608	0.0156380
745.686	0.0158042
745.764	0.0157702
745.842	0.0154024
745.920	0.0156259
745.998	0.0157019
746.076	0.0155870
746.155	0.0154630
746.233	0.0154915
746.311	0.0155187
746.389	0.0154535
746.467	0.0152834
746.545	0.0153842
746.623	0.0152204
746.701	0.0150110
746.780	0.0150873
746.858	0.0150343
746.936	0.0149747
747.014	0.0149522
747.092	0.0149982
747.170	0.0149210
747.248	0.0148895
747.326	0.0148663
747.405	0.0148313
747.483	0.0150784
747.561	0.0150958
747.639	0.0149985
747.717	0.0149860
747.795	0.0149917
747.873	0.0149644
747.951	0.0149854
748.030	0.0150769
748.108	0.0150715
748.186	0.0152466
748.264	0.0151188
748.342	0.0152147
748.420	0.0151244
748.498	0.0152984
748.576	0.0153524
748.655	0.0152898
748.733	0.0152329
748.811	0.0152977
748.889	0.0151645
748.967	0.0152122
749.045	0.0151463
749.123	0.0151018
749.201	0.0152789
749.280	0.0150999
749.358	0.0150340
749.436	0.0149474
749.514	0.0150704
749.592	0.0149619
749.670	0.0149581
749.748	0.0149512
749.826	0.0149134
749.905	0.0150372
749.983	0.0149123
750.061	0.0149791
750.139	0.0150437
750.217	0.0151543
750.295	0.0150240
750.373	0.0152148
750.451	0.0152311
750.530	0.0152116
750.608	0.0151938
750.686	0.0153423
750.764	0.0153018
750.842	0.0151868
750.920	0.0152734
750.998	0.0152644
751.076	0.0152550
751.155	0.0152283
751.233	0.0150887
751.311	0.0152400
751.389	0.0151781
751.467	0.0150384
751.545	0.0149559
751.623	0.0148697
751.701	0.0151355
751.780	0.0151051
751.858	0.0150176
751.936	0.0150197
752.014	0.0151025
752.092	0.0149944
752.170	0.0148909
752.248	0.0151105
752.326	0.0149858
752.405	0.0151385
752.483	0.0151337
752.561	0.0149899
752.639	0.0150009
752.717	0.0149890
752.795	0.0150906
752.873	0.0150224
752.951	0.0150158
753.030	0.0149674
753.108	0.0150116
753.186	0.0150349
753.264	0.0151220
753.342	0.0152700
753.420	0.0152409
753.498	0.0151095
753.576	0.0151582
753.655	0.0152058
753.733	0.0153231
753.811	0.0151470
753.889	0.0150986
753.967	0.0151665
754.045	0.0151048
754.123	0.0151548
754.201	0.0151868
754.280	0.0151408
754.358	0.0149871
754.436	0.0152437
754.514	0.0152385
754.592	0.0151176
754.670	0.0152365
754.748	0.0151830
754.826	0.0153325
754.905	0.0152799
754.983	0.0153906
755.061	0.0153429
755.139	0.0154803
755.217	0.0154633
755.295	0.0154283
755.373	0.0152952
755.451	0.0153190
755.530	0.0155287
755.608	0.0153734
755.686	0.0152629
755.764	0.0152663
755.842	0.0154572
755.920	0.0152350
755.998	0.0153704
756.076	0.0154944
756.155	0.0152944
756.233	0.0153326
756.311	0.0154268
756.389	0.0152351
756.467	0.0152426
756.545	0.0152731
756.623	0.0151170
756.701	0.0151231
756.780	0.0150578
756.858	0.0149055
756.936	0.0149113
757.014	0.0151023
757.092	0.0148516
757.170	0.0148969
757.248	0.0148318
757.326	0.0148416
757.405	0.0148027
757.483	0.0148083
757.561	0.0147677
757.639	0.0149254
757.717	0.0149198
757.795	0.0148650
757.873	0.0149003
757.951	0.0150278
758.030	0.0150151
758.108	0.0149688
758.186	0.0151512
758.264	0.0151848
758.342	0.0152650
758.420	0.0151877
758.498	0.0151379
758.576	0.0150230
758.655	0.0153141
758.733	0.0152094
758.811	0.0151398
758.889	0.0151673
758.967	0.0152942
759.045	0.0152704
759.123	0.0152861
759.201	0.0152159
759.280	0.0151631
759.358	0.0152362
759.436	0.0151779
759.514	0.0149764
759.592	0.0150607
759.670	0.0151493
759.748	0.0151830
759.826	0.0151133
759.905	0.0151233
759.983	0.0151890
760.061	0.0150175
760.139	0.0151260
760.217	0.0151953
760.295	0.0152374
760.373	0.0151608
760.451	0.0152406
760.530	0.0152637
760.608	0.0153836
760.686	0.0152087
760.764	0.0152340
760.842	0.0152145
760.920	0.0153851
760.998	0.0153194
761.076	0.0152449
761.155	0.0152390
761.233	0.0151506
761.311	0.0152859
761.389	0.0151309
761.467	0.0152194
761.545	0.0151203
761.623	0.0150375
761.701	0.0150478
761.780	0.0150278
761.858	0.0150780
761.936	0.0151492
762.014	0.0150634
762.092	0.0150302
762.170	0.0150282
762.248	0.0150809
762.326	0.0152921
762.405	0.0152675
762.483	0.0152608
762.561	0.0152597
762.639	0.0154247
762.717	0.0152547
762.795	0.0153754
762.873	0.0154559
762.951	0.0153529
763.030	0.0153120
763.108	0.0154122
763.186	0.0153349
763.264	0.0152173
763.342	0.0153519
763.420	0.0153300
763.498	0.0154057
763.576	0.0153567
763.655	0.0152895
763.733	0.0153632
763.811	0.0153783
763.889	0.0153122
763.967	0.0152991
764.045	0.0152977
764.123	0.0154460
764.201	0.0153040
764.280	0.0154250
764.358	0.0154368
764.436	0.0154749
764.514	0.0154051
764.592	0.0153621
764.670	0.0153207
764.748	0.0153812
764.826	0.0153640
764.905	0.0153426
764.983	0.0152568
765.061	0.0154015
765.139	0.0154019
765.217	0.0152693
765.295	0.0154162
765.373	0.0153662
765.451	0.0153282
765.530	0.0152950
765.608	0.0154720
765.686	0.0154105
765.764	0.0153298
765.842	0.0151998
765.920	0.0154713
765.998	0.0153285
766.076	0.0152314
766.155	0.0153400
766.233	0.0150409
766.311	0.0151777
766.389	0.0151435
766.467	0.0152129
766.545	0.0151672
766.623	0.0152209
766.701	0.0153000
766.780	0.0153329
766.858	0.0153362
766.936	0.0153223
767.014	0.0153783
767.092	0.0153226
767.170	0.0153837
767.248	0.0154018
767.326	0.0152419
767.405	0.0153583
767.483	0.0151585
767.561	0.0151681
767.639	0.0151054
767.717	0.0151745
767.795	0.0151846
767.873	0.0151241
767.951	0.0150958
768.030	0.0149717
768.108	0.0149423
768.186	0.0150604
768.264	0.0150807
768.342	0.0150040
768.420	0.0150758
768.498	0.0149915
768.576	0.0150859
768.655	0.0151175
768.733	0.0150472
768.811	0.0150945
768.889	0.0150809
768.967	0.0150252
769.045	0.0150435
769.123	0.0150780
769.201	0.0151015
769.280	0.0149772
769.358	0.0151596
769.436	0.0149913
769.514	0.0151191
769.592	0.0151427
769.670	0.0150452
769.748	0.0150703
769.826	0.0150562
769.905	0.0151929
769.983	0.0151058
770.061	0.0150931
770.139	0.0150789
770.217	0.0150960
770.295	0.0150002
770.373	0.0149761
770.451	0.0150374
770.530	0.0151186
770.608	0.0150900
770.686	0.0151183
770.764	0.0151036
770.842	0.0149475
770.920	0.0151543
770.998	0.0150201
771.076	0.0150121
771.155	0.0151313
771.233	0.0151015
771.311	0.0149753
771.389	0.0151208
771.467	0.0150162
771.545	0.0151265
771.623	0.0150307
771.701	0.0150631
771.780	0.0151089
771.858	0.0150671
771.936	0.0151038
772.014	0.0151405
772.092	0.0150870
772.170	0.0152015
772.248	0.0153357
772.326	0.0152758
772.405	0.0151825
772.483	0.0151027
772.561	0.0149070
772.639	0.0151127
772.717	0.0151634
772.795	0.0150335
772.873	0.0152119
772.951	0.0150726
773.030	0.0149178
773.108	0.0149407
773.186	0.0150397
773.264	0.0149382
773.342	0.0147778
773.420	0.0150049
773.498	0.0150246
773.576	0.0149461
773.655	0.0148026
773.733	0.0149635
773.811	0.0148103
773.889	0.0147236
773.967	0.0148794
774.045	0.0148636
774.123	0.0147647
774.201	0.0148701
774.280	0.0151048
774.358	0.0150438
774.436	0.0151232
774.514	0.0149644
774.592	0.0151659
774.670	0.0152864
774.748	0.0153329
774.826	0.0153115
774.905	0.0154032
774.983	0.0154736
775.061	0.0154357
775.139	0.0154583
775.217	0.0153628
775.295	0.0155603
775.373	0.0153481
775.451	0.0152828
775.530	0.0153203
775.608	0.0152338
775.686	0.0152769
775.764	0.0150687
775.842	0.0151049
775.920	0.0152397
775.998	0.0151170
776.076	0.0152629
776.155	0.0151249
776.233	0.0150600
776.311	0.0151412
776.389	0.0152522
776.467	0.0150596
776.545	0.0151188
776.623	0.0152176
776.701	0.0152631
776.780	0.0153793
776.858	0.0153583
776.936	0.0152457
777.014	0.0153029
777.092	0.0153725
777.170	0.0154406
777.248	0.0153713
777.326	0.0152936
777.405	0.0153947
777.483	0.0154029
777.561	0.0153384
777.639	0.0153367
777.717	0.0152185
777.795	0.0151476
777.873	0.0152020
777.951	0.0150848
778.030	0.0150488
778.108	0.0149252
778.186	0.0150888
778.264	0.0150574
778.342	0.0150368
778.420	0.0149178
778.498	0.0149580
778.576	0.0148409
778.655	0.0150488
778.733	0.0151693
778.811	0.0152878
778.889	0.0151270
778.967	0.0150156
779.045	0.0151278
779.123	0.0152213
779.201	0.0151717
779.280	0.0151582
779.358	0.0151836
779.436	0.0152877
779.514	0.0151431
779.592	0.0151866
779.670	0.0152327
779.748	0.0151868
779.826	0.0152190
779.905	0.0151544
779.983	0.0150975
780.061	0.0151174
780.139	0.0150864
780.217	0.0150338
780.295	0.0151897
780.373	0.0152352
780.451	0.0150817
780.530	0.0151414
780.608	0.0150268
780.686	0.0152312
780.764	0.0151463
780.842	0.0150989
780.920	0.0152381
780.998	0.0150816
781.076	0.0151453
781.155	0.0150780
781.233	0.0151490
781.311	0.0151535
781.389	0.0151839
781.467	0.0151753
781.545	0.0151852
781.623	0.0151015
781.701	0.0151238
781.780	0.0151178
781.858	0.0150165
781.936	0.0151810
782.014	0.0151122
782.092	0.0151309
782.170	0.0152213
782.248	0.0149762
782.326	0.0149893
782.405	0.0150336
782.483	0.0150136
782.561	0.0150402
782.639	0.0150700
782.717	0.0151147
782.795	0.0150169
782.873	0.0149905
782.951	0.0150713
783.030	0.0149149
783.108	0.0149810
783.186	0.0151331
783.264	0.0150773
783.342	0.0149828
783.420	0.0151005
783.498	0.0149775
783.576	0.0148919
783.655	0.0151543
783.733	0.0149934
783.811	0.0150522
783.889	0.0150507
783.967	0.0150491
784.045	0.0150579
784.123	0.0150669
784.201	0.0149261
784.280	0.0150754
784.358	0.0151597
784.436	0.0151450
784.514	0.0151357
784.592	0.0152007
784.670	0.0152921
784.748	0.0153206
784.826	0.0153436
784.905	0.0153091
784.983	0.0152814
785.061	0.0154224
785.139	0.0153011
785.217	0.0152587
785.295	0.0153426
785.373	0.0154922
785.451	0.0154699
785.530	0.0155030
785.608	0.0155503
785.686	0.0155065
785.764	0.0153317
785.842	0.0152940
785.920	0.0152859
785.998	0.0152934
786.076	0.0151339
786.155	0.0150600
786.233	0.0151535
786.311	0.0150404
786.389	0.0150150
786.467	0.0149607
786.545	0.0151260
786.623	0.0150426
786.701	0.0151254
786.780	0.0150101
786.858	0.0150715
786.936	0.0150911
787.014	0.0151720
787.092	0.0151728
787.170	0.0152328
787.248	0.0151415
787.326	0.0151702
787.405	0.0151621
787.483	0.0153207
787.561	0.0153162
787.639	0.0152873
787.717	0.0153370
787.795	0.0156040
787.873	0.0155325
787.951	0.0155375
788.030	0.0154922
788.108	0.0153664
788.186	0.0154536
788.264	0.0154340
788.342	0.0154382
788.420	0.0155483
788.498	0.0154240
788.576	0.0154226
788.655	0.0152726
788.733	0.0152977
788.811	0.0155501
788.889	0.0154235
788.967	0.0151160
789.045	0.0153310
789.123	0.0152627
789.201	0.0152513
789.280	0.0152044
789.358	0.0152345
789.436	0.0152767
789.514	0.0153257
789.592	0.0152908
789.670	0.0153106
789.748	0.0153092
789.826	0.0152408
789.905	0.0152422
789.983	0.0151943
790.061	0.0151672
790.139	0.0151163
790.217	0.0150361
790.295	0.0152696
790.373	0.0150483
790.451	0.0149690
790.530	0.0152157
790.608	0.0152312
790.686	0.0151218
790.764	0.0151230
790.842	0.0150516
790.920	0.0151288
790.998	0.0150852
791.076	0.0151366
791.155	0.0151238
791.233	0.0152705
791.311	0.0151255
791.389	0.0151656
791.467	0.0151881
791.545	0.0151994
791.623	0.0152040
791.701	0.0152777
791.780	0.0153393
791.858	0.0153782
791.936	0.0151324
792.014	0.0153027
792.092	0.0153416
792.170	0.0153146
792.248	0.0151662
792.326	0.0152172
792.405	0.0151662
792.483	0.0151532
792.561	0.0151364
792.639	0.0149939
792.717	0.0151854
792.795	0.0151029
792.873	0.0151401
792.951	0.0151067
793.030	0.0150757
793.108	0.0151079
793.186	0.0150128
793.264	0.0149688
793.342	0.0151299
793.420	0.0151449
793.498	0.0150305
793.576	0.0150126
793.655	0.0152699
793.733	0.0149073
793.811	0.0148883
793.889	0.0149355
793.967	0.0150359
794.045	0.0149922
794.123	0.0149105
794.201	0.0150163
794.280	0.0150349
794.358	0.0150340
794.436	0.0150161
794.514	0.0149403
794.592	0.0149977
794.670	0.0150591
794.748	0.0149300
794.826	0.0149173
794.905	0.0149036
794.983	0.0151321
795.061	0.0150943
795.139	0.0150433
795.217	0.0150495
795.295	0.0150110
795.373	0.0150421
795.451	0.0150223
795.530	0.0152719
795.608	0.0151665
795.686	0.0151262
795.764	0.0150960
795.842	0.0152038
795.920	0.0151731
795.998	0.0153535
796.076	0.0152785
796.155	0.0151999
796.233	0.0152682
796.311	0.0152148
796.389	0.0151434
796.467	0.0152795
796.545	0.0150790
796.623	0.0152077
796.701	0.0152226
796.780	0.0151820
796.858	0.0150897
796.936	0.0150721
797.014	0.0151459
797.092	0.0151197
797.170	0.0151287
797.248	0.0151711
797.326	0.0151641
797.405	0.0150919
797.483	0.0151170
797.561	0.0150834
797.639	0.0150134
797.717	0.0150520
797.795	0.0150388
797.873	0.0150089
797.951	0.0150819
798.030	0.0149944
798.108	0.0148519
798.186	0.0148323
798.264	0.0150801
798.342	0.0149426
798.420	0.0147796
798.498	0.0147805
798.576	0.0148649
798.655	0.0148536
798.733	0.0147722
798.811	0.0148285
798.889	0.0148548
798.967	0.0148924
799.045	0.0146893
799.123	0.0148537
799.201	0.0149660
799.280	0.0148910
799.358	0.0150384
799.436	0.0148620
799.514	0.0152456
799.592	0.0150845
799.670	0.0149798
799.748	0.0152235
799.826	0.0152437
799.905	0.0152721
799.983	0.0152563
800.061	0.0153798
800.139	0.0154791
800.217	0.0155530
800.295	0.0154304
800.373	0.0154318
800.451	0.0154503
800.530	0.0155178
800.608	0.0154502
800.686	0.0155637
800.764	0.0155930
800.842	0.0153785
800.920	0.0152811
800.998	0.0154446
801.076	0.0153420
801.155	0.0154024
801.233	0.0153929
801.311	0.0152133
801.389	0.0151369
801.467	0.0152078
801.545	0.0151382
801.623	0.0151913
801.701	0.0149870
801.780	0.0149416
801.858	0.0149213
801.936	0.0150541
802.014	0.0149989
802.092	0.0149194
802.170	0.0149702
802.248	0.0149360
802.326	0.0149843
802.405	0.0149356
802.483	0.0150035
802.561	0.0149354
802.639	0.0151092
802.717	0.0149437
802.795	0.0149760
802.873	0.0149804
802.951	0.0150094
803.030	0.0150259
803.108	0.0150328
803.186	0.0149302
803.264	0.0150591
803.342	0.0151168
803.420	0.0150655
803.498	0.0151189
803.576	0.0150711
803.655	0.0151923
803.733	0.0151099
803.811	0.0150617
803.889	0.0151142
803.967	0.0151571
804.045	0.0150558
804.123	0.0150809
804.201	0.0150201
804.280	0.0150936
804.358	0.0150748
804.436	0.0151248
804.514	0.0150048
804.592	0.0152402
804.670	0.0151800
804.748	0.0151283
804.826	0.0150195
804.905	0.0150043
804.983	0.0151356
805.061	0.0150693
805.139	0.0150047
805.217	0.0149535
805.295	0.0151775
805.373	0.0151778
805.451	0.0151110
805.530	0.0152153
805.608	0.0150574
805.686	0.0151317
805.764	0.0150174
805.842	0.0151718
805.920	0.0152558
805.998	0.0151118
806.076	0.0151593
806.155	0.0153001
806.233	0.0152214
806.311	0.0152176
806.389	0.0152404
806.467	0.0151841
806.545	0.0151884
806.623	0.0152795
806.701	0.0150854
806.780	0.0150753
806.858	0.0152286
806.936	0.0151756
807.014	0.0151339
807.092	0.0151366
807.170	0.0151402
807.248	0.0149918
807.326	0.0150549
807.405	0.0150407
807.483	0.0149506
807.561	0.0151220
807.639	0.0151560
807.717	0.0151254
807.795	0.0149696
807.873	0.0151640
807.951	0.0150701
808.030	0.0152027
808.108	0.0151901
808.186	0.0151893
808.264	0.0152502
808.342	0.0152783
808.420	0.0153040
808.498	0.0153176
808.576	0.0153719
808.655	0.0155148
808.733	0.0153351
808.811	0.0156142
808.889	0.0154530
808.967	0.0153687
809.045	0.0152986
809.123	0.0156467
809.201	0.0155264
809.280	0.0154493
809.358	0.0155093
809.436	0.0155236
809.514	0.0155393
809.592	0.0154015
809.670	0.0154264
809.748	0.0152982
809.826	0.0154227
809.905	0.0155524
809.983	0.0153103
810.061	0.0152987
810.139	0.0153042
810.217	0.0152155
810.295	0.0153199
810.373	0.0152415
810.451	0.0152086
810.530	0.0151803
810.608	0.0151917
810.686	0.0151935
810.764	0.0151286
810.842	0.0151181
810.920	0.0149972
810.998	0.0151927
811.076	0.0151461
811.155	0.0150247
811.233	0.0152183
811.311	0.0151519
811.389	0.0150735
811.467	0.0152560
811.545	0.0151807
811.623	0.0151707
811.701	0.0152102
811.780	0.0152682
811.858	0.0152327
811.936	0.0152209
812.014	0.0151717
812.092	0.0153136
812.170	0.0152647
812.248	0.0151679
812.326	0.0153419
812.405	0.0152832
812.483	0.0152515
812.561	0.0152268
812.639	0.0152086
812.717	0.0152703
812.795	0.0151952
812.873	0.0151510
812.951	0.0152550
813.030	0.0152277
813.108	0.0152297
813.186	0.0150681
813.264	0.0151472
813.342	0.0152251
813.420	0.0152319
813.498	0.0151923
813.576	0.0151031
813.655	0.0151788
813.733	0.0150653
813.811	0.0151088
813.889	0.0150867
813.967	0.0150267
814.045	0.0150439
814.123	0.0151507
814.201	0.0149954
814.280	0.0150059
814.358	0.0149194
814.436	0.0149836
814.514	0.0149403
814.592	0.0149076
814.670	0.0151070
814.748	0.0149871
814.826	0.0150605
814.905	0.0151292
814.983	0.0150580
815.061	0.0149747
815.139	0.0149435
815.217	0.0148071
815.295	0.0150456
815.373	0.0151482
815.451	0.0149298
815.530	0.0150901
815.608	0.0151184
815.686	0.0150004
815.764	0.0151019
815.842	0.0148856
815.920	0.0150501
815.998	0.0150491
816.076	0.0150564
816.155	0.0149728
816.233	0.0150975
816.311	0.0150462
816.389	0.0150453
816.467	0.0151277
816.545	0.0150948
816.623	0.0152351
816.701	0.0151850
816.780	0.0152816
816.858	0.0151915
816.936	0.0153172
817.014	0.0153912
817.092	0.0154267
817.170	0.0154088
817.248	0.0152467
817.326	0.0153732
817.405	0.0151585
817.483	0.0153846
817.561	0.0153529
817.639	0.0153172
817.717	0.0153191
817.795	0.0153297
817.873	0.0153281
817.951	0.0152669
818.030	0.0151588
818.108	0.0151614
818.186	0.0151554
818.264	0.0151696
818.342	0.0152037
818.420	0.0151347
818.498	0.0151320
818.576	0.0151476
818.655	0.0151394
818.733	0.0151420
818.811	0.0150123
818.889	0.0150961
818.967	0.0150820
819.045	0.0150705
819.123	0.0151524
819.201	0.0151148
819.280	0.0151839
819.358	0.0152378
819.436	0.0151440
819.514	0.0151106
819.592	0.0151950
819.670	0.0151653
819.748	0.0150636
819.826	0.0153371
819.905	0.0151057
819.983	0.0150490
820.061	0.0151879
820.139	0.0151219
820.217	0.0152256
820.295	0.0151821
820.373	0.0152100
820.451	0.0150099
820.530	0.0151482
820.608	0.0150881
820.686	0.0150742
820.764	0.0151413
820.842	0.0152419
820.920	0.0151822
820.998	0.0151887
821.076	0.0151762
821.155	0.0151939
821.233	0.0149466
821.311	0.0151405
821.389	0.0151419
821.467	0.0151802
821.545	0.0152338
821.623	0.0151904
821.701	0.0153656
821.780	0.0150050
821.858	0.0153407
821.936	0.0153696
822.014	0.0153045
822.092	0.0152703
822.170	0.0154355
822.248	0.0154742
822.326	0.0153963
822.405	0.0153124
822.483	0.0152887
822.561	0.0154149
822.639	0.0152904
822.717	0.0153171
822.795	0.0153967
822.873	0.0152988
822.951	0.0154134
823.030	0.0153761
823.108	0.0153132
823.186	0.0155152
823.264	0.0154036
823.342	0.0152070
823.420	0.0154494
823.498	0.0152883
823.576	0.0152682
823.655	0.0152993
823.733	0.0152608
823.811	0.0153467
823.889	0.0153591
823.967	0.0152227
824.045	0.0151778
824.123	0.0152326
824.201	0.0152874
824.280	0.0152052
824.358	0.0151145
824.436	0.0150585
824.514	0.0151871
824.592	0.0152469
824.670	0.0151340
824.748	0.0151670
824.826	0.0151298
824.905	0.0150445
824.983	0.0152464
825.061	0.0151881
825.139	0.0153064
825.217	0.0153110
825.295	0.0152132
825.373	0.0150872
825.451	0.0151289
825.530	0.0152565
825.608	0.0152188
825.686	0.0152341
825.764	0.0152082
825.842	0.0152231
825.920	0.0151627
825.998	0.0151506
826.076	0.0152692
826.155	0.0151539
826.233	0.0151842
826.311	0.0151105
826.389	0.0151274
826.467	0.0150243
826.545	0.0150092
826.623	0.0151206
826.701	0.0151854
826.780	0.0151703
826.858	0.0150185
826.936	0.0151411
827.014	0.0150954
827.092	0.0150519
827.170	0.0150201
827.248	0.0150152
827.326	0.0149313
827.405	0.0150526
827.483	0.0150386
827.561	0.0149963
827.639	0.0148820
827.717	0.0150401
827.795	0.0150609
827.873	0.0149576
827.951	0.0149358
828.030	0.0150536
828.108	0.0149744
828.186	0.0151234
828.264	0.0149953
828.342	0.0151842
828.420	0.0149944
828.498	0.0151257
828.576	0.0150987
828.655	0.0150944
828.733	0.0150333
828.811	0.0151810
828.889	0.0150456
828.967	0.0150238
829.045	0.0151868
829.123	0.0151311
829.201	0.0151648
829.280	0.0150207
829.358	0.0150962
829.436	0.0150970
829.514	0.0151870
829.592	0.0152312
829.670	0.0150542
829.748	0.0151512
829.826	0.0152933
829.905	0.0152351
829.983	0.0151843
830.061	0.0153809
830.139	0.0153063
830.217	0.0152785
830.295	0.0151244
830.373	0.0152263
830.451	0.0153326
830.530	0.0153230
830.608	0.0151662
830.686	0.0152001
830.764	0.0151347
830.842	0.0152943
830.920	0.0151180
830.998	0.0151835
831.076	0.0152113
831.155	0.0151928
831.233	0.0151820
831.311	0.0152004
831.389	0.0152323
831.467	0.0151204
831.545	0.0151647
831.623	0.0150442
831.701	0.0151920
831.780	0.0153259
831.858	0.0153165
831.936	0.0153197
832.014	0.0151784
832.092	0.0151859
832.170	0.0152836
832.248	0.0153294
832.326	0.0153383
832.405	0.0152625
832.483	0.0152484
832.561	0.0153553
832.639	0.0152532
832.717	0.0152198
832.795	0.0152740
832.873	0.0152554
832.951	0.0153287
833.030	0.0153646
833.108	0.0153193
833.186	0.0153319
833.264	0.0153568
833.342	0.0152698
833.420	0.0152898
833.498	0.0151986
833.576	0.0151970
833.655	0.0153085
833.733	0.0152811
833.811	0.0153692
833.889	0.0152829
833.967	0.0151773
834.045	0.0152885
834.123	0.0152892
834.201	0.0151855
834.280	0.0151051
834.358	0.0151201
834.436	0.0151666
834.514	0.0151140
834.592	0.0152116
834.670	0.0152197
834.748	0.0149078
834.826	0.0150259
834.905	0.0149165
834.983	0.0149534
835.061	0.0148956
835.139	0.0149564
835.217	0.0149880
835.295	0.0148994
835.373	0.0148758
835.451	0.0149782
835.530	0.0149823
835.608	0.0148344
835.686	0.0150407
835.764	0.0150278
835.842	0.0150395
835.920	0.0150774
835.998	0.0148618
836.076	0.0150141
836.155	0.0151672
836.233	0.0150319
836.311	0.0150950
836.389	0.0151116
836.467	0.0151886
836.545	0.0151912
836.623	0.0150842
836.701	0.0152075
836.780	0.0152410
836.858	0.0151251
836.936	0.0150782
837.014	0.0151572
837.092	0.0151736
837.170	0.0152104
837.248	0.0150750
837.326	0.0151055
837.405	0.0152394
837.483	0.0152494
837.561	0.0151279
837.639	0.0150310
837.717	0.0150328
837.795	0.0151348
837.873	0.0150931
837.951	0.0151074
838.030	0.0151283
838.108	0.0150849
838.186	0.0152010
838.264	0.0151208
838.342	0.0151285
838.420	0.0151228
838.498	0.0150297
838.576	0.0151325
838.655	0.0151138
838.733	0.0152606
838.811	0.0150690
838.889	0.0152039
838.967	0.0151743
839.045	0.0149809
839.123	0.0150651
839.201	0.0150654
839.280	0.0150922
839.358	0.0150522
839.436	0.0152131
839.514	0.0151620
839.592	0.0150568
839.670	0.0151797
839.748	0.0150991
839.826	0.0150014
839.905	0.0149923
839.983	0.0151396
840.061	0.0150867
840.139	0.0150465
840.217	0.0151632
840.295	0.0150155
840.373	0.0151478
840.451	0.0151808
840.530	0.0151281
840.608	0.0152382
840.686	0.0151852
840.764	0.0151041
840.842	0.0151117
840.920	0.0150760
840.998	0.0151934
841.076	0.0150391
841.155	0.0151557
841.233	0.0152295
841.311	0.0150855
841.389	0.0153149
841.467	0.0153130
841.545	0.0152358
841.623	0.0152850
841.701	0.0152934
841.780	0.0154074
841.858	0.0154104
841.936	0.0152591
842.014	0.0153439
842.092	0.0152628
842.170	0.0152995
842.248	0.0154381
842.326	0.0154778
842.405	0.0152764
842.483	0.0152096
842.561	0.0152189
842.639	0.0152756
842.717	0.0153764
842.795	0.0153903
842.873	0.0152488
842.951	0.0153189
843.030	0.0152284
843.108	0.0153183
843.186	0.0152527
843.264	0.0151743
843.342	0.0151424
843.420	0.0152567
843.498	0.0153136
843.576	0.0152154
843.655	0.0151086
843.733	0.0151070
843.811	0.0152612
843.889	0.0151169
843.967	0.0150514
844.045	0.0150378
844.123	0.0151185
844.201	0.0150739
844.280	0.0151606
844.358	0.0151745
844.436	0.0152572
844.514	0.0151665
844.592	0.0150465
844.670	0.0151688
844.748	0.0152309
844.826	0.0151176
844.905	0.0150723
844.983	0.0150465
845.061	0.0151709
845.139	0.0152843
845.217	0.0152358
845.295	0.0151478
845.373	0.0153148
845.451	0.0152555
845.530	0.0152327
845.608	0.0153513
845.686	0.0152256
845.764	0.0152440
845.842	0.0153629
845.920	0.0152145
845.998	0.0152089
846.076	0.0154129
846.155	0.0154359
846.233	0.0152272
846.311	0.0152357
846.389	0.0153950
846.467	0.0152912
846.545	0.0150741
846.623	0.0151949
846.701	0.0151984
846.780	0.0151363
846.858	0.0150637
846.936	0.0152255
847.014	0.0152370
847.092	0.0151680
847.170	0.0150918
847.248	0.0153237
847.326	0.0151556
847.405	0.0150346
847.483	0.0150874
847.561	0.0150636
847.639	0.0150739
847.717	0.0151196
847.795	0.0151401
847.873	0.0152240
847.951	0.0150415
848.030	0.0151704
848.108	0.0152972
848.186	0.0151957
848.264	0.0151028
848.342	0.0151274
848.420	0.0150937
848.498	0.0152125
848.576	0.0150731
848.655	0.0151839
848.733	0.0152771
848.811	0.0151522
848.889	0.0150239
848.967	0.0152613
849.045	0.0153156
849.123	0.0151915
849.201	0.0154279
849.280	0.0153157
849.358	0.0151920
849.436	0.0151778
849.514	0.0152455
849.592	0.0153257
849.670	0.0151664
849.748	0.0151952
849.826	0.0153085
849.905	0.0152052
849.983	0.0152091
850.061	0.0152854
850.139	0.0151704
850.217	0.0151795
850.295	0.0153185
850.373	0.0152147
850.451	0.0152281
850.530	0.0153477
850.608	0.0151620
850.686	0.0153482
850.764	0.0153167
850.842	0.0154040
850.920	0.0154295
850.998	0.0155032
851.076	0.0152293
851.155	0.0152963
851.233	0.0154502
851.311	0.0153125
851.389	0.0153993
851.467	0.0154926
851.545	0.0154853
851.623	0.0153785
851.701	0.0154272
851.780	0.0155002
851.858	0.0153192
851.936	0.0153255
852.014	0.0153662
852.092	0.0153683
852.170	0.0153589
852.248	0.0153501
852.326	0.0153501
852.405	0.0153263
852.483	0.0153625
852.561	0.0153510
852.639	0.0152263
852.717	0.0153821
852.795	0.0153425
852.873	0.0153667
852.951	0.0153868
853.030	0.0153352
853.108	0.0153336
853.186	0.0152661
853.264	0.0152445
853.342	0.0152427
853.420	0.0152924
853.498	0.0152199
853.576	0.0152585
853.655	0.0153530
853.733	0.0152086
853.811	0.0152785
853.889	0.0153346
853.967	0.0152308
854.045	0.0151551
854.123	0.0152636
854.201	0.0151517
854.280	0.0151491
854.358	0.0152681
854.436	0.0153172
854.514	0.0152688
854.592	0.0150769
854.670	0.0151823
854.748	0.0152280
854.826	0.0151904
854.905	0.0151778
854.983	0.0150556
855.061	0.0152216
855.139	0.0151960
855.217	0.0150361
855.295	0.0152215
855.373	0.0152154
855.451	0.0153864
855.530	0.0151698
855.608	0.0152351
855.686	0.0151455
855.764	0.0150704
855.842	0.0153222
855.920	0.0153024
855.998	0.0151693
856.076	0.0152911
856.155	0.0153555
856.233	0.0152374
856.311	0.0153078
856.389	0.0152861
856.467	0.0151903
856.545	0.0152281
856.623	0.0151031
856.701	0.0151408
856.780	0.0152497
856.858	0.0150958
856.936	0.0151162
857.014	0.0151956
857.092	0.0151613
857.170	0.0152028
857.248	0.0151345
857.326	0.0153959
857.405	0.0151420
857.483	0.0150468
857.561	0.0151539
857.639	0.0151626
857.717	0.0150164
857.795	0.0150714
857.873	0.0151064
857.951	0.0151029
858.030	0.0150628
858.108	0.0150441
858.186	0.0150811
858.264	0.0151321
858.342	0.0151277
858.420	0.0150992
858.498	0.0150478
858.576	0.0149656
858.655	0.0150205
858.733	0.0151591
858.811	0.0151425
858.889	0.0150221
858.967	0.0150989
859.045	0.0150943
859.123	0.0151077
859.201	0.0150854
859.280	0.0150323
859.358	0.0150837
859.436	0.0151614
859.514	0.0150662
859.592	0.0150145
859.670	0.0149974
859.748	0.0150550
859.826	0.0151545
859.905	0.0149625
859.983	0.0149010
860.061	0.0150968
860.139	0.0150662
860.217	0.0148941
860.295	0.0150187
860.373	0.0149225
860.451	0.0151121
860.530	0.0150931
860.608	0.0149909
860.686	0.0149634
860.764	0.0150421
860.842	0.0151507
860.920	0.0150831
860.998	0.0149899
861.076	0.0151308
861.155	0.0150652
861.233	0.0151682
861.311	0.0151140
861.389	0.0151499
861.467	0.0150449
861.545	0.0149442
861.623	0.0150889
861.701	0.0150977
861.780	0.0149474
861.858	0.0151051
861.936	0.0150636
862.014	0.0150986
862.092	0.0149761
862.170	0.0149837
862.248	0.0150805
862.326	0.0151302
862.405	0.0150412
862.483	0.0152960
862.561	0.0150156
862.639	0.0150554
862.717	0.0151096
862.795	0.0151534
862.873	0.0150871
862.951	0.0150549
863.030	0.0151344
863.108	0.0152727
863.186	0.0151590
863.264	0.0151207
863.342	0.0152483
863.420	0.0152856
863.498	0.0150912
863.576	0.0151254
863.655	0.0151989
863.733	0.0151946
863.811	0.0153052
863.889	0.0153298
863.967	0.0151732
864.045	0.0152433
864.123	0.0152931
864.201	0.0152398
864.280	0.0152846
864.358	0.0152563
864.436	0.0155081
864.514	0.0152273
864.592	0.0152334
864.670	0.0152576
864.748	0.0151870
864.826	0.0152307
864.905	0.0151698
864.983	0.0151702
865.061	0.0151832
865.139	0.0152229
865.217	0.0152649
865.295	0.0151814
865.373	0.0150616
865.451	0.0153420
865.530	0.0151436
865.608	0.0151363
865.686	0.0152271
865.764	0.0151618
865.842	0.0151115
865.920	0.0151350
865.998	0.0151717
866.076	0.0152620
866.155	0.0151319
866.233	0.0152161
866.311	0.0152350
866.389	0.0152473
866.467	0.0152645
866.545	0.0151867
866.623	0.0152692
866.701	0.0152890
866.780	0.0153413
866.858	0.0152988
866.936	0.0154211
867.014	0.0152911
867.092	0.0151895
867.170	0.0152716
867.248	0.0153410
867.326	0.0153001
867.405	0.0153199
867.483	0.0153246
867.561	0.0153097
867.639	0.0152772
867.717	0.0153394
867.795	0.0152925
867.873	0.0151865
867.951	0.0154007
868.030	0.0151936
868.108	0.0152870
868.186	0.0153045
868.264	0.0152526
868.342	0.0154467
868.420	0.0152593
868.498	0.0151927
868.576	0.0151554
868.655	0.0151514
868.733	0.0151755
868.811	0.0151429
868.889	0.0151912
868.967	0.0151314
869.045	0.0151620
869.123	0.0153514
869.201	0.0152611
869.280	0.0151205
869.358	0.0151200
869.436	0.0150941
869.514	0.0151546
869.592	0.0153204
869.670	0.0151687
869.748	0.0151611
869.826	0.0152470
869.905	0.0151673
869.983	0.0153540
870.061	0.0152059
870.139	0.0152171
870.217	0.0151936
870.295	0.0151711
870.373	0.0153139
870.451	0.0151798
870.530	0.0151960
870.608	0.0152803
870.686	0.0152562
870.764	0.0152780
870.842	0.0151620
870.920	0.0151272
870.998	0.0152554
871.076	0.0152677
871.155	0.0152353
871.233	0.0152261
871.311	0.0153650
871.389	0.0151708
871.467	0.0151110
871.545	0.0152834
871.623	0.0150835
871.701	0.0151861
871.780	0.0152428
871.858	0.0152409
871.936	0.0150952
872.014	0.0152711
872.092	0.0151564
872.170	0.0151649
872.248	0.0153542
872.326	0.0151459
872.405	0.0152332
872.483	0.0153154
872.561	0.0152702
872.639	0.0152747
872.717	0.0152836
872.795	0.0152525
872.873	0.0152906
872.951	0.0152512
873.030	0.0152359
873.108	0.0152467
873.186	0.0153761
873.264	0.0152441
873.342	0.0152786
873.420	0.0152286
873.498	0.0151884
873.576	0.0151385
873.655	0.0150648
873.733	0.0151338
873.811	0.0152647
873.889	0.0151328
873.967	0.0151048
874.045	0.0151853
874.123	0.0150549
874.201	0.0150428
874.280	0.0150999
874.358	0.0151086
874.436	0.0150853
874.514	0.0151855
874.592	0.0151725
874.670	0.0151974
874.748	0.0152293
874.826	0.0151942
874.905	0.0152089
874.983	0.0152338
875.061	0.0150586
875.139	0.0151208
875.217	0.0151708
875.295	0.0151630
875.373	0.0152245
875.451	0.0152516
875.530	0.0153970
875.608	0.0153020
875.686	0.0152194
875.764	0.0154089
875.842	0.0152761
875.920	0.0152882
875.998	0.0152825
876.076	0.0154514
876.155	0.0153155
876.233	0.0153781
876.311	0.0154846
876.389	0.0154152
876.467	0.0152727
876.545	0.0151914
876.623	0.0153707
876.701	0.0153348
876.780	0.0152803
876.858	0.0151266
876.936	0.0152628
877.014	0.0152317
877.092	0.0151155
877.170	0.0151755
877.248	0.0152464
877.326	0.0153072
877.405	0.0151804
877.483	0.0152927
877.561	0.0153521
877.639	0.0151800
877.717	0.0152022
877.795	0.0153578
877.873	0.0152163
877.951	0.0152071
878.030	0.0152843
878.108	0.0151981
878.186	0.0153120
878.264	0.0153198
878.342	0.0152374
878.420	0.0152824
878.498	0.0152721
878.576	0.0152505
878.655	0.0152964
878.733	0.0153173
878.811	0.0153430
878.889	0.0154238
878.967	0.0153746
879.045	0.0154498
879.123	0.0153022
879.201	0.0153365
879.280	0.0153436
879.358	0.0153394
879.436	0.0153352
879.514	0.0155516
879.592	0.0153300
879.670	0.0151785
879.748	0.0152097
879.826	0.0151982
879.905	0.0152803
879.983	0.0152036
880.061	0.0152002
880.139	0.0151688
880.217	0.0152245
880.295	0.0151454
880.373	0.0149815
880.451	0.0152474
880.530	0.0151378
880.608	0.0151390
880.686	0.0150845
880.764	0.0150571
880.842	0.0151166
880.920	0.0150372
880.998	0.0150698
881.076	0.0151265
881.155	0.0151190
881.233	0.0149666
881.311	0.0150777
881.389	0.0152323
881.467	0.0149700
881.545	0.0150640
881.623	0.0150871
881.701	0.0151360
881.780	0.0150336
881.858	0.0150011
881.936	0.0150931
882.014	0.0151797
882.092	0.0151889
882.170	0.0150144
882.248	0.0150974
882.326	0.0151325
882.405	0.0150664
882.483	0.0151381
882.561	0.0151389
882.639	0.0151478
882.717	0.0150941
882.795	0.0150494
882.873	0.0150878
882.951	0.0151707
883.030	0.0151824
883.108	0.0151768
883.186	0.0150926
883.264	0.0152692
883.342	0.0151695
883.420	0.0152014
883.498	0.0152286
883.576	0.0151681
883.655	0.0152713
883.733	0.0152072
883.811	0.0151913
883.889	0.0151662
883.967	0.0151369
884.045	0.0151318
884.123	0.0152579
884.201	0.0152176
884.280	0.0151383
884.358	0.0151773
884.436	0.0152112
884.514	0.0150995
884.592	0.0151825
884.670	0.0151421
884.748	0.0151382
884.826	0.0151819
884.905	0.0150668
884.983	0.0151275
885.061	0.0152210
885.139	0.0151742
885.217	0.0150932
885.295	0.0151848
885.373	0.0151572
885.451	0.0150949
885.530	0.0151572
885.608	0.0152876
885.686	0.0151791
885.764	0.0152608
885.842	0.0151129
885.920	0.0151267
885.998	0.0151746
886.076	0.0151166
886.155	0.0150221
886.233	0.0151498
886.311	0.0151031
886.389	0.0152001
886.467	0.0151138
886.545	0.0151239
886.623	0.0150861
886.701	0.0150668
886.780	0.0151228
886.858	0.0150822
886.936	0.0151781
887.014	0.0149799
887.092	0.0151208
887.170	0.0151193
887.248	0.0151550
887.326	0.0151862
887.405	0.0153228
887.483	0.0152105
887.561	0.0151332
887.639	0.0152560
887.717	0.0153127
887.795	0.0152106
887.873	0.0152499
887.951	0.0151486
888.030	0.0152586
888.108	0.0153195
888.186	0.0152542
888.264	0.0152026
888.342	0.0151758
888.420	0.0150478
888.498	0.0150105
888.576	0.0151791
888.655	0.0151408
888.733	0.0151387
888.811	0.0153167
888.889	0.0150242
888.967	0.0151069
889.045	0.0150874
889.123	0.0150976
889.201	0.0150436
889.280	0.0150426
889.358	0.0152055
889.436	0.0149885
889.514	0.0151708
889.592	0.0151017
889.670	0.0150550
889.748	0.0149782
889.826	0.0150237
889.905	0.0150249
889.983	0.0150546
890.061	0.0150333
890.139	0.0150798
890.217	0.0151607
890.295	0.0150556
890.373	0.0151378
890.451	0.0151348
890.530	0.0151570
890.608	0.0150648
890.686	0.0150924
890.764	0.0151898
890.842	0.0151263
890.920	0.0151234
890.998	0.0150559
891.076	0.0150937
891.155	0.0151461
891.233	0.0151617
891.311	0.0151787
891.389	0.0151595
891.467	0.0154174
891.545	0.0152763
891.623	0.0151678
891.701	0.0151970
891.780	0.0151782
891.858	0.0151583
891.936	0.0152273
892.014	0.0152803
892.092	0.0152058
892.170	0.0153228
892.248	0.0152365
892.326	0.0149984
892.405	0.0151905
892.483	0.0151324
892.561	0.0151392
892.639	0.0152740
892.717	0.0151233
892.795	0.0152917
892.873	0.0151111
892.951	0.0151617
893.030	0.0150753
893.108	0.0151894
893.186	0.0150849
893.264	0.0150773
893.342	0.0150023
893.420	0.0151321
893.498	0.0151179
893.576	0.0150246
893.655	0.0151635
893.733	0.0152818
893.811	0.0150966
893.889	0.0152168
893.967	0.0151778
894.045	0.0152177
894.123	0.0151949
894.201	0.0152268
894.280	0.0151307
894.358	0.0152499
894.436	0.0152695
894.514	0.0151679
894.592	0.0151247
894.670	0.0151208
894.748	0.0152170
894.826	0.0151839
894.905	0.0151928
894.983	0.0152501
895.061	0.0153185
895.139	0.0151096
895.217	0.0152996
895.295	0.0152000
895.373	0.0150125
895.451	0.0152215
895.530	0.0151839
895.608	0.0151297
895.686	0.0151002
895.764	0.0151380
895.842	0.0151592
895.920	0.0149771
895.998	0.0150600
896.076	0.0150843
896.155	0.0152538
896.233	0.0151722
896.311	0.0149462
896.389	0.0149925
896.467	0.0151585
896.545	0.0149767
896.623	0.0150710
896.701	0.0150254
896.780	0.0150495
896.858	0.0152087
896.936	0.0152306
897.014	0.0149994
897.092	0.0153215
897.170	0.0152865
897.248	0.0152308
897.326	0.0150600
897.405	0.0151645
897.483	0.0151704
897.561	0.0151173
897.639	0.0150047
897.717	0.0151653
897.795	0.0150803
897.873	0.0151530
897.951	0.0153708
898.030	0.0151759
898.108	0.0151562
898.186	0.0151517
898.264	0.0151856
898.342	0.0152045
898.420	0.0151086
898.498	0.0151447
898.576	0.0150565
898.655	0.0150726
898.733	0.0150569
898.811	0.0151006
898.889	0.0151124
898.967	0.0149993
899.045	0.0151365
899.123	0.0150720
899.201	0.0151064
899.280	0.0150283
899.358	0.0151019
899.436	0.0150534
899.514	0.0150967
899.592	0.0150429
899.670	0.0150407
899.748	0.0149665
899.826	0.0150233
899.905	0.0150627
899.983	0.0150893
900.061	0.0151057
900.139	0.0151131
900.217	0.0153005
900.295	0.0152666
900.373	0.0151295
900.451	0.0151310
900.530	0.0152247
900.608	0.0151393
900.686	0.0153172
900.764	0.0152672
900.842	0.0151047
900.920	0.0151689
900.998	0.0151398
901.076	0.0151311
901.155	0.0152810
901.233	0.0151550
901.311	0.0150860
901.389	0.0150015
901.467	0.0152788
901.545	0.0151718
901.623	0.0151225
901.701	0.0150948
901.780	0.0150449
901.858	0.0152210
901.936	0.0150840
902.014	0.0151118
902.092	0.0153622
902.170	0.0151387
902.248	0.0152032
902.326	0.0152045
902.405	0.0151697
902.483	0.0151530
902.561	0.0152277
902.639	0.0152171
902.717	0.0152169
902.795	0.0152187
902.873	0.0150861
902.951	0.0151313
903.030	0.0150369
903.108	0.0151505
903.186	0.0149827
903.264	0.0150069
903.342	0.0151392
903.420	0.0150476
903.498	0.0150845
903.576	0.0150068
903.655	0.0151800
903.733	0.0151163
903.811	0.0150919
903.889	0.0151924
903.967	0.0150573
904.045	0.0150784
904.123	0.0150884
904.201	0.0152081
904.280	0.0152264
904.358	0.0153223
904.436	0.0152553
904.514	0.0152551
904.592	0.0152955
904.670	0.0152230
904.748	0.0152495
904.826	0.0151055
904.905	0.0151019
904.983	0.0151601
905.061	0.0150546
905.139	0.0150671
905.217	0.0152106
905.295	0.0151163
905.373	0.0150526
905.451	0.0151624
905.530	0.0150641
905.608	0.0152209
905.686	0.0151281
905.764	0.0151195
905.842	0.0151198
905.920	0.0149466
905.998	0.0151360
906.076	0.0151863
906.155	0.0152770
906.233	0.0151346
906.311	0.0152321
906.389	0.0152716
906.467	0.0152164
906.545	0.0151731
906.623	0.0152172
906.701	0.0152889
906.780	0.0151572
906.858	0.0151691
906.936	0.0152119
907.014	0.0153300
907.092	0.0151104
907.170	0.0153154
907.248	0.0152673
907.326	0.0151854
907.405	0.0152266
907.483	0.0152220
907.561	0.0150985
907.639	0.0151153
907.717	0.0151237
907.795	0.0150978
907.873	0.0151324
907.951	0.0150842
908.030	0.0150801
908.108	0.0150327
908.186	0.0150458
908.264	0.0150820
908.342	0.0150308
908.420	0.0150744
908.498	0.0150309
908.576	0.0151178
908.655	0.0150832
908.733	0.0149861
908.811	0.0151615
908.889	0.0149647
908.967	0.0149960
909.045	0.0152480
909.123	0.0151550
909.201	0.0151407
909.280	0.0151198
909.358	0.0151463
909.436	0.0152078
909.514	0.0151795
909.592	0.0151378
909.670	0.0152288
909.748	0.0152345
909.826	0.0152556
909.905	0.0152006
909.983	0.0153378
910.061	0.0151826
910.139	0.0153770
910.217	0.0153030
910.295	0.0151573
910.373	0.0152642
910.451	0.0153214
910.530	0.0154620
910.608	0.0154630
910.686	0.0153023
910.764	0.0152372
910.842	0.0153249
910.920	0.0153394
910.998	0.0151884
911.076	0.0152493
911.155	0.0153432
911.233	0.0154142
911.311	0.0151913
911.389	0.0152370
911.467	0.0153129
911.545	0.0153846
911.623	0.0153240
911.701	0.0152439
911.780	0.0151942
911.858	0.0153370
911.936	0.0153123
912.014	0.0151703
912.092	0.0152707
912.170	0.0152482
912.248	0.0150644
912.326	0.0153413
912.405	0.0153524
912.483	0.0153497
912.561	0.0153103
912.639	0.0152267
912.717	0.0152847
912.795	0.0153467
912.873	0.0153498
912.951	0.0153391
913.030	0.0151863
913.108	0.0154035
913.186	0.0152204
913.264	0.0152103
913.342	0.0152457
913.420	0.0152844
913.498	0.0151200
913.576	0.0150986
913.655	0.0153146
913.733	0.0153047
913.811	0.0151768
913.889	0.0151099
913.967	0.0151147
914.045	0.0151118
914.123	0.0151712
914.201	0.0150305
914.280	0.0149928
914.358	0.0151401
914.436	0.0150616
914.514	0.0149441
914.592	0.0150007
914.670	0.0151234
914.748	0.0149484
914.826	0.0151698
914.905	0.0150986
914.983	0.0151139
915.061	0.0150981
915.139	0.0149203
915.217	0.0150961
915.295	0.0151213
915.373	0.0150318
915.451	0.0150525
915.530	0.0151283
915.608	0.0152138
915.686	0.0150293
915.764	0.0149997
915.842	0.0149850
915.920	0.0151252
915.998	0.0151583
916.076	0.0151044
916.155	0.0152024
916.233	0.0150883
916.311	0.0151196
916.389	0.0150682
916.467	0.0150045
916.545	0.0150180
916.623	0.0150673
916.701	0.0151055
916.780	0.0151044
916.858	0.0150850
916.936	0.0150336
917.014	0.0150917
917.092	0.0150062
917.170	0.0150658
917.248	0.0151015
917.326	0.0150382
917.405	0.0149564
917.483	0.0150504
917.561	0.0149400
917.639	0.0148545
917.717	0.0150283
917.795	0.0149104
917.873	0.0148512
917.951	0.0149380
918.030	0.0148398
918.108	0.0148759
918.186	0.0149599
918.264	0.0148766
918.342	0.0149842
918.420	0.0149244
918.498	0.0149627
918.576	0.0149760
918.655	0.0149987
918.733	0.0150561
918.811	0.0151566
918.889	0.0149505
918.967	0.0150000
919.045	0.0150542
919.123	0.0149751
919.201	0.0150447
919.280	0.0151131
919.358	0.0149792
919.436	0.0149997
919.514	0.0150455
919.592	0.0151010
919.670	0.0151518
919.748	0.0149943
919.826	0.0150423
919.905	0.0152477
919.983	0.0152053
920.061	0.0150194
920.139	0.0152122
920.217	0.0151253
920.295	0.0151402
920.373	0.0151350
920.451	0.0150238
920.530	0.0151540
920.608	0.0150578
920.686	0.0150923
920.764	0.0151031
920.842	0.0150677
920.920	0.0151876
920.998	0.0151582
921.076	0.0150134
921.155	0.0150594
921.233	0.0150852
921.311	0.0151904
921.389	0.0151144
921.467	0.0151060
921.545	0.0151648
921.623	0.0150559
921.701	0.0151627
921.780	0.0151302
921.858	0.0150215
921.936	0.0150739
922.014	0.0150464
922.092	0.0150814
922.170	0.0150898
922.248	0.0149369
922.326	0.0148847
922.405	0.0150980
922.483	0.0150517
922.561	0.0150279
922.639	0.0151807
922.717	0.0151673
922.795	0.0151419
922.873	0.0150326
922.951	0.0151627
923.030	0.0151170
923.108	0.0151743
923.186	0.0151263
923.264	0.0151588
923.342	0.0151206
923.420	0.0149365
923.498	0.0151636
923.576	0.0151580
923.655	0.0151728
923.733	0.0150690
923.811	0.0151180
923.889	0.0151715
923.967	0.0149854
924.045	0.0151578
924.123	0.0150452
924.201	0.0152584
924.280	0.0153991
924.358	0.0151388
924.436	0.0152914
924.514	0.0152827
924.592	0.0152792
924.670	0.0153751
924.748	0.0153922
924.826	0.0152673
924.905	0.0154456
924.983	0.0154478
925.061	0.0152885
925.139	0.0154099
925.217	0.0153200
925.295	0.0154575
925.373	0.0153365
925.451	0.0153193
925.530	0.0153796
925.608	0.0153419
925.686	0.0154578
925.764	0.0152187
925.842	0.0151426
925.920	0.0153603
925.998	0.0152390
926.076	0.0152679
926.155	0.0152153
926.233	0.0152595
926.311	0.0151430
926.389	0.0152412
926.467	0.0152332
926.545	0.0151133
926.623	0.0150615
926.701	0.0151292
926.780	0.0151086
926.858	0.0152197
926.936	0.0151270
927.014	0.0150916
927.092	0.0151495
927.170	0.0151913
927.248	0.0152230
927.326	0.0152856
927.405	0.0152614
927.483	0.0151527
927.561	0.0152056
927.639	0.0151241
927.717	0.0153535
927.795	0.0151898
927.873	0.0152073
927.951	0.0151012
928.030	0.0153150
928.108	0.0152538
928.186	0.0152407
928.264	0.0151003
928.342	0.0151913
928.420	0.0151192
928.498	0.0152863
928.576	0.0151886
928.655	0.0151225
928.733	0.0151923
928.811	0.0150671
928.889	0.0150970
928.967	0.0151351
929.045	0.0152377
929.123	0.0151051
929.201	0.0151195
929.280	0.0150871
929.358	0.0151348
929.436	0.0151225
929.514	0.0151180
929.592	0.0151436
929.670	0.0151112
929.748	0.0152351
929.826	0.0151653
929.905	0.0151093
929.983	0.0151392
930.061	0.0151804
930.139	0.0152556
930.217	0.0152424
930.295	0.0152405
930.373	0.0153973
930.451	0.0152151
930.530	0.0152448
930.608	0.0152288
930.686	0.0152858
930.764	0.0151385
930.842	0.0151859
930.920	0.0152763
930.998	0.0152232
931.076	0.0152761
931.155	0.0151281
931.233	0.0152792
931.311	0.0152425
931.389	0.0151593
931.467	0.0151860
931.545	0.0152357
931.623	0.0153301
931.701	0.0152352
931.780	0.0152002
931.858	0.0152306
931.936	0.0152430
932.014	0.0152350
932.092	0.0151746
932.170	0.0153385
932.248	0.0152541
932.326	0.0152319
932.405	0.0153221
932.483	0.0152506
932.561	0.0154156
932.639	0.0153462
932.717	0.0152610
932.795	0.0152433
932.873	0.0152213
932.951	0.0155006
933.030	0.0153637
933.108	0.0152503
933.186	0.0155109
933.264	0.0153027
933.342	0.0153912
933.420	0.0153900
933.498	0.0153130
933.576	0.0153051
933.655	0.0152692
933.733	0.0153530
933.811	0.0153426
933.889	0.0153696
933.967	0.0153297
934.045	0.0153181
934.123	0.0152457
934.201	0.0152003
934.280	0.0151340
934.358	0.0153760
934.436	0.0151998
934.514	0.0153523
934.592	0.0150510
934.670	0.0152737
934.748	0.0153835
934.826	0.0152923
934.905	0.0152418
934.983	0.0152982
935.061	0.0153548
935.139	0.0153434
935.217	0.0153339
935.295	0.0153495
935.373	0.0152666
935.451	0.0152140
935.530	0.0153233
935.608	0.0152670
935.686	0.0151955
935.764	0.0152797
935.842	0.0151826
935.920	0.0151271
935.998	0.0151646
936.076	0.0150909
936.155	0.0151575
936.233	0.0152224
936.311	0.0151627
936.389	0.0149973
936.467	0.0150794
936.545	0.0151640
936.623	0.0150644
936.701	0.0150403
936.780	0.0149801
936.858	0.0151405
936.936	0.0151063
937.014	0.0150699
937.092	0.0149227
937.170	0.0151187
937.248	0.0150198
937.326	0.0149757
937.405	0.0151127
937.483	0.0150909
937.561	0.0150185
937.639	0.0151745
937.717	0.0152865
937.795	0.0151556
937.873	0.0152817
937.951	0.0153508
938.030	0.0153173
938.108	0.0154160
938.186	0.0152451
938.264	0.0152580
938.342	0.0151536
938.420	0.0154101
938.498	0.0153041
938.576	0.0152800
938.655	0.0154480
938.733	0.0153546
938.811	0.0152850
938.889	0.0152913
938.967	0.0154541
939.045	0.0152302
939.123	0.0152439
939.201	0.0153017
939.280	0.0154556
939.358	0.0152670
939.436	0.0152988
939.514	0.0153384
939.592	0.0153481
939.670	0.0151910
939.748	0.0151828
939.826	0.0152206
939.905	0.0152298
939.983	0.0151107
940.061	0.0151762
940.139	0.0149742
940.217	0.0150372
940.295	0.0152069
940.373	0.0152351
940.451	0.0152178
940.530	0.0151384
940.608	0.0149586
940.686	0.0150726
940.764	0.0152564
940.842	0.0152672
940.920	0.0151914
940.998	0.0152271
941.076	0.0150945
941.155	0.0151094
941.233	0.0151495
941.311	0.0152171
941.389	0.0151239
941.467	0.0151685
941.545	0.0150744
941.623	0.0150031
941.701	0.0149662
941.780	0.0152650
941.858	0.0152646
941.936	0.0152328
942.014	0.0152262
942.092	0.0152616
942.170	0.0151485
942.248	0.0153035
942.326	0.0151932
942.405	0.0152087
942.483	0.0152904
942.561	0.0153677
942.639	0.0152246
942.717	0.0151884
942.795	0.0153820
942.873	0.0153107
942.951	0.0153605
943.030	0.0152539
943.108	0.0152563
943.186	0.0152601
943.264	0.0152417
943.342	0.0152972
943.420	0.0152610
943.498	0.0151487
943.576	0.0151723
943.655	0.0153984
943.733	0.0151521
943.811	0.0151929
943.889	0.0153676
943.967	0.0152386
944.045	0.0150981
944.123	0.0152086
944.201	0.0151594
944.280	0.0152422
944.358	0.0151718
944.436	0.0151536
944.514	0.0151930
944.592	0.0151638
944.670	0.0151378
944.748	0.0152535
944.826	0.0151006
944.905	0.0152180
944.983	0.0152096
945.061	0.0152110
945.139	0.0152571
945.217	0.0151790
945.295	0.0150668
945.373	0.0151169
945.451	0.0152744
945.530	0.0151997
945.608	0.0153075
945.686	0.0152097
945.764	0.0152163
945.842	0.0152862
945.920	0.0152398
945.998	0.0153516
946.076	0.0152998
946.155	0.0151997
946.233	0.0152760
946.311	0.0153733
946.389	0.0152979
946.467	0.0153458
946.545	0.0152919
946.623	0.0152077
946.701	0.0151688
946.780	0.0151319
946.858	0.0153346
946.936	0.0151847
947.014	0.0152132
947.092	0.0153668
947.170	0.0154564
947.248	0.0153345
947.326	0.0153233
947.405	0.0152240
947.483	0.0151883
947.561	0.0152814
947.639	0.0152888
947.717	0.0153117
947.795	0.0153255
947.873	0.0152505
947.951	0.0152148
948.030	0.0153456
948.108	0.0152773
948.186	0.0153172
948.264	0.0151962
948.342	0.0152203
948.420	0.0152071
948.498	0.0152481
948.576	0.0150832
948.655	0.0151196
948.733	0.0150635
948.811	0.0150205
948.889	0.0149290
948.967	0.0148866
949.045	0.0149716
949.123	0.0150549
949.201	0.0151343
949.280	0.0149900
949.358	0.0150254
949.436	0.0150694
949.514	0.0150214
949.592	0.0151479
949.670	0.0151791
949.748	0.0151749
949.826	0.0150826
949.905	0.0151688
949.983	0.0151983
950.061	0.0151026
950.139	0.0152473
950.217	0.0153096
950.295	0.0152551
950.373	0.0152180
950.451	0.0151038
950.530	0.0152543
950.608	0.0152750
950.686	0.0152339
950.764	0.0153094
950.842	0.0153166
950.920	0.0151993
950.998	0.0152518
951.076	0.0152484
951.155	0.0152942
951.233	0.0153720
951.311	0.0153352
951.389	0.0152280
951.467	0.0151521
951.545	0.0151491
951.623	0.0153212
951.701	0.0152063
951.780	0.0151836
951.858	0.0153043
951.936	0.0152884
952.014	0.0151946
952.092	0.0152376
952.170	0.0154196
952.248	0.0153660
952.326	0.0153345
952.405	0.0153117
952.483	0.0152505
952.561	0.0151814
952.639	0.0153439
952.717	0.0154004
952.795	0.0153379
952.873	0.0152972
952.951	0.0153505
953.030	0.0152769
953.108	0.0152843
953.186	0.0153645
953.264	0.0154370
953.342	0.0154366
953.420	0.0153983
953.498	0.0153777
953.576	0.0153856
953.655	0.0153195
953.733	0.0153628
953.811	0.0154170
953.889	0.0155360
953.967	0.0155183
954.045	0.0153149
954.123	0.0153144
954.201	0.0153023
954.280	0.0154728
954.358	0.0153814
954.436	0.0153403
954.514	0.0152904
954.592	0.0152455
954.670	0.0153974
954.748	0.0153674
954.826	0.0153425
954.905	0.0153166
954.983	0.0152586
955.061	0.0152644
955.139	0.0152494
955.217	0.0153445
955.295	0.0152567
955.373	0.0152877
955.451	0.0152376
955.530	0.0150945
955.608	0.0151348
955.686	0.0153092
955.764	0.0152818
955.842	0.0152155
955.920	0.0152596
955.998	0.0151412
956.076	0.0150437
956.155	0.0151196
956.233	0.0150729
956.311	0.0152691
956.389	0.0150638
956.467	0.0152120
956.545	0.0150443
956.623	0.0150555
956.701	0.0151968
956.780	0.0152064
956.858	0.0150759
956.936	0.0151700
957.014	0.0150587
957.092	0.0151582
957.170	0.0150618
957.248	0.0151521
957.326	0.0152253
957.405	0.0151823
957.483	0.0151651
957.561	0.0151188
957.639	0.0151438
957.717	0.0152643
957.795	0.0151865
957.873	0.0151440
957.951	0.0152124
958.030	0.0152155
958.108	0.0150855
958.186	0.0152502
958.264	0.0152358
958.342	0.0151879
958.420	0.0151871
958.498	0.0152847
958.576	0.0151730
958.655	0.0151495
958.733	0.0151648
958.811	0.0153437
958.889	0.0152779
958.967	0.0152213
959.045	0.0151408
959.123	0.0151738
959.201	0.0151826
959.280	0.0152060
959.358	0.0152393
959.436	0.0151604
959.514	0.0150887
959.592	0.0150961
959.670	0.0151189
959.748	0.0152003
959.826	0.0152488
959.905	0.0152377
