06/10/2022	18:21:43	Ver.	4.1	UNKNOWN
Optical Delay	699.990925	Delta X		0.078125	Sweeps	1	Scan Rate	0/0
Coordinates	Axis 1	NaN	Axis 2	NaN	Axis 3	NaN	Axis 4	NaN	Axis 5	NaN	Axis 6	0.000000
TX Power	0.000000	RX Power	0.000000

699.991	0.0161637
700.069	0.0161892
700.147	0.0163071
700.225	0.0162010
700.303	0.0162430
700.382	0.0160405
700.460	0.0161106
700.538	0.0161703
700.616	0.0162138
700.694	0.0161702
700.772	0.0162875
700.850	0.0162362
700.928	0.0161749
701.007	0.0160992
701.085	0.0161195
701.163	0.0160487
701.241	0.0161621
701.319	0.0162489
701.397	0.0162207
701.475	0.0160559
701.553	0.0161415
701.632	0.0161732
701.710	0.0162018
701.788	0.0163034
701.866	0.0161244
701.944	0.0161295
702.022	0.0161436
702.100	0.0161556
702.178	0.0161893
702.257	0.0163653
702.335	0.0161185
702.413	0.0162600
702.491	0.0163001
702.569	0.0161835
702.647	0.0162383
702.725	0.0162669
702.803	0.0161307
702.882	0.0162213
702.960	0.0162170
703.038	0.0161068
703.116	0.0160482
703.194	0.0161385
703.272	0.0161597
703.350	0.0162435
703.428	0.0161548
703.507	0.0162059
703.585	0.0162702
703.663	0.0161382
703.741	0.0162144
703.819	0.0162251
703.897	0.0161962
703.975	0.0161971
704.053	0.0160542
704.132	0.0162062
704.210	0.0161602
704.288	0.0162183
704.366	0.0161480
704.444	0.0160809
704.522	0.0163142
704.600	0.0162298
704.678	0.0160979
704.757	0.0160722
704.835	0.0162424
704.913	0.0161105
704.991	0.0162034
705.069	0.0161220
705.147	0.0161423
705.225	0.0162212
705.303	0.0161091
705.382	0.0160302
705.460	0.0161872
705.538	0.0163072
705.616	0.0160835
705.694	0.0161946
705.772	0.0162279
705.850	0.0160717
705.928	0.0160456
706.007	0.0161040
706.085	0.0160477
706.163	0.0161559
706.241	0.0162894
706.319	0.0161332
706.397	0.0160791
706.475	0.0161597
706.553	0.0161266
706.632	0.0160809
706.710	0.0160180
706.788	0.0160759
706.866	0.0160852
706.944	0.0162485
707.022	0.0162569
707.100	0.0162213
707.178	0.0160139
707.257	0.0161659
707.335	0.0160591
707.413	0.0161771
707.491	0.0161185
707.569	0.0160680
707.647	0.0162668
707.725	0.0161126
707.803	0.0161759
707.882	0.0161250
707.960	0.0161871
708.038	0.0161468
708.116	0.0160893
708.194	0.0162452
708.272	0.0162095
708.350	0.0160096
708.428	0.0161149
708.507	0.0162459
708.585	0.0162057
708.663	0.0161643
708.741	0.0163115
708.819	0.0161878
708.897	0.0162273
708.975	0.0162668
709.053	0.0162551
709.132	0.0161896
709.210	0.0161262
709.288	0.0161382
709.366	0.0160490
709.444	0.0162548
709.522	0.0162283
709.600	0.0161791
709.678	0.0161199
709.757	0.0161184
709.835	0.0161371
709.913	0.0159668
709.991	0.0160107
710.069	0.0161983
710.147	0.0161911
710.225	0.0161781
710.303	0.0161687
710.382	0.0162125
710.460	0.0162262
710.538	0.0161005
710.616	0.0160200
710.694	0.0161376
710.772	0.0162415
710.850	0.0161863
710.928	0.0161512
711.007	0.0161691
711.085	0.0162151
711.163	0.0160411
711.241	0.0161948
711.319	0.0161135
711.397	0.0160716
711.475	0.0162462
711.553	0.0161913
711.632	0.0161081
711.710	0.0161624
711.788	0.0162183
711.866	0.0161150
711.944	0.0160814
712.022	0.0162337
712.100	0.0161071
712.178	0.0163165
712.257	0.0161374
712.335	0.0160224
712.413	0.0160490
712.491	0.0162870
712.569	0.0161574
712.647	0.0162303
712.725	0.0161552
712.803	0.0159959
712.882	0.0161475
712.960	0.0162126
713.038	0.0161205
713.116	0.0161678
713.194	0.0161726
713.272	0.0161375
713.350	0.0161018
713.428	0.0160906
713.507	0.0160447
713.585	0.0160666
713.663	0.0161846
713.741	0.0161520
713.819	0.0161663
713.897	0.0161232
713.975	0.0159473
714.053	0.0160617
714.132	0.0161636
714.210	0.0161922
714.288	0.0161160
714.366	0.0160548
714.444	0.0160957
714.522	0.0160700
714.600	0.0160911
714.678	0.0161953
714.757	0.0160645
714.835	0.0160250
714.913	0.0161897
714.991	0.0160451
715.069	0.0161983
715.147	0.0161069
715.225	0.0161492
715.303	0.0160787
715.382	0.0160780
715.460	0.0160992
715.538	0.0161201
715.616	0.0161239
715.694	0.0160497
715.772	0.0160883
715.850	0.0161436
715.928	0.0161902
716.007	0.0162193
716.085	0.0160196
716.163	0.0161978
716.241	0.0162473
716.319	0.0161295
716.397	0.0160455
716.475	0.0161633
716.553	0.0160960
716.632	0.0161681
716.710	0.0160522
716.788	0.0161633
716.866	0.0160572
716.944	0.0160211
717.022	0.0161131
717.100	0.0161043
717.178	0.0160918
717.257	0.0160524
717.335	0.0160886
717.413	0.0160815
717.491	0.0160884
717.569	0.0159533
717.647	0.0161382
717.725	0.0161637
717.803	0.0161977
717.882	0.0161370
717.960	0.0161366
718.038	0.0160783
718.116	0.0161856
718.194	0.0161580
718.272	0.0160359
718.350	0.0161869
718.428	0.0161533
718.507	0.0161293
718.585	0.0160150
718.663	0.0162132
718.741	0.0162398
718.819	0.0162173
718.897	0.0161252
718.975	0.0161527
719.053	0.0161964
719.132	0.0161423
719.210	0.0160789
719.288	0.0161308
719.366	0.0162836
719.444	0.0161266
719.522	0.0161570
719.600	0.0161808
719.678	0.0160829
719.757	0.0162284
719.835	0.0161362
719.913	0.0161344
719.991	0.0161103
720.069	0.0161783
720.147	0.0160887
720.225	0.0161996
720.303	0.0161854
720.382	0.0161576
720.460	0.0160748
720.538	0.0162676
720.616	0.0162012
720.694	0.0162387
720.772	0.0163051
720.850	0.0162093
720.928	0.0161977
721.007	0.0161414
721.085	0.0162209
721.163	0.0161267
721.241	0.0162276
721.319	0.0162094
721.397	0.0162707
721.475	0.0161475
721.553	0.0162894
721.632	0.0160344
721.710	0.0161734
721.788	0.0161945
721.866	0.0161013
721.944	0.0160715
722.022	0.0160889
722.100	0.0161898
722.178	0.0161718
722.257	0.0163124
722.335	0.0161626
722.413	0.0161330
722.491	0.0161572
722.569	0.0161285
722.647	0.0161655
722.725	0.0162051
722.803	0.0160564
722.882	0.0160608
722.960	0.0161293
723.038	0.0162498
723.116	0.0161747
723.194	0.0161699
723.272	0.0161418
723.350	0.0160669
723.428	0.0161435
723.507	0.0161536
723.585	0.0161614
723.663	0.0161057
723.741	0.0161813
723.819	0.0161418
723.897	0.0161538
723.975	0.0161297
724.053	0.0161856
724.132	0.0161700
724.210	0.0162970
724.288	0.0162002
724.366	0.0161469
724.444	0.0161688
724.522	0.0161713
724.600	0.0161327
724.678	0.0161088
724.757	0.0162207
724.835	0.0160963
724.913	0.0161344
724.991	0.0160847
725.069	0.0160845
725.147	0.0162030
725.225	0.0161600
725.303	0.0160491
725.382	0.0161922
725.460	0.0161086
725.538	0.0161263
725.616	0.0160326
725.694	0.0161479
725.772	0.0160574
725.850	0.0161411
725.928	0.0160911
726.007	0.0161916
726.085	0.0161630
726.163	0.0159905
726.241	0.0161535
726.319	0.0161414
726.397	0.0162340
726.475	0.0161665
726.553	0.0161436
726.632	0.0161544
726.710	0.0161804
726.788	0.0159657
726.866	0.0160373
726.944	0.0161217
727.022	0.0162035
727.100	0.0160933
727.178	0.0161489
727.257	0.0162167
727.335	0.0162202
727.413	0.0161156
727.491	0.0160355
727.569	0.0162961
727.647	0.0160943
727.725	0.0160875
727.803	0.0160359
727.882	0.0162406
727.960	0.0161923
728.038	0.0162106
728.116	0.0161936
728.194	0.0161694
728.272	0.0161227
728.350	0.0162891
728.428	0.0161144
728.507	0.0161764
728.585	0.0160613
728.663	0.0161037
728.741	0.0161797
728.819	0.0160803
728.897	0.0161063
728.975	0.0159995
729.053	0.0161401
729.132	0.0162011
729.210	0.0161591
729.288	0.0161224
729.366	0.0161436
729.444	0.0162003
729.522	0.0161599
729.600	0.0162029
729.678	0.0161407
729.757	0.0160474
729.835	0.0162091
729.913	0.0161787
729.991	0.0161375
730.069	0.0162023
730.147	0.0160711
730.225	0.0162389
730.303	0.0160786
730.382	0.0162379
730.460	0.0162122
730.538	0.0160690
730.616	0.0161551
730.694	0.0161671
730.772	0.0161784
730.850	0.0162624
730.928	0.0161433
731.007	0.0162032
731.085	0.0160974
731.163	0.0161811
731.241	0.0161842
731.319	0.0162544
731.397	0.0162807
731.475	0.0161214
731.553	0.0161731
731.632	0.0161949
731.710	0.0161716
731.788	0.0162509
731.866	0.0162235
731.944	0.0159995
732.022	0.0161723
732.100	0.0162039
732.178	0.0160456
732.257	0.0161058
732.335	0.0160646
732.413	0.0161894
732.491	0.0161412
732.569	0.0161260
732.647	0.0161647
732.725	0.0161500
732.803	0.0161201
732.882	0.0161883
732.960	0.0162350
733.038	0.0160709
733.116	0.0161825
733.194	0.0161884
733.272	0.0161715
733.350	0.0161459
733.428	0.0164359
733.507	0.0164062
733.585	0.0162527
733.663	0.0161631
733.741	0.0162225
733.819	0.0162028
733.897	0.0160228
733.975	0.0161121
734.053	0.0162154
734.132	0.0161269
734.210	0.0160828
734.288	0.0160599
734.366	0.0161578
734.444	0.0160296
734.522	0.0161513
734.600	0.0160563
734.678	0.0160600
734.757	0.0159704
734.835	0.0160876
734.913	0.0160695
734.991	0.0159975
735.069	0.0161936
735.147	0.0161905
735.225	0.0161742
735.303	0.0162109
735.382	0.0160645
735.460	0.0162241
735.538	0.0162557
735.616	0.0162130
735.694	0.0161573
735.772	0.0160870
735.850	0.0161803
735.928	0.0160822
736.007	0.0159806
736.085	0.0160388
736.163	0.0161246
736.241	0.0160813
736.319	0.0161457
736.397	0.0160954
736.475	0.0161929
736.553	0.0162894
736.632	0.0162559
736.710	0.0162601
736.788	0.0163206
736.866	0.0162671
736.944	0.0162356
737.022	0.0160287
737.100	0.0161502
737.178	0.0159547
737.257	0.0160210
737.335	0.0159953
737.413	0.0159972
737.491	0.0160812
737.569	0.0160337
737.647	0.0158691
737.725	0.0161028
737.803	0.0160863
737.882	0.0161981
737.960	0.0161155
738.038	0.0162187
738.116	0.0163012
738.194	0.0162579
738.272	0.0162242
738.350	0.0161964
738.428	0.0161932
738.507	0.0162315
738.585	0.0160691
738.663	0.0159701
738.741	0.0160575
738.819	0.0159478
738.897	0.0160728
738.975	0.0161486
739.053	0.0159917
739.132	0.0160498
739.210	0.0160386
739.288	0.0161124
739.366	0.0161991
739.444	0.0161230
739.522	0.0160822
739.600	0.0161508
739.678	0.0161592
739.757	0.0162151
739.835	0.0163382
739.913	0.0162468
739.991	0.0161865
740.069	0.0163610
740.147	0.0161546
740.225	0.0162289
740.303	0.0162679
740.382	0.0163645
740.460	0.0163154
740.538	0.0162132
740.616	0.0161926
740.694	0.0162094
740.772	0.0162140
740.850	0.0161173
740.928	0.0160950
741.007	0.0160954
741.085	0.0163506
741.163	0.0163153
741.241	0.0161649
741.319	0.0163180
741.397	0.0163187
741.475	0.0164249
741.553	0.0163090
741.632	0.0163326
741.710	0.0162494
741.788	0.0161938
741.866	0.0162622
741.944	0.0162152
742.022	0.0163336
742.100	0.0161388
742.178	0.0161166
742.257	0.0160361
742.335	0.0161454
742.413	0.0158987
742.491	0.0159632
742.569	0.0158276
742.647	0.0158688
742.725	0.0157211
742.803	0.0158765
742.882	0.0158013
742.960	0.0156213
743.038	0.0157155
743.116	0.0156307
743.194	0.0155294
743.272	0.0155457
743.350	0.0155498
743.428	0.0157800
743.507	0.0158389
743.585	0.0156448
743.663	0.0158558
743.741	0.0159322
743.819	0.0159669
743.897	0.0161739
743.975	0.0161915
744.053	0.0162103
744.132	0.0165931
744.210	0.0165549
744.288	0.0165282
744.366	0.0167101
744.444	0.0169086
744.522	0.0169031
744.600	0.0167717
744.678	0.0167613
744.757	0.0168754
744.835	0.0168822
744.913	0.0168803
744.991	0.0167361
745.069	0.0165756
745.147	0.0165596
745.225	0.0167274
745.303	0.0165930
745.382	0.0163393
745.460	0.0163670
745.538	0.0160757
745.616	0.0160468
745.694	0.0160626
745.772	0.0160705
745.850	0.0158852
745.928	0.0158407
746.007	0.0159143
746.085	0.0158990
746.163	0.0157605
746.241	0.0157805
746.319	0.0158596
746.397	0.0157721
746.475	0.0155921
746.553	0.0158498
746.632	0.0157460
746.710	0.0158090
746.788	0.0158066
746.866	0.0158727
746.944	0.0158652
747.022	0.0158710
747.100	0.0159290
747.178	0.0158290
747.257	0.0158957
747.335	0.0160081
747.413	0.0158640
747.491	0.0158658
747.569	0.0158667
747.647	0.0159190
747.725	0.0159029
747.803	0.0159327
747.882	0.0159695
747.960	0.0158945
748.038	0.0159651
748.116	0.0160509
748.194	0.0160895
748.272	0.0160953
748.350	0.0162443
748.428	0.0165224
748.507	0.0164854
748.585	0.0164548
748.663	0.0165730
748.741	0.0166673
748.819	0.0169267
748.897	0.0168736
748.975	0.0169646
749.053	0.0168977
749.132	0.0169260
749.210	0.0168816
749.288	0.0170177
749.366	0.0168060
749.444	0.0166967
749.522	0.0165062
749.600	0.0164669
749.678	0.0162717
749.757	0.0162099
749.835	0.0160507
749.913	0.0160788
749.991	0.0159041
750.069	0.0158347
750.147	0.0158047
750.225	0.0156461
750.303	0.0157214
750.382	0.0157088
750.460	0.0158826
750.538	0.0158649
750.616	0.0159225
750.694	0.0157581
750.772	0.0159747
750.850	0.0159615
750.928	0.0161221
751.007	0.0163033
751.085	0.0162206
751.163	0.0163285
751.241	0.0163860
751.319	0.0162888
751.397	0.0164114
751.475	0.0162888
751.553	0.0162367
751.632	0.0163264
751.710	0.0161639
751.788	0.0159379
751.866	0.0159644
751.944	0.0159070
752.022	0.0159713
752.100	0.0159078
752.178	0.0158579
752.257	0.0158443
752.335	0.0157391
752.413	0.0157415
752.491	0.0157462
752.569	0.0157831
752.647	0.0158897
752.725	0.0158326
752.803	0.0158495
752.882	0.0161607
752.960	0.0160757
753.038	0.0160054
753.116	0.0160654
753.194	0.0161676
753.272	0.0162359
753.350	0.0162219
753.428	0.0163325
753.507	0.0164513
753.585	0.0164890
753.663	0.0163493
753.741	0.0165213
753.819	0.0164609
753.897	0.0164317
753.975	0.0165279
754.053	0.0164725
754.132	0.0163585
754.210	0.0164346
754.288	0.0163967
754.366	0.0163351
754.444	0.0162762
754.522	0.0160709
754.600	0.0160151
754.678	0.0159370
754.757	0.0159280
754.835	0.0159753
754.913	0.0157597
754.991	0.0158484
755.069	0.0159074
755.147	0.0159370
755.225	0.0159115
755.303	0.0158523
755.382	0.0158896
755.460	0.0159483
755.538	0.0160626
755.616	0.0160311
755.694	0.0160873
755.772	0.0162185
755.850	0.0160567
755.928	0.0161776
756.007	0.0162330
756.085	0.0162238
756.163	0.0161311
756.241	0.0162117
756.319	0.0162045
756.397	0.0160739
756.475	0.0161359
756.553	0.0160632
756.632	0.0160098
756.710	0.0159493
756.788	0.0160017
756.866	0.0159048
756.944	0.0158417
757.022	0.0158833
757.100	0.0159300
757.178	0.0160023
757.257	0.0157729
757.335	0.0158244
757.413	0.0160619
757.491	0.0159418
757.569	0.0159512
757.647	0.0161117
757.725	0.0160973
757.803	0.0160601
757.882	0.0160609
757.960	0.0161481
758.038	0.0163908
758.116	0.0161680
758.194	0.0162099
758.272	0.0163560
758.350	0.0162897
758.428	0.0163705
758.507	0.0163239
758.585	0.0164618
758.663	0.0164814
758.741	0.0164537
758.819	0.0164541
758.897	0.0165143
758.975	0.0164756
759.053	0.0166139
759.132	0.0165736
759.210	0.0163434
759.288	0.0163535
759.366	0.0163908
759.444	0.0162846
759.522	0.0161913
759.600	0.0162123
759.678	0.0161530
759.757	0.0160542
759.835	0.0160654
759.913	0.0160497
759.991	0.0160238
760.069	0.0160629
760.147	0.0160530
760.225	0.0161206
760.303	0.0161461
760.382	0.0162230
760.460	0.0162204
760.538	0.0162045
760.616	0.0161552
760.694	0.0162668
760.772	0.0161615
760.850	0.0162145
760.928	0.0162834
761.007	0.0161385
761.085	0.0160876
761.163	0.0161443
761.241	0.0159636
761.319	0.0160709
761.397	0.0158316
761.475	0.0158305
761.553	0.0159087
761.632	0.0160567
761.710	0.0159418
761.788	0.0159027
761.866	0.0158684
761.944	0.0157720
762.022	0.0159551
762.100	0.0161596
762.178	0.0159620
762.257	0.0156590
762.335	0.0159483
762.413	0.0160185
762.491	0.0158527
762.569	0.0158239
762.647	0.0157623
762.725	0.0158194
762.803	0.0158641
762.882	0.0158638
762.960	0.0159225
763.038	0.0159641
763.116	0.0161211
763.194	0.0161269
763.272	0.0162589
763.350	0.0162461
763.428	0.0161431
763.507	0.0163802
763.585	0.0162006
763.663	0.0162858
763.741	0.0163906
763.819	0.0165075
763.897	0.0165186
763.975	0.0163930
764.053	0.0164695
764.132	0.0164735
764.210	0.0163687
764.288	0.0162460
764.366	0.0162322
764.444	0.0162939
764.522	0.0162413
764.600	0.0160508
764.678	0.0161137
764.757	0.0161686
764.835	0.0160365
764.913	0.0160101
764.991	0.0160222
765.069	0.0159748
765.147	0.0159570
765.225	0.0159193
765.303	0.0159174
765.382	0.0160761
765.460	0.0160238
765.538	0.0160703
765.616	0.0160915
765.694	0.0161879
765.772	0.0161513
765.850	0.0160082
765.928	0.0160632
766.007	0.0160115
766.085	0.0161917
766.163	0.0161964
766.241	0.0160364
766.319	0.0161318
766.397	0.0160897
766.475	0.0160973
766.553	0.0160161
766.632	0.0158625
766.710	0.0158604
766.788	0.0161345
766.866	0.0159489
766.944	0.0159560
767.022	0.0159634
767.100	0.0160163
767.178	0.0160450
767.257	0.0158900
767.335	0.0160719
767.413	0.0160439
767.491	0.0160934
767.569	0.0161224
767.647	0.0162125
767.725	0.0162299
767.803	0.0162384
767.882	0.0164746
767.960	0.0163790
768.038	0.0163574
768.116	0.0163935
768.194	0.0163439
768.272	0.0162225
768.350	0.0160944
768.428	0.0163405
768.507	0.0163064
768.585	0.0162286
768.663	0.0160959
768.741	0.0160846
768.819	0.0159462
768.897	0.0159341
768.975	0.0160126
769.053	0.0160193
769.132	0.0160891
769.210	0.0162223
769.288	0.0160599
769.366	0.0161888
769.444	0.0162786
769.522	0.0162064
769.600	0.0163747
769.678	0.0163113
769.757	0.0162582
769.835	0.0163374
769.913	0.0163940
769.991	0.0163213
770.069	0.0163533
770.147	0.0162700
770.225	0.0162254
770.303	0.0162968
770.382	0.0162524
770.460	0.0161709
770.538	0.0161670
770.616	0.0162294
770.694	0.0162741
770.772	0.0162147
770.850	0.0162879
770.928	0.0160990
771.007	0.0160740
771.085	0.0159547
771.163	0.0160838
771.241	0.0159831
771.319	0.0159885
771.397	0.0158842
771.475	0.0158225
771.553	0.0158234
771.632	0.0157851
771.710	0.0156782
771.788	0.0156229
771.866	0.0157707
771.944	0.0156193
772.022	0.0157337
772.100	0.0157731
772.178	0.0157970
772.257	0.0158604
772.335	0.0159537
772.413	0.0159366
772.491	0.0159770
772.569	0.0161095
772.647	0.0162506
772.725	0.0162164
772.803	0.0163048
772.882	0.0162221
772.960	0.0161820
773.038	0.0162581
773.116	0.0164459
773.194	0.0165215
773.272	0.0161549
773.350	0.0162868
773.428	0.0164810
773.507	0.0163381
773.585	0.0163135
773.663	0.0162753
773.741	0.0162697
773.819	0.0163786
773.897	0.0162087
773.975	0.0163509
774.053	0.0163852
774.132	0.0163631
774.210	0.0164084
774.288	0.0165300
774.366	0.0162341
774.444	0.0163253
774.522	0.0162090
774.600	0.0163214
774.678	0.0161948
774.757	0.0161468
774.835	0.0162862
774.913	0.0162514
774.991	0.0161035
775.069	0.0160577
775.147	0.0161237
775.225	0.0161624
775.303	0.0161170
775.382	0.0160973
775.460	0.0161299
775.538	0.0160580
775.616	0.0161061
775.694	0.0159880
775.772	0.0161124
775.850	0.0159892
775.928	0.0160606
776.007	0.0160572
776.085	0.0158849
776.163	0.0159660
776.241	0.0158784
776.319	0.0159332
776.397	0.0160232
776.475	0.0160043
776.553	0.0160213
776.632	0.0161420
776.710	0.0160160
776.788	0.0160326
776.866	0.0160882
776.944	0.0162019
777.022	0.0161837
777.100	0.0161033
777.178	0.0162140
777.257	0.0162222
777.335	0.0162077
777.413	0.0162406
777.491	0.0161673
777.569	0.0161234
777.647	0.0162372
777.725	0.0162836
777.803	0.0162543
777.882	0.0162502
777.960	0.0162774
778.038	0.0162555
778.116	0.0162084
778.194	0.0161896
778.272	0.0163060
778.350	0.0162116
778.428	0.0162788
778.507	0.0163625
778.585	0.0163348
778.663	0.0163479
778.741	0.0163055
778.819	0.0164233
778.897	0.0163946
778.975	0.0163159
779.053	0.0161821
779.132	0.0162354
779.210	0.0164518
779.288	0.0162444
779.366	0.0161786
779.444	0.0161347
779.522	0.0162560
779.600	0.0162286
779.678	0.0161423
779.757	0.0162251
779.835	0.0160875
779.913	0.0160790
779.991	0.0160234
780.069	0.0160968
780.147	0.0160014
780.225	0.0159274
780.303	0.0160025
780.382	0.0160238
780.460	0.0159433
780.538	0.0159916
780.616	0.0159364
780.694	0.0161163
780.772	0.0160950
780.850	0.0160801
780.928	0.0161407
781.007	0.0159707
781.085	0.0159811
781.163	0.0160435
781.241	0.0160257
781.319	0.0160369
781.397	0.0161332
781.475	0.0159935
781.553	0.0160629
781.632	0.0161203
781.710	0.0160112
781.788	0.0161568
781.866	0.0161584
781.944	0.0161047
782.022	0.0161224
782.100	0.0160094
782.178	0.0161990
782.257	0.0160326
782.335	0.0162023
782.413	0.0162348
782.491	0.0162343
782.569	0.0162130
782.647	0.0161878
782.725	0.0161578
782.803	0.0162691
782.882	0.0163228
782.960	0.0163425
783.038	0.0164209
783.116	0.0164519
783.194	0.0163364
783.272	0.0164513
783.350	0.0164984
783.428	0.0164607
783.507	0.0162781
783.585	0.0163709
783.663	0.0163515
783.741	0.0164356
783.819	0.0163404
783.897	0.0162445
783.975	0.0161749
784.053	0.0162500
784.132	0.0160983
784.210	0.0160855
784.288	0.0160777
784.366	0.0161335
784.444	0.0160128
784.522	0.0160466
784.600	0.0159121
784.678	0.0158775
784.757	0.0161072
784.835	0.0159374
784.913	0.0159856
784.991	0.0160408
785.069	0.0158615
785.147	0.0158926
785.225	0.0160606
785.303	0.0158945
785.382	0.0158459
785.460	0.0159647
785.538	0.0160041
785.616	0.0160624
785.694	0.0159924
785.772	0.0159888
785.850	0.0160225
785.928	0.0161258
786.007	0.0161297
786.085	0.0161240
786.163	0.0162398
786.241	0.0162168
786.319	0.0160746
786.397	0.0161768
786.475	0.0163508
786.553	0.0163040
786.632	0.0161793
786.710	0.0163970
786.788	0.0163480
786.866	0.0164028
786.944	0.0163120
787.022	0.0162446
787.100	0.0163556
787.178	0.0163917
787.257	0.0162892
787.335	0.0162204
787.413	0.0161915
787.491	0.0162018
787.569	0.0162436
787.647	0.0163158
787.725	0.0162498
787.803	0.0161871
787.882	0.0162520
787.960	0.0161409
788.038	0.0162643
788.116	0.0161956
788.194	0.0160733
788.272	0.0161209
788.350	0.0161420
788.428	0.0162611
788.507	0.0161244
788.585	0.0160856
788.663	0.0160986
788.741	0.0160243
788.819	0.0159988
788.897	0.0161847
788.975	0.0161060
789.053	0.0160569
789.132	0.0161607
789.210	0.0161426
789.288	0.0160570
789.366	0.0161053
789.444	0.0160745
789.522	0.0160323
789.600	0.0160485
789.678	0.0161270
789.757	0.0161723
789.835	0.0160812
789.913	0.0162188
789.991	0.0162052
790.069	0.0160967
790.147	0.0161381
790.225	0.0161820
790.303	0.0162433
790.382	0.0162774
790.460	0.0163223
790.538	0.0163624
790.616	0.0163174
790.694	0.0161260
790.772	0.0161755
790.850	0.0162711
790.928	0.0163065
791.007	0.0162460
791.085	0.0163231
791.163	0.0162692
791.241	0.0162925
791.319	0.0161979
791.397	0.0162116
791.475	0.0161358
791.553	0.0159750
791.632	0.0161160
791.710	0.0160296
791.788	0.0160636
791.866	0.0161205
791.944	0.0160036
792.022	0.0161430
792.100	0.0159115
792.178	0.0158493
792.257	0.0160468
792.335	0.0161450
792.413	0.0160845
792.491	0.0161572
792.569	0.0160526
792.647	0.0161208
792.725	0.0160583
792.803	0.0162143
792.882	0.0161912
792.960	0.0162173
793.038	0.0163583
793.116	0.0161709
793.194	0.0163155
793.272	0.0164788
793.350	0.0163243
793.428	0.0162684
793.507	0.0162254
793.585	0.0163334
793.663	0.0163043
793.741	0.0163846
793.819	0.0162863
793.897	0.0162778
793.975	0.0161076
794.053	0.0162008
794.132	0.0161446
794.210	0.0161146
794.288	0.0159663
794.366	0.0161045
794.444	0.0161143
794.522	0.0161639
794.600	0.0160504
794.678	0.0160583
794.757	0.0160948
794.835	0.0162274
794.913	0.0161251
794.991	0.0160942
795.069	0.0160735
795.147	0.0162296
795.225	0.0162241
795.303	0.0162771
795.382	0.0162375
795.460	0.0163180
795.538	0.0161747
795.616	0.0162930
795.694	0.0162737
795.772	0.0162025
795.850	0.0162020
795.928	0.0162235
796.007	0.0160970
796.085	0.0160950
796.163	0.0160376
796.241	0.0160818
796.319	0.0161136
796.397	0.0160542
796.475	0.0158927
796.553	0.0160654
796.632	0.0159607
796.710	0.0159560
796.788	0.0160854
796.866	0.0160017
796.944	0.0159039
797.022	0.0159447
797.100	0.0161329
797.178	0.0161746
797.257	0.0160805
797.335	0.0161273
797.413	0.0162667
797.491	0.0162217
797.569	0.0161028
797.647	0.0163151
797.725	0.0162614
797.803	0.0163926
797.882	0.0161834
797.960	0.0162020
798.038	0.0163931
798.116	0.0164019
798.194	0.0163091
798.272	0.0163515
798.350	0.0164001
798.428	0.0162968
798.507	0.0163405
798.585	0.0163954
798.663	0.0163774
798.741	0.0162629
798.819	0.0161239
798.897	0.0163110
798.975	0.0162732
799.053	0.0162305
799.132	0.0163578
799.210	0.0162180
799.288	0.0161906
799.366	0.0162563
799.444	0.0162943
799.522	0.0161344
799.600	0.0162408
799.678	0.0161855
799.757	0.0162222
799.835	0.0162266
799.913	0.0160010
799.991	0.0161288
800.069	0.0161568
800.147	0.0162343
800.225	0.0161417
800.303	0.0161716
800.382	0.0159590
800.460	0.0159913
800.538	0.0161562
800.616	0.0161200
800.694	0.0161251
800.772	0.0161382
800.850	0.0160118
800.928	0.0161366
801.007	0.0161893
801.085	0.0161022
801.163	0.0160837
801.241	0.0161111
801.319	0.0161675
801.397	0.0161340
801.475	0.0160793
801.553	0.0161305
801.632	0.0162463
801.710	0.0160574
801.788	0.0162224
801.866	0.0161948
801.944	0.0162991
802.022	0.0162380
802.100	0.0162040
802.178	0.0163097
802.257	0.0161765
802.335	0.0162253
802.413	0.0162736
802.491	0.0163361
802.569	0.0162165
802.647	0.0162443
802.725	0.0163921
802.803	0.0162488
802.882	0.0162147
802.960	0.0161465
803.038	0.0160847
803.116	0.0162502
803.194	0.0163159
803.272	0.0161874
803.350	0.0163165
803.428	0.0161779
803.507	0.0161917
803.585	0.0161172
803.663	0.0161312
803.741	0.0161472
803.819	0.0160201
803.897	0.0160432
803.975	0.0161555
804.053	0.0161055
804.132	0.0160324
804.210	0.0160955
804.288	0.0160966
804.366	0.0161098
804.444	0.0161568
804.522	0.0160867
804.600	0.0160559
804.678	0.0161552
804.757	0.0159775
804.835	0.0161390
804.913	0.0160461
804.991	0.0160261
805.069	0.0160134
805.147	0.0160551
805.225	0.0161530
805.303	0.0161825
805.382	0.0160505
805.460	0.0161733
805.538	0.0161467
805.616	0.0160744
805.694	0.0162595
805.772	0.0162135
805.850	0.0160686
805.928	0.0160915
806.007	0.0162414
806.085	0.0162246
806.163	0.0161828
806.241	0.0161914
806.319	0.0163659
806.397	0.0163265
806.475	0.0160836
806.553	0.0163522
806.632	0.0162788
806.710	0.0162250
806.788	0.0162932
806.866	0.0160911
806.944	0.0162576
807.022	0.0162666
807.100	0.0164607
807.178	0.0161361
807.257	0.0161835
807.335	0.0162494
807.413	0.0162064
807.491	0.0161790
807.569	0.0162799
807.647	0.0162901
807.725	0.0163375
807.803	0.0160782
807.882	0.0161845
807.960	0.0160921
808.038	0.0162888
808.116	0.0162151
808.194	0.0161934
808.272	0.0161256
808.350	0.0161881
808.428	0.0161227
808.507	0.0161068
808.585	0.0162231
808.663	0.0162586
808.741	0.0160548
808.819	0.0161517
808.897	0.0161627
808.975	0.0161819
809.053	0.0162201
809.132	0.0161562
809.210	0.0160925
809.288	0.0160463
809.366	0.0159798
809.444	0.0160681
809.522	0.0162168
809.600	0.0160877
809.678	0.0160563
809.757	0.0159438
809.835	0.0160542
809.913	0.0161440
809.991	0.0160555
810.069	0.0162314
810.147	0.0161690
810.225	0.0160836
810.303	0.0161536
810.382	0.0161650
810.460	0.0160697
810.538	0.0160651
810.616	0.0161980
810.694	0.0162110
810.772	0.0161330
810.850	0.0161483
810.928	0.0160824
811.007	0.0159993
811.085	0.0161060
811.163	0.0161808
811.241	0.0161295
811.319	0.0161331
811.397	0.0161975
811.475	0.0160201
811.553	0.0161765
811.632	0.0162161
811.710	0.0162390
811.788	0.0160647
811.866	0.0161320
811.944	0.0160719
812.022	0.0160950
812.100	0.0161182
812.178	0.0161997
812.257	0.0162157
812.335	0.0162997
812.413	0.0159966
812.491	0.0159732
812.569	0.0160926
812.647	0.0161719
812.725	0.0161252
812.803	0.0160610
812.882	0.0162385
812.960	0.0162731
813.038	0.0160958
813.116	0.0160730
813.194	0.0161629
813.272	0.0162400
813.350	0.0162123
813.428	0.0161766
813.507	0.0163021
813.585	0.0162597
813.663	0.0161436
813.741	0.0163236
813.819	0.0162195
813.897	0.0162252
813.975	0.0162920
814.053	0.0162427
814.132	0.0162486
814.210	0.0163113
814.288	0.0162214
814.366	0.0162008
814.444	0.0162496
814.522	0.0161973
814.600	0.0162135
814.678	0.0161310
814.757	0.0162703
814.835	0.0161078
814.913	0.0160432
814.991	0.0161311
815.069	0.0161169
815.147	0.0160854
815.225	0.0160890
815.303	0.0160629
815.382	0.0159799
815.460	0.0160915
815.538	0.0159908
815.616	0.0161291
815.694	0.0161172
815.772	0.0159936
815.850	0.0161026
815.928	0.0160933
816.007	0.0161503
816.085	0.0160821
816.163	0.0161925
816.241	0.0160573
816.319	0.0161507
816.397	0.0160317
816.475	0.0161129
816.553	0.0162753
816.632	0.0160858
816.710	0.0161619
816.788	0.0162392
816.866	0.0161433
816.944	0.0161886
817.022	0.0162111
817.100	0.0160220
817.178	0.0161513
817.257	0.0162778
817.335	0.0160818
817.413	0.0161977
817.491	0.0161823
817.569	0.0163049
817.647	0.0160886
817.725	0.0160723
817.803	0.0162145
817.882	0.0161737
817.960	0.0162061
818.038	0.0161508
818.116	0.0161205
818.194	0.0162025
818.272	0.0163110
818.350	0.0162424
818.428	0.0161606
818.507	0.0161337
818.585	0.0161920
818.663	0.0162250
818.741	0.0161060
818.819	0.0161607
818.897	0.0161757
818.975	0.0162896
819.053	0.0160918
819.132	0.0162706
819.210	0.0160458
819.288	0.0161267
819.366	0.0161634
819.444	0.0159323
819.522	0.0161195
819.600	0.0161633
819.678	0.0161327
819.757	0.0161668
819.835	0.0159724
819.913	0.0162151
819.991	0.0161002
820.069	0.0160733
820.147	0.0160966
820.225	0.0162159
820.303	0.0162060
820.382	0.0162131
820.460	0.0160894
820.538	0.0161374
820.616	0.0161159
820.694	0.0160811
820.772	0.0161164
820.850	0.0160480
820.928	0.0160954
821.007	0.0161295
821.085	0.0161200
821.163	0.0162798
821.241	0.0162126
821.319	0.0162363
821.397	0.0161602
821.475	0.0161410
821.553	0.0162205
821.632	0.0160654
821.710	0.0161124
821.788	0.0162980
821.866	0.0161217
821.944	0.0162370
822.022	0.0162817
822.100	0.0163422
822.178	0.0161402
822.257	0.0161910
822.335	0.0163339
822.413	0.0162291
822.491	0.0160832
822.569	0.0162409
822.647	0.0162104
822.725	0.0162487
822.803	0.0161801
822.882	0.0162787
822.960	0.0161868
823.038	0.0161510
823.116	0.0161623
823.194	0.0160491
823.272	0.0160921
823.350	0.0162157
823.428	0.0160786
823.507	0.0162138
823.585	0.0160857
823.663	0.0162503
823.741	0.0161965
823.819	0.0162952
823.897	0.0161713
823.975	0.0161962
824.053	0.0160246
824.132	0.0160175
824.210	0.0161705
824.288	0.0162166
824.366	0.0162228
824.444	0.0161012
824.522	0.0161707
824.600	0.0160812
824.678	0.0161331
824.757	0.0161452
824.835	0.0161694
824.913	0.0160046
824.991	0.0159451
825.069	0.0162130
825.147	0.0160899
825.225	0.0162515
825.303	0.0160953
825.382	0.0161143
825.460	0.0161893
825.538	0.0162794
825.616	0.0162383
825.694	0.0162543
825.772	0.0161998
825.850	0.0161053
825.928	0.0161624
826.007	0.0162595
826.085	0.0161865
826.163	0.0163741
826.241	0.0161660
826.319	0.0162050
826.397	0.0162139
826.475	0.0163663
826.553	0.0162294
826.632	0.0162217
826.710	0.0161694
826.788	0.0162158
826.866	0.0161433
826.944	0.0161925
827.022	0.0161560
827.100	0.0161777
827.178	0.0162839
827.257	0.0163196
827.335	0.0162649
827.413	0.0161150
827.491	0.0161132
827.569	0.0162717
827.647	0.0161581
827.725	0.0160901
827.803	0.0162204
827.882	0.0162930
827.960	0.0162241
828.038	0.0162881
828.116	0.0163173
828.194	0.0161635
828.272	0.0160970
828.350	0.0161658
828.428	0.0160491
828.507	0.0161759
828.585	0.0161317
828.663	0.0161665
828.741	0.0160338
828.819	0.0161176
828.897	0.0161192
828.975	0.0161169
829.053	0.0160452
829.132	0.0160579
829.210	0.0161659
829.288	0.0160851
829.366	0.0161137
829.444	0.0161865
829.522	0.0161591
829.600	0.0160202
829.678	0.0160690
829.757	0.0160911
829.835	0.0163094
829.913	0.0161613
829.991	0.0160855
830.069	0.0162274
830.147	0.0161942
830.225	0.0161669
830.303	0.0160299
830.382	0.0160110
830.460	0.0161465
830.538	0.0160837
830.616	0.0161286
830.694	0.0161589
830.772	0.0160906
830.850	0.0161694
830.928	0.0160954
831.007	0.0160420
831.085	0.0161040
831.163	0.0162103
831.241	0.0161158
831.319	0.0161431
831.397	0.0161530
831.475	0.0160585
831.553	0.0161497
831.632	0.0161932
831.710	0.0162353
831.788	0.0161358
831.866	0.0161353
831.944	0.0162843
832.022	0.0162037
832.100	0.0162332
832.178	0.0162186
832.257	0.0162822
832.335	0.0161840
832.413	0.0162707
832.491	0.0162189
832.569	0.0161157
832.647	0.0161726
832.725	0.0163198
832.803	0.0162525
832.882	0.0161088
832.960	0.0161095
833.038	0.0161355
833.116	0.0162204
833.194	0.0161474
833.272	0.0160889
833.350	0.0161266
833.428	0.0162200
833.507	0.0163061
833.585	0.0161960
833.663	0.0160815
833.741	0.0158828
833.819	0.0161570
833.897	0.0161197
833.975	0.0161626
834.053	0.0160913
834.132	0.0160339
834.210	0.0161906
834.288	0.0161534
834.366	0.0160432
834.444	0.0162032
834.522	0.0162074
834.600	0.0161317
834.678	0.0162447
834.757	0.0162524
834.835	0.0162293
834.913	0.0160310
834.991	0.0162038
835.069	0.0160532
835.147	0.0161732
835.225	0.0163020
835.303	0.0162070
835.382	0.0160899
835.460	0.0161929
835.538	0.0161840
835.616	0.0161350
835.694	0.0160455
835.772	0.0160287
835.850	0.0160945
835.928	0.0162854
836.007	0.0161759
836.085	0.0162370
836.163	0.0162482
836.241	0.0161367
836.319	0.0161980
836.397	0.0163107
836.475	0.0160363
836.553	0.0160935
836.632	0.0161266
836.710	0.0160606
836.788	0.0161156
836.866	0.0161898
836.944	0.0160522
837.022	0.0162188
837.100	0.0162681
837.178	0.0162200
837.257	0.0161462
837.335	0.0161025
837.413	0.0162331
837.491	0.0160794
837.569	0.0163055
837.647	0.0161275
837.725	0.0161651
837.803	0.0162470
837.882	0.0160744
837.960	0.0161444
838.038	0.0159795
838.116	0.0162155
838.194	0.0161156
838.272	0.0162607
838.350	0.0162043
838.428	0.0162333
838.507	0.0160682
838.585	0.0160696
838.663	0.0160195
838.741	0.0161526
838.819	0.0161075
838.897	0.0161535
838.975	0.0161311
839.053	0.0160601
839.132	0.0160508
839.210	0.0161211
839.288	0.0160610
839.366	0.0161317
839.444	0.0161018
839.522	0.0160407
839.600	0.0159615
839.678	0.0160520
839.757	0.0160741
839.835	0.0161832
839.913	0.0159052
839.991	0.0160062
840.069	0.0161824
840.147	0.0160565
840.225	0.0161002
840.303	0.0161021
840.382	0.0161142
840.460	0.0162247
840.538	0.0161191
840.616	0.0162763
840.694	0.0161490
840.772	0.0160286
840.850	0.0162084
840.928	0.0161883
841.007	0.0161219
841.085	0.0162067
841.163	0.0162065
841.241	0.0163216
841.319	0.0162294
841.397	0.0160163
841.475	0.0161798
841.553	0.0162645
841.632	0.0161714
841.710	0.0163255
841.788	0.0161319
841.866	0.0161150
841.944	0.0163625
842.022	0.0161674
842.100	0.0161684
842.178	0.0162004
842.257	0.0163393
842.335	0.0162188
842.413	0.0161038
842.491	0.0162434
842.569	0.0162820
842.647	0.0161337
842.725	0.0161010
842.803	0.0162019
842.882	0.0161433
842.960	0.0162019
843.038	0.0162463
843.116	0.0162453
843.194	0.0160445
843.272	0.0161320
843.350	0.0161703
843.428	0.0160619
843.507	0.0159801
843.585	0.0160602
843.663	0.0162269
843.741	0.0161171
843.819	0.0161490
843.897	0.0160722
843.975	0.0159525
844.053	0.0160574
844.132	0.0161119
844.210	0.0162247
844.288	0.0161558
844.366	0.0160321
844.444	0.0161006
844.522	0.0161431
844.600	0.0160350
844.678	0.0160303
844.757	0.0161563
844.835	0.0161449
844.913	0.0160680
844.991	0.0162594
845.069	0.0160675
845.147	0.0162974
845.225	0.0161322
845.303	0.0162010
845.382	0.0162373
845.460	0.0161115
845.538	0.0162668
845.616	0.0162779
845.694	0.0162475
845.772	0.0161793
845.850	0.0162745
845.928	0.0162598
846.007	0.0161485
846.085	0.0160914
846.163	0.0161202
846.241	0.0160633
846.319	0.0161236
846.397	0.0161769
846.475	0.0162233
846.553	0.0160596
846.632	0.0161069
846.710	0.0160769
846.788	0.0160898
846.866	0.0160934
846.944	0.0161298
847.022	0.0161010
847.100	0.0161356
847.178	0.0161552
847.257	0.0162144
847.335	0.0161174
847.413	0.0161401
847.491	0.0160362
847.569	0.0162468
847.647	0.0160455
847.725	0.0160262
847.803	0.0161015
847.882	0.0161321
847.960	0.0161811
848.038	0.0161099
848.116	0.0161221
848.194	0.0161116
848.272	0.0160058
848.350	0.0160275
848.428	0.0161140
848.507	0.0160663
848.585	0.0160526
848.663	0.0160046
848.741	0.0160497
848.819	0.0160316
848.897	0.0159666
848.975	0.0160709
849.053	0.0160524
849.132	0.0161557
849.210	0.0159088
849.288	0.0160752
849.366	0.0160979
849.444	0.0161339
849.522	0.0161972
849.600	0.0160814
849.678	0.0160865
849.757	0.0161197
849.835	0.0161390
849.913	0.0160698
849.991	0.0161143
850.069	0.0160871
850.147	0.0161468
850.225	0.0161426
850.303	0.0160724
850.382	0.0161567
850.460	0.0161942
850.538	0.0161321
850.616	0.0160860
850.694	0.0161093
850.772	0.0162556
850.850	0.0160490
850.928	0.0163490
851.007	0.0161522
851.085	0.0161624
851.163	0.0162403
851.241	0.0162658
851.319	0.0162531
851.397	0.0162743
851.475	0.0161674
851.553	0.0161336
851.632	0.0162623
851.710	0.0161641
851.788	0.0162001
851.866	0.0162039
851.944	0.0161372
852.022	0.0161845
852.100	0.0163099
852.178	0.0164091
852.257	0.0162080
852.335	0.0161186
852.413	0.0161774
852.491	0.0162350
852.569	0.0163283
852.647	0.0162422
852.725	0.0160258
852.803	0.0161606
852.882	0.0160956
852.960	0.0160416
853.038	0.0161167
853.116	0.0162181
853.194	0.0160479
853.272	0.0160458
853.350	0.0161851
853.428	0.0161690
853.507	0.0159792
853.585	0.0160575
853.663	0.0161040
853.741	0.0161642
853.819	0.0161682
853.897	0.0162096
853.975	0.0161604
854.053	0.0161648
854.132	0.0161816
854.210	0.0160914
854.288	0.0161563
854.366	0.0160058
854.444	0.0160022
854.522	0.0162363
854.600	0.0161811
854.678	0.0162299
854.757	0.0161589
854.835	0.0161697
854.913	0.0161523
854.991	0.0159892
855.069	0.0161083
855.147	0.0161024
855.225	0.0161610
855.303	0.0161299
855.382	0.0163597
855.460	0.0161249
855.538	0.0161781
855.616	0.0161517
855.694	0.0160944
855.772	0.0160677
855.850	0.0161206
855.928	0.0161020
856.007	0.0161579
856.085	0.0161474
856.163	0.0162065
856.241	0.0160976
856.319	0.0160462
856.397	0.0161697
856.475	0.0161898
856.553	0.0163196
856.632	0.0160883
856.710	0.0159932
856.788	0.0160103
856.866	0.0160746
856.944	0.0162106
857.022	0.0162086
857.100	0.0160590
857.178	0.0161599
857.257	0.0159959
857.335	0.0159716
857.413	0.0161643
857.491	0.0161066
857.569	0.0160561
857.647	0.0161642
857.725	0.0160890
857.803	0.0160361
857.882	0.0161745
857.960	0.0162192
858.038	0.0161890
858.116	0.0159650
858.194	0.0161282
858.272	0.0161217
858.350	0.0160072
858.428	0.0162529
858.507	0.0160868
858.585	0.0161099
858.663	0.0160885
858.741	0.0160531
858.819	0.0161848
858.897	0.0160674
858.975	0.0160308
859.053	0.0160952
859.132	0.0160918
859.210	0.0161903
859.288	0.0161641
859.366	0.0161275
859.444	0.0160950
859.522	0.0161926
859.600	0.0161192
859.678	0.0162145
859.757	0.0161110
859.835	0.0161353
859.913	0.0160477
859.991	0.0160113
860.069	0.0161704
860.147	0.0162574
860.225	0.0160306
860.303	0.0162028
860.382	0.0161967
860.460	0.0160670
860.538	0.0161633
860.616	0.0162433
860.694	0.0162177
860.772	0.0162171
860.850	0.0162458
860.928	0.0162569
861.007	0.0161871
861.085	0.0160960
861.163	0.0163412
861.241	0.0162694
861.319	0.0162685
861.397	0.0162135
861.475	0.0163529
861.553	0.0162159
861.632	0.0162144
861.710	0.0161810
861.788	0.0161579
861.866	0.0161598
861.944	0.0161433
862.022	0.0162039
862.100	0.0161609
862.178	0.0161559
862.257	0.0160289
862.335	0.0160205
862.413	0.0161600
862.491	0.0162036
862.569	0.0162611
862.647	0.0161693
862.725	0.0161381
862.803	0.0161278
862.882	0.0160551
862.960	0.0160658
863.038	0.0160213
863.116	0.0160352
863.194	0.0161174
863.272	0.0161212
863.350	0.0160781
863.428	0.0159683
863.507	0.0160916
863.585	0.0162776
863.663	0.0161044
863.741	0.0160724
863.819	0.0160677
863.897	0.0161798
863.975	0.0160302
864.053	0.0162259
864.132	0.0162367
864.210	0.0160648
864.288	0.0161961
864.366	0.0159786
864.444	0.0160808
864.522	0.0161558
864.600	0.0162576
864.678	0.0161304
864.757	0.0160291
864.835	0.0160294
864.913	0.0160912
864.991	0.0160811
865.069	0.0162016
865.147	0.0162607
865.225	0.0160152
865.303	0.0161663
865.382	0.0161116
865.460	0.0161893
865.538	0.0161422
865.616	0.0161386
865.694	0.0161038
865.772	0.0161215
865.850	0.0161465
865.928	0.0161343
866.007	0.0161797
866.085	0.0161742
866.163	0.0162045
866.241	0.0162358
866.319	0.0160935
866.397	0.0161795
866.475	0.0161110
866.553	0.0160463
866.632	0.0161541
866.710	0.0161789
866.788	0.0160412
866.866	0.0161677
866.944	0.0162914
867.022	0.0161565
867.100	0.0162039
867.178	0.0161462
867.257	0.0161326
867.335	0.0162127
867.413	0.0161200
867.491	0.0161780
867.569	0.0161047
867.647	0.0161819
867.725	0.0160674
867.803	0.0160531
867.882	0.0160587
867.960	0.0161621
868.038	0.0162711
868.116	0.0159426
868.194	0.0159930
868.272	0.0161886
868.350	0.0160616
868.428	0.0162457
868.507	0.0160448
868.585	0.0160693
868.663	0.0160798
868.741	0.0161948
868.819	0.0161699
868.897	0.0160683
868.975	0.0160187
869.053	0.0159769
869.132	0.0160122
869.210	0.0160741
869.288	0.0161993
869.366	0.0159766
869.444	0.0161119
869.522	0.0161057
869.600	0.0160493
869.678	0.0161757
869.757	0.0161420
869.835	0.0160265
869.913	0.0159909
869.991	0.0160986
870.069	0.0162523
870.147	0.0163005
870.225	0.0160413
870.303	0.0162128
870.382	0.0162283
870.460	0.0162402
870.538	0.0162132
870.616	0.0161098
870.694	0.0162473
870.772	0.0162657
870.850	0.0161555
870.928	0.0161433
871.007	0.0161047
871.085	0.0161787
871.163	0.0161604
871.241	0.0160768
871.319	0.0161500
871.397	0.0161723
871.475	0.0162170
871.553	0.0161097
871.632	0.0160526
871.710	0.0161640
871.788	0.0162114
871.866	0.0160650
871.944	0.0160600
872.022	0.0160823
872.100	0.0160692
872.178	0.0161613
872.257	0.0160072
872.335	0.0160587
872.413	0.0162045
872.491	0.0160419
872.569	0.0161514
872.647	0.0159022
872.725	0.0161193
872.803	0.0160847
872.882	0.0161181
872.960	0.0160521
873.038	0.0159993
873.116	0.0161146
873.194	0.0161606
873.272	0.0160158
873.350	0.0160633
873.428	0.0161561
873.507	0.0160857
873.585	0.0160172
873.663	0.0161600
873.741	0.0161891
873.819	0.0160769
873.897	0.0161132
873.975	0.0159962
874.053	0.0160963
874.132	0.0159888
874.210	0.0160496
874.288	0.0161040
874.366	0.0162006
874.444	0.0161095
874.522	0.0161151
874.600	0.0161810
874.678	0.0162668
874.757	0.0162507
874.835	0.0161280
874.913	0.0161274
874.991	0.0162592
875.069	0.0160730
875.147	0.0161696
875.225	0.0162183
875.303	0.0161667
875.382	0.0161465
875.460	0.0160514
875.538	0.0162608
875.616	0.0161665
875.694	0.0161980
875.772	0.0161269
875.850	0.0162782
875.928	0.0161309
876.007	0.0159974
876.085	0.0161359
876.163	0.0161278
876.241	0.0160392
876.319	0.0160349
876.397	0.0160632
876.475	0.0161306
876.553	0.0160967
876.632	0.0160443
876.710	0.0162258
876.788	0.0161650
876.866	0.0160397
876.944	0.0161524
877.022	0.0161143
877.100	0.0160432
877.178	0.0160805
877.257	0.0159881
877.335	0.0160266
877.413	0.0161375
877.491	0.0160963
877.569	0.0162342
877.647	0.0162029
877.725	0.0161461
877.803	0.0161842
877.882	0.0162225
877.960	0.0160110
878.038	0.0160741
878.116	0.0162129
878.194	0.0161778
878.272	0.0161829
878.350	0.0161258
878.428	0.0160976
878.507	0.0160625
878.585	0.0161294
878.663	0.0163369
878.741	0.0162649
878.819	0.0161303
878.897	0.0161743
878.975	0.0161880
879.053	0.0161932
879.132	0.0161284
879.210	0.0162637
879.288	0.0163092
879.366	0.0161511
879.444	0.0162264
879.522	0.0161697
879.600	0.0162354
879.678	0.0161558
879.757	0.0161159
879.835	0.0161630
879.913	0.0161574
879.991	0.0161296
880.069	0.0160893
880.147	0.0161202
880.225	0.0163370
880.303	0.0161858
880.382	0.0161875
880.460	0.0162005
880.538	0.0162062
880.616	0.0162106
880.694	0.0161371
880.772	0.0160697
880.850	0.0162208
880.928	0.0161283
881.007	0.0161446
881.085	0.0162060
881.163	0.0160460
881.241	0.0161641
881.319	0.0162488
881.397	0.0162334
881.475	0.0161362
881.553	0.0161727
881.632	0.0162003
881.710	0.0161232
881.788	0.0161030
881.866	0.0160690
881.944	0.0161050
882.022	0.0161657
882.100	0.0161774
882.178	0.0161841
882.257	0.0161604
882.335	0.0161613
882.413	0.0161214
882.491	0.0160621
882.569	0.0161811
882.647	0.0163233
882.725	0.0160026
882.803	0.0161798
882.882	0.0161918
882.960	0.0161459
883.038	0.0161514
883.116	0.0161406
883.194	0.0160995
883.272	0.0160974
883.350	0.0160992
883.428	0.0160991
883.507	0.0163029
883.585	0.0162070
883.663	0.0161964
883.741	0.0161891
883.819	0.0161855
883.897	0.0161273
883.975	0.0160788
884.053	0.0161134
884.132	0.0161865
884.210	0.0163358
884.288	0.0160825
884.366	0.0163103
884.444	0.0162453
884.522	0.0162007
884.600	0.0162102
884.678	0.0162479
884.757	0.0160207
884.835	0.0161811
884.913	0.0161253
884.991	0.0160500
885.069	0.0160725
885.147	0.0161992
885.225	0.0161349
885.303	0.0160089
885.382	0.0160894
885.460	0.0161607
885.538	0.0160660
885.616	0.0159766
885.694	0.0159899
885.772	0.0161083
885.850	0.0161425
885.928	0.0160886
886.007	0.0160964
886.085	0.0161386
886.163	0.0161291
886.241	0.0161887
886.319	0.0161178
886.397	0.0161340
886.475	0.0160466
886.553	0.0161857
886.632	0.0158762
886.710	0.0162834
886.788	0.0161147
886.866	0.0162658
886.944	0.0162746
887.022	0.0160729
887.100	0.0161581
887.178	0.0162606
887.257	0.0162652
887.335	0.0161613
887.413	0.0162364
887.491	0.0160717
887.569	0.0160636
887.647	0.0161001
887.725	0.0160942
887.803	0.0161125
887.882	0.0161523
887.960	0.0162212
888.038	0.0161315
888.116	0.0161729
888.194	0.0160760
888.272	0.0160702
888.350	0.0160712
888.428	0.0160545
888.507	0.0161039
888.585	0.0160487
888.663	0.0161324
888.741	0.0161208
888.819	0.0160607
888.897	0.0160770
888.975	0.0161011
889.053	0.0160487
889.132	0.0159316
889.210	0.0160869
889.288	0.0160510
889.366	0.0162081
889.444	0.0161272
889.522	0.0159285
889.600	0.0160980
889.678	0.0161039
889.757	0.0162796
889.835	0.0161256
889.913	0.0160504
889.991	0.0161120
890.069	0.0161375
890.147	0.0161154
890.225	0.0161327
890.303	0.0161705
890.382	0.0162363
890.460	0.0162057
890.538	0.0161819
890.616	0.0160789
890.694	0.0161834
890.772	0.0162257
890.850	0.0163094
890.928	0.0161591
891.007	0.0162798
891.085	0.0161970
891.163	0.0160764
891.241	0.0160939
891.319	0.0162126
891.397	0.0162676
891.475	0.0162556
891.553	0.0162636
891.632	0.0162997
891.710	0.0161895
891.788	0.0161141
891.866	0.0163418
891.944	0.0162309
892.022	0.0162112
892.100	0.0162940
892.178	0.0160768
892.257	0.0162000
892.335	0.0163167
892.413	0.0162569
892.491	0.0161901
892.569	0.0160679
892.647	0.0161662
892.725	0.0161738
892.803	0.0162405
892.882	0.0162163
892.960	0.0161164
893.038	0.0161029
893.116	0.0161289
893.194	0.0162379
893.272	0.0161950
893.350	0.0161337
893.428	0.0161068
893.507	0.0159726
893.585	0.0161085
893.663	0.0161211
893.741	0.0160545
893.819	0.0159397
893.897	0.0160822
893.975	0.0160228
894.053	0.0161254
894.132	0.0160809
894.210	0.0161243
894.288	0.0161134
894.366	0.0161233
894.444	0.0162435
894.522	0.0161768
894.600	0.0161660
894.678	0.0161557
894.757	0.0162662
894.835	0.0161963
894.913	0.0160726
894.991	0.0162263
895.069	0.0161235
895.147	0.0162444
895.225	0.0161921
895.303	0.0161427
895.382	0.0160236
895.460	0.0162061
895.538	0.0162297
895.616	0.0162418
895.694	0.0160944
895.772	0.0161472
895.850	0.0162645
895.928	0.0160683
896.007	0.0161449
896.085	0.0162222
896.163	0.0160519
896.241	0.0162526
896.319	0.0162186
896.397	0.0161012
896.475	0.0160430
896.553	0.0161867
896.632	0.0160781
896.710	0.0161008
896.788	0.0161656
896.866	0.0160594
896.944	0.0161076
897.022	0.0161921
897.100	0.0161955
897.178	0.0160759
897.257	0.0161868
897.335	0.0162411
897.413	0.0160933
897.491	0.0161431
897.569	0.0160830
897.647	0.0161510
897.725	0.0160598
897.803	0.0160904
897.882	0.0163113
897.960	0.0162415
898.038	0.0161678
898.116	0.0162119
898.194	0.0161926
898.272	0.0161919
898.350	0.0161962
898.428	0.0161074
898.507	0.0161633
898.585	0.0161359
898.663	0.0160708
898.741	0.0161547
898.819	0.0161781
898.897	0.0161610
898.975	0.0161064
899.053	0.0160432
899.132	0.0160683
899.210	0.0161700
899.288	0.0161489
899.366	0.0160835
899.444	0.0160869
899.522	0.0160860
899.600	0.0160667
899.678	0.0160991
899.757	0.0161039
899.835	0.0162814
899.913	0.0160761
899.991	0.0162099
900.069	0.0161147
900.147	0.0159618
900.225	0.0163130
900.303	0.0161047
900.382	0.0162760
900.460	0.0161509
900.538	0.0160696
900.616	0.0162080
900.694	0.0162454
900.772	0.0160354
900.850	0.0161205
900.928	0.0160786
901.007	0.0160596
901.085	0.0162351
901.163	0.0160816
901.241	0.0160114
901.319	0.0162423
901.397	0.0162083
901.475	0.0160490
901.553	0.0163525
901.632	0.0162476
901.710	0.0161237
901.788	0.0161021
901.866	0.0161232
901.944	0.0162143
902.022	0.0162330
902.100	0.0162021
902.178	0.0162546
902.257	0.0162450
902.335	0.0162086
902.413	0.0162333
902.491	0.0161105
902.569	0.0160878
902.647	0.0162316
902.725	0.0163028
902.803	0.0161166
902.882	0.0161819
902.960	0.0161710
903.038	0.0162876
903.116	0.0161230
903.194	0.0161717
903.272	0.0161494
903.350	0.0160646
903.428	0.0161028
903.507	0.0161417
903.585	0.0161398
903.663	0.0160983
903.741	0.0161398
903.819	0.0160602
903.897	0.0160887
903.975	0.0162405
904.053	0.0162994
904.132	0.0161455
904.210	0.0162177
904.288	0.0162027
904.366	0.0161401
904.444	0.0162666
904.522	0.0161446
904.600	0.0161690
904.678	0.0162515
904.757	0.0161822
904.835	0.0161781
904.913	0.0161510
904.991	0.0161851
905.069	0.0161200
905.147	0.0162154
905.225	0.0162093
905.303	0.0161076
905.382	0.0162006
905.460	0.0161787
905.538	0.0162428
905.616	0.0162470
905.694	0.0161069
905.772	0.0162085
905.850	0.0161335
905.928	0.0161097
906.007	0.0161706
906.085	0.0162855
906.163	0.0161539
906.241	0.0163054
906.319	0.0160476
906.397	0.0162082
906.475	0.0161581
906.553	0.0160695
906.632	0.0161118
906.710	0.0160773
906.788	0.0161411
906.866	0.0161816
906.944	0.0161832
907.022	0.0161484
907.100	0.0163327
907.178	0.0162365
907.257	0.0161362
907.335	0.0162122
907.413	0.0162807
907.491	0.0162975
907.569	0.0162569
907.647	0.0162303
907.725	0.0161460
907.803	0.0162575
907.882	0.0161591
907.960	0.0162809
908.038	0.0162504
908.116	0.0162361
908.194	0.0162593
908.272	0.0162849
908.350	0.0161459
908.428	0.0161995
908.507	0.0160994
908.585	0.0161946
908.663	0.0161887
908.741	0.0162253
908.819	0.0162677
908.897	0.0160551
908.975	0.0161077
909.053	0.0160956
909.132	0.0162389
909.210	0.0161667
909.288	0.0161117
909.366	0.0161855
909.444	0.0161201
909.522	0.0160902
909.600	0.0160197
909.678	0.0161396
909.757	0.0161572
909.835	0.0161752
909.913	0.0163052
909.991	0.0161185
910.069	0.0161523
910.147	0.0161845
910.225	0.0161956
910.303	0.0161423
910.382	0.0162948
910.460	0.0162085
910.538	0.0160260
910.616	0.0162534
910.694	0.0162048
910.772	0.0162585
910.850	0.0161555
910.928	0.0162106
911.007	0.0161658
911.085	0.0162768
911.163	0.0162465
911.241	0.0163338
911.319	0.0162550
911.397	0.0162115
911.475	0.0162188
911.553	0.0162473
911.632	0.0162180
911.710	0.0163878
911.788	0.0161670
911.866	0.0162865
911.944	0.0162041
912.022	0.0161217
912.100	0.0161787
912.178	0.0162064
912.257	0.0163421
912.335	0.0161973
912.413	0.0161690
912.491	0.0162022
912.569	0.0162259
912.647	0.0163130
912.725	0.0162370
912.803	0.0161314
912.882	0.0161934
912.960	0.0161924
913.038	0.0161436
913.116	0.0161578
913.194	0.0160362
913.272	0.0161651
913.350	0.0162729
913.428	0.0162242
913.507	0.0161604
913.585	0.0161101
913.663	0.0161176
913.741	0.0160603
913.819	0.0161279
913.897	0.0160509
913.975	0.0158715
914.053	0.0160974
914.132	0.0161425
914.210	0.0161864
914.288	0.0161767
914.366	0.0161395
914.444	0.0161808
914.522	0.0161475
914.600	0.0161846
914.678	0.0160932
914.757	0.0161543
914.835	0.0161828
914.913	0.0162328
914.991	0.0161961
915.069	0.0161717
915.147	0.0162622
915.225	0.0163124
915.303	0.0161225
915.382	0.0161217
915.460	0.0162219
915.538	0.0161501
915.616	0.0160950
915.694	0.0161644
915.772	0.0162031
915.850	0.0161362
915.928	0.0161043
916.007	0.0162176
916.085	0.0160506
916.163	0.0160982
916.241	0.0161959
916.319	0.0163129
916.397	0.0162097
916.475	0.0160899
916.553	0.0160950
916.632	0.0162423
916.710	0.0161750
916.788	0.0161497
916.866	0.0162946
916.944	0.0160371
917.022	0.0161198
917.100	0.0160922
917.178	0.0162651
917.257	0.0161381
917.335	0.0161909
917.413	0.0161423
917.491	0.0162559
917.569	0.0161118
917.647	0.0161101
917.725	0.0161464
917.803	0.0162650
917.882	0.0162812
917.960	0.0161224
918.038	0.0161393
918.116	0.0162939
918.194	0.0161607
918.272	0.0161650
918.350	0.0162626
918.428	0.0161807
918.507	0.0161143
918.585	0.0161726
918.663	0.0161469
918.741	0.0162602
918.819	0.0160942
918.897	0.0162566
918.975	0.0160499
919.053	0.0162299
919.132	0.0162780
919.210	0.0160070
919.288	0.0162002
919.366	0.0161185
919.444	0.0161854
919.522	0.0161008
919.600	0.0162367
919.678	0.0161449
919.757	0.0161345
919.835	0.0161726
919.913	0.0163730
919.991	0.0161056
920.069	0.0161445
920.147	0.0161402
920.225	0.0160916
920.303	0.0161408
920.382	0.0161172
920.460	0.0161882
920.538	0.0162240
920.616	0.0161301
920.694	0.0161018
920.772	0.0161546
920.850	0.0160927
920.928	0.0161642
921.007	0.0162439
921.085	0.0161213
921.163	0.0162624
921.241	0.0162867
921.319	0.0162369
921.397	0.0162599
921.475	0.0162183
921.553	0.0161304
921.632	0.0161836
921.710	0.0160992
921.788	0.0160780
921.866	0.0162395
921.944	0.0161697
922.022	0.0162730
922.100	0.0161515
922.178	0.0161835
922.257	0.0162035
922.335	0.0162051
922.413	0.0162011
922.491	0.0161048
922.569	0.0161903
922.647	0.0161073
922.725	0.0162164
922.803	0.0161898
922.882	0.0161327
922.960	0.0161938
923.038	0.0161746
923.116	0.0160680
923.194	0.0162200
923.272	0.0162234
923.350	0.0161218
923.428	0.0161445
923.507	0.0161262
923.585	0.0161012
923.663	0.0162351
923.741	0.0163298
923.819	0.0161671
923.897	0.0161068
923.975	0.0162626
924.053	0.0161935
924.132	0.0161736
924.210	0.0162447
924.288	0.0162150
924.366	0.0161035
924.444	0.0160398
924.522	0.0160687
924.600	0.0161268
924.678	0.0162148
924.757	0.0161578
924.835	0.0161353
924.913	0.0161062
924.991	0.0162387
925.069	0.0160293
925.147	0.0160403
925.225	0.0161466
925.303	0.0161300
925.382	0.0161152
925.460	0.0161015
925.538	0.0161694
925.616	0.0163241
925.694	0.0161269
925.772	0.0160583
925.850	0.0161187
925.928	0.0159889
926.007	0.0161709
926.085	0.0161198
926.163	0.0160930
926.241	0.0161418
926.319	0.0161172
926.397	0.0161786
926.475	0.0161376
926.553	0.0162228
926.632	0.0159532
926.710	0.0162246
926.788	0.0161808
926.866	0.0161954
926.944	0.0161889
927.022	0.0160622
927.100	0.0161562
927.178	0.0162421
927.257	0.0162737
927.335	0.0161459
927.413	0.0161549
927.491	0.0162681
927.569	0.0161062
927.647	0.0161812
927.725	0.0161357
927.803	0.0162404
927.882	0.0162115
927.960	0.0161801
928.038	0.0162510
928.116	0.0161278
928.194	0.0161775
928.272	0.0161399
928.350	0.0161591
928.428	0.0161788
928.507	0.0161982
928.585	0.0163181
928.663	0.0162163
928.741	0.0161245
928.819	0.0160564
928.897	0.0160818
928.975	0.0160719
929.053	0.0163193
929.132	0.0163168
929.210	0.0162337
929.288	0.0162040
929.366	0.0161137
929.444	0.0161252
929.522	0.0162469
929.600	0.0161040
929.678	0.0160799
929.757	0.0162534
929.835	0.0161441
929.913	0.0162592
929.991	0.0161886
930.069	0.0161814
930.147	0.0161268
930.225	0.0160796
930.303	0.0162083
930.382	0.0160611
930.460	0.0161440
930.538	0.0162812
930.616	0.0162029
930.694	0.0161414
930.772	0.0161885
930.850	0.0159901
930.928	0.0162389
931.007	0.0161893
931.085	0.0162176
931.163	0.0162541
931.241	0.0162249
931.319	0.0161784
931.397	0.0161289
931.475	0.0160139
931.553	0.0163517
931.632	0.0161285
931.710	0.0161279
931.788	0.0161061
931.866	0.0162086
931.944	0.0161561
932.022	0.0161423
932.100	0.0160748
932.178	0.0161246
932.257	0.0162307
932.335	0.0160021
932.413	0.0161335
932.491	0.0161887
932.569	0.0160109
932.647	0.0161711
932.725	0.0161378
932.803	0.0161298
932.882	0.0162143
932.960	0.0162439
933.038	0.0161468
933.116	0.0162099
933.194	0.0162823
933.272	0.0161742
933.350	0.0161319
933.428	0.0161110
933.507	0.0160534
933.585	0.0161836
933.663	0.0161885
933.741	0.0161538
933.819	0.0161070
933.897	0.0161948
933.975	0.0161815
934.053	0.0160727
934.132	0.0160597
934.210	0.0160548
934.288	0.0159788
934.366	0.0161217
934.444	0.0162244
934.522	0.0160518
934.600	0.0162070
934.678	0.0160318
934.757	0.0159718
934.835	0.0160439
934.913	0.0161061
934.991	0.0161253
935.069	0.0161817
935.147	0.0160435
935.225	0.0161165
935.303	0.0163545
935.382	0.0162694
935.460	0.0159816
935.538	0.0161192
935.616	0.0161098
935.694	0.0162055
935.772	0.0161838
935.850	0.0161402
935.928	0.0161531
936.007	0.0161992
936.085	0.0163302
936.163	0.0162562
936.241	0.0163148
936.319	0.0162160
936.397	0.0162609
936.475	0.0162103
936.553	0.0162135
936.632	0.0162784
936.710	0.0161372
936.788	0.0163754
936.866	0.0161331
936.944	0.0161833
937.022	0.0162089
937.100	0.0162273
937.178	0.0162262
937.257	0.0161566
937.335	0.0162498
937.413	0.0160378
937.491	0.0160480
937.569	0.0159819
937.647	0.0161149
937.725	0.0161696
937.803	0.0160545
937.882	0.0161221
937.960	0.0161846
938.038	0.0161824
938.116	0.0161462
938.194	0.0160932
938.272	0.0160294
938.350	0.0161919
938.428	0.0161566
938.507	0.0161679
938.585	0.0160923
938.663	0.0160728
938.741	0.0161500
938.819	0.0161992
938.897	0.0161853
938.975	0.0162949
939.053	0.0162017
939.132	0.0161902
939.210	0.0161304
939.288	0.0161808
939.366	0.0162505
939.444	0.0162926
939.522	0.0162509
939.600	0.0162177
939.678	0.0160891
939.757	0.0160912
939.835	0.0161980
939.913	0.0161166
939.991	0.0161705
940.069	0.0162321
940.147	0.0160883
940.225	0.0162494
940.303	0.0162363
940.382	0.0162666
940.460	0.0161897
940.538	0.0161417
940.616	0.0161006
940.694	0.0162229
940.772	0.0163112
940.850	0.0162514
940.928	0.0161069
941.007	0.0162031
941.085	0.0161875
941.163	0.0162449
941.241	0.0160986
941.319	0.0161423
941.397	0.0160083
941.475	0.0160994
941.553	0.0161042
941.632	0.0160571
941.710	0.0159841
941.788	0.0161661
941.866	0.0160896
941.944	0.0161759
942.022	0.0160979
942.100	0.0161153
942.178	0.0161517
942.257	0.0161204
942.335	0.0160621
942.413	0.0161018
942.491	0.0161460
942.569	0.0162703
942.647	0.0162435
942.725	0.0160795
942.803	0.0161420
942.882	0.0161926
942.960	0.0161837
943.038	0.0161951
943.116	0.0160191
943.194	0.0161414
943.272	0.0162254
943.350	0.0161851
943.428	0.0162376
943.507	0.0161230
943.585	0.0161594
943.663	0.0161433
943.741	0.0160983
943.819	0.0161835
943.897	0.0162714
943.975	0.0160439
944.053	0.0160767
944.132	0.0162836
944.210	0.0160465
944.288	0.0161461
944.366	0.0161420
944.444	0.0161868
944.522	0.0160638
944.600	0.0161153
944.678	0.0161224
944.757	0.0161314
944.835	0.0161803
944.913	0.0160776
944.991	0.0160909
945.069	0.0160327
945.147	0.0160936
945.225	0.0161720
945.303	0.0162394
945.382	0.0161516
945.460	0.0162577
945.538	0.0161846
945.616	0.0161364
945.694	0.0160287
945.772	0.0160777
945.850	0.0162424
945.928	0.0161265
946.007	0.0161142
946.085	0.0161617
946.163	0.0159626
946.241	0.0161734
946.319	0.0160872
946.397	0.0159883
946.475	0.0162026
946.553	0.0162029
946.632	0.0160664
946.710	0.0161172
946.788	0.0160479
946.866	0.0159841
946.944	0.0161953
947.022	0.0160727
947.100	0.0160519
947.178	0.0161328
947.257	0.0160890
947.335	0.0161727
947.413	0.0160327
947.491	0.0161841
947.569	0.0162083
947.647	0.0161447
947.725	0.0161335
947.803	0.0159099
947.882	0.0159416
947.960	0.0161958
948.038	0.0161135
948.116	0.0161681
948.194	0.0160491
948.272	0.0160509
948.350	0.0161031
948.428	0.0160755
948.507	0.0161214
948.585	0.0161401
948.663	0.0159964
948.741	0.0161892
948.819	0.0161419
948.897	0.0160799
948.975	0.0160673
949.053	0.0162138
949.132	0.0162514
949.210	0.0160670
949.288	0.0159408
949.366	0.0161636
949.444	0.0162628
949.522	0.0161952
949.600	0.0161012
949.678	0.0160802
949.757	0.0162050
949.835	0.0162564
949.913	0.0162144
949.991	0.0161362
950.069	0.0161396
950.147	0.0161970
950.225	0.0161647
950.303	0.0160938
950.382	0.0161964
950.460	0.0162412
950.538	0.0161133
950.616	0.0160993
950.694	0.0160973
950.772	0.0160964
950.850	0.0160625
950.928	0.0160433
951.007	0.0159975
951.085	0.0161752
951.163	0.0162283
951.241	0.0161711
951.319	0.0160632
951.397	0.0161674
951.475	0.0162199
951.553	0.0161467
951.632	0.0162012
951.710	0.0161558
951.788	0.0161360
951.866	0.0161857
951.944	0.0161767
952.022	0.0161785
952.100	0.0161585
952.178	0.0161860
952.257	0.0161279
952.335	0.0160921
952.413	0.0163302
952.491	0.0162990
952.569	0.0161297
952.647	0.0161440
952.725	0.0160887
952.803	0.0162776
952.882	0.0161168
952.960	0.0160237
953.038	0.0161868
953.116	0.0160908
953.194	0.0162022
953.272	0.0161035
953.350	0.0161729
953.428	0.0161430
953.507	0.0161288
953.585	0.0162267
953.663	0.0161428
953.741	0.0161392
953.819	0.0162149
953.897	0.0162508
953.975	0.0160999
954.053	0.0161486
954.132	0.0161037
954.210	0.0162016
954.288	0.0161580
954.366	0.0162861
954.444	0.0162681
954.522	0.0161605
954.600	0.0161037
954.678	0.0161546
954.757	0.0161419
954.835	0.0163013
954.913	0.0161522
954.991	0.0161909
955.069	0.0161957
955.147	0.0162206
955.225	0.0160735
955.303	0.0161219
955.382	0.0160973
955.460	0.0161669
955.538	0.0161667
955.616	0.0162141
955.694	0.0161007
955.772	0.0160181
955.850	0.0162157
955.928	0.0161208
956.007	0.0161243
956.085	0.0162225
956.163	0.0160596
956.241	0.0162070
956.319	0.0162669
956.397	0.0162023
956.475	0.0162556
956.553	0.0161577
956.632	0.0162799
956.710	0.0162109
956.788	0.0162376
956.866	0.0161286
956.944	0.0162708
957.022	0.0161737
957.100	0.0161478
957.178	0.0163008
957.257	0.0161166
957.335	0.0161446
957.413	0.0162702
957.491	0.0161417
957.569	0.0162064
957.647	0.0160047
957.725	0.0161984
957.803	0.0162772
957.882	0.0161576
957.960	0.0160642
958.038	0.0161368
958.116	0.0160889
958.194	0.0160417
958.272	0.0161938
958.350	0.0161466
958.428	0.0161602
958.507	0.0160885
958.585	0.0160104
958.663	0.0161642
958.741	0.0161457
958.819	0.0161494
958.897	0.0161598
958.975	0.0161419
959.053	0.0162299
959.132	0.0161568
959.210	0.0162620
959.288	0.0161150
959.366	0.0161226
959.444	0.0160890
959.522	0.0162399
959.600	0.0162280
959.678	0.0161072
959.757	0.0161487
959.835	0.0160815
959.913	0.0161177
959.991	0.0161337
960.069	0.0162534
960.147	0.0160327
960.225	0.0160107
960.303	0.0160626
960.382	0.0162394
960.460	0.0160947
960.538	0.0161620
960.616	0.0161520
960.694	0.0161741
960.772	0.0159879
960.850	0.0161396
960.928	0.0162061
961.007	0.0162485
961.085	0.0163068
961.163	0.0161955
961.241	0.0161787
961.319	0.0161300
961.397	0.0163259
961.475	0.0162913
961.553	0.0161832
961.632	0.0162509
961.710	0.0162643
961.788	0.0161823
961.866	0.0161833
961.944	0.0162187
962.022	0.0162753
962.100	0.0162479
962.178	0.0162048
962.257	0.0162849
962.335	0.0161092
962.413	0.0160533
962.491	0.0161385
962.569	0.0162005
962.647	0.0160961
962.725	0.0160605
962.803	0.0161417
962.882	0.0161530
962.960	0.0160374
963.038	0.0160857
963.116	0.0162592
963.194	0.0162100
963.272	0.0160814
963.350	0.0159746
963.428	0.0162039
963.507	0.0160214
963.585	0.0160682
963.663	0.0161156
963.741	0.0162614
963.819	0.0163290
963.897	0.0161833
963.975	0.0162073
964.053	0.0161535
964.132	0.0161356
964.210	0.0162419
964.288	0.0162713
964.366	0.0161003
964.444	0.0161409
964.522	0.0162046
964.600	0.0162379
964.678	0.0162624
964.757	0.0162032
964.835	0.0162717
964.913	0.0162598
964.991	0.0161340
965.069	0.0162481
965.147	0.0161855
965.225	0.0161182
965.303	0.0162579
965.382	0.0161664
965.460	0.0161028
965.538	0.0161931
965.616	0.0163263
965.694	0.0162763
965.772	0.0160990
965.850	0.0160384
965.928	0.0161747
966.007	0.0160687
966.085	0.0162361
966.163	0.0161492
966.241	0.0160937
966.319	0.0161489
966.397	0.0161742
966.475	0.0161164
966.553	0.0161281
966.632	0.0160679
966.710	0.0160831
966.788	0.0160864
966.866	0.0159560
966.944	0.0161358
967.022	0.0161115
967.100	0.0161362
967.178	0.0161945
967.257	0.0161083
967.335	0.0161073
967.413	0.0160616
967.491	0.0161893
967.569	0.0161185
967.647	0.0162123
967.725	0.0162434
967.803	0.0161185
967.882	0.0161016
967.960	0.0162417
968.038	0.0163065
968.116	0.0162045
968.194	0.0161727
968.272	0.0162582
968.350	0.0162884
968.428	0.0162102
968.507	0.0161498
968.585	0.0162637
968.663	0.0162351
968.741	0.0162307
968.819	0.0161354
968.897	0.0163004
968.975	0.0161887
969.053	0.0161462
969.132	0.0161358
969.210	0.0161695
969.288	0.0160575
969.366	0.0160878
969.444	0.0160953
969.522	0.0161964
969.600	0.0160805
969.678	0.0161892
969.757	0.0159706
969.835	0.0160545
969.913	0.0161357
969.991	0.0160243
970.069	0.0160422
970.147	0.0161928
970.225	0.0159744
970.303	0.0161571
970.382	0.0162125
970.460	0.0161395
970.538	0.0161372
970.616	0.0160999
970.694	0.0160753
970.772	0.0160437
970.850	0.0162077
970.928	0.0161572
971.007	0.0160992
971.085	0.0162339
971.163	0.0162300
971.241	0.0160951
971.319	0.0161169
971.397	0.0161681
971.475	0.0161522
971.553	0.0162151
971.632	0.0162077
971.710	0.0161066
971.788	0.0162413
971.866	0.0161359
971.944	0.0162924
972.022	0.0160709
972.100	0.0162403
972.178	0.0161517
972.257	0.0160828
972.335	0.0161664
972.413	0.0161541
972.491	0.0161282
972.569	0.0160901
972.647	0.0162090
972.725	0.0162644
972.803	0.0163113
972.882	0.0162789
972.960	0.0162291
973.038	0.0159203
973.116	0.0160175
973.194	0.0160319
973.272	0.0161252
973.350	0.0161761
973.428	0.0161900
973.507	0.0160600
973.585	0.0160435
973.663	0.0161849
973.741	0.0159938
973.819	0.0161634
973.897	0.0162036
973.975	0.0162739
974.053	0.0161028
974.132	0.0160944
974.210	0.0161199
974.288	0.0159210
974.366	0.0161445
974.444	0.0162727
974.522	0.0161715
974.600	0.0160194
974.678	0.0161942
974.757	0.0161516
974.835	0.0161002
974.913	0.0161688
974.991	0.0161566
975.069	0.0160238
975.147	0.0160927
975.225	0.0161618
975.303	0.0162164
975.382	0.0161773
975.460	0.0161196
975.538	0.0161123
975.616	0.0161905
975.694	0.0160831
975.772	0.0161725
975.850	0.0160721
975.928	0.0161590
976.007	0.0160180
976.085	0.0161012
976.163	0.0161454
976.241	0.0160928
976.319	0.0161890
976.397	0.0160824
976.475	0.0161192
976.553	0.0161073
976.632	0.0162407
976.710	0.0161781
976.788	0.0161804
976.866	0.0160366
976.944	0.0160251
977.022	0.0161801
977.100	0.0160174
977.178	0.0160513
977.257	0.0161594
977.335	0.0162266
977.413	0.0162289
977.491	0.0161527
977.569	0.0161430
977.647	0.0161720
977.725	0.0161393
977.803	0.0159612
977.882	0.0161233
977.960	0.0162093
978.038	0.0162364
978.116	0.0160459
978.194	0.0161128
978.272	0.0161792
978.350	0.0161651
978.428	0.0161964
978.507	0.0163567
978.585	0.0162469
978.663	0.0161572
978.741	0.0163500
978.819	0.0161403
978.897	0.0159998
978.975	0.0162334
979.053	0.0162410
979.132	0.0161663
979.210	0.0161479
979.288	0.0161194
979.366	0.0161316
979.444	0.0162007
979.522	0.0162542
979.600	0.0161945
979.678	0.0161424
979.757	0.0161199
979.835	0.0161514
979.913	0.0161155
979.991	0.0161095
980.069	0.0161327
980.147	0.0162246
980.225	0.0161401
980.303	0.0160880
980.382	0.0161675
980.460	0.0161398
980.538	0.0160939
980.616	0.0161769
980.694	0.0161204
980.772	0.0161279
980.850	0.0160550
980.928	0.0161334
981.007	0.0160358
981.085	0.0161498
981.163	0.0161412
981.241	0.0161269
981.319	0.0160115
981.397	0.0161231
981.475	0.0160917
981.553	0.0161281
981.632	0.0161078
981.710	0.0160599
981.788	0.0160017
981.866	0.0161754
981.944	0.0162605
982.022	0.0161185
982.100	0.0161094
982.178	0.0160959
982.257	0.0162306
982.335	0.0161467
982.413	0.0161338
982.491	0.0161823
982.569	0.0161465
982.647	0.0162997
982.725	0.0160543
982.803	0.0161524
982.882	0.0162073
982.960	0.0161763
983.038	0.0162111
983.116	0.0161320
983.194	0.0160551
983.272	0.0161019
983.350	0.0161497
983.428	0.0161478
983.507	0.0161893
983.585	0.0160800
983.663	0.0161435
983.741	0.0161182
983.819	0.0160819
983.897	0.0161388
983.975	0.0162230
984.053	0.0161555
984.132	0.0161929
984.210	0.0161576
984.288	0.0161002
984.366	0.0161810
984.444	0.0162210
984.522	0.0160902
984.600	0.0161475
984.678	0.0159923
984.757	0.0159356
984.835	0.0161482
984.913	0.0162764
984.991	0.0162746
985.069	0.0160413
985.147	0.0161757
985.225	0.0160925
985.303	0.0161068
985.382	0.0161089
985.460	0.0160626
985.538	0.0160954
985.616	0.0161147
985.694	0.0161182
985.772	0.0160973
985.850	0.0161474
985.928	0.0160909
986.007	0.0162168
986.085	0.0162194
986.163	0.0161033
986.241	0.0160651
986.319	0.0160596
986.397	0.0160242
986.475	0.0160931
986.553	0.0161227
986.632	0.0162714
986.710	0.0161589
986.788	0.0162406
986.866	0.0162826
986.944	0.0161263
987.022	0.0161488
987.100	0.0161520
987.178	0.0161867
987.257	0.0162144
987.335	0.0160658
987.413	0.0161749
987.491	0.0162021
987.569	0.0161967
987.647	0.0160191
987.725	0.0161301
987.803	0.0163284
987.882	0.0161993
987.960	0.0160748
988.038	0.0160522
988.116	0.0160390
988.194	0.0160454
988.272	0.0162005
988.350	0.0161886
988.428	0.0159315
988.507	0.0161403
988.585	0.0160242
988.663	0.0160658
988.741	0.0160315
988.819	0.0161182
988.897	0.0161084
988.975	0.0162016
989.053	0.0162400
989.132	0.0162154
989.210	0.0160736
989.288	0.0160858
989.366	0.0160859
989.444	0.0161425
989.522	0.0160361
989.600	0.0162708
989.678	0.0162658
989.757	0.0161057
989.835	0.0161282
989.913	0.0162342
989.991	0.0162822
990.069	0.0162112
990.147	0.0161052
990.225	0.0162448
990.303	0.0162930
990.382	0.0161774
990.460	0.0161163
990.538	0.0160899
990.616	0.0162814
990.694	0.0161523
990.772	0.0162529
990.850	0.0161420
990.928	0.0161259
991.007	0.0161110
991.085	0.0160843
991.163	0.0162325
991.241	0.0163134
991.319	0.0162328
991.397	0.0161432
991.475	0.0161604
991.553	0.0161744
991.632	0.0160439
991.710	0.0161683
991.788	0.0162242
991.866	0.0160414
991.944	0.0162326
992.022	0.0162526
992.100	0.0161443
992.178	0.0161474
992.257	0.0161559
992.335	0.0162768
992.413	0.0162431
992.491	0.0161165
992.569	0.0162836
992.647	0.0161327
992.725	0.0162254
992.803	0.0161658
992.882	0.0161823
992.960	0.0162943
993.038	0.0161201
993.116	0.0161102
993.194	0.0161341
993.272	0.0162642
993.350	0.0162075
993.428	0.0161257
993.507	0.0162527
993.585	0.0162060
993.663	0.0161253
993.741	0.0160609
993.819	0.0161317
993.897	0.0163338
993.975	0.0161933
994.053	0.0161539
994.132	0.0161633
994.210	0.0162179
994.288	0.0162727
994.366	0.0160467
994.444	0.0161205
994.522	0.0161354
994.600	0.0160273
994.678	0.0160931
994.757	0.0161731
994.835	0.0161116
994.913	0.0161203
994.991	0.0160249
995.069	0.0160728
995.147	0.0160985
995.225	0.0161942
995.303	0.0161801
995.382	0.0161772
995.460	0.0160788
995.538	0.0161460
995.616	0.0161587
995.694	0.0160291
995.772	0.0161617
995.850	0.0161590
995.928	0.0160738
996.007	0.0160709
996.085	0.0161632
996.163	0.0160381
996.241	0.0160361
996.319	0.0161402
996.397	0.0160146
996.475	0.0160821
996.553	0.0160930
996.632	0.0161425
996.710	0.0160409
996.788	0.0161159
996.866	0.0160755
996.944	0.0160410
997.022	0.0160597
997.100	0.0161420
997.178	0.0162040
997.257	0.0161948
997.335	0.0161963
997.413	0.0161380
997.491	0.0160064
997.569	0.0161921
997.647	0.0161803
997.725	0.0161288
997.803	0.0161712
997.882	0.0161489
997.960	0.0162035
998.038	0.0159726
998.116	0.0162480
998.194	0.0161654
998.272	0.0161517
998.350	0.0161256
998.428	0.0160210
998.507	0.0161736
998.585	0.0162571
998.663	0.0161038
998.741	0.0162305
998.819	0.0161560
998.897	0.0161153
998.975	0.0160699
999.053	0.0161716
999.132	0.0161217
999.210	0.0159957
999.288	0.0160885
999.366	0.0162157
999.444	0.0160989
999.522	0.0160632
999.600	0.0159940
999.678	0.0161321
999.757	0.0160273
999.835	0.0161384
999.913	0.0160975
999.991	0.0162095
1000.07	0.0160320
1000.15	0.0160279
1000.23	0.0161438
1000.30	0.0159511
1000.38	0.0160304
1000.46	0.0161679
1000.54	0.0159290
1000.62	0.0160899
1000.69	0.0159810
1000.77	0.0160348
1000.85	0.0160844
1000.93	0.0162408
1001.01	0.0161194
1001.08	0.0161102
1001.16	0.0161806
1001.24	0.0161026
1001.32	0.0161132
1001.40	0.0162526
1001.48	0.0161780
1001.55	0.0160358
1001.63	0.0162209
1001.71	0.0161585
1001.79	0.0161900
1001.87	0.0161565
1001.94	0.0160573
1002.02	0.0160906
1002.10	0.0161127
1002.18	0.0160779
1002.26	0.0160958
1002.33	0.0161503
1002.41	0.0160271
1002.49	0.0161467
1002.57	0.0160800
1002.65	0.0161526
1002.73	0.0160054
1002.80	0.0161192
1002.88	0.0161755
1002.96	0.0163117
1003.04	0.0160728
1003.12	0.0160726
1003.19	0.0160760
1003.27	0.0161670
1003.35	0.0161245
1003.43	0.0161459
1003.51	0.0161435
1003.58	0.0161942
1003.66	0.0160545
1003.74	0.0162020
1003.82	0.0161775
1003.90	0.0162082
1003.98	0.0162219
1004.05	0.0162566
1004.13	0.0162249
1004.21	0.0160354
1004.29	0.0160435
1004.37	0.0162045
1004.44	0.0160930
1004.52	0.0162012
1004.60	0.0161751
1004.68	0.0161397
1004.76	0.0159664
1004.83	0.0160883
1004.91	0.0161916
1004.99	0.0161061
1005.07	0.0161657
1005.15	0.0160558
1005.23	0.0160795
1005.30	0.0162498
1005.38	0.0160493
1005.46	0.0161585
1005.54	0.0161412
1005.62	0.0161762
1005.69	0.0162088
1005.77	0.0161349
1005.85	0.0160870
1005.93	0.0162983
1006.01	0.0162117
1006.08	0.0162237
1006.16	0.0162193
1006.24	0.0160075
1006.32	0.0161683
1006.40	0.0161446
1006.48	0.0162153
1006.55	0.0160647
1006.63	0.0160799
1006.71	0.0160228
1006.79	0.0161423
1006.87	0.0161053
1006.94	0.0161680
1007.02	0.0161246
1007.10	0.0160555
1007.18	0.0161227
1007.26	0.0160480
1007.33	0.0160607
1007.41	0.0162083
1007.49	0.0161515
1007.57	0.0161290
1007.65	0.0161269
1007.73	0.0161393
1007.80	0.0161825
1007.88	0.0161918
1007.96	0.0159927
1008.04	0.0162495
1008.12	0.0162186
1008.19	0.0163200
1008.27	0.0161684
1008.35	0.0160506
1008.43	0.0161647
1008.51	0.0161340
1008.58	0.0161630
1008.66	0.0161589
1008.74	0.0162528
1008.82	0.0162384
1008.90	0.0161827
1008.98	0.0160242
1009.05	0.0160004
1009.13	0.0160416
1009.21	0.0160642
1009.29	0.0161517
1009.37	0.0160758
1009.44	0.0161931
1009.52	0.0159797
1009.60	0.0162017
1009.68	0.0160992
1009.76	0.0162101
1009.83	0.0161724
1009.91	0.0160965
1009.99	0.0160481
1010.07	0.0162080
1010.15	0.0162546
1010.23	0.0160840
1010.30	0.0161780
1010.38	0.0162199
1010.46	0.0160574
1010.54	0.0162924
1010.62	0.0160639
1010.69	0.0160893
1010.77	0.0160857
1010.85	0.0159859
1010.93	0.0160896
1011.01	0.0161646
1011.08	0.0160896
1011.16	0.0161184
1011.24	0.0160392
1011.32	0.0160999
1011.40	0.0161440
1011.48	0.0161635
1011.55	0.0161390
1011.63	0.0160897
1011.71	0.0160961
1011.79	0.0160641
1011.87	0.0160378
1011.94	0.0162384
1012.02	0.0160905
1012.10	0.0161964
1012.18	0.0161116
1012.26	0.0161002
1012.33	0.0160577
1012.41	0.0162051
1012.49	0.0161137
1012.57	0.0161539
1012.65	0.0161468
1012.73	0.0162185
1012.80	0.0161847
1012.88	0.0161523
1012.96	0.0162013
1013.04	0.0161602
1013.12	0.0160241
1013.19	0.0161829
1013.27	0.0161900
1013.35	0.0160148
1013.43	0.0161260
1013.51	0.0160760
1013.58	0.0160714
1013.66	0.0161409
1013.74	0.0159679
1013.82	0.0161378
1013.90	0.0162271
1013.98	0.0161358
1014.05	0.0162567
1014.13	0.0162273
1014.21	0.0161900
1014.29	0.0161751
1014.37	0.0160165
1014.44	0.0161353
1014.52	0.0162582
1014.60	0.0160526
1014.68	0.0161048
1014.76	0.0161454
1014.83	0.0161649
1014.91	0.0162110
1014.99	0.0161024
1015.07	0.0161122
1015.15	0.0162783
1015.23	0.0162579
1015.30	0.0159875
1015.38	0.0159947
1015.46	0.0161025
1015.54	0.0161166
1015.62	0.0161489
1015.69	0.0160412
1015.77	0.0159508
1015.85	0.0160632
1015.93	0.0160439
1016.01	0.0161472
1016.08	0.0162078
1016.16	0.0161653
1016.24	0.0160119
1016.32	0.0162382
1016.40	0.0161729
1016.48	0.0162051
1016.55	0.0162151
1016.63	0.0161237
1016.71	0.0160307
1016.79	0.0161243
1016.87	0.0161722
1016.94	0.0162264
1017.02	0.0161761
1017.10	0.0160345
1017.18	0.0159937
1017.26	0.0161884
1017.33	0.0160811
1017.41	0.0160058
1017.49	0.0161645
1017.57	0.0162945
1017.65	0.0161838
1017.73	0.0161094
1017.80	0.0162630
1017.88	0.0161279
1017.96	0.0158924
1018.04	0.0162651
1018.12	0.0161747
1018.19	0.0160886
1018.27	0.0161129
1018.35	0.0162150
1018.43	0.0160632
1018.51	0.0162704
1018.58	0.0161009
1018.66	0.0161008
1018.74	0.0162189
1018.82	0.0161811
1018.90	0.0160088
1018.98	0.0160686
1019.05	0.0159100
1019.13	0.0161031
1019.21	0.0162720
1019.29	0.0160715
1019.37	0.0160160
1019.44	0.0161728
1019.52	0.0162080
1019.60	0.0160815
1019.68	0.0160723
1019.76	0.0162546
1019.83	0.0160204
1019.91	0.0160567
