06/10/2022	18:26:29	Ver.	4.1	UNKNOWN
Optical Delay	600.015094	Delta X		0.078125	Sweeps	1	Scan Rate	0/0
Coordinates	Axis 1	NaN	Axis 2	NaN	Axis 3	NaN	Axis 4	NaN	Axis 5	NaN	Axis 6	0.000000
TX Power	0.000000	RX Power	0.000000

600.015	0.0154476
600.093	0.0153979
600.171	0.0155075
600.249	0.0153526
600.328	0.0155565
600.406	0.0154050
600.484	0.0155113
600.562	0.0154715
600.640	0.0153637
600.718	0.0154987
600.796	0.0154417
600.874	0.0154102
600.953	0.0155785
601.031	0.0153736
601.109	0.0154476
601.187	0.0153498
601.265	0.0153082
601.343	0.0154980
601.421	0.0155209
601.499	0.0153963
601.578	0.0154945
601.656	0.0154551
601.734	0.0153485
601.812	0.0153976
601.890	0.0154105
601.968	0.0154338
602.046	0.0155109
602.124	0.0153757
602.203	0.0155262
602.281	0.0154253
602.359	0.0154937
602.437	0.0154742
602.515	0.0155358
602.593	0.0155096
602.671	0.0155457
602.749	0.0155262
602.828	0.0154509
602.906	0.0154341
602.984	0.0156218
603.062	0.0155074
603.140	0.0154622
603.218	0.0153452
603.296	0.0155312
603.374	0.0155140
603.453	0.0155450
603.531	0.0154909
603.609	0.0154311
603.687	0.0156029
603.765	0.0154623
603.843	0.0154973
603.921	0.0154885
603.999	0.0155146
604.078	0.0154652
604.156	0.0154727
604.234	0.0155367
604.312	0.0154032
604.390	0.0154459
604.468	0.0154981
604.546	0.0153448
604.624	0.0154926
604.703	0.0154895
604.781	0.0154906
604.859	0.0154568
604.937	0.0153665
605.015	0.0154060
605.093	0.0154771
605.171	0.0154778
605.249	0.0153857
605.328	0.0154166
605.406	0.0154662
605.484	0.0155116
605.562	0.0156225
605.640	0.0154416
605.718	0.0153925
605.796	0.0155643
605.874	0.0155505
605.953	0.0154026
606.031	0.0154698
606.109	0.0154028
606.187	0.0154012
606.265	0.0154102
606.343	0.0155799
606.421	0.0154093
606.499	0.0153217
606.578	0.0155419
606.656	0.0154330
606.734	0.0154672
606.812	0.0154261
606.890	0.0155191
606.968	0.0154242
607.046	0.0153896
607.124	0.0155280
607.203	0.0156098
607.281	0.0156001
607.359	0.0154427
607.437	0.0153662
607.515	0.0153834
607.593	0.0154456
607.671	0.0156733
607.749	0.0155048
607.828	0.0155667
607.906	0.0155082
607.984	0.0153999
608.062	0.0155934
608.140	0.0155388
608.218	0.0155561
608.296	0.0154449
608.374	0.0154382
608.453	0.0154077
608.531	0.0155343
608.609	0.0154271
608.687	0.0154572
608.765	0.0154541
608.843	0.0154913
608.921	0.0155523
608.999	0.0156116
609.078	0.0154148
609.156	0.0155267
609.234	0.0154958
609.312	0.0154635
609.390	0.0154221
609.468	0.0155638
609.546	0.0155249
609.624	0.0154639
609.703	0.0154875
609.781	0.0154782
609.859	0.0153830
609.937	0.0156169
610.015	0.0155658
610.093	0.0154871
610.171	0.0155979
610.249	0.0155742
610.328	0.0155101
610.406	0.0155867
610.484	0.0154984
610.562	0.0154877
610.640	0.0154500
610.718	0.0154591
610.796	0.0156045
610.874	0.0154543
610.953	0.0154251
611.031	0.0153653
611.109	0.0156382
611.187	0.0155247
611.265	0.0154932
611.343	0.0154301
611.421	0.0154561
611.499	0.0154855
611.578	0.0154618
611.656	0.0155177
611.734	0.0153554
611.812	0.0154752
611.890	0.0154640
611.968	0.0154771
612.046	0.0156149
612.124	0.0154610
612.203	0.0153721
612.281	0.0153696
612.359	0.0154932
612.437	0.0155546
612.515	0.0154359
612.593	0.0154834
612.671	0.0155559
612.749	0.0155832
612.828	0.0154874
612.906	0.0154523
612.984	0.0155943
613.062	0.0154959
613.140	0.0155480
613.218	0.0154630
613.296	0.0154904
613.374	0.0155540
613.453	0.0155218
613.531	0.0154707
613.609	0.0154839
613.687	0.0154066
613.765	0.0155249
613.843	0.0155315
613.921	0.0154275
613.999	0.0154524
614.078	0.0153450
614.156	0.0155086
614.234	0.0154119
614.312	0.0155566
614.390	0.0154112
614.468	0.0154964
614.546	0.0154729
614.624	0.0154113
614.703	0.0155222
614.781	0.0154250
614.859	0.0154186
614.937	0.0155571
615.015	0.0155149
615.093	0.0155038
615.171	0.0155341
615.249	0.0154555
615.328	0.0154269
615.406	0.0154716
615.484	0.0155911
615.562	0.0155252
615.640	0.0155541
615.718	0.0153610
615.796	0.0155135
615.874	0.0156216
615.953	0.0154584
616.031	0.0154563
616.109	0.0154126
616.187	0.0156098
616.265	0.0155594
616.343	0.0154860
616.421	0.0154988
616.499	0.0155225
616.578	0.0154492
616.656	0.0153748
616.734	0.0154651
616.812	0.0155267
616.890	0.0156027
616.968	0.0153027
617.046	0.0155217
617.124	0.0153810
617.203	0.0154401
617.281	0.0154848
617.359	0.0154124
617.437	0.0155223
617.515	0.0155219
617.593	0.0155418
617.671	0.0156755
617.749	0.0154752
617.828	0.0153802
617.906	0.0154406
617.984	0.0155017
618.062	0.0155421
618.140	0.0154916
618.218	0.0152546
618.296	0.0155475
618.374	0.0154916
618.453	0.0153517
618.531	0.0155090
618.609	0.0155046
618.687	0.0155028
618.765	0.0154792
618.843	0.0154576
618.921	0.0155952
618.999	0.0155718
619.078	0.0155639
619.156	0.0154806
619.234	0.0155145
619.312	0.0155888
619.390	0.0155393
619.468	0.0154203
619.546	0.0154762
619.624	0.0156303
619.703	0.0154194
619.781	0.0153490
619.859	0.0154103
619.937	0.0154485
620.015	0.0155166
620.093	0.0155535
620.171	0.0154578
620.249	0.0154375
620.328	0.0155618
620.406	0.0155904
620.484	0.0154530
620.562	0.0154734
620.640	0.0155906
620.718	0.0155375
620.796	0.0154187
620.874	0.0155906
620.953	0.0153732
621.031	0.0155644
621.109	0.0154110
621.187	0.0154196
621.265	0.0154768
621.343	0.0155733
621.421	0.0154480
621.499	0.0154762
621.578	0.0154031
621.656	0.0155103
621.734	0.0155176
621.812	0.0154685
621.890	0.0154533
621.968	0.0153642
622.046	0.0155415
622.124	0.0154912
622.203	0.0153926
622.281	0.0154922
622.359	0.0154785
622.437	0.0155054
622.515	0.0155082
622.593	0.0153634
622.671	0.0156348
622.749	0.0155411
622.828	0.0154043
622.906	0.0153989
622.984	0.0154753
623.062	0.0154298
623.140	0.0156316
623.218	0.0155222
623.296	0.0154330
623.374	0.0154289
623.453	0.0153998
623.531	0.0154179
623.609	0.0155148
623.687	0.0154861
623.765	0.0154521
623.843	0.0153508
623.921	0.0154360
623.999	0.0155350
624.078	0.0155167
624.156	0.0155317
624.234	0.0154193
624.312	0.0155200
624.390	0.0155032
624.468	0.0154152
624.546	0.0153242
624.624	0.0154908
624.703	0.0154371
624.781	0.0153847
624.859	0.0154890
624.937	0.0155624
625.015	0.0154748
625.093	0.0154583
625.171	0.0155815
625.249	0.0155589
625.328	0.0153296
625.406	0.0154924
625.484	0.0154900
625.562	0.0154918
625.640	0.0154460
625.718	0.0154507
625.796	0.0154575
625.874	0.0155196
625.953	0.0154507
626.031	0.0154643
626.109	0.0154270
626.187	0.0155733
626.265	0.0155093
626.343	0.0154282
626.421	0.0153768
626.499	0.0155231
626.578	0.0154358
626.656	0.0153709
626.734	0.0154710
626.812	0.0154609
626.890	0.0154988
626.968	0.0155041
627.046	0.0155347
627.124	0.0154358
627.203	0.0155636
627.281	0.0154631
627.359	0.0154558
627.437	0.0154288
627.515	0.0154651
627.593	0.0155305
627.671	0.0152773
627.749	0.0155542
627.828	0.0154904
627.906	0.0154858
627.984	0.0155225
628.062	0.0154279
628.140	0.0154771
628.218	0.0154637
628.296	0.0153448
628.374	0.0153925
628.453	0.0154437
628.531	0.0153609
628.609	0.0154558
628.687	0.0154862
628.765	0.0154419
628.843	0.0155306
628.921	0.0154391
628.999	0.0154411
629.078	0.0154126
629.156	0.0154905
629.234	0.0155321
629.312	0.0153443
629.390	0.0154040
629.468	0.0155007
629.546	0.0154070
629.624	0.0153552
629.703	0.0155624
629.781	0.0154974
629.859	0.0154765
629.937	0.0154041
630.015	0.0154202
630.093	0.0153953
630.171	0.0155772
630.249	0.0154874
630.328	0.0154046
630.406	0.0153115
630.484	0.0154703
630.562	0.0154675
630.640	0.0155096
630.718	0.0155566
630.796	0.0154095
630.874	0.0153848
630.953	0.0156020
631.031	0.0154226
631.109	0.0153513
631.187	0.0153905
631.265	0.0155177
631.343	0.0154218
631.421	0.0154066
631.499	0.0154059
631.578	0.0154316
631.656	0.0153922
631.734	0.0154538
631.812	0.0154741
631.890	0.0153962
631.968	0.0155164
632.046	0.0155042
632.124	0.0153646
632.203	0.0154095
632.281	0.0154352
632.359	0.0153730
632.437	0.0154036
632.515	0.0154694
632.593	0.0154296
632.671	0.0155043
632.749	0.0155016
632.828	0.0154211
632.906	0.0154829
632.984	0.0155134
633.062	0.0153477
633.140	0.0155138
633.218	0.0154742
633.296	0.0155007
633.374	0.0154935
633.453	0.0153902
633.531	0.0153418
633.609	0.0153779
633.687	0.0154656
633.765	0.0154653
633.843	0.0153638
633.921	0.0155270
633.999	0.0154183
634.078	0.0154305
634.156	0.0154014
634.234	0.0155272
634.312	0.0155299
634.390	0.0154901
634.468	0.0154517
634.546	0.0154543
634.624	0.0153823
634.703	0.0154424
634.781	0.0155685
634.859	0.0155096
634.937	0.0154323
635.015	0.0154652
635.093	0.0155292
635.171	0.0155077
635.249	0.0155068
635.328	0.0156023
635.406	0.0154080
635.484	0.0153619
635.562	0.0154574
635.640	0.0154727
635.718	0.0156174
635.796	0.0153980
635.874	0.0155296
635.953	0.0154227
636.031	0.0155249
636.109	0.0155652
636.187	0.0155044
636.265	0.0154521
636.343	0.0156561
636.421	0.0155949
636.499	0.0154639
636.578	0.0154153
636.656	0.0155405
636.734	0.0154350
636.812	0.0154867
636.890	0.0154464
636.968	0.0154102
637.046	0.0153120
637.124	0.0154940
637.203	0.0154209
637.281	0.0154736
637.359	0.0154596
637.437	0.0154609
637.515	0.0154412
637.593	0.0155678
637.671	0.0155865
637.749	0.0154276
637.828	0.0153921
637.906	0.0153983
637.984	0.0154374
638.062	0.0155135
638.140	0.0154258
638.218	0.0155646
638.296	0.0154984
638.374	0.0154236
638.453	0.0152795
638.531	0.0154128
638.609	0.0154337
638.687	0.0154211
638.765	0.0154811
638.843	0.0154933
638.921	0.0154035
638.999	0.0153112
639.078	0.0154067
639.156	0.0155398
639.234	0.0155666
639.312	0.0154885
639.390	0.0156245
639.468	0.0155140
639.546	0.0154427
639.624	0.0154034
639.703	0.0155006
639.781	0.0156172
639.859	0.0155416
639.937	0.0154347
640.015	0.0155586
640.093	0.0154279
640.171	0.0154279
640.249	0.0155233
640.328	0.0155688
640.406	0.0154909
640.484	0.0154150
640.562	0.0154304
640.640	0.0154697
640.718	0.0155904
640.796	0.0155103
640.874	0.0154668
640.953	0.0154871
641.031	0.0155647
641.109	0.0154485
641.187	0.0154524
641.265	0.0153827
641.343	0.0154993
641.421	0.0155704
641.499	0.0154074
641.578	0.0154346
641.656	0.0153904
641.734	0.0155595
641.812	0.0154681
641.890	0.0154757
641.968	0.0153699
642.046	0.0155336
642.124	0.0154419
642.203	0.0154279
642.281	0.0154364
642.359	0.0154617
642.437	0.0154829
642.515	0.0155989
642.593	0.0154575
642.671	0.0154022
642.749	0.0154798
642.828	0.0154814
642.906	0.0154749
642.984	0.0153651
643.062	0.0154773
643.140	0.0155612
643.218	0.0154958
643.296	0.0154517
643.374	0.0154836
643.453	0.0155026
643.531	0.0154404
643.609	0.0154499
643.687	0.0154620
643.765	0.0155561
643.843	0.0154823
643.921	0.0154885
643.999	0.0154837
644.078	0.0154187
644.156	0.0155226
644.234	0.0154616
644.312	0.0154268
644.390	0.0153984
644.468	0.0153883
644.546	0.0152910
644.624	0.0154710
644.703	0.0153433
644.781	0.0155410
644.859	0.0154477
644.937	0.0154982
645.015	0.0155054
645.093	0.0153976
645.171	0.0154807
645.249	0.0153984
645.328	0.0155458
645.406	0.0155013
645.484	0.0154737
645.562	0.0154844
645.640	0.0155199
645.718	0.0153576
645.796	0.0156087
645.874	0.0154860
645.953	0.0154609
646.031	0.0155469
646.109	0.0153719
646.187	0.0154721
646.265	0.0154467
646.343	0.0155138
646.421	0.0155440
646.499	0.0154292
646.578	0.0154356
646.656	0.0155543
646.734	0.0154054
646.812	0.0154709
646.890	0.0154411
646.968	0.0155461
647.046	0.0154387
647.124	0.0154660
647.203	0.0154366
647.281	0.0153969
647.359	0.0155150
647.437	0.0154568
647.515	0.0154856
647.593	0.0154412
647.671	0.0154187
647.749	0.0155260
647.828	0.0155071
647.906	0.0154424
647.984	0.0154063
648.062	0.0155113
648.140	0.0154635
648.218	0.0155180
648.296	0.0155599
648.374	0.0154853
648.453	0.0154637
648.531	0.0154026
648.609	0.0155361
648.687	0.0156591
648.765	0.0154433
648.843	0.0153948
648.921	0.0153217
648.999	0.0154993
649.078	0.0155422
649.156	0.0154589
649.234	0.0154133
649.312	0.0154353
649.390	0.0154922
649.468	0.0154911
649.546	0.0153255
649.624	0.0154079
649.703	0.0154416
649.781	0.0155563
649.859	0.0153545
649.937	0.0154581
650.015	0.0155394
650.093	0.0153785
650.171	0.0153867
650.249	0.0154755
650.328	0.0154445
650.406	0.0154419
650.484	0.0152897
650.562	0.0154821
650.640	0.0154108
650.718	0.0153733
650.796	0.0154533
650.874	0.0154700
650.953	0.0154819
651.031	0.0154021
651.109	0.0154474
651.187	0.0154182
651.265	0.0154442
651.343	0.0154278
651.421	0.0156338
651.499	0.0154113
651.578	0.0153471
651.656	0.0155293
651.734	0.0154263
651.812	0.0153275
651.890	0.0153419
651.968	0.0155004
652.046	0.0153596
652.124	0.0154503
652.203	0.0154803
652.281	0.0155158
652.359	0.0154332
652.437	0.0154905
652.515	0.0155354
652.593	0.0154797
652.671	0.0153254
652.749	0.0154395
652.828	0.0155231
652.906	0.0155719
652.984	0.0154260
653.062	0.0154651
653.140	0.0154218
653.218	0.0154255
653.296	0.0154308
653.374	0.0155049
653.453	0.0155018
653.531	0.0154331
653.609	0.0155351
653.687	0.0153624
653.765	0.0154275
653.843	0.0153915
653.921	0.0154452
653.999	0.0154617
654.078	0.0154744
654.156	0.0153808
654.234	0.0154237
654.312	0.0154262
654.390	0.0154203
654.468	0.0154744
654.546	0.0154126
654.624	0.0154402
654.703	0.0153711
654.781	0.0154918
654.859	0.0155277
654.937	0.0154044
655.015	0.0154312
655.093	0.0154310
655.171	0.0154266
655.249	0.0153795
655.328	0.0154603
655.406	0.0154315
655.484	0.0153697
655.562	0.0156017
655.640	0.0154839
655.718	0.0154797
655.796	0.0154988
655.874	0.0153110
655.953	0.0155134
656.031	0.0154198
656.109	0.0154095
656.187	0.0154939
656.265	0.0155187
656.343	0.0153699
656.421	0.0153768
656.499	0.0154025
656.578	0.0153900
656.656	0.0153932
656.734	0.0154575
656.812	0.0154121
656.890	0.0153979
656.968	0.0153394
657.046	0.0154465
657.124	0.0154025
657.203	0.0154636
657.281	0.0154794
657.359	0.0154097
657.437	0.0154179
657.515	0.0153730
657.593	0.0153118
657.671	0.0154551
657.749	0.0154348
657.828	0.0154613
657.906	0.0155420
657.984	0.0154552
658.062	0.0153745
658.140	0.0154050
658.218	0.0154007
658.296	0.0154227
658.374	0.0155503
658.453	0.0156084
658.531	0.0156432
658.609	0.0153693
658.687	0.0153045
658.765	0.0152988
658.843	0.0153113
658.921	0.0155930
658.999	0.0155036
659.078	0.0155653
659.156	0.0154399
659.234	0.0154985
659.312	0.0155325
659.390	0.0154997
659.468	0.0154539
659.546	0.0154094
659.624	0.0155046
659.703	0.0154782
659.781	0.0154401
659.859	0.0154424
659.937	0.0152777
660.015	0.0154348
660.093	0.0154896
660.171	0.0154596
660.249	0.0155251
660.328	0.0153243
660.406	0.0154678
660.484	0.0155319
660.562	0.0154504
660.640	0.0154532
660.718	0.0153210
660.796	0.0155559
660.874	0.0153891
660.953	0.0154594
661.031	0.0155017
661.109	0.0154292
661.187	0.0153781
661.265	0.0154113
661.343	0.0155082
661.421	0.0153205
661.499	0.0154482
661.578	0.0154762
661.656	0.0155332
661.734	0.0153224
661.812	0.0154617
661.890	0.0154494
661.968	0.0155188
662.046	0.0154221
662.124	0.0154425
662.203	0.0152395
662.281	0.0153341
662.359	0.0153637
662.437	0.0155170
662.515	0.0153540
662.593	0.0154724
662.671	0.0153889
662.749	0.0154662
662.828	0.0154149
662.906	0.0153510
662.984	0.0154320
663.062	0.0155007
663.140	0.0153709
663.218	0.0155135
663.296	0.0153403
663.374	0.0153437
663.453	0.0155649
663.531	0.0154839
663.609	0.0154232
663.687	0.0154230
663.765	0.0153594
663.843	0.0154372
663.921	0.0154879
663.999	0.0156227
664.078	0.0153373
664.156	0.0153118
664.234	0.0154486
664.312	0.0155077
664.390	0.0154852
664.468	0.0155376
664.546	0.0154777
664.624	0.0154601
664.703	0.0152658
664.781	0.0153128
664.859	0.0154568
664.937	0.0155016
665.015	0.0155229
665.093	0.0154124
665.171	0.0154659
665.249	0.0154903
665.328	0.0154195
665.406	0.0154166
665.484	0.0155100
665.562	0.0155138
665.640	0.0154926
665.718	0.0154867
665.796	0.0154285
665.874	0.0155231
665.953	0.0155145
666.031	0.0153882
666.109	0.0156042
666.187	0.0155064
666.265	0.0155164
666.343	0.0154275
666.421	0.0154523
666.499	0.0154562
666.578	0.0155637
666.656	0.0154962
666.734	0.0154153
666.812	0.0154662
666.890	0.0154476
666.968	0.0153915
667.046	0.0153193
667.124	0.0154491
667.203	0.0153645
667.281	0.0154412
667.359	0.0154211
667.437	0.0154800
667.515	0.0153980
667.593	0.0152959
667.671	0.0154030
667.749	0.0153841
667.828	0.0153853
667.906	0.0154432
667.984	0.0155644
668.062	0.0154717
668.140	0.0153650
668.218	0.0154211
668.296	0.0155795
668.374	0.0153585
668.453	0.0154667
668.531	0.0155031
668.609	0.0154758
668.687	0.0154216
668.765	0.0154585
668.843	0.0152704
668.921	0.0154708
668.999	0.0156927
669.078	0.0153732
669.156	0.0153879
669.234	0.0154850
669.312	0.0154143
669.390	0.0154834
669.468	0.0154785
669.546	0.0154578
669.624	0.0154470
669.703	0.0155573
669.781	0.0153529
669.859	0.0154823
669.937	0.0154574
670.015	0.0155014
670.093	0.0153986
670.171	0.0154771
670.249	0.0155219
670.328	0.0155792
670.406	0.0156178
670.484	0.0154744
670.562	0.0154222
670.640	0.0154177
670.718	0.0154058
670.796	0.0155521
670.874	0.0154708
670.953	0.0153748
671.031	0.0154578
671.109	0.0154098
671.187	0.0154160
671.265	0.0155116
671.343	0.0155190
671.421	0.0154761
671.499	0.0154103
671.578	0.0154418
671.656	0.0154985
671.734	0.0155155
671.812	0.0155616
671.890	0.0155962
671.968	0.0154917
672.046	0.0155149
672.124	0.0155592
672.203	0.0154581
672.281	0.0154619
672.359	0.0155862
672.437	0.0154843
672.515	0.0153863
672.593	0.0153941
672.671	0.0153719
672.749	0.0155083
672.828	0.0154767
672.906	0.0155612
672.984	0.0154935
673.062	0.0156443
673.140	0.0154129
673.218	0.0152782
673.296	0.0153886
673.374	0.0154206
673.453	0.0154816
673.531	0.0154960
673.609	0.0154595
673.687	0.0154028
673.765	0.0155058
673.843	0.0155729
673.921	0.0155302
673.999	0.0154864
674.078	0.0155190
674.156	0.0154279
674.234	0.0153922
674.312	0.0154089
674.390	0.0154585
674.468	0.0155786
674.546	0.0154393
674.624	0.0153487
674.703	0.0154088
674.781	0.0154518
674.859	0.0153803
674.937	0.0154720
675.015	0.0154833
675.093	0.0154901
675.171	0.0155074
675.249	0.0153579
675.328	0.0155348
675.406	0.0154100
675.484	0.0154948
675.562	0.0154024
675.640	0.0153911
675.718	0.0155281
675.796	0.0154047
675.874	0.0153510
675.953	0.0155003
676.031	0.0155080
676.109	0.0155956
676.187	0.0155908
676.265	0.0153007
676.343	0.0154745
676.421	0.0154211
676.499	0.0153468
676.578	0.0154298
676.656	0.0154518
676.734	0.0155219
676.812	0.0154520
676.890	0.0156113
676.968	0.0154100
677.046	0.0153844
677.124	0.0154880
677.203	0.0153984
677.281	0.0154385
677.359	0.0153731
677.437	0.0153325
677.515	0.0155164
677.593	0.0154718
677.671	0.0154650
677.749	0.0154601
677.828	0.0155617
677.906	0.0155012
677.984	0.0154177
678.062	0.0155560
678.140	0.0154933
678.218	0.0154887
678.296	0.0153447
678.374	0.0154858
678.453	0.0154922
678.531	0.0154068
678.609	0.0153687
678.687	0.0155467
678.765	0.0154909
678.843	0.0155100
678.921	0.0155171
678.999	0.0154528
679.078	0.0154030
679.156	0.0154371
679.234	0.0155141
679.312	0.0154597
679.390	0.0153934
679.468	0.0154231
679.546	0.0154446
679.624	0.0155344
679.703	0.0154402
679.781	0.0154638
679.859	0.0154185
679.937	0.0154158
680.015	0.0154051
680.093	0.0154481
680.171	0.0155122
680.249	0.0154456
680.328	0.0155475
680.406	0.0154906
680.484	0.0154614
680.562	0.0155922
680.640	0.0154829
680.718	0.0154958
680.796	0.0155347
680.874	0.0154186
680.953	0.0155061
681.031	0.0154407
681.109	0.0154516
681.187	0.0154849
681.265	0.0153903
681.343	0.0152513
681.421	0.0154202
681.499	0.0155018
681.578	0.0156053
681.656	0.0154084
681.734	0.0154607
681.812	0.0154367
681.890	0.0155529
681.968	0.0154626
682.046	0.0154659
682.124	0.0154166
682.203	0.0154341
682.281	0.0155415
682.359	0.0154929
682.437	0.0155882
682.515	0.0154175
682.593	0.0154196
682.671	0.0153908
682.749	0.0156024
682.828	0.0155065
682.906	0.0153992
682.984	0.0155783
683.062	0.0154959
683.140	0.0155849
683.218	0.0154475
683.296	0.0153984
683.374	0.0155106
683.453	0.0154609
683.531	0.0154451
683.609	0.0156326
683.687	0.0154003
683.765	0.0155270
683.843	0.0155502
683.921	0.0154602
683.999	0.0154147
684.078	0.0156033
684.156	0.0154081
684.234	0.0154639
684.312	0.0155354
684.390	0.0155756
684.468	0.0154044
684.546	0.0153712
684.624	0.0154813
684.703	0.0153999
684.781	0.0154295
684.859	0.0155357
684.937	0.0153783
685.015	0.0154444
685.093	0.0155458
685.171	0.0156159
685.249	0.0154609
685.328	0.0154277
685.406	0.0155456
685.484	0.0154507
685.562	0.0154852
685.640	0.0155605
685.718	0.0155485
685.796	0.0154404
685.874	0.0154913
685.953	0.0154022
686.031	0.0154639
686.109	0.0155531
686.187	0.0154163
686.265	0.0154580
686.343	0.0155378
686.421	0.0155568
686.499	0.0154350
686.578	0.0154771
686.656	0.0154350
686.734	0.0154851
686.812	0.0154251
686.890	0.0155584
686.968	0.0154638
687.046	0.0155751
687.124	0.0154470
687.203	0.0154263
687.281	0.0154900
687.359	0.0154942
687.437	0.0155512
687.515	0.0154977
687.593	0.0155406
687.671	0.0155580
687.749	0.0154980
687.828	0.0155031
687.906	0.0155048
687.984	0.0155656
688.062	0.0154709
688.140	0.0154681
688.218	0.0154854
688.296	0.0154553
688.374	0.0154619
688.453	0.0155038
688.531	0.0154772
688.609	0.0155773
688.687	0.0153976
688.765	0.0154735
688.843	0.0154446
688.921	0.0155157
688.999	0.0155802
689.078	0.0154971
689.156	0.0154491
689.234	0.0154829
689.312	0.0155313
689.390	0.0155811
689.468	0.0155362
689.546	0.0152995
689.624	0.0154305
689.703	0.0154285
689.781	0.0153817
689.859	0.0154120
689.937	0.0154399
690.015	0.0154674
690.093	0.0155237
690.171	0.0154450
690.249	0.0155350
690.328	0.0154559
690.406	0.0153633
690.484	0.0154553
690.562	0.0155928
690.640	0.0154694
690.718	0.0154303
690.796	0.0155510
690.874	0.0155009
690.953	0.0153992
691.031	0.0155617
691.109	0.0154053
691.187	0.0154682
691.265	0.0155028
691.343	0.0155007
691.421	0.0156145
691.499	0.0155879
691.578	0.0153733
691.656	0.0154735
691.734	0.0154144
691.812	0.0154419
691.890	0.0155658
691.968	0.0156551
692.046	0.0153323
692.124	0.0155003
692.203	0.0155509
692.281	0.0155014
692.359	0.0153998
692.437	0.0155480
692.515	0.0153572
692.593	0.0155939
692.671	0.0154828
692.749	0.0153606
692.828	0.0154783
692.906	0.0154032
692.984	0.0154095
693.062	0.0155475
693.140	0.0154783
693.218	0.0155244
693.296	0.0153682
693.374	0.0153865
693.453	0.0155292
693.531	0.0154951
693.609	0.0153965
693.687	0.0154080
693.765	0.0154730
693.843	0.0154359
693.921	0.0155207
693.999	0.0155599
694.078	0.0154560
694.156	0.0155352
694.234	0.0154323
694.312	0.0153496
694.390	0.0155243
694.468	0.0155254
694.546	0.0154916
694.624	0.0155454
694.703	0.0156071
694.781	0.0154560
694.859	0.0155186
694.937	0.0154408
695.015	0.0154103
695.093	0.0154251
695.171	0.0154327
695.249	0.0155149
695.328	0.0155360
695.406	0.0156048
695.484	0.0155101
695.562	0.0154507
695.640	0.0154132
695.718	0.0153771
695.796	0.0154237
695.874	0.0155596
695.953	0.0155927
696.031	0.0153677
696.109	0.0155037
696.187	0.0154546
696.265	0.0153331
696.343	0.0154702
696.421	0.0156674
696.499	0.0155791
696.578	0.0155202
696.656	0.0155761
696.734	0.0153201
696.812	0.0154876
696.890	0.0153902
696.968	0.0154014
697.046	0.0155958
697.124	0.0153971
697.203	0.0154575
697.281	0.0155611
697.359	0.0154777
697.437	0.0154398
697.515	0.0154680
697.593	0.0156100
697.671	0.0155585
697.749	0.0156324
697.828	0.0153295
697.906	0.0155193
697.984	0.0154371
698.062	0.0155061
698.140	0.0154113
698.218	0.0154190
698.296	0.0154592
698.374	0.0155642
698.453	0.0155078
698.531	0.0154456
698.609	0.0154511
698.687	0.0154415
698.765	0.0153853
698.843	0.0154123
698.921	0.0155081
698.999	0.0155061
699.078	0.0156082
699.156	0.0154156
699.234	0.0154441
699.312	0.0154382
699.390	0.0154574
699.468	0.0153459
699.546	0.0153939
699.624	0.0154134
699.703	0.0155574
699.781	0.0155566
699.859	0.0154025
699.937	0.0153792
700.015	0.0154327
700.093	0.0154449
700.171	0.0155174
700.249	0.0154816
700.328	0.0153364
700.406	0.0154847
700.484	0.0154346
700.562	0.0155112
700.640	0.0154980
700.718	0.0154613
700.796	0.0154237
700.874	0.0155231
700.953	0.0155794
701.031	0.0154069
701.109	0.0153910
701.187	0.0154756
701.265	0.0155777
701.343	0.0153965
701.421	0.0154201
701.499	0.0154931
701.578	0.0154385
701.656	0.0155671
701.734	0.0155302
701.812	0.0155156
701.890	0.0153008
701.968	0.0153588
702.046	0.0155134
702.124	0.0154943
702.203	0.0154367
702.281	0.0154586
702.359	0.0153883
702.437	0.0154699
702.515	0.0154260
702.593	0.0153280
702.671	0.0154449
702.749	0.0153448
702.828	0.0154646
702.906	0.0154687
702.984	0.0154407
703.062	0.0155441
703.140	0.0153336
703.218	0.0154600
703.296	0.0154734
703.374	0.0154719
703.453	0.0153901
703.531	0.0152602
703.609	0.0154137
703.687	0.0155016
703.765	0.0155082
703.843	0.0153919
703.921	0.0154279
703.999	0.0154257
704.078	0.0153482
704.156	0.0153423
704.234	0.0153986
704.312	0.0154085
704.390	0.0154729
704.468	0.0154492
704.546	0.0154373
704.624	0.0154664
704.703	0.0155038
704.781	0.0155131
704.859	0.0153746
704.937	0.0154794
705.015	0.0155726
705.093	0.0153701
705.171	0.0154900
705.249	0.0156036
705.328	0.0154631
705.406	0.0155148
705.484	0.0154087
705.562	0.0154250
705.640	0.0154511
705.718	0.0154417
705.796	0.0155521
705.874	0.0153926
705.953	0.0155457
706.031	0.0154574
706.109	0.0154770
706.187	0.0154940
706.265	0.0154408
706.343	0.0155235
706.421	0.0154452
706.499	0.0154557
706.578	0.0156144
706.656	0.0155985
706.734	0.0154219
706.812	0.0153517
706.890	0.0155456
706.968	0.0155560
707.046	0.0154484
707.124	0.0155553
707.203	0.0154585
707.281	0.0154076
707.359	0.0154332
707.437	0.0154229
707.515	0.0155621
707.593	0.0154471
707.671	0.0155492
707.749	0.0154827
707.828	0.0153974
707.906	0.0154791
707.984	0.0153841
708.062	0.0154429
708.140	0.0153675
708.218	0.0155202
708.296	0.0156226
708.374	0.0154720
708.453	0.0154023
708.531	0.0154532
708.609	0.0154915
708.687	0.0154987
708.765	0.0154678
708.843	0.0154571
708.921	0.0154579
708.999	0.0154625
709.078	0.0155170
709.156	0.0154124
709.234	0.0154789
709.312	0.0155161
709.390	0.0154802
709.468	0.0153331
709.546	0.0154252
709.624	0.0154503
709.703	0.0155084
709.781	0.0154439
709.859	0.0155442
709.937	0.0154674
710.015	0.0155323
710.093	0.0156133
710.171	0.0154531
710.249	0.0155038
710.328	0.0154535
710.406	0.0153654
710.484	0.0154759
710.562	0.0154327
710.640	0.0153638
710.718	0.0154426
710.796	0.0154801
710.874	0.0154111
710.953	0.0155530
711.031	0.0154797
711.109	0.0154943
711.187	0.0155414
711.265	0.0154440
711.343	0.0153674
711.421	0.0155563
711.499	0.0155414
711.578	0.0155154
711.656	0.0153833
711.734	0.0154007
711.812	0.0156161
711.890	0.0154005
711.968	0.0155191
712.046	0.0155013
712.124	0.0155521
712.203	0.0154856
712.281	0.0154859
712.359	0.0156778
712.437	0.0155531
712.515	0.0154021
712.593	0.0152892
712.671	0.0154246
712.749	0.0153495
712.828	0.0156902
712.906	0.0155762
712.984	0.0154095
713.062	0.0154107
713.140	0.0154977
713.218	0.0155281
713.296	0.0154160
713.374	0.0153406
713.453	0.0154357
713.531	0.0154903
713.609	0.0153535
713.687	0.0155724
713.765	0.0155113
713.843	0.0154190
713.921	0.0156092
713.999	0.0154230
714.078	0.0155181
714.156	0.0155206
714.234	0.0155672
714.312	0.0153375
714.390	0.0154855
714.468	0.0155554
714.546	0.0154411
714.624	0.0154131
714.703	0.0153973
714.781	0.0153496
714.859	0.0154888
714.937	0.0155045
715.015	0.0155830
715.093	0.0154744
715.171	0.0154409
715.249	0.0155940
715.328	0.0156317
715.406	0.0152813
715.484	0.0154351
715.562	0.0154477
715.640	0.0155260
715.718	0.0155663
715.796	0.0154417
715.874	0.0153828
715.953	0.0155978
716.031	0.0155462
716.109	0.0153844
716.187	0.0153874
716.265	0.0153599
716.343	0.0153629
716.421	0.0153538
716.499	0.0153349
716.578	0.0155528
716.656	0.0155990
716.734	0.0153876
716.812	0.0154729
716.890	0.0153689
716.968	0.0152962
717.046	0.0155698
717.124	0.0154449
717.203	0.0154124
717.281	0.0154318
717.359	0.0152802
717.437	0.0154354
717.515	0.0153977
717.593	0.0154431
717.671	0.0154841
717.749	0.0154525
717.828	0.0154719
717.906	0.0154401
717.984	0.0154539
718.062	0.0154993
718.140	0.0154025
718.218	0.0153442
718.296	0.0154674
718.374	0.0155139
718.453	0.0153735
718.531	0.0153479
718.609	0.0154720
718.687	0.0155582
718.765	0.0154001
718.843	0.0155342
718.921	0.0154820
718.999	0.0154719
719.078	0.0154987
719.156	0.0153719
719.234	0.0155540
719.312	0.0153774
719.390	0.0153861
719.468	0.0152454
719.546	0.0153440
719.624	0.0154131
719.703	0.0154565
719.781	0.0153741
719.859	0.0153532
719.937	0.0153998
720.015	0.0153489
720.093	0.0154581
720.171	0.0155123
720.249	0.0155302
720.328	0.0155136
720.406	0.0153152
720.484	0.0154367
720.562	0.0154173
720.640	0.0154940
720.718	0.0152515
720.796	0.0154621
720.874	0.0154288
720.953	0.0154495
721.031	0.0155469
721.109	0.0153907
721.187	0.0153418
721.265	0.0155363
721.343	0.0154205
721.421	0.0154370
721.499	0.0155217
721.578	0.0154742
721.656	0.0154256
721.734	0.0154649
721.812	0.0154582
721.890	0.0153755
721.968	0.0155566
722.046	0.0154539
722.124	0.0154208
722.203	0.0155558
722.281	0.0154938
722.359	0.0154256
722.437	0.0155133
722.515	0.0154188
722.593	0.0154810
722.671	0.0155300
722.749	0.0154666
722.828	0.0155166
722.906	0.0155834
722.984	0.0155282
723.062	0.0154309
723.140	0.0156831
723.218	0.0156271
723.296	0.0155921
723.374	0.0155875
723.453	0.0154402
723.531	0.0154749
723.609	0.0156229
723.687	0.0155450
723.765	0.0155381
723.843	0.0153684
723.921	0.0155957
723.999	0.0155337
724.078	0.0154789
724.156	0.0155304
724.234	0.0154344
724.312	0.0154523
724.390	0.0155136
724.468	0.0155963
724.546	0.0154968
724.624	0.0154730
724.703	0.0154428
724.781	0.0155759
724.859	0.0155323
724.937	0.0155717
725.015	0.0155422
725.093	0.0154344
725.171	0.0155263
725.249	0.0154565
725.328	0.0156224
725.406	0.0155921
725.484	0.0155570
725.562	0.0154515
725.640	0.0154417
725.718	0.0154229
725.796	0.0155031
725.874	0.0155853
725.953	0.0156277
726.031	0.0154008
726.109	0.0154169
726.187	0.0155297
726.265	0.0155714
726.343	0.0155406
726.421	0.0155540
726.499	0.0155427
726.578	0.0154848
726.656	0.0154988
726.734	0.0154763
726.812	0.0155473
726.890	0.0155328
726.968	0.0156266
727.046	0.0155147
727.124	0.0154858
727.203	0.0154709
727.281	0.0155495
727.359	0.0155389
727.437	0.0153667
727.515	0.0154420
727.593	0.0153886
727.671	0.0154988
727.749	0.0154947
727.828	0.0154833
727.906	0.0153984
727.984	0.0154729
728.062	0.0153663
728.140	0.0154645
728.218	0.0154102
728.296	0.0154372
728.374	0.0155058
728.453	0.0155392
728.531	0.0153767
728.609	0.0154375
728.687	0.0154351
728.765	0.0155106
728.843	0.0153700
728.921	0.0154250
728.999	0.0153953
729.078	0.0153591
729.156	0.0153635
729.234	0.0154855
729.312	0.0154153
729.390	0.0154998
729.468	0.0153306
729.546	0.0154308
729.624	0.0155056
729.703	0.0153539
729.781	0.0154491
729.859	0.0154697
729.937	0.0153809
730.015	0.0154418
730.093	0.0154184
730.171	0.0154076
730.249	0.0155052
730.328	0.0153757
730.406	0.0153175
730.484	0.0153622
730.562	0.0154829
730.640	0.0153827
730.718	0.0154064
730.796	0.0154099
730.874	0.0153654
730.953	0.0152148
731.031	0.0153663
731.109	0.0155499
731.187	0.0155380
731.265	0.0154449
731.343	0.0154392
731.421	0.0154560
731.499	0.0153275
731.578	0.0153828
731.656	0.0154330
731.734	0.0154134
731.812	0.0154416
731.890	0.0153068
731.968	0.0153374
732.046	0.0155141
732.124	0.0155596
732.203	0.0154354
732.281	0.0155554
732.359	0.0154256
732.437	0.0154603
732.515	0.0153774
732.593	0.0155791
732.671	0.0155206
732.749	0.0154837
732.828	0.0155018
732.906	0.0152193
732.984	0.0154424
733.062	0.0154705
733.140	0.0153704
733.218	0.0154242
733.296	0.0154441
733.374	0.0152828
733.453	0.0152183
733.531	0.0153609
733.609	0.0153956
733.687	0.0155125
733.765	0.0154496
733.843	0.0154485
733.921	0.0154057
733.999	0.0154296
734.078	0.0153867
734.156	0.0154824
734.234	0.0154140
734.312	0.0154443
734.390	0.0153978
734.468	0.0153370
734.546	0.0153937
734.624	0.0155104
734.703	0.0155003
734.781	0.0155061
734.859	0.0154448
734.937	0.0153633
735.015	0.0153439
735.093	0.0154532
735.171	0.0154618
735.249	0.0153929
735.328	0.0154431
735.406	0.0153288
735.484	0.0154905
735.562	0.0154385
735.640	0.0154864
735.718	0.0153137
735.796	0.0153993
735.874	0.0154483
735.953	0.0155737
736.031	0.0154021
736.109	0.0154266
736.187	0.0154571
736.265	0.0155482
736.343	0.0157742
736.421	0.0155198
736.499	0.0156493
736.578	0.0157809
736.656	0.0156570
736.734	0.0157091
736.812	0.0155914
736.890	0.0155939
736.968	0.0152335
737.046	0.0149584
737.124	0.0151799
737.203	0.0150212
737.281	0.0149020
737.359	0.0146936
737.437	0.0149564
737.515	0.0151046
737.593	0.0153429
737.671	0.0156760
737.749	0.0159341
737.828	0.0160922
737.906	0.0162509
737.984	0.0165216
738.062	0.0164445
738.140	0.0164077
738.218	0.0163093
738.296	0.0161533
738.374	0.0157497
738.453	0.0153422
738.531	0.0151112
738.609	0.0147388
738.687	0.0143567
738.765	0.0142633
738.843	0.0143244
738.921	0.0143444
738.999	0.0144054
739.078	0.0146261
739.156	0.0149414
739.234	0.0150737
739.312	0.0152636
739.390	0.0155153
739.468	0.0157979
739.546	0.0159403
739.624	0.0161108
739.703	0.0161816
739.781	0.0162779
739.859	0.0164103
739.937	0.0164866
740.015	0.0164349
740.093	0.0162701
740.171	0.0159800
740.249	0.0160490
740.328	0.0158785
740.406	0.0155989
740.484	0.0152268
740.562	0.0151330
740.640	0.0151313
740.718	0.0147739
740.796	0.0147346
740.874	0.0146578
740.953	0.0149237
741.031	0.0148927
741.109	0.0150999
741.187	0.0151531
741.265	0.0155602
741.343	0.0156869
741.421	0.0157701
741.499	0.0159430
741.578	0.0159760
741.656	0.0159885
741.734	0.0158540
741.812	0.0158390
741.890	0.0156249
741.968	0.0153194
742.046	0.0151025
742.124	0.0148879
742.203	0.0147041
742.281	0.0146412
742.359	0.0143298
742.437	0.0141072
742.515	0.0141174
742.593	0.0141859
742.671	0.0142912
742.749	0.0143210
742.828	0.0144957
742.906	0.0146206
742.984	0.0150288
743.062	0.0152409
743.140	0.0155835
743.218	0.0158397
743.296	0.0161698
743.374	0.0166172
743.453	0.0168336
743.531	0.0170272
743.609	0.0173853
743.687	0.0176772
743.765	0.0178781
743.843	0.0179801
743.921	0.0178986
743.999	0.0176514
744.078	0.0176160
744.156	0.0174117
744.234	0.0168826
744.312	0.0165866
744.390	0.0162304
744.468	0.0157731
744.546	0.0153488
744.624	0.0149579
744.703	0.0147382
744.781	0.0142944
744.859	0.0140097
744.937	0.0137452
745.015	0.0134662
745.093	0.0133331
745.171	0.0133572
745.249	0.0133301
745.328	0.0134480
745.406	0.0134881
745.484	0.0134718
745.562	0.0135798
745.640	0.0137067
745.718	0.0138591
745.796	0.0139571
745.874	0.0138847
745.953	0.0142830
746.031	0.0142420
746.109	0.0143170
746.187	0.0145068
746.265	0.0147495
746.343	0.0149850
746.421	0.0151431
746.499	0.0156782
746.578	0.0160386
746.656	0.0163941
746.734	0.0167438
746.812	0.0170721
746.890	0.0174817
746.968	0.0176305
747.046	0.0179182
747.124	0.0180533
747.203	0.0181548
747.281	0.0179945
747.359	0.0178552
747.437	0.0178035
747.515	0.0176687
747.593	0.0174866
747.671	0.0173133
747.749	0.0170336
747.828	0.0168817
747.906	0.0166383
747.984	0.0161334
748.062	0.0158116
748.140	0.0154546
748.218	0.0151897
748.296	0.0147477
748.374	0.0144231
748.453	0.0142777
748.531	0.0139118
748.609	0.0138679
748.687	0.0138201
748.765	0.0136820
748.843	0.0136567
748.921	0.0138326
748.999	0.0139758
749.078	0.0141553
749.156	0.0143846
749.234	0.0146468
749.312	0.0147707
749.390	0.0149284
749.468	0.0151744
749.546	0.0153975
749.624	0.0153123
749.703	0.0152129
749.781	0.0152084
749.859	0.0151870
749.937	0.0151894
750.015	0.0149121
750.093	0.0146826
750.171	0.0145064
750.249	0.0142830
750.328	0.0140780
750.406	0.0139614
750.484	0.0138539
750.562	0.0140392
750.640	0.0139563
750.718	0.0141589
750.796	0.0145251
750.874	0.0149368
750.953	0.0154339
751.031	0.0158537
751.109	0.0164636
751.187	0.0168704
751.265	0.0175861
751.343	0.0180659
751.421	0.0182117
751.499	0.0186282
751.578	0.0188300
751.656	0.0189333
751.734	0.0188297
751.812	0.0185455
751.890	0.0182557
751.968	0.0177985
752.046	0.0174010
752.124	0.0169242
752.203	0.0164468
752.281	0.0157478
752.359	0.0152099
752.437	0.0147839
752.515	0.0142223
752.593	0.0139889
752.671	0.0136088
752.749	0.0134200
752.828	0.0132212
752.906	0.0131569
752.984	0.0132739
753.062	0.0134159
753.140	0.0135968
753.218	0.0138373
753.296	0.0140693
753.374	0.0144595
753.453	0.0146889
753.531	0.0149433
753.609	0.0152092
753.687	0.0154090
753.765	0.0154637
753.843	0.0157359
753.921	0.0158513
753.999	0.0158510
754.078	0.0158799
754.156	0.0159859
754.234	0.0159258
754.312	0.0159836
754.390	0.0158648
754.468	0.0157629
754.546	0.0158044
754.624	0.0155509
754.703	0.0155969
754.781	0.0152775
754.859	0.0151730
754.937	0.0151907
755.015	0.0150628
755.093	0.0149667
755.171	0.0148375
755.249	0.0149837
755.328	0.0149168
755.406	0.0148852
755.484	0.0149262
755.562	0.0149931
755.640	0.0149536
755.718	0.0150024
755.796	0.0151118
755.874	0.0154118
755.953	0.0155094
756.031	0.0155946
756.109	0.0158244
756.187	0.0160777
756.265	0.0163158
756.343	0.0165630
756.421	0.0167366
756.499	0.0167904
756.578	0.0167227
756.656	0.0168103
756.734	0.0169461
756.812	0.0167400
756.890	0.0165126
756.968	0.0164022
757.046	0.0161790
757.124	0.0159848
757.203	0.0158292
757.281	0.0156052
757.359	0.0154770
757.437	0.0151427
757.515	0.0150350
757.593	0.0148048
757.671	0.0146831
757.749	0.0145927
757.828	0.0146514
757.906	0.0143930
757.984	0.0144453
758.062	0.0145422
758.140	0.0145962
758.218	0.0148990
758.296	0.0149212
758.374	0.0150546
758.453	0.0151862
758.531	0.0152344
758.609	0.0153514
758.687	0.0153564
758.765	0.0155671
758.843	0.0152909
758.921	0.0152103
758.999	0.0151579
759.078	0.0151469
759.156	0.0152689
759.234	0.0150336
759.312	0.0149374
759.390	0.0148187
759.468	0.0147491
759.546	0.0148810
759.624	0.0148704
759.703	0.0148078
759.781	0.0149557
759.859	0.0149712
759.937	0.0150417
760.015	0.0152791
760.093	0.0151689
760.171	0.0154422
760.249	0.0153831
760.328	0.0155166
760.406	0.0156669
760.484	0.0156751
760.562	0.0157104
760.640	0.0156702
760.718	0.0157643
760.796	0.0155666
760.874	0.0155289
760.953	0.0154896
761.031	0.0156416
761.109	0.0156232
761.187	0.0156522
761.265	0.0158204
761.343	0.0159553
761.421	0.0159955
761.499	0.0161539
761.578	0.0163208
761.656	0.0164973
761.734	0.0165771
761.812	0.0165358
761.890	0.0166693
761.968	0.0166188
762.046	0.0164294
762.124	0.0163542
762.203	0.0161378
762.281	0.0158462
762.359	0.0158592
762.437	0.0158643
762.515	0.0154914
762.593	0.0153449
762.671	0.0153121
762.749	0.0152492
762.828	0.0152122
762.906	0.0150168
762.984	0.0150098
763.062	0.0149831
763.140	0.0147739
763.218	0.0148643
763.296	0.0149139
763.374	0.0146771
763.453	0.0147623
763.531	0.0148428
763.609	0.0147888
763.687	0.0148562
763.765	0.0147259
763.843	0.0146966
763.921	0.0147943
763.999	0.0148004
764.078	0.0145739
764.156	0.0147227
764.234	0.0147344
764.312	0.0150287
764.390	0.0150092
764.468	0.0150496
764.546	0.0151537
764.624	0.0153294
764.703	0.0153667
764.781	0.0155789
764.859	0.0158780
764.937	0.0158820
765.015	0.0160703
765.093	0.0161813
765.171	0.0164218
765.249	0.0164761
765.328	0.0164283
765.406	0.0165141
765.484	0.0165388
765.562	0.0163937
765.640	0.0164979
765.718	0.0163869
765.796	0.0162940
765.874	0.0160399
765.953	0.0161007
766.031	0.0158827
766.109	0.0157056
766.187	0.0157336
766.265	0.0156232
766.343	0.0156367
766.421	0.0154824
766.499	0.0154571
766.578	0.0153835
766.656	0.0153611
766.734	0.0153983
766.812	0.0154686
766.890	0.0153469
766.968	0.0152888
767.046	0.0152383
767.124	0.0150838
767.203	0.0150571
767.281	0.0153580
767.359	0.0152886
767.437	0.0150004
767.515	0.0152415
767.593	0.0151621
767.671	0.0150931
767.749	0.0151969
767.828	0.0152921
767.906	0.0151859
767.984	0.0152352
768.062	0.0152045
768.140	0.0153009
768.218	0.0152058
768.296	0.0150843
768.374	0.0150252
768.453	0.0149043
768.531	0.0149674
768.609	0.0149001
768.687	0.0148354
768.765	0.0149365
768.843	0.0147910
768.921	0.0149210
768.999	0.0148605
769.078	0.0151253
769.156	0.0151866
769.234	0.0153146
769.312	0.0154691
769.390	0.0154880
769.468	0.0156037
769.546	0.0158526
769.624	0.0159023
769.703	0.0159910
769.781	0.0160772
769.859	0.0162016
769.937	0.0161115
770.015	0.0162268
770.093	0.0163427
770.171	0.0163065
770.249	0.0161188
770.328	0.0160276
770.406	0.0158118
770.484	0.0159144
770.562	0.0158176
770.640	0.0156486
770.718	0.0156547
770.796	0.0154823
770.874	0.0153912
770.953	0.0152997
771.031	0.0154181
771.109	0.0152697
771.187	0.0152357
771.265	0.0153309
771.343	0.0155210
771.421	0.0155454
771.499	0.0154046
771.578	0.0156190
771.656	0.0156330
771.734	0.0156604
771.812	0.0157104
771.890	0.0157262
771.968	0.0155283
772.046	0.0154448
772.124	0.0155901
772.203	0.0154936
772.281	0.0153094
772.359	0.0152205
772.437	0.0151518
772.515	0.0150888
772.593	0.0149813
772.671	0.0149774
772.749	0.0149176
772.828	0.0150935
772.906	0.0152124
772.984	0.0151148
773.062	0.0151939
773.140	0.0154678
773.218	0.0154064
773.296	0.0154929
773.374	0.0156231
773.453	0.0155460
773.531	0.0156932
773.609	0.0156522
773.687	0.0156844
773.765	0.0156821
773.843	0.0157070
773.921	0.0157892
773.999	0.0157974
774.078	0.0157403
774.156	0.0157169
774.234	0.0159003
774.312	0.0156927
774.390	0.0158823
774.468	0.0158791
774.546	0.0157043
774.624	0.0158463
774.703	0.0157246
774.781	0.0158495
774.859	0.0155939
774.937	0.0156162
775.015	0.0157985
775.093	0.0155570
775.171	0.0154753
775.249	0.0154563
775.328	0.0154145
775.406	0.0154010
775.484	0.0153963
775.562	0.0152995
775.640	0.0152263
775.718	0.0152470
775.796	0.0151087
775.874	0.0151368
775.953	0.0151363
776.031	0.0152158
776.109	0.0151340
776.187	0.0150380
776.265	0.0150523
776.343	0.0151799
776.421	0.0153291
776.499	0.0152927
776.578	0.0152729
776.656	0.0154446
776.734	0.0155081
776.812	0.0156087
776.890	0.0157659
776.968	0.0158551
777.046	0.0157467
777.124	0.0158993
777.203	0.0159438
777.281	0.0159215
777.359	0.0160143
777.437	0.0159502
777.515	0.0158514
777.593	0.0159106
777.671	0.0158513
777.749	0.0157812
777.828	0.0158662
777.906	0.0157477
777.984	0.0157522
778.062	0.0157975
778.140	0.0156958
778.218	0.0155283
778.296	0.0155119
778.374	0.0154585
778.453	0.0154733
778.531	0.0154317
778.609	0.0153245
778.687	0.0151768
778.765	0.0152598
778.843	0.0152338
778.921	0.0152077
778.999	0.0151846
779.078	0.0152000
779.156	0.0152955
779.234	0.0152570
779.312	0.0152644
779.390	0.0152600
779.468	0.0152232
779.546	0.0152407
779.624	0.0153008
779.703	0.0154244
779.781	0.0152552
779.859	0.0154226
779.937	0.0154332
780.015	0.0153603
780.093	0.0153945
780.171	0.0155422
780.249	0.0155752
780.328	0.0154944
780.406	0.0155081
780.484	0.0154425
780.562	0.0154904
780.640	0.0154845
780.718	0.0153166
780.796	0.0152915
780.874	0.0154131
780.953	0.0154534
781.031	0.0154025
781.109	0.0153419
781.187	0.0153244
781.265	0.0152098
781.343	0.0155199
781.421	0.0155450
781.499	0.0155047
781.578	0.0154942
781.656	0.0156244
781.734	0.0157675
781.812	0.0157526
781.890	0.0158206
781.968	0.0158877
782.046	0.0160703
782.124	0.0160057
782.203	0.0160168
782.281	0.0162077
782.359	0.0161520
782.437	0.0160944
782.515	0.0160896
782.593	0.0160478
782.671	0.0158849
782.749	0.0157451
782.828	0.0156794
782.906	0.0157357
782.984	0.0155936
783.062	0.0156261
783.140	0.0155410
783.218	0.0155325
783.296	0.0153412
783.374	0.0152306
783.453	0.0154102
783.531	0.0152170
783.609	0.0152448
783.687	0.0150892
783.765	0.0151041
783.843	0.0150082
783.921	0.0150784
783.999	0.0151109
784.078	0.0151786
784.156	0.0151291
784.234	0.0150502
784.312	0.0151684
784.390	0.0151937
784.468	0.0151576
784.546	0.0152272
784.624	0.0151526
784.703	0.0153333
784.781	0.0153656
784.859	0.0153342
784.937	0.0152740
785.015	0.0153629
785.093	0.0156824
785.171	0.0156020
785.249	0.0156433
785.328	0.0157533
785.406	0.0157448
785.484	0.0157693
785.562	0.0158385
785.640	0.0157178
785.718	0.0158289
785.796	0.0158687
785.874	0.0156626
785.953	0.0158326
786.031	0.0156461
786.109	0.0157266
786.187	0.0157376
786.265	0.0156714
786.343	0.0155868
786.421	0.0154530
786.499	0.0153883
786.578	0.0151999
786.656	0.0151671
786.734	0.0153023
786.812	0.0152566
786.890	0.0152602
786.968	0.0152278
787.046	0.0152023
787.124	0.0151670
787.203	0.0153168
787.281	0.0152930
787.359	0.0152753
787.437	0.0154112
787.515	0.0153541
787.593	0.0155364
787.671	0.0156271
787.749	0.0153876
787.828	0.0153562
787.906	0.0154367
787.984	0.0155734
788.062	0.0156041
788.140	0.0155325
788.218	0.0155372
788.296	0.0154862
788.374	0.0153380
788.453	0.0154939
788.531	0.0154617
788.609	0.0155361
788.687	0.0153775
788.765	0.0154169
788.843	0.0154746
788.921	0.0154163
788.999	0.0154990
789.078	0.0155559
789.156	0.0155091
789.234	0.0157149
789.312	0.0158282
789.390	0.0159480
789.468	0.0157523
789.546	0.0157801
789.624	0.0159080
789.703	0.0158757
789.781	0.0160383
789.859	0.0158298
789.937	0.0159444
790.015	0.0157861
790.093	0.0157133
790.171	0.0156277
790.249	0.0155965
790.328	0.0155504
790.406	0.0153280
790.484	0.0152467
790.562	0.0152541
790.640	0.0150120
790.718	0.0149904
790.796	0.0149649
790.874	0.0149538
790.953	0.0149720
791.031	0.0149348
791.109	0.0149460
791.187	0.0149153
791.265	0.0150207
791.343	0.0151449
791.421	0.0152960
791.499	0.0152428
791.578	0.0154815
791.656	0.0154279
791.734	0.0154296
791.812	0.0155367
791.890	0.0157380
791.968	0.0157136
792.046	0.0156577
792.124	0.0157094
792.203	0.0157642
792.281	0.0159901
792.359	0.0157668
792.437	0.0157104
792.515	0.0157254
792.593	0.0157214
792.671	0.0158324
792.749	0.0158757
792.828	0.0156313
792.906	0.0156433
792.984	0.0155284
793.062	0.0156187
793.140	0.0155592
793.218	0.0155542
793.296	0.0155289
793.374	0.0155435
793.453	0.0154845
793.531	0.0152383
793.609	0.0152047
793.687	0.0152918
793.765	0.0152287
793.843	0.0151621
793.921	0.0151869
793.999	0.0152339
794.078	0.0151272
794.156	0.0151938
794.234	0.0152575
794.312	0.0151581
794.390	0.0152565
794.468	0.0152093
794.546	0.0151730
794.624	0.0152699
794.703	0.0152627
794.781	0.0152978
794.859	0.0154249
794.937	0.0154362
795.015	0.0154336
795.093	0.0154482
795.171	0.0157068
795.249	0.0156135
795.328	0.0157216
795.406	0.0155820
795.484	0.0156438
795.562	0.0157159
795.640	0.0156462
795.718	0.0155605
795.796	0.0154491
795.874	0.0155363
795.953	0.0154698
796.031	0.0155181
796.109	0.0157063
796.187	0.0154839
796.265	0.0155756
796.343	0.0154012
796.421	0.0153651
796.499	0.0155282
796.578	0.0153625
796.656	0.0152569
796.734	0.0154488
796.812	0.0154629
796.890	0.0154903
796.968	0.0154739
797.046	0.0153359
797.124	0.0154636
797.203	0.0155627
797.281	0.0154435
797.359	0.0154194
797.437	0.0154861
797.515	0.0154700
797.593	0.0154436
797.671	0.0154359
797.749	0.0153209
797.828	0.0154751
797.906	0.0155541
797.984	0.0153481
798.062	0.0153074
798.140	0.0154424
798.218	0.0153823
798.296	0.0152895
798.374	0.0153286
798.453	0.0154320
798.531	0.0152425
798.609	0.0152595
798.687	0.0153954
798.765	0.0153782
798.843	0.0153076
798.921	0.0154112
798.999	0.0153333
799.078	0.0153227
799.156	0.0154780
799.234	0.0154053
799.312	0.0153177
799.390	0.0154907
799.468	0.0154734
799.546	0.0155206
799.624	0.0155544
799.703	0.0156278
799.781	0.0155640
799.859	0.0156421
799.937	0.0155711
800.015	0.0157944
800.093	0.0157001
800.171	0.0158031
800.249	0.0156898
800.328	0.0157700
800.406	0.0158674
800.484	0.0158403
800.562	0.0156311
800.640	0.0158134
800.718	0.0158037
800.796	0.0157767
800.874	0.0157186
800.953	0.0156614
801.031	0.0157587
801.109	0.0155611
801.187	0.0156913
801.265	0.0155901
801.343	0.0153857
801.421	0.0153391
801.499	0.0155956
801.578	0.0154174
801.656	0.0152298
801.734	0.0152293
801.812	0.0152245
801.890	0.0152135
801.968	0.0152417
802.046	0.0152805
802.124	0.0151699
802.203	0.0152180
802.281	0.0152555
802.359	0.0151611
802.437	0.0152001
802.515	0.0152946
802.593	0.0150792
802.671	0.0152672
802.749	0.0152802
802.828	0.0153181
802.906	0.0154159
802.984	0.0154053
803.062	0.0154089
803.140	0.0153997
803.218	0.0154988
803.296	0.0157248
803.374	0.0156002
803.453	0.0156147
803.531	0.0155686
803.609	0.0155467
803.687	0.0156097
803.765	0.0157770
803.843	0.0156547
803.921	0.0156671
803.999	0.0155782
804.078	0.0157259
804.156	0.0156160
804.234	0.0156397
804.312	0.0156960
804.390	0.0155830
804.468	0.0154289
804.546	0.0154420
804.624	0.0154883
804.703	0.0154726
804.781	0.0153063
804.859	0.0153801
804.937	0.0153364
805.015	0.0154609
805.093	0.0155214
805.171	0.0154424
805.249	0.0153713
805.328	0.0154561
805.406	0.0153779
805.484	0.0155556
805.562	0.0156183
805.640	0.0155410
805.718	0.0157164
805.796	0.0156422
805.874	0.0156921
805.953	0.0157326
806.031	0.0157959
806.109	0.0157966
806.187	0.0158462
806.265	0.0157955
806.343	0.0158710
806.421	0.0159109
806.499	0.0157486
806.578	0.0156001
806.656	0.0156826
806.734	0.0157336
806.812	0.0155795
806.890	0.0154991
806.968	0.0154373
807.046	0.0155529
807.124	0.0152822
807.203	0.0151166
807.281	0.0150254
807.359	0.0151073
807.437	0.0151984
807.515	0.0151543
807.593	0.0150322
807.671	0.0151930
807.749	0.0152274
807.828	0.0153030
807.906	0.0152406
807.984	0.0151670
808.062	0.0152793
808.140	0.0153335
808.218	0.0153724
808.296	0.0155042
808.374	0.0154597
808.453	0.0156587
808.531	0.0157310
808.609	0.0155377
808.687	0.0156596
808.765	0.0157833
808.843	0.0156634
808.921	0.0156680
808.999	0.0156374
809.078	0.0156615
809.156	0.0154828
809.234	0.0155542
809.312	0.0154279
809.390	0.0155183
809.468	0.0155268
809.546	0.0154379
809.624	0.0155225
809.703	0.0153436
809.781	0.0154807
809.859	0.0153185
809.937	0.0154102
810.015	0.0153705
810.093	0.0153211
810.171	0.0154796
810.249	0.0154977
810.328	0.0155573
810.406	0.0153838
810.484	0.0155190
810.562	0.0155717
810.640	0.0156192
810.718	0.0156007
810.796	0.0155316
810.874	0.0154263
810.953	0.0155645
811.031	0.0155223
811.109	0.0155283
811.187	0.0155875
811.265	0.0154034
811.343	0.0155988
811.421	0.0154704
811.499	0.0154491
811.578	0.0154035
811.656	0.0154279
811.734	0.0154836
811.812	0.0154323
811.890	0.0152477
811.968	0.0154967
812.046	0.0154195
812.124	0.0154565
812.203	0.0154865
812.281	0.0154826
812.359	0.0155705
812.437	0.0154359
812.515	0.0153790
812.593	0.0155531
812.671	0.0154658
812.749	0.0154510
812.828	0.0156103
812.906	0.0154546
812.984	0.0152813
813.062	0.0155076
813.140	0.0155452
813.218	0.0155890
813.296	0.0153841
813.374	0.0154018
813.453	0.0153285
813.531	0.0153784
813.609	0.0154499
813.687	0.0154894
813.765	0.0154816
813.843	0.0153792
813.921	0.0155878
813.999	0.0154060
814.078	0.0154521
814.156	0.0154829
814.234	0.0154491
814.312	0.0154431
814.390	0.0154659
814.468	0.0156013
814.546	0.0155149
814.624	0.0154089
814.703	0.0155573
814.781	0.0154192
814.859	0.0154394
814.937	0.0154897
815.015	0.0156454
815.093	0.0155994
815.171	0.0154926
815.249	0.0155690
815.328	0.0156166
815.406	0.0157275
815.484	0.0156343
815.562	0.0157161
815.640	0.0156840
815.718	0.0156020
815.796	0.0156907
815.874	0.0157436
815.953	0.0155647
816.031	0.0155431
816.109	0.0155908
816.187	0.0156311
816.265	0.0155699
816.343	0.0155706
816.421	0.0155751
816.499	0.0154874
816.578	0.0155067
816.656	0.0154597
816.734	0.0154477
816.812	0.0154380
816.890	0.0153146
816.968	0.0155386
817.046	0.0152865
817.124	0.0154768
817.203	0.0154899
817.281	0.0151656
817.359	0.0151688
817.437	0.0153235
817.515	0.0151587
817.593	0.0152566
817.671	0.0153571
817.749	0.0152202
817.828	0.0152697
817.906	0.0152651
817.984	0.0154109
818.062	0.0153840
818.140	0.0152910
818.218	0.0153123
818.296	0.0154227
818.374	0.0153298
818.453	0.0155524
818.531	0.0154389
818.609	0.0154749
818.687	0.0155352
818.765	0.0154762
818.843	0.0155653
818.921	0.0155641
818.999	0.0155152
819.078	0.0156152
819.156	0.0155207
819.234	0.0155809
819.312	0.0156136
819.390	0.0156860
819.468	0.0156246
819.546	0.0155441
819.624	0.0156076
819.703	0.0156162
819.781	0.0155170
819.859	0.0154897
819.937	0.0156022
820.015	0.0155050
820.093	0.0155676
820.171	0.0156089
820.249	0.0153483
820.328	0.0155910
820.406	0.0155571
820.484	0.0155318
820.562	0.0155257
820.640	0.0155852
820.718	0.0154133
820.796	0.0153628
820.874	0.0154229
820.953	0.0152557
821.031	0.0153642
821.109	0.0153743
821.187	0.0153104
821.265	0.0153448
821.343	0.0152756
821.421	0.0154134
821.499	0.0152446
821.578	0.0153540
821.656	0.0152579
821.734	0.0152784
821.812	0.0154948
821.890	0.0154271
821.968	0.0152660
822.046	0.0154012
822.124	0.0153621
822.203	0.0154105
822.281	0.0154294
822.359	0.0153886
822.437	0.0152260
822.515	0.0154862
822.593	0.0155084
822.671	0.0155642
822.749	0.0154673
822.828	0.0154390
822.906	0.0156618
822.984	0.0155308
823.062	0.0155787
823.140	0.0154827
823.218	0.0155395
823.296	0.0156600
823.374	0.0155386
823.453	0.0155354
823.531	0.0154517
823.609	0.0156136
823.687	0.0156133
823.765	0.0155169
823.843	0.0153436
823.921	0.0154797
823.999	0.0153191
824.078	0.0154877
824.156	0.0153051
824.234	0.0153517
824.312	0.0154025
824.390	0.0154126
824.468	0.0153746
824.546	0.0154535
824.624	0.0154482
824.703	0.0154287
824.781	0.0154400
824.859	0.0152917
824.937	0.0154114
825.015	0.0155008
825.093	0.0154545
825.171	0.0153841
825.249	0.0153008
825.328	0.0155038
825.406	0.0154377
825.484	0.0154980
825.562	0.0154650
825.640	0.0155461
825.718	0.0156355
825.796	0.0154964
825.874	0.0154973
825.953	0.0155436
826.031	0.0155369
826.109	0.0154506
826.187	0.0155780
826.265	0.0154960
826.343	0.0155928
826.421	0.0155168
826.499	0.0154885
826.578	0.0154142
826.656	0.0156079
826.734	0.0155598
826.812	0.0155351
826.890	0.0154369
826.968	0.0154362
827.046	0.0154195
827.124	0.0154424
827.203	0.0154202
827.281	0.0154523
827.359	0.0153730
827.437	0.0154731
827.515	0.0154687
827.593	0.0153223
827.671	0.0152652
827.749	0.0153738
827.828	0.0154439
827.906	0.0153859
827.984	0.0154129
828.062	0.0153602
828.140	0.0152931
828.218	0.0154104
828.296	0.0154104
828.374	0.0154118
828.453	0.0152995
828.531	0.0153451
828.609	0.0153993
828.687	0.0153371
828.765	0.0154497
828.843	0.0155008
828.921	0.0153590
828.999	0.0155392
829.078	0.0154971
829.156	0.0155307
829.234	0.0153974
829.312	0.0156121
829.390	0.0155243
829.468	0.0154862
829.546	0.0154629
829.624	0.0156034
829.703	0.0155363
829.781	0.0155269
829.859	0.0154933
829.937	0.0156866
830.015	0.0155813
830.093	0.0155269
830.171	0.0157269
830.249	0.0156769
830.328	0.0157135
830.406	0.0156326
830.484	0.0156223
830.562	0.0156110
830.640	0.0156039
830.718	0.0156016
830.796	0.0157018
830.874	0.0155864
830.953	0.0155315
831.031	0.0155846
831.109	0.0155632
831.187	0.0154431
831.265	0.0154604
831.343	0.0155569
831.421	0.0154943
831.499	0.0154537
831.578	0.0153720
831.656	0.0153759
831.734	0.0153928
831.812	0.0154018
831.890	0.0152569
831.968	0.0153875
832.046	0.0153519
832.124	0.0152804
832.203	0.0153101
832.281	0.0153463
832.359	0.0153947
832.437	0.0153780
832.515	0.0152198
832.593	0.0153347
832.671	0.0153204
832.749	0.0153988
832.828	0.0152704
832.906	0.0152617
832.984	0.0153283
833.062	0.0154355
833.140	0.0153451
833.218	0.0154057
833.296	0.0154829
833.374	0.0154501
833.453	0.0153025
833.531	0.0154307
833.609	0.0154633
833.687	0.0153071
833.765	0.0153767
833.843	0.0154033
833.921	0.0152845
833.999	0.0153593
834.078	0.0156047
834.156	0.0156313
834.234	0.0155240
834.312	0.0155333
834.390	0.0155032
834.468	0.0155904
834.546	0.0155840
834.624	0.0155802
834.703	0.0156042
834.781	0.0156190
834.859	0.0157610
834.937	0.0157527
835.015	0.0156882
835.093	0.0156889
835.171	0.0156689
835.249	0.0156238
835.328	0.0156675
835.406	0.0154665
835.484	0.0155094
835.562	0.0154801
835.640	0.0152978
835.718	0.0153484
835.796	0.0153521
835.874	0.0153106
835.953	0.0152930
836.031	0.0153381
836.109	0.0153123
836.187	0.0153032
836.265	0.0153460
836.343	0.0153748
836.421	0.0153955
836.499	0.0154807
836.578	0.0154844
836.656	0.0154134
836.734	0.0154859
836.812	0.0154094
836.890	0.0154531
836.968	0.0155178
837.046	0.0155931
837.124	0.0155525
837.203	0.0155196
837.281	0.0156068
837.359	0.0155293
837.437	0.0154411
837.515	0.0153985
837.593	0.0154860
837.671	0.0155753
837.749	0.0155383
837.828	0.0155576
837.906	0.0155853
837.984	0.0155709
838.062	0.0156247
838.140	0.0155763
838.218	0.0155997
838.296	0.0154589
838.374	0.0154385
838.453	0.0154729
838.531	0.0154157
838.609	0.0155282
838.687	0.0154826
838.765	0.0154086
838.843	0.0152294
838.921	0.0152707
838.999	0.0153768
839.078	0.0153022
839.156	0.0152589
839.234	0.0153010
839.312	0.0153562
839.390	0.0154229
839.468	0.0152647
839.546	0.0152821
839.624	0.0154239
839.703	0.0155399
839.781	0.0154706
839.859	0.0154502
839.937	0.0155959
840.015	0.0155759
840.093	0.0156808
840.171	0.0158265
840.249	0.0158172
840.328	0.0157288
840.406	0.0156807
840.484	0.0157678
840.562	0.0157080
840.640	0.0156876
840.718	0.0156901
840.796	0.0156181
840.874	0.0155814
840.953	0.0154668
841.031	0.0156749
841.109	0.0154589
841.187	0.0154666
841.265	0.0154021
841.343	0.0153538
841.421	0.0153456
841.499	0.0154121
841.578	0.0153495
841.656	0.0154377
841.734	0.0154842
841.812	0.0153287
841.890	0.0153461
841.968	0.0153214
842.046	0.0153496
842.124	0.0152624
842.203	0.0152748
842.281	0.0153255
842.359	0.0151789
842.437	0.0154468
842.515	0.0153845
842.593	0.0153122
842.671	0.0152887
842.749	0.0153730
842.828	0.0154517
842.906	0.0153952
842.984	0.0153678
843.062	0.0154291
843.140	0.0153269
843.218	0.0154407
843.296	0.0155183
843.374	0.0154266
843.453	0.0154545
843.531	0.0155040
843.609	0.0155835
843.687	0.0154677
843.765	0.0155472
843.843	0.0155968
843.921	0.0155809
843.999	0.0155057
844.078	0.0156322
844.156	0.0155467
844.234	0.0157319
844.312	0.0157382
844.390	0.0156924
844.468	0.0157127
844.546	0.0156628
844.624	0.0156104
844.703	0.0156205
844.781	0.0157985
844.859	0.0156461
844.937	0.0156047
845.015	0.0155772
845.093	0.0156355
845.171	0.0155337
845.249	0.0154294
845.328	0.0154818
845.406	0.0155219
845.484	0.0154104
845.562	0.0152714
845.640	0.0152533
845.718	0.0151789
845.796	0.0153354
845.874	0.0152290
845.953	0.0152979
846.031	0.0152033
846.109	0.0150780
846.187	0.0151639
846.265	0.0152260
846.343	0.0150775
846.421	0.0151337
846.499	0.0152503
846.578	0.0150975
846.656	0.0153765
846.734	0.0153537
846.812	0.0153851
846.890	0.0155132
846.968	0.0154486
847.046	0.0153777
847.124	0.0154894
847.203	0.0155642
847.281	0.0155811
847.359	0.0156506
847.437	0.0155946
847.515	0.0156038
847.593	0.0158533
847.671	0.0158481
847.749	0.0157907
847.828	0.0156926
847.906	0.0156483
847.984	0.0156791
848.062	0.0157253
848.140	0.0156497
848.218	0.0156286
848.296	0.0154002
848.374	0.0154651
848.453	0.0154610
848.531	0.0155634
848.609	0.0154967
848.687	0.0153869
848.765	0.0153755
848.843	0.0153574
848.921	0.0155252
848.999	0.0155929
849.078	0.0154555
849.156	0.0154557
849.234	0.0154617
849.312	0.0155638
849.390	0.0155324
849.468	0.0155281
849.546	0.0155320
849.624	0.0156154
849.703	0.0155875
849.781	0.0155650
849.859	0.0156494
849.937	0.0155847
850.015	0.0153856
850.093	0.0153152
850.171	0.0152832
850.249	0.0152718
850.328	0.0152432
850.406	0.0153519
850.484	0.0152947
850.562	0.0151924
850.640	0.0151723
850.718	0.0151694
850.796	0.0151864
850.874	0.0152861
850.953	0.0152042
851.031	0.0153056
851.109	0.0154375
851.187	0.0152625
851.265	0.0153664
851.343	0.0152779
851.421	0.0154436
851.499	0.0155498
851.578	0.0154696
851.656	0.0155805
851.734	0.0156477
851.812	0.0157091
851.890	0.0154847
851.968	0.0156013
852.046	0.0154816
852.124	0.0156898
852.203	0.0154890
852.281	0.0154979
852.359	0.0155570
852.437	0.0154917
852.515	0.0154739
852.593	0.0154745
852.671	0.0154061
852.749	0.0153345
852.828	0.0153635
852.906	0.0155143
852.984	0.0154480
853.062	0.0154262
853.140	0.0154867
853.218	0.0153725
853.296	0.0153325
853.374	0.0154905
853.453	0.0154831
853.531	0.0156007
853.609	0.0154527
853.687	0.0154710
853.765	0.0154791
853.843	0.0155914
853.921	0.0154343
853.999	0.0154999
854.078	0.0154323
854.156	0.0155105
854.234	0.0155501
854.312	0.0156517
854.390	0.0154099
854.468	0.0154453
854.546	0.0155554
854.624	0.0153840
854.703	0.0153284
854.781	0.0154932
854.859	0.0153259
854.937	0.0152024
855.015	0.0152188
855.093	0.0153714
855.171	0.0152917
855.249	0.0152480
855.328	0.0151608
855.406	0.0152391
855.484	0.0152972
855.562	0.0154521
855.640	0.0153376
855.718	0.0152607
855.796	0.0152508
855.874	0.0153569
855.953	0.0155222
856.031	0.0153161
856.109	0.0153622
856.187	0.0155891
856.265	0.0154340
856.343	0.0153741
856.421	0.0154358
856.499	0.0155335
856.578	0.0157578
856.656	0.0156884
856.734	0.0156226
856.812	0.0155341
856.890	0.0156549
856.968	0.0155741
857.046	0.0156282
857.124	0.0155723
857.203	0.0154755
857.281	0.0155632
857.359	0.0154974
857.437	0.0155740
857.515	0.0155328
857.593	0.0155539
857.671	0.0155120
857.749	0.0155454
857.828	0.0155804
857.906	0.0156441
857.984	0.0155328
858.062	0.0155975
858.140	0.0156852
858.218	0.0156607
858.296	0.0156437
858.374	0.0155824
858.453	0.0156229
858.531	0.0156314
858.609	0.0156418
858.687	0.0156416
858.765	0.0156720
858.843	0.0156963
858.921	0.0155093
858.999	0.0154695
859.078	0.0154959
859.156	0.0154428
859.234	0.0154773
859.312	0.0154637
859.390	0.0153763
859.468	0.0153798
859.546	0.0155273
859.624	0.0152809
859.703	0.0153451
859.781	0.0153261
859.859	0.0154196
859.937	0.0154108
860.015	0.0154047
860.093	0.0153777
860.171	0.0153732
860.249	0.0154048
860.328	0.0154551
860.406	0.0155337
860.484	0.0154183
860.562	0.0154436
860.640	0.0154293
860.718	0.0153162
860.796	0.0154920
860.874	0.0156182
860.953	0.0154929
861.031	0.0153712
861.109	0.0154850
861.187	0.0155558
861.265	0.0156483
861.343	0.0154720
861.421	0.0155966
861.499	0.0155019
861.578	0.0154922
861.656	0.0154974
861.734	0.0155360
861.812	0.0156151
861.890	0.0155644
861.968	0.0157121
862.046	0.0155339
862.124	0.0155147
862.203	0.0155911
862.281	0.0155845
862.359	0.0154613
862.437	0.0155357
862.515	0.0154317
862.593	0.0155087
862.671	0.0156115
862.749	0.0155323
862.828	0.0154114
862.906	0.0154343
862.984	0.0155347
863.062	0.0155640
863.140	0.0155632
863.218	0.0154611
863.296	0.0154565
863.374	0.0156200
863.453	0.0154555
863.531	0.0154122
863.609	0.0153431
863.687	0.0154163
863.765	0.0154697
863.843	0.0153395
863.921	0.0153516
863.999	0.0154226
864.078	0.0154382
864.156	0.0152817
864.234	0.0153114
864.312	0.0152872
864.390	0.0152666
864.468	0.0153273
864.546	0.0153756
864.624	0.0154171
864.703	0.0154298
864.781	0.0155250
864.859	0.0154079
864.937	0.0154846
865.015	0.0154773
865.093	0.0153466
865.171	0.0154182
865.249	0.0155611
865.328	0.0155995
865.406	0.0155409
865.484	0.0155698
865.562	0.0155463
865.640	0.0155258
865.718	0.0155573
865.796	0.0156380
865.874	0.0156147
865.953	0.0155869
866.031	0.0156449
866.109	0.0157476
866.187	0.0155170
866.265	0.0155678
866.343	0.0156960
866.421	0.0155082
866.499	0.0154985
866.578	0.0155265
866.656	0.0154723
866.734	0.0155094
866.812	0.0154630
866.890	0.0155130
866.968	0.0153262
867.046	0.0154146
867.124	0.0153685
867.203	0.0152736
867.281	0.0153262
867.359	0.0153368
867.437	0.0154565
867.515	0.0154227
867.593	0.0154432
867.671	0.0153516
867.749	0.0152069
867.828	0.0153813
867.906	0.0154582
867.984	0.0156348
868.062	0.0154435
868.140	0.0153974
868.218	0.0155346
868.296	0.0154774
868.374	0.0154154
868.453	0.0155297
868.531	0.0154604
868.609	0.0154430
868.687	0.0155303
868.765	0.0156191
868.843	0.0153959
868.921	0.0154860
868.999	0.0155307
869.078	0.0154288
869.156	0.0153316
869.234	0.0155891
869.312	0.0156432
869.390	0.0153368
869.468	0.0154947
869.546	0.0153912
869.624	0.0154507
869.703	0.0153085
869.781	0.0154186
869.859	0.0154700
869.937	0.0154966
870.015	0.0153376
870.093	0.0153912
870.171	0.0155343
870.249	0.0153938
870.328	0.0154069
870.406	0.0153487
870.484	0.0153264
870.562	0.0154144
870.640	0.0152995
870.718	0.0153092
870.796	0.0153403
870.874	0.0152765
870.953	0.0154280
871.031	0.0154832
871.109	0.0154024
871.187	0.0156020
871.265	0.0154586
871.343	0.0154900
871.421	0.0153687
871.499	0.0153165
871.578	0.0154966
871.656	0.0154055
871.734	0.0154984
871.812	0.0153828
871.890	0.0154630
871.968	0.0155319
872.046	0.0155714
872.124	0.0155439
872.203	0.0155296
872.281	0.0154565
872.359	0.0154493
872.437	0.0155185
872.515	0.0155309
872.593	0.0155083
872.671	0.0153952
872.749	0.0153856
872.828	0.0153785
872.906	0.0155030
872.984	0.0155026
873.062	0.0154475
873.140	0.0153040
873.218	0.0154550
873.296	0.0155824
873.374	0.0153470
873.453	0.0155307
873.531	0.0154762
873.609	0.0155328
873.687	0.0154217
873.765	0.0153448
873.843	0.0153952
873.921	0.0155268
873.999	0.0154644
874.078	0.0154476
874.156	0.0155280
874.234	0.0154621
874.312	0.0153729
874.390	0.0155784
874.468	0.0155215
874.546	0.0155450
874.624	0.0154317
874.703	0.0154779
874.781	0.0155161
874.859	0.0154746
874.937	0.0154095
875.015	0.0154220
875.093	0.0154167
875.171	0.0156133
875.249	0.0155441
875.328	0.0153414
875.406	0.0155423
875.484	0.0155906
875.562	0.0154812
875.640	0.0155111
875.718	0.0155036
875.796	0.0154124
875.874	0.0153910
875.953	0.0155135
876.031	0.0154968
876.109	0.0154513
876.187	0.0153880
876.265	0.0154237
876.343	0.0155107
876.421	0.0154368
876.499	0.0154589
876.578	0.0154557
876.656	0.0155344
876.734	0.0154893
876.812	0.0155019
876.890	0.0155920
876.968	0.0156454
877.046	0.0155780
877.124	0.0155186
877.203	0.0154986
877.281	0.0155444
877.359	0.0154445
877.437	0.0154425
877.515	0.0156692
877.593	0.0154629
877.671	0.0155269
877.749	0.0154505
877.828	0.0154452
877.906	0.0153826
877.984	0.0154211
878.062	0.0154244
878.140	0.0154324
878.218	0.0153015
878.296	0.0154802
878.374	0.0155563
878.453	0.0153755
878.531	0.0155368
878.609	0.0153931
878.687	0.0155965
878.765	0.0155079
878.843	0.0154972
878.921	0.0155254
878.999	0.0155083
879.078	0.0155310
879.156	0.0157353
879.234	0.0155163
879.312	0.0155186
879.390	0.0155684
879.468	0.0154700
879.546	0.0154849
879.624	0.0154272
879.703	0.0154107
879.781	0.0154237
879.859	0.0155042
879.937	0.0153999
880.015	0.0154178
880.093	0.0153938
880.171	0.0155946
880.249	0.0155655
880.328	0.0154235
880.406	0.0154021
880.484	0.0154807
880.562	0.0154139
880.640	0.0153481
880.718	0.0154113
880.796	0.0153818
880.874	0.0153409
880.953	0.0154313
881.031	0.0154505
881.109	0.0153756
881.187	0.0154735
881.265	0.0154902
881.343	0.0154730
881.421	0.0154301
881.499	0.0154265
881.578	0.0155801
881.656	0.0155209
881.734	0.0155382
881.812	0.0154640
881.890	0.0156196
881.968	0.0154622
882.046	0.0155537
882.124	0.0155386
882.203	0.0155508
882.281	0.0154455
882.359	0.0155422
882.437	0.0155103
882.515	0.0153155
882.593	0.0154685
882.671	0.0155495
882.749	0.0154411
882.828	0.0153873
882.906	0.0153843
882.984	0.0153846
883.062	0.0152928
883.140	0.0153832
883.218	0.0154823
883.296	0.0154817
883.374	0.0156071
883.453	0.0153854
883.531	0.0154430
883.609	0.0155391
883.687	0.0154432
883.765	0.0155181
883.843	0.0154655
883.921	0.0155782
883.999	0.0157010
884.078	0.0155238
884.156	0.0154690
884.234	0.0155933
884.312	0.0156679
884.390	0.0156478
884.468	0.0156025
884.546	0.0155886
884.624	0.0156586
884.703	0.0156319
884.781	0.0156006
884.859	0.0155186
884.937	0.0156992
885.015	0.0155597
885.093	0.0156251
885.171	0.0156637
885.249	0.0156995
885.328	0.0155584
885.406	0.0156635
885.484	0.0157285
885.562	0.0156005
885.640	0.0156235
885.718	0.0154391
885.796	0.0155878
885.874	0.0154565
885.953	0.0155352
886.031	0.0153754
886.109	0.0154461
886.187	0.0154562
886.265	0.0154085
886.343	0.0154250
886.421	0.0154041
886.499	0.0152858
886.578	0.0153564
886.656	0.0153915
886.734	0.0152794
886.812	0.0152347
886.890	0.0153551
886.968	0.0153857
887.046	0.0153780
887.124	0.0152290
887.203	0.0153016
887.281	0.0154857
887.359	0.0151981
887.437	0.0154118
887.515	0.0153085
887.593	0.0153326
887.671	0.0152818
887.749	0.0154984
887.828	0.0154391
887.906	0.0154870
887.984	0.0154711
888.062	0.0155256
888.140	0.0155781
888.218	0.0155579
888.296	0.0155111
888.374	0.0157251
888.453	0.0155454
888.531	0.0155187
888.609	0.0156573
888.687	0.0156725
888.765	0.0156118
888.843	0.0153734
888.921	0.0155912
888.999	0.0154328
889.078	0.0154825
889.156	0.0155754
889.234	0.0156003
889.312	0.0154688
889.390	0.0155444
889.468	0.0155228
889.546	0.0153139
889.624	0.0153542
889.703	0.0153191
889.781	0.0153556
889.859	0.0154316
889.937	0.0153651
890.015	0.0153809
890.093	0.0154318
890.171	0.0153290
890.249	0.0153387
890.328	0.0154816
890.406	0.0154906
890.484	0.0154230
890.562	0.0153973
890.640	0.0154794
890.718	0.0154475
890.796	0.0154644
890.874	0.0154383
890.953	0.0153055
891.031	0.0153606
891.109	0.0155175
891.187	0.0155060
891.265	0.0155118
891.343	0.0155098
891.421	0.0153696
891.499	0.0155552
891.578	0.0156605
891.656	0.0154613
891.734	0.0156023
891.812	0.0154508
891.890	0.0155137
891.968	0.0155067
892.046	0.0154327
892.124	0.0154945
892.203	0.0155470
892.281	0.0155042
892.359	0.0155298
892.437	0.0155512
892.515	0.0153524
892.593	0.0155307
892.671	0.0156676
892.749	0.0155254
892.828	0.0155746
892.906	0.0153512
892.984	0.0153191
893.062	0.0154235
893.140	0.0153729
893.218	0.0153583
893.296	0.0153239
893.374	0.0153668
893.453	0.0153474
893.531	0.0154452
893.609	0.0153638
893.687	0.0152989
893.765	0.0154762
893.843	0.0154626
893.921	0.0152775
893.999	0.0153649
894.078	0.0154346
894.156	0.0153198
894.234	0.0153690
894.312	0.0153039
894.390	0.0153656
894.468	0.0153166
894.546	0.0154285
894.624	0.0154486
894.703	0.0152332
894.781	0.0153518
894.859	0.0152279
894.937	0.0153558
895.015	0.0154674
895.093	0.0154024
895.171	0.0153893
895.249	0.0153705
895.328	0.0155176
895.406	0.0154750
895.484	0.0156932
895.562	0.0155488
895.640	0.0154997
895.718	0.0155688
895.796	0.0156808
895.874	0.0156692
895.953	0.0155800
896.031	0.0154537
896.109	0.0156139
896.187	0.0156415
896.265	0.0155236
896.343	0.0156658
896.421	0.0155313
896.499	0.0155432
896.578	0.0154951
896.656	0.0155412
896.734	0.0155238
896.812	0.0156149
896.890	0.0153764
896.968	0.0153313
897.046	0.0154645
897.124	0.0154665
897.203	0.0153359
897.281	0.0152708
897.359	0.0155103
897.437	0.0154687
897.515	0.0155703
897.593	0.0153344
897.671	0.0153488
897.749	0.0153904
897.828	0.0154798
897.906	0.0154063
897.984	0.0154827
898.062	0.0154763
898.140	0.0152010
898.218	0.0153949
898.296	0.0155394
898.374	0.0154576
898.453	0.0153245
898.531	0.0152615
898.609	0.0154233
898.687	0.0153869
898.765	0.0152893
898.843	0.0152641
898.921	0.0153089
898.999	0.0153403
899.078	0.0153137
899.156	0.0153512
899.234	0.0155583
899.312	0.0153413
899.390	0.0155157
899.468	0.0154694
899.546	0.0154063
899.624	0.0154709
899.703	0.0155466
899.781	0.0154967
899.859	0.0155163
899.937	0.0155164
900.015	0.0156004
900.093	0.0154398
900.171	0.0153349
900.249	0.0155509
900.328	0.0156589
900.406	0.0154657
900.484	0.0154398
900.562	0.0155067
900.640	0.0154573
900.718	0.0155801
900.796	0.0154082
900.874	0.0154906
900.953	0.0155289
901.031	0.0153767
901.109	0.0154771
901.187	0.0154820
901.265	0.0154744
901.343	0.0153996
901.421	0.0154234
901.499	0.0154072
901.578	0.0153770
901.656	0.0154262
901.734	0.0154211
901.812	0.0154135
901.890	0.0154380
901.968	0.0155154
902.046	0.0154511
902.124	0.0154611
902.203	0.0155937
902.281	0.0154723
902.359	0.0154202
902.437	0.0154574
902.515	0.0155210
902.593	0.0154798
902.671	0.0155479
902.749	0.0156065
902.828	0.0155561
902.906	0.0155035
902.984	0.0153536
903.062	0.0153968
903.140	0.0153943
903.218	0.0154629
903.296	0.0155441
903.374	0.0154266
903.453	0.0154575
903.531	0.0153996
903.609	0.0152975
903.687	0.0154103
903.765	0.0154923
903.843	0.0153819
903.921	0.0155204
903.999	0.0153672
904.078	0.0153973
904.156	0.0154418
904.234	0.0152549
904.312	0.0155766
904.390	0.0154572
904.468	0.0153144
904.546	0.0154771
904.624	0.0153632
904.703	0.0155191
904.781	0.0155991
904.859	0.0153786
904.937	0.0154674
905.015	0.0154253
905.093	0.0154379
905.171	0.0153786
905.249	0.0154065
905.328	0.0153847
905.406	0.0154201
905.484	0.0155879
905.562	0.0155565
905.640	0.0154443
905.718	0.0154375
905.796	0.0153358
905.874	0.0154363
905.953	0.0155129
906.031	0.0155081
906.109	0.0154601
906.187	0.0154697
906.265	0.0156240
906.343	0.0154284
906.421	0.0154380
906.499	0.0156162
906.578	0.0155348
906.656	0.0156615
906.734	0.0155595
906.812	0.0156892
906.890	0.0157770
906.968	0.0156750
907.046	0.0157133
907.124	0.0157128
907.203	0.0157748
907.281	0.0156694
907.359	0.0157427
907.437	0.0156556
907.515	0.0157114
907.593	0.0155679
907.671	0.0156865
907.749	0.0154776
907.828	0.0155285
907.906	0.0154955
907.984	0.0154160
908.062	0.0154303
908.140	0.0154337
908.218	0.0153278
908.296	0.0153233
908.374	0.0155104
908.453	0.0153648
908.531	0.0152856
908.609	0.0152566
908.687	0.0153977
908.765	0.0151929
908.843	0.0153046
908.921	0.0153783
908.999	0.0153707
909.078	0.0152237
909.156	0.0153541
909.234	0.0154051
909.312	0.0154623
909.390	0.0153540
909.468	0.0155511
909.546	0.0154500
909.624	0.0155369
909.703	0.0154781
909.781	0.0155624
909.859	0.0155209
909.937	0.0155310
910.015	0.0154967
910.093	0.0154819
910.171	0.0155273
910.249	0.0154935
910.328	0.0154463
910.406	0.0155332
910.484	0.0153741
910.562	0.0153728
910.640	0.0154961
910.718	0.0155227
910.796	0.0154467
910.874	0.0156367
910.953	0.0156895
911.031	0.0155238
911.109	0.0155867
911.187	0.0156161
911.265	0.0153415
911.343	0.0154739
911.421	0.0155674
911.499	0.0155573
911.578	0.0155914
911.656	0.0155494
911.734	0.0154722
911.812	0.0156184
911.890	0.0155813
911.968	0.0154884
912.046	0.0154591
912.124	0.0155399
912.203	0.0155297
912.281	0.0154530
912.359	0.0153596
912.437	0.0156295
912.515	0.0152259
912.593	0.0153812
912.671	0.0154714
912.749	0.0152930
912.828	0.0153032
912.906	0.0153712
912.984	0.0152859
913.062	0.0153912
913.140	0.0153366
913.218	0.0153725
913.296	0.0154790
913.374	0.0154845
913.453	0.0155515
913.531	0.0156007
913.609	0.0154191
913.687	0.0155502
913.765	0.0154597
913.843	0.0155199
913.921	0.0155136
913.999	0.0155180
914.078	0.0155690
914.156	0.0153878
914.234	0.0154714
914.312	0.0154928
914.390	0.0155087
914.468	0.0154919
914.546	0.0155454
914.624	0.0154990
914.703	0.0154961
914.781	0.0155044
914.859	0.0153721
914.937	0.0153388
915.015	0.0154350
915.093	0.0154361
915.171	0.0155672
915.249	0.0155277
915.328	0.0153883
915.406	0.0153098
915.484	0.0154839
915.562	0.0154964
915.640	0.0153983
915.718	0.0153015
915.796	0.0153909
915.874	0.0153756
915.953	0.0153307
916.031	0.0154008
916.109	0.0154836
916.187	0.0155843
916.265	0.0154055
916.343	0.0154603
916.421	0.0153497
916.499	0.0154858
916.578	0.0153748
916.656	0.0151965
916.734	0.0154408
916.812	0.0153946
916.890	0.0153773
916.968	0.0155150
917.046	0.0155722
917.124	0.0153811
917.203	0.0153244
917.281	0.0153617
917.359	0.0154607
917.437	0.0155071
917.515	0.0155209
917.593	0.0154667
917.671	0.0155884
917.749	0.0155735
917.828	0.0155492
917.906	0.0155164
917.984	0.0155827
918.062	0.0155377
918.140	0.0154142
918.218	0.0155022
918.296	0.0156264
918.374	0.0156434
918.453	0.0154937
918.531	0.0153983
918.609	0.0153419
918.687	0.0155014
918.765	0.0153867
918.843	0.0153925
918.921	0.0154824
918.999	0.0153511
919.078	0.0153790
919.156	0.0153044
919.234	0.0154848
919.312	0.0154337
919.390	0.0153539
919.468	0.0154067
919.546	0.0154369
919.624	0.0154230
919.703	0.0152889
919.781	0.0154788
919.859	0.0154701
919.937	0.0154922
