06/10/2022	18:55:25	Ver.	4.1	UNKNOWN
Optical Delay	600.015094	Delta X		0.078125	Sweeps	1	Scan Rate	0/0
Coordinates	Axis 1	NaN	Axis 2	NaN	Axis 3	NaN	Axis 4	NaN	Axis 5	NaN	Axis 6	0.000000
TX Power	0.000000	RX Power	0.000000

600.015	0.0162603
600.093	0.0162122
600.171	0.0162794
600.249	0.0162646
600.328	0.0162779
600.406	0.0162618
600.484	0.0162325
600.562	0.0162988
600.640	0.0162678
600.718	0.0162364
600.796	0.0162685
600.874	0.0163389
600.953	0.0162096
601.031	0.0162875
601.109	0.0163782
601.187	0.0163702
601.265	0.0163769
601.343	0.0162519
601.421	0.0163285
601.499	0.0162157
601.578	0.0163374
601.656	0.0163052
601.734	0.0162356
601.812	0.0163668
601.890	0.0163651
601.968	0.0164156
602.046	0.0162468
602.124	0.0162762
602.203	0.0162491
602.281	0.0163647
602.359	0.0163712
602.437	0.0162923
602.515	0.0162663
602.593	0.0161829
602.671	0.0164323
602.749	0.0164362
602.828	0.0161938
602.906	0.0161388
602.984	0.0162644
603.062	0.0161964
603.140	0.0161847
603.218	0.0163636
603.296	0.0163224
603.374	0.0161950
603.453	0.0162379
603.531	0.0162383
603.609	0.0162984
603.687	0.0162375
603.765	0.0162863
603.843	0.0163347
603.921	0.0162418
603.999	0.0162866
604.078	0.0162904
604.156	0.0162097
604.234	0.0162811
604.312	0.0163398
604.390	0.0161823
604.468	0.0161720
604.546	0.0163943
604.624	0.0162658
604.703	0.0162617
604.781	0.0162298
604.859	0.0163248
604.937	0.0162657
605.015	0.0162745
605.093	0.0163329
605.171	0.0162076
605.249	0.0162532
605.328	0.0160830
605.406	0.0162699
605.484	0.0162294
605.562	0.0161182
605.640	0.0163223
605.718	0.0162946
605.796	0.0162901
605.874	0.0162883
605.953	0.0161764
606.031	0.0163384
606.109	0.0162773
606.187	0.0163243
606.265	0.0162469
606.343	0.0163137
606.421	0.0163248
606.499	0.0163615
606.578	0.0163053
606.656	0.0163435
606.734	0.0162048
606.812	0.0161826
606.890	0.0162871
606.968	0.0163259
607.046	0.0162928
607.124	0.0162105
607.203	0.0163689
607.281	0.0162689
607.359	0.0162756
607.437	0.0162611
607.515	0.0162077
607.593	0.0162633
607.671	0.0162375
607.749	0.0161837
607.828	0.0162743
607.906	0.0162801
607.984	0.0161710
608.062	0.0162085
608.140	0.0161375
608.218	0.0161077
608.296	0.0163286
608.374	0.0162527
608.453	0.0162548
608.531	0.0162542
608.609	0.0163988
608.687	0.0162263
608.765	0.0162122
608.843	0.0163112
608.921	0.0162448
608.999	0.0163189
609.078	0.0162355
609.156	0.0163738
609.234	0.0163642
609.312	0.0161936
609.390	0.0162946
609.468	0.0164683
609.546	0.0161781
609.624	0.0162690
609.703	0.0163355
609.781	0.0164189
609.859	0.0163741
609.937	0.0163429
610.015	0.0162720
610.093	0.0162334
610.171	0.0162965
610.249	0.0163860
610.328	0.0163307
610.406	0.0163068
610.484	0.0163787
610.562	0.0163426
610.640	0.0162180
610.718	0.0162432
610.796	0.0162206
610.874	0.0163474
610.953	0.0163017
611.031	0.0162646
611.109	0.0162640
611.187	0.0163699
611.265	0.0163381
611.343	0.0163480
611.421	0.0163352
611.499	0.0162855
611.578	0.0162637
611.656	0.0162582
611.734	0.0162771
611.812	0.0162002
611.890	0.0163157
611.968	0.0163736
612.046	0.0162607
612.124	0.0162260
612.203	0.0162292
612.281	0.0162902
612.359	0.0161828
612.437	0.0162483
612.515	0.0163564
612.593	0.0162434
612.671	0.0163029
612.749	0.0162266
612.828	0.0162003
612.906	0.0161833
612.984	0.0162157
613.062	0.0162658
613.140	0.0162408
613.218	0.0163008
613.296	0.0163247
613.374	0.0163798
613.453	0.0162766
613.531	0.0163058
613.609	0.0163326
613.687	0.0163486
613.765	0.0162491
613.843	0.0162375
613.921	0.0162843
613.999	0.0163683
614.078	0.0162431
614.156	0.0162149
614.234	0.0163535
614.312	0.0162358
614.390	0.0162314
614.468	0.0161794
614.546	0.0161036
614.624	0.0161991
614.703	0.0162341
614.781	0.0162616
614.859	0.0162312
614.937	0.0161147
615.015	0.0163229
615.093	0.0163223
615.171	0.0162431
615.249	0.0161848
615.328	0.0163042
615.406	0.0161664
615.484	0.0162087
615.562	0.0162614
615.640	0.0162134
615.718	0.0164206
615.796	0.0161385
615.874	0.0162281
615.953	0.0162689
616.031	0.0161916
616.109	0.0162457
616.187	0.0162003
616.265	0.0161140
616.343	0.0162295
616.421	0.0162545
616.499	0.0162003
616.578	0.0162946
616.656	0.0162611
616.734	0.0161189
616.812	0.0162164
616.890	0.0162582
616.968	0.0162177
617.046	0.0161646
617.124	0.0161291
617.203	0.0162397
617.281	0.0160847
617.359	0.0162203
617.437	0.0162572
617.515	0.0162518
617.593	0.0162752
617.671	0.0162366
617.749	0.0163287
617.828	0.0163614
617.906	0.0162883
617.984	0.0161807
618.062	0.0162483
618.140	0.0162576
618.218	0.0161979
618.296	0.0162274
618.374	0.0162560
618.453	0.0162186
618.531	0.0162344
618.609	0.0163744
618.687	0.0162318
618.765	0.0163477
618.843	0.0162844
618.921	0.0161902
618.999	0.0161887
619.078	0.0162834
619.156	0.0162679
619.234	0.0160257
619.312	0.0161427
619.390	0.0163102
619.468	0.0163373
619.546	0.0162994
619.624	0.0162373
619.703	0.0163673
619.781	0.0163248
619.859	0.0161557
619.937	0.0162499
620.015	0.0163290
620.093	0.0162907
620.171	0.0163345
620.249	0.0163125
620.328	0.0163354
620.406	0.0162133
620.484	0.0161967
620.562	0.0163358
620.640	0.0162424
620.718	0.0162185
620.796	0.0162724
620.874	0.0162724
620.953	0.0162260
621.031	0.0163387
621.109	0.0161660
621.187	0.0161929
621.265	0.0162615
621.343	0.0162534
621.421	0.0163001
621.499	0.0163087
621.578	0.0162997
621.656	0.0161724
621.734	0.0162849
621.812	0.0162086
621.890	0.0163343
621.968	0.0162994
622.046	0.0163268
622.124	0.0162437
622.203	0.0163464
622.281	0.0163865
622.359	0.0162374
622.437	0.0162742
622.515	0.0161922
622.593	0.0163107
622.671	0.0163223
622.749	0.0162770
622.828	0.0163235
622.906	0.0162759
622.984	0.0162598
623.062	0.0161990
623.140	0.0162119
623.218	0.0162660
623.296	0.0163042
623.374	0.0162929
623.453	0.0161916
623.531	0.0163461
623.609	0.0162258
623.687	0.0163273
623.765	0.0163274
623.843	0.0163280
623.921	0.0163479
623.999	0.0163149
624.078	0.0163547
624.156	0.0162210
624.234	0.0162707
624.312	0.0162799
624.390	0.0163017
624.468	0.0163859
624.546	0.0164256
624.624	0.0162735
624.703	0.0162987
624.781	0.0163385
624.859	0.0163030
624.937	0.0163068
625.015	0.0162793
625.093	0.0162650
625.171	0.0164345
625.249	0.0161707
625.328	0.0163117
625.406	0.0162800
625.484	0.0162623
625.562	0.0162914
625.640	0.0163326
625.718	0.0162913
625.796	0.0162125
625.874	0.0164055
625.953	0.0163669
626.031	0.0163532
626.109	0.0162758
626.187	0.0162840
626.265	0.0163208
626.343	0.0162498
626.421	0.0163284
626.499	0.0163852
626.578	0.0163731
626.656	0.0163033
626.734	0.0162182
626.812	0.0163766
626.890	0.0162265
626.968	0.0162811
627.046	0.0162746
627.124	0.0163324
627.203	0.0162944
627.281	0.0163216
627.359	0.0162934
627.437	0.0163499
627.515	0.0162144
627.593	0.0163556
627.671	0.0162163
627.749	0.0162752
627.828	0.0163525
627.906	0.0163057
627.984	0.0161362
628.062	0.0161275
628.140	0.0163701
628.218	0.0162867
628.296	0.0163401
628.374	0.0163393
628.453	0.0163427
628.531	0.0162622
628.609	0.0161956
628.687	0.0162502
628.765	0.0163245
628.843	0.0163884
628.921	0.0163786
628.999	0.0164343
629.078	0.0162005
629.156	0.0162525
629.234	0.0162753
629.312	0.0161645
629.390	0.0162165
629.468	0.0162105
629.546	0.0162193
629.624	0.0163160
629.703	0.0162521
629.781	0.0162212
629.859	0.0162463
629.937	0.0163388
630.015	0.0163336
630.093	0.0163159
630.171	0.0162401
630.249	0.0161910
630.328	0.0163203
630.406	0.0162633
630.484	0.0163936
630.562	0.0162165
630.640	0.0163035
630.718	0.0162974
630.796	0.0163157
630.874	0.0161546
630.953	0.0161942
631.031	0.0163280
631.109	0.0164230
631.187	0.0162714
631.265	0.0162035
631.343	0.0161504
631.421	0.0162852
631.499	0.0163472
631.578	0.0163416
631.656	0.0163050
631.734	0.0162392
631.812	0.0162291
631.890	0.0162453
631.968	0.0162211
632.046	0.0162514
632.124	0.0162295
632.203	0.0162239
632.281	0.0163722
632.359	0.0162934
632.437	0.0163527
632.515	0.0163002
632.593	0.0161945
632.671	0.0162973
632.749	0.0163173
632.828	0.0162814
632.906	0.0162664
632.984	0.0164912
633.062	0.0162360
633.140	0.0162920
633.218	0.0162469
633.296	0.0162812
633.374	0.0162804
633.453	0.0162036
633.531	0.0163102
633.609	0.0163250
633.687	0.0162081
633.765	0.0162021
633.843	0.0162407
633.921	0.0161882
633.999	0.0162785
634.078	0.0162102
634.156	0.0163292
634.234	0.0163139
634.312	0.0163583
634.390	0.0162448
634.468	0.0162071
634.546	0.0162545
634.624	0.0162130
634.703	0.0161726
634.781	0.0162547
634.859	0.0162726
634.937	0.0162251
635.015	0.0161718
635.093	0.0162553
635.171	0.0161943
635.249	0.0162634
635.328	0.0162296
635.406	0.0161479
635.484	0.0161322
635.562	0.0162648
635.640	0.0163973
635.718	0.0161327
635.796	0.0160040
635.874	0.0162408
635.953	0.0161997
636.031	0.0162096
636.109	0.0162035
636.187	0.0162848
636.265	0.0162682
636.343	0.0162267
636.421	0.0162782
636.499	0.0161836
636.578	0.0163509
636.656	0.0162403
636.734	0.0162369
636.812	0.0163327
636.890	0.0164110
636.968	0.0163015
637.046	0.0162966
637.124	0.0160703
637.203	0.0162454
637.281	0.0161633
637.359	0.0162566
637.437	0.0162056
637.515	0.0161637
637.593	0.0162339
637.671	0.0161977
637.749	0.0162918
637.828	0.0163009
637.906	0.0161864
637.984	0.0161463
638.062	0.0162344
638.140	0.0162349
638.218	0.0162646
638.296	0.0163023
638.374	0.0162227
638.453	0.0162280
638.531	0.0160995
638.609	0.0161427
638.687	0.0162764
638.765	0.0162448
638.843	0.0162830
638.921	0.0161852
638.999	0.0163047
639.078	0.0163073
639.156	0.0162433
639.234	0.0162598
639.312	0.0162707
639.390	0.0161884
639.468	0.0162107
639.546	0.0162339
639.624	0.0162859
639.703	0.0161154
639.781	0.0161756
639.859	0.0163361
639.937	0.0162585
640.015	0.0162431
640.093	0.0162788
640.171	0.0163406
640.249	0.0161163
640.328	0.0162292
640.406	0.0162793
640.484	0.0163432
640.562	0.0162718
640.640	0.0164015
640.718	0.0163283
640.796	0.0162195
640.874	0.0161456
640.953	0.0161224
641.031	0.0162953
641.109	0.0162589
641.187	0.0162299
641.265	0.0161717
641.343	0.0162562
641.421	0.0163018
641.499	0.0163447
641.578	0.0162857
641.656	0.0162649
641.734	0.0161590
641.812	0.0162241
641.890	0.0162711
641.968	0.0162625
642.046	0.0162029
642.124	0.0160327
642.203	0.0161338
642.281	0.0162405
642.359	0.0162196
642.437	0.0162144
642.515	0.0161933
642.593	0.0162000
642.671	0.0161877
642.749	0.0163237
642.828	0.0161805
642.906	0.0160562
642.984	0.0161854
643.062	0.0161034
643.140	0.0162198
643.218	0.0162882
643.296	0.0162643
643.374	0.0162154
643.453	0.0162476
643.531	0.0162622
643.609	0.0163234
643.687	0.0161742
643.765	0.0162523
643.843	0.0163201
643.921	0.0161979
643.999	0.0160634
644.078	0.0162826
644.156	0.0162440
644.234	0.0162915
644.312	0.0162905
644.390	0.0162589
644.468	0.0161749
644.546	0.0162621
644.624	0.0161330
644.703	0.0162998
644.781	0.0163429
644.859	0.0163027
644.937	0.0162188
645.015	0.0162350
645.093	0.0163434
645.171	0.0163377
645.249	0.0162488
645.328	0.0162485
645.406	0.0162440
645.484	0.0162749
645.562	0.0162844
645.640	0.0163361
645.718	0.0163148
645.796	0.0162589
645.874	0.0162071
645.953	0.0163803
646.031	0.0162088
646.109	0.0163490
646.187	0.0163836
646.265	0.0163372
646.343	0.0162691
646.421	0.0161921
646.499	0.0162884
646.578	0.0163158
646.656	0.0162613
646.734	0.0163450
646.812	0.0161034
646.890	0.0161611
646.968	0.0163039
647.046	0.0163020
647.124	0.0162534
647.203	0.0163464
647.281	0.0162849
647.359	0.0163493
647.437	0.0163051
647.515	0.0162715
647.593	0.0163542
647.671	0.0163085
647.749	0.0162583
647.828	0.0163600
647.906	0.0163180
647.984	0.0162663
648.062	0.0163097
648.140	0.0161865
648.218	0.0163809
648.296	0.0163158
648.374	0.0163369
648.453	0.0163275
648.531	0.0163007
648.609	0.0162516
648.687	0.0161799
648.765	0.0163163
648.843	0.0163071
648.921	0.0162151
648.999	0.0162468
649.078	0.0161858
649.156	0.0163521
649.234	0.0161990
649.312	0.0162556
649.390	0.0162508
649.468	0.0162975
649.546	0.0162267
649.624	0.0163641
649.703	0.0162337
649.781	0.0163087
649.859	0.0162411
649.937	0.0162710
650.015	0.0162285
650.093	0.0162049
650.171	0.0162890
650.249	0.0163121
650.328	0.0162652
650.406	0.0163879
650.484	0.0162714
650.562	0.0163234
650.640	0.0162677
650.718	0.0162365
650.796	0.0163400
650.874	0.0163215
650.953	0.0161938
651.031	0.0162150
651.109	0.0162861
651.187	0.0163004
651.265	0.0164610
651.343	0.0162766
651.421	0.0161849
651.499	0.0161099
651.578	0.0162126
651.656	0.0162028
651.734	0.0163303
651.812	0.0163835
651.890	0.0163853
651.968	0.0163419
652.046	0.0162856
652.124	0.0163673
652.203	0.0162717
652.281	0.0162521
652.359	0.0161871
652.437	0.0161011
652.515	0.0162701
652.593	0.0162480
652.671	0.0163417
652.749	0.0162506
652.828	0.0162658
652.906	0.0163454
652.984	0.0161523
653.062	0.0163285
653.140	0.0163628
653.218	0.0163620
653.296	0.0163371
653.374	0.0161926
653.453	0.0162219
653.531	0.0163110
653.609	0.0162386
653.687	0.0162648
653.765	0.0162116
653.843	0.0161847
653.921	0.0162851
653.999	0.0161891
654.078	0.0162543
654.156	0.0162997
654.234	0.0162961
654.312	0.0163011
654.390	0.0162836
654.468	0.0162250
654.546	0.0163058
654.624	0.0162168
654.703	0.0161829
654.781	0.0162186
654.859	0.0162569
654.937	0.0163041
655.015	0.0162386
655.093	0.0162820
655.171	0.0161720
655.249	0.0162494
655.328	0.0162342
655.406	0.0162713
655.484	0.0163379
655.562	0.0162766
655.640	0.0161864
655.718	0.0162856
655.796	0.0161027
655.874	0.0162341
655.953	0.0163007
656.031	0.0162414
656.109	0.0162125
656.187	0.0162701
656.265	0.0161665
656.343	0.0163869
656.421	0.0162809
656.499	0.0161844
656.578	0.0163246
656.656	0.0162306
656.734	0.0162586
656.812	0.0161965
656.890	0.0162730
656.968	0.0162917
657.046	0.0162843
657.124	0.0161002
657.203	0.0162369
657.281	0.0161832
657.359	0.0161769
657.437	0.0161792
657.515	0.0161781
657.593	0.0161543
657.671	0.0162317
657.749	0.0162569
657.828	0.0162409
657.906	0.0161208
657.984	0.0162164
658.062	0.0161877
658.140	0.0160855
658.218	0.0160780
658.296	0.0162570
658.374	0.0162202
658.453	0.0162271
658.531	0.0163214
658.609	0.0163058
658.687	0.0162696
658.765	0.0163033
658.843	0.0162456
658.921	0.0160805
658.999	0.0162307
659.078	0.0162743
659.156	0.0162503
659.234	0.0161878
659.312	0.0161877
659.390	0.0162798
659.468	0.0161769
659.546	0.0162796
659.624	0.0161842
659.703	0.0161460
659.781	0.0162655
659.859	0.0162105
659.937	0.0162988
660.015	0.0161400
660.093	0.0161913
660.171	0.0162421
660.249	0.0162225
660.328	0.0162767
660.406	0.0161469
660.484	0.0162446
660.562	0.0162604
660.640	0.0161105
660.718	0.0162106
660.796	0.0162601
660.874	0.0162414
660.953	0.0162522
661.031	0.0161561
661.109	0.0161857
661.187	0.0162366
661.265	0.0162080
661.343	0.0162361
661.421	0.0163098
661.499	0.0161993
661.578	0.0161882
661.656	0.0162106
661.734	0.0161749
661.812	0.0161649
661.890	0.0162424
661.968	0.0162236
662.046	0.0162514
662.124	0.0164030
662.203	0.0161840
662.281	0.0162302
662.359	0.0162836
662.437	0.0161653
662.515	0.0161282
662.593	0.0161555
662.671	0.0161919
662.749	0.0162325
662.828	0.0161629
662.906	0.0162292
662.984	0.0161993
663.062	0.0162192
663.140	0.0162106
663.218	0.0161370
663.296	0.0162651
663.374	0.0161290
663.453	0.0160852
663.531	0.0162082
663.609	0.0160543
663.687	0.0163995
663.765	0.0164022
663.843	0.0162048
663.921	0.0162025
663.999	0.0163046
664.078	0.0162521
664.156	0.0162583
664.234	0.0161642
664.312	0.0161059
664.390	0.0163134
664.468	0.0161934
664.546	0.0161578
664.624	0.0161318
664.703	0.0161752
664.781	0.0163999
664.859	0.0162479
664.937	0.0161854
665.015	0.0162627
665.093	0.0162870
665.171	0.0163918
665.249	0.0162750
665.328	0.0163068
665.406	0.0160267
665.484	0.0162894
665.562	0.0161792
665.640	0.0162849
665.718	0.0162143
665.796	0.0162397
665.874	0.0163607
665.953	0.0163242
666.031	0.0162829
666.109	0.0163142
666.187	0.0162942
666.265	0.0162734
666.343	0.0163300
666.421	0.0162157
666.499	0.0162748
666.578	0.0162585
666.656	0.0162098
666.734	0.0162270
666.812	0.0163405
666.890	0.0161938
666.968	0.0163758
667.046	0.0163864
667.124	0.0163794
667.203	0.0162714
667.281	0.0163175
667.359	0.0164008
667.437	0.0162646
667.515	0.0164110
667.593	0.0162330
667.671	0.0163682
667.749	0.0163850
667.828	0.0163718
667.906	0.0162396
667.984	0.0163669
668.062	0.0162746
668.140	0.0162177
668.218	0.0161662
668.296	0.0163184
668.374	0.0164167
668.453	0.0162708
668.531	0.0162350
668.609	0.0162645
668.687	0.0161888
668.765	0.0162506
668.843	0.0162791
668.921	0.0161887
668.999	0.0162704
669.078	0.0161983
669.156	0.0162649
669.234	0.0163332
669.312	0.0161732
669.390	0.0161987
669.468	0.0162632
669.546	0.0161452
669.624	0.0162023
669.703	0.0162505
669.781	0.0161617
669.859	0.0161497
669.937	0.0163580
670.015	0.0163943
670.093	0.0160522
670.171	0.0162071
670.249	0.0161362
670.328	0.0164272
670.406	0.0161938
670.484	0.0161969
670.562	0.0162022
670.640	0.0163036
670.718	0.0163212
670.796	0.0160526
670.874	0.0163046
670.953	0.0162414
671.031	0.0162606
671.109	0.0162369
671.187	0.0162692
671.265	0.0161901
671.343	0.0162194
671.421	0.0162109
671.499	0.0163433
671.578	0.0161171
671.656	0.0161501
671.734	0.0162900
671.812	0.0162914
671.890	0.0163522
671.968	0.0163166
672.046	0.0162186
672.124	0.0162514
672.203	0.0163718
672.281	0.0162554
672.359	0.0161688
672.437	0.0162892
672.515	0.0162256
672.593	0.0161729
672.671	0.0162739
672.749	0.0162509
672.828	0.0162400
672.906	0.0162377
672.984	0.0162778
673.062	0.0161055
673.140	0.0161462
673.218	0.0162727
673.296	0.0163172
673.374	0.0162642
673.453	0.0162968
673.531	0.0162335
673.609	0.0163018
673.687	0.0162583
673.765	0.0163036
673.843	0.0162009
673.921	0.0162282
673.999	0.0161789
674.078	0.0162791
674.156	0.0163151
674.234	0.0163898
674.312	0.0162418
674.390	0.0163100
674.468	0.0161818
674.546	0.0163232
674.624	0.0163157
674.703	0.0163393
674.781	0.0162346
674.859	0.0163058
674.937	0.0163086
675.015	0.0162814
675.093	0.0162542
675.171	0.0162404
675.249	0.0162817
675.328	0.0164175
675.406	0.0162930
675.484	0.0163014
675.562	0.0163551
675.640	0.0163477
675.718	0.0162202
675.796	0.0163007
675.874	0.0162246
675.953	0.0163894
676.031	0.0162545
676.109	0.0162926
676.187	0.0163760
676.265	0.0162271
676.343	0.0163382
676.421	0.0163601
676.499	0.0162463
676.578	0.0163094
676.656	0.0162511
676.734	0.0163551
676.812	0.0162342
676.890	0.0161983
676.968	0.0162415
677.046	0.0161842
677.124	0.0162389
677.203	0.0163004
677.281	0.0162398
677.359	0.0161948
677.437	0.0161302
677.515	0.0162326
677.593	0.0162723
677.671	0.0162618
677.749	0.0162131
677.828	0.0162612
677.906	0.0162391
677.984	0.0160560
678.062	0.0161595
678.140	0.0162907
678.218	0.0163933
678.296	0.0162038
678.374	0.0161413
678.453	0.0162721
678.531	0.0163400
678.609	0.0161208
678.687	0.0160921
678.765	0.0163992
678.843	0.0162685
678.921	0.0162723
678.999	0.0161816
679.078	0.0161412
679.156	0.0162935
679.234	0.0163372
679.312	0.0161686
679.390	0.0162090
679.468	0.0161510
679.546	0.0161704
679.624	0.0160933
679.703	0.0163742
679.781	0.0162891
679.859	0.0161687
679.937	0.0163242
680.015	0.0161642
680.093	0.0161954
680.171	0.0162598
680.249	0.0163585
680.328	0.0162562
680.406	0.0160776
680.484	0.0161867
680.562	0.0162124
680.640	0.0162107
680.718	0.0161946
680.796	0.0162563
680.874	0.0163324
680.953	0.0163093
681.031	0.0162615
681.109	0.0163026
681.187	0.0162145
681.265	0.0162056
681.343	0.0162178
681.421	0.0162426
681.499	0.0162974
681.578	0.0162301
681.656	0.0162287
681.734	0.0161669
681.812	0.0163251
681.890	0.0162205
681.968	0.0163484
682.046	0.0163618
682.124	0.0163032
682.203	0.0161414
682.281	0.0162833
682.359	0.0161997
682.437	0.0164120
682.515	0.0162955
682.593	0.0162272
682.671	0.0162694
682.749	0.0162257
682.828	0.0162739
682.906	0.0163588
682.984	0.0162704
683.062	0.0163350
683.140	0.0163348
683.218	0.0163786
683.296	0.0161536
683.374	0.0162619
683.453	0.0162904
683.531	0.0163759
683.609	0.0164906
683.687	0.0163320
683.765	0.0162419
683.843	0.0162560
683.921	0.0163894
683.999	0.0162626
684.078	0.0162882
684.156	0.0163038
684.234	0.0162466
684.312	0.0162198
684.390	0.0163367
684.468	0.0161219
684.546	0.0161899
684.624	0.0162650
684.703	0.0164769
684.781	0.0162366
684.859	0.0163286
684.937	0.0163273
685.015	0.0163544
685.093	0.0164276
685.171	0.0162386
685.249	0.0162291
685.328	0.0162357
685.406	0.0162447
685.484	0.0163377
685.562	0.0163389
685.640	0.0162328
685.718	0.0163966
685.796	0.0163030
685.874	0.0162698
685.953	0.0161269
686.031	0.0162970
686.109	0.0163397
686.187	0.0164360
686.265	0.0162154
686.343	0.0162667
686.421	0.0163615
686.499	0.0162103
686.578	0.0163097
686.656	0.0163363
686.734	0.0162469
686.812	0.0162473
686.890	0.0162889
686.968	0.0163803
687.046	0.0163232
687.124	0.0163324
687.203	0.0163075
687.281	0.0163042
687.359	0.0162914
687.437	0.0162273
687.515	0.0162868
687.593	0.0164320
687.671	0.0163065
687.749	0.0163476
687.828	0.0163680
687.906	0.0162939
687.984	0.0163411
688.062	0.0162759
688.140	0.0162982
688.218	0.0163765
688.296	0.0163107
688.374	0.0162533
688.453	0.0162338
688.531	0.0164249
688.609	0.0163071
688.687	0.0162772
688.765	0.0162267
688.843	0.0163360
688.921	0.0162103
688.999	0.0163433
689.078	0.0162420
689.156	0.0162748
689.234	0.0163313
689.312	0.0162704
689.390	0.0163783
689.468	0.0162952
689.546	0.0162392
689.624	0.0164111
689.703	0.0163580
689.781	0.0162685
689.859	0.0162743
689.937	0.0162783
690.015	0.0162014
690.093	0.0162103
690.171	0.0161716
690.249	0.0161410
690.328	0.0162999
690.406	0.0161734
690.484	0.0162740
690.562	0.0161691
690.640	0.0161922
690.718	0.0161885
690.796	0.0163371
690.874	0.0160933
690.953	0.0163041
691.031	0.0162138
691.109	0.0163162
691.187	0.0162927
691.265	0.0164037
691.343	0.0163784
691.421	0.0161896
691.499	0.0162284
691.578	0.0162203
691.656	0.0162563
691.734	0.0162669
691.812	0.0163477
691.890	0.0163029
691.968	0.0163898
692.046	0.0164306
692.124	0.0163351
692.203	0.0163416
692.281	0.0162689
692.359	0.0162808
692.437	0.0162996
692.515	0.0162721
692.593	0.0162572
692.671	0.0162126
692.749	0.0162530
692.828	0.0161784
692.906	0.0162689
692.984	0.0163860
693.062	0.0164487
693.140	0.0163615
693.218	0.0162512
693.296	0.0161566
693.374	0.0163962
693.453	0.0163644
693.531	0.0162343
693.609	0.0162785
693.687	0.0163372
693.765	0.0164400
693.843	0.0163496
693.921	0.0162440
693.999	0.0163686
694.078	0.0163587
694.156	0.0163641
694.234	0.0162942
694.312	0.0161987
694.390	0.0163990
694.468	0.0161505
694.546	0.0162656
694.624	0.0161990
694.703	0.0163165
694.781	0.0164018
694.859	0.0162047
694.937	0.0162928
695.015	0.0162977
695.093	0.0161739
695.171	0.0161610
695.249	0.0162763
695.328	0.0162207
695.406	0.0162725
695.484	0.0162209
695.562	0.0162833
695.640	0.0163171
695.718	0.0164054
695.796	0.0162572
695.874	0.0161660
695.953	0.0163894
696.031	0.0162769
696.109	0.0163087
696.187	0.0163209
696.265	0.0163455
696.343	0.0161964
696.421	0.0162121
696.499	0.0163833
696.578	0.0163612
696.656	0.0163625
696.734	0.0163245
696.812	0.0163329
696.890	0.0163589
696.968	0.0162127
697.046	0.0162693
697.124	0.0162850
697.203	0.0162727
697.281	0.0163029
697.359	0.0163976
697.437	0.0164178
697.515	0.0162535
697.593	0.0164996
697.671	0.0164192
697.749	0.0161794
697.828	0.0163000
697.906	0.0163160
697.984	0.0162584
698.062	0.0162824
698.140	0.0162536
698.218	0.0162501
698.296	0.0163890
698.374	0.0162785
698.453	0.0162700
698.531	0.0163358
698.609	0.0162041
698.687	0.0161938
698.765	0.0163245
698.843	0.0162461
698.921	0.0161628
698.999	0.0161983
699.078	0.0163409
699.156	0.0161682
699.234	0.0162190
699.312	0.0163176
699.390	0.0162127
699.468	0.0162315
699.546	0.0162866
699.624	0.0164349
699.703	0.0164354
699.781	0.0163292
699.859	0.0162337
699.937	0.0163370
700.015	0.0162882
700.093	0.0162650
700.171	0.0162730
700.249	0.0162564
700.328	0.0164098
700.406	0.0162531
700.484	0.0162451
700.562	0.0162634
700.640	0.0163519
700.718	0.0163661
700.796	0.0163260
700.874	0.0163400
700.953	0.0163418
701.031	0.0162339
701.109	0.0163721
701.187	0.0162355
701.265	0.0161784
701.343	0.0162771
701.421	0.0162206
701.499	0.0162569
701.578	0.0162233
701.656	0.0160866
701.734	0.0161825
701.812	0.0163102
701.890	0.0162702
701.968	0.0162262
702.046	0.0161581
702.124	0.0162162
702.203	0.0161655
702.281	0.0162215
702.359	0.0163062
702.437	0.0161746
702.515	0.0161351
702.593	0.0161975
702.671	0.0163780
702.749	0.0162827
702.828	0.0162914
702.906	0.0162516
702.984	0.0162298
703.062	0.0162283
703.140	0.0163583
703.218	0.0162908
703.296	0.0161517
703.374	0.0161635
703.453	0.0163333
703.531	0.0163124
703.609	0.0162584
703.687	0.0163683
703.765	0.0162772
703.843	0.0163036
703.921	0.0162548
703.999	0.0163831
704.078	0.0163647
704.156	0.0163447
704.234	0.0164335
704.312	0.0162907
704.390	0.0163037
704.468	0.0163699
704.546	0.0162609
704.624	0.0162984
704.703	0.0163178
704.781	0.0163208
704.859	0.0161108
704.937	0.0161862
705.015	0.0161488
705.093	0.0163935
705.171	0.0162087
705.249	0.0162323
705.328	0.0163313
705.406	0.0162231
705.484	0.0163951
705.562	0.0161048
705.640	0.0162579
705.718	0.0163735
705.796	0.0162801
705.874	0.0162710
705.953	0.0162997
706.031	0.0162690
706.109	0.0162617
706.187	0.0162315
706.265	0.0163000
706.343	0.0163159
706.421	0.0162450
706.499	0.0163145
706.578	0.0162405
706.656	0.0163802
706.734	0.0162670
706.812	0.0163403
706.890	0.0163396
706.968	0.0161781
707.046	0.0162326
707.124	0.0162502
707.203	0.0163364
707.281	0.0161858
707.359	0.0163647
707.437	0.0162081
707.515	0.0161773
707.593	0.0162476
707.671	0.0162804
707.749	0.0162923
707.828	0.0163553
707.906	0.0163777
707.984	0.0163248
708.062	0.0163614
708.140	0.0162418
708.218	0.0162457
708.296	0.0162913
708.374	0.0163390
708.453	0.0162179
708.531	0.0161525
708.609	0.0162141
708.687	0.0162602
708.765	0.0161461
708.843	0.0162341
708.921	0.0161636
708.999	0.0162267
709.078	0.0163186
709.156	0.0162455
709.234	0.0161558
709.312	0.0162840
709.390	0.0160967
709.468	0.0162108
709.546	0.0161630
709.624	0.0162091
709.703	0.0162014
709.781	0.0160955
709.859	0.0161398
709.937	0.0162708
710.015	0.0161358
710.093	0.0163320
710.171	0.0163100
710.249	0.0162339
710.328	0.0160854
710.406	0.0162912
710.484	0.0161768
710.562	0.0162679
710.640	0.0161956
710.718	0.0162276
710.796	0.0162116
710.874	0.0162306
710.953	0.0160958
711.031	0.0162847
711.109	0.0161508
711.187	0.0161723
711.265	0.0161653
711.343	0.0161596
711.421	0.0162532
711.499	0.0161404
711.578	0.0162419
711.656	0.0163516
711.734	0.0162260
711.812	0.0162859
711.890	0.0162080
711.968	0.0162387
712.046	0.0163530
712.124	0.0163578
712.203	0.0163280
712.281	0.0163677
712.359	0.0163201
712.437	0.0162788
712.515	0.0162453
712.593	0.0162138
712.671	0.0162487
712.749	0.0162196
712.828	0.0162196
712.906	0.0163469
712.984	0.0161893
713.062	0.0163490
713.140	0.0163068
713.218	0.0162523
713.296	0.0163349
713.374	0.0164566
713.453	0.0163300
713.531	0.0162511
713.609	0.0164262
713.687	0.0162798
713.765	0.0163273
713.843	0.0163077
713.921	0.0161646
713.999	0.0161496
714.078	0.0160069
714.156	0.0161990
714.234	0.0163145
714.312	0.0162489
714.390	0.0161647
714.468	0.0162359
714.546	0.0162031
714.624	0.0162144
714.703	0.0161478
714.781	0.0165504
714.859	0.0163422
714.937	0.0161847
715.015	0.0162753
715.093	0.0163278
715.171	0.0163747
715.249	0.0163683
715.328	0.0164344
715.406	0.0163222
715.484	0.0163025
715.562	0.0164748
715.640	0.0165078
715.718	0.0161333
715.796	0.0162537
715.874	0.0162170
715.953	0.0161028
716.031	0.0162256
716.109	0.0161260
716.187	0.0160738
716.265	0.0160510
716.343	0.0159850
716.421	0.0160664
716.499	0.0162083
716.578	0.0161240
716.656	0.0159740
716.734	0.0160659
716.812	0.0160806
716.890	0.0161485
716.968	0.0162899
717.046	0.0162656
717.124	0.0162296
717.203	0.0163761
717.281	0.0162293
717.359	0.0163841
717.437	0.0163333
717.515	0.0162845
717.593	0.0163547
717.671	0.0164471
717.749	0.0163345
717.828	0.0163696
717.906	0.0164006
717.984	0.0163976
718.062	0.0163033
718.140	0.0162331
718.218	0.0163673
718.296	0.0162396
718.374	0.0162022
718.453	0.0160972
718.531	0.0160483
718.609	0.0160712
718.687	0.0161916
718.765	0.0161114
718.843	0.0161250
718.921	0.0160799
718.999	0.0161998
719.078	0.0162854
719.156	0.0163561
719.234	0.0163145
719.312	0.0163020
719.390	0.0162226
719.468	0.0162768
719.546	0.0163210
719.624	0.0163507
719.703	0.0163151
719.781	0.0163574
719.859	0.0163730
719.937	0.0163213
720.015	0.0163884
720.093	0.0162575
720.171	0.0162868
720.249	0.0162054
720.328	0.0162602
720.406	0.0162876
720.484	0.0163911
720.562	0.0162227
720.640	0.0162813
720.718	0.0162901
720.796	0.0162025
720.874	0.0163068
720.953	0.0162992
721.031	0.0161938
721.109	0.0162939
721.187	0.0162004
721.265	0.0163916
721.343	0.0163139
721.421	0.0162696
721.499	0.0164220
721.578	0.0162842
721.656	0.0161178
721.734	0.0162567
721.812	0.0164754
721.890	0.0163780
721.968	0.0163964
722.046	0.0163071
722.124	0.0163034
722.203	0.0163484
722.281	0.0163445
722.359	0.0162252
722.437	0.0164177
722.515	0.0163657
722.593	0.0162814
722.671	0.0162877
722.749	0.0163401
722.828	0.0162705
722.906	0.0161251
722.984	0.0162507
723.062	0.0162922
723.140	0.0163284
723.218	0.0163128
723.296	0.0162543
723.374	0.0162402
723.453	0.0162888
723.531	0.0163786
723.609	0.0162654
723.687	0.0161967
723.765	0.0163557
723.843	0.0162444
723.921	0.0163164
723.999	0.0163362
724.078	0.0163514
724.156	0.0162410
724.234	0.0164190
724.312	0.0164124
724.390	0.0162586
724.468	0.0162396
724.546	0.0164396
724.624	0.0164393
724.703	0.0162593
724.781	0.0161987
724.859	0.0163607
724.937	0.0163429
725.015	0.0163313
725.093	0.0162643
725.171	0.0163681
725.249	0.0163580
725.328	0.0163063
725.406	0.0163152
725.484	0.0162757
725.562	0.0162805
725.640	0.0164187
725.718	0.0163611
725.796	0.0161901
725.874	0.0162477
725.953	0.0162656
726.031	0.0163258
726.109	0.0163551
726.187	0.0161908
726.265	0.0161874
726.343	0.0162508
726.421	0.0163587
726.499	0.0161953
726.578	0.0161290
726.656	0.0162775
726.734	0.0162763
726.812	0.0163200
726.890	0.0162357
726.968	0.0161834
727.046	0.0162304
727.124	0.0162724
727.203	0.0163543
727.281	0.0162096
727.359	0.0162321
727.437	0.0163833
727.515	0.0163023
727.593	0.0162139
727.671	0.0162230
727.749	0.0162025
727.828	0.0162965
727.906	0.0161189
727.984	0.0161664
728.062	0.0162325
728.140	0.0163263
728.218	0.0162787
728.296	0.0161893
728.374	0.0161146
728.453	0.0163087
728.531	0.0161208
728.609	0.0162251
728.687	0.0161786
728.765	0.0160991
728.843	0.0163216
728.921	0.0162032
728.999	0.0161163
729.078	0.0163326
729.156	0.0162855
729.234	0.0162511
729.312	0.0162108
729.390	0.0162227
729.468	0.0162570
729.546	0.0161417
729.624	0.0161994
729.703	0.0163374
729.781	0.0163615
729.859	0.0162482
729.937	0.0162605
730.015	0.0162476
730.093	0.0162801
730.171	0.0162437
730.249	0.0161809
730.328	0.0164032
730.406	0.0162378
730.484	0.0162448
730.562	0.0161032
730.640	0.0161906
730.718	0.0162328
730.796	0.0161131
730.874	0.0161184
730.953	0.0163011
731.031	0.0162522
731.109	0.0162265
731.187	0.0162050
731.265	0.0162179
731.343	0.0161669
731.421	0.0163219
731.499	0.0161050
731.578	0.0162388
731.656	0.0163372
731.734	0.0162722
731.812	0.0161230
731.890	0.0162709
731.968	0.0162607
732.046	0.0162267
732.124	0.0162497
732.203	0.0162501
732.281	0.0163003
732.359	0.0162479
732.437	0.0163638
732.515	0.0162273
732.593	0.0162370
732.671	0.0162019
732.749	0.0162776
732.828	0.0162573
732.906	0.0161787
732.984	0.0161210
733.062	0.0162075
733.140	0.0162053
733.218	0.0162658
733.296	0.0162841
733.374	0.0160890
733.453	0.0161987
733.531	0.0161324
733.609	0.0162086
733.687	0.0162254
733.765	0.0162920
733.843	0.0162526
733.921	0.0161065
733.999	0.0161294
734.078	0.0162318
734.156	0.0161524
734.234	0.0162267
734.312	0.0162508
734.390	0.0163194
734.468	0.0162707
734.546	0.0161977
734.624	0.0162885
734.703	0.0161467
734.781	0.0163234
734.859	0.0162985
734.937	0.0162595
735.015	0.0161915
735.093	0.0161040
735.171	0.0162562
735.249	0.0162471
735.328	0.0162623
735.406	0.0160211
735.484	0.0161738
735.562	0.0161514
735.640	0.0162321
735.718	0.0163156
735.796	0.0161948
735.874	0.0162639
735.953	0.0163557
736.031	0.0163278
736.109	0.0162386
736.187	0.0163470
736.265	0.0161905
736.343	0.0162138
736.421	0.0163295
736.499	0.0163758
736.578	0.0162621
736.656	0.0163378
736.734	0.0162657
736.812	0.0162144
736.890	0.0163503
736.968	0.0161551
737.046	0.0161643
737.124	0.0162290
737.203	0.0162771
737.281	0.0162671
737.359	0.0162231
737.437	0.0162791
737.515	0.0163218
737.593	0.0163091
737.671	0.0161358
737.749	0.0163406
737.828	0.0162392
737.906	0.0162365
737.984	0.0161890
738.062	0.0161967
738.140	0.0162795
738.218	0.0162247
738.296	0.0161228
738.374	0.0162383
738.453	0.0164311
738.531	0.0163225
738.609	0.0161792
738.687	0.0162224
738.765	0.0161597
738.843	0.0162349
738.921	0.0162395
738.999	0.0162900
739.078	0.0162439
739.156	0.0161786
739.234	0.0163673
739.312	0.0164985
739.390	0.0163111
739.468	0.0163379
739.546	0.0163653
739.624	0.0163432
739.703	0.0163033
739.781	0.0161840
739.859	0.0162330
739.937	0.0161636
740.015	0.0162860
740.093	0.0162920
740.171	0.0162848
740.249	0.0161282
740.328	0.0161632
740.406	0.0162794
740.484	0.0162613
740.562	0.0162267
740.640	0.0161268
740.718	0.0163264
740.796	0.0162025
740.874	0.0161831
740.953	0.0163238
741.031	0.0163083
741.109	0.0161945
741.187	0.0163973
741.265	0.0163490
741.343	0.0162601
741.421	0.0163801
741.499	0.0163293
741.578	0.0162883
741.656	0.0162630
741.734	0.0162565
741.812	0.0163658
741.890	0.0162504
741.968	0.0162978
742.046	0.0162749
742.124	0.0162616
742.203	0.0164034
742.281	0.0162633
742.359	0.0161560
742.437	0.0163730
742.515	0.0162640
742.593	0.0162762
742.671	0.0161585
742.749	0.0164011
742.828	0.0163005
742.906	0.0163107
742.984	0.0162500
743.062	0.0162781
743.140	0.0162329
743.218	0.0163324
743.296	0.0163775
743.374	0.0163755
743.453	0.0162437
743.531	0.0162515
743.609	0.0162505
743.687	0.0163110
743.765	0.0161495
743.843	0.0162009
743.921	0.0161504
743.999	0.0162150
744.078	0.0162733
744.156	0.0163322
744.234	0.0163351
744.312	0.0162544
744.390	0.0162976
744.468	0.0162811
744.546	0.0163103
744.624	0.0162702
744.703	0.0162811
744.781	0.0163400
744.859	0.0162441
744.937	0.0162782
745.015	0.0162388
745.093	0.0162399
745.171	0.0163465
745.249	0.0162855
745.328	0.0163170
745.406	0.0161550
745.484	0.0162405
745.562	0.0163508
745.640	0.0164068
745.718	0.0162559
745.796	0.0161503
745.874	0.0161996
745.953	0.0164299
746.031	0.0162959
746.109	0.0163116
746.187	0.0163046
746.265	0.0163523
746.343	0.0164201
746.421	0.0162652
746.499	0.0161115
746.578	0.0162645
746.656	0.0162708
746.734	0.0162872
746.812	0.0164674
746.890	0.0162483
746.968	0.0161456
747.046	0.0160876
747.124	0.0164089
747.203	0.0163372
747.281	0.0162732
747.359	0.0162984
747.437	0.0162704
747.515	0.0161227
747.593	0.0162537
747.671	0.0161367
747.749	0.0161838
747.828	0.0162537
747.906	0.0162585
747.984	0.0161842
748.062	0.0161118
748.140	0.0163245
748.218	0.0162880
748.296	0.0163159
748.374	0.0160828
748.453	0.0161752
748.531	0.0162842
748.609	0.0160822
748.687	0.0162057
748.765	0.0161609
748.843	0.0161127
748.921	0.0161129
748.999	0.0162073
749.078	0.0161833
749.156	0.0161459
749.234	0.0162111
749.312	0.0161956
749.390	0.0162572
749.468	0.0161466
749.546	0.0162043
749.624	0.0162569
749.703	0.0162663
749.781	0.0162447
749.859	0.0161488
749.937	0.0163453
750.015	0.0161606
750.093	0.0161308
750.171	0.0162012
750.249	0.0163115
750.328	0.0162739
750.406	0.0162714
750.484	0.0162411
750.562	0.0161875
750.640	0.0162538
750.718	0.0161575
750.796	0.0163012
750.874	0.0162943
750.953	0.0162659
751.031	0.0162666
751.109	0.0161921
751.187	0.0160985
751.265	0.0163158
751.343	0.0161201
751.421	0.0162444
751.499	0.0162585
751.578	0.0161715
751.656	0.0162516
751.734	0.0162656
751.812	0.0162908
751.890	0.0163004
751.968	0.0162339
752.046	0.0163300
752.124	0.0164014
752.203	0.0162464
752.281	0.0163302
752.359	0.0162656
752.437	0.0162979
752.515	0.0162981
752.593	0.0163612
752.671	0.0162885
752.749	0.0163341
752.828	0.0162722
752.906	0.0162553
752.984	0.0161137
753.062	0.0162683
753.140	0.0161656
753.218	0.0162022
753.296	0.0162144
753.374	0.0161817
753.453	0.0162566
753.531	0.0162904
753.609	0.0163336
753.687	0.0163657
753.765	0.0163655
753.843	0.0163596
753.921	0.0162104
753.999	0.0161699
754.078	0.0163924
754.156	0.0162704
754.234	0.0162988
754.312	0.0163917
754.390	0.0162206
754.468	0.0161306
754.546	0.0160851
754.624	0.0163009
754.703	0.0162582
754.781	0.0162621
754.859	0.0163179
754.937	0.0162882
755.015	0.0163154
755.093	0.0163172
755.171	0.0162644
755.249	0.0164086
755.328	0.0162762
755.406	0.0162748
755.484	0.0163690
755.562	0.0164573
755.640	0.0163710
755.718	0.0164157
755.796	0.0164957
755.874	0.0164437
755.953	0.0164692
756.031	0.0163165
756.109	0.0162970
756.187	0.0163300
756.265	0.0163181
756.343	0.0162044
756.421	0.0162525
756.499	0.0163048
756.578	0.0163448
756.656	0.0161687
756.734	0.0160634
756.812	0.0161197
756.890	0.0162905
756.968	0.0163096
757.046	0.0161900
757.124	0.0162166
757.203	0.0163056
757.281	0.0163537
757.359	0.0162775
757.437	0.0161597
757.515	0.0162522
757.593	0.0162315
757.671	0.0163061
757.749	0.0163046
757.828	0.0163144
757.906	0.0162156
757.984	0.0163444
758.062	0.0163058
758.140	0.0165455
758.218	0.0163632
758.296	0.0165099
758.374	0.0164124
758.453	0.0164021
758.531	0.0163354
758.609	0.0163749
758.687	0.0163531
758.765	0.0163532
758.843	0.0163364
758.921	0.0161557
758.999	0.0162593
759.078	0.0162143
759.156	0.0161599
759.234	0.0161659
759.312	0.0162418
759.390	0.0162454
759.468	0.0161466
759.546	0.0161869
759.624	0.0160625
759.703	0.0160822
759.781	0.0160059
759.859	0.0161478
759.937	0.0161547
760.015	0.0162061
760.093	0.0161570
760.171	0.0161623
760.249	0.0161474
760.328	0.0160423
760.406	0.0163147
760.484	0.0161258
760.562	0.0161282
760.640	0.0164051
760.718	0.0163681
760.796	0.0165012
760.874	0.0164236
760.953	0.0165332
761.031	0.0166084
761.109	0.0164760
761.187	0.0165675
761.265	0.0165144
761.343	0.0165482
761.421	0.0165679
761.499	0.0164340
761.578	0.0164955
761.656	0.0163419
761.734	0.0164502
761.812	0.0161584
761.890	0.0161704
761.968	0.0161719
762.046	0.0161780
762.124	0.0162579
762.203	0.0161075
762.281	0.0160745
762.359	0.0160061
762.437	0.0161176
762.515	0.0160481
762.593	0.0160179
762.671	0.0159324
762.749	0.0160030
762.828	0.0159679
762.906	0.0160134
762.984	0.0160783
763.062	0.0159795
763.140	0.0158879
763.218	0.0159200
763.296	0.0160122
763.374	0.0159458
763.453	0.0158514
763.531	0.0160696
763.609	0.0159134
763.687	0.0160869
763.765	0.0161931
763.843	0.0160361
763.921	0.0161996
763.999	0.0162305
764.078	0.0161787
764.156	0.0163024
764.234	0.0164050
764.312	0.0164820
764.390	0.0164770
764.468	0.0163226
764.546	0.0163016
764.624	0.0165253
764.703	0.0166017
764.781	0.0164142
764.859	0.0165021
764.937	0.0164982
765.015	0.0165167
765.093	0.0165211
765.171	0.0164545
765.249	0.0164175
765.328	0.0163268
765.406	0.0165571
765.484	0.0165413
765.562	0.0164063
765.640	0.0165117
765.718	0.0163575
765.796	0.0162834
765.874	0.0162095
765.953	0.0161657
766.031	0.0162516
766.109	0.0162267
766.187	0.0162377
766.265	0.0162158
766.343	0.0162361
766.421	0.0161957
766.499	0.0163818
766.578	0.0162798
766.656	0.0163007
766.734	0.0160437
766.812	0.0161322
766.890	0.0159936
766.968	0.0160468
767.046	0.0159499
767.124	0.0159471
767.203	0.0159476
767.281	0.0160300
767.359	0.0159094
767.437	0.0159995
767.515	0.0160654
767.593	0.0161914
767.671	0.0162502
767.749	0.0162971
767.828	0.0163310
767.906	0.0163713
767.984	0.0164244
768.062	0.0165170
768.140	0.0164789
768.218	0.0166231
768.296	0.0166172
768.374	0.0165699
768.453	0.0167287
768.531	0.0165514
768.609	0.0166648
768.687	0.0166985
768.765	0.0166559
768.843	0.0164851
768.921	0.0164627
768.999	0.0166627
769.078	0.0166213
769.156	0.0165833
769.234	0.0165018
769.312	0.0164420
769.390	0.0164021
769.468	0.0162565
769.546	0.0161397
769.624	0.0163036
769.703	0.0161840
769.781	0.0160555
769.859	0.0161173
769.937	0.0159664
770.015	0.0159872
770.093	0.0158884
770.171	0.0158434
770.249	0.0157997
770.328	0.0159059
770.406	0.0158038
770.484	0.0159521
770.562	0.0159220
770.640	0.0159267
770.718	0.0161627
770.796	0.0160353
770.874	0.0161089
770.953	0.0162523
771.031	0.0162971
771.109	0.0162929
771.187	0.0164342
771.265	0.0164008
771.343	0.0164598
771.421	0.0163902
771.499	0.0165652
771.578	0.0164687
771.656	0.0164813
771.734	0.0165582
771.812	0.0164919
771.890	0.0165467
771.968	0.0164851
772.046	0.0166162
772.124	0.0166324
772.203	0.0165949
772.281	0.0165355
772.359	0.0165921
772.437	0.0164265
772.515	0.0165280
772.593	0.0163883
772.671	0.0165392
772.749	0.0164962
772.828	0.0163390
772.906	0.0162714
772.984	0.0163214
773.062	0.0161625
773.140	0.0161308
773.218	0.0162051
773.296	0.0160741
773.374	0.0158868
773.453	0.0161112
773.531	0.0160243
773.609	0.0159241
773.687	0.0159966
773.765	0.0160254
773.843	0.0160533
773.921	0.0161373
773.999	0.0160390
774.078	0.0160574
774.156	0.0159550
774.234	0.0160207
774.312	0.0158508
774.390	0.0158219
774.468	0.0158784
774.546	0.0157884
774.624	0.0159425
774.703	0.0160587
774.781	0.0159853
774.859	0.0162186
774.937	0.0161118
775.015	0.0162316
775.093	0.0162112
775.171	0.0161593
775.249	0.0162542
775.328	0.0163307
775.406	0.0161237
775.484	0.0162030
775.562	0.0163795
775.640	0.0161626
775.718	0.0163231
775.796	0.0164668
775.874	0.0164763
775.953	0.0165423
776.031	0.0165779
776.109	0.0168162
776.187	0.0167446
776.265	0.0168529
776.343	0.0168942
776.421	0.0167884
776.499	0.0168700
776.578	0.0167959
776.656	0.0167233
776.734	0.0168423
776.812	0.0166858
776.890	0.0165829
776.968	0.0164151
777.046	0.0162420
777.124	0.0162653
777.203	0.0162437
777.281	0.0160922
777.359	0.0161434
777.437	0.0158949
777.515	0.0158120
777.593	0.0157847
777.671	0.0159515
777.749	0.0157833
777.828	0.0158399
777.906	0.0159100
777.984	0.0158602
778.062	0.0159899
778.140	0.0158694
778.218	0.0159349
778.296	0.0162211
778.374	0.0162341
778.453	0.0158844
778.531	0.0161227
778.609	0.0162623
778.687	0.0161732
778.765	0.0162846
778.843	0.0162872
778.921	0.0162107
778.999	0.0162420
779.078	0.0162776
779.156	0.0162581
779.234	0.0163367
779.312	0.0163971
779.390	0.0163248
779.468	0.0164292
779.546	0.0164729
779.624	0.0164145
779.703	0.0165881
779.781	0.0165420
779.859	0.0163924
779.937	0.0165795
780.015	0.0164588
780.093	0.0165311
780.171	0.0166280
780.249	0.0163659
780.328	0.0164428
780.406	0.0164753
780.484	0.0162680
780.562	0.0164189
780.640	0.0163644
780.718	0.0163732
780.796	0.0164198
780.874	0.0164111
780.953	0.0164180
781.031	0.0163560
781.109	0.0163988
781.187	0.0163113
781.265	0.0161411
781.343	0.0162058
781.421	0.0161221
781.499	0.0160349
781.578	0.0161002
781.656	0.0159554
781.734	0.0159546
781.812	0.0159603
781.890	0.0159296
781.968	0.0158273
782.046	0.0159401
782.124	0.0158435
782.203	0.0159745
782.281	0.0160441
782.359	0.0159976
782.437	0.0160358
782.515	0.0159941
782.593	0.0161601
782.671	0.0162616
782.749	0.0163769
782.828	0.0164881
782.906	0.0165835
782.984	0.0166355
783.062	0.0168227
783.140	0.0167200
783.218	0.0169461
783.296	0.0169815
783.374	0.0170444
783.453	0.0170859
783.531	0.0169930
783.609	0.0169405
783.687	0.0168660
783.765	0.0166852
783.843	0.0166014
783.921	0.0165834
783.999	0.0164277
784.078	0.0163152
784.156	0.0162403
784.234	0.0160852
784.312	0.0159553
784.390	0.0158008
784.468	0.0159462
784.546	0.0156659
784.624	0.0155257
784.703	0.0155209
784.781	0.0155795
784.859	0.0155054
784.937	0.0154832
785.015	0.0155392
785.093	0.0154884
785.171	0.0156290
785.249	0.0154939
785.328	0.0156310
785.406	0.0156912
785.484	0.0159676
785.562	0.0159872
785.640	0.0159132
785.718	0.0159975
785.796	0.0161254
785.874	0.0161405
785.953	0.0162029
786.031	0.0163177
786.109	0.0163465
786.187	0.0165451
786.265	0.0165965
786.343	0.0166071
786.421	0.0167409
786.499	0.0167093
786.578	0.0168031
786.656	0.0168190
786.734	0.0167930
786.812	0.0169266
786.890	0.0169541
786.968	0.0168278
787.046	0.0168984
787.124	0.0169232
787.203	0.0168193
787.281	0.0168130
787.359	0.0166879
787.437	0.0166422
787.515	0.0166403
787.593	0.0165413
787.671	0.0164331
787.749	0.0164241
787.828	0.0165842
787.906	0.0162517
787.984	0.0162186
788.062	0.0161572
788.140	0.0162035
788.218	0.0160021
788.296	0.0159524
788.374	0.0157956
788.453	0.0159090
788.531	0.0159482
788.609	0.0158466
788.687	0.0158402
788.765	0.0156397
788.843	0.0156035
788.921	0.0157298
788.999	0.0156629
789.078	0.0157005
789.156	0.0157713
789.234	0.0156815
789.312	0.0157887
789.390	0.0159438
789.468	0.0158178
789.546	0.0159844
789.624	0.0158510
789.703	0.0159841
789.781	0.0161260
789.859	0.0162117
789.937	0.0161213
790.015	0.0163264
790.093	0.0162751
790.171	0.0164885
790.249	0.0165967
790.328	0.0165774
790.406	0.0165905
790.484	0.0167213
790.562	0.0166245
790.640	0.0165884
790.718	0.0167200
790.796	0.0167151
790.874	0.0167616
790.953	0.0166032
791.031	0.0165817
791.109	0.0165759
791.187	0.0164542
791.265	0.0164143
791.343	0.0162868
791.421	0.0163914
791.499	0.0164832
791.578	0.0163525
791.656	0.0162525
791.734	0.0162860
791.812	0.0162199
791.890	0.0160868
791.968	0.0161126
792.046	0.0162520
792.124	0.0160343
792.203	0.0159874
792.281	0.0159520
792.359	0.0161515
792.437	0.0160001
792.515	0.0161230
792.593	0.0160698
792.671	0.0160384
792.749	0.0160084
792.828	0.0159538
792.906	0.0159553
792.984	0.0160610
793.062	0.0161372
793.140	0.0161089
793.218	0.0161388
793.296	0.0161086
793.374	0.0163355
793.453	0.0163541
793.531	0.0164670
793.609	0.0164733
793.687	0.0165914
793.765	0.0168109
793.843	0.0166170
793.921	0.0166405
793.999	0.0168941
794.078	0.0167912
794.156	0.0168085
794.234	0.0165443
794.312	0.0164325
794.390	0.0164807
794.468	0.0163887
794.546	0.0162907
794.624	0.0161476
794.703	0.0160907
794.781	0.0160869
794.859	0.0159872
794.937	0.0159280
795.015	0.0158492
795.093	0.0157201
795.171	0.0157231
795.249	0.0157806
795.328	0.0156889
795.406	0.0156419
795.484	0.0156984
795.562	0.0158173
795.640	0.0158543
795.718	0.0157717
795.796	0.0158308
795.874	0.0157843
795.953	0.0157940
796.031	0.0159393
796.109	0.0159656
796.187	0.0159938
796.265	0.0161073
796.343	0.0162653
796.421	0.0161961
796.499	0.0162586
796.578	0.0163908
796.656	0.0165503
796.734	0.0165591
796.812	0.0166644
796.890	0.0168157
796.968	0.0167894
797.046	0.0168783
797.124	0.0169223
797.203	0.0170367
797.281	0.0170357
797.359	0.0169318
797.437	0.0169147
797.515	0.0169083
797.593	0.0168617
797.671	0.0169621
797.749	0.0166580
797.828	0.0167387
797.906	0.0167014
797.984	0.0165195
798.062	0.0164980
798.140	0.0164417
798.218	0.0164286
798.296	0.0162460
798.374	0.0163288
798.453	0.0161749
798.531	0.0161130
798.609	0.0161816
798.687	0.0161377
798.765	0.0158926
798.843	0.0159159
798.921	0.0157488
798.999	0.0157468
799.078	0.0156633
799.156	0.0157932
799.234	0.0157233
799.312	0.0157455
799.390	0.0156425
799.468	0.0155240
799.546	0.0156735
799.624	0.0156416
799.703	0.0156384
799.781	0.0159164
799.859	0.0158914
799.937	0.0156850
800.015	0.0157364
800.093	0.0158289
800.171	0.0159702
800.249	0.0160146
800.328	0.0162299
800.406	0.0162582
800.484	0.0161463
800.562	0.0162792
800.640	0.0164081
800.718	0.0164735
800.796	0.0163716
800.874	0.0165380
800.953	0.0163955
801.031	0.0165475
801.109	0.0164054
801.187	0.0165789
801.265	0.0165512
801.343	0.0165452
801.421	0.0165970
801.499	0.0165189
801.578	0.0166417
801.656	0.0166043
801.734	0.0165789
801.812	0.0165088
801.890	0.0166628
801.968	0.0165495
802.046	0.0166521
802.124	0.0165580
802.203	0.0164774
802.281	0.0163124
802.359	0.0163783
802.437	0.0164062
802.515	0.0162931
802.593	0.0163755
802.671	0.0162353
802.749	0.0163228
802.828	0.0163699
802.906	0.0162373
802.984	0.0163126
803.062	0.0164351
803.140	0.0162930
803.218	0.0161729
803.296	0.0162202
803.374	0.0162376
803.453	0.0161021
803.531	0.0161974
803.609	0.0160857
803.687	0.0160122
803.765	0.0159760
803.843	0.0160288
803.921	0.0161125
803.999	0.0160554
804.078	0.0161127
804.156	0.0159901
804.234	0.0160303
804.312	0.0160561
804.390	0.0160886
804.468	0.0160107
804.546	0.0160419
804.624	0.0159863
804.703	0.0160088
804.781	0.0161174
804.859	0.0160802
804.937	0.0159476
805.015	0.0161531
805.093	0.0161910
805.171	0.0160257
805.249	0.0160152
805.328	0.0161233
805.406	0.0160960
805.484	0.0159991
805.562	0.0159742
805.640	0.0160822
805.718	0.0160100
805.796	0.0160561
805.874	0.0159853
805.953	0.0161552
806.031	0.0161148
806.109	0.0162104
806.187	0.0162416
806.265	0.0162896
806.343	0.0163366
806.421	0.0162949
806.499	0.0162352
806.578	0.0162694
806.656	0.0162753
806.734	0.0162316
806.812	0.0163972
806.890	0.0163055
806.968	0.0163687
807.046	0.0163071
807.124	0.0162677
807.203	0.0163730
807.281	0.0164961
807.359	0.0165397
807.437	0.0167287
807.515	0.0166714
807.593	0.0165761
807.671	0.0166541
807.749	0.0165403
807.828	0.0165731
807.906	0.0167072
807.984	0.0166425
808.062	0.0164656
808.140	0.0164729
808.218	0.0163504
808.296	0.0162899
808.374	0.0163424
808.453	0.0162225
808.531	0.0161433
808.609	0.0161745
808.687	0.0159798
808.765	0.0159947
808.843	0.0160632
808.921	0.0160756
808.999	0.0160757
809.078	0.0160069
809.156	0.0161779
809.234	0.0159840
809.312	0.0160999
809.390	0.0160843
809.468	0.0159679
809.546	0.0161971
809.624	0.0162926
809.703	0.0161034
809.781	0.0158527
809.859	0.0159373
809.937	0.0159228
810.015	0.0157548
810.093	0.0158270
810.171	0.0157054
810.249	0.0157991
810.328	0.0155452
810.406	0.0155879
810.484	0.0157026
810.562	0.0155874
810.640	0.0155810
810.718	0.0157086
810.796	0.0157861
810.874	0.0157944
810.953	0.0159669
811.031	0.0159506
811.109	0.0160854
811.187	0.0162515
811.265	0.0162433
811.343	0.0162857
811.421	0.0164085
811.499	0.0165336
811.578	0.0165148
811.656	0.0166207
811.734	0.0165869
811.812	0.0167550
811.890	0.0167869
811.968	0.0167706
812.046	0.0168660
812.124	0.0169455
812.203	0.0168752
812.281	0.0170589
812.359	0.0169585
812.437	0.0169887
812.515	0.0169192
812.593	0.0168718
812.671	0.0168632
812.749	0.0169489
812.828	0.0168632
812.906	0.0168401
812.984	0.0168573
813.062	0.0167894
813.140	0.0165942
813.218	0.0164413
813.296	0.0165030
813.374	0.0162426
813.453	0.0161205
813.531	0.0159567
813.609	0.0159736
813.687	0.0157291
813.765	0.0156990
813.843	0.0155298
813.921	0.0155395
813.999	0.0153671
814.078	0.0154708
814.156	0.0152970
814.234	0.0153696
814.312	0.0154121
814.390	0.0154964
814.468	0.0155645
814.546	0.0154971
814.624	0.0156258
814.703	0.0156670
814.781	0.0158924
814.859	0.0159890
814.937	0.0162302
815.015	0.0162196
815.093	0.0163447
815.171	0.0163741
815.249	0.0165427
815.328	0.0167222
815.406	0.0168024
815.484	0.0167712
815.562	0.0167096
815.640	0.0167095
815.718	0.0167881
815.796	0.0167573
815.874	0.0165668
815.953	0.0165026
816.031	0.0164993
816.109	0.0164702
816.187	0.0162685
816.265	0.0163255
816.343	0.0163537
816.421	0.0161964
816.499	0.0162142
816.578	0.0162847
816.656	0.0161204
816.734	0.0161645
816.812	0.0162756
816.890	0.0163186
816.968	0.0163864
817.046	0.0163416
817.124	0.0162407
817.203	0.0163017
817.281	0.0162986
817.359	0.0163976
817.437	0.0164252
817.515	0.0165103
817.593	0.0166911
817.671	0.0165911
817.749	0.0164717
817.828	0.0165769
817.906	0.0164999
817.984	0.0164730
818.062	0.0165733
818.140	0.0166061
818.218	0.0165195
818.296	0.0163937
818.374	0.0163171
818.453	0.0163469
818.531	0.0162627
818.609	0.0162038
818.687	0.0161376
818.765	0.0161349
818.843	0.0162302
818.921	0.0162642
818.999	0.0160908
819.078	0.0159354
819.156	0.0160221
819.234	0.0159608
819.312	0.0159280
819.390	0.0159289
819.468	0.0159910
819.546	0.0157981
819.624	0.0160384
819.703	0.0158864
819.781	0.0159868
819.859	0.0159206
819.937	0.0158340
820.015	0.0158024
820.093	0.0159194
820.171	0.0158890
820.249	0.0158864
820.328	0.0159985
820.406	0.0161301
820.484	0.0160292
820.562	0.0162643
820.640	0.0161339
820.718	0.0162840
820.796	0.0162403
820.874	0.0164531
820.953	0.0165717
821.031	0.0165879
821.109	0.0166153
821.187	0.0164795
821.265	0.0164956
821.343	0.0166690
821.421	0.0165324
821.499	0.0164277
821.578	0.0165413
821.656	0.0162943
821.734	0.0164497
821.812	0.0163685
821.890	0.0163680
821.968	0.0163504
822.046	0.0161086
822.124	0.0161569
822.203	0.0163393
822.281	0.0161649
822.359	0.0160771
822.437	0.0161820
822.515	0.0161517
822.593	0.0162053
822.671	0.0161941
822.749	0.0160648
822.828	0.0162366
822.906	0.0162938
822.984	0.0163020
823.062	0.0162966
823.140	0.0162489
823.218	0.0163638
823.296	0.0163126
823.374	0.0165752
823.453	0.0166148
823.531	0.0164848
823.609	0.0165957
823.687	0.0166277
823.765	0.0165890
823.843	0.0165065
823.921	0.0165652
823.999	0.0166709
824.078	0.0163838
824.156	0.0164396
824.234	0.0164182
824.312	0.0161765
824.390	0.0161703
824.468	0.0161536
824.546	0.0159839
824.624	0.0160339
824.703	0.0158889
824.781	0.0157827
824.859	0.0157905
824.937	0.0157117
825.015	0.0157352
825.093	0.0156657
825.171	0.0157685
825.249	0.0157164
825.328	0.0156757
825.406	0.0158078
825.484	0.0157621
825.562	0.0158598
825.640	0.0158217
825.718	0.0159370
825.796	0.0159529
825.874	0.0158288
825.953	0.0161947
826.031	0.0161739
826.109	0.0161775
826.187	0.0163604
826.265	0.0163625
826.343	0.0165694
826.421	0.0165763
826.499	0.0164670
826.578	0.0167067
826.656	0.0165324
826.734	0.0164232
826.812	0.0166834
826.890	0.0166533
826.968	0.0166406
827.046	0.0167606
827.124	0.0165279
827.203	0.0166812
827.281	0.0166563
827.359	0.0165944
827.437	0.0165163
827.515	0.0165512
827.593	0.0165676
827.671	0.0165476
827.749	0.0163962
827.828	0.0163371
827.906	0.0163208
827.984	0.0160895
828.062	0.0161300
828.140	0.0161600
828.218	0.0159550
828.296	0.0158797
828.374	0.0158532
828.453	0.0158311
828.531	0.0157731
828.609	0.0158382
828.687	0.0158284
828.765	0.0156248
828.843	0.0156351
828.921	0.0155898
828.999	0.0157214
829.078	0.0157825
829.156	0.0157030
829.234	0.0157964
829.312	0.0158598
829.390	0.0159397
829.468	0.0158694
829.546	0.0159325
829.624	0.0161065
829.703	0.0159579
829.781	0.0161350
829.859	0.0162289
829.937	0.0162029
830.015	0.0161774
830.093	0.0161301
830.171	0.0163207
830.249	0.0162646
830.328	0.0162900
830.406	0.0163586
830.484	0.0164118
830.562	0.0165566
830.640	0.0163692
830.718	0.0164726
830.796	0.0166201
830.874	0.0167181
830.953	0.0166951
831.031	0.0166178
831.109	0.0166032
831.187	0.0166966
831.265	0.0166444
831.343	0.0166592
831.421	0.0164936
831.499	0.0164520
831.578	0.0164090
831.656	0.0164243
831.734	0.0164315
831.812	0.0163097
831.890	0.0161784
831.968	0.0161153
832.046	0.0160390
832.124	0.0161676
832.203	0.0160696
832.281	0.0160695
832.359	0.0159520
832.437	0.0159581
832.515	0.0159519
832.593	0.0157923
832.671	0.0159830
832.749	0.0159229
832.828	0.0159398
832.906	0.0160931
832.984	0.0160694
833.062	0.0158838
833.140	0.0158646
833.218	0.0161069
833.296	0.0160117
833.374	0.0159782
833.453	0.0161058
833.531	0.0161207
833.609	0.0161281
833.687	0.0162235
833.765	0.0162603
833.843	0.0164690
833.921	0.0161980
833.999	0.0161870
834.078	0.0163763
834.156	0.0163841
834.234	0.0163096
834.312	0.0164595
834.390	0.0163598
834.468	0.0164633
834.546	0.0164356
834.624	0.0165178
834.703	0.0163943
834.781	0.0164127
834.859	0.0164236
834.937	0.0163482
835.015	0.0164396
835.093	0.0164408
835.171	0.0164925
835.249	0.0162732
835.328	0.0163413
835.406	0.0164840
835.484	0.0163073
835.562	0.0162083
835.640	0.0162937
835.718	0.0162779
835.796	0.0162299
835.874	0.0161842
835.953	0.0160750
836.031	0.0159225
836.109	0.0160136
836.187	0.0159666
836.265	0.0158638
836.343	0.0158182
836.421	0.0159003
836.499	0.0160039
836.578	0.0159154
836.656	0.0159055
836.734	0.0160285
836.812	0.0160008
836.890	0.0161368
836.968	0.0161177
837.046	0.0160873
837.124	0.0163688
837.203	0.0163926
837.281	0.0163459
837.359	0.0164374
837.437	0.0164664
837.515	0.0165874
837.593	0.0167191
837.671	0.0166794
837.749	0.0166236
837.828	0.0167669
837.906	0.0167707
837.984	0.0167842
838.062	0.0167162
838.140	0.0167606
838.218	0.0166563
838.296	0.0166641
838.374	0.0165395
838.453	0.0166144
838.531	0.0166702
838.609	0.0164330
838.687	0.0164335
838.765	0.0162666
838.843	0.0163013
838.921	0.0161678
838.999	0.0161916
839.078	0.0163384
839.156	0.0161846
839.234	0.0160690
839.312	0.0160696
839.390	0.0162064
839.468	0.0160873
839.546	0.0161511
839.624	0.0161739
839.703	0.0160941
839.781	0.0160381
839.859	0.0161858
839.937	0.0160301
840.015	0.0161667
840.093	0.0161538
840.171	0.0160738
840.249	0.0160973
840.328	0.0160694
840.406	0.0160513
840.484	0.0160206
840.562	0.0159932
840.640	0.0162149
840.718	0.0160632
840.796	0.0163400
840.874	0.0162904
840.953	0.0163618
841.031	0.0163396
841.109	0.0165124
841.187	0.0166624
841.265	0.0165469
841.343	0.0165799
841.421	0.0165942
841.499	0.0166875
841.578	0.0166312
841.656	0.0166902
841.734	0.0166746
841.812	0.0166644
841.890	0.0164648
841.968	0.0165843
842.046	0.0164121
842.124	0.0163157
842.203	0.0164247
842.281	0.0163172
842.359	0.0163754
842.437	0.0163012
842.515	0.0162772
842.593	0.0162445
842.671	0.0161890
842.749	0.0161395
842.828	0.0161712
842.906	0.0161136
842.984	0.0161687
843.062	0.0160767
843.140	0.0161935
843.218	0.0161649
843.296	0.0161073
843.374	0.0161037
843.453	0.0160655
843.531	0.0159325
843.609	0.0160883
843.687	0.0161028
843.765	0.0160869
843.843	0.0161256
843.921	0.0161098
843.999	0.0160155
844.078	0.0161005
844.156	0.0162178
844.234	0.0162795
844.312	0.0163697
844.390	0.0164761
844.468	0.0164931
844.546	0.0164120
844.624	0.0163521
844.703	0.0165988
844.781	0.0164725
844.859	0.0164513
844.937	0.0164728
845.015	0.0166599
845.093	0.0165289
845.171	0.0165784
845.249	0.0165597
845.328	0.0165708
845.406	0.0164336
845.484	0.0162834
845.562	0.0164182
845.640	0.0163518
845.718	0.0163892
845.796	0.0162592
845.874	0.0161430
845.953	0.0161359
846.031	0.0161732
846.109	0.0161478
846.187	0.0159393
846.265	0.0159487
846.343	0.0158904
846.421	0.0160403
846.499	0.0158579
846.578	0.0157867
846.656	0.0158776
846.734	0.0159489
846.812	0.0158581
846.890	0.0158519
846.968	0.0156484
847.046	0.0158657
847.124	0.0159270
847.203	0.0159351
847.281	0.0160081
847.359	0.0162277
847.437	0.0160225
847.515	0.0161021
847.593	0.0161222
847.671	0.0161868
847.749	0.0162806
847.828	0.0162032
847.906	0.0164286
847.984	0.0163536
848.062	0.0163092
848.140	0.0164600
848.218	0.0164874
848.296	0.0165119
848.374	0.0164655
848.453	0.0165372
848.531	0.0163783
848.609	0.0164068
848.687	0.0164436
848.765	0.0165877
848.843	0.0164056
848.921	0.0165618
848.999	0.0162989
849.078	0.0163033
849.156	0.0163205
849.234	0.0164053
849.312	0.0163338
849.390	0.0162252
849.468	0.0163487
849.546	0.0162350
849.624	0.0161301
849.703	0.0161782
849.781	0.0163141
849.859	0.0163086
849.937	0.0161154
850.015	0.0160664
850.093	0.0161433
850.171	0.0161305
850.249	0.0160749
850.328	0.0160638
850.406	0.0160963
850.484	0.0160989
850.562	0.0161373
850.640	0.0162413
850.718	0.0162914
850.796	0.0162123
850.874	0.0163662
850.953	0.0161444
851.031	0.0164008
851.109	0.0162526
851.187	0.0162731
851.265	0.0163437
851.343	0.0163661
851.421	0.0162448
851.499	0.0163539
851.578	0.0163169
851.656	0.0163633
851.734	0.0163967
851.812	0.0163055
851.890	0.0162875
851.968	0.0162901
852.046	0.0162376
852.124	0.0161007
852.203	0.0161585
852.281	0.0161496
852.359	0.0162801
852.437	0.0160660
852.515	0.0161697
852.593	0.0161235
852.671	0.0160561
852.749	0.0161172
852.828	0.0161337
852.906	0.0161261
852.984	0.0160945
853.062	0.0161024
853.140	0.0162301
853.218	0.0161611
853.296	0.0161179
853.374	0.0162544
853.453	0.0162200
853.531	0.0163071
853.609	0.0161214
853.687	0.0162103
853.765	0.0161931
853.843	0.0161695
853.921	0.0164347
853.999	0.0162562
854.078	0.0161947
854.156	0.0162998
854.234	0.0163680
854.312	0.0163335
854.390	0.0163982
854.468	0.0162326
854.546	0.0163167
854.624	0.0162660
854.703	0.0163936
854.781	0.0164358
854.859	0.0163393
854.937	0.0162955
855.015	0.0164208
855.093	0.0163354
855.171	0.0163810
855.249	0.0164506
855.328	0.0164307
855.406	0.0165731
855.484	0.0165203
855.562	0.0166045
855.640	0.0164558
855.718	0.0164324
855.796	0.0164417
855.874	0.0164194
855.953	0.0164942
856.031	0.0164870
856.109	0.0163750
856.187	0.0163787
856.265	0.0163303
856.343	0.0164118
856.421	0.0162363
856.499	0.0161924
856.578	0.0162856
856.656	0.0161633
856.734	0.0161019
856.812	0.0162378
856.890	0.0161757
856.968	0.0161704
857.046	0.0161063
857.124	0.0161990
857.203	0.0160927
857.281	0.0162078
857.359	0.0161998
857.437	0.0162578
857.515	0.0161021
857.593	0.0161191
857.671	0.0161443
857.749	0.0161834
857.828	0.0161759
857.906	0.0162433
857.984	0.0161489
858.062	0.0161453
858.140	0.0162160
858.218	0.0162100
858.296	0.0162386
858.374	0.0162106
858.453	0.0162744
858.531	0.0162173
858.609	0.0162502
858.687	0.0162973
858.765	0.0161630
858.843	0.0163420
858.921	0.0163937
858.999	0.0162490
859.078	0.0162957
859.156	0.0163123
859.234	0.0164304
859.312	0.0163193
859.390	0.0164008
859.468	0.0163622
859.546	0.0164271
859.624	0.0163474
859.703	0.0163726
859.781	0.0162712
859.859	0.0163793
859.937	0.0163482
860.015	0.0164805
860.093	0.0164561
860.171	0.0164802
860.249	0.0164765
860.328	0.0164156
860.406	0.0164536
860.484	0.0164625
860.562	0.0163583
860.640	0.0163765
860.718	0.0162490
860.796	0.0163164
860.874	0.0162706
860.953	0.0162120
861.031	0.0161654
861.109	0.0163543
861.187	0.0162592
861.265	0.0161790
861.343	0.0161854
861.421	0.0163655
861.499	0.0163062
861.578	0.0163271
861.656	0.0163899
861.734	0.0161961
861.812	0.0163015
861.890	0.0163461
861.968	0.0164304
862.046	0.0163448
862.124	0.0162482
862.203	0.0162649
862.281	0.0163449
862.359	0.0163705
862.437	0.0163173
862.515	0.0163541
862.593	0.0162167
862.671	0.0161424
862.749	0.0162883
862.828	0.0161333
862.906	0.0161719
862.984	0.0162468
863.062	0.0161993
863.140	0.0162722
863.218	0.0160541
863.296	0.0162337
863.374	0.0161076
863.453	0.0159844
863.531	0.0161589
863.609	0.0163089
863.687	0.0160995
863.765	0.0162073
863.843	0.0161287
863.921	0.0160841
863.999	0.0163357
864.078	0.0162102
864.156	0.0160936
864.234	0.0161508
864.312	0.0161588
864.390	0.0160622
864.468	0.0162276
864.546	0.0161917
864.624	0.0161537
864.703	0.0163490
864.781	0.0162945
864.859	0.0162160
864.937	0.0161763
865.015	0.0161113
865.093	0.0163026
865.171	0.0162527
865.249	0.0161750
865.328	0.0162856
865.406	0.0161648
865.484	0.0163059
865.562	0.0161945
865.640	0.0163039
865.718	0.0162389
865.796	0.0162431
865.874	0.0163364
865.953	0.0162320
866.031	0.0162854
866.109	0.0162932
866.187	0.0162364
866.265	0.0161417
866.343	0.0162781
866.421	0.0162581
866.499	0.0162011
866.578	0.0163316
866.656	0.0162042
866.734	0.0161467
866.812	0.0162159
866.890	0.0161316
866.968	0.0161885
867.046	0.0161864
867.124	0.0160695
867.203	0.0161015
867.281	0.0160773
867.359	0.0162268
867.437	0.0161987
867.515	0.0162936
867.593	0.0161837
867.671	0.0161308
867.749	0.0162231
867.828	0.0162573
867.906	0.0162163
867.984	0.0161791
868.062	0.0163128
868.140	0.0162976
868.218	0.0162175
868.296	0.0162000
868.374	0.0162178
868.453	0.0162276
868.531	0.0162347
868.609	0.0162882
868.687	0.0160574
868.765	0.0161397
868.843	0.0163295
868.921	0.0163383
868.999	0.0162608
869.078	0.0162110
869.156	0.0161566
869.234	0.0160613
869.312	0.0163599
869.390	0.0162072
869.468	0.0162914
869.546	0.0162571
869.624	0.0162245
869.703	0.0161866
869.781	0.0161959
869.859	0.0161473
869.937	0.0161432
870.015	0.0162067
870.093	0.0161800
870.171	0.0160383
870.249	0.0160957
870.328	0.0161667
870.406	0.0161421
870.484	0.0160773
870.562	0.0159804
870.640	0.0160964
870.718	0.0160934
870.796	0.0161449
870.874	0.0160095
870.953	0.0160576
871.031	0.0162040
871.109	0.0162460
871.187	0.0161234
871.265	0.0161165
871.343	0.0162790
871.421	0.0163306
871.499	0.0162232
871.578	0.0161909
871.656	0.0163706
871.734	0.0163652
871.812	0.0163156
871.890	0.0162512
871.968	0.0163346
872.046	0.0162971
872.124	0.0164066
872.203	0.0164159
872.281	0.0164314
872.359	0.0163856
872.437	0.0163249
872.515	0.0163715
872.593	0.0163735
872.671	0.0162606
872.749	0.0162736
872.828	0.0163658
872.906	0.0162997
872.984	0.0162545
873.062	0.0162793
873.140	0.0163086
873.218	0.0164180
873.296	0.0162946
873.374	0.0163225
873.453	0.0163529
873.531	0.0163769
873.609	0.0163921
873.687	0.0162324
873.765	0.0164281
873.843	0.0161968
873.921	0.0163800
873.999	0.0163272
874.078	0.0162881
874.156	0.0162375
874.234	0.0162923
874.312	0.0163201
874.390	0.0161790
874.468	0.0162239
874.546	0.0163763
874.624	0.0162251
874.703	0.0162590
874.781	0.0162504
874.859	0.0163683
874.937	0.0162038
875.015	0.0161884
875.093	0.0162493
875.171	0.0161807
875.249	0.0162747
875.328	0.0164111
875.406	0.0164019
875.484	0.0162885
875.562	0.0162738
875.640	0.0162791
875.718	0.0162257
875.796	0.0162994
875.874	0.0162826
875.953	0.0162836
876.031	0.0162601
876.109	0.0162132
876.187	0.0164431
876.265	0.0162416
876.343	0.0163837
876.421	0.0163715
876.499	0.0165088
876.578	0.0164652
876.656	0.0163887
876.734	0.0164113
876.812	0.0165154
876.890	0.0163786
876.968	0.0163848
877.046	0.0164866
877.124	0.0164525
877.203	0.0164624
877.281	0.0164816
877.359	0.0165260
877.437	0.0165714
877.515	0.0163458
877.593	0.0164256
877.671	0.0164654
877.749	0.0165141
877.828	0.0164862
877.906	0.0164668
877.984	0.0164208
878.062	0.0163649
878.140	0.0164568
878.218	0.0164349
878.296	0.0163591
878.374	0.0163011
878.453	0.0163417
878.531	0.0163992
878.609	0.0163976
878.687	0.0162538
878.765	0.0161725
878.843	0.0163347
878.921	0.0162915
878.999	0.0162556
879.078	0.0163020
879.156	0.0163203
879.234	0.0162649
879.312	0.0163167
879.390	0.0161859
879.468	0.0163971
879.546	0.0163795
879.624	0.0164993
879.703	0.0163076
879.781	0.0163591
879.859	0.0164477
879.937	0.0163118
880.015	0.0163625
880.093	0.0164114
880.171	0.0164220
880.249	0.0163765
880.328	0.0163068
880.406	0.0162350
880.484	0.0163248
880.562	0.0163538
880.640	0.0163448
880.718	0.0163423
880.796	0.0162558
880.874	0.0163401
880.953	0.0164322
881.031	0.0162275
881.109	0.0161134
881.187	0.0162204
881.265	0.0163918
881.343	0.0162374
881.421	0.0161610
881.499	0.0163273
881.578	0.0162480
881.656	0.0162344
881.734	0.0163776
881.812	0.0162286
881.890	0.0161813
881.968	0.0163396
882.046	0.0162418
882.124	0.0162553
882.203	0.0161641
882.281	0.0162351
882.359	0.0162723
882.437	0.0163152
882.515	0.0164228
882.593	0.0164134
882.671	0.0163933
882.749	0.0164376
882.828	0.0162881
882.906	0.0163432
882.984	0.0163653
883.062	0.0162962
883.140	0.0163872
883.218	0.0165158
883.296	0.0163589
883.374	0.0164071
883.453	0.0163843
883.531	0.0164139
883.609	0.0165571
883.687	0.0165009
883.765	0.0163549
883.843	0.0164539
883.921	0.0164068
883.999	0.0165490
884.078	0.0164143
884.156	0.0164050
884.234	0.0162996
884.312	0.0162988
884.390	0.0162553
884.468	0.0162584
884.546	0.0161406
884.624	0.0159290
884.703	0.0159969
884.781	0.0161183
884.859	0.0162061
884.937	0.0160680
885.015	0.0161376
885.093	0.0160695
885.171	0.0160561
885.249	0.0160453
885.328	0.0159544
885.406	0.0160719
885.484	0.0161355
885.562	0.0160866
885.640	0.0162157
885.718	0.0160873
885.796	0.0162325
885.874	0.0161446
885.953	0.0162337
886.031	0.0162732
886.109	0.0163439
886.187	0.0163402
886.265	0.0163486
886.343	0.0162720
886.421	0.0161716
886.499	0.0163120
886.578	0.0162615
886.656	0.0162793
886.734	0.0162323
886.812	0.0162266
886.890	0.0163852
886.968	0.0162312
887.046	0.0161530
887.124	0.0161836
887.203	0.0163083
887.281	0.0161301
887.359	0.0162378
887.437	0.0162399
887.515	0.0162523
887.593	0.0163091
887.671	0.0161651
887.749	0.0162453
887.828	0.0162860
887.906	0.0161968
887.984	0.0162289
888.062	0.0162633
888.140	0.0162511
888.218	0.0161384
888.296	0.0161423
888.374	0.0162328
888.453	0.0163792
888.531	0.0162336
888.609	0.0160210
888.687	0.0162282
888.765	0.0163267
888.843	0.0161590
888.921	0.0160454
888.999	0.0161319
889.078	0.0163228
889.156	0.0161093
889.234	0.0160867
889.312	0.0161104
889.390	0.0159610
889.468	0.0160146
889.546	0.0161395
889.624	0.0162220
889.703	0.0160491
889.781	0.0161545
889.859	0.0161106
889.937	0.0162778
890.015	0.0162444
890.093	0.0162116
890.171	0.0162228
890.249	0.0162113
890.328	0.0162730
890.406	0.0163637
890.484	0.0162248
890.562	0.0163576
890.640	0.0160626
890.718	0.0163092
890.796	0.0161572
890.874	0.0161090
890.953	0.0162311
891.031	0.0161221
891.109	0.0161519
891.187	0.0162029
891.265	0.0161362
891.343	0.0161079
891.421	0.0160513
891.499	0.0160813
891.578	0.0161906
891.656	0.0161786
891.734	0.0161972
891.812	0.0162569
891.890	0.0161377
891.968	0.0161971
892.046	0.0161973
892.124	0.0163304
892.203	0.0161761
892.281	0.0161430
892.359	0.0161205
892.437	0.0162820
892.515	0.0162364
892.593	0.0161892
892.671	0.0160780
892.749	0.0160841
892.828	0.0162713
892.906	0.0161641
892.984	0.0163155
893.062	0.0162830
893.140	0.0161990
893.218	0.0162608
893.296	0.0162337
893.374	0.0161478
893.453	0.0161951
893.531	0.0162894
893.609	0.0162830
893.687	0.0163306
893.765	0.0161649
893.843	0.0161867
893.921	0.0162756
893.999	0.0162356
894.078	0.0163283
894.156	0.0162736
894.234	0.0162986
894.312	0.0162803
894.390	0.0161961
894.468	0.0163093
894.546	0.0163184
894.624	0.0161777
894.703	0.0163382
894.781	0.0162333
894.859	0.0162376
894.937	0.0162706
895.015	0.0163493
895.093	0.0162859
895.171	0.0163428
895.249	0.0164168
895.328	0.0164631
895.406	0.0163732
895.484	0.0163452
895.562	0.0163782
895.640	0.0162433
895.718	0.0164037
895.796	0.0163979
895.874	0.0161880
895.953	0.0161752
896.031	0.0162647
896.109	0.0163036
896.187	0.0163959
896.265	0.0163568
896.343	0.0164819
896.421	0.0165103
896.499	0.0162931
896.578	0.0163303
896.656	0.0163929
896.734	0.0163716
896.812	0.0165120
896.890	0.0164804
896.968	0.0162777
897.046	0.0164070
897.124	0.0163774
897.203	0.0163689
897.281	0.0163670
897.359	0.0162800
897.437	0.0162112
897.515	0.0161694
897.593	0.0162989
897.671	0.0163812
897.749	0.0162455
897.828	0.0162914
897.906	0.0162945
897.984	0.0164031
898.062	0.0163863
898.140	0.0162389
898.218	0.0162945
898.296	0.0164574
898.374	0.0164436
898.453	0.0164597
898.531	0.0162215
898.609	0.0162144
898.687	0.0163499
898.765	0.0162594
898.843	0.0164890
898.921	0.0162802
898.999	0.0161732
899.078	0.0163459
899.156	0.0162937
899.234	0.0163199
899.312	0.0163875
899.390	0.0163977
899.468	0.0162713
899.546	0.0162984
899.624	0.0162447
899.703	0.0162698
899.781	0.0162541
899.859	0.0161914
899.937	0.0162720
900.015	0.0160924
900.093	0.0162393
900.171	0.0162325
900.249	0.0162074
900.328	0.0163716
900.406	0.0161535
900.484	0.0160669
900.562	0.0161929
900.640	0.0162669
900.718	0.0161778
900.796	0.0162209
900.874	0.0161344
900.953	0.0163472
901.031	0.0161977
901.109	0.0162146
901.187	0.0161257
901.265	0.0163626
901.343	0.0163309
901.421	0.0163310
901.499	0.0162019
901.578	0.0163602
901.656	0.0163021
901.734	0.0163570
901.812	0.0164153
901.890	0.0164219
901.968	0.0163249
902.046	0.0164658
902.124	0.0164077
902.203	0.0162945
902.281	0.0162900
902.359	0.0163461
902.437	0.0163584
902.515	0.0164008
902.593	0.0164941
902.671	0.0163798
902.749	0.0163244
902.828	0.0163953
902.906	0.0163388
902.984	0.0164086
903.062	0.0162687
903.140	0.0162700
903.218	0.0163261
903.296	0.0162284
903.374	0.0161929
903.453	0.0161671
903.531	0.0161135
903.609	0.0162096
903.687	0.0162918
903.765	0.0160439
903.843	0.0160317
903.921	0.0161301
903.999	0.0160144
904.078	0.0161298
904.156	0.0161079
904.234	0.0161380
904.312	0.0161344
904.390	0.0161163
904.468	0.0163078
904.546	0.0161551
904.624	0.0161127
904.703	0.0160825
904.781	0.0160638
904.859	0.0163435
904.937	0.0161584
905.015	0.0161366
905.093	0.0162714
905.171	0.0161859
905.249	0.0162576
905.328	0.0162617
905.406	0.0162330
905.484	0.0162275
905.562	0.0162876
905.640	0.0162660
905.718	0.0162334
905.796	0.0163065
905.874	0.0161464
905.953	0.0161176
906.031	0.0160564
906.109	0.0161823
906.187	0.0161863
906.265	0.0160651
906.343	0.0161806
906.421	0.0161214
906.499	0.0160271
906.578	0.0162144
906.656	0.0161498
906.734	0.0159594
906.812	0.0160065
906.890	0.0160756
906.968	0.0160944
907.046	0.0162222
907.124	0.0162262
907.203	0.0162101
907.281	0.0161112
907.359	0.0160449
907.437	0.0160040
907.515	0.0161009
907.593	0.0161826
907.671	0.0162032
907.749	0.0161900
907.828	0.0162633
907.906	0.0162290
907.984	0.0160681
908.062	0.0160972
908.140	0.0164294
908.218	0.0163287
908.296	0.0162595
908.374	0.0163826
908.453	0.0163597
908.531	0.0164072
908.609	0.0163581
908.687	0.0163302
908.765	0.0162302
908.843	0.0162611
908.921	0.0164186
908.999	0.0163316
909.078	0.0161266
909.156	0.0162286
909.234	0.0163654
909.312	0.0162347
909.390	0.0161398
909.468	0.0163441
909.546	0.0162456
909.624	0.0162727
909.703	0.0161499
909.781	0.0161647
909.859	0.0161648
909.937	0.0160468
910.015	0.0160275
910.093	0.0161480
910.171	0.0159484
910.249	0.0158984
910.328	0.0159921
910.406	0.0160420
910.484	0.0159898
910.562	0.0160297
910.640	0.0160529
910.718	0.0159241
910.796	0.0158983
910.874	0.0159978
910.953	0.0159794
911.031	0.0159843
911.109	0.0160175
911.187	0.0160700
911.265	0.0160828
911.343	0.0163598
911.421	0.0162598
911.499	0.0161240
911.578	0.0162907
911.656	0.0162873
911.734	0.0163868
911.812	0.0162241
911.890	0.0161994
911.968	0.0162563
912.046	0.0162700
912.124	0.0162721
912.203	0.0162331
912.281	0.0163654
912.359	0.0162962
912.437	0.0162643
912.515	0.0163727
912.593	0.0161642
912.671	0.0161163
912.749	0.0161736
912.828	0.0161362
912.906	0.0161425
912.984	0.0161743
913.062	0.0160639
913.140	0.0160597
913.218	0.0161536
913.296	0.0162959
913.374	0.0162323
913.453	0.0162157
913.531	0.0161129
913.609	0.0162543
913.687	0.0162996
913.765	0.0161837
913.843	0.0163246
913.921	0.0161970
913.999	0.0163821
914.078	0.0163029
914.156	0.0162835
914.234	0.0162061
914.312	0.0163046
914.390	0.0163182
914.468	0.0164402
914.546	0.0163378
914.624	0.0163404
914.703	0.0164095
914.781	0.0162155
914.859	0.0163017
914.937	0.0163359
915.015	0.0162521
915.093	0.0162224
915.171	0.0162035
915.249	0.0162116
915.328	0.0162086
915.406	0.0160968
915.484	0.0160829
915.562	0.0161810
915.640	0.0160801
915.718	0.0160272
915.796	0.0161107
915.874	0.0161020
915.953	0.0160718
916.031	0.0159879
916.109	0.0160804
916.187	0.0160619
916.265	0.0160201
916.343	0.0159603
916.421	0.0160268
916.499	0.0160381
916.578	0.0161211
916.656	0.0161176
916.734	0.0160393
916.812	0.0160429
916.890	0.0162171
916.968	0.0161034
917.046	0.0161896
917.124	0.0161858
917.203	0.0161697
917.281	0.0161890
917.359	0.0161506
917.437	0.0162364
917.515	0.0161090
917.593	0.0163229
917.671	0.0162286
917.749	0.0163408
917.828	0.0163725
917.906	0.0163177
917.984	0.0163609
918.062	0.0163779
918.140	0.0163245
918.218	0.0163616
918.296	0.0164106
918.374	0.0165931
918.453	0.0165001
918.531	0.0163763
918.609	0.0164217
918.687	0.0164416
918.765	0.0164523
918.843	0.0164147
918.921	0.0162505
918.999	0.0163541
919.078	0.0163655
919.156	0.0162375
919.234	0.0162653
919.312	0.0162227
919.390	0.0161849
919.468	0.0162921
919.546	0.0161382
919.624	0.0164167
919.703	0.0161831
919.781	0.0161997
919.859	0.0161988
919.937	0.0162390
