06/10/2022	18:55:40	Ver.	4.1	UNKNOWN
Optical Delay	600.015094	Delta X		0.078125	Sweeps	1	Scan Rate	0/0
Coordinates	Axis 1	NaN	Axis 2	NaN	Axis 3	NaN	Axis 4	NaN	Axis 5	NaN	Axis 6	0.000000
TX Power	0.000000	RX Power	0.000000

600.015	0.0165372
600.093	0.0163683
600.171	0.0165174
600.249	0.0166077
600.328	0.0164927
600.406	0.0165367
600.484	0.0165987
600.562	0.0163747
600.640	0.0164494
600.718	0.0164692
600.796	0.0165352
600.874	0.0164539
600.953	0.0164408
601.031	0.0166119
601.109	0.0165692
601.187	0.0163691
601.265	0.0165562
601.343	0.0166243
601.421	0.0165812
601.499	0.0164999
601.578	0.0165078
601.656	0.0163760
601.734	0.0165623
601.812	0.0166200
601.890	0.0165569
601.968	0.0165385
602.046	0.0165331
602.124	0.0164053
602.203	0.0165083
602.281	0.0164651
602.359	0.0164660
602.437	0.0164623
602.515	0.0165192
602.593	0.0164972
602.671	0.0165400
602.749	0.0165420
602.828	0.0165621
602.906	0.0165214
602.984	0.0165520
603.062	0.0165752
603.140	0.0164354
603.218	0.0163966
603.296	0.0165730
603.374	0.0165156
603.453	0.0164133
603.531	0.0166036
603.609	0.0165168
603.687	0.0165190
603.765	0.0163850
603.843	0.0164297
603.921	0.0164815
603.999	0.0165637
604.078	0.0164869
604.156	0.0165626
604.234	0.0165431
604.312	0.0165997
604.390	0.0164252
604.468	0.0163599
604.546	0.0162266
604.624	0.0164745
604.703	0.0164360
604.781	0.0165126
604.859	0.0164355
604.937	0.0163631
605.015	0.0165619
605.093	0.0165629
605.171	0.0165381
605.249	0.0165624
605.328	0.0164378
605.406	0.0164109
605.484	0.0165685
605.562	0.0164841
605.640	0.0165294
605.718	0.0165516
605.796	0.0164455
605.874	0.0164208
605.953	0.0165591
606.031	0.0166029
606.109	0.0165401
606.187	0.0165339
606.265	0.0164750
606.343	0.0164751
606.421	0.0166979
606.499	0.0165302
606.578	0.0165230
606.656	0.0166597
606.734	0.0165665
606.812	0.0165418
606.890	0.0164243
606.968	0.0165048
607.046	0.0164755
607.124	0.0165221
607.203	0.0164984
607.281	0.0164058
607.359	0.0165583
607.437	0.0166503
607.515	0.0165559
607.593	0.0165987
607.671	0.0164842
607.749	0.0164297
607.828	0.0165587
607.906	0.0165548
607.984	0.0165881
608.062	0.0164876
608.140	0.0165662
608.218	0.0166795
608.296	0.0165176
608.374	0.0164225
608.453	0.0166048
608.531	0.0164974
608.609	0.0164455
608.687	0.0166032
608.765	0.0164861
608.843	0.0166111
608.921	0.0165296
608.999	0.0164975
609.078	0.0164830
609.156	0.0165105
609.234	0.0164195
609.312	0.0163958
609.390	0.0165324
609.468	0.0164877
609.546	0.0165776
609.624	0.0164986
609.703	0.0164484
609.781	0.0164774
609.859	0.0167001
609.937	0.0164549
610.015	0.0163731
610.093	0.0164270
610.171	0.0164343
610.249	0.0166241
610.328	0.0165199
610.406	0.0163907
610.484	0.0164703
610.562	0.0164719
610.640	0.0164177
610.718	0.0164713
610.796	0.0164262
610.874	0.0165971
610.953	0.0165045
611.031	0.0164504
611.109	0.0163027
611.187	0.0165020
611.265	0.0165013
611.343	0.0165410
611.421	0.0165975
611.499	0.0164701
611.578	0.0164989
611.656	0.0166731
611.734	0.0164595
611.812	0.0165219
611.890	0.0165105
611.968	0.0166149
612.046	0.0165179
612.124	0.0164539
612.203	0.0164567
612.281	0.0165553
612.359	0.0164577
612.437	0.0165062
612.515	0.0165054
612.593	0.0165675
612.671	0.0165003
612.749	0.0165272
612.828	0.0166357
612.906	0.0165696
612.984	0.0166150
613.062	0.0165076
613.140	0.0164576
613.218	0.0165179
613.296	0.0165444
613.374	0.0165377
613.453	0.0165128
613.531	0.0166383
613.609	0.0165133
613.687	0.0164418
613.765	0.0164836
613.843	0.0164597
613.921	0.0163586
613.999	0.0164890
614.078	0.0166118
614.156	0.0166521
614.234	0.0164066
614.312	0.0164716
614.390	0.0163850
614.468	0.0165746
614.546	0.0165923
614.624	0.0164628
614.703	0.0165851
614.781	0.0165705
614.859	0.0164088
614.937	0.0165425
615.015	0.0165672
615.093	0.0164091
615.171	0.0165778
615.249	0.0165448
615.328	0.0164446
615.406	0.0166937
615.484	0.0165527
615.562	0.0164893
615.640	0.0165576
615.718	0.0165541
615.796	0.0164723
615.874	0.0165443
615.953	0.0164191
616.031	0.0165202
616.109	0.0166422
616.187	0.0164594
616.265	0.0164691
616.343	0.0165376
616.421	0.0165665
616.499	0.0164878
616.578	0.0165611
616.656	0.0164976
616.734	0.0165885
616.812	0.0165473
616.890	0.0165690
616.968	0.0166262
617.046	0.0164883
617.124	0.0164476
617.203	0.0164205
617.281	0.0164715
617.359	0.0164268
617.437	0.0166912
617.515	0.0166167
617.593	0.0166714
617.671	0.0165782
617.749	0.0163914
617.828	0.0164746
617.906	0.0165958
617.984	0.0165915
618.062	0.0164536
618.140	0.0165771
618.218	0.0165318
618.296	0.0167123
618.374	0.0166071
618.453	0.0165456
618.531	0.0166156
618.609	0.0165983
618.687	0.0164768
618.765	0.0163968
618.843	0.0165574
618.921	0.0165364
618.999	0.0164695
619.078	0.0164960
619.156	0.0164765
619.234	0.0166940
619.312	0.0164972
619.390	0.0165553
619.468	0.0165519
619.546	0.0164140
619.624	0.0165474
619.703	0.0166125
619.781	0.0164871
619.859	0.0165089
619.937	0.0165080
620.015	0.0166026
620.093	0.0164961
620.171	0.0165864
620.249	0.0165907
620.328	0.0166173
620.406	0.0166203
620.484	0.0166509
620.562	0.0165020
620.640	0.0164954
620.718	0.0165125
620.796	0.0164454
620.874	0.0166882
620.953	0.0164987
621.031	0.0164971
621.109	0.0165057
621.187	0.0164522
621.265	0.0166019
621.343	0.0165660
621.421	0.0164793
621.499	0.0164745
621.578	0.0164910
621.656	0.0166045
621.734	0.0164899
621.812	0.0164818
621.890	0.0165798
621.968	0.0165527
622.046	0.0164182
622.124	0.0164924
622.203	0.0166132
622.281	0.0165485
622.359	0.0165260
622.437	0.0165010
622.515	0.0165155
622.593	0.0164326
622.671	0.0165107
622.749	0.0164752
622.828	0.0165842
622.906	0.0164165
622.984	0.0164504
623.062	0.0164882
623.140	0.0165534
623.218	0.0165273
623.296	0.0164294
623.374	0.0165163
623.453	0.0165150
623.531	0.0165016
623.609	0.0165810
623.687	0.0166637
623.765	0.0164597
623.843	0.0163873
623.921	0.0165081
623.999	0.0164154
624.078	0.0164993
624.156	0.0164763
624.234	0.0166297
624.312	0.0165868
624.390	0.0165202
624.468	0.0165967
624.546	0.0164338
624.624	0.0163877
624.703	0.0165424
624.781	0.0165546
624.859	0.0165427
624.937	0.0164572
625.015	0.0164329
625.093	0.0165579
625.171	0.0165105
625.249	0.0164580
625.328	0.0164874
625.406	0.0163646
625.484	0.0164119
625.562	0.0165834
625.640	0.0165809
625.718	0.0164547
625.796	0.0164333
625.874	0.0164838
625.953	0.0165672
626.031	0.0164839
626.109	0.0166444
626.187	0.0165554
626.265	0.0165503
626.343	0.0166201
626.421	0.0165852
626.499	0.0165984
626.578	0.0164446
626.656	0.0165540
626.734	0.0165180
626.812	0.0167079
626.890	0.0165031
626.968	0.0164333
627.046	0.0165781
627.124	0.0164896
627.203	0.0164334
627.281	0.0164818
627.359	0.0165429
627.437	0.0165128
627.515	0.0163743
627.593	0.0164747
627.671	0.0164905
627.749	0.0166221
627.828	0.0165951
627.906	0.0164524
627.984	0.0165300
628.062	0.0164556
628.140	0.0165275
628.218	0.0165162
628.296	0.0164360
628.374	0.0165659
628.453	0.0166493
628.531	0.0165785
628.609	0.0163613
628.687	0.0164838
628.765	0.0165101
628.843	0.0165677
628.921	0.0164182
628.999	0.0164863
629.078	0.0165108
629.156	0.0164706
629.234	0.0165889
629.312	0.0164336
629.390	0.0164790
629.468	0.0165037
629.546	0.0164148
629.624	0.0164330
629.703	0.0164211
629.781	0.0164899
629.859	0.0165381
629.937	0.0166135
630.015	0.0164172
630.093	0.0165087
630.171	0.0165255
630.249	0.0163980
630.328	0.0164288
630.406	0.0165412
630.484	0.0164420
630.562	0.0165858
630.640	0.0163847
630.718	0.0164725
630.796	0.0164544
630.874	0.0164648
630.953	0.0164696
631.031	0.0164621
631.109	0.0164568
631.187	0.0165149
631.265	0.0164768
631.343	0.0163552
631.421	0.0164506
631.499	0.0164172
631.578	0.0165290
631.656	0.0164571
631.734	0.0165173
631.812	0.0164101
631.890	0.0165261
631.968	0.0164191
632.046	0.0164645
632.124	0.0164108
632.203	0.0164281
632.281	0.0164674
632.359	0.0164705
632.437	0.0165843
632.515	0.0165206
632.593	0.0165130
632.671	0.0164305
632.749	0.0165046
632.828	0.0164053
632.906	0.0163651
632.984	0.0166147
633.062	0.0163843
633.140	0.0163856
633.218	0.0163933
633.296	0.0164955
633.374	0.0165025
633.453	0.0164213
633.531	0.0164719
633.609	0.0164201
633.687	0.0165968
633.765	0.0165042
633.843	0.0165398
633.921	0.0163887
633.999	0.0164442
634.078	0.0163505
634.156	0.0164361
634.234	0.0164449
634.312	0.0165036
634.390	0.0164198
634.468	0.0165810
634.546	0.0162732
634.624	0.0162619
634.703	0.0166457
634.781	0.0164045
634.859	0.0164289
634.937	0.0164573
635.015	0.0163828
635.093	0.0165225
635.171	0.0163675
635.249	0.0164710
635.328	0.0164044
635.406	0.0163811
635.484	0.0164021
635.562	0.0164447
635.640	0.0164667
635.718	0.0164417
635.796	0.0165395
635.874	0.0165344
635.953	0.0164973
636.031	0.0165479
636.109	0.0164288
636.187	0.0164848
636.265	0.0164960
636.343	0.0165909
636.421	0.0164682
636.499	0.0164666
636.578	0.0165046
636.656	0.0165141
636.734	0.0163605
636.812	0.0164130
636.890	0.0164915
636.968	0.0164723
637.046	0.0164429
637.124	0.0165329
637.203	0.0163731
637.281	0.0162907
637.359	0.0164624
637.437	0.0165104
637.515	0.0163876
637.593	0.0163455
637.671	0.0165770
637.749	0.0165885
637.828	0.0164278
637.906	0.0165723
637.984	0.0164683
638.062	0.0163828
638.140	0.0164478
638.218	0.0164664
638.296	0.0165630
638.374	0.0165125
638.453	0.0163618
638.531	0.0164019
638.609	0.0163814
638.687	0.0165804
638.765	0.0165681
638.843	0.0164254
638.921	0.0164608
638.999	0.0165232
639.078	0.0165311
639.156	0.0165337
639.234	0.0165227
639.312	0.0164446
639.390	0.0164994
639.468	0.0165668
639.546	0.0165119
639.624	0.0164426
639.703	0.0165457
639.781	0.0165034
639.859	0.0164729
639.937	0.0164518
640.015	0.0165975
640.093	0.0165376
640.171	0.0166175
640.249	0.0164462
640.328	0.0164404
640.406	0.0164305
640.484	0.0166965
640.562	0.0165426
640.640	0.0163534
640.718	0.0164634
640.796	0.0165714
640.874	0.0164862
640.953	0.0164996
641.031	0.0164842
641.109	0.0164364
641.187	0.0164204
641.265	0.0164857
641.343	0.0164709
641.421	0.0166549
641.499	0.0165321
641.578	0.0164619
641.656	0.0164474
641.734	0.0164150
641.812	0.0165190
641.890	0.0164678
641.968	0.0165842
642.046	0.0165505
642.124	0.0165408
642.203	0.0164497
642.281	0.0164880
642.359	0.0163649
642.437	0.0164617
642.515	0.0164799
642.593	0.0164793
642.671	0.0163742
642.749	0.0165183
642.828	0.0166108
642.906	0.0164404
642.984	0.0163978
643.062	0.0163848
643.140	0.0163789
643.218	0.0163951
643.296	0.0166407
643.374	0.0164843
643.453	0.0166270
643.531	0.0164722
643.609	0.0162264
643.687	0.0163680
643.765	0.0165328
643.843	0.0166629
643.921	0.0165200
643.999	0.0164790
644.078	0.0165540
644.156	0.0164738
644.234	0.0164742
644.312	0.0165271
644.390	0.0164201
644.468	0.0164323
644.546	0.0165127
644.624	0.0165350
644.703	0.0164793
644.781	0.0165636
644.859	0.0164404
644.937	0.0164806
645.015	0.0164277
645.093	0.0164676
645.171	0.0164268
645.249	0.0164913
645.328	0.0165411
645.406	0.0165092
645.484	0.0164538
645.562	0.0164817
645.640	0.0165564
645.718	0.0166286
645.796	0.0163802
645.874	0.0164969
645.953	0.0164453
646.031	0.0164739
646.109	0.0164743
646.187	0.0165183
646.265	0.0165903
646.343	0.0164909
646.421	0.0164467
646.499	0.0164309
646.578	0.0164798
646.656	0.0163545
646.734	0.0164931
646.812	0.0165072
646.890	0.0165319
646.968	0.0165126
647.046	0.0164465
647.124	0.0164242
647.203	0.0166338
647.281	0.0166005
647.359	0.0165724
647.437	0.0164113
647.515	0.0165316
647.593	0.0164716
647.671	0.0166058
647.749	0.0166451
647.828	0.0164944
647.906	0.0165849
647.984	0.0165328
648.062	0.0165533
648.140	0.0164570
648.218	0.0165929
648.296	0.0165433
648.374	0.0164286
648.453	0.0164890
648.531	0.0164505
648.609	0.0165971
648.687	0.0164861
648.765	0.0164251
648.843	0.0165352
648.921	0.0166371
648.999	0.0165218
649.078	0.0165473
649.156	0.0165397
649.234	0.0162871
649.312	0.0165688
649.390	0.0165444
649.468	0.0163916
649.546	0.0165103
649.624	0.0164560
649.703	0.0165115
649.781	0.0165459
649.859	0.0164031
649.937	0.0164665
650.015	0.0165405
650.093	0.0164656
650.171	0.0165753
650.249	0.0165466
650.328	0.0163271
650.406	0.0165288
650.484	0.0164760
650.562	0.0164657
650.640	0.0164213
650.718	0.0165366
650.796	0.0165482
650.874	0.0163879
650.953	0.0165761
651.031	0.0164714
651.109	0.0165733
651.187	0.0164259
651.265	0.0165106
651.343	0.0163924
651.421	0.0164342
651.499	0.0165517
651.578	0.0164653
651.656	0.0164448
651.734	0.0163371
651.812	0.0163779
651.890	0.0164544
651.968	0.0165437
652.046	0.0165394
652.124	0.0164894
652.203	0.0164749
652.281	0.0164944
652.359	0.0163825
652.437	0.0164014
652.515	0.0164889
652.593	0.0164577
652.671	0.0164761
652.749	0.0164966
652.828	0.0164244
652.906	0.0165131
652.984	0.0164304
653.062	0.0164656
653.140	0.0164364
653.218	0.0164094
653.296	0.0165149
653.374	0.0164017
653.453	0.0163888
653.531	0.0164532
653.609	0.0164124
653.687	0.0163703
653.765	0.0164699
653.843	0.0164719
653.921	0.0163010
653.999	0.0163940
654.078	0.0166123
654.156	0.0163758
654.234	0.0165927
654.312	0.0164143
654.390	0.0164181
654.468	0.0162871
654.546	0.0164865
654.624	0.0163957
654.703	0.0163239
654.781	0.0163957
654.859	0.0163969
654.937	0.0164574
655.015	0.0163443
655.093	0.0164082
655.171	0.0164395
655.249	0.0163867
655.328	0.0164531
655.406	0.0164427
655.484	0.0164843
655.562	0.0163521
655.640	0.0164954
655.718	0.0164728
655.796	0.0164658
655.874	0.0163852
655.953	0.0164555
656.031	0.0165147
656.109	0.0163844
656.187	0.0164636
656.265	0.0163218
656.343	0.0164627
656.421	0.0164666
656.499	0.0164071
656.578	0.0164143
656.656	0.0163350
656.734	0.0164651
656.812	0.0163657
656.890	0.0164095
656.968	0.0165292
657.046	0.0165168
657.124	0.0164464
657.203	0.0164598
657.281	0.0164201
657.359	0.0164528
657.437	0.0165295
657.515	0.0164410
657.593	0.0164897
657.671	0.0164273
657.749	0.0162934
657.828	0.0164232
657.906	0.0163656
657.984	0.0163338
658.062	0.0164409
658.140	0.0164293
658.218	0.0164260
658.296	0.0164771
658.374	0.0162450
658.453	0.0163310
658.531	0.0164214
658.609	0.0164352
658.687	0.0163583
658.765	0.0163007
658.843	0.0164370
658.921	0.0164944
658.999	0.0163703
659.078	0.0163887
659.156	0.0164629
659.234	0.0164272
659.312	0.0164573
659.390	0.0163828
659.468	0.0163635
659.546	0.0164117
659.624	0.0164714
659.703	0.0163027
659.781	0.0163195
659.859	0.0164878
659.937	0.0163036
660.015	0.0165057
660.093	0.0164704
660.171	0.0164462
660.249	0.0164539
660.328	0.0164054
660.406	0.0164009
660.484	0.0162932
660.562	0.0163547
660.640	0.0164520
660.718	0.0162469
660.796	0.0164311
660.874	0.0164120
660.953	0.0164603
661.031	0.0164613
661.109	0.0165296
661.187	0.0163844
661.265	0.0164255
661.343	0.0164676
661.421	0.0163838
661.499	0.0163385
661.578	0.0165488
661.656	0.0163338
661.734	0.0164883
661.812	0.0165926
661.890	0.0162553
661.968	0.0163736
662.046	0.0165151
662.124	0.0164957
662.203	0.0165243
662.281	0.0165163
662.359	0.0163296
662.437	0.0164425
662.515	0.0165806
662.593	0.0165282
662.671	0.0164548
662.749	0.0165910
662.828	0.0164721
662.906	0.0164543
662.984	0.0164754
663.062	0.0165691
663.140	0.0164426
663.218	0.0165547
663.296	0.0164556
663.374	0.0165086
663.453	0.0166322
663.531	0.0164812
663.609	0.0165334
663.687	0.0164854
663.765	0.0164014
663.843	0.0163783
663.921	0.0164937
663.999	0.0164769
664.078	0.0164885
664.156	0.0165560
664.234	0.0163708
664.312	0.0164977
664.390	0.0164664
664.468	0.0165386
664.546	0.0164961
664.624	0.0165099
664.703	0.0164845
664.781	0.0165115
664.859	0.0165069
664.937	0.0164953
665.015	0.0164580
665.093	0.0165291
665.171	0.0165256
665.249	0.0165148
665.328	0.0165222
665.406	0.0165569
665.484	0.0164802
665.562	0.0165388
665.640	0.0164780
665.718	0.0164212
665.796	0.0165051
665.874	0.0165527
665.953	0.0165266
666.031	0.0163799
666.109	0.0163593
666.187	0.0164466
666.265	0.0165945
666.343	0.0165722
666.421	0.0165052
666.499	0.0165332
666.578	0.0164204
666.656	0.0165511
666.734	0.0164526
666.812	0.0164124
666.890	0.0165851
666.968	0.0165159
667.046	0.0165021
667.124	0.0164777
667.203	0.0164508
667.281	0.0164651
667.359	0.0165108
667.437	0.0164227
667.515	0.0166049
667.593	0.0164082
667.671	0.0163873
667.749	0.0164812
667.828	0.0165363
667.906	0.0165897
667.984	0.0163988
668.062	0.0163171
668.140	0.0166120
668.218	0.0166093
668.296	0.0162933
668.374	0.0164957
668.453	0.0164327
668.531	0.0165211
668.609	0.0164252
668.687	0.0164432
668.765	0.0164267
668.843	0.0164788
668.921	0.0164231
668.999	0.0164647
669.078	0.0164108
669.156	0.0165289
669.234	0.0164489
669.312	0.0165240
669.390	0.0164801
669.468	0.0165573
669.546	0.0166048
669.624	0.0164224
669.703	0.0164507
669.781	0.0165466
669.859	0.0165522
669.937	0.0164565
670.015	0.0164616
670.093	0.0165128
670.171	0.0165870
670.249	0.0165365
670.328	0.0164571
670.406	0.0164204
670.484	0.0164335
670.562	0.0165154
670.640	0.0165571
670.718	0.0166720
670.796	0.0165202
670.874	0.0163785
670.953	0.0164560
671.031	0.0164954
671.109	0.0165385
671.187	0.0166064
671.265	0.0165170
671.343	0.0164586
671.421	0.0164578
671.499	0.0164999
671.578	0.0164592
671.656	0.0165115
671.734	0.0165524
671.812	0.0164540
671.890	0.0165585
671.968	0.0166660
672.046	0.0165601
672.124	0.0166507
672.203	0.0165732
672.281	0.0165309
672.359	0.0165747
672.437	0.0165101
672.515	0.0165002
672.593	0.0166380
672.671	0.0165444
672.749	0.0166507
672.828	0.0164777
672.906	0.0164840
672.984	0.0164249
673.062	0.0165095
673.140	0.0166248
673.218	0.0165228
673.296	0.0167010
673.374	0.0165022
673.453	0.0165556
673.531	0.0165572
673.609	0.0165339
673.687	0.0163985
673.765	0.0165463
673.843	0.0166602
673.921	0.0165873
673.999	0.0165558
674.078	0.0165845
674.156	0.0165289
674.234	0.0165625
674.312	0.0165028
674.390	0.0164913
674.468	0.0165469
674.546	0.0165713
674.624	0.0164874
674.703	0.0165608
674.781	0.0165905
674.859	0.0165792
674.937	0.0163334
675.015	0.0165051
675.093	0.0165057
675.171	0.0165376
675.249	0.0163947
675.328	0.0165901
675.406	0.0164079
675.484	0.0164034
675.562	0.0165897
675.640	0.0165284
675.718	0.0165091
675.796	0.0164882
675.874	0.0165331
675.953	0.0164790
676.031	0.0164565
676.109	0.0165955
676.187	0.0166134
676.265	0.0163685
676.343	0.0164919
676.421	0.0165336
676.499	0.0164967
676.578	0.0164680
676.656	0.0165086
676.734	0.0165665
676.812	0.0164506
676.890	0.0165583
676.968	0.0165514
677.046	0.0164861
677.124	0.0165133
677.203	0.0165605
677.281	0.0166892
677.359	0.0164292
677.437	0.0165775
677.515	0.0165020
677.593	0.0164999
677.671	0.0165882
677.749	0.0165784
677.828	0.0165325
677.906	0.0165584
677.984	0.0165955
678.062	0.0164732
678.140	0.0165923
678.218	0.0165064
678.296	0.0165510
678.374	0.0164515
678.453	0.0164820
678.531	0.0164594
678.609	0.0165487
678.687	0.0164896
678.765	0.0164560
678.843	0.0164398
678.921	0.0165189
678.999	0.0164465
679.078	0.0164112
679.156	0.0165121
679.234	0.0165380
679.312	0.0165585
679.390	0.0165649
679.468	0.0165964
679.546	0.0165140
679.624	0.0165337
679.703	0.0165184
679.781	0.0164349
679.859	0.0164681
679.937	0.0166742
680.015	0.0166507
680.093	0.0165961
680.171	0.0164598
680.249	0.0164514
680.328	0.0166074
680.406	0.0163981
680.484	0.0164613
680.562	0.0164803
680.640	0.0164539
680.718	0.0165336
680.796	0.0165685
680.874	0.0165472
680.953	0.0165166
681.031	0.0164769
681.109	0.0164768
681.187	0.0165619
681.265	0.0164754
681.343	0.0164067
681.421	0.0164754
681.499	0.0164020
681.578	0.0165462
681.656	0.0164711
681.734	0.0164114
681.812	0.0164187
681.890	0.0163915
681.968	0.0164653
682.046	0.0165280
682.124	0.0164542
682.203	0.0165573
682.281	0.0165277
682.359	0.0164935
682.437	0.0164883
682.515	0.0164557
682.593	0.0164906
682.671	0.0163913
682.749	0.0166568
682.828	0.0165600
682.906	0.0163715
682.984	0.0163975
683.062	0.0164566
683.140	0.0164497
683.218	0.0165417
683.296	0.0164523
683.374	0.0163287
683.453	0.0165302
683.531	0.0165506
683.609	0.0164684
683.687	0.0163891
683.765	0.0164967
683.843	0.0165271
683.921	0.0164603
683.999	0.0164909
684.078	0.0166047
684.156	0.0164488
684.234	0.0163694
684.312	0.0164552
684.390	0.0164291
684.468	0.0165083
684.546	0.0164659
684.624	0.0163988
684.703	0.0164829
684.781	0.0164228
684.859	0.0164154
684.937	0.0164915
685.015	0.0164463
685.093	0.0165295
685.171	0.0165025
685.249	0.0164568
685.328	0.0164827
685.406	0.0166012
685.484	0.0165374
685.562	0.0165234
685.640	0.0164481
685.718	0.0165208
685.796	0.0164711
685.874	0.0165716
685.953	0.0166240
686.031	0.0163899
686.109	0.0164946
686.187	0.0166051
686.265	0.0164246
686.343	0.0165144
686.421	0.0164680
686.499	0.0165144
686.578	0.0166351
686.656	0.0163689
686.734	0.0164124
686.812	0.0165801
686.890	0.0165186
686.968	0.0164337
687.046	0.0164301
687.124	0.0165226
687.203	0.0164637
687.281	0.0164727
687.359	0.0165658
687.437	0.0165093
687.515	0.0166004
687.593	0.0166115
687.671	0.0165929
687.749	0.0164893
687.828	0.0165630
687.906	0.0164986
687.984	0.0165210
688.062	0.0164191
688.140	0.0165525
688.218	0.0165224
688.296	0.0164509
688.374	0.0165265
688.453	0.0164861
688.531	0.0165271
688.609	0.0163963
688.687	0.0165833
688.765	0.0165650
688.843	0.0164474
688.921	0.0165695
688.999	0.0165976
689.078	0.0166533
689.156	0.0165372
689.234	0.0165408
689.312	0.0165536
689.390	0.0164990
689.468	0.0166859
689.546	0.0165013
689.624	0.0165568
689.703	0.0165968
689.781	0.0165424
689.859	0.0164726
689.937	0.0164577
690.015	0.0164827
690.093	0.0166294
690.171	0.0165718
690.249	0.0165276
690.328	0.0165049
690.406	0.0164081
690.484	0.0164931
690.562	0.0166398
690.640	0.0165567
690.718	0.0165527
690.796	0.0166110
690.874	0.0164903
690.953	0.0167263
691.031	0.0166255
691.109	0.0166425
691.187	0.0165501
691.265	0.0165470
691.343	0.0164556
691.421	0.0165569
691.499	0.0164726
691.578	0.0164625
691.656	0.0165332
691.734	0.0165496
691.812	0.0165487
691.890	0.0164857
691.968	0.0164758
692.046	0.0166340
692.124	0.0164385
692.203	0.0165405
692.281	0.0165014
692.359	0.0166036
692.437	0.0166184
692.515	0.0164754
692.593	0.0165051
692.671	0.0164677
692.749	0.0164333
692.828	0.0164709
692.906	0.0166033
692.984	0.0165791
693.062	0.0164545
693.140	0.0164680
693.218	0.0165691
693.296	0.0164327
693.374	0.0164296
693.453	0.0166122
693.531	0.0166528
693.609	0.0164583
693.687	0.0165649
693.765	0.0165103
693.843	0.0162724
693.921	0.0165517
693.999	0.0166016
694.078	0.0165665
694.156	0.0164377
694.234	0.0164734
694.312	0.0165255
694.390	0.0165498
694.468	0.0164135
694.546	0.0163962
694.624	0.0164169
694.703	0.0163710
694.781	0.0165470
694.859	0.0165209
694.937	0.0165063
695.015	0.0165593
695.093	0.0166499
695.171	0.0165309
695.249	0.0165350
695.328	0.0164058
695.406	0.0163750
695.484	0.0164640
695.562	0.0163994
695.640	0.0165896
695.718	0.0165495
695.796	0.0164581
695.874	0.0164706
695.953	0.0166576
696.031	0.0165825
696.109	0.0164880
696.187	0.0165932
696.265	0.0164546
696.343	0.0165763
696.421	0.0165665
696.499	0.0165955
696.578	0.0164953
696.656	0.0164658
696.734	0.0164623
696.812	0.0164024
696.890	0.0165924
696.968	0.0164854
697.046	0.0163905
697.124	0.0166465
697.203	0.0163055
697.281	0.0166066
697.359	0.0163908
697.437	0.0164227
697.515	0.0164920
697.593	0.0164983
697.671	0.0165710
697.749	0.0164278
697.828	0.0163735
697.906	0.0165237
697.984	0.0164045
698.062	0.0163018
698.140	0.0165204
698.218	0.0164264
698.296	0.0164499
698.374	0.0163966
698.453	0.0165038
698.531	0.0165028
698.609	0.0164558
698.687	0.0164123
698.765	0.0165084
698.843	0.0164407
698.921	0.0164325
698.999	0.0165167
699.078	0.0165723
699.156	0.0165849
699.234	0.0164711
699.312	0.0165108
699.390	0.0165044
699.468	0.0164481
699.546	0.0164583
699.624	0.0164650
699.703	0.0165429
699.781	0.0164794
699.859	0.0165302
699.937	0.0165570
700.015	0.0165121
700.093	0.0164995
700.171	0.0165276
700.249	0.0165971
700.328	0.0164771
700.406	0.0165829
700.484	0.0164612
700.562	0.0164891
700.640	0.0165730
700.718	0.0163793
700.796	0.0163674
700.874	0.0164890
700.953	0.0166481
701.031	0.0164930
701.109	0.0165195
701.187	0.0164664
701.265	0.0165350
701.343	0.0163950
701.421	0.0164258
701.499	0.0164057
701.578	0.0164462
701.656	0.0163892
701.734	0.0165199
701.812	0.0165485
701.890	0.0165233
701.968	0.0164310
702.046	0.0164286
702.124	0.0165787
702.203	0.0165060
702.281	0.0164969
702.359	0.0164717
702.437	0.0164638
702.515	0.0164147
702.593	0.0163997
702.671	0.0165747
702.749	0.0165269
702.828	0.0164276
702.906	0.0164720
702.984	0.0165268
703.062	0.0165842
703.140	0.0165052
703.218	0.0164367
703.296	0.0164673
703.374	0.0163570
703.453	0.0164674
703.531	0.0165141
703.609	0.0165277
703.687	0.0165931
703.765	0.0164579
703.843	0.0164310
703.921	0.0164014
703.999	0.0166060
704.078	0.0164101
704.156	0.0163608
704.234	0.0165014
704.312	0.0165437
704.390	0.0165343
704.468	0.0164187
704.546	0.0164714
704.624	0.0164745
704.703	0.0164536
704.781	0.0164245
704.859	0.0163264
704.937	0.0164659
705.015	0.0165823
705.093	0.0164968
705.171	0.0163750
705.249	0.0163235
705.328	0.0164499
705.406	0.0165579
705.484	0.0164551
705.562	0.0163819
705.640	0.0163039
705.718	0.0163010
705.796	0.0165207
705.874	0.0166119
705.953	0.0163206
706.031	0.0164011
706.109	0.0164709
706.187	0.0162846
706.265	0.0164610
706.343	0.0165492
706.421	0.0164943
706.499	0.0166335
706.578	0.0164801
706.656	0.0166472
706.734	0.0164185
706.812	0.0166472
706.890	0.0163945
706.968	0.0164301
707.046	0.0165176
707.124	0.0164694
707.203	0.0166611
707.281	0.0165236
707.359	0.0166499
707.437	0.0164323
707.515	0.0164338
707.593	0.0165105
707.671	0.0164241
707.749	0.0164036
707.828	0.0165667
707.906	0.0164314
707.984	0.0164074
708.062	0.0165025
708.140	0.0164996
708.218	0.0163928
708.296	0.0163399
708.374	0.0163916
708.453	0.0164400
708.531	0.0165326
708.609	0.0165141
708.687	0.0164276
708.765	0.0165734
708.843	0.0164017
708.921	0.0163274
708.999	0.0164249
709.078	0.0164515
709.156	0.0164773
709.234	0.0165536
709.312	0.0164275
709.390	0.0164571
709.468	0.0164548
709.546	0.0164969
709.624	0.0164125
709.703	0.0164462
709.781	0.0164672
709.859	0.0164234
709.937	0.0164325
710.015	0.0164033
710.093	0.0163639
710.171	0.0164165
710.249	0.0163573
710.328	0.0162676
710.406	0.0164686
710.484	0.0164663
710.562	0.0164192
710.640	0.0163351
710.718	0.0164951
710.796	0.0165148
710.874	0.0164725
710.953	0.0163573
711.031	0.0164484
711.109	0.0165165
711.187	0.0165133
711.265	0.0164413
711.343	0.0165188
711.421	0.0165609
711.499	0.0164771
711.578	0.0163726
711.656	0.0163589
711.734	0.0164289
711.812	0.0165211
711.890	0.0164632
711.968	0.0164404
712.046	0.0166063
712.124	0.0163860
712.203	0.0163451
712.281	0.0165960
712.359	0.0166002
712.437	0.0164613
712.515	0.0164130
712.593	0.0162843
712.671	0.0165292
712.749	0.0164581
712.828	0.0162288
712.906	0.0164728
712.984	0.0163450
713.062	0.0165186
713.140	0.0165105
713.218	0.0163446
713.296	0.0164028
713.374	0.0164481
713.453	0.0164195
713.531	0.0163754
713.609	0.0162488
713.687	0.0164022
713.765	0.0162879
713.843	0.0163992
713.921	0.0165217
713.999	0.0164936
714.078	0.0165388
714.156	0.0165548
714.234	0.0165872
714.312	0.0165734
714.390	0.0166620
714.468	0.0166422
714.546	0.0165456
714.624	0.0166922
714.703	0.0166705
714.781	0.0165917
714.859	0.0166522
714.937	0.0164764
715.015	0.0165192
715.093	0.0163582
715.171	0.0163599
715.249	0.0164136
715.328	0.0162207
715.406	0.0164368
715.484	0.0164523
715.562	0.0164059
715.640	0.0164956
715.718	0.0162375
715.796	0.0164569
715.874	0.0164141
715.953	0.0165131
716.031	0.0165704
716.109	0.0165858
716.187	0.0165364
716.265	0.0163860
716.343	0.0167072
716.421	0.0167285
716.499	0.0165578
716.578	0.0165564
716.656	0.0166443
716.734	0.0165742
716.812	0.0166982
716.890	0.0166482
716.968	0.0164251
717.046	0.0164624
717.124	0.0165443
717.203	0.0164905
717.281	0.0164548
717.359	0.0164231
717.437	0.0163883
717.515	0.0164661
717.593	0.0164484
717.671	0.0163963
717.749	0.0164512
717.828	0.0163779
717.906	0.0164291
717.984	0.0163733
718.062	0.0164581
718.140	0.0165516
718.218	0.0163930
718.296	0.0163827
718.374	0.0165227
718.453	0.0164459
718.531	0.0164745
718.609	0.0165170
718.687	0.0165028
718.765	0.0164956
718.843	0.0165607
718.921	0.0166331
718.999	0.0166345
719.078	0.0165893
719.156	0.0164034
719.234	0.0164659
719.312	0.0165525
719.390	0.0165326
719.468	0.0165357
719.546	0.0165702
719.624	0.0164917
719.703	0.0164737
719.781	0.0164618
719.859	0.0163918
719.937	0.0163885
720.015	0.0164407
720.093	0.0164573
720.171	0.0164644
720.249	0.0164339
720.328	0.0165183
720.406	0.0164087
720.484	0.0165057
720.562	0.0164404
720.640	0.0164279
720.718	0.0163941
720.796	0.0165945
720.874	0.0164455
720.953	0.0164951
721.031	0.0164537
721.109	0.0164618
721.187	0.0165276
721.265	0.0165597
721.343	0.0164786
721.421	0.0164919
721.499	0.0165044
721.578	0.0164384
721.656	0.0164425
721.734	0.0165618
721.812	0.0164764
721.890	0.0165122
721.968	0.0164841
722.046	0.0163319
722.124	0.0162878
722.203	0.0164220
722.281	0.0164903
722.359	0.0164796
722.437	0.0164388
722.515	0.0163768
722.593	0.0164671
722.671	0.0164052
722.749	0.0162731
722.828	0.0162952
722.906	0.0164241
722.984	0.0164354
723.062	0.0165249
723.140	0.0162997
723.218	0.0163966
723.296	0.0164571
723.374	0.0165092
723.453	0.0164171
723.531	0.0163458
723.609	0.0164323
723.687	0.0165193
723.765	0.0164777
723.843	0.0163561
723.921	0.0164906
723.999	0.0164905
724.078	0.0164877
724.156	0.0164241
724.234	0.0163350
724.312	0.0163966
724.390	0.0165199
724.468	0.0166022
724.546	0.0164076
724.624	0.0163914
724.703	0.0163505
724.781	0.0164367
724.859	0.0165061
724.937	0.0164259
725.015	0.0163283
725.093	0.0163998
725.171	0.0165656
725.249	0.0164268
725.328	0.0164228
725.406	0.0163891
725.484	0.0164605
725.562	0.0163856
725.640	0.0163846
725.718	0.0164256
725.796	0.0164375
725.874	0.0164115
725.953	0.0163851
726.031	0.0164168
726.109	0.0164044
726.187	0.0165141
726.265	0.0164820
726.343	0.0164506
726.421	0.0165517
726.499	0.0164460
726.578	0.0162954
726.656	0.0165636
726.734	0.0164188
726.812	0.0164963
726.890	0.0164285
726.968	0.0164629
727.046	0.0164884
727.124	0.0164031
727.203	0.0164491
727.281	0.0164807
727.359	0.0164610
727.437	0.0165176
727.515	0.0164360
727.593	0.0164896
727.671	0.0164825
727.749	0.0166029
727.828	0.0165128
727.906	0.0164813
727.984	0.0163843
728.062	0.0165008
728.140	0.0163161
728.218	0.0165461
728.296	0.0165799
728.374	0.0165128
728.453	0.0164627
728.531	0.0165159
728.609	0.0165102
728.687	0.0165672
728.765	0.0163361
728.843	0.0165176
728.921	0.0164412
728.999	0.0163837
729.078	0.0165176
729.156	0.0165796
729.234	0.0164286
729.312	0.0164518
729.390	0.0165618
729.468	0.0164753
729.546	0.0164681
729.624	0.0164682
729.703	0.0165385
729.781	0.0165547
729.859	0.0165023
729.937	0.0165092
730.015	0.0165926
730.093	0.0164374
730.171	0.0163825
730.249	0.0165475
730.328	0.0164881
730.406	0.0164629
730.484	0.0163781
730.562	0.0164412
730.640	0.0164473
730.718	0.0164252
730.796	0.0165260
730.874	0.0164688
730.953	0.0165028
731.031	0.0164140
731.109	0.0164359
731.187	0.0164217
731.265	0.0165646
731.343	0.0165016
731.421	0.0165432
731.499	0.0164289
731.578	0.0163447
731.656	0.0164813
731.734	0.0165199
731.812	0.0164326
731.890	0.0164339
731.968	0.0164939
732.046	0.0164490
732.124	0.0163621
732.203	0.0164968
732.281	0.0164075
732.359	0.0164144
732.437	0.0164987
732.515	0.0164131
732.593	0.0164070
732.671	0.0163477
732.749	0.0164503
732.828	0.0165021
732.906	0.0164235
732.984	0.0163932
733.062	0.0165588
733.140	0.0165666
733.218	0.0163950
733.296	0.0165025
733.374	0.0165171
733.453	0.0164687
733.531	0.0165289
733.609	0.0163480
733.687	0.0166022
733.765	0.0165378
733.843	0.0165578
733.921	0.0164687
733.999	0.0164243
734.078	0.0165060
734.156	0.0165014
734.234	0.0163667
734.312	0.0164107
734.390	0.0164374
734.468	0.0164803
734.546	0.0163913
734.624	0.0165367
734.703	0.0164641
734.781	0.0164712
734.859	0.0164474
734.937	0.0165423
735.015	0.0165564
735.093	0.0164283
735.171	0.0164101
735.249	0.0164841
735.328	0.0165208
735.406	0.0164975
735.484	0.0163808
735.562	0.0165228
735.640	0.0165134
735.718	0.0164452
735.796	0.0165309
735.874	0.0164771
735.953	0.0165791
736.031	0.0163953
736.109	0.0164626
736.187	0.0165376
736.265	0.0163783
736.343	0.0165691
736.421	0.0165882
736.499	0.0164235
736.578	0.0164847
736.656	0.0165404
736.734	0.0164799
736.812	0.0164233
736.890	0.0164297
736.968	0.0165260
737.046	0.0163982
737.124	0.0164584
737.203	0.0165138
737.281	0.0165260
737.359	0.0164783
737.437	0.0166253
737.515	0.0163981
737.593	0.0164070
737.671	0.0165926
737.749	0.0164720
737.828	0.0163793
737.906	0.0165060
737.984	0.0165274
738.062	0.0165498
738.140	0.0164693
738.218	0.0163979
738.296	0.0164835
738.374	0.0165722
738.453	0.0164877
738.531	0.0165395
738.609	0.0165219
738.687	0.0164610
738.765	0.0164974
738.843	0.0165270
738.921	0.0164258
738.999	0.0165722
739.078	0.0164745
739.156	0.0164465
739.234	0.0165808
739.312	0.0164031
739.390	0.0163419
739.468	0.0164960
739.546	0.0165691
739.624	0.0164971
739.703	0.0164825
739.781	0.0164402
739.859	0.0162946
739.937	0.0164592
740.015	0.0164928
740.093	0.0165346
740.171	0.0164606
740.249	0.0165146
740.328	0.0165856
740.406	0.0165141
740.484	0.0164920
740.562	0.0164573
740.640	0.0164630
740.718	0.0164140
740.796	0.0164177
740.874	0.0165156
740.953	0.0164893
741.031	0.0164761
741.109	0.0165808
741.187	0.0165109
741.265	0.0165820
741.343	0.0164838
741.421	0.0164243
741.499	0.0165842
741.578	0.0167040
741.656	0.0165327
741.734	0.0165227
741.812	0.0164759
741.890	0.0164785
741.968	0.0166836
742.046	0.0165454
742.124	0.0165816
742.203	0.0164447
742.281	0.0165514
742.359	0.0166531
742.437	0.0164294
742.515	0.0165105
742.593	0.0165620
742.671	0.0166518
742.749	0.0165540
742.828	0.0164379
742.906	0.0164848
742.984	0.0163808
743.062	0.0163765
743.140	0.0165210
743.218	0.0164426
743.296	0.0163056
743.374	0.0163081
743.453	0.0165818
743.531	0.0164302
743.609	0.0164565
743.687	0.0164813
743.765	0.0164551
743.843	0.0162794
743.921	0.0164162
743.999	0.0164659
744.078	0.0165163
744.156	0.0164783
744.234	0.0164190
744.312	0.0163792
744.390	0.0163627
744.468	0.0165327
744.546	0.0165318
744.624	0.0165690
744.703	0.0164685
744.781	0.0163097
744.859	0.0163831
744.937	0.0165543
745.015	0.0165647
745.093	0.0163889
745.171	0.0164573
745.249	0.0165216
745.328	0.0165135
745.406	0.0165431
745.484	0.0164059
745.562	0.0164359
745.640	0.0166309
745.718	0.0164748
745.796	0.0165810
745.874	0.0165696
745.953	0.0165943
746.031	0.0164662
746.109	0.0164775
746.187	0.0164993
746.265	0.0165007
746.343	0.0164962
746.421	0.0165078
746.499	0.0165295
746.578	0.0164572
746.656	0.0164185
746.734	0.0165301
746.812	0.0165488
746.890	0.0166167
746.968	0.0164645
747.046	0.0164402
747.124	0.0165284
747.203	0.0165143
747.281	0.0163576
747.359	0.0166453
747.437	0.0165742
747.515	0.0164787
747.593	0.0164853
747.671	0.0164790
747.749	0.0165473
747.828	0.0164439
747.906	0.0165575
747.984	0.0164314
748.062	0.0165260
748.140	0.0164154
748.218	0.0165302
748.296	0.0165763
748.374	0.0165910
748.453	0.0164793
748.531	0.0165384
748.609	0.0165561
748.687	0.0165202
748.765	0.0164830
748.843	0.0165589
748.921	0.0165268
748.999	0.0163730
749.078	0.0165549
749.156	0.0165156
749.234	0.0165241
749.312	0.0167451
749.390	0.0165627
749.468	0.0165210
749.546	0.0165630
749.624	0.0166179
749.703	0.0166234
749.781	0.0165841
749.859	0.0165118
749.937	0.0164087
750.015	0.0165758
750.093	0.0166972
750.171	0.0164967
750.249	0.0164873
750.328	0.0165027
750.406	0.0164816
750.484	0.0163822
750.562	0.0165927
750.640	0.0164847
750.718	0.0164127
750.796	0.0164029
750.874	0.0165665
750.953	0.0165144
751.031	0.0165643
751.109	0.0164834
751.187	0.0167083
751.265	0.0165168
751.343	0.0165516
751.421	0.0164821
751.499	0.0166050
751.578	0.0166685
751.656	0.0166585
751.734	0.0166654
751.812	0.0166295
751.890	0.0166116
751.968	0.0165793
752.046	0.0166286
752.124	0.0167068
752.203	0.0166737
752.281	0.0167393
752.359	0.0165552
752.437	0.0166032
752.515	0.0163990
752.593	0.0165656
752.671	0.0165222
752.749	0.0164928
752.828	0.0164665
752.906	0.0164779
752.984	0.0164249
753.062	0.0164227
753.140	0.0164317
753.218	0.0164433
753.296	0.0166193
753.374	0.0165007
753.453	0.0164529
753.531	0.0165256
753.609	0.0163705
753.687	0.0164912
753.765	0.0164899
753.843	0.0163652
753.921	0.0164882
753.999	0.0164699
754.078	0.0167227
754.156	0.0166048
754.234	0.0166322
754.312	0.0166431
754.390	0.0165060
754.468	0.0165565
754.546	0.0166303
754.624	0.0165586
754.703	0.0165617
754.781	0.0164977
754.859	0.0166209
754.937	0.0165894
755.015	0.0164751
755.093	0.0164787
755.171	0.0166161
755.249	0.0164461
755.328	0.0166135
755.406	0.0166246
755.484	0.0165619
755.562	0.0167117
755.640	0.0166245
755.718	0.0164793
755.796	0.0165169
755.874	0.0164972
755.953	0.0166028
756.031	0.0164053
756.109	0.0166235
756.187	0.0164943
756.265	0.0165519
756.343	0.0164124
756.421	0.0164584
756.499	0.0163912
756.578	0.0164624
756.656	0.0163912
756.734	0.0162461
756.812	0.0164625
756.890	0.0165481
756.968	0.0163966
757.046	0.0162819
757.124	0.0164655
757.203	0.0164107
757.281	0.0164799
757.359	0.0164342
757.437	0.0162382
757.515	0.0164100
757.593	0.0163493
757.671	0.0163858
757.749	0.0163908
757.828	0.0164312
757.906	0.0164874
757.984	0.0164276
758.062	0.0164488
758.140	0.0164632
758.218	0.0165186
758.296	0.0166101
758.374	0.0165513
758.453	0.0163222
758.531	0.0164987
758.609	0.0163341
758.687	0.0163609
758.765	0.0163078
758.843	0.0164218
758.921	0.0164524
758.999	0.0164332
759.078	0.0164199
759.156	0.0163016
759.234	0.0163416
759.312	0.0164642
759.390	0.0164112
759.468	0.0163846
759.546	0.0163121
759.624	0.0163049
759.703	0.0163616
759.781	0.0164388
759.859	0.0164048
759.937	0.0163960
760.015	0.0163703
760.093	0.0162878
760.171	0.0164336
760.249	0.0163591
760.328	0.0164433
760.406	0.0166231
760.484	0.0165621
760.562	0.0166946
760.640	0.0166304
760.718	0.0166333
760.796	0.0166805
760.874	0.0166181
760.953	0.0166870
761.031	0.0168286
761.109	0.0167711
761.187	0.0168306
761.265	0.0165728
761.343	0.0167727
761.421	0.0167502
761.499	0.0166789
761.578	0.0166837
761.656	0.0166792
761.734	0.0167933
761.812	0.0166349
761.890	0.0165157
761.968	0.0164276
762.046	0.0165175
762.124	0.0165205
762.203	0.0165251
762.281	0.0164181
762.359	0.0162641
762.437	0.0162967
762.515	0.0163031
762.593	0.0163818
762.671	0.0163400
762.749	0.0163007
762.828	0.0163800
762.906	0.0163251
762.984	0.0162688
763.062	0.0164380
763.140	0.0163692
763.218	0.0163858
763.296	0.0164098
763.374	0.0163992
763.453	0.0165145
763.531	0.0163275
763.609	0.0165508
763.687	0.0162984
763.765	0.0164935
763.843	0.0166338
763.921	0.0166496
763.999	0.0167043
764.078	0.0166722
764.156	0.0166290
764.234	0.0167909
764.312	0.0168849
764.390	0.0168481
764.468	0.0168390
764.546	0.0168980
764.624	0.0169116
764.703	0.0167149
764.781	0.0167471
764.859	0.0166697
764.937	0.0168288
765.015	0.0167585
765.093	0.0166956
765.171	0.0168218
765.249	0.0167329
765.328	0.0166666
765.406	0.0166182
765.484	0.0166713
765.562	0.0165816
765.640	0.0165825
765.718	0.0165798
765.796	0.0165674
765.874	0.0165523
765.953	0.0164208
766.031	0.0164634
766.109	0.0165007
766.187	0.0165104
766.265	0.0166177
766.343	0.0166367
766.421	0.0164423
766.499	0.0164142
766.578	0.0164939
766.656	0.0163679
766.734	0.0163602
766.812	0.0163304
766.890	0.0163245
766.968	0.0161877
767.046	0.0163464
767.124	0.0162952
767.203	0.0162329
767.281	0.0162538
767.359	0.0162607
767.437	0.0163930
767.515	0.0162167
767.593	0.0164746
767.671	0.0165343
767.749	0.0165276
767.828	0.0166083
767.906	0.0165700
767.984	0.0166897
768.062	0.0166486
768.140	0.0167021
768.218	0.0168156
768.296	0.0168916
768.374	0.0166946
768.453	0.0168518
768.531	0.0169894
768.609	0.0167907
768.687	0.0167819
768.765	0.0167365
768.843	0.0167619
768.921	0.0166472
768.999	0.0167625
769.078	0.0167608
769.156	0.0166313
769.234	0.0166329
769.312	0.0168346
769.390	0.0165437
769.468	0.0166638
769.546	0.0165977
769.624	0.0165534
769.703	0.0164401
769.781	0.0163922
769.859	0.0162480
769.937	0.0161649
770.015	0.0161646
770.093	0.0160895
770.171	0.0160229
770.249	0.0161637
770.328	0.0161232
770.406	0.0160908
770.484	0.0160562
770.562	0.0161319
770.640	0.0161600
770.718	0.0163072
770.796	0.0162805
770.874	0.0163448
770.953	0.0164223
771.031	0.0164623
771.109	0.0166153
771.187	0.0166228
771.265	0.0167685
771.343	0.0168687
771.421	0.0167717
771.499	0.0167054
771.578	0.0168710
771.656	0.0167870
771.734	0.0167224
771.812	0.0168649
771.890	0.0168343
771.968	0.0168871
772.046	0.0168376
772.124	0.0167669
772.203	0.0167577
772.281	0.0168514
772.359	0.0169973
772.437	0.0167508
772.515	0.0166854
772.593	0.0167928
772.671	0.0164433
772.749	0.0166451
772.828	0.0166753
772.906	0.0164189
772.984	0.0164252
773.062	0.0163877
773.140	0.0163494
773.218	0.0162093
773.296	0.0162849
773.374	0.0162242
773.453	0.0162107
773.531	0.0162440
773.609	0.0162933
773.687	0.0162653
773.765	0.0162044
773.843	0.0164143
773.921	0.0163541
773.999	0.0163006
774.078	0.0162452
774.156	0.0162287
774.234	0.0163017
774.312	0.0162461
774.390	0.0162560
774.468	0.0162257
774.546	0.0163042
774.624	0.0163687
774.703	0.0164421
774.781	0.0163192
774.859	0.0163989
774.937	0.0163142
775.015	0.0164195
775.093	0.0165533
775.171	0.0165321
775.249	0.0166779
775.328	0.0164846
775.406	0.0165493
775.484	0.0164621
775.562	0.0165272
775.640	0.0165987
775.718	0.0165546
775.796	0.0166367
775.874	0.0167666
775.953	0.0166946
776.031	0.0169231
776.109	0.0169395
776.187	0.0169519
776.265	0.0170679
776.343	0.0170274
776.421	0.0172009
776.499	0.0170780
776.578	0.0171081
776.656	0.0171596
776.734	0.0170330
776.812	0.0168223
776.890	0.0168041
776.968	0.0168134
777.046	0.0165589
777.124	0.0165474
777.203	0.0164384
777.281	0.0162692
777.359	0.0162537
777.437	0.0162624
777.515	0.0162684
777.593	0.0160723
777.671	0.0160007
777.749	0.0160292
777.828	0.0159953
777.906	0.0159736
777.984	0.0159561
778.062	0.0160966
778.140	0.0162584
778.218	0.0161983
778.296	0.0162180
778.374	0.0164153
778.453	0.0162643
778.531	0.0163963
778.609	0.0164488
778.687	0.0163463
778.765	0.0163461
778.843	0.0164449
778.921	0.0165994
778.999	0.0164820
779.078	0.0164311
779.156	0.0164952
779.234	0.0165939
779.312	0.0165782
779.390	0.0164341
779.468	0.0164467
779.546	0.0167193
779.624	0.0167875
779.703	0.0167902
779.781	0.0166093
779.859	0.0167600
779.937	0.0167333
780.015	0.0166642
780.093	0.0168661
780.171	0.0166463
780.249	0.0166077
780.328	0.0166775
780.406	0.0165623
780.484	0.0166210
780.562	0.0167902
780.640	0.0164484
780.718	0.0164806
780.796	0.0166304
780.874	0.0167329
780.953	0.0165862
781.031	0.0165823
781.109	0.0165865
781.187	0.0165919
781.265	0.0165505
781.343	0.0165021
781.421	0.0165447
781.499	0.0164164
781.578	0.0163696
781.656	0.0162960
781.734	0.0162004
781.812	0.0162212
781.890	0.0163280
781.968	0.0161878
782.046	0.0160823
782.124	0.0160333
782.203	0.0161956
782.281	0.0160964
782.359	0.0161728
782.437	0.0161117
782.515	0.0161929
782.593	0.0161996
782.671	0.0162282
782.749	0.0165300
782.828	0.0164335
782.906	0.0166221
782.984	0.0166927
783.062	0.0168959
783.140	0.0168318
783.218	0.0169093
783.296	0.0169704
783.374	0.0171315
783.453	0.0171795
783.531	0.0172666
783.609	0.0172227
783.687	0.0170859
783.765	0.0170297
783.843	0.0169996
783.921	0.0168472
783.999	0.0166969
784.078	0.0167686
784.156	0.0165264
784.234	0.0164876
784.312	0.0164941
784.390	0.0164114
784.468	0.0161946
784.546	0.0159657
784.624	0.0159936
784.703	0.0160471
784.781	0.0159487
784.859	0.0158389
784.937	0.0158681
785.015	0.0157993
785.093	0.0156731
785.171	0.0156555
785.249	0.0158649
785.328	0.0159888
785.406	0.0160883
785.484	0.0159397
785.562	0.0160619
785.640	0.0162001
785.718	0.0163073
785.796	0.0163886
785.874	0.0164764
785.953	0.0165178
786.031	0.0166992
786.109	0.0166977
786.187	0.0166468
786.265	0.0166951
786.343	0.0167512
786.421	0.0170615
786.499	0.0170367
786.578	0.0170875
786.656	0.0171833
786.734	0.0170287
786.812	0.0170910
786.890	0.0170586
786.968	0.0170277
787.046	0.0170914
787.124	0.0171232
787.203	0.0170536
787.281	0.0168485
787.359	0.0169661
787.437	0.0168584
787.515	0.0168614
787.593	0.0166503
787.671	0.0165264
787.749	0.0164198
787.828	0.0165041
787.906	0.0164776
787.984	0.0163137
788.062	0.0163862
788.140	0.0163120
788.218	0.0162291
788.296	0.0160891
788.374	0.0162782
788.453	0.0161408
788.531	0.0160933
788.609	0.0160878
788.687	0.0160764
788.765	0.0160676
788.843	0.0160567
788.921	0.0160967
788.999	0.0159166
789.078	0.0160775
789.156	0.0160465
789.234	0.0159289
789.312	0.0161009
789.390	0.0160944
789.468	0.0159257
789.546	0.0160254
789.624	0.0162268
789.703	0.0161571
789.781	0.0162293
789.859	0.0162549
789.937	0.0164365
790.015	0.0164879
790.093	0.0165641
790.171	0.0166104
790.249	0.0166222
790.328	0.0167886
790.406	0.0168378
790.484	0.0169810
790.562	0.0168625
790.640	0.0169081
790.718	0.0168762
790.796	0.0169232
790.874	0.0169424
790.953	0.0168951
791.031	0.0169006
791.109	0.0168297
791.187	0.0169166
791.265	0.0168470
791.343	0.0168558
791.421	0.0167334
791.499	0.0167007
791.578	0.0167563
791.656	0.0167828
791.734	0.0167732
791.812	0.0166590
791.890	0.0165416
791.968	0.0165403
792.046	0.0164578
792.124	0.0166032
792.203	0.0165142
792.281	0.0164693
792.359	0.0163404
792.437	0.0164184
792.515	0.0164713
792.593	0.0162786
792.671	0.0161646
792.749	0.0162706
792.828	0.0162998
792.906	0.0161877
792.984	0.0161896
793.062	0.0161464
793.140	0.0161269
793.218	0.0162032
793.296	0.0163561
793.374	0.0162434
793.453	0.0162226
793.531	0.0163265
793.609	0.0163749
793.687	0.0165353
793.765	0.0167041
793.843	0.0166838
793.921	0.0166678
793.999	0.0167866
794.078	0.0167574
794.156	0.0168244
794.234	0.0170097
794.312	0.0169332
794.390	0.0168702
794.468	0.0169669
794.546	0.0167143
794.624	0.0166839
794.703	0.0167471
794.781	0.0166109
794.859	0.0165560
794.937	0.0164849
795.015	0.0164719
795.093	0.0163699
795.171	0.0163249
795.249	0.0161689
795.328	0.0161089
795.406	0.0161902
795.484	0.0159622
795.562	0.0159393
795.640	0.0159612
795.718	0.0158895
795.796	0.0159390
795.874	0.0160593
795.953	0.0161423
796.031	0.0159941
796.109	0.0160312
796.187	0.0161335
796.265	0.0163002
796.343	0.0163424
796.421	0.0163857
796.499	0.0165608
796.578	0.0165791
796.656	0.0165334
796.734	0.0165961
796.812	0.0168109
796.890	0.0168768
796.968	0.0168506
797.046	0.0170179
797.124	0.0170045
797.203	0.0171465
797.281	0.0171708
797.359	0.0170237
797.437	0.0170916
797.515	0.0172224
797.593	0.0172903
797.671	0.0171299
797.749	0.0169412
797.828	0.0170193
797.906	0.0168873
797.984	0.0167620
798.062	0.0168000
798.140	0.0166245
798.218	0.0167187
798.296	0.0165760
798.374	0.0165459
798.453	0.0163908
798.531	0.0164568
798.609	0.0161977
798.687	0.0162816
798.765	0.0162708
798.843	0.0162981
798.921	0.0162981
798.999	0.0160048
799.078	0.0161558
799.156	0.0160117
799.234	0.0158831
799.312	0.0158525
799.390	0.0157394
799.468	0.0157920
799.546	0.0158467
799.624	0.0158450
799.703	0.0158067
799.781	0.0158340
799.859	0.0158058
799.937	0.0160102
800.015	0.0160864
800.093	0.0159924
800.171	0.0160654
800.249	0.0161858
800.328	0.0161151
800.406	0.0162820
800.484	0.0163168
800.562	0.0163911
800.640	0.0165414
800.718	0.0165296
800.796	0.0165337
800.874	0.0167332
800.953	0.0166496
801.031	0.0167128
801.109	0.0168471
801.187	0.0167818
801.265	0.0168510
801.343	0.0170139
801.421	0.0168930
801.499	0.0166985
801.578	0.0167590
801.656	0.0167450
801.734	0.0167089
801.812	0.0168569
801.890	0.0167458
801.968	0.0167052
802.046	0.0166624
802.124	0.0166621
802.203	0.0166831
802.281	0.0165788
802.359	0.0166357
802.437	0.0166164
802.515	0.0166621
802.593	0.0165836
802.671	0.0166101
802.749	0.0165131
802.828	0.0164391
802.906	0.0164307
802.984	0.0164436
803.062	0.0164452
803.140	0.0164862
803.218	0.0165079
803.296	0.0163059
803.374	0.0163550
803.453	0.0163853
803.531	0.0162936
803.609	0.0164335
803.687	0.0161990
803.765	0.0161475
803.843	0.0162433
803.921	0.0160589
803.999	0.0162699
804.078	0.0161981
804.156	0.0162694
804.234	0.0161694
804.312	0.0161284
804.390	0.0162875
804.468	0.0162888
804.546	0.0162720
804.624	0.0164074
804.703	0.0163316
804.781	0.0163872
804.859	0.0163621
804.937	0.0163992
805.015	0.0165132
805.093	0.0165295
805.171	0.0164861
805.249	0.0164489
805.328	0.0163727
805.406	0.0163954
805.484	0.0164639
805.562	0.0163711
805.640	0.0163824
805.718	0.0163631
805.796	0.0164617
805.874	0.0164499
805.953	0.0163452
806.031	0.0163320
806.109	0.0164586
806.187	0.0164562
806.265	0.0164393
806.343	0.0163784
806.421	0.0163815
806.499	0.0165015
806.578	0.0165731
806.656	0.0164798
806.734	0.0164311
806.812	0.0165520
806.890	0.0166618
806.968	0.0165015
807.046	0.0166104
807.124	0.0166471
807.203	0.0165719
807.281	0.0164969
807.359	0.0166241
807.437	0.0165861
807.515	0.0166070
807.593	0.0166174
807.671	0.0168143
807.749	0.0168443
807.828	0.0167118
807.906	0.0167554
807.984	0.0169582
808.062	0.0170369
808.140	0.0167168
808.218	0.0167557
808.296	0.0168406
808.374	0.0167973
808.453	0.0167841
808.531	0.0167654
808.609	0.0167725
808.687	0.0165159
808.765	0.0164893
808.843	0.0162888
808.921	0.0162962
808.999	0.0161533
809.078	0.0162707
809.156	0.0162137
809.234	0.0161102
809.312	0.0161636
809.390	0.0162598
809.468	0.0161869
809.546	0.0161607
809.624	0.0161786
809.703	0.0162187
809.781	0.0162252
809.859	0.0161719
809.937	0.0160715
810.015	0.0162344
810.093	0.0160556
810.171	0.0162573
810.249	0.0160300
810.328	0.0160831
810.406	0.0160287
810.484	0.0161828
810.562	0.0160670
810.640	0.0160989
810.718	0.0160263
810.796	0.0159794
810.874	0.0162183
810.953	0.0162133
811.031	0.0162019
811.109	0.0162102
811.187	0.0162830
811.265	0.0164502
811.343	0.0165248
811.421	0.0164424
811.499	0.0166049
811.578	0.0165061
811.656	0.0166756
811.734	0.0166763
811.812	0.0166490
811.890	0.0167701
811.968	0.0169732
812.046	0.0169736
812.124	0.0168488
812.203	0.0169008
812.281	0.0169440
812.359	0.0171106
812.437	0.0171168
812.515	0.0172101
812.593	0.0171006
812.671	0.0171744
812.749	0.0169726
812.828	0.0169945
812.906	0.0170429
812.984	0.0169300
813.062	0.0168680
813.140	0.0169106
813.218	0.0168556
813.296	0.0168542
813.374	0.0167450
813.453	0.0167066
813.531	0.0165981
813.609	0.0164320
813.687	0.0163760
813.765	0.0163900
813.843	0.0162948
813.921	0.0161316
813.999	0.0160146
814.078	0.0158432
814.156	0.0158143
814.234	0.0158471
814.312	0.0157096
814.390	0.0157713
814.468	0.0156879
814.546	0.0156902
814.624	0.0157626
814.703	0.0157417
814.781	0.0157719
814.859	0.0158297
814.937	0.0156641
815.015	0.0159045
815.093	0.0161750
815.171	0.0163013
815.249	0.0162982
815.328	0.0163920
815.406	0.0163963
815.484	0.0164384
815.562	0.0167825
815.640	0.0167976
815.718	0.0169589
815.796	0.0170770
815.874	0.0170580
815.953	0.0170926
816.031	0.0170707
816.109	0.0171289
816.187	0.0171178
816.265	0.0169483
816.343	0.0167355
816.421	0.0167432
816.499	0.0167104
816.578	0.0166886
816.656	0.0166213
816.734	0.0165841
816.812	0.0165010
816.890	0.0165289
816.968	0.0164011
817.046	0.0163503
817.124	0.0164851
817.203	0.0164370
817.281	0.0165701
817.359	0.0165187
817.437	0.0165429
817.515	0.0164795
817.593	0.0165936
817.671	0.0165303
817.749	0.0165959
817.828	0.0165068
817.906	0.0166714
817.984	0.0165533
818.062	0.0166341
818.140	0.0166444
818.218	0.0165759
818.296	0.0167941
818.374	0.0166788
818.453	0.0166682
818.531	0.0166187
818.609	0.0166081
818.687	0.0165111
818.765	0.0165330
818.843	0.0166186
818.921	0.0165060
818.999	0.0164872
819.078	0.0164262
819.156	0.0162853
819.234	0.0163630
819.312	0.0163286
819.390	0.0162058
819.468	0.0161930
819.546	0.0161841
819.624	0.0161285
819.703	0.0161162
819.781	0.0162421
819.859	0.0161790
819.937	0.0160398
820.015	0.0160511
820.093	0.0160947
820.171	0.0160213
820.249	0.0161173
820.328	0.0160986
820.406	0.0160792
820.484	0.0160806
820.562	0.0160030
820.640	0.0160680
820.718	0.0161716
820.796	0.0161937
820.874	0.0162063
820.953	0.0163470
821.031	0.0164323
821.109	0.0165978
821.187	0.0165643
821.265	0.0165498
821.343	0.0167477
821.421	0.0168618
821.499	0.0167686
821.578	0.0168911
821.656	0.0168792
821.734	0.0167656
821.812	0.0167813
821.890	0.0169176
821.968	0.0168196
822.046	0.0167702
822.124	0.0167091
822.203	0.0166379
822.281	0.0165837
822.359	0.0164668
822.437	0.0164217
822.515	0.0165491
822.593	0.0163488
822.671	0.0162694
822.749	0.0163013
822.828	0.0162304
822.906	0.0161475
822.984	0.0162021
823.062	0.0162585
823.140	0.0160666
823.218	0.0161092
823.296	0.0161536
823.374	0.0161961
823.453	0.0161892
823.531	0.0163654
823.609	0.0162116
823.687	0.0162817
823.765	0.0162634
823.843	0.0163800
823.921	0.0164060
823.999	0.0163301
824.078	0.0164803
824.156	0.0164735
824.234	0.0165353
824.312	0.0166096
824.390	0.0166531
824.468	0.0167176
824.546	0.0166871
824.624	0.0166985
824.703	0.0166362
824.781	0.0166543
824.859	0.0165050
824.937	0.0164466
825.015	0.0163161
825.093	0.0163891
825.171	0.0162491
825.249	0.0163091
825.328	0.0161569
825.406	0.0162154
825.484	0.0162491
825.562	0.0162001
825.640	0.0160463
825.718	0.0159783
825.796	0.0160778
825.874	0.0160520
825.953	0.0159836
826.031	0.0160556
826.109	0.0160130
826.187	0.0160603
826.265	0.0161463
826.343	0.0160092
826.421	0.0160796
826.499	0.0162713
826.578	0.0162742
826.656	0.0164122
826.734	0.0163509
826.812	0.0165231
826.890	0.0165602
826.968	0.0167476
827.046	0.0167787
827.124	0.0167787
827.203	0.0167845
827.281	0.0169524
827.359	0.0169335
827.437	0.0170349
827.515	0.0169619
827.593	0.0170393
827.671	0.0171861
827.749	0.0171626
827.828	0.0172472
827.906	0.0170074
827.984	0.0171458
828.062	0.0170595
828.140	0.0169283
828.218	0.0169605
828.296	0.0169004
828.374	0.0169648
828.453	0.0166743
828.531	0.0165998
828.609	0.0164934
828.687	0.0164284
828.765	0.0162624
828.843	0.0162178
828.921	0.0161456
828.999	0.0160312
829.078	0.0160676
829.156	0.0159332
829.234	0.0158937
829.312	0.0159301
829.390	0.0158038
829.468	0.0158152
829.546	0.0157105
829.624	0.0158424
829.703	0.0158129
829.781	0.0158822
829.859	0.0159451
829.937	0.0159354
830.015	0.0161446
830.093	0.0161803
830.171	0.0162756
830.249	0.0165504
830.328	0.0164942
830.406	0.0165458
830.484	0.0165746
830.562	0.0167102
830.640	0.0167867
830.718	0.0169640
830.796	0.0169199
830.874	0.0169330
830.953	0.0169495
831.031	0.0170589
831.109	0.0171009
831.187	0.0169380
831.265	0.0170786
831.343	0.0169288
831.421	0.0170144
831.499	0.0170802
831.578	0.0170499
831.656	0.0169514
831.734	0.0169448
831.812	0.0169328
831.890	0.0169457
831.968	0.0169834
832.046	0.0167789
832.124	0.0167360
832.203	0.0166752
832.281	0.0166736
832.359	0.0166012
832.437	0.0165430
832.515	0.0165291
832.593	0.0162674
832.671	0.0164768
832.749	0.0164155
832.828	0.0161395
832.906	0.0162229
832.984	0.0162747
833.062	0.0162324
833.140	0.0163327
833.218	0.0162355
833.296	0.0161411
833.374	0.0163801
833.453	0.0162208
833.531	0.0161752
833.609	0.0162533
833.687	0.0164332
833.765	0.0164942
833.843	0.0164836
833.921	0.0165287
833.999	0.0165228
834.078	0.0163665
834.156	0.0166444
834.234	0.0166694
834.312	0.0167791
834.390	0.0167614
834.468	0.0165205
834.546	0.0166433
834.624	0.0166156
834.703	0.0167854
834.781	0.0167017
834.859	0.0167809
834.937	0.0168847
835.015	0.0166775
835.093	0.0168626
835.171	0.0168843
835.249	0.0168346
835.328	0.0168521
835.406	0.0169554
835.484	0.0168803
835.562	0.0168878
835.640	0.0167997
835.718	0.0166848
835.796	0.0166774
835.874	0.0168084
835.953	0.0166887
836.031	0.0165147
836.109	0.0166195
836.187	0.0166080
836.265	0.0164434
836.343	0.0166005
836.421	0.0164857
836.499	0.0165656
836.578	0.0165072
836.656	0.0164967
836.734	0.0162180
836.812	0.0161957
836.890	0.0162547
836.968	0.0162559
837.046	0.0163031
837.124	0.0162836
837.203	0.0161978
837.281	0.0160644
837.359	0.0161021
837.437	0.0161558
837.515	0.0161934
837.593	0.0161799
837.671	0.0164460
837.749	0.0163641
837.828	0.0164622
837.906	0.0163561
837.984	0.0164640
838.062	0.0166685
838.140	0.0167050
838.218	0.0167117
838.296	0.0168940
838.374	0.0168685
838.453	0.0168906
838.531	0.0168544
838.609	0.0167339
838.687	0.0167997
838.765	0.0168655
838.843	0.0168239
838.921	0.0168395
838.999	0.0167130
839.078	0.0167630
839.156	0.0168194
839.234	0.0168078
839.312	0.0167832
839.390	0.0167141
839.468	0.0165456
839.546	0.0165475
839.624	0.0168282
839.703	0.0165344
839.781	0.0165614
839.859	0.0164657
839.937	0.0163987
840.015	0.0163470
840.093	0.0161805
840.171	0.0162562
840.249	0.0161787
840.328	0.0161480
840.406	0.0161169
840.484	0.0160731
840.562	0.0160253
840.640	0.0160454
840.718	0.0159646
840.796	0.0160745
840.874	0.0160244
840.953	0.0159559
841.031	0.0160697
841.109	0.0162399
841.187	0.0162904
841.265	0.0162413
841.343	0.0163018
841.421	0.0163918
841.499	0.0165220
841.578	0.0165260
841.656	0.0164912
841.734	0.0166854
841.812	0.0167490
841.890	0.0166822
841.968	0.0168845
842.046	0.0168006
842.124	0.0168575
842.203	0.0167272
842.281	0.0167882
842.359	0.0167609
842.437	0.0167631
842.515	0.0168246
842.593	0.0168512
842.671	0.0166525
842.749	0.0166153
842.828	0.0166989
842.906	0.0165778
842.984	0.0166434
843.062	0.0165823
843.140	0.0165399
843.218	0.0165208
843.296	0.0164365
843.374	0.0164814
843.453	0.0163864
843.531	0.0163183
843.609	0.0163904
843.687	0.0163135
843.765	0.0163644
843.843	0.0162866
843.921	0.0162100
843.999	0.0161954
844.078	0.0161613
844.156	0.0161805
844.234	0.0162405
844.312	0.0161961
844.390	0.0161829
844.468	0.0163221
844.546	0.0162889
844.624	0.0163072
844.703	0.0161890
844.781	0.0161950
844.859	0.0163552
844.937	0.0164091
845.015	0.0164685
845.093	0.0164885
845.171	0.0165359
845.249	0.0165978
845.328	0.0165782
845.406	0.0167582
845.484	0.0167586
845.562	0.0167114
845.640	0.0167783
845.718	0.0169464
845.796	0.0169133
845.874	0.0168088
845.953	0.0168238
846.031	0.0168295
846.109	0.0168377
846.187	0.0168201
846.265	0.0166148
846.343	0.0166994
846.421	0.0165522
846.499	0.0165464
846.578	0.0164892
846.656	0.0163161
846.734	0.0164182
846.812	0.0163158
846.890	0.0163237
846.968	0.0162712
847.046	0.0162362
847.124	0.0161404
847.203	0.0162428
847.281	0.0162373
847.359	0.0163534
847.437	0.0162334
847.515	0.0161809
847.593	0.0160313
847.671	0.0162252
847.749	0.0162231
847.828	0.0162467
847.906	0.0164141
847.984	0.0163420
848.062	0.0163376
848.140	0.0162919
848.218	0.0164208
848.296	0.0165395
848.374	0.0165347
848.453	0.0166667
848.531	0.0166173
848.609	0.0166073
848.687	0.0167178
848.765	0.0168983
848.843	0.0169175
848.921	0.0167857
848.999	0.0167561
849.078	0.0166491
849.156	0.0167737
849.234	0.0169022
849.312	0.0168904
849.390	0.0168153
849.468	0.0167451
849.546	0.0167077
849.624	0.0166849
849.703	0.0167241
849.781	0.0167950
849.859	0.0167070
849.937	0.0166287
850.015	0.0165942
850.093	0.0165529
850.171	0.0165131
850.249	0.0163495
850.328	0.0164539
850.406	0.0165244
850.484	0.0164365
850.562	0.0163548
850.640	0.0164672
850.718	0.0163306
850.796	0.0162238
850.874	0.0163624
850.953	0.0165496
851.031	0.0163709
851.109	0.0164206
851.187	0.0164954
851.265	0.0164479
851.343	0.0164921
851.421	0.0164993
851.499	0.0164252
851.578	0.0163855
851.656	0.0164716
851.734	0.0166470
851.812	0.0164757
851.890	0.0165430
851.968	0.0166750
852.046	0.0166275
852.124	0.0166834
852.203	0.0165370
852.281	0.0165783
852.359	0.0166154
852.437	0.0166905
852.515	0.0166068
852.593	0.0167142
852.671	0.0165700
852.749	0.0165720
852.828	0.0166141
852.906	0.0165588
852.984	0.0165752
853.062	0.0167303
853.140	0.0166352
853.218	0.0166444
853.296	0.0167104
853.374	0.0165108
853.453	0.0166147
853.531	0.0165579
853.609	0.0164535
853.687	0.0166411
853.765	0.0165573
853.843	0.0166267
853.921	0.0165691
853.999	0.0166243
854.078	0.0166058
854.156	0.0165520
854.234	0.0166272
854.312	0.0166093
854.390	0.0166241
854.468	0.0166618
854.546	0.0167281
854.624	0.0165636
854.703	0.0165973
854.781	0.0165482
854.859	0.0164535
854.937	0.0165179
855.015	0.0166125
855.093	0.0166148
855.171	0.0166695
855.249	0.0164252
855.328	0.0165112
855.406	0.0166026
855.484	0.0165801
855.562	0.0166125
855.640	0.0165416
855.718	0.0165678
855.796	0.0167277
855.874	0.0166748
855.953	0.0167323
856.031	0.0167708
856.109	0.0167727
856.187	0.0166502
856.265	0.0165900
856.343	0.0166477
856.421	0.0166985
856.499	0.0165047
856.578	0.0166162
856.656	0.0166058
856.734	0.0164456
856.812	0.0165115
856.890	0.0165252
856.968	0.0165801
857.046	0.0165443
857.124	0.0163464
857.203	0.0164498
857.281	0.0165265
857.359	0.0164802
857.437	0.0163404
857.515	0.0164091
857.593	0.0164154
857.671	0.0163717
857.749	0.0163874
857.828	0.0164484
857.906	0.0163869
857.984	0.0163730
858.062	0.0164625
858.140	0.0164030
858.218	0.0163902
858.296	0.0163255
858.374	0.0163494
858.453	0.0164297
858.531	0.0164153
858.609	0.0163661
858.687	0.0164257
858.765	0.0164193
858.843	0.0162743
858.921	0.0162829
858.999	0.0162551
859.078	0.0162797
859.156	0.0164417
859.234	0.0163583
859.312	0.0163181
859.390	0.0163145
859.468	0.0164250
859.546	0.0162975
859.624	0.0164588
859.703	0.0166256
859.781	0.0164822
859.859	0.0165500
859.937	0.0164528
860.015	0.0165620
860.093	0.0164600
860.171	0.0165987
860.249	0.0164827
860.328	0.0166221
860.406	0.0165626
860.484	0.0167172
860.562	0.0166328
860.640	0.0166616
860.718	0.0166975
860.796	0.0166541
860.874	0.0167186
860.953	0.0167183
861.031	0.0168004
861.109	0.0167038
861.187	0.0166196
861.265	0.0167032
861.343	0.0166556
861.421	0.0166933
861.499	0.0164857
861.578	0.0166103
861.656	0.0166617
861.734	0.0165959
861.812	0.0165668
861.890	0.0165324
861.968	0.0163241
862.046	0.0164858
862.124	0.0164896
862.203	0.0165934
862.281	0.0163930
862.359	0.0163837
862.437	0.0165250
862.515	0.0164542
862.593	0.0165579
862.671	0.0163094
862.749	0.0163529
862.828	0.0162421
862.906	0.0163741
862.984	0.0162025
863.062	0.0163387
863.140	0.0163930
863.218	0.0164523
863.296	0.0163258
863.374	0.0162603
863.453	0.0163857
863.531	0.0163486
863.609	0.0163305
863.687	0.0163924
863.765	0.0163624
863.843	0.0164124
863.921	0.0164563
863.999	0.0164580
864.078	0.0163046
864.156	0.0165455
864.234	0.0164289
864.312	0.0164053
864.390	0.0163808
864.468	0.0164706
864.546	0.0164704
864.624	0.0164119
864.703	0.0164713
864.781	0.0163242
864.859	0.0162818
864.937	0.0165520
865.015	0.0166465
865.093	0.0165028
865.171	0.0166307
865.249	0.0164809
865.328	0.0165022
865.406	0.0166292
865.484	0.0164520
865.562	0.0166423
865.640	0.0166039
865.718	0.0165004
865.796	0.0165250
865.874	0.0167469
865.953	0.0167277
866.031	0.0166111
866.109	0.0165614
866.187	0.0165218
866.265	0.0165733
866.343	0.0163963
866.421	0.0164683
866.499	0.0163743
866.578	0.0165556
866.656	0.0164496
866.734	0.0165617
866.812	0.0164466
866.890	0.0164709
866.968	0.0164182
867.046	0.0165051
867.124	0.0165638
867.203	0.0165242
867.281	0.0165903
867.359	0.0165839
867.437	0.0165353
867.515	0.0164981
867.593	0.0166431
867.671	0.0167188
867.749	0.0166828
867.828	0.0165625
867.906	0.0165498
867.984	0.0165800
868.062	0.0166832
868.140	0.0164670
868.218	0.0165878
868.296	0.0165892
868.374	0.0164915
868.453	0.0164369
868.531	0.0165794
868.609	0.0165028
868.687	0.0162952
868.765	0.0165082
868.843	0.0166369
868.921	0.0163769
868.999	0.0165519
869.078	0.0164731
869.156	0.0164497
869.234	0.0164742
869.312	0.0164967
869.390	0.0164296
869.468	0.0164585
869.546	0.0165866
869.624	0.0165136
869.703	0.0165192
869.781	0.0164829
869.859	0.0163695
869.937	0.0164897
870.015	0.0164848
870.093	0.0164915
870.171	0.0165306
870.249	0.0165366
870.328	0.0166750
870.406	0.0166447
870.484	0.0164058
870.562	0.0165040
870.640	0.0166619
870.718	0.0165051
870.796	0.0163923
870.874	0.0163856
870.953	0.0164939
871.031	0.0166312
871.109	0.0164107
871.187	0.0164890
871.265	0.0164909
871.343	0.0164425
871.421	0.0165911
871.499	0.0166121
871.578	0.0166479
871.656	0.0166209
871.734	0.0165392
871.812	0.0165363
871.890	0.0165804
871.968	0.0166110
872.046	0.0166553
872.124	0.0165556
872.203	0.0166512
872.281	0.0165645
872.359	0.0166811
872.437	0.0165661
872.515	0.0165639
872.593	0.0165410
872.671	0.0165260
872.749	0.0165473
872.828	0.0165105
872.906	0.0164329
872.984	0.0165919
873.062	0.0165342
873.140	0.0165843
873.218	0.0167303
873.296	0.0167599
873.374	0.0165842
873.453	0.0166843
873.531	0.0165440
873.609	0.0164952
873.687	0.0166291
873.765	0.0166827
873.843	0.0167589
873.921	0.0166496
873.999	0.0166698
874.078	0.0166433
874.156	0.0165461
874.234	0.0164212
874.312	0.0165569
874.390	0.0166824
874.468	0.0165427
874.546	0.0164899
874.624	0.0164833
874.703	0.0165166
874.781	0.0164658
874.859	0.0163943
874.937	0.0164620
875.015	0.0164587
875.093	0.0165768
875.171	0.0165535
875.249	0.0164793
875.328	0.0164718
875.406	0.0165441
875.484	0.0166344
875.562	0.0165454
875.640	0.0165892
875.718	0.0165981
875.796	0.0166103
875.874	0.0165870
875.953	0.0167305
876.031	0.0166381
876.109	0.0165685
876.187	0.0166647
876.265	0.0167490
876.343	0.0167452
876.421	0.0167012
876.499	0.0166415
876.578	0.0165141
876.656	0.0166400
876.734	0.0166073
876.812	0.0166339
876.890	0.0165031
876.968	0.0166313
877.046	0.0165236
877.124	0.0166198
877.203	0.0165800
877.281	0.0166043
877.359	0.0165845
877.437	0.0165115
877.515	0.0166868
877.593	0.0166421
877.671	0.0165855
877.749	0.0167281
877.828	0.0165861
877.906	0.0166970
877.984	0.0166239
878.062	0.0164836
878.140	0.0165386
878.218	0.0165979
878.296	0.0166543
878.374	0.0166346
878.453	0.0165026
878.531	0.0164768
878.609	0.0165421
878.687	0.0164764
878.765	0.0165199
878.843	0.0164424
878.921	0.0165022
878.999	0.0163692
879.078	0.0164633
879.156	0.0164744
879.234	0.0164098
879.312	0.0164543
879.390	0.0166127
879.468	0.0166643
879.546	0.0165262
879.624	0.0165848
879.703	0.0165553
879.781	0.0164642
879.859	0.0165507
879.937	0.0165662
880.015	0.0163991
880.093	0.0164365
880.171	0.0166344
880.249	0.0166675
880.328	0.0165874
880.406	0.0165217
880.484	0.0164696
880.562	0.0164247
880.640	0.0164245
880.718	0.0163908
880.796	0.0164301
880.874	0.0162503
880.953	0.0165009
881.031	0.0164268
881.109	0.0163544
881.187	0.0163850
881.265	0.0164463
881.343	0.0162675
881.421	0.0163746
881.499	0.0163251
881.578	0.0163794
881.656	0.0164592
881.734	0.0163659
881.812	0.0164695
881.890	0.0164507
881.968	0.0163776
882.046	0.0163670
882.124	0.0163370
882.203	0.0164915
882.281	0.0164751
882.359	0.0165327
882.437	0.0162707
882.515	0.0164204
882.593	0.0164288
882.671	0.0165002
882.749	0.0164008
882.828	0.0164546
882.906	0.0165914
882.984	0.0163190
883.062	0.0165167
883.140	0.0164906
883.218	0.0164200
883.296	0.0164582
883.374	0.0164281
883.453	0.0163681
883.531	0.0163112
883.609	0.0163882
883.687	0.0163551
883.765	0.0164965
883.843	0.0165810
883.921	0.0164916
883.999	0.0164964
884.078	0.0164622
884.156	0.0167078
884.234	0.0164941
884.312	0.0166322
884.390	0.0163624
884.468	0.0163599
884.546	0.0165663
884.624	0.0165053
884.703	0.0164517
884.781	0.0165416
884.859	0.0163544
884.937	0.0163625
885.015	0.0162122
885.093	0.0164046
885.171	0.0162614
885.249	0.0161498
885.328	0.0163248
885.406	0.0162405
885.484	0.0162498
885.562	0.0162950
885.640	0.0162280
885.718	0.0163174
885.796	0.0163213
885.874	0.0163095
885.953	0.0164247
886.031	0.0163775
886.109	0.0165329
886.187	0.0165752
886.265	0.0165755
886.343	0.0163657
886.421	0.0165744
886.499	0.0166000
886.578	0.0164626
886.656	0.0165855
886.734	0.0166493
886.812	0.0165050
886.890	0.0164006
886.968	0.0164980
887.046	0.0163775
887.124	0.0165338
887.203	0.0165144
887.281	0.0163771
887.359	0.0163902
887.437	0.0164455
887.515	0.0165020
887.593	0.0163680
887.671	0.0163868
887.749	0.0163333
887.828	0.0164780
887.906	0.0164764
887.984	0.0164668
888.062	0.0164330
888.140	0.0165615
888.218	0.0164616
888.296	0.0165202
888.374	0.0164691
888.453	0.0165154
888.531	0.0164597
888.609	0.0164554
888.687	0.0165327
888.765	0.0164552
888.843	0.0164379
888.921	0.0164076
888.999	0.0164342
889.078	0.0163561
889.156	0.0162762
889.234	0.0163297
889.312	0.0163709
889.390	0.0164669
889.468	0.0164212
889.546	0.0164534
889.624	0.0163568
889.703	0.0164114
889.781	0.0165388
889.859	0.0165326
889.937	0.0165366
890.015	0.0165565
890.093	0.0166148
890.171	0.0165520
890.249	0.0165701
890.328	0.0165057
890.406	0.0164761
890.484	0.0166405
890.562	0.0166302
890.640	0.0166429
890.718	0.0164326
890.796	0.0166195
890.874	0.0166751
890.953	0.0166020
891.031	0.0165591
891.109	0.0167021
891.187	0.0167139
891.265	0.0164719
891.343	0.0166225
891.421	0.0165892
891.499	0.0165572
891.578	0.0165559
891.656	0.0166322
891.734	0.0166380
891.812	0.0165910
891.890	0.0166233
891.968	0.0164492
892.046	0.0165972
892.124	0.0165833
892.203	0.0166008
892.281	0.0166087
892.359	0.0165851
892.437	0.0165153
892.515	0.0166347
892.593	0.0164719
892.671	0.0166118
892.749	0.0166580
892.828	0.0164741
892.906	0.0164215
892.984	0.0165870
893.062	0.0166341
893.140	0.0167121
893.218	0.0166138
893.296	0.0165485
893.374	0.0164887
893.453	0.0164892
893.531	0.0165580
893.609	0.0165287
893.687	0.0165563
893.765	0.0164433
893.843	0.0164933
893.921	0.0164443
893.999	0.0165227
894.078	0.0165504
894.156	0.0164374
894.234	0.0164882
894.312	0.0165105
894.390	0.0166018
894.468	0.0164725
894.546	0.0166040
894.624	0.0165514
894.703	0.0164789
894.781	0.0165593
894.859	0.0164582
894.937	0.0164857
895.015	0.0166206
895.093	0.0164388
895.171	0.0165821
895.249	0.0164116
895.328	0.0166106
895.406	0.0165189
895.484	0.0165743
895.562	0.0165028
895.640	0.0164816
895.718	0.0164942
895.796	0.0165009
895.874	0.0165652
895.953	0.0164719
896.031	0.0165540
896.109	0.0164159
896.187	0.0166743
896.265	0.0165769
896.343	0.0165518
896.421	0.0166028
896.499	0.0164977
896.578	0.0164813
896.656	0.0166441
896.734	0.0165834
896.812	0.0165934
896.890	0.0166739
896.968	0.0166092
897.046	0.0165885
897.124	0.0167229
897.203	0.0166241
897.281	0.0165657
897.359	0.0165508
897.437	0.0166223
897.515	0.0165160
897.593	0.0165372
897.671	0.0164405
897.749	0.0165679
897.828	0.0164752
897.906	0.0164977
897.984	0.0165546
898.062	0.0165729
898.140	0.0164410
898.218	0.0164860
898.296	0.0165624
898.374	0.0164102
898.453	0.0164050
898.531	0.0164711
898.609	0.0164977
898.687	0.0165875
898.765	0.0163010
898.843	0.0165353
898.921	0.0166494
898.999	0.0165952
899.078	0.0163176
899.156	0.0164713
899.234	0.0165450
899.312	0.0166836
899.390	0.0164782
899.468	0.0164603
899.546	0.0165583
899.624	0.0165472
899.703	0.0164689
899.781	0.0165363
899.859	0.0164465
899.937	0.0164923
900.015	0.0164324
900.093	0.0165845
900.171	0.0164694
900.249	0.0162498
900.328	0.0163877
900.406	0.0164203
900.484	0.0164848
900.562	0.0163694
900.640	0.0162910
900.718	0.0163258
900.796	0.0163371
900.874	0.0162457
900.953	0.0163795
901.031	0.0164840
901.109	0.0163255
901.187	0.0164684
901.265	0.0163822
901.343	0.0164194
901.421	0.0165043
901.499	0.0163131
901.578	0.0164361
901.656	0.0164726
901.734	0.0164176
901.812	0.0163891
901.890	0.0165082
901.968	0.0164095
902.046	0.0164550
902.124	0.0164706
902.203	0.0164874
902.281	0.0163419
902.359	0.0165000
902.437	0.0164587
902.515	0.0163787
902.593	0.0164536
902.671	0.0166560
902.749	0.0165748
902.828	0.0164310
902.906	0.0164049
902.984	0.0165073
903.062	0.0164105
903.140	0.0165126
903.218	0.0165960
903.296	0.0163890
903.374	0.0162853
903.453	0.0163691
903.531	0.0162939
903.609	0.0164256
903.687	0.0163761
903.765	0.0164655
903.843	0.0164282
903.921	0.0162600
903.999	0.0163638
904.078	0.0163873
904.156	0.0163516
904.234	0.0164600
904.312	0.0163890
904.390	0.0163601
904.468	0.0164285
904.546	0.0163885
904.624	0.0164909
904.703	0.0164123
904.781	0.0164223
904.859	0.0163328
904.937	0.0165517
905.015	0.0164803
905.093	0.0164913
905.171	0.0164699
905.249	0.0164474
905.328	0.0164525
905.406	0.0163525
905.484	0.0164773
905.562	0.0164465
905.640	0.0165185
905.718	0.0164474
905.796	0.0162999
905.874	0.0165155
905.953	0.0165373
906.031	0.0164359
906.109	0.0165909
906.187	0.0164662
906.265	0.0163726
906.343	0.0164240
906.421	0.0163760
906.499	0.0162424
906.578	0.0164254
906.656	0.0163486
906.734	0.0164742
906.812	0.0164029
906.890	0.0163198
906.968	0.0164039
907.046	0.0163308
907.124	0.0163339
907.203	0.0162434
907.281	0.0164093
907.359	0.0163919
907.437	0.0163353
907.515	0.0164653
907.593	0.0164017
907.671	0.0163639
907.749	0.0163417
907.828	0.0164266
907.906	0.0165816
907.984	0.0165163
908.062	0.0164804
908.140	0.0164016
908.218	0.0165252
908.296	0.0165265
908.374	0.0165782
908.453	0.0164971
908.531	0.0165081
908.609	0.0166239
908.687	0.0166206
908.765	0.0166972
908.843	0.0166033
908.921	0.0167026
908.999	0.0166302
909.078	0.0164856
909.156	0.0166037
909.234	0.0166305
909.312	0.0164648
909.390	0.0166702
909.468	0.0167070
909.546	0.0164260
909.624	0.0165570
909.703	0.0164371
909.781	0.0164089
909.859	0.0164993
909.937	0.0165244
910.015	0.0165455
910.093	0.0164750
910.171	0.0164454
910.249	0.0163927
910.328	0.0162960
910.406	0.0164548
910.484	0.0164652
910.562	0.0163435
910.640	0.0162517
910.718	0.0163180
910.796	0.0162576
910.874	0.0162170
910.953	0.0163453
911.031	0.0161108
911.109	0.0162649
911.187	0.0163231
911.265	0.0162843
911.343	0.0163067
911.421	0.0163544
911.499	0.0164110
911.578	0.0164830
911.656	0.0164526
911.734	0.0166017
911.812	0.0165520
911.890	0.0165322
911.968	0.0165052
912.046	0.0165208
912.124	0.0167946
912.203	0.0167419
912.281	0.0165750
912.359	0.0166263
912.437	0.0166831
912.515	0.0167617
912.593	0.0165757
912.671	0.0165668
912.749	0.0166272
912.828	0.0167281
912.906	0.0166607
912.984	0.0165620
913.062	0.0166416
913.140	0.0165849
913.218	0.0165624
913.296	0.0165176
913.374	0.0166221
913.453	0.0166448
913.531	0.0165511
913.609	0.0167712
913.687	0.0166230
913.765	0.0165664
913.843	0.0165096
913.921	0.0165092
913.999	0.0164670
914.078	0.0165213
914.156	0.0166097
914.234	0.0165411
914.312	0.0166912
914.390	0.0167352
914.468	0.0165835
914.546	0.0165910
914.624	0.0166570
914.703	0.0167938
914.781	0.0166486
914.859	0.0165963
914.937	0.0166489
915.015	0.0164957
915.093	0.0166033
915.171	0.0165139
915.249	0.0166551
915.328	0.0165038
915.406	0.0165718
915.484	0.0165919
915.562	0.0164709
915.640	0.0165215
915.718	0.0165527
915.796	0.0165835
915.874	0.0164677
915.953	0.0164347
916.031	0.0163345
916.109	0.0164331
916.187	0.0164732
916.265	0.0163869
916.343	0.0161435
916.421	0.0163622
916.499	0.0163304
916.578	0.0163638
916.656	0.0164067
916.734	0.0164469
916.812	0.0163614
916.890	0.0163127
916.968	0.0162976
917.046	0.0163612
917.124	0.0164899
917.203	0.0164412
917.281	0.0164068
917.359	0.0163789
917.437	0.0164372
917.515	0.0164394
917.593	0.0163712
917.671	0.0165416
917.749	0.0165972
917.828	0.0164854
917.906	0.0165775
917.984	0.0164934
918.062	0.0166156
918.140	0.0166333
918.218	0.0165607
918.296	0.0164732
918.374	0.0166187
918.453	0.0167643
918.531	0.0166408
918.609	0.0166705
918.687	0.0165965
918.765	0.0166436
918.843	0.0167641
918.921	0.0165230
918.999	0.0164740
919.078	0.0163995
919.156	0.0165047
919.234	0.0165183
919.312	0.0166647
919.390	0.0166496
919.468	0.0164471
919.546	0.0164230
919.624	0.0164768
919.703	0.0165883
919.781	0.0166186
919.859	0.0165128
919.937	0.0162956
