06/10/2022	18:58:20	Ver.	4.1	UNKNOWN
Optical Delay	600.015094	Delta X		0.078125	Sweeps	1	Scan Rate	0/0
Coordinates	Axis 1	NaN	Axis 2	NaN	Axis 3	NaN	Axis 4	NaN	Axis 5	NaN	Axis 6	0.000000
TX Power	0.000000	RX Power	0.000000

600.015	0.0156120
600.093	0.0154484
600.171	0.0157056
600.249	0.0156194
600.328	0.0155704
600.406	0.0154707
600.484	0.0157179
600.562	0.0155223
600.640	0.0154488
600.718	0.0154276
600.796	0.0154771
600.874	0.0155290
600.953	0.0156689
601.031	0.0156095
601.109	0.0156669
601.187	0.0157474
601.265	0.0157283
601.343	0.0156055
601.421	0.0156301
601.499	0.0156240
601.578	0.0154941
601.656	0.0156522
601.734	0.0156059
601.812	0.0156303
601.890	0.0156858
601.968	0.0154523
602.046	0.0157236
602.124	0.0156908
602.203	0.0156937
602.281	0.0155481
602.359	0.0157313
602.437	0.0156863
602.515	0.0157420
602.593	0.0155766
602.671	0.0154959
602.749	0.0157125
602.828	0.0156918
602.906	0.0156554
602.984	0.0156913
603.062	0.0156688
603.140	0.0156541
603.218	0.0156385
603.296	0.0156487
603.374	0.0157250
603.453	0.0156749
603.531	0.0156122
603.609	0.0156606
603.687	0.0157595
603.765	0.0156561
603.843	0.0156362
603.921	0.0155927
603.999	0.0156388
604.078	0.0156702
604.156	0.0157932
604.234	0.0155898
604.312	0.0156382
604.390	0.0157024
604.468	0.0156716
604.546	0.0156435
604.624	0.0156862
604.703	0.0156340
604.781	0.0156654
604.859	0.0156007
604.937	0.0157307
605.015	0.0156931
605.093	0.0156213
605.171	0.0156633
605.249	0.0156957
605.328	0.0156361
605.406	0.0156403
605.484	0.0156331
605.562	0.0157499
605.640	0.0156342
605.718	0.0157049
605.796	0.0155482
605.874	0.0156508
605.953	0.0156703
606.031	0.0155110
606.109	0.0156476
606.187	0.0155947
606.265	0.0155527
606.343	0.0155907
606.421	0.0155255
606.499	0.0156581
606.578	0.0157761
606.656	0.0156535
606.734	0.0155570
606.812	0.0156199
606.890	0.0155968
606.968	0.0156220
607.046	0.0157820
607.124	0.0155110
607.203	0.0155996
607.281	0.0155775
607.359	0.0156492
607.437	0.0155788
607.515	0.0156464
607.593	0.0156514
607.671	0.0156327
607.749	0.0155925
607.828	0.0158521
607.906	0.0155976
607.984	0.0155989
608.062	0.0156222
608.140	0.0157298
608.218	0.0157662
608.296	0.0156869
608.374	0.0156093
608.453	0.0156000
608.531	0.0155877
608.609	0.0157137
608.687	0.0157135
608.765	0.0157369
608.843	0.0156783
608.921	0.0156438
608.999	0.0156030
609.078	0.0157307
609.156	0.0156795
609.234	0.0157024
609.312	0.0156035
609.390	0.0155181
609.468	0.0157023
609.546	0.0156414
609.624	0.0156379
609.703	0.0156422
609.781	0.0155486
609.859	0.0154713
609.937	0.0156133
610.015	0.0156567
610.093	0.0157095
610.171	0.0156094
610.249	0.0155928
610.328	0.0156932
610.406	0.0155692
610.484	0.0155717
610.562	0.0155968
610.640	0.0155904
610.718	0.0155861
610.796	0.0155591
610.874	0.0155709
610.953	0.0155183
611.031	0.0155869
611.109	0.0155553
611.187	0.0155165
611.265	0.0155405
611.343	0.0156291
611.421	0.0155633
611.499	0.0154916
611.578	0.0155413
611.656	0.0156398
611.734	0.0155988
611.812	0.0154252
611.890	0.0154176
611.968	0.0156054
612.046	0.0155409
612.124	0.0155704
612.203	0.0154178
612.281	0.0154380
612.359	0.0155901
612.437	0.0155773
612.515	0.0156506
612.593	0.0154907
612.671	0.0154561
612.749	0.0155872
612.828	0.0155011
612.906	0.0154475
612.984	0.0154507
613.062	0.0155115
613.140	0.0155418
613.218	0.0155143
613.296	0.0156284
613.374	0.0154636
613.453	0.0154665
613.531	0.0155457
613.609	0.0155853
613.687	0.0155131
613.765	0.0154456
613.843	0.0153788
613.921	0.0155467
613.999	0.0156119
614.078	0.0155372
614.156	0.0154515
614.234	0.0155785
614.312	0.0156123
614.390	0.0155957
614.468	0.0155729
614.546	0.0155553
614.624	0.0156337
614.703	0.0156487
614.781	0.0154693
614.859	0.0154417
614.937	0.0154865
615.015	0.0156321
615.093	0.0155029
615.171	0.0156049
615.249	0.0155390
615.328	0.0155431
615.406	0.0156643
615.484	0.0155497
615.562	0.0156573
615.640	0.0156210
615.718	0.0155238
615.796	0.0156536
615.874	0.0156840
615.953	0.0156497
616.031	0.0156486
616.109	0.0156053
616.187	0.0156117
616.265	0.0156309
616.343	0.0154381
616.421	0.0155148
616.499	0.0155681
616.578	0.0156795
616.656	0.0155263
616.734	0.0156713
616.812	0.0155525
616.890	0.0156181
616.968	0.0155145
617.046	0.0156671
617.124	0.0155974
617.203	0.0155614
617.281	0.0156022
617.359	0.0155273
617.437	0.0155240
617.515	0.0155981
617.593	0.0155487
617.671	0.0155479
617.749	0.0156074
617.828	0.0156724
617.906	0.0156746
617.984	0.0155619
618.062	0.0155225
618.140	0.0155270
618.218	0.0155515
618.296	0.0156738
618.374	0.0155498
618.453	0.0156308
618.531	0.0156270
618.609	0.0157549
618.687	0.0154694
618.765	0.0156513
618.843	0.0157045
618.921	0.0157011
618.999	0.0155324
619.078	0.0156423
619.156	0.0155869
619.234	0.0155999
619.312	0.0155239
619.390	0.0157038
619.468	0.0156863
619.546	0.0154749
619.624	0.0155739
619.703	0.0156789
619.781	0.0157477
619.859	0.0156636
619.937	0.0155624
620.015	0.0155776
620.093	0.0156322
620.171	0.0155302
620.249	0.0154601
620.328	0.0155978
620.406	0.0155984
620.484	0.0157249
620.562	0.0155911
620.640	0.0156081
620.718	0.0156080
620.796	0.0156583
620.874	0.0157074
620.953	0.0156532
621.031	0.0156169
621.109	0.0155460
621.187	0.0155331
621.265	0.0155735
621.343	0.0157726
621.421	0.0156471
621.499	0.0155391
621.578	0.0155750
621.656	0.0155639
621.734	0.0156214
621.812	0.0155129
621.890	0.0155721
621.968	0.0156628
622.046	0.0155841
622.124	0.0157617
622.203	0.0156503
622.281	0.0155172
622.359	0.0156843
622.437	0.0156612
622.515	0.0156586
622.593	0.0157078
622.671	0.0156197
622.749	0.0156734
622.828	0.0155452
622.906	0.0155843
622.984	0.0156257
623.062	0.0157309
623.140	0.0156255
623.218	0.0157160
623.296	0.0156757
623.374	0.0156686
623.453	0.0155481
623.531	0.0155882
623.609	0.0156322
623.687	0.0155516
623.765	0.0155969
623.843	0.0155402
623.921	0.0156287
623.999	0.0155795
624.078	0.0156961
624.156	0.0156398
624.234	0.0155473
624.312	0.0155515
624.390	0.0155451
624.468	0.0154948
624.546	0.0157673
624.624	0.0156698
624.703	0.0156036
624.781	0.0155885
624.859	0.0155347
624.937	0.0155647
625.015	0.0155550
625.093	0.0154848
625.171	0.0157109
625.249	0.0156222
625.328	0.0156555
625.406	0.0157040
625.484	0.0156472
625.562	0.0156570
625.640	0.0155148
625.718	0.0155967
625.796	0.0157019
625.874	0.0157293
625.953	0.0155159
626.031	0.0156636
626.109	0.0156779
626.187	0.0156068
626.265	0.0156180
626.343	0.0155245
626.421	0.0155606
626.499	0.0157230
626.578	0.0157373
626.656	0.0155671
626.734	0.0155125
626.812	0.0155656
626.890	0.0156144
626.968	0.0156651
627.046	0.0155168
627.124	0.0156802
627.203	0.0156396
627.281	0.0157162
627.359	0.0155949
627.437	0.0155762
627.515	0.0155183
627.593	0.0155101
627.671	0.0156448
627.749	0.0155336
627.828	0.0154299
627.906	0.0157736
627.984	0.0156803
628.062	0.0156853
628.140	0.0156693
628.218	0.0156881
628.296	0.0156872
628.374	0.0156777
628.453	0.0156792
628.531	0.0156351
628.609	0.0156781
628.687	0.0156634
628.765	0.0155891
628.843	0.0156565
628.921	0.0156527
628.999	0.0157208
629.078	0.0156301
629.156	0.0154720
629.234	0.0154919
629.312	0.0156367
629.390	0.0156312
629.468	0.0156160
629.546	0.0155639
629.624	0.0157768
629.703	0.0156728
629.781	0.0156360
629.859	0.0156856
629.937	0.0157380
630.015	0.0156010
630.093	0.0157027
630.171	0.0157558
630.249	0.0156239
630.328	0.0156226
630.406	0.0156537
630.484	0.0155193
630.562	0.0155875
630.640	0.0157039
630.718	0.0157090
630.796	0.0155627
630.874	0.0155328
630.953	0.0156516
631.031	0.0156094
631.109	0.0156767
631.187	0.0155331
631.265	0.0157212
631.343	0.0157412
631.421	0.0155753
631.499	0.0155089
631.578	0.0156082
631.656	0.0157043
631.734	0.0157631
631.812	0.0156618
631.890	0.0157224
631.968	0.0158310
632.046	0.0157186
632.124	0.0156395
632.203	0.0156139
632.281	0.0156876
632.359	0.0156702
632.437	0.0156680
632.515	0.0156471
632.593	0.0156585
632.671	0.0155465
632.749	0.0157166
632.828	0.0157122
632.906	0.0156755
632.984	0.0156286
633.062	0.0156370
633.140	0.0155904
633.218	0.0156828
633.296	0.0156818
633.374	0.0155566
633.453	0.0157668
633.531	0.0156044
633.609	0.0155947
633.687	0.0157047
633.765	0.0156185
633.843	0.0156136
633.921	0.0156219
633.999	0.0157034
634.078	0.0157804
634.156	0.0156410
634.234	0.0155650
634.312	0.0155595
634.390	0.0156819
634.468	0.0156436
634.546	0.0155434
634.624	0.0156435
634.703	0.0156173
634.781	0.0156476
634.859	0.0156879
634.937	0.0155754
635.015	0.0157534
635.093	0.0155942
635.171	0.0156509
635.249	0.0157016
635.328	0.0156836
635.406	0.0156568
635.484	0.0156455
635.562	0.0156690
635.640	0.0157192
635.718	0.0158424
635.796	0.0155807
635.874	0.0155701
635.953	0.0157188
636.031	0.0157070
636.109	0.0154623
636.187	0.0158170
636.265	0.0156367
636.343	0.0156406
636.421	0.0156788
636.499	0.0157734
636.578	0.0157523
636.656	0.0156162
636.734	0.0156739
636.812	0.0158063
636.890	0.0156812
636.968	0.0156037
637.046	0.0157565
637.124	0.0157975
637.203	0.0156049
637.281	0.0156875
637.359	0.0156004
637.437	0.0156799
637.515	0.0156281
637.593	0.0157846
637.671	0.0156056
637.749	0.0156638
637.828	0.0158247
637.906	0.0155260
637.984	0.0156505
638.062	0.0157618
638.140	0.0157049
638.218	0.0156318
638.296	0.0156441
638.374	0.0156834
638.453	0.0158244
638.531	0.0156443
638.609	0.0157004
638.687	0.0156173
638.765	0.0156859
638.843	0.0157209
638.921	0.0156644
638.999	0.0157182
639.078	0.0156335
639.156	0.0156020
639.234	0.0156260
639.312	0.0155191
639.390	0.0156575
639.468	0.0156364
639.546	0.0156916
639.624	0.0156020
639.703	0.0157034
639.781	0.0157939
639.859	0.0155899
639.937	0.0155828
640.015	0.0157030
640.093	0.0157252
640.171	0.0156264
640.249	0.0156796
640.328	0.0156541
640.406	0.0156831
640.484	0.0155112
640.562	0.0155747
640.640	0.0156091
640.718	0.0156664
640.796	0.0156961
640.874	0.0156908
640.953	0.0154768
641.031	0.0156619
641.109	0.0156760
641.187	0.0156865
641.265	0.0155859
641.343	0.0158067
641.421	0.0156848
641.499	0.0156552
641.578	0.0156766
641.656	0.0156870
641.734	0.0157188
641.812	0.0157011
641.890	0.0156424
641.968	0.0156428
642.046	0.0157016
642.124	0.0156934
642.203	0.0156030
642.281	0.0156680
642.359	0.0157587
642.437	0.0157504
642.515	0.0156908
642.593	0.0156967
642.671	0.0156272
642.749	0.0156642
642.828	0.0156643
642.906	0.0157056
642.984	0.0156050
643.062	0.0155920
643.140	0.0156252
643.218	0.0157516
643.296	0.0156100
643.374	0.0155247
643.453	0.0156590
643.531	0.0156879
643.609	0.0155092
643.687	0.0156476
643.765	0.0155395
643.843	0.0155669
643.921	0.0156656
643.999	0.0156672
644.078	0.0155058
644.156	0.0156599
644.234	0.0156934
644.312	0.0155935
644.390	0.0157439
644.468	0.0156825
644.546	0.0155131
644.624	0.0155143
644.703	0.0155713
644.781	0.0155326
644.859	0.0155009
644.937	0.0155759
645.015	0.0156005
645.093	0.0155348
645.171	0.0155573
645.249	0.0156200
645.328	0.0156065
645.406	0.0155499
645.484	0.0156015
645.562	0.0155752
645.640	0.0156607
645.718	0.0155347
645.796	0.0157303
645.874	0.0156409
645.953	0.0157031
646.031	0.0156124
646.109	0.0157603
646.187	0.0157121
646.265	0.0155202
646.343	0.0156490
646.421	0.0156255
646.499	0.0156399
646.578	0.0156622
646.656	0.0157189
646.734	0.0155505
646.812	0.0156310
646.890	0.0154807
646.968	0.0157335
647.046	0.0156174
647.124	0.0155270
647.203	0.0155399
647.281	0.0155783
647.359	0.0155614
647.437	0.0155113
647.515	0.0156219
647.593	0.0155820
647.671	0.0155868
647.749	0.0155634
647.828	0.0155006
647.906	0.0154913
647.984	0.0154745
648.062	0.0155831
648.140	0.0156293
648.218	0.0155164
648.296	0.0156680
648.374	0.0156073
648.453	0.0156071
648.531	0.0154993
648.609	0.0156815
648.687	0.0157410
648.765	0.0155773
648.843	0.0155897
648.921	0.0156448
648.999	0.0156236
649.078	0.0156081
649.156	0.0156445
649.234	0.0156118
649.312	0.0157259
649.390	0.0157153
649.468	0.0156865
649.546	0.0157335
649.624	0.0157433
649.703	0.0156409
649.781	0.0156378
649.859	0.0157156
649.937	0.0155740
650.015	0.0155810
650.093	0.0157546
650.171	0.0155635
650.249	0.0157265
650.328	0.0158488
650.406	0.0156966
650.484	0.0156193
650.562	0.0157236
650.640	0.0157240
650.718	0.0156708
650.796	0.0156091
650.874	0.0157708
650.953	0.0157066
651.031	0.0156370
651.109	0.0155559
651.187	0.0157730
651.265	0.0158106
651.343	0.0157285
651.421	0.0155763
651.499	0.0155860
651.578	0.0155837
651.656	0.0158012
651.734	0.0157565
651.812	0.0157016
651.890	0.0156498
651.968	0.0156344
652.046	0.0157161
652.124	0.0156023
652.203	0.0156705
652.281	0.0157042
652.359	0.0157175
652.437	0.0157404
652.515	0.0157137
652.593	0.0156901
652.671	0.0156213
652.749	0.0156296
652.828	0.0156767
652.906	0.0157000
652.984	0.0157198
653.062	0.0156650
653.140	0.0156722
653.218	0.0155790
653.296	0.0156614
653.374	0.0156579
653.453	0.0155540
653.531	0.0156118
653.609	0.0157172
653.687	0.0156214
653.765	0.0157154
653.843	0.0157198
653.921	0.0157749
653.999	0.0157426
654.078	0.0157675
654.156	0.0157451
654.234	0.0157636
654.312	0.0156719
654.390	0.0157021
654.468	0.0156100
654.546	0.0155914
654.624	0.0156593
654.703	0.0157159
654.781	0.0155103
654.859	0.0154666
654.937	0.0156534
655.015	0.0157574
655.093	0.0156530
655.171	0.0156499
655.249	0.0156460
655.328	0.0156690
655.406	0.0155168
655.484	0.0157072
655.562	0.0157513
655.640	0.0156570
655.718	0.0157285
655.796	0.0156011
655.874	0.0156928
655.953	0.0156130
656.031	0.0157195
656.109	0.0155731
656.187	0.0155791
656.265	0.0156831
656.343	0.0156618
656.421	0.0156712
656.499	0.0156952
656.578	0.0157674
656.656	0.0156498
656.734	0.0156141
656.812	0.0157262
656.890	0.0156984
656.968	0.0157081
657.046	0.0155972
657.124	0.0156356
657.203	0.0156704
657.281	0.0157288
657.359	0.0158096
657.437	0.0156267
657.515	0.0155695
657.593	0.0158777
657.671	0.0157330
657.749	0.0155247
657.828	0.0155924
657.906	0.0155543
657.984	0.0156169
658.062	0.0157344
658.140	0.0157069
658.218	0.0156151
658.296	0.0156135
658.374	0.0156992
658.453	0.0157921
658.531	0.0157288
658.609	0.0157452
658.687	0.0156577
658.765	0.0157140
658.843	0.0156712
658.921	0.0157289
658.999	0.0157286
659.078	0.0155756
659.156	0.0154608
659.234	0.0157433
659.312	0.0157088
659.390	0.0156432
659.468	0.0156241
659.546	0.0157676
659.624	0.0157300
659.703	0.0155884
659.781	0.0156962
659.859	0.0158054
659.937	0.0156446
660.015	0.0156290
660.093	0.0156553
660.171	0.0156603
660.249	0.0155846
660.328	0.0156345
660.406	0.0156031
660.484	0.0155978
660.562	0.0158211
660.640	0.0156527
660.718	0.0157486
660.796	0.0156364
660.874	0.0156290
660.953	0.0156087
661.031	0.0156622
661.109	0.0156961
661.187	0.0155233
661.265	0.0156673
661.343	0.0157390
661.421	0.0157079
661.499	0.0157023
661.578	0.0157791
661.656	0.0156003
661.734	0.0156631
661.812	0.0158666
661.890	0.0156601
661.968	0.0157159
662.046	0.0158279
662.124	0.0156741
662.203	0.0156072
662.281	0.0156563
662.359	0.0156274
662.437	0.0155801
662.515	0.0157162
662.593	0.0155733
662.671	0.0157050
662.749	0.0156750
662.828	0.0155685
662.906	0.0155595
662.984	0.0156815
663.062	0.0156035
663.140	0.0155770
663.218	0.0156424
663.296	0.0157104
663.374	0.0155713
663.453	0.0156000
663.531	0.0155602
663.609	0.0156415
663.687	0.0157537
663.765	0.0156232
663.843	0.0156509
663.921	0.0157316
663.999	0.0156777
664.078	0.0156380
664.156	0.0156232
664.234	0.0155717
664.312	0.0155031
664.390	0.0155952
664.468	0.0157064
664.546	0.0157535
664.624	0.0155212
664.703	0.0156514
664.781	0.0157233
664.859	0.0157394
664.937	0.0155738
665.015	0.0157630
665.093	0.0157439
665.171	0.0155969
665.249	0.0158065
665.328	0.0158469
665.406	0.0157594
665.484	0.0157603
665.562	0.0155771
665.640	0.0157388
665.718	0.0155892
665.796	0.0156966
665.874	0.0156913
665.953	0.0156068
666.031	0.0155298
666.109	0.0155580
666.187	0.0158199
666.265	0.0155703
666.343	0.0155941
666.421	0.0156495
666.499	0.0156857
666.578	0.0154839
666.656	0.0155484
666.734	0.0158136
666.812	0.0156819
666.890	0.0156246
666.968	0.0157460
667.046	0.0156216
667.124	0.0154733
667.203	0.0156536
667.281	0.0157249
667.359	0.0155249
667.437	0.0155499
667.515	0.0155992
667.593	0.0155315
667.671	0.0155248
667.749	0.0155518
667.828	0.0156136
667.906	0.0155694
667.984	0.0156370
668.062	0.0156783
668.140	0.0156734
668.218	0.0156082
668.296	0.0154317
668.374	0.0157519
668.453	0.0156532
668.531	0.0155515
668.609	0.0156152
668.687	0.0153954
668.765	0.0155650
668.843	0.0155634
668.921	0.0154631
668.999	0.0155019
669.078	0.0155699
669.156	0.0153804
669.234	0.0154916
669.312	0.0155579
669.390	0.0155489
669.468	0.0155360
669.546	0.0155096
669.624	0.0155248
669.703	0.0155164
669.781	0.0155748
669.859	0.0155286
669.937	0.0155171
670.015	0.0156031
670.093	0.0155510
670.171	0.0155037
670.249	0.0154950
670.328	0.0155181
670.406	0.0155486
670.484	0.0155541
670.562	0.0154746
670.640	0.0154991
670.718	0.0156205
670.796	0.0156303
670.874	0.0156953
670.953	0.0155954
671.031	0.0155641
671.109	0.0155058
671.187	0.0157634
671.265	0.0156055
671.343	0.0156409
671.421	0.0155566
671.499	0.0157009
671.578	0.0155517
671.656	0.0155923
671.734	0.0156293
671.812	0.0156469
671.890	0.0153843
671.968	0.0156156
672.046	0.0155937
672.124	0.0155648
672.203	0.0156516
672.281	0.0156165
672.359	0.0156219
672.437	0.0155386
672.515	0.0155399
672.593	0.0155910
672.671	0.0156290
672.749	0.0156430
672.828	0.0156696
672.906	0.0156001
672.984	0.0155437
673.062	0.0154053
673.140	0.0156551
673.218	0.0155647
673.296	0.0155283
673.374	0.0156859
673.453	0.0155106
673.531	0.0156528
673.609	0.0155865
673.687	0.0155967
673.765	0.0155714
673.843	0.0155669
673.921	0.0156900
673.999	0.0156313
674.078	0.0156813
674.156	0.0156603
674.234	0.0157294
674.312	0.0156046
674.390	0.0155441
674.468	0.0156207
674.546	0.0156697
674.624	0.0157142
674.703	0.0156969
674.781	0.0155788
674.859	0.0158081
674.937	0.0156134
675.015	0.0156513
675.093	0.0157249
675.171	0.0157054
675.249	0.0156996
675.328	0.0156909
675.406	0.0156709
675.484	0.0157041
675.562	0.0156750
675.640	0.0156974
675.718	0.0157496
675.796	0.0156860
675.874	0.0156921
675.953	0.0156187
676.031	0.0156974
676.109	0.0157428
676.187	0.0157034
676.265	0.0157339
676.343	0.0157191
676.421	0.0157663
676.499	0.0155952
676.578	0.0158364
676.656	0.0155257
676.734	0.0156705
676.812	0.0157758
676.890	0.0156709
676.968	0.0158149
677.046	0.0156823
677.124	0.0156223
677.203	0.0156216
677.281	0.0157668
677.359	0.0157512
677.437	0.0156584
677.515	0.0157386
677.593	0.0156540
677.671	0.0157205
677.749	0.0157758
677.828	0.0158163
677.906	0.0157650
677.984	0.0157497
678.062	0.0156831
678.140	0.0156099
678.218	0.0156400
678.296	0.0157460
678.374	0.0157827
678.453	0.0156894
678.531	0.0156907
678.609	0.0156021
678.687	0.0155778
678.765	0.0156778
678.843	0.0157841
678.921	0.0156020
678.999	0.0157203
679.078	0.0157497
679.156	0.0156193
679.234	0.0155885
679.312	0.0158319
679.390	0.0156427
679.468	0.0156966
679.546	0.0156622
679.624	0.0155631
679.703	0.0155991
679.781	0.0154267
679.859	0.0156368
679.937	0.0157951
680.015	0.0157245
680.093	0.0156916
680.171	0.0156082
680.249	0.0155410
680.328	0.0155786
680.406	0.0156160
680.484	0.0156652
680.562	0.0157478
680.640	0.0156361
680.718	0.0155791
680.796	0.0156592
680.874	0.0156332
680.953	0.0155039
681.031	0.0156777
681.109	0.0156617
681.187	0.0156590
681.265	0.0155561
681.343	0.0157980
681.421	0.0156539
681.499	0.0157767
681.578	0.0156201
681.656	0.0154904
681.734	0.0155738
681.812	0.0156076
681.890	0.0156277
681.968	0.0156446
682.046	0.0156139
682.124	0.0155865
682.203	0.0156043
682.281	0.0157124
682.359	0.0157715
682.437	0.0157723
682.515	0.0155716
682.593	0.0156008
682.671	0.0156634
682.749	0.0155804
682.828	0.0155631
682.906	0.0157021
682.984	0.0155643
683.062	0.0156523
683.140	0.0156779
683.218	0.0155904
683.296	0.0157165
683.374	0.0156888
683.453	0.0156667
683.531	0.0157720
683.609	0.0157353
683.687	0.0156361
683.765	0.0156446
683.843	0.0156449
683.921	0.0157162
683.999	0.0156319
684.078	0.0157320
684.156	0.0156657
684.234	0.0154897
684.312	0.0155087
684.390	0.0157406
684.468	0.0157874
684.546	0.0155162
684.624	0.0155163
684.703	0.0156345
684.781	0.0155583
684.859	0.0155614
684.937	0.0156461
685.015	0.0155942
685.093	0.0156049
685.171	0.0156591
685.249	0.0156086
685.328	0.0156905
685.406	0.0156425
685.484	0.0154436
685.562	0.0156046
685.640	0.0157018
685.718	0.0156744
685.796	0.0156667
685.874	0.0156576
685.953	0.0156573
686.031	0.0155008
686.109	0.0154181
686.187	0.0157259
686.265	0.0156437
686.343	0.0154606
686.421	0.0155043
686.499	0.0155799
686.578	0.0156337
686.656	0.0156647
686.734	0.0156437
686.812	0.0155909
686.890	0.0155807
686.968	0.0155025
687.046	0.0155508
687.124	0.0155993
687.203	0.0157819
687.281	0.0155273
687.359	0.0156278
687.437	0.0155313
687.515	0.0155490
687.593	0.0155853
687.671	0.0155545
687.749	0.0155370
687.828	0.0155761
687.906	0.0156564
687.984	0.0155902
688.062	0.0157105
688.140	0.0156384
688.218	0.0155579
688.296	0.0155413
688.374	0.0154848
688.453	0.0157130
688.531	0.0158179
688.609	0.0156696
688.687	0.0156947
688.765	0.0155453
688.843	0.0155942
688.921	0.0156015
688.999	0.0156641
689.078	0.0155936
689.156	0.0155245
689.234	0.0154316
689.312	0.0155982
689.390	0.0156516
689.468	0.0156010
689.546	0.0155493
689.624	0.0155173
689.703	0.0155417
689.781	0.0155795
689.859	0.0156530
689.937	0.0155722
690.015	0.0155542
690.093	0.0155632
690.171	0.0156060
690.249	0.0155325
690.328	0.0156323
690.406	0.0155759
690.484	0.0156221
690.562	0.0155697
690.640	0.0156285
690.718	0.0156388
690.796	0.0156788
690.874	0.0156667
690.953	0.0156397
691.031	0.0155058
691.109	0.0156506
691.187	0.0155613
691.265	0.0154144
691.343	0.0156612
691.421	0.0156116
691.499	0.0155301
691.578	0.0155756
691.656	0.0154137
691.734	0.0155713
691.812	0.0155900
691.890	0.0156109
691.968	0.0155296
692.046	0.0156077
692.124	0.0156717
692.203	0.0155648
692.281	0.0155186
692.359	0.0154671
692.437	0.0156122
692.515	0.0156009
692.593	0.0154392
692.671	0.0155087
692.749	0.0155611
692.828	0.0155297
692.906	0.0154566
692.984	0.0155000
693.062	0.0156815
693.140	0.0155275
693.218	0.0154704
693.296	0.0155170
693.374	0.0155201
693.453	0.0154762
693.531	0.0154158
693.609	0.0157021
693.687	0.0154852
693.765	0.0155350
693.843	0.0155510
693.921	0.0154576
693.999	0.0154842
694.078	0.0156377
694.156	0.0156187
694.234	0.0154744
694.312	0.0155594
694.390	0.0156741
694.468	0.0155560
694.546	0.0155733
694.624	0.0154547
694.703	0.0155384
694.781	0.0155810
694.859	0.0155428
694.937	0.0155363
695.015	0.0154176
695.093	0.0155505
695.171	0.0155223
695.249	0.0154340
695.328	0.0153983
695.406	0.0155447
695.484	0.0155025
695.562	0.0154482
695.640	0.0155396
695.718	0.0154710
695.796	0.0154694
695.874	0.0154272
695.953	0.0154950
696.031	0.0154538
696.109	0.0155408
696.187	0.0155519
696.265	0.0155563
696.343	0.0154146
696.421	0.0154411
696.499	0.0155069
696.578	0.0154280
696.656	0.0155687
696.734	0.0155426
696.812	0.0155063
696.890	0.0154955
696.968	0.0154974
697.046	0.0154148
697.124	0.0153977
697.203	0.0157081
697.281	0.0155826
697.359	0.0155863
697.437	0.0154751
697.515	0.0155048
697.593	0.0155415
697.671	0.0155462
697.749	0.0155610
697.828	0.0156056
697.906	0.0155429
697.984	0.0155338
698.062	0.0156318
698.140	0.0157010
698.218	0.0155357
698.296	0.0154745
698.374	0.0155341
698.453	0.0156526
698.531	0.0155588
698.609	0.0155004
698.687	0.0156621
698.765	0.0157212
698.843	0.0157151
698.921	0.0155274
698.999	0.0157414
699.078	0.0156279
699.156	0.0156953
699.234	0.0155537
699.312	0.0155167
699.390	0.0156917
699.468	0.0157079
699.546	0.0155534
699.624	0.0155688
699.703	0.0156718
699.781	0.0157301
699.859	0.0155777
699.937	0.0156499
700.015	0.0155170
700.093	0.0157291
700.171	0.0156521
700.249	0.0155945
700.328	0.0157466
700.406	0.0157220
700.484	0.0156361
700.562	0.0157146
700.640	0.0155946
700.718	0.0156989
700.796	0.0157313
700.874	0.0157451
700.953	0.0157452
701.031	0.0156247
701.109	0.0156454
701.187	0.0154669
701.265	0.0157461
701.343	0.0156512
701.421	0.0155923
701.499	0.0155200
701.578	0.0156985
701.656	0.0156136
701.734	0.0155946
701.812	0.0157763
701.890	0.0157742
701.968	0.0156255
702.046	0.0156175
702.124	0.0155855
702.203	0.0155357
702.281	0.0157580
702.359	0.0156009
702.437	0.0157407
702.515	0.0156302
702.593	0.0156578
702.671	0.0157609
702.749	0.0157488
702.828	0.0156265
702.906	0.0155915
702.984	0.0155742
703.062	0.0156988
703.140	0.0156881
703.218	0.0157159
703.296	0.0155237
703.374	0.0157021
703.453	0.0157012
703.531	0.0156904
703.609	0.0156695
703.687	0.0157014
703.765	0.0155613
703.843	0.0155885
703.921	0.0156345
703.999	0.0155850
704.078	0.0155812
704.156	0.0156892
704.234	0.0155791
704.312	0.0158298
704.390	0.0157373
704.468	0.0155708
704.546	0.0157500
704.624	0.0156570
704.703	0.0156678
704.781	0.0155320
704.859	0.0157425
704.937	0.0156306
705.015	0.0155447
705.093	0.0156911
705.171	0.0156662
705.249	0.0155939
705.328	0.0154725
705.406	0.0155424
705.484	0.0156721
705.562	0.0156116
705.640	0.0156060
705.718	0.0156677
705.796	0.0156110
705.874	0.0156938
705.953	0.0159101
706.031	0.0156044
706.109	0.0154183
706.187	0.0156026
706.265	0.0156641
706.343	0.0155916
706.421	0.0155845
706.499	0.0155408
706.578	0.0155144
706.656	0.0156351
706.734	0.0156227
706.812	0.0155106
706.890	0.0156471
706.968	0.0156312
707.046	0.0155281
707.124	0.0153940
707.203	0.0155656
707.281	0.0156779
707.359	0.0156322
707.437	0.0155502
707.515	0.0155349
707.593	0.0154656
707.671	0.0155168
707.749	0.0156124
707.828	0.0155731
707.906	0.0155338
707.984	0.0154546
708.062	0.0155337
708.140	0.0155822
708.218	0.0155908
708.296	0.0156690
708.374	0.0157563
708.453	0.0156279
708.531	0.0155378
708.609	0.0155997
708.687	0.0155854
708.765	0.0155933
708.843	0.0155754
708.921	0.0155186
708.999	0.0156377
709.078	0.0156120
709.156	0.0156255
709.234	0.0155975
709.312	0.0155190
709.390	0.0157129
709.468	0.0156856
709.546	0.0155781
709.624	0.0155891
709.703	0.0155085
709.781	0.0155280
709.859	0.0155847
709.937	0.0155453
710.015	0.0155066
710.093	0.0155013
710.171	0.0155528
710.249	0.0157166
710.328	0.0155654
710.406	0.0156115
710.484	0.0156890
710.562	0.0156079
710.640	0.0155553
710.718	0.0154401
710.796	0.0154654
710.874	0.0157530
710.953	0.0154758
711.031	0.0154556
711.109	0.0156584
711.187	0.0155413
711.265	0.0154797
711.343	0.0155101
711.421	0.0155987
711.499	0.0156625
711.578	0.0155325
711.656	0.0155127
711.734	0.0156023
711.812	0.0155768
711.890	0.0155362
711.968	0.0154880
712.046	0.0154684
712.124	0.0156023
712.203	0.0155844
712.281	0.0154692
712.359	0.0154408
712.437	0.0155579
712.515	0.0155206
712.593	0.0156379
712.671	0.0154369
712.749	0.0156760
712.828	0.0155057
712.906	0.0155387
712.984	0.0154723
713.062	0.0155029
713.140	0.0155490
713.218	0.0154905
713.296	0.0153979
713.374	0.0156666
713.453	0.0157056
713.531	0.0156593
713.609	0.0155012
713.687	0.0154958
713.765	0.0156023
713.843	0.0156198
713.921	0.0154901
713.999	0.0155788
714.078	0.0155255
714.156	0.0155152
714.234	0.0154947
714.312	0.0155780
714.390	0.0156313
714.468	0.0155850
714.546	0.0155643
714.624	0.0154879
714.703	0.0156528
714.781	0.0155151
714.859	0.0154306
714.937	0.0156042
715.015	0.0155787
715.093	0.0156097
715.171	0.0154255
715.249	0.0155261
715.328	0.0155662
715.406	0.0155297
715.484	0.0154541
715.562	0.0154492
715.640	0.0155836
715.718	0.0154378
715.796	0.0155313
715.874	0.0155674
715.953	0.0155762
716.031	0.0155846
716.109	0.0155931
716.187	0.0156418
716.265	0.0157310
716.343	0.0156651
716.421	0.0155421
716.499	0.0156242
716.578	0.0156464
716.656	0.0156226
716.734	0.0156207
716.812	0.0155841
716.890	0.0155089
716.968	0.0157244
717.046	0.0155551
717.124	0.0154613
717.203	0.0156002
717.281	0.0155914
717.359	0.0155442
717.437	0.0155573
717.515	0.0157037
717.593	0.0155939
717.671	0.0155160
717.749	0.0156765
717.828	0.0156258
717.906	0.0155231
717.984	0.0156954
718.062	0.0155505
718.140	0.0156933
718.218	0.0156361
718.296	0.0157205
718.374	0.0155820
718.453	0.0157724
718.531	0.0156433
718.609	0.0156107
718.687	0.0157182
718.765	0.0156176
718.843	0.0155147
718.921	0.0156078
718.999	0.0156871
719.078	0.0157573
719.156	0.0158033
719.234	0.0156469
719.312	0.0156348
719.390	0.0156612
719.468	0.0157576
719.546	0.0156959
719.624	0.0156409
719.703	0.0156204
719.781	0.0156081
719.859	0.0156402
719.937	0.0156970
720.015	0.0156360
720.093	0.0156148
720.171	0.0156639
720.249	0.0157790
720.328	0.0155887
720.406	0.0156098
720.484	0.0156612
720.562	0.0157155
720.640	0.0156038
720.718	0.0156876
720.796	0.0157118
720.874	0.0155455
720.953	0.0154657
721.031	0.0155463
721.109	0.0155514
721.187	0.0156576
721.265	0.0155941
721.343	0.0157487
721.421	0.0156809
721.499	0.0157777
721.578	0.0155618
721.656	0.0155870
721.734	0.0156607
721.812	0.0156631
721.890	0.0156156
721.968	0.0156619
722.046	0.0157064
722.124	0.0156702
722.203	0.0155767
722.281	0.0155901
722.359	0.0156360
722.437	0.0156792
722.515	0.0156474
722.593	0.0154990
722.671	0.0155430
722.749	0.0157019
722.828	0.0153934
722.906	0.0156364
722.984	0.0154884
723.062	0.0154881
723.140	0.0155992
723.218	0.0156328
723.296	0.0156261
723.374	0.0155892
723.453	0.0155556
723.531	0.0157052
723.609	0.0156160
723.687	0.0156324
723.765	0.0156973
723.843	0.0156113
723.921	0.0156316
723.999	0.0155669
724.078	0.0155965
724.156	0.0155850
724.234	0.0156773
724.312	0.0155336
724.390	0.0156185
724.468	0.0156599
724.546	0.0156542
724.624	0.0157037
724.703	0.0157130
724.781	0.0156052
724.859	0.0156123
724.937	0.0155787
725.015	0.0157014
725.093	0.0156644
725.171	0.0156678
725.249	0.0158016
725.328	0.0156888
725.406	0.0156378
725.484	0.0156788
725.562	0.0157413
725.640	0.0156907
725.718	0.0155788
725.796	0.0156528
725.874	0.0156501
725.953	0.0157340
726.031	0.0156432
726.109	0.0156699
726.187	0.0156473
726.265	0.0157579
726.343	0.0156847
726.421	0.0157252
726.499	0.0156536
726.578	0.0155917
726.656	0.0156154
726.734	0.0156988
726.812	0.0156355
726.890	0.0156822
726.968	0.0156173
727.046	0.0156835
727.124	0.0158437
727.203	0.0157201
727.281	0.0155422
727.359	0.0156302
727.437	0.0155078
727.515	0.0156413
727.593	0.0157550
727.671	0.0155967
727.749	0.0155502
727.828	0.0156680
727.906	0.0157259
727.984	0.0156070
728.062	0.0156645
728.140	0.0155574
728.218	0.0157492
728.296	0.0156633
728.374	0.0155297
728.453	0.0156473
728.531	0.0155458
728.609	0.0156351
728.687	0.0157790
728.765	0.0156332
728.843	0.0155654
728.921	0.0156440
728.999	0.0156821
729.078	0.0156550
729.156	0.0157366
729.234	0.0156313
729.312	0.0158276
729.390	0.0158057
729.468	0.0156271
729.546	0.0155543
729.624	0.0155871
729.703	0.0157385
729.781	0.0158671
729.859	0.0157655
729.937	0.0157497
730.015	0.0156828
730.093	0.0155949
730.171	0.0157294
730.249	0.0157333
730.328	0.0157669
730.406	0.0156574
730.484	0.0156757
730.562	0.0156127
730.640	0.0157161
730.718	0.0157438
730.796	0.0156045
730.874	0.0156073
730.953	0.0156482
731.031	0.0156744
731.109	0.0157143
731.187	0.0156989
731.265	0.0157710
731.343	0.0157030
731.421	0.0157441
731.499	0.0157497
731.578	0.0155844
731.656	0.0157359
731.734	0.0157935
731.812	0.0155978
731.890	0.0155755
731.968	0.0155638
732.046	0.0158200
732.124	0.0157159
732.203	0.0156836
732.281	0.0157199
732.359	0.0156578
732.437	0.0157741
732.515	0.0157558
732.593	0.0156562
732.671	0.0157275
732.749	0.0157123
732.828	0.0157120
732.906	0.0155544
732.984	0.0157880
733.062	0.0157317
733.140	0.0156503
733.218	0.0157273
733.296	0.0157134
733.374	0.0157353
733.453	0.0157452
733.531	0.0157397
733.609	0.0156900
733.687	0.0156490
733.765	0.0157573
733.843	0.0157604
733.921	0.0156933
733.999	0.0156796
734.078	0.0154762
734.156	0.0157256
734.234	0.0156184
734.312	0.0154964
734.390	0.0155720
734.468	0.0155706
734.546	0.0156434
734.624	0.0156628
734.703	0.0155664
734.781	0.0155501
734.859	0.0156996
734.937	0.0155830
735.015	0.0155949
735.093	0.0156197
735.171	0.0155394
735.249	0.0155859
735.328	0.0156718
735.406	0.0155950
735.484	0.0155947
735.562	0.0156832
735.640	0.0156480
735.718	0.0156518
735.796	0.0156590
735.874	0.0156821
735.953	0.0156826
736.031	0.0155643
736.109	0.0157284
736.187	0.0157911
736.265	0.0155092
736.343	0.0156519
736.421	0.0157333
736.499	0.0157154
736.578	0.0157021
736.656	0.0156439
736.734	0.0155442
736.812	0.0156815
736.890	0.0157238
736.968	0.0157279
737.046	0.0156779
737.124	0.0155636
737.203	0.0156767
737.281	0.0156866
737.359	0.0155918
737.437	0.0156518
737.515	0.0155888
737.593	0.0156058
737.671	0.0157535
737.749	0.0157745
737.828	0.0156740
737.906	0.0156361
737.984	0.0156519
738.062	0.0157151
738.140	0.0156298
738.218	0.0155632
738.296	0.0157485
738.374	0.0156616
738.453	0.0156595
738.531	0.0155205
738.609	0.0157134
738.687	0.0156905
738.765	0.0156714
738.843	0.0156510
738.921	0.0155843
738.999	0.0156736
739.078	0.0156236
739.156	0.0156599
739.234	0.0156210
739.312	0.0156192
739.390	0.0157421
739.468	0.0156361
739.546	0.0156155
739.624	0.0155572
739.703	0.0157397
739.781	0.0155857
739.859	0.0156251
739.937	0.0156580
740.015	0.0156857
740.093	0.0156476
740.171	0.0155635
740.249	0.0156741
740.328	0.0156532
740.406	0.0156030
740.484	0.0155578
740.562	0.0156087
740.640	0.0157452
740.718	0.0155795
740.796	0.0157099
740.874	0.0157430
740.953	0.0156979
741.031	0.0157372
741.109	0.0155698
741.187	0.0155653
741.265	0.0156393
741.343	0.0157447
741.421	0.0156469
741.499	0.0157264
741.578	0.0157625
741.656	0.0155034
741.734	0.0156542
741.812	0.0155830
741.890	0.0157221
741.968	0.0156643
742.046	0.0156844
742.124	0.0157027
742.203	0.0156238
742.281	0.0156580
742.359	0.0156989
742.437	0.0157234
742.515	0.0157430
742.593	0.0157648
742.671	0.0157579
742.749	0.0156493
742.828	0.0156410
742.906	0.0156858
742.984	0.0156436
743.062	0.0156509
743.140	0.0156047
743.218	0.0156081
743.296	0.0156747
743.374	0.0157316
743.453	0.0156891
743.531	0.0156725
743.609	0.0157160
743.687	0.0156383
743.765	0.0157498
743.843	0.0156908
743.921	0.0157006
743.999	0.0157024
744.078	0.0158060
744.156	0.0156802
744.234	0.0159396
744.312	0.0158382
744.390	0.0155489
744.468	0.0157363
744.546	0.0155575
744.624	0.0158004
744.703	0.0156570
744.781	0.0156857
744.859	0.0155385
744.937	0.0157262
745.015	0.0155596
745.093	0.0157351
745.171	0.0156917
745.249	0.0156950
745.328	0.0155739
745.406	0.0158415
745.484	0.0157521
745.562	0.0157146
745.640	0.0157579
745.718	0.0156570
745.796	0.0155647
745.874	0.0156387
745.953	0.0156606
746.031	0.0158570
746.109	0.0157265
746.187	0.0158308
746.265	0.0156416
746.343	0.0157465
746.421	0.0156593
746.499	0.0157219
746.578	0.0156833
746.656	0.0156162
746.734	0.0156105
746.812	0.0158231
746.890	0.0156701
746.968	0.0157337
747.046	0.0156783
747.124	0.0156145
747.203	0.0156377
747.281	0.0157799
747.359	0.0157562
747.437	0.0156164
747.515	0.0157293
747.593	0.0155300
747.671	0.0155042
747.749	0.0155643
747.828	0.0156323
747.906	0.0156266
747.984	0.0155830
748.062	0.0156382
748.140	0.0155454
748.218	0.0155686
748.296	0.0157388
748.374	0.0157104
748.453	0.0157338
748.531	0.0156026
748.609	0.0157567
748.687	0.0158056
748.765	0.0156738
748.843	0.0158438
748.921	0.0156699
748.999	0.0158324
749.078	0.0157299
749.156	0.0156619
749.234	0.0157752
749.312	0.0157939
749.390	0.0157478
749.468	0.0158099
749.546	0.0158107
749.624	0.0157703
749.703	0.0157481
749.781	0.0155931
749.859	0.0155174
749.937	0.0157616
750.015	0.0157907
750.093	0.0155650
750.171	0.0158176
750.249	0.0157160
750.328	0.0155931
750.406	0.0156080
750.484	0.0155632
750.562	0.0157069
750.640	0.0156454
750.718	0.0155239
750.796	0.0157579
750.874	0.0158290
750.953	0.0156870
751.031	0.0156999
751.109	0.0157637
751.187	0.0158385
751.265	0.0156986
751.343	0.0157625
751.421	0.0156938
751.499	0.0158487
751.578	0.0156034
751.656	0.0156737
751.734	0.0157679
751.812	0.0155825
751.890	0.0156655
751.968	0.0155785
752.046	0.0155689
752.124	0.0155040
752.203	0.0154892
752.281	0.0154167
752.359	0.0155558
752.437	0.0156027
752.515	0.0155653
752.593	0.0156422
752.671	0.0155378
752.749	0.0155756
752.828	0.0156111
752.906	0.0156211
752.984	0.0156897
753.062	0.0156081
753.140	0.0155042
753.218	0.0156878
753.296	0.0156567
753.374	0.0156789
753.453	0.0157347
753.531	0.0156440
753.609	0.0155768
753.687	0.0158439
753.765	0.0157593
753.843	0.0157172
753.921	0.0157084
753.999	0.0157032
754.078	0.0156946
754.156	0.0157720
754.234	0.0156988
754.312	0.0157098
754.390	0.0156315
754.468	0.0156129
754.546	0.0155692
754.624	0.0158612
754.703	0.0155466
754.781	0.0157379
754.859	0.0155621
754.937	0.0155781
755.015	0.0155888
755.093	0.0155712
755.171	0.0156526
755.249	0.0155509
755.328	0.0154594
755.406	0.0155782
755.484	0.0157097
755.562	0.0155773
755.640	0.0154615
755.718	0.0156277
755.796	0.0156499
755.874	0.0156177
755.953	0.0156001
756.031	0.0156876
756.109	0.0155168
756.187	0.0155642
756.265	0.0155395
756.343	0.0155508
756.421	0.0156923
756.499	0.0156480
756.578	0.0157128
756.656	0.0158013
756.734	0.0158737
756.812	0.0157317
756.890	0.0157608
756.968	0.0157359
757.046	0.0157224
757.124	0.0157667
757.203	0.0157761
757.281	0.0156963
757.359	0.0156670
757.437	0.0156294
757.515	0.0156800
757.593	0.0155556
757.671	0.0155461
757.749	0.0154395
757.828	0.0155776
757.906	0.0154959
757.984	0.0154362
758.062	0.0154353
758.140	0.0156054
758.218	0.0156122
758.296	0.0155492
758.374	0.0155537
758.453	0.0155529
758.531	0.0154301
758.609	0.0156068
758.687	0.0155514
758.765	0.0155417
758.843	0.0154537
758.921	0.0156388
758.999	0.0155641
759.078	0.0154380
759.156	0.0153543
759.234	0.0155807
759.312	0.0156921
759.390	0.0154449
759.468	0.0155109
759.546	0.0156422
759.624	0.0157394
759.703	0.0156359
759.781	0.0157258
759.859	0.0157162
759.937	0.0157914
760.015	0.0156968
760.093	0.0156532
760.171	0.0157019
760.249	0.0157053
760.328	0.0156572
760.406	0.0157141
760.484	0.0156773
760.562	0.0157947
760.640	0.0157048
760.718	0.0156384
760.796	0.0157356
760.874	0.0156108
760.953	0.0156458
761.031	0.0156541
761.109	0.0155899
761.187	0.0155978
761.265	0.0156054
761.343	0.0156695
761.421	0.0156205
761.499	0.0156201
761.578	0.0156021
761.656	0.0155167
761.734	0.0154897
761.812	0.0155601
761.890	0.0156102
761.968	0.0154646
762.046	0.0154966
762.124	0.0155982
762.203	0.0154159
762.281	0.0153686
762.359	0.0154162
762.437	0.0153068
762.515	0.0153487
762.593	0.0155069
762.671	0.0153510
762.749	0.0155705
762.828	0.0154409
762.906	0.0154720
762.984	0.0153229
763.062	0.0154807
763.140	0.0154482
763.218	0.0155186
763.296	0.0155518
763.374	0.0154807
763.453	0.0155517
763.531	0.0155130
763.609	0.0155206
763.687	0.0156290
763.765	0.0156881
763.843	0.0155553
763.921	0.0155795
763.999	0.0155665
764.078	0.0155282
764.156	0.0155657
764.234	0.0158138
764.312	0.0157935
764.390	0.0156694
764.468	0.0157135
764.546	0.0158736
764.624	0.0157631
764.703	0.0158340
764.781	0.0157250
764.859	0.0157886
764.937	0.0158145
765.015	0.0159222
765.093	0.0157094
765.171	0.0158351
765.249	0.0159229
765.328	0.0159119
765.406	0.0158012
765.484	0.0159029
765.562	0.0157895
765.640	0.0157338
765.718	0.0156597
765.796	0.0156883
765.874	0.0155956
765.953	0.0155476
766.031	0.0156796
766.109	0.0155912
766.187	0.0154579
766.265	0.0154522
766.343	0.0154562
766.421	0.0154043
766.499	0.0154227
766.578	0.0153241
766.656	0.0154058
766.734	0.0152193
766.812	0.0151393
766.890	0.0153011
766.968	0.0152617
767.046	0.0151880
767.124	0.0151385
767.203	0.0152172
767.281	0.0152157
767.359	0.0150835
767.437	0.0152711
767.515	0.0152135
767.593	0.0153902
767.671	0.0154173
767.749	0.0155907
767.828	0.0156712
767.906	0.0156479
767.984	0.0156824
768.062	0.0157436
768.140	0.0159097
768.218	0.0158934
768.296	0.0158022
768.374	0.0158448
768.453	0.0158243
768.531	0.0159367
768.609	0.0159005
768.687	0.0158504
768.765	0.0159412
768.843	0.0157959
768.921	0.0157379
768.999	0.0158031
769.078	0.0157169
769.156	0.0155982
769.234	0.0156909
769.312	0.0155901
769.390	0.0155138
769.468	0.0156023
769.546	0.0154961
769.624	0.0155014
769.703	0.0155459
769.781	0.0155857
769.859	0.0154377
769.937	0.0154226
770.015	0.0153829
770.093	0.0152140
770.171	0.0153023
770.249	0.0151569
770.328	0.0152155
770.406	0.0153580
770.484	0.0152016
770.562	0.0152136
770.640	0.0152953
770.718	0.0153098
770.796	0.0153415
770.874	0.0154790
770.953	0.0156128
771.031	0.0155347
771.109	0.0158020
771.187	0.0157492
771.265	0.0156847
771.343	0.0157468
771.421	0.0158623
771.499	0.0158373
771.578	0.0157638
771.656	0.0157663
771.734	0.0156801
771.812	0.0156629
771.890	0.0156707
771.968	0.0156228
772.046	0.0155824
772.124	0.0155625
772.203	0.0154587
772.281	0.0155609
772.359	0.0154885
772.437	0.0155857
772.515	0.0156135
772.593	0.0155396
772.671	0.0157156
772.749	0.0156701
772.828	0.0157482
772.906	0.0157073
772.984	0.0157510
773.062	0.0156325
773.140	0.0157655
773.218	0.0158256
773.296	0.0157387
773.374	0.0157241
773.453	0.0154939
773.531	0.0154633
773.609	0.0155799
773.687	0.0155121
773.765	0.0155304
773.843	0.0155238
773.921	0.0156299
773.999	0.0155018
774.078	0.0154071
774.156	0.0154151
774.234	0.0153536
774.312	0.0154696
774.390	0.0155672
774.468	0.0152749
774.546	0.0152966
774.624	0.0152847
774.703	0.0153368
774.781	0.0152958
774.859	0.0152728
774.937	0.0153225
775.015	0.0153009
775.093	0.0153914
775.171	0.0152861
775.249	0.0152836
775.328	0.0152763
775.406	0.0152695
775.484	0.0154243
775.562	0.0154838
775.640	0.0153388
775.718	0.0154710
775.796	0.0156078
775.874	0.0157568
775.953	0.0157932
776.031	0.0158500
776.109	0.0159445
776.187	0.0159604
776.265	0.0159394
776.343	0.0162363
776.421	0.0159637
776.499	0.0158103
776.578	0.0159759
776.656	0.0159715
776.734	0.0158864
776.812	0.0159588
776.890	0.0159644
776.968	0.0159972
777.046	0.0159328
777.124	0.0158975
777.203	0.0159075
777.281	0.0156727
777.359	0.0156824
777.437	0.0157401
777.515	0.0157292
777.593	0.0154972
777.671	0.0155309
777.749	0.0155087
777.828	0.0155039
777.906	0.0153948
777.984	0.0153691
778.062	0.0153902
778.140	0.0155121
778.218	0.0155215
778.296	0.0154432
778.374	0.0155431
778.453	0.0153205
778.531	0.0154435
778.609	0.0153409
778.687	0.0153523
778.765	0.0153428
778.843	0.0153928
778.921	0.0153950
778.999	0.0153787
779.078	0.0155188
779.156	0.0153993
779.234	0.0154803
779.312	0.0154931
779.390	0.0154202
779.468	0.0154581
779.546	0.0155671
779.624	0.0157188
779.703	0.0156864
779.781	0.0156320
779.859	0.0157024
779.937	0.0154970
780.015	0.0154891
780.093	0.0156046
780.171	0.0155573
780.249	0.0154964
780.328	0.0154364
780.406	0.0155083
780.484	0.0155370
780.562	0.0155163
780.640	0.0155704
780.718	0.0156375
780.796	0.0157780
780.874	0.0157355
780.953	0.0156805
781.031	0.0159072
781.109	0.0158653
781.187	0.0158974
781.265	0.0161780
781.343	0.0158966
781.421	0.0160258
781.499	0.0161406
781.578	0.0160485
781.656	0.0160080
781.734	0.0160271
781.812	0.0159781
781.890	0.0160003
781.968	0.0158475
782.046	0.0158148
782.124	0.0157467
782.203	0.0157735
782.281	0.0156808
782.359	0.0156461
782.437	0.0155206
782.515	0.0155379
782.593	0.0154897
782.671	0.0155077
782.749	0.0155466
782.828	0.0154193
782.906	0.0152657
782.984	0.0152795
783.062	0.0152156
783.140	0.0153788
783.218	0.0152273
783.296	0.0152958
783.374	0.0150189
783.453	0.0152013
783.531	0.0151727
783.609	0.0152582
783.687	0.0152937
783.765	0.0152634
783.843	0.0154442
783.921	0.0155730
783.999	0.0155656
784.078	0.0155473
784.156	0.0156713
784.234	0.0156603
784.312	0.0156978
784.390	0.0158681
784.468	0.0159131
784.546	0.0159846
784.624	0.0160147
784.703	0.0160160
784.781	0.0160136
784.859	0.0162276
784.937	0.0161073
785.015	0.0160360
785.093	0.0161117
785.171	0.0160968
785.249	0.0159633
785.328	0.0159727
785.406	0.0159045
785.484	0.0158875
785.562	0.0157426
785.640	0.0156823
785.718	0.0155567
785.796	0.0156020
785.874	0.0153810
785.953	0.0153670
786.031	0.0153223
786.109	0.0153229
786.187	0.0150168
786.265	0.0150146
786.343	0.0151762
786.421	0.0152419
786.499	0.0151261
786.578	0.0152029
786.656	0.0151064
786.734	0.0150124
786.812	0.0152184
786.890	0.0153428
786.968	0.0153795
787.046	0.0154534
787.124	0.0155408
787.203	0.0155903
787.281	0.0155778
787.359	0.0156744
787.437	0.0156782
787.515	0.0157327
787.593	0.0158437
787.671	0.0157308
787.749	0.0157703
787.828	0.0156211
787.906	0.0156744
787.984	0.0156865
788.062	0.0156461
788.140	0.0157184
788.218	0.0158268
788.296	0.0159198
788.374	0.0157282
788.453	0.0157562
788.531	0.0156963
788.609	0.0157763
788.687	0.0157730
788.765	0.0157359
788.843	0.0156852
788.921	0.0155764
788.999	0.0156731
789.078	0.0157027
789.156	0.0156812
789.234	0.0157247
789.312	0.0156656
789.390	0.0156212
789.468	0.0155444
789.546	0.0158131
789.624	0.0157314
789.703	0.0155823
789.781	0.0156781
789.859	0.0156998
789.937	0.0156908
790.015	0.0157000
790.093	0.0155038
790.171	0.0154241
790.249	0.0153548
790.328	0.0152592
790.406	0.0152482
790.484	0.0151315
790.562	0.0152240
790.640	0.0150732
790.718	0.0150521
790.796	0.0149712
790.874	0.0151482
790.953	0.0149770
791.031	0.0148219
791.109	0.0149387
791.187	0.0150794
791.265	0.0150759
791.343	0.0151234
791.421	0.0150806
791.499	0.0150594
791.578	0.0152510
791.656	0.0153044
791.734	0.0152638
791.812	0.0154107
791.890	0.0154762
791.968	0.0156471
792.046	0.0157609
792.124	0.0156979
792.203	0.0156837
792.281	0.0157887
792.359	0.0160574
792.437	0.0161026
792.515	0.0159456
792.593	0.0160219
792.671	0.0162653
792.749	0.0161366
792.828	0.0161739
792.906	0.0160871
792.984	0.0162799
793.062	0.0164291
793.140	0.0162536
793.218	0.0160625
793.296	0.0162112
793.374	0.0160181
793.453	0.0159680
793.531	0.0158022
793.609	0.0158529
793.687	0.0156622
793.765	0.0155405
793.843	0.0155768
793.921	0.0152921
793.999	0.0153899
794.078	0.0152423
794.156	0.0151124
794.234	0.0152437
794.312	0.0150452
794.390	0.0150736
794.468	0.0148399
794.546	0.0148231
794.624	0.0149899
794.703	0.0149448
794.781	0.0149426
794.859	0.0150262
794.937	0.0150012
795.015	0.0152070
795.093	0.0151619
795.171	0.0151498
795.249	0.0152842
795.328	0.0154108
795.406	0.0155291
795.484	0.0154162
795.562	0.0156441
795.640	0.0156422
795.718	0.0157770
795.796	0.0157504
795.874	0.0159505
795.953	0.0159384
796.031	0.0161058
796.109	0.0162396
796.187	0.0161557
796.265	0.0161459
796.343	0.0161981
796.421	0.0161330
796.499	0.0162666
796.578	0.0160448
796.656	0.0161438
796.734	0.0161584
796.812	0.0160106
796.890	0.0159602
796.968	0.0159802
797.046	0.0156169
797.124	0.0156057
797.203	0.0156583
797.281	0.0155350
797.359	0.0153529
797.437	0.0152959
797.515	0.0152300
797.593	0.0151885
797.671	0.0151108
797.749	0.0150882
797.828	0.0151027
797.906	0.0149334
797.984	0.0152094
798.062	0.0151077
798.140	0.0152477
798.218	0.0152541
798.296	0.0151401
798.374	0.0151579
798.453	0.0153880
798.531	0.0153432
798.609	0.0153170
798.687	0.0154128
798.765	0.0155329
798.843	0.0155333
798.921	0.0156710
798.999	0.0156576
799.078	0.0157835
799.156	0.0158244
799.234	0.0158788
799.312	0.0158852
799.390	0.0159999
799.468	0.0157926
799.546	0.0161168
799.624	0.0158841
799.703	0.0159892
799.781	0.0158901
799.859	0.0158533
799.937	0.0159452
800.015	0.0158233
800.093	0.0158790
800.171	0.0158010
800.249	0.0157318
800.328	0.0156973
800.406	0.0158810
800.484	0.0157215
800.562	0.0157677
800.640	0.0157951
800.718	0.0156275
800.796	0.0155374
800.874	0.0156916
800.953	0.0156925
801.031	0.0155257
801.109	0.0153675
801.187	0.0153976
801.265	0.0153855
801.343	0.0155038
801.421	0.0155269
801.499	0.0154340
801.578	0.0151911
801.656	0.0152441
801.734	0.0153296
801.812	0.0152955
801.890	0.0152333
801.968	0.0152908
802.046	0.0152803
802.124	0.0152170
802.203	0.0152463
802.281	0.0152395
802.359	0.0151967
802.437	0.0150521
802.515	0.0153185
802.593	0.0153123
802.671	0.0152491
802.749	0.0153030
802.828	0.0153902
802.906	0.0153741
802.984	0.0154790
803.062	0.0156707
803.140	0.0156530
803.218	0.0156693
803.296	0.0158275
803.374	0.0160260
803.453	0.0158663
803.531	0.0160216
803.609	0.0160973
803.687	0.0161833
803.765	0.0161795
803.843	0.0161290
803.921	0.0160852
803.999	0.0161800
804.078	0.0162630
804.156	0.0161748
804.234	0.0163162
804.312	0.0162266
804.390	0.0160843
804.468	0.0159349
804.546	0.0159794
804.624	0.0160935
804.703	0.0158434
804.781	0.0158481
804.859	0.0157034
804.937	0.0156792
805.015	0.0156879
805.093	0.0155699
805.171	0.0154874
805.249	0.0153960
805.328	0.0153439
805.406	0.0153449
805.484	0.0152490
805.562	0.0150705
805.640	0.0151858
805.718	0.0151688
805.796	0.0151921
805.874	0.0151456
805.953	0.0152640
806.031	0.0154190
806.109	0.0154086
806.187	0.0154173
806.265	0.0154105
806.343	0.0156338
806.421	0.0155962
806.499	0.0157041
806.578	0.0156834
806.656	0.0157703
806.734	0.0158039
806.812	0.0157640
806.890	0.0157034
806.968	0.0156980
807.046	0.0157690
807.124	0.0158321
807.203	0.0156797
807.281	0.0157716
807.359	0.0157437
807.437	0.0157729
807.515	0.0156439
807.593	0.0155636
807.671	0.0157046
807.749	0.0157055
807.828	0.0154844
807.906	0.0155506
807.984	0.0156748
808.062	0.0156586
808.140	0.0155453
808.218	0.0155513
808.296	0.0154974
808.374	0.0157644
808.453	0.0156069
808.531	0.0155834
808.609	0.0156025
808.687	0.0153873
808.765	0.0155369
808.843	0.0154993
808.921	0.0155906
808.999	0.0155843
809.078	0.0155754
809.156	0.0153975
809.234	0.0154694
809.312	0.0156265
809.390	0.0155299
809.468	0.0155450
809.546	0.0154481
809.624	0.0155920
809.703	0.0154836
809.781	0.0154822
809.859	0.0157040
809.937	0.0155473
810.015	0.0155899
810.093	0.0155615
810.171	0.0157298
810.249	0.0155668
810.328	0.0156477
810.406	0.0157796
810.484	0.0157602
810.562	0.0156793
810.640	0.0157303
810.718	0.0157937
810.796	0.0158926
810.874	0.0158000
810.953	0.0157507
811.031	0.0158527
811.109	0.0159654
811.187	0.0157405
811.265	0.0158194
811.343	0.0157659
811.421	0.0157831
811.499	0.0156945
811.578	0.0157243
811.656	0.0159103
811.734	0.0159711
811.812	0.0158257
811.890	0.0158013
811.968	0.0157359
812.046	0.0157555
812.124	0.0158383
812.203	0.0158300
812.281	0.0156487
812.359	0.0155388
812.437	0.0152889
812.515	0.0154489
812.593	0.0153143
812.671	0.0152660
812.749	0.0152366
812.828	0.0152865
812.906	0.0151437
812.984	0.0151031
813.062	0.0153066
813.140	0.0152397
813.218	0.0153083
813.296	0.0153339
813.374	0.0154091
813.453	0.0155774
813.531	0.0156510
813.609	0.0155714
813.687	0.0155682
813.765	0.0158256
813.843	0.0158849
813.921	0.0158810
813.999	0.0158439
814.078	0.0159855
814.156	0.0160390
814.234	0.0160069
814.312	0.0158836
814.390	0.0160934
814.468	0.0159105
814.546	0.0161665
814.624	0.0160497
814.703	0.0159856
814.781	0.0160280
814.859	0.0160030
814.937	0.0160189
815.015	0.0160076
815.093	0.0160477
815.171	0.0159809
815.249	0.0159439
815.328	0.0159116
815.406	0.0157891
815.484	0.0158843
815.562	0.0157998
815.640	0.0155457
815.718	0.0156107
815.796	0.0156074
815.874	0.0156522
815.953	0.0155135
816.031	0.0155193
816.109	0.0156122
816.187	0.0156016
816.265	0.0156747
816.343	0.0157361
816.421	0.0157782
816.499	0.0157841
816.578	0.0157554
816.656	0.0158456
816.734	0.0158116
816.812	0.0158976
816.890	0.0158226
816.968	0.0159230
817.046	0.0158102
817.124	0.0157471
817.203	0.0157494
817.281	0.0156039
817.359	0.0157484
817.437	0.0155408
817.515	0.0156145
817.593	0.0155344
817.671	0.0153654
817.749	0.0154936
817.828	0.0153806
817.906	0.0155156
817.984	0.0153359
818.062	0.0152814
818.140	0.0154543
818.218	0.0154943
818.296	0.0153663
818.374	0.0153817
818.453	0.0155959
818.531	0.0153999
818.609	0.0154093
818.687	0.0153556
818.765	0.0154689
818.843	0.0154760
818.921	0.0153279
818.999	0.0155484
819.078	0.0155727
819.156	0.0155072
819.234	0.0156696
819.312	0.0157726
819.390	0.0156156
819.468	0.0158115
819.546	0.0158440
819.624	0.0159838
819.703	0.0158439
819.781	0.0159249
819.859	0.0159258
819.937	0.0160116
820.015	0.0159688
820.093	0.0161605
820.171	0.0161854
820.249	0.0162678
820.328	0.0162655
820.406	0.0162991
820.484	0.0161625
820.562	0.0161650
820.640	0.0161484
820.718	0.0160935
820.796	0.0160463
820.874	0.0159123
820.953	0.0158659
821.031	0.0157774
821.109	0.0157140
821.187	0.0156532
821.265	0.0156309
821.343	0.0154080
821.421	0.0153725
821.499	0.0153175
821.578	0.0153021
821.656	0.0153371
821.734	0.0152527
821.812	0.0152661
821.890	0.0151477
821.968	0.0152953
822.046	0.0153690
822.124	0.0153056
822.203	0.0153296
822.281	0.0153617
822.359	0.0153391
822.437	0.0153210
822.515	0.0152197
822.593	0.0152519
822.671	0.0153808
822.749	0.0153043
822.828	0.0153651
822.906	0.0153788
822.984	0.0152525
823.062	0.0153812
823.140	0.0153809
823.218	0.0153726
823.296	0.0154734
823.374	0.0155242
823.453	0.0155458
823.531	0.0155107
823.609	0.0154333
823.687	0.0154364
823.765	0.0156345
823.843	0.0156374
823.921	0.0156196
823.999	0.0156176
824.078	0.0155430
824.156	0.0157071
824.234	0.0157211
824.312	0.0158168
824.390	0.0158276
824.468	0.0157492
824.546	0.0159827
824.624	0.0159832
824.703	0.0158671
824.781	0.0159411
824.859	0.0160112
824.937	0.0159927
825.015	0.0159677
825.093	0.0161935
825.171	0.0160138
825.249	0.0160093
825.328	0.0159740
825.406	0.0157981
825.484	0.0158875
825.562	0.0159025
825.640	0.0159507
825.718	0.0159294
825.796	0.0157506
825.874	0.0155466
825.953	0.0158262
826.031	0.0155858
826.109	0.0156379
826.187	0.0156028
826.265	0.0155384
826.343	0.0156503
826.421	0.0155019
826.499	0.0153829
826.578	0.0153326
826.656	0.0155032
826.734	0.0155494
826.812	0.0154329
826.890	0.0154617
826.968	0.0154810
827.046	0.0154210
827.124	0.0155875
827.203	0.0154578
827.281	0.0154771
827.359	0.0155209
827.437	0.0155745
827.515	0.0153993
827.593	0.0154552
827.671	0.0154356
827.749	0.0153636
827.828	0.0153557
827.906	0.0155079
827.984	0.0153008
828.062	0.0152898
828.140	0.0154467
828.218	0.0153981
828.296	0.0153313
828.374	0.0155445
828.453	0.0155045
828.531	0.0156384
828.609	0.0154768
828.687	0.0155429
828.765	0.0155666
828.843	0.0157186
828.921	0.0159750
828.999	0.0157951
829.078	0.0158584
829.156	0.0159615
829.234	0.0159910
829.312	0.0159064
829.390	0.0159879
829.468	0.0159434
829.546	0.0159187
829.624	0.0158208
829.703	0.0158614
829.781	0.0158053
829.859	0.0158715
829.937	0.0158060
830.015	0.0158009
830.093	0.0157722
830.171	0.0156953
830.249	0.0156517
830.328	0.0156458
830.406	0.0157421
830.484	0.0157659
830.562	0.0156044
830.640	0.0156241
830.718	0.0154985
830.796	0.0153553
830.874	0.0153313
830.953	0.0152747
831.031	0.0153099
831.109	0.0154026
831.187	0.0153691
831.265	0.0152755
831.343	0.0153037
831.421	0.0152419
831.499	0.0154565
831.578	0.0153585
831.656	0.0155400
831.734	0.0154958
831.812	0.0155187
831.890	0.0155356
831.968	0.0156882
832.046	0.0156599
832.124	0.0156521
832.203	0.0158016
832.281	0.0158614
832.359	0.0160361
832.437	0.0159628
832.515	0.0160454
832.593	0.0161182
832.671	0.0161043
832.749	0.0161155
832.828	0.0160654
832.906	0.0160671
832.984	0.0161947
833.062	0.0161217
833.140	0.0160869
833.218	0.0161520
833.296	0.0159578
833.374	0.0160357
833.453	0.0160659
833.531	0.0157344
833.609	0.0158066
833.687	0.0156387
833.765	0.0154624
833.843	0.0154099
833.921	0.0153729
833.999	0.0154453
834.078	0.0151560
834.156	0.0149803
834.234	0.0150829
834.312	0.0149774
834.390	0.0149937
834.468	0.0149173
834.546	0.0149120
834.624	0.0150019
834.703	0.0150997
834.781	0.0151445
834.859	0.0151957
834.937	0.0152181
835.015	0.0152785
835.093	0.0154688
835.171	0.0155554
835.249	0.0156467
835.328	0.0157507
835.406	0.0158273
835.484	0.0159811
835.562	0.0159995
835.640	0.0160617
835.718	0.0159740
835.796	0.0161543
835.874	0.0162213
835.953	0.0161110
836.031	0.0162028
836.109	0.0161563
836.187	0.0162535
836.265	0.0162414
836.343	0.0163062
836.421	0.0161779
836.499	0.0162845
836.578	0.0162447
836.656	0.0161606
836.734	0.0161902
836.812	0.0162390
836.890	0.0161819
836.968	0.0161826
837.046	0.0161279
837.124	0.0160402
837.203	0.0161662
837.281	0.0159225
837.359	0.0159423
837.437	0.0158042
837.515	0.0156220
837.593	0.0155965
837.671	0.0155560
837.749	0.0156515
837.828	0.0156011
837.906	0.0153992
837.984	0.0153284
838.062	0.0154032
838.140	0.0153440
838.218	0.0153047
838.296	0.0153711
838.374	0.0152613
838.453	0.0152248
838.531	0.0152174
838.609	0.0150217
838.687	0.0151600
838.765	0.0152174
838.843	0.0152888
838.921	0.0152732
838.999	0.0152164
839.078	0.0153185
839.156	0.0154312
839.234	0.0154461
839.312	0.0153914
839.390	0.0153362
839.468	0.0154317
839.546	0.0154425
839.624	0.0155539
839.703	0.0158102
839.781	0.0157446
839.859	0.0157782
839.937	0.0158725
840.015	0.0158625
840.093	0.0161493
840.171	0.0160928
840.249	0.0160276
840.328	0.0162122
840.406	0.0161430
840.484	0.0161797
840.562	0.0162126
840.640	0.0159707
840.718	0.0161194
840.796	0.0162547
840.874	0.0163266
840.953	0.0159600
841.031	0.0160065
841.109	0.0159817
841.187	0.0160783
841.265	0.0161193
841.343	0.0159415
841.421	0.0159621
841.499	0.0159353
841.578	0.0157778
841.656	0.0157283
841.734	0.0157074
841.812	0.0156960
841.890	0.0155141
841.968	0.0157153
842.046	0.0155489
842.124	0.0154263
842.203	0.0155421
842.281	0.0154143
842.359	0.0153696
842.437	0.0152183
842.515	0.0152633
842.593	0.0152682
842.671	0.0152646
842.749	0.0150996
842.828	0.0150269
842.906	0.0150665
842.984	0.0150999
843.062	0.0151416
843.140	0.0152093
843.218	0.0150955
843.296	0.0152113
843.374	0.0154209
843.453	0.0154720
843.531	0.0154666
843.609	0.0157036
843.687	0.0157944
843.765	0.0157371
843.843	0.0158383
843.921	0.0159842
843.999	0.0160163
844.078	0.0159789
844.156	0.0161126
844.234	0.0160770
844.312	0.0159408
844.390	0.0161224
844.468	0.0160768
844.546	0.0161309
844.624	0.0160669
844.703	0.0160983
844.781	0.0161037
844.859	0.0159776
844.937	0.0159406
845.015	0.0159095
845.093	0.0157519
845.171	0.0157789
845.249	0.0156956
845.328	0.0155588
845.406	0.0155117
845.484	0.0155570
845.562	0.0154507
845.640	0.0155358
845.718	0.0153210
845.796	0.0152586
845.874	0.0151791
845.953	0.0152272
846.031	0.0153117
846.109	0.0153944
846.187	0.0153044
846.265	0.0153602
846.343	0.0152248
846.421	0.0152698
846.499	0.0152726
846.578	0.0154111
846.656	0.0155085
846.734	0.0155354
846.812	0.0156145
846.890	0.0154236
846.968	0.0154792
847.046	0.0156366
847.124	0.0156933
847.203	0.0156282
847.281	0.0157473
847.359	0.0156779
847.437	0.0157375
847.515	0.0157389
847.593	0.0156984
847.671	0.0156830
847.749	0.0156915
847.828	0.0157390
847.906	0.0158015
847.984	0.0159013
848.062	0.0157828
848.140	0.0157766
848.218	0.0156870
848.296	0.0157552
848.374	0.0159057
848.453	0.0156820
848.531	0.0154993
848.609	0.0156276
848.687	0.0156571
848.765	0.0155568
848.843	0.0155080
848.921	0.0155087
848.999	0.0154720
849.078	0.0153839
849.156	0.0154590
849.234	0.0154878
849.312	0.0152547
849.390	0.0153748
849.468	0.0152521
849.546	0.0153525
849.624	0.0152159
849.703	0.0153238
849.781	0.0152348
849.859	0.0153542
849.937	0.0153036
850.015	0.0153010
850.093	0.0153950
850.171	0.0154216
850.249	0.0155219
850.328	0.0153732
850.406	0.0155108
850.484	0.0154083
850.562	0.0154459
850.640	0.0154520
850.718	0.0153316
850.796	0.0155420
850.874	0.0154390
850.953	0.0153446
851.031	0.0153876
851.109	0.0153316
851.187	0.0152616
851.265	0.0152904
851.343	0.0152873
851.421	0.0153053
851.499	0.0154478
851.578	0.0154292
851.656	0.0154551
851.734	0.0156745
851.812	0.0155138
851.890	0.0155190
851.968	0.0156034
852.046	0.0155956
852.124	0.0155087
852.203	0.0157151
852.281	0.0158186
852.359	0.0157282
852.437	0.0158579
852.515	0.0157860
852.593	0.0157792
852.671	0.0158464
852.749	0.0158878
852.828	0.0158912
852.906	0.0157699
852.984	0.0157112
853.062	0.0156129
853.140	0.0156078
853.218	0.0157184
853.296	0.0156331
853.374	0.0155975
853.453	0.0156119
853.531	0.0154510
853.609	0.0153523
853.687	0.0152605
853.765	0.0151955
853.843	0.0153940
853.921	0.0151352
853.999	0.0152287
854.078	0.0151998
854.156	0.0151485
854.234	0.0151082
854.312	0.0151936
854.390	0.0152988
854.468	0.0152057
854.546	0.0153479
854.624	0.0153909
854.703	0.0155707
854.781	0.0154263
854.859	0.0154924
854.937	0.0155599
855.015	0.0156351
855.093	0.0156484
855.171	0.0157680
855.249	0.0156277
855.328	0.0156259
855.406	0.0158665
855.484	0.0158346
855.562	0.0159635
855.640	0.0158372
855.718	0.0157756
855.796	0.0159888
855.874	0.0159321
855.953	0.0158717
856.031	0.0157892
856.109	0.0157338
856.187	0.0156801
856.265	0.0158080
856.343	0.0157879
856.421	0.0156953
856.499	0.0156972
856.578	0.0157076
856.656	0.0155174
856.734	0.0154781
856.812	0.0154211
856.890	0.0154240
856.968	0.0153517
857.046	0.0154865
857.124	0.0153515
857.203	0.0155051
857.281	0.0151950
857.359	0.0154099
857.437	0.0152837
857.515	0.0154892
857.593	0.0153843
857.671	0.0155067
857.749	0.0154323
857.828	0.0154301
857.906	0.0156400
857.984	0.0155013
858.062	0.0154868
858.140	0.0156697
858.218	0.0157368
858.296	0.0157098
858.374	0.0157631
858.453	0.0158669
858.531	0.0157867
858.609	0.0158321
858.687	0.0157430
858.765	0.0157123
858.843	0.0157635
858.921	0.0157832
858.999	0.0157059
859.078	0.0156848
859.156	0.0157999
859.234	0.0157538
859.312	0.0158720
859.390	0.0158066
859.468	0.0156198
859.546	0.0158208
859.624	0.0156932
859.703	0.0157100
859.781	0.0158617
859.859	0.0157569
859.937	0.0157557
860.015	0.0156758
860.093	0.0156392
860.171	0.0156786
860.249	0.0155842
860.328	0.0156481
860.406	0.0156345
860.484	0.0156474
860.562	0.0156281
860.640	0.0156408
860.718	0.0154356
860.796	0.0154797
860.874	0.0156535
860.953	0.0156335
861.031	0.0156040
861.109	0.0155617
861.187	0.0155450
861.265	0.0155769
861.343	0.0155696
861.421	0.0155119
861.499	0.0155067
861.578	0.0155912
861.656	0.0154911
861.734	0.0154842
861.812	0.0155056
861.890	0.0154981
861.968	0.0156004
862.046	0.0155264
862.124	0.0154816
862.203	0.0155312
862.281	0.0154790
862.359	0.0156358
862.437	0.0155939
862.515	0.0155125
862.593	0.0155820
862.671	0.0158404
862.749	0.0157948
862.828	0.0156191
862.906	0.0156087
862.984	0.0157856
863.062	0.0157318
863.140	0.0156899
863.218	0.0158528
863.296	0.0156855
863.374	0.0157349
863.453	0.0157658
863.531	0.0158009
863.609	0.0157845
863.687	0.0155997
863.765	0.0155692
863.843	0.0157408
863.921	0.0156213
863.999	0.0156458
864.078	0.0157135
864.156	0.0157124
864.234	0.0157443
864.312	0.0155850
864.390	0.0157389
864.468	0.0156929
864.546	0.0157104
864.624	0.0157677
864.703	0.0156516
864.781	0.0154356
864.859	0.0154938
864.937	0.0157045
865.015	0.0158574
865.093	0.0157820
865.171	0.0155066
865.249	0.0155267
865.328	0.0156245
865.406	0.0156199
865.484	0.0155959
865.562	0.0156089
865.640	0.0154410
865.718	0.0156200
865.796	0.0155834
865.874	0.0155399
865.953	0.0154285
866.031	0.0155626
866.109	0.0155950
866.187	0.0154258
866.265	0.0154943
866.343	0.0154243
866.421	0.0154614
866.499	0.0153581
866.578	0.0154691
866.656	0.0154745
866.734	0.0154026
866.812	0.0153667
866.890	0.0152796
866.968	0.0154242
867.046	0.0153501
867.124	0.0153905
867.203	0.0153441
867.281	0.0154384
867.359	0.0153442
867.437	0.0153812
867.515	0.0154543
867.593	0.0155742
867.671	0.0155722
867.749	0.0155016
867.828	0.0155250
867.906	0.0158065
867.984	0.0156753
868.062	0.0156822
868.140	0.0157690
868.218	0.0157263
868.296	0.0157346
868.374	0.0156796
868.453	0.0157394
868.531	0.0156703
868.609	0.0157053
868.687	0.0156146
868.765	0.0156998
868.843	0.0157710
868.921	0.0156424
868.999	0.0156155
869.078	0.0156159
869.156	0.0155558
869.234	0.0154333
869.312	0.0154436
869.390	0.0155065
869.468	0.0154445
869.546	0.0154129
869.624	0.0153397
869.703	0.0153303
869.781	0.0153102
869.859	0.0153703
869.937	0.0154421
870.015	0.0154182
870.093	0.0152818
870.171	0.0154061
870.249	0.0154268
870.328	0.0153320
870.406	0.0154442
870.484	0.0155125
870.562	0.0154477
870.640	0.0154580
870.718	0.0155701
870.796	0.0153548
870.874	0.0154416
870.953	0.0155596
871.031	0.0156696
871.109	0.0154909
871.187	0.0156253
871.265	0.0153899
871.343	0.0154898
871.421	0.0154586
871.499	0.0155900
871.578	0.0157288
871.656	0.0157477
871.734	0.0154697
871.812	0.0155112
871.890	0.0156297
871.968	0.0155487
872.046	0.0156760
872.124	0.0156195
872.203	0.0155855
872.281	0.0156456
872.359	0.0156693
872.437	0.0155241
872.515	0.0154781
872.593	0.0156753
872.671	0.0155386
872.749	0.0155315
872.828	0.0155809
872.906	0.0154827
872.984	0.0154625
873.062	0.0155698
873.140	0.0154285
873.218	0.0153839
873.296	0.0153418
873.374	0.0154505
873.453	0.0154871
873.531	0.0155012
873.609	0.0153561
873.687	0.0155460
873.765	0.0155799
873.843	0.0155016
873.921	0.0153678
873.999	0.0153511
874.078	0.0155548
874.156	0.0156257
874.234	0.0155074
874.312	0.0156510
874.390	0.0157446
874.468	0.0157188
874.546	0.0156955
874.624	0.0156580
874.703	0.0155030
874.781	0.0155264
874.859	0.0156354
874.937	0.0154871
875.015	0.0155070
875.093	0.0155135
875.171	0.0154761
875.249	0.0156073
875.328	0.0155059
875.406	0.0155012
875.484	0.0155651
875.562	0.0155347
875.640	0.0156005
875.718	0.0154768
875.796	0.0153580
875.874	0.0155019
875.953	0.0155598
876.031	0.0155195
876.109	0.0155429
876.187	0.0155836
876.265	0.0155518
876.343	0.0156063
876.421	0.0156228
876.499	0.0155351
876.578	0.0156622
876.656	0.0154685
876.734	0.0154847
876.812	0.0155445
876.890	0.0155834
876.968	0.0155634
877.046	0.0156116
877.124	0.0156424
877.203	0.0156083
877.281	0.0156281
877.359	0.0156091
877.437	0.0157966
877.515	0.0156993
877.593	0.0156409
877.671	0.0156334
877.749	0.0157291
877.828	0.0156503
877.906	0.0157496
877.984	0.0156204
878.062	0.0156828
878.140	0.0156895
878.218	0.0157633
878.296	0.0157893
878.374	0.0157074
878.453	0.0156449
878.531	0.0157184
878.609	0.0155852
878.687	0.0157410
878.765	0.0156797
878.843	0.0156340
878.921	0.0156449
878.999	0.0156612
879.078	0.0157853
879.156	0.0157306
879.234	0.0156994
879.312	0.0156583
879.390	0.0156345
879.468	0.0156688
879.546	0.0155360
879.624	0.0157725
879.703	0.0157687
879.781	0.0155992
879.859	0.0157075
879.937	0.0157096
880.015	0.0159839
880.093	0.0158154
880.171	0.0156526
880.249	0.0157476
880.328	0.0156870
880.406	0.0158665
880.484	0.0158733
880.562	0.0158997
880.640	0.0158015
880.718	0.0157449
880.796	0.0157963
880.874	0.0158432
880.953	0.0158188
881.031	0.0158461
881.109	0.0157999
881.187	0.0157753
881.265	0.0158537
881.343	0.0158105
881.421	0.0157375
881.499	0.0156268
881.578	0.0157038
881.656	0.0157352
881.734	0.0157462
881.812	0.0156046
881.890	0.0156004
881.968	0.0157303
882.046	0.0155738
882.124	0.0156543
882.203	0.0157571
882.281	0.0156261
882.359	0.0157198
882.437	0.0157915
882.515	0.0157483
882.593	0.0157713
882.671	0.0157719
882.749	0.0157866
882.828	0.0158614
882.906	0.0158449
882.984	0.0157808
883.062	0.0156882
883.140	0.0156628
883.218	0.0157424
883.296	0.0157446
883.374	0.0156638
883.453	0.0156414
883.531	0.0156289
883.609	0.0156939
883.687	0.0156690
883.765	0.0154620
883.843	0.0154770
883.921	0.0156130
883.999	0.0155847
884.078	0.0155616
884.156	0.0155209
884.234	0.0155851
884.312	0.0155379
884.390	0.0157154
884.468	0.0156099
884.546	0.0155613
884.624	0.0155370
884.703	0.0154842
884.781	0.0155880
884.859	0.0154598
884.937	0.0156128
885.015	0.0156169
885.093	0.0156496
885.171	0.0156567
885.249	0.0156393
885.328	0.0157097
885.406	0.0157516
885.484	0.0156667
885.562	0.0157678
885.640	0.0157400
885.718	0.0156529
885.796	0.0158326
885.874	0.0158211
885.953	0.0157652
886.031	0.0156317
886.109	0.0157773
886.187	0.0158996
886.265	0.0158116
886.343	0.0156638
886.421	0.0156026
886.499	0.0157428
886.578	0.0156483
886.656	0.0155402
886.734	0.0155633
886.812	0.0155412
886.890	0.0156384
886.968	0.0155341
887.046	0.0153941
887.124	0.0155196
887.203	0.0154051
887.281	0.0153902
887.359	0.0153866
887.437	0.0154065
887.515	0.0155567
887.593	0.0154247
887.671	0.0153922
887.749	0.0154826
887.828	0.0156071
887.906	0.0154735
887.984	0.0154787
888.062	0.0156129
888.140	0.0156709
888.218	0.0155701
888.296	0.0154501
888.374	0.0155821
888.453	0.0155939
888.531	0.0155487
888.609	0.0156441
888.687	0.0156138
888.765	0.0156277
888.843	0.0155707
888.921	0.0155527
888.999	0.0156905
889.078	0.0157153
889.156	0.0157936
889.234	0.0157697
889.312	0.0156067
889.390	0.0156776
889.468	0.0156561
889.546	0.0156779
889.624	0.0158053
889.703	0.0157557
889.781	0.0156282
889.859	0.0156366
889.937	0.0155544
890.015	0.0155785
890.093	0.0157557
890.171	0.0156523
890.249	0.0154790
890.328	0.0156693
890.406	0.0156020
890.484	0.0154914
890.562	0.0155103
890.640	0.0156567
890.718	0.0156306
890.796	0.0154285
890.874	0.0154990
890.953	0.0156136
891.031	0.0156014
891.109	0.0156399
891.187	0.0156081
891.265	0.0154897
891.343	0.0155859
891.421	0.0156594
891.499	0.0156039
891.578	0.0155878
891.656	0.0154980
891.734	0.0155311
891.812	0.0157462
891.890	0.0155509
891.968	0.0155978
892.046	0.0155549
892.124	0.0154866
892.203	0.0156319
892.281	0.0154939
892.359	0.0155910
892.437	0.0155344
892.515	0.0156467
892.593	0.0156000
892.671	0.0155430
892.749	0.0154031
892.828	0.0154520
892.906	0.0154675
892.984	0.0156024
893.062	0.0157114
893.140	0.0156826
893.218	0.0156049
893.296	0.0154245
893.374	0.0154419
893.453	0.0156301
893.531	0.0155679
893.609	0.0156118
893.687	0.0156591
893.765	0.0156365
893.843	0.0155313
893.921	0.0155682
893.999	0.0156410
894.078	0.0156776
894.156	0.0155678
894.234	0.0155944
894.312	0.0156029
894.390	0.0156199
894.468	0.0156271
894.546	0.0156270
894.624	0.0156127
894.703	0.0155997
894.781	0.0156282
894.859	0.0155148
894.937	0.0154747
895.015	0.0155150
895.093	0.0156036
895.171	0.0155338
895.249	0.0155701
895.328	0.0155676
895.406	0.0154989
895.484	0.0154031
895.562	0.0154940
895.640	0.0156168
895.718	0.0155546
895.796	0.0155248
895.874	0.0155409
895.953	0.0155108
896.031	0.0155697
896.109	0.0155357
896.187	0.0155923
896.265	0.0157011
896.343	0.0156553
896.421	0.0156169
896.499	0.0156261
896.578	0.0156206
896.656	0.0158265
896.734	0.0158428
896.812	0.0157182
896.890	0.0155840
896.968	0.0156931
897.046	0.0156719
897.124	0.0157852
897.203	0.0159164
897.281	0.0157346
897.359	0.0154542
897.437	0.0157227
897.515	0.0156041
897.593	0.0156866
897.671	0.0156953
897.749	0.0157149
897.828	0.0155814
897.906	0.0156322
897.984	0.0156636
898.062	0.0155984
898.140	0.0154356
898.218	0.0155853
898.296	0.0155762
898.374	0.0156393
898.453	0.0154377
898.531	0.0155365
898.609	0.0156388
898.687	0.0155189
898.765	0.0156208
898.843	0.0155223
898.921	0.0155691
898.999	0.0155347
899.078	0.0154892
899.156	0.0154553
899.234	0.0155629
899.312	0.0156617
899.390	0.0155428
899.468	0.0155792
899.546	0.0155616
899.624	0.0155629
899.703	0.0157046
899.781	0.0157269
899.859	0.0156608
899.937	0.0157493
900.015	0.0155869
900.093	0.0156676
900.171	0.0158775
900.249	0.0156844
900.328	0.0157845
900.406	0.0158293
900.484	0.0157978
900.562	0.0157742
900.640	0.0157153
900.718	0.0156899
900.796	0.0157436
900.874	0.0156757
900.953	0.0158084
901.031	0.0157722
901.109	0.0158250
901.187	0.0158638
901.265	0.0157717
901.343	0.0156412
901.421	0.0157319
901.499	0.0157300
901.578	0.0157402
901.656	0.0156839
901.734	0.0156560
901.812	0.0157483
901.890	0.0156096
901.968	0.0155806
902.046	0.0156269
902.124	0.0156913
902.203	0.0156788
902.281	0.0159131
902.359	0.0158038
902.437	0.0156866
902.515	0.0157392
902.593	0.0157108
902.671	0.0157366
902.749	0.0155468
902.828	0.0157852
902.906	0.0155988
902.984	0.0156988
903.062	0.0157317
903.140	0.0158098
903.218	0.0157052
903.296	0.0155895
903.374	0.0156898
903.453	0.0157194
903.531	0.0158121
903.609	0.0156978
903.687	0.0157174
903.765	0.0157873
903.843	0.0156757
903.921	0.0156932
903.999	0.0157195
904.078	0.0157191
904.156	0.0157234
904.234	0.0156964
904.312	0.0155799
904.390	0.0155840
904.468	0.0157509
904.546	0.0156965
904.624	0.0156957
904.703	0.0155850
904.781	0.0156512
904.859	0.0157678
904.937	0.0157642
905.015	0.0156445
905.093	0.0157207
905.171	0.0155613
905.249	0.0156539
905.328	0.0158801
905.406	0.0157288
905.484	0.0157235
905.562	0.0158172
905.640	0.0157538
905.718	0.0157050
905.796	0.0156684
905.874	0.0156866
905.953	0.0158214
906.031	0.0158004
906.109	0.0157829
906.187	0.0158345
906.265	0.0156440
906.343	0.0156403
906.421	0.0157594
906.499	0.0156055
906.578	0.0156431
906.656	0.0155732
906.734	0.0156303
906.812	0.0156586
906.890	0.0156909
906.968	0.0158109
907.046	0.0157527
907.124	0.0157896
907.203	0.0156278
907.281	0.0156956
907.359	0.0158336
907.437	0.0156105
907.515	0.0156599
907.593	0.0158281
907.671	0.0157973
907.749	0.0158688
907.828	0.0158059
907.906	0.0158743
907.984	0.0157340
908.062	0.0157627
908.140	0.0157899
908.218	0.0157749
908.296	0.0158726
908.374	0.0159614
908.453	0.0157101
908.531	0.0158092
908.609	0.0159351
908.687	0.0157851
908.765	0.0156210
908.843	0.0157146
908.921	0.0158068
908.999	0.0157729
909.078	0.0155463
909.156	0.0156891
909.234	0.0158131
909.312	0.0156327
909.390	0.0157204
909.468	0.0156324
909.546	0.0155559
909.624	0.0155830
909.703	0.0156195
909.781	0.0156503
909.859	0.0155629
909.937	0.0155293
910.015	0.0155721
910.093	0.0155423
910.171	0.0155705
910.249	0.0156333
910.328	0.0157272
910.406	0.0156370
910.484	0.0155150
910.562	0.0155759
910.640	0.0157231
910.718	0.0156590
910.796	0.0155112
910.874	0.0156001
910.953	0.0156393
911.031	0.0157014
911.109	0.0157391
911.187	0.0156255
911.265	0.0158873
911.343	0.0156743
911.421	0.0156943
911.499	0.0155640
911.578	0.0156976
911.656	0.0157384
911.734	0.0157761
911.812	0.0157372
911.890	0.0156763
911.968	0.0156540
912.046	0.0156553
912.124	0.0157150
912.203	0.0156855
912.281	0.0157272
912.359	0.0155661
912.437	0.0156299
912.515	0.0155421
912.593	0.0155569
912.671	0.0156837
912.749	0.0156001
912.828	0.0155910
912.906	0.0157152
912.984	0.0155720
913.062	0.0155536
913.140	0.0157153
913.218	0.0155604
913.296	0.0156451
913.374	0.0158661
913.453	0.0156773
913.531	0.0156217
913.609	0.0156480
913.687	0.0156473
913.765	0.0157304
913.843	0.0156557
913.921	0.0156355
913.999	0.0157532
914.078	0.0156513
914.156	0.0157002
914.234	0.0158285
914.312	0.0156727
914.390	0.0156030
914.468	0.0157054
914.546	0.0157229
914.624	0.0156113
914.703	0.0157546
914.781	0.0156071
914.859	0.0156834
914.937	0.0156244
915.015	0.0156557
915.093	0.0156197
915.171	0.0156552
915.249	0.0157459
915.328	0.0155980
915.406	0.0156372
915.484	0.0155849
915.562	0.0155555
915.640	0.0155000
915.718	0.0155209
915.796	0.0154950
915.874	0.0155767
915.953	0.0155663
916.031	0.0154845
916.109	0.0156165
916.187	0.0156068
916.265	0.0155365
916.343	0.0156824
916.421	0.0156620
916.499	0.0157051
916.578	0.0156502
916.656	0.0158531
916.734	0.0157275
916.812	0.0157299
916.890	0.0156535
916.968	0.0158027
917.046	0.0157513
917.124	0.0158086
917.203	0.0158624
917.281	0.0156241
917.359	0.0157497
917.437	0.0157448
917.515	0.0157288
917.593	0.0159798
917.671	0.0157916
917.749	0.0157487
917.828	0.0157337
917.906	0.0156999
917.984	0.0156382
918.062	0.0157846
918.140	0.0157267
918.218	0.0156412
918.296	0.0155995
918.374	0.0155501
918.453	0.0155937
918.531	0.0155446
918.609	0.0155939
918.687	0.0156138
918.765	0.0155727
918.843	0.0155612
918.921	0.0155992
918.999	0.0155018
919.078	0.0154668
919.156	0.0155547
919.234	0.0154354
919.312	0.0154834
919.390	0.0154731
919.468	0.0154907
919.546	0.0154784
919.624	0.0155692
919.703	0.0155077
919.781	0.0155032
919.859	0.0154633
919.937	0.0155184
