06/10/2022	18:58:40	Ver.	4.1	UNKNOWN
Optical Delay	600.015094	Delta X		0.078125	Sweeps	1	Scan Rate	0/0
Coordinates	Axis 1	NaN	Axis 2	NaN	Axis 3	NaN	Axis 4	NaN	Axis 5	NaN	Axis 6	0.000000
TX Power	0.000000	RX Power	0.000000

600.015	0.0161555
600.093	0.0159887
600.171	0.0161961
600.249	0.0162026
600.328	0.0161192
600.406	0.0161020
600.484	0.0161948
600.562	0.0162259
600.640	0.0161671
600.718	0.0162638
600.796	0.0161146
600.874	0.0160322
600.953	0.0161419
601.031	0.0162405
601.109	0.0160889
601.187	0.0163337
601.265	0.0162498
601.343	0.0161641
601.421	0.0161729
601.499	0.0160642
601.578	0.0161310
601.656	0.0161017
601.734	0.0161440
601.812	0.0161948
601.890	0.0161531
601.968	0.0160832
602.046	0.0161491
602.124	0.0162514
602.203	0.0160666
602.281	0.0160826
602.359	0.0162154
602.437	0.0161273
602.515	0.0160643
602.593	0.0160421
602.671	0.0163527
602.749	0.0161009
602.828	0.0162017
602.906	0.0161689
602.984	0.0160902
603.062	0.0161644
603.140	0.0161642
603.218	0.0161594
603.296	0.0161357
603.374	0.0160423
603.453	0.0160802
603.531	0.0160950
603.609	0.0161947
603.687	0.0161918
603.765	0.0161299
603.843	0.0162836
603.921	0.0161752
603.999	0.0161286
604.078	0.0161174
604.156	0.0163980
604.234	0.0162296
604.312	0.0163071
604.390	0.0161163
604.468	0.0160136
604.546	0.0163379
604.624	0.0160295
604.703	0.0161810
604.781	0.0163248
604.859	0.0160973
604.937	0.0163160
605.015	0.0161886
605.093	0.0160686
605.171	0.0160928
605.249	0.0161536
605.328	0.0162148
605.406	0.0161870
605.484	0.0160491
605.562	0.0161140
605.640	0.0160997
605.718	0.0161658
605.796	0.0162760
605.874	0.0161917
605.953	0.0161012
606.031	0.0161468
606.109	0.0160699
606.187	0.0161253
606.265	0.0162791
606.343	0.0161674
606.421	0.0161720
606.499	0.0161443
606.578	0.0161069
606.656	0.0161281
606.734	0.0161816
606.812	0.0162069
606.890	0.0160399
606.968	0.0160937
607.046	0.0160690
607.124	0.0160556
607.203	0.0160479
607.281	0.0160883
607.359	0.0161984
607.437	0.0161533
607.515	0.0160764
607.593	0.0161296
607.671	0.0161172
607.749	0.0162070
607.828	0.0160259
607.906	0.0160338
607.984	0.0159903
608.062	0.0160525
608.140	0.0160587
608.218	0.0159571
608.296	0.0161001
608.374	0.0161313
608.453	0.0160410
608.531	0.0160792
608.609	0.0160340
608.687	0.0160702
608.765	0.0160651
608.843	0.0162516
608.921	0.0162119
608.999	0.0160728
609.078	0.0160579
609.156	0.0160707
609.234	0.0161284
609.312	0.0161880
609.390	0.0160512
609.468	0.0160548
609.546	0.0161654
609.624	0.0160712
609.703	0.0160610
609.781	0.0161332
609.859	0.0160712
609.937	0.0159851
610.015	0.0159930
610.093	0.0161552
610.171	0.0160057
610.249	0.0160515
610.328	0.0161151
610.406	0.0160321
610.484	0.0159367
610.562	0.0161074
610.640	0.0161199
610.718	0.0160936
610.796	0.0160879
610.874	0.0162283
610.953	0.0161255
611.031	0.0160192
611.109	0.0160814
611.187	0.0160068
611.265	0.0161329
611.343	0.0159335
611.421	0.0160455
611.499	0.0161678
611.578	0.0160815
611.656	0.0160257
611.734	0.0159268
611.812	0.0161518
611.890	0.0162067
611.968	0.0162337
612.046	0.0160545
612.124	0.0160448
612.203	0.0161839
612.281	0.0161246
612.359	0.0159721
612.437	0.0159924
612.515	0.0162321
612.593	0.0159235
612.671	0.0158812
612.749	0.0160125
612.828	0.0160704
612.906	0.0160765
612.984	0.0160641
613.062	0.0161173
613.140	0.0160522
613.218	0.0161015
613.296	0.0161267
613.374	0.0160303
613.453	0.0160683
613.531	0.0160906
613.609	0.0162086
613.687	0.0160778
613.765	0.0160151
613.843	0.0160808
613.921	0.0160935
613.999	0.0161687
614.078	0.0160963
614.156	0.0160426
614.234	0.0161163
614.312	0.0162110
614.390	0.0161234
614.468	0.0161274
614.546	0.0161919
614.624	0.0161834
614.703	0.0160786
614.781	0.0162231
614.859	0.0161018
614.937	0.0160732
615.015	0.0162914
615.093	0.0161807
615.171	0.0160172
615.249	0.0161364
615.328	0.0162232
615.406	0.0160094
615.484	0.0160117
615.562	0.0162504
615.640	0.0161743
615.718	0.0161296
615.796	0.0159906
615.874	0.0161044
615.953	0.0161249
616.031	0.0161663
616.109	0.0162088
616.187	0.0162065
616.265	0.0160775
616.343	0.0161191
616.421	0.0162292
616.499	0.0162453
616.578	0.0159685
616.656	0.0162200
616.734	0.0161237
616.812	0.0161463
616.890	0.0160640
616.968	0.0160784
617.046	0.0161430
617.124	0.0161779
617.203	0.0161446
617.281	0.0161149
617.359	0.0160183
617.437	0.0160517
617.515	0.0160670
617.593	0.0162004
617.671	0.0162061
617.749	0.0160818
617.828	0.0160280
617.906	0.0161731
617.984	0.0161167
618.062	0.0160989
618.140	0.0160873
618.218	0.0161625
618.296	0.0161502
618.374	0.0160568
618.453	0.0161740
618.531	0.0162135
618.609	0.0160643
618.687	0.0160348
618.765	0.0162630
618.843	0.0161841
618.921	0.0160191
618.999	0.0160591
619.078	0.0161359
619.156	0.0160789
619.234	0.0162019
619.312	0.0162146
619.390	0.0161404
619.468	0.0162178
619.546	0.0160639
619.624	0.0162095
619.703	0.0161755
619.781	0.0161509
619.859	0.0161329
619.937	0.0160929
620.015	0.0160493
620.093	0.0160880
620.171	0.0162527
620.249	0.0160114
620.328	0.0162096
620.406	0.0161198
620.484	0.0160623
620.562	0.0161860
620.640	0.0161047
620.718	0.0160854
620.796	0.0161135
620.874	0.0160376
620.953	0.0161063
621.031	0.0161598
621.109	0.0161089
621.187	0.0160278
621.265	0.0161716
621.343	0.0160863
621.421	0.0160674
621.499	0.0160716
621.578	0.0159741
621.656	0.0159514
621.734	0.0160069
621.812	0.0162301
621.890	0.0161407
621.968	0.0161491
622.046	0.0160255
622.124	0.0161220
622.203	0.0161320
622.281	0.0161012
622.359	0.0160931
622.437	0.0160317
622.515	0.0160965
622.593	0.0162376
622.671	0.0161366
622.749	0.0159737
622.828	0.0160434
622.906	0.0162088
622.984	0.0160750
623.062	0.0161037
623.140	0.0161593
623.218	0.0161329
623.296	0.0161769
623.374	0.0162216
623.453	0.0161813
623.531	0.0162669
623.609	0.0160591
623.687	0.0160719
623.765	0.0160713
623.843	0.0160805
623.921	0.0161411
623.999	0.0162264
624.078	0.0161626
624.156	0.0160307
624.234	0.0159982
624.312	0.0162701
624.390	0.0161809
624.468	0.0161623
624.546	0.0160802
624.624	0.0161832
624.703	0.0161526
624.781	0.0159670
624.859	0.0161253
624.937	0.0162424
625.015	0.0160714
625.093	0.0160872
625.171	0.0161467
625.249	0.0161301
625.328	0.0161862
625.406	0.0161172
625.484	0.0160716
625.562	0.0160697
625.640	0.0161917
625.718	0.0161243
625.796	0.0161752
625.874	0.0162620
625.953	0.0161599
626.031	0.0160561
626.109	0.0160751
626.187	0.0160283
626.265	0.0160664
626.343	0.0160998
626.421	0.0161095
626.499	0.0161737
626.578	0.0160750
626.656	0.0161488
626.734	0.0162408
626.812	0.0160543
626.890	0.0161217
626.968	0.0162342
627.046	0.0161558
627.124	0.0162163
627.203	0.0161900
627.281	0.0161844
627.359	0.0162253
627.437	0.0161147
627.515	0.0161151
627.593	0.0159919
627.671	0.0162028
627.749	0.0161742
627.828	0.0160683
627.906	0.0160229
627.984	0.0160648
628.062	0.0161505
628.140	0.0162145
628.218	0.0161481
628.296	0.0161314
628.374	0.0161902
628.453	0.0161815
628.531	0.0160999
628.609	0.0161443
628.687	0.0161198
628.765	0.0162025
628.843	0.0160960
628.921	0.0160212
628.999	0.0161327
629.078	0.0161768
629.156	0.0161139
629.234	0.0161150
629.312	0.0161626
629.390	0.0161521
629.468	0.0161539
629.546	0.0162003
629.624	0.0159959
629.703	0.0160438
629.781	0.0161152
629.859	0.0160403
629.937	0.0161951
630.015	0.0160617
630.093	0.0161686
630.171	0.0161327
630.249	0.0161708
630.328	0.0161431
630.406	0.0162289
630.484	0.0162184
630.562	0.0161338
630.640	0.0160995
630.718	0.0161779
630.796	0.0160477
630.874	0.0160458
630.953	0.0162132
631.031	0.0162228
631.109	0.0163283
631.187	0.0160818
631.265	0.0160982
631.343	0.0161315
631.421	0.0161855
631.499	0.0161162
631.578	0.0161206
631.656	0.0160941
631.734	0.0161399
631.812	0.0160967
631.890	0.0160782
631.968	0.0161250
632.046	0.0162938
632.124	0.0161409
632.203	0.0161527
632.281	0.0162067
632.359	0.0161607
632.437	0.0163385
632.515	0.0161174
632.593	0.0160966
632.671	0.0162441
632.749	0.0162070
632.828	0.0162563
632.906	0.0161466
632.984	0.0161407
633.062	0.0161375
633.140	0.0162243
633.218	0.0162917
633.296	0.0160699
633.374	0.0162617
633.453	0.0161788
633.531	0.0163906
633.609	0.0161476
633.687	0.0161420
633.765	0.0162011
633.843	0.0159843
633.921	0.0161822
633.999	0.0162527
634.078	0.0160694
634.156	0.0162241
634.234	0.0161668
634.312	0.0163193
634.390	0.0161552
634.468	0.0162709
634.546	0.0161285
634.624	0.0161915
634.703	0.0160875
634.781	0.0161863
634.859	0.0161814
634.937	0.0161010
635.015	0.0162186
635.093	0.0162025
635.171	0.0162502
635.249	0.0162352
635.328	0.0161720
635.406	0.0162247
635.484	0.0163068
635.562	0.0162378
635.640	0.0161364
635.718	0.0161327
635.796	0.0162773
635.874	0.0161652
635.953	0.0162762
636.031	0.0160248
636.109	0.0161642
636.187	0.0161824
636.265	0.0161588
636.343	0.0162372
636.421	0.0161958
636.499	0.0161629
636.578	0.0161652
636.656	0.0161737
636.734	0.0161858
636.812	0.0159322
636.890	0.0163166
636.968	0.0162274
637.046	0.0160320
637.124	0.0162062
637.203	0.0162312
637.281	0.0160583
637.359	0.0160984
637.437	0.0163039
637.515	0.0161194
637.593	0.0160185
637.671	0.0161680
637.749	0.0161674
637.828	0.0160101
637.906	0.0161912
637.984	0.0161195
638.062	0.0161434
638.140	0.0161588
638.218	0.0162112
638.296	0.0158820
638.374	0.0159586
638.453	0.0161505
638.531	0.0162621
638.609	0.0160425
638.687	0.0160504
638.765	0.0161748
638.843	0.0160053
638.921	0.0161231
638.999	0.0160896
639.078	0.0161648
639.156	0.0161040
639.234	0.0162245
639.312	0.0161665
639.390	0.0160161
639.468	0.0160108
639.546	0.0161567
639.624	0.0161722
639.703	0.0161100
639.781	0.0160645
639.859	0.0161520
639.937	0.0161779
640.015	0.0160974
640.093	0.0161047
640.171	0.0160503
640.249	0.0161459
640.328	0.0161318
640.406	0.0160968
640.484	0.0160835
640.562	0.0160905
640.640	0.0160902
640.718	0.0162157
640.796	0.0160347
640.874	0.0161026
640.953	0.0161699
641.031	0.0162070
641.109	0.0160768
641.187	0.0160871
641.265	0.0160429
641.343	0.0160617
641.421	0.0160189
641.499	0.0161343
641.578	0.0161308
641.656	0.0161879
641.734	0.0160358
641.812	0.0160360
641.890	0.0161707
641.968	0.0161796
642.046	0.0160421
642.124	0.0158514
642.203	0.0160749
642.281	0.0161059
642.359	0.0161587
642.437	0.0160897
642.515	0.0159753
642.593	0.0160060
642.671	0.0159911
642.749	0.0160793
642.828	0.0161961
642.906	0.0161140
642.984	0.0161580
643.062	0.0161414
643.140	0.0159425
643.218	0.0160857
643.296	0.0160649
643.374	0.0160312
643.453	0.0160791
643.531	0.0161357
643.609	0.0159541
643.687	0.0162244
643.765	0.0160896
643.843	0.0159546
643.921	0.0160583
643.999	0.0159810
644.078	0.0160226
644.156	0.0161597
644.234	0.0160087
644.312	0.0160468
644.390	0.0160574
644.468	0.0161038
644.546	0.0159907
644.624	0.0159169
644.703	0.0160120
644.781	0.0161180
644.859	0.0158864
644.937	0.0160968
645.015	0.0160983
645.093	0.0161134
645.171	0.0159550
645.249	0.0161389
645.328	0.0161143
645.406	0.0160901
645.484	0.0159991
645.562	0.0159832
645.640	0.0162349
645.718	0.0160750
645.796	0.0160881
645.874	0.0160872
645.953	0.0160837
646.031	0.0159306
646.109	0.0162416
646.187	0.0160470
646.265	0.0160930
646.343	0.0160505
646.421	0.0162463
646.499	0.0160619
646.578	0.0160997
646.656	0.0161665
646.734	0.0160884
646.812	0.0161547
646.890	0.0160648
646.968	0.0161228
647.046	0.0162254
647.124	0.0162162
647.203	0.0162159
647.281	0.0160857
647.359	0.0161869
647.437	0.0162256
647.515	0.0162259
647.593	0.0161636
647.671	0.0161777
647.749	0.0161921
647.828	0.0161545
647.906	0.0161568
647.984	0.0161496
648.062	0.0162596
648.140	0.0161569
648.218	0.0162150
648.296	0.0160994
648.374	0.0163226
648.453	0.0163583
648.531	0.0161461
648.609	0.0159846
648.687	0.0162667
648.765	0.0162431
648.843	0.0162568
648.921	0.0162128
648.999	0.0162060
649.078	0.0162515
649.156	0.0162458
649.234	0.0160782
649.312	0.0161930
649.390	0.0162370
649.468	0.0162410
649.546	0.0162794
649.624	0.0161565
649.703	0.0162631
649.781	0.0161523
649.859	0.0161866
649.937	0.0162688
650.015	0.0161657
650.093	0.0161656
650.171	0.0162624
650.249	0.0162685
650.328	0.0161470
650.406	0.0161330
650.484	0.0161176
650.562	0.0161907
650.640	0.0161740
650.718	0.0161735
650.796	0.0161599
650.874	0.0162136
650.953	0.0162661
651.031	0.0162498
651.109	0.0161913
651.187	0.0162537
651.265	0.0162024
651.343	0.0160655
651.421	0.0161964
651.499	0.0162305
651.578	0.0162954
651.656	0.0161327
651.734	0.0161681
651.812	0.0161871
651.890	0.0161094
651.968	0.0162266
652.046	0.0162070
652.124	0.0161924
652.203	0.0161283
652.281	0.0160581
652.359	0.0161198
652.437	0.0162099
652.515	0.0161873
652.593	0.0161179
652.671	0.0161257
652.749	0.0162605
652.828	0.0160626
652.906	0.0160404
652.984	0.0161508
653.062	0.0162254
653.140	0.0163107
653.218	0.0162489
653.296	0.0161317
653.374	0.0161196
653.453	0.0161204
653.531	0.0162211
653.609	0.0162321
653.687	0.0160489
653.765	0.0162075
653.843	0.0160619
653.921	0.0161139
653.999	0.0161211
654.078	0.0161509
654.156	0.0162492
654.234	0.0162057
654.312	0.0161619
654.390	0.0162800
654.468	0.0163120
654.546	0.0162999
654.624	0.0161184
654.703	0.0162686
654.781	0.0163819
654.859	0.0162752
654.937	0.0162468
655.015	0.0163398
655.093	0.0163426
655.171	0.0162144
655.249	0.0161893
655.328	0.0161565
655.406	0.0161691
655.484	0.0161150
655.562	0.0162914
655.640	0.0162527
655.718	0.0161924
655.796	0.0162622
655.874	0.0162630
655.953	0.0162066
656.031	0.0162164
656.109	0.0162971
656.187	0.0162531
656.265	0.0162517
656.343	0.0163783
656.421	0.0162793
656.499	0.0162466
656.578	0.0162963
656.656	0.0161174
656.734	0.0163027
656.812	0.0163999
656.890	0.0161210
656.968	0.0161258
657.046	0.0162762
657.124	0.0162848
657.203	0.0163081
657.281	0.0161876
657.359	0.0162011
657.437	0.0162894
657.515	0.0162917
657.593	0.0162363
657.671	0.0161771
657.749	0.0163582
657.828	0.0164220
657.906	0.0161870
657.984	0.0162642
658.062	0.0162651
658.140	0.0161689
658.218	0.0162655
658.296	0.0162874
658.374	0.0162192
658.453	0.0162762
658.531	0.0162638
658.609	0.0161313
658.687	0.0162213
658.765	0.0161930
658.843	0.0162793
658.921	0.0162017
658.999	0.0162236
659.078	0.0161494
659.156	0.0163259
659.234	0.0162579
659.312	0.0162063
659.390	0.0161162
659.468	0.0161310
659.546	0.0162309
659.624	0.0161140
659.703	0.0162423
659.781	0.0162912
659.859	0.0162053
659.937	0.0161380
660.015	0.0160624
660.093	0.0161913
660.171	0.0161224
660.249	0.0162030
660.328	0.0160800
660.406	0.0161967
660.484	0.0161497
660.562	0.0161715
660.640	0.0162617
660.718	0.0161469
660.796	0.0162811
660.874	0.0159692
660.953	0.0162538
661.031	0.0161293
661.109	0.0160909
661.187	0.0161398
661.265	0.0161037
661.343	0.0160856
661.421	0.0160748
661.499	0.0160407
661.578	0.0160611
661.656	0.0162816
661.734	0.0159847
661.812	0.0160270
661.890	0.0160941
661.968	0.0161461
662.046	0.0163388
662.124	0.0160872
662.203	0.0158990
662.281	0.0161558
662.359	0.0161534
662.437	0.0161507
662.515	0.0160907
662.593	0.0160493
662.671	0.0161356
662.749	0.0161219
662.828	0.0160564
662.906	0.0160938
662.984	0.0160456
663.062	0.0161125
663.140	0.0161443
663.218	0.0160066
663.296	0.0160183
663.374	0.0160995
663.453	0.0162299
663.531	0.0160284
663.609	0.0160755
663.687	0.0160312
663.765	0.0160197
663.843	0.0160766
663.921	0.0160162
663.999	0.0160223
664.078	0.0161089
664.156	0.0161739
664.234	0.0159713
664.312	0.0158908
664.390	0.0160055
664.468	0.0159355
664.546	0.0160781
664.624	0.0160241
664.703	0.0159067
664.781	0.0160993
664.859	0.0160301
664.937	0.0159628
665.015	0.0160524
665.093	0.0159528
665.171	0.0161502
665.249	0.0161131
665.328	0.0161299
665.406	0.0161800
665.484	0.0160236
665.562	0.0161226
665.640	0.0162493
665.718	0.0160480
665.796	0.0161933
665.874	0.0160381
665.953	0.0160030
666.031	0.0160950
666.109	0.0160564
666.187	0.0161853
666.265	0.0160451
666.343	0.0160867
666.421	0.0161597
666.499	0.0161028
666.578	0.0160378
666.656	0.0160923
666.734	0.0161191
666.812	0.0161152
666.890	0.0161834
666.968	0.0160672
667.046	0.0161174
667.124	0.0161828
667.203	0.0160279
667.281	0.0161264
667.359	0.0161873
667.437	0.0160042
667.515	0.0160519
667.593	0.0161620
667.671	0.0160418
667.749	0.0159857
667.828	0.0161691
667.906	0.0160323
667.984	0.0160535
668.062	0.0159667
668.140	0.0159405
668.218	0.0161546
668.296	0.0162103
668.374	0.0161095
668.453	0.0160894
668.531	0.0159398
668.609	0.0160709
668.687	0.0160700
668.765	0.0160074
668.843	0.0160272
668.921	0.0160946
668.999	0.0160193
669.078	0.0160010
669.156	0.0160286
669.234	0.0160152
669.312	0.0160320
669.390	0.0159296
669.468	0.0161112
669.546	0.0160017
669.624	0.0159225
669.703	0.0161227
669.781	0.0160412
669.859	0.0160928
669.937	0.0160819
670.015	0.0158695
670.093	0.0160841
670.171	0.0161032
670.249	0.0160191
670.328	0.0161027
670.406	0.0162057
670.484	0.0160985
670.562	0.0160230
670.640	0.0160662
670.718	0.0161066
670.796	0.0162505
670.874	0.0162164
670.953	0.0161906
671.031	0.0161780
671.109	0.0163090
671.187	0.0160118
671.265	0.0160300
671.343	0.0162871
671.421	0.0162927
671.499	0.0161136
671.578	0.0160795
671.656	0.0161688
671.734	0.0161640
671.812	0.0161343
671.890	0.0162451
671.968	0.0163036
672.046	0.0161793
672.124	0.0161949
672.203	0.0161312
672.281	0.0163184
672.359	0.0160938
672.437	0.0161025
672.515	0.0161184
672.593	0.0160915
672.671	0.0161303
672.749	0.0160514
672.828	0.0161301
672.906	0.0162759
672.984	0.0162900
673.062	0.0162183
673.140	0.0162368
673.218	0.0162600
673.296	0.0161097
673.374	0.0162777
673.453	0.0163323
673.531	0.0161757
673.609	0.0160699
673.687	0.0162766
673.765	0.0162389
673.843	0.0162252
673.921	0.0162241
673.999	0.0162624
674.078	0.0161424
674.156	0.0161938
674.234	0.0162627
674.312	0.0161441
674.390	0.0163113
674.468	0.0163730
674.546	0.0161368
674.624	0.0160357
674.703	0.0161964
674.781	0.0162415
674.859	0.0162206
674.937	0.0162353
675.015	0.0161830
675.093	0.0162418
675.171	0.0162102
675.249	0.0162540
675.328	0.0163797
675.406	0.0163592
675.484	0.0162325
675.562	0.0162805
675.640	0.0163251
675.718	0.0161275
675.796	0.0161266
675.874	0.0161491
675.953	0.0163051
676.031	0.0163332
676.109	0.0161897
676.187	0.0161647
676.265	0.0162443
676.343	0.0161899
676.421	0.0162469
676.499	0.0161988
676.578	0.0162341
676.656	0.0162827
676.734	0.0161396
676.812	0.0162090
676.890	0.0162189
676.968	0.0161682
677.046	0.0163406
677.124	0.0161580
677.203	0.0160989
677.281	0.0162724
677.359	0.0161343
677.437	0.0160548
677.515	0.0162132
677.593	0.0161946
677.671	0.0162272
677.749	0.0161418
677.828	0.0161127
677.906	0.0161723
677.984	0.0163131
678.062	0.0162548
678.140	0.0163881
678.218	0.0163239
678.296	0.0162323
678.374	0.0162124
678.453	0.0162300
678.531	0.0161742
678.609	0.0161182
678.687	0.0160909
678.765	0.0162765
678.843	0.0164005
678.921	0.0161633
678.999	0.0161471
679.078	0.0162370
679.156	0.0162266
679.234	0.0161295
679.312	0.0162682
679.390	0.0160142
679.468	0.0161624
679.546	0.0162637
679.624	0.0161255
679.703	0.0161993
679.781	0.0161137
679.859	0.0162923
679.937	0.0161819
680.015	0.0160721
680.093	0.0160754
680.171	0.0162697
680.249	0.0162914
680.328	0.0161068
680.406	0.0161607
680.484	0.0162025
680.562	0.0160127
680.640	0.0159652
680.718	0.0163127
680.796	0.0160629
680.874	0.0161316
680.953	0.0161568
681.031	0.0160771
681.109	0.0162816
681.187	0.0161524
681.265	0.0160364
681.343	0.0161301
681.421	0.0161395
681.499	0.0162508
681.578	0.0161108
681.656	0.0162256
681.734	0.0160936
681.812	0.0161016
681.890	0.0162061
681.968	0.0161514
682.046	0.0161198
682.124	0.0159528
682.203	0.0160040
682.281	0.0161663
682.359	0.0161463
682.437	0.0160644
682.515	0.0162337
682.593	0.0162479
682.671	0.0160414
682.749	0.0159782
682.828	0.0161258
682.906	0.0161118
682.984	0.0161030
683.062	0.0161047
683.140	0.0161355
683.218	0.0160211
683.296	0.0161125
683.374	0.0161279
683.453	0.0161060
683.531	0.0160298
683.609	0.0159727
683.687	0.0160753
683.765	0.0160922
683.843	0.0161082
683.921	0.0161462
683.999	0.0160921
684.078	0.0160271
684.156	0.0159601
684.234	0.0160189
684.312	0.0161234
684.390	0.0161227
684.468	0.0160100
684.546	0.0160464
684.624	0.0160596
684.703	0.0161717
684.781	0.0159819
684.859	0.0162304
684.937	0.0161452
685.015	0.0162061
685.093	0.0161046
685.171	0.0161920
685.249	0.0161943
685.328	0.0161870
685.406	0.0161193
685.484	0.0160751
685.562	0.0160968
685.640	0.0161917
685.718	0.0161186
685.796	0.0161472
685.874	0.0161586
685.953	0.0161596
686.031	0.0162844
686.109	0.0160973
686.187	0.0161906
686.265	0.0162468
686.343	0.0161557
686.421	0.0160392
686.499	0.0159816
686.578	0.0159988
686.656	0.0161475
686.734	0.0161021
686.812	0.0161070
686.890	0.0161111
686.968	0.0160851
687.046	0.0160934
687.124	0.0162045
687.203	0.0161182
687.281	0.0161269
687.359	0.0160633
687.437	0.0161790
687.515	0.0160571
687.593	0.0160950
687.671	0.0160744
687.749	0.0160613
687.828	0.0160604
687.906	0.0160123
687.984	0.0160855
688.062	0.0160277
688.140	0.0158713
688.218	0.0160078
688.296	0.0160886
688.374	0.0159880
688.453	0.0159914
688.531	0.0161189
688.609	0.0159811
688.687	0.0160748
688.765	0.0161595
688.843	0.0160010
688.921	0.0161274
688.999	0.0161134
689.078	0.0161044
689.156	0.0160508
689.234	0.0160774
689.312	0.0159935
689.390	0.0160519
689.468	0.0160308
689.546	0.0160268
689.624	0.0160902
689.703	0.0161440
689.781	0.0161349
689.859	0.0160507
689.937	0.0160226
690.015	0.0160876
690.093	0.0160648
690.171	0.0160883
690.249	0.0160946
690.328	0.0159911
690.406	0.0160585
690.484	0.0160172
690.562	0.0158389
690.640	0.0159875
690.718	0.0159607
690.796	0.0161026
690.874	0.0160963
690.953	0.0160839
691.031	0.0159584
691.109	0.0161378
691.187	0.0160940
691.265	0.0160749
691.343	0.0159585
691.421	0.0160923
691.499	0.0160032
691.578	0.0160306
691.656	0.0160315
691.734	0.0161283
691.812	0.0159726
691.890	0.0160408
691.968	0.0161228
692.046	0.0159538
692.124	0.0160616
692.203	0.0160040
692.281	0.0161191
692.359	0.0160531
692.437	0.0161002
692.515	0.0160764
692.593	0.0161087
692.671	0.0161583
692.749	0.0160043
692.828	0.0160126
692.906	0.0159931
692.984	0.0161020
693.062	0.0162414
693.140	0.0159683
693.218	0.0159476
693.296	0.0161231
693.374	0.0161363
693.453	0.0159669
693.531	0.0160388
693.609	0.0160580
693.687	0.0160665
693.765	0.0160488
693.843	0.0161288
693.921	0.0160783
693.999	0.0160661
694.078	0.0161494
694.156	0.0161370
694.234	0.0159596
694.312	0.0157981
694.390	0.0160854
694.468	0.0161845
694.546	0.0161057
694.624	0.0161433
694.703	0.0161076
694.781	0.0161943
694.859	0.0160878
694.937	0.0159198
695.015	0.0160505
695.093	0.0161396
695.171	0.0161040
695.249	0.0160886
695.328	0.0162283
695.406	0.0160334
695.484	0.0161359
695.562	0.0161892
695.640	0.0160246
695.718	0.0162165
695.796	0.0160965
695.874	0.0161330
695.953	0.0160721
696.031	0.0160815
696.109	0.0162119
696.187	0.0161780
696.265	0.0159927
696.343	0.0161323
696.421	0.0160210
696.499	0.0162389
696.578	0.0160764
696.656	0.0162696
696.734	0.0162775
696.812	0.0162857
696.890	0.0160066
696.968	0.0162608
697.046	0.0161755
697.124	0.0161044
697.203	0.0162051
697.281	0.0160432
697.359	0.0161010
697.437	0.0162174
697.515	0.0161407
697.593	0.0161778
697.671	0.0161510
697.749	0.0160155
697.828	0.0160888
697.906	0.0161874
697.984	0.0161190
698.062	0.0161533
698.140	0.0162149
698.218	0.0160963
698.296	0.0160583
698.374	0.0161349
698.453	0.0161411
698.531	0.0160418
698.609	0.0162272
698.687	0.0161649
698.765	0.0162418
698.843	0.0160915
698.921	0.0161296
698.999	0.0161525
699.078	0.0161023
699.156	0.0161107
699.234	0.0159793
699.312	0.0161077
699.390	0.0162408
699.468	0.0161137
699.546	0.0162093
699.624	0.0162354
699.703	0.0162196
699.781	0.0163345
699.859	0.0161024
699.937	0.0160832
700.015	0.0161030
700.093	0.0162001
700.171	0.0161929
700.249	0.0161200
700.328	0.0162399
700.406	0.0161562
700.484	0.0161949
700.562	0.0160851
700.640	0.0161554
700.718	0.0161316
700.796	0.0161137
700.874	0.0161497
700.953	0.0161387
701.031	0.0161914
701.109	0.0160343
701.187	0.0162437
701.265	0.0162641
701.343	0.0161057
701.421	0.0162197
701.499	0.0160558
701.578	0.0161739
701.656	0.0161143
701.734	0.0161678
701.812	0.0162160
701.890	0.0161140
701.968	0.0162156
702.046	0.0160695
702.124	0.0162743
702.203	0.0161737
702.281	0.0161568
702.359	0.0160910
702.437	0.0161776
702.515	0.0161946
702.593	0.0161729
702.671	0.0162256
702.749	0.0162106
702.828	0.0163541
702.906	0.0163401
702.984	0.0161927
703.062	0.0162158
703.140	0.0162032
703.218	0.0161340
703.296	0.0160340
703.374	0.0161378
703.453	0.0161646
703.531	0.0161041
703.609	0.0162488
703.687	0.0160818
703.765	0.0161498
703.843	0.0161086
703.921	0.0161454
703.999	0.0160070
704.078	0.0160531
704.156	0.0160605
704.234	0.0161657
704.312	0.0160848
704.390	0.0160716
704.468	0.0161205
704.546	0.0160886
704.624	0.0160023
704.703	0.0159399
704.781	0.0162426
704.859	0.0160514
704.937	0.0161524
705.015	0.0161549
705.093	0.0162762
705.171	0.0161275
705.249	0.0160437
705.328	0.0161620
705.406	0.0161949
705.484	0.0160280
705.562	0.0161802
705.640	0.0162301
705.718	0.0162231
705.796	0.0160483
705.874	0.0160921
705.953	0.0162938
706.031	0.0161633
706.109	0.0160947
706.187	0.0160789
706.265	0.0160335
706.343	0.0161232
706.421	0.0160609
706.499	0.0161131
706.578	0.0160658
706.656	0.0161056
706.734	0.0161089
706.812	0.0161529
706.890	0.0161257
706.968	0.0161122
707.046	0.0162144
707.124	0.0160579
707.203	0.0162025
707.281	0.0161882
707.359	0.0160681
707.437	0.0161463
707.515	0.0162146
707.593	0.0161256
707.671	0.0160775
707.749	0.0160954
707.828	0.0161150
707.906	0.0160667
707.984	0.0161185
708.062	0.0162035
708.140	0.0160498
708.218	0.0161649
708.296	0.0160391
708.374	0.0161142
708.453	0.0161771
708.531	0.0161559
708.609	0.0160480
708.687	0.0161886
708.765	0.0160977
708.843	0.0160098
708.921	0.0161719
708.999	0.0160501
709.078	0.0162117
709.156	0.0161526
709.234	0.0160323
709.312	0.0161684
709.390	0.0162016
709.468	0.0161910
709.546	0.0161071
709.624	0.0160654
709.703	0.0161267
709.781	0.0161903
709.859	0.0160966
709.937	0.0160918
710.015	0.0160004
710.093	0.0160008
710.171	0.0160627
710.249	0.0163017
710.328	0.0161773
710.406	0.0160555
710.484	0.0160893
710.562	0.0160217
710.640	0.0160699
710.718	0.0160693
710.796	0.0161163
710.874	0.0161272
710.953	0.0160296
711.031	0.0161691
711.109	0.0159153
711.187	0.0160948
711.265	0.0160400
711.343	0.0160796
711.421	0.0159717
711.499	0.0160632
711.578	0.0160886
711.656	0.0159803
711.734	0.0161288
711.812	0.0161411
711.890	0.0160811
711.968	0.0162379
712.046	0.0159720
712.124	0.0159828
712.203	0.0161749
712.281	0.0161603
712.359	0.0162807
712.437	0.0161861
712.515	0.0160902
712.593	0.0161601
712.671	0.0160987
712.749	0.0161401
712.828	0.0161753
712.906	0.0160594
712.984	0.0160337
713.062	0.0161332
713.140	0.0161658
713.218	0.0160719
713.296	0.0161221
713.374	0.0160664
713.453	0.0162757
713.531	0.0161122
713.609	0.0160835
713.687	0.0161617
713.765	0.0160955
713.843	0.0160748
713.921	0.0160809
713.999	0.0163013
714.078	0.0160480
714.156	0.0161485
714.234	0.0160789
714.312	0.0161709
714.390	0.0161891
714.468	0.0160825
714.546	0.0161628
714.624	0.0161030
714.703	0.0160438
714.781	0.0161938
714.859	0.0160906
714.937	0.0160403
715.015	0.0161814
715.093	0.0161150
715.171	0.0161301
715.249	0.0162000
715.328	0.0160133
715.406	0.0161031
715.484	0.0161372
715.562	0.0160714
715.640	0.0161326
715.718	0.0161055
715.796	0.0161660
715.874	0.0159869
715.953	0.0162061
716.031	0.0161678
716.109	0.0161345
716.187	0.0160815
716.265	0.0161055
716.343	0.0160827
716.421	0.0162966
716.499	0.0161181
716.578	0.0161579
716.656	0.0162664
716.734	0.0160332
716.812	0.0162416
716.890	0.0161935
716.968	0.0160936
717.046	0.0161935
717.124	0.0160880
717.203	0.0161095
717.281	0.0161422
717.359	0.0161330
717.437	0.0160927
717.515	0.0161691
717.593	0.0161942
717.671	0.0160990
717.749	0.0161607
717.828	0.0162199
717.906	0.0162065
717.984	0.0160760
718.062	0.0160929
718.140	0.0161082
718.218	0.0161459
718.296	0.0161826
718.374	0.0160508
718.453	0.0161738
718.531	0.0161461
718.609	0.0162239
718.687	0.0160986
718.765	0.0160213
718.843	0.0163052
718.921	0.0161883
718.999	0.0162074
719.078	0.0161459
719.156	0.0161287
719.234	0.0161902
719.312	0.0162539
719.390	0.0160681
719.468	0.0161767
719.546	0.0161088
719.624	0.0161880
719.703	0.0161919
719.781	0.0160299
719.859	0.0161926
719.937	0.0161433
720.015	0.0161842
720.093	0.0161896
720.171	0.0162436
720.249	0.0161459
720.328	0.0162542
720.406	0.0161853
720.484	0.0161777
720.562	0.0161959
720.640	0.0161618
720.718	0.0160880
720.796	0.0160642
720.874	0.0161218
720.953	0.0161626
721.031	0.0161012
721.109	0.0161259
721.187	0.0161840
721.265	0.0162535
721.343	0.0162045
721.421	0.0161052
721.499	0.0161295
721.578	0.0160928
721.656	0.0161231
721.734	0.0161551
721.812	0.0161538
721.890	0.0161765
721.968	0.0162032
722.046	0.0162326
722.124	0.0161303
722.203	0.0161368
722.281	0.0161511
722.359	0.0162137
722.437	0.0162236
722.515	0.0161050
722.593	0.0161758
722.671	0.0162767
722.749	0.0162574
722.828	0.0162107
722.906	0.0160897
722.984	0.0161301
723.062	0.0160709
723.140	0.0160993
723.218	0.0162099
723.296	0.0161692
723.374	0.0162016
723.453	0.0161829
723.531	0.0162698
723.609	0.0162218
723.687	0.0162054
723.765	0.0162031
723.843	0.0161728
723.921	0.0161168
723.999	0.0162634
724.078	0.0163039
724.156	0.0161742
724.234	0.0160195
724.312	0.0160597
724.390	0.0161714
724.468	0.0162221
724.546	0.0161811
724.624	0.0161334
724.703	0.0161510
724.781	0.0162785
724.859	0.0161343
724.937	0.0163064
725.015	0.0161997
725.093	0.0162252
725.171	0.0161807
725.249	0.0161079
725.328	0.0161657
725.406	0.0163438
725.484	0.0162516
725.562	0.0160274
725.640	0.0161514
725.718	0.0161440
725.796	0.0160318
725.874	0.0162160
725.953	0.0161709
726.031	0.0162379
726.109	0.0161534
726.187	0.0160503
726.265	0.0160587
726.343	0.0161434
726.421	0.0161613
726.499	0.0161377
726.578	0.0161250
726.656	0.0162846
726.734	0.0161971
726.812	0.0162357
726.890	0.0162127
726.968	0.0160895
727.046	0.0162137
727.124	0.0161344
727.203	0.0162235
727.281	0.0161864
727.359	0.0163001
727.437	0.0163084
727.515	0.0162663
727.593	0.0160980
727.671	0.0161433
727.749	0.0162296
727.828	0.0161557
727.906	0.0161816
727.984	0.0161540
728.062	0.0163018
728.140	0.0160775
728.218	0.0161566
728.296	0.0160773
728.374	0.0162055
728.453	0.0160740
728.531	0.0162165
728.609	0.0161812
728.687	0.0161263
728.765	0.0161590
728.843	0.0161872
728.921	0.0162291
728.999	0.0161348
729.078	0.0161700
729.156	0.0161926
729.234	0.0160880
729.312	0.0161852
729.390	0.0160645
729.468	0.0161518
729.546	0.0161613
729.624	0.0161051
729.703	0.0160210
729.781	0.0161478
729.859	0.0162729
729.937	0.0161089
730.015	0.0161715
730.093	0.0161865
730.171	0.0163417
730.249	0.0161832
730.328	0.0160595
730.406	0.0161086
730.484	0.0161549
730.562	0.0160541
730.640	0.0161456
730.718	0.0161290
730.796	0.0161555
730.874	0.0161694
730.953	0.0161069
731.031	0.0162115
731.109	0.0161439
731.187	0.0161494
731.265	0.0161925
731.343	0.0162579
731.421	0.0162498
731.499	0.0160757
731.578	0.0161334
731.656	0.0161775
731.734	0.0162125
731.812	0.0161898
731.890	0.0161658
731.968	0.0161444
732.046	0.0161274
732.124	0.0161744
732.203	0.0161371
732.281	0.0162458
732.359	0.0162051
732.437	0.0161236
732.515	0.0161300
732.593	0.0162646
732.671	0.0162894
732.749	0.0161694
732.828	0.0161226
732.906	0.0162696
732.984	0.0162524
733.062	0.0162275
733.140	0.0162637
733.218	0.0160849
733.296	0.0160663
733.374	0.0162071
733.453	0.0161873
733.531	0.0161911
733.609	0.0161994
733.687	0.0161676
733.765	0.0161431
733.843	0.0161505
733.921	0.0161456
733.999	0.0161957
734.078	0.0161277
734.156	0.0160474
734.234	0.0162117
734.312	0.0162106
734.390	0.0162526
734.468	0.0161530
734.546	0.0160824
734.624	0.0161002
734.703	0.0160089
734.781	0.0161053
734.859	0.0161995
734.937	0.0162875
735.015	0.0161412
735.093	0.0161240
735.171	0.0162215
735.249	0.0161959
735.328	0.0160743
735.406	0.0161102
735.484	0.0160677
735.562	0.0161971
735.640	0.0159470
735.718	0.0161756
735.796	0.0162374
735.874	0.0161552
735.953	0.0162316
736.031	0.0162318
736.109	0.0161178
736.187	0.0161853
736.265	0.0161736
736.343	0.0162364
736.421	0.0161804
736.499	0.0162192
736.578	0.0162201
736.656	0.0161294
736.734	0.0162524
736.812	0.0160785
736.890	0.0160598
736.968	0.0161019
737.046	0.0161023
737.124	0.0160457
737.203	0.0159344
737.281	0.0161132
737.359	0.0161602
737.437	0.0159892
737.515	0.0161502
737.593	0.0161346
737.671	0.0161920
737.749	0.0162262
737.828	0.0161768
737.906	0.0161345
737.984	0.0161547
738.062	0.0161736
738.140	0.0162855
738.218	0.0161839
738.296	0.0160897
738.374	0.0160864
738.453	0.0162395
738.531	0.0161922
738.609	0.0160931
738.687	0.0161820
738.765	0.0162497
738.843	0.0161961
738.921	0.0159929
738.999	0.0161568
739.078	0.0162005
739.156	0.0160867
739.234	0.0162005
739.312	0.0161359
739.390	0.0161927
739.468	0.0161266
739.546	0.0160978
739.624	0.0161572
739.703	0.0160927
739.781	0.0161252
739.859	0.0161292
739.937	0.0159659
740.015	0.0159578
740.093	0.0159703
740.171	0.0161147
740.249	0.0162661
740.328	0.0162173
740.406	0.0160725
740.484	0.0159986
740.562	0.0160761
740.640	0.0161531
740.718	0.0162953
740.796	0.0161385
740.874	0.0159763
740.953	0.0160702
741.031	0.0161942
741.109	0.0161608
741.187	0.0161531
741.265	0.0161275
741.343	0.0161243
741.421	0.0161935
741.499	0.0161005
741.578	0.0162006
741.656	0.0161714
741.734	0.0161691
741.812	0.0160165
741.890	0.0161909
741.968	0.0162329
742.046	0.0162359
742.124	0.0161723
742.203	0.0162103
742.281	0.0162192
742.359	0.0160909
742.437	0.0160267
742.515	0.0162453
742.593	0.0161347
742.671	0.0161915
742.749	0.0162595
742.828	0.0161811
742.906	0.0160645
742.984	0.0161131
743.062	0.0161047
743.140	0.0161452
743.218	0.0161785
743.296	0.0162148
743.374	0.0162673
743.453	0.0161850
743.531	0.0162157
743.609	0.0162340
743.687	0.0161616
743.765	0.0162549
743.843	0.0162009
743.921	0.0161457
743.999	0.0161864
744.078	0.0161663
744.156	0.0162155
744.234	0.0162595
744.312	0.0162923
744.390	0.0162127
744.468	0.0162726
744.546	0.0162312
744.624	0.0161597
744.703	0.0161786
744.781	0.0161934
744.859	0.0162422
744.937	0.0161066
745.015	0.0162880
745.093	0.0162630
745.171	0.0162540
745.249	0.0161288
745.328	0.0162357
745.406	0.0162449
745.484	0.0161699
745.562	0.0161958
745.640	0.0163073
745.718	0.0161610
745.796	0.0162874
745.874	0.0160775
745.953	0.0161660
746.031	0.0161099
746.109	0.0161275
746.187	0.0162457
746.265	0.0164330
746.343	0.0163268
746.421	0.0162492
746.499	0.0163207
746.578	0.0163388
746.656	0.0162391
746.734	0.0161263
746.812	0.0160551
746.890	0.0161227
746.968	0.0162597
747.046	0.0162084
747.124	0.0160895
747.203	0.0162016
747.281	0.0162920
747.359	0.0160891
747.437	0.0162123
747.515	0.0163950
747.593	0.0161202
747.671	0.0161861
747.749	0.0161716
747.828	0.0161305
747.906	0.0162914
747.984	0.0162879
748.062	0.0161243
748.140	0.0161629
748.218	0.0163026
748.296	0.0163097
748.374	0.0162176
748.453	0.0161806
748.531	0.0161891
748.609	0.0163013
748.687	0.0162685
748.765	0.0162718
748.843	0.0161728
748.921	0.0162032
748.999	0.0163116
749.078	0.0162849
749.156	0.0162524
749.234	0.0161716
749.312	0.0161900
749.390	0.0162283
749.468	0.0162387
749.546	0.0161494
749.624	0.0163445
749.703	0.0164487
749.781	0.0162996
749.859	0.0161638
749.937	0.0162495
750.015	0.0161164
750.093	0.0160991
750.171	0.0161944
750.249	0.0162196
750.328	0.0161552
750.406	0.0161005
750.484	0.0161633
750.562	0.0161957
750.640	0.0162605
750.718	0.0162054
750.796	0.0161722
750.874	0.0161279
750.953	0.0161620
751.031	0.0162023
751.109	0.0161727
751.187	0.0162608
751.265	0.0162480
751.343	0.0160860
751.421	0.0161064
751.499	0.0162426
751.578	0.0161575
751.656	0.0160609
751.734	0.0161283
751.812	0.0160523
751.890	0.0161381
751.968	0.0161115
752.046	0.0160032
752.124	0.0160208
752.203	0.0162341
752.281	0.0162285
752.359	0.0160998
752.437	0.0161179
752.515	0.0161005
752.593	0.0162209
752.671	0.0162339
752.749	0.0162663
752.828	0.0161726
752.906	0.0161533
752.984	0.0162477
753.062	0.0162699
753.140	0.0162336
753.218	0.0162376
753.296	0.0162866
753.374	0.0162482
753.453	0.0162427
753.531	0.0163570
753.609	0.0162656
753.687	0.0163414
753.765	0.0163246
753.843	0.0163255
753.921	0.0163435
753.999	0.0163313
754.078	0.0163773
754.156	0.0162607
754.234	0.0162750
754.312	0.0161639
754.390	0.0161417
754.468	0.0161830
754.546	0.0163216
754.624	0.0159395
754.703	0.0161458
754.781	0.0161453
754.859	0.0159722
754.937	0.0160870
755.015	0.0162110
755.093	0.0160091
755.171	0.0160963
755.249	0.0160458
755.328	0.0161564
755.406	0.0160007
755.484	0.0160322
755.562	0.0160364
755.640	0.0160414
755.718	0.0160316
755.796	0.0161615
755.874	0.0161097
755.953	0.0161054
756.031	0.0161010
756.109	0.0160979
756.187	0.0161163
756.265	0.0160955
756.343	0.0161390
756.421	0.0162798
756.499	0.0161244
756.578	0.0162406
756.656	0.0161706
756.734	0.0162675
756.812	0.0161517
756.890	0.0162373
756.968	0.0160728
757.046	0.0160505
757.124	0.0161359
757.203	0.0159705
757.281	0.0160332
757.359	0.0161085
757.437	0.0159036
757.515	0.0159505
757.593	0.0160736
757.671	0.0160905
757.749	0.0159898
757.828	0.0160545
757.906	0.0161778
757.984	0.0161024
758.062	0.0161387
758.140	0.0161535
758.218	0.0160510
758.296	0.0160529
758.374	0.0161311
758.453	0.0160931
758.531	0.0160046
758.609	0.0158936
758.687	0.0158152
758.765	0.0158945
758.843	0.0160077
758.921	0.0158832
758.999	0.0159372
759.078	0.0159826
759.156	0.0159859
759.234	0.0159612
759.312	0.0162877
759.390	0.0161958
759.468	0.0162881
759.546	0.0162635
759.624	0.0162642
759.703	0.0163094
759.781	0.0162324
759.859	0.0162421
759.937	0.0162837
760.015	0.0163825
760.093	0.0163248
760.171	0.0162649
760.249	0.0162144
760.328	0.0161453
760.406	0.0161987
760.484	0.0162679
760.562	0.0162744
760.640	0.0161634
760.718	0.0162512
760.796	0.0162763
760.874	0.0161098
760.953	0.0160726
761.031	0.0162057
761.109	0.0161328
761.187	0.0161330
761.265	0.0161050
761.343	0.0160667
761.421	0.0159570
761.499	0.0159294
761.578	0.0160353
761.656	0.0159501
761.734	0.0159423
761.812	0.0158851
761.890	0.0159541
761.968	0.0159814
762.046	0.0160379
762.124	0.0159742
762.203	0.0158813
762.281	0.0159834
762.359	0.0159314
762.437	0.0158167
762.515	0.0159123
762.593	0.0158958
762.671	0.0159232
762.749	0.0160106
762.828	0.0159528
762.906	0.0159547
762.984	0.0160984
763.062	0.0162299
763.140	0.0159930
763.218	0.0160960
763.296	0.0161889
763.374	0.0162555
763.453	0.0161761
763.531	0.0161285
763.609	0.0161929
763.687	0.0162460
763.765	0.0162359
763.843	0.0162399
763.921	0.0162438
763.999	0.0163221
764.078	0.0162537
764.156	0.0162659
764.234	0.0163960
764.312	0.0162664
764.390	0.0161956
764.468	0.0161312
764.546	0.0162909
764.624	0.0164385
764.703	0.0164005
764.781	0.0162667
764.859	0.0163497
764.937	0.0162975
765.015	0.0163954
765.093	0.0163754
765.171	0.0161387
765.249	0.0163058
765.328	0.0162514
765.406	0.0160880
765.484	0.0161659
765.562	0.0160352
765.640	0.0159872
765.718	0.0158977
765.796	0.0159985
765.874	0.0159169
765.953	0.0159064
766.031	0.0160178
766.109	0.0159320
766.187	0.0158567
766.265	0.0159013
766.343	0.0158774
766.421	0.0157514
766.499	0.0158241
766.578	0.0157106
766.656	0.0158874
766.734	0.0157866
766.812	0.0158224
766.890	0.0158624
766.968	0.0157282
767.046	0.0156779
767.124	0.0158383
767.203	0.0159081
767.281	0.0158775
767.359	0.0158317
767.437	0.0159393
767.515	0.0160177
767.593	0.0161172
767.671	0.0160824
767.749	0.0161475
767.828	0.0161894
767.906	0.0162966
767.984	0.0163367
768.062	0.0164402
768.140	0.0164236
768.218	0.0164013
768.296	0.0164188
768.374	0.0163205
768.453	0.0164110
768.531	0.0164223
768.609	0.0162477
768.687	0.0164233
768.765	0.0161940
768.843	0.0161446
768.921	0.0162399
768.999	0.0160545
769.078	0.0162744
769.156	0.0161543
769.234	0.0159194
769.312	0.0160384
769.390	0.0161209
769.468	0.0162072
769.546	0.0160387
769.624	0.0159734
769.703	0.0159846
769.781	0.0158516
769.859	0.0158485
769.937	0.0158459
770.015	0.0159066
770.093	0.0158082
770.171	0.0157063
770.249	0.0157378
770.328	0.0157063
770.406	0.0158166
770.484	0.0157514
770.562	0.0158305
770.640	0.0160018
770.718	0.0160724
770.796	0.0160059
770.874	0.0162550
770.953	0.0162335
771.031	0.0162523
771.109	0.0161230
771.187	0.0161880
771.265	0.0163081
771.343	0.0163789
771.421	0.0163602
771.499	0.0163413
771.578	0.0163583
771.656	0.0162408
771.734	0.0161790
771.812	0.0160809
771.890	0.0161334
771.968	0.0161234
772.046	0.0160761
772.124	0.0161316
772.203	0.0159895
772.281	0.0161048
772.359	0.0162086
772.437	0.0163066
772.515	0.0162632
772.593	0.0163039
772.671	0.0162932
772.749	0.0162781
772.828	0.0164159
772.906	0.0163721
772.984	0.0163643
773.062	0.0163976
773.140	0.0163268
773.218	0.0162600
773.296	0.0162883
773.374	0.0162019
773.453	0.0162129
773.531	0.0161915
773.609	0.0161465
773.687	0.0160364
773.765	0.0161425
773.843	0.0160477
773.921	0.0159313
773.999	0.0158844
774.078	0.0159553
774.156	0.0159978
774.234	0.0160434
774.312	0.0160710
774.390	0.0159855
774.468	0.0160517
774.546	0.0159301
774.624	0.0159265
774.703	0.0160781
774.781	0.0160326
774.859	0.0160697
774.937	0.0161458
775.015	0.0160146
775.093	0.0160887
775.171	0.0159579
775.249	0.0159090
775.328	0.0159272
775.406	0.0159313
775.484	0.0159621
775.562	0.0159861
775.640	0.0161278
775.718	0.0162051
775.796	0.0163003
775.874	0.0163942
775.953	0.0163216
776.031	0.0163644
776.109	0.0163926
776.187	0.0166352
776.265	0.0165086
776.343	0.0163715
776.421	0.0166030
776.499	0.0165736
776.578	0.0166238
776.656	0.0166405
776.734	0.0164857
776.812	0.0165618
776.890	0.0165033
776.968	0.0165207
777.046	0.0164973
777.124	0.0164088
777.203	0.0164392
777.281	0.0161766
777.359	0.0162909
777.437	0.0160778
777.515	0.0159653
777.593	0.0161101
777.671	0.0161072
777.749	0.0161684
777.828	0.0159795
777.906	0.0159573
777.984	0.0158277
778.062	0.0159409
778.140	0.0158922
778.218	0.0159763
778.296	0.0158273
778.374	0.0159042
778.453	0.0159084
778.531	0.0157516
778.609	0.0157430
778.687	0.0157955
778.765	0.0156937
778.843	0.0155825
778.921	0.0157617
778.999	0.0159839
779.078	0.0159615
779.156	0.0160850
779.234	0.0160194
779.312	0.0160758
779.390	0.0161509
779.468	0.0162943
779.546	0.0162349
779.624	0.0161430
779.703	0.0161234
779.781	0.0161094
779.859	0.0160860
779.937	0.0163039
780.015	0.0160414
780.093	0.0159648
780.171	0.0161170
780.249	0.0160784
780.328	0.0160476
780.406	0.0162503
780.484	0.0159681
780.562	0.0161790
780.640	0.0161824
780.718	0.0160839
780.796	0.0161941
780.874	0.0161095
780.953	0.0162350
781.031	0.0162583
781.109	0.0164482
781.187	0.0163702
781.265	0.0163993
781.343	0.0163501
781.421	0.0165327
781.499	0.0164182
781.578	0.0164487
781.656	0.0165660
781.734	0.0162872
781.812	0.0165076
781.890	0.0163515
781.968	0.0163268
782.046	0.0164275
782.124	0.0162817
782.203	0.0163577
782.281	0.0160700
782.359	0.0161181
782.437	0.0163131
782.515	0.0160160
782.593	0.0160013
782.671	0.0159097
782.749	0.0158565
782.828	0.0158824
782.906	0.0157511
782.984	0.0157713
783.062	0.0156920
783.140	0.0155142
783.218	0.0156956
783.296	0.0155610
783.374	0.0156966
783.453	0.0155756
783.531	0.0155640
783.609	0.0156113
783.687	0.0156012
783.765	0.0156043
783.843	0.0158121
783.921	0.0157595
783.999	0.0159606
784.078	0.0158656
784.156	0.0161230
784.234	0.0162147
784.312	0.0162727
784.390	0.0162364
784.468	0.0163142
784.546	0.0165277
784.624	0.0164932
784.703	0.0166489
784.781	0.0166206
784.859	0.0166020
784.937	0.0166725
785.015	0.0166570
785.093	0.0165768
785.171	0.0167090
785.249	0.0167870
785.328	0.0164301
785.406	0.0162514
785.484	0.0163183
785.562	0.0163094
785.640	0.0160902
785.718	0.0159479
785.796	0.0160008
785.874	0.0160821
785.953	0.0157373
786.031	0.0156350
786.109	0.0157079
786.187	0.0158939
786.265	0.0157310
786.343	0.0156718
786.421	0.0155974
786.499	0.0157536
786.578	0.0157309
786.656	0.0156532
786.734	0.0156873
786.812	0.0158266
786.890	0.0157883
786.968	0.0159165
787.046	0.0159173
787.124	0.0159670
787.203	0.0160875
787.281	0.0160735
787.359	0.0162024
787.437	0.0160938
787.515	0.0162053
787.593	0.0162930
787.671	0.0163781
787.749	0.0163976
787.828	0.0161904
787.906	0.0163017
787.984	0.0162628
788.062	0.0161914
788.140	0.0163119
788.218	0.0162390
788.296	0.0162302
788.374	0.0163388
788.453	0.0161031
788.531	0.0163002
788.609	0.0162160
788.687	0.0162268
788.765	0.0160407
788.843	0.0161988
788.921	0.0162237
788.999	0.0161398
789.078	0.0162225
789.156	0.0162045
789.234	0.0163285
789.312	0.0161781
789.390	0.0162752
789.468	0.0162336
789.546	0.0162936
789.624	0.0162868
789.703	0.0161287
789.781	0.0159937
789.859	0.0162022
789.937	0.0160967
790.015	0.0160291
790.093	0.0159592
790.171	0.0160875
790.249	0.0159958
790.328	0.0158173
790.406	0.0158389
790.484	0.0157633
790.562	0.0158089
790.640	0.0156221
790.718	0.0156792
790.796	0.0156832
790.874	0.0156906
790.953	0.0156067
791.031	0.0155972
791.109	0.0157011
791.187	0.0157082
791.265	0.0155418
791.343	0.0155525
791.421	0.0158538
791.499	0.0158527
791.578	0.0160844
791.656	0.0158259
791.734	0.0158719
791.812	0.0159998
791.890	0.0160635
791.968	0.0161852
792.046	0.0161633
792.124	0.0162967
792.203	0.0163451
792.281	0.0165647
792.359	0.0165237
792.437	0.0166016
792.515	0.0167001
792.593	0.0166720
792.671	0.0167385
792.749	0.0168246
792.828	0.0167598
792.906	0.0167381
792.984	0.0166955
793.062	0.0168351
793.140	0.0167641
793.218	0.0165542
793.296	0.0166562
793.374	0.0163995
793.453	0.0164201
793.531	0.0163347
793.609	0.0162464
793.687	0.0160891
793.765	0.0161280
793.843	0.0159071
793.921	0.0159093
793.999	0.0158990
794.078	0.0158765
794.156	0.0157613
794.234	0.0156820
794.312	0.0156008
794.390	0.0156361
794.468	0.0155332
794.546	0.0155480
794.624	0.0155417
794.703	0.0155767
794.781	0.0154733
794.859	0.0155346
794.937	0.0154733
795.015	0.0156947
795.093	0.0156570
795.171	0.0157516
795.249	0.0156628
795.328	0.0156693
795.406	0.0156828
795.484	0.0161120
795.562	0.0160987
795.640	0.0160156
795.718	0.0161387
795.796	0.0162682
795.874	0.0163341
795.953	0.0164145
796.031	0.0164568
796.109	0.0165430
796.187	0.0165482
796.265	0.0166016
796.343	0.0167708
796.421	0.0167172
796.499	0.0167184
796.578	0.0166062
796.656	0.0166109
796.734	0.0166943
796.812	0.0166010
796.890	0.0166310
796.968	0.0163577
797.046	0.0163928
797.124	0.0163116
797.203	0.0162736
797.281	0.0162255
797.359	0.0158898
797.437	0.0160616
797.515	0.0159403
797.593	0.0158936
797.671	0.0156425
797.749	0.0157938
797.828	0.0156506
797.906	0.0156380
797.984	0.0155637
798.062	0.0155309
798.140	0.0155224
798.218	0.0155531
798.296	0.0155381
798.374	0.0156577
798.453	0.0156561
798.531	0.0158201
798.609	0.0158075
798.687	0.0159502
798.765	0.0162002
798.843	0.0159735
798.921	0.0160775
798.999	0.0162515
799.078	0.0162386
799.156	0.0162671
799.234	0.0163864
799.312	0.0165612
799.390	0.0163528
799.468	0.0164300
799.546	0.0165203
799.624	0.0165027
799.703	0.0165401
799.781	0.0164083
799.859	0.0165199
799.937	0.0165762
800.015	0.0165023
800.093	0.0166256
800.171	0.0164256
800.249	0.0164423
800.328	0.0164814
800.406	0.0163559
800.484	0.0161557
800.562	0.0161995
800.640	0.0162473
800.718	0.0163016
800.796	0.0162229
800.874	0.0162058
800.953	0.0160889
801.031	0.0160559
801.109	0.0160979
801.187	0.0160944
801.265	0.0159457
801.343	0.0160685
801.421	0.0160530
801.499	0.0160346
801.578	0.0160636
801.656	0.0159752
801.734	0.0158554
801.812	0.0158966
801.890	0.0158768
801.968	0.0157932
802.046	0.0158103
802.124	0.0159580
802.203	0.0158883
802.281	0.0158769
802.359	0.0158641
802.437	0.0156786
802.515	0.0157721
802.593	0.0157336
802.671	0.0157732
802.749	0.0157852
802.828	0.0158725
802.906	0.0159665
802.984	0.0160057
803.062	0.0161465
803.140	0.0160268
803.218	0.0159546
803.296	0.0162869
803.374	0.0163889
803.453	0.0164005
803.531	0.0163351
803.609	0.0165987
803.687	0.0166251
803.765	0.0166513
803.843	0.0166945
803.921	0.0166119
803.999	0.0167582
804.078	0.0167738
804.156	0.0166505
804.234	0.0167498
804.312	0.0167904
804.390	0.0166810
804.468	0.0167657
804.546	0.0166830
804.624	0.0167352
804.703	0.0165589
804.781	0.0165511
804.859	0.0163655
804.937	0.0163239
805.015	0.0163166
805.093	0.0161298
805.171	0.0161610
805.249	0.0159278
805.328	0.0159029
805.406	0.0158511
805.484	0.0159197
805.562	0.0156936
805.640	0.0157147
805.718	0.0157618
805.796	0.0157997
805.874	0.0158017
805.953	0.0158779
806.031	0.0157447
806.109	0.0157397
806.187	0.0157989
806.265	0.0157687
806.343	0.0159163
806.421	0.0161137
806.499	0.0160054
806.578	0.0159937
806.656	0.0161619
806.734	0.0164312
806.812	0.0163079
806.890	0.0164029
806.968	0.0163926
807.046	0.0165128
807.124	0.0164056
807.203	0.0164568
807.281	0.0164813
807.359	0.0164700
807.437	0.0164184
807.515	0.0165158
807.593	0.0164040
807.671	0.0162016
807.749	0.0162727
807.828	0.0162363
807.906	0.0161628
807.984	0.0162868
808.062	0.0162274
808.140	0.0161362
808.218	0.0160698
808.296	0.0161655
808.374	0.0163480
808.453	0.0161950
808.531	0.0162568
808.609	0.0162522
808.687	0.0162783
808.765	0.0162988
808.843	0.0163374
808.921	0.0162734
808.999	0.0161203
809.078	0.0163686
809.156	0.0162827
809.234	0.0162811
809.312	0.0162881
809.390	0.0162278
809.468	0.0162053
809.546	0.0161830
809.624	0.0161987
809.703	0.0161338
809.781	0.0162668
809.859	0.0160790
809.937	0.0161440
810.015	0.0162564
810.093	0.0162348
810.171	0.0161856
810.249	0.0162366
810.328	0.0161549
810.406	0.0162840
810.484	0.0162958
810.562	0.0163927
810.640	0.0162973
810.718	0.0164450
810.796	0.0164599
810.874	0.0164724
810.953	0.0164231
811.031	0.0164578
811.109	0.0164420
811.187	0.0164715
811.265	0.0164579
811.343	0.0165303
811.421	0.0164534
811.499	0.0165530
811.578	0.0164662
811.656	0.0165228
811.734	0.0163866
811.812	0.0165039
811.890	0.0164695
811.968	0.0164246
812.046	0.0163361
812.124	0.0162593
812.203	0.0162322
812.281	0.0163762
812.359	0.0161784
812.437	0.0160896
812.515	0.0161469
812.593	0.0160707
812.671	0.0158610
812.749	0.0159045
812.828	0.0157898
812.906	0.0159763
812.984	0.0158118
813.062	0.0158103
813.140	0.0158923
813.218	0.0157142
813.296	0.0157726
813.374	0.0157879
813.453	0.0157357
813.531	0.0158424
813.609	0.0158393
813.687	0.0161093
813.765	0.0160789
813.843	0.0160120
813.921	0.0160941
813.999	0.0162255
814.078	0.0162936
814.156	0.0164623
814.234	0.0164503
814.312	0.0164185
814.390	0.0164835
814.468	0.0165869
814.546	0.0165375
814.624	0.0166364
814.703	0.0165906
814.781	0.0165137
814.859	0.0163818
814.937	0.0164725
815.015	0.0163388
815.093	0.0164198
815.171	0.0162844
815.249	0.0162708
815.328	0.0163023
815.406	0.0164146
815.484	0.0161940
815.562	0.0162490
815.640	0.0163653
815.718	0.0164117
815.796	0.0163294
815.874	0.0160950
815.953	0.0162674
816.031	0.0161778
816.109	0.0161879
816.187	0.0162013
816.265	0.0162022
816.343	0.0159640
816.421	0.0159508
816.499	0.0161054
816.578	0.0159223
816.656	0.0159737
816.734	0.0160540
816.812	0.0159772
816.890	0.0158620
816.968	0.0160882
817.046	0.0160638
817.124	0.0160674
817.203	0.0161945
817.281	0.0160993
817.359	0.0160427
817.437	0.0160150
817.515	0.0159551
817.593	0.0159989
817.671	0.0159972
817.749	0.0160528
817.828	0.0160211
817.906	0.0159084
817.984	0.0158160
818.062	0.0158463
818.140	0.0157850
818.218	0.0158356
818.296	0.0159958
818.374	0.0159391
818.453	0.0160390
818.531	0.0161182
818.609	0.0161142
818.687	0.0161494
818.765	0.0161647
818.843	0.0161028
818.921	0.0161109
818.999	0.0160381
819.078	0.0160758
819.156	0.0160573
819.234	0.0159658
819.312	0.0158344
819.390	0.0160022
819.468	0.0158791
819.546	0.0159576
819.624	0.0160759
819.703	0.0160734
819.781	0.0161147
819.859	0.0161398
819.937	0.0161878
820.015	0.0162129
820.093	0.0162417
820.171	0.0163154
820.249	0.0163833
820.328	0.0163251
820.406	0.0163388
820.484	0.0164680
820.562	0.0165064
820.640	0.0165254
820.718	0.0164522
820.796	0.0165064
820.874	0.0164796
820.953	0.0164949
821.031	0.0165063
821.109	0.0164246
821.187	0.0163256
821.265	0.0163304
821.343	0.0161645
821.421	0.0162363
821.499	0.0161084
821.578	0.0160401
821.656	0.0159911
821.734	0.0159119
821.812	0.0158911
821.890	0.0157867
821.968	0.0157081
822.046	0.0157688
822.124	0.0158244
822.203	0.0157216
822.281	0.0158792
822.359	0.0158642
822.437	0.0158357
822.515	0.0157858
822.593	0.0158170
822.671	0.0159261
822.749	0.0159798
822.828	0.0160349
822.906	0.0160110
822.984	0.0160161
823.062	0.0159364
823.140	0.0158580
823.218	0.0159103
823.296	0.0158361
823.374	0.0159542
823.453	0.0159299
823.531	0.0160152
823.609	0.0160612
823.687	0.0161046
823.765	0.0160360
823.843	0.0160094
823.921	0.0161932
823.999	0.0161195
824.078	0.0161262
824.156	0.0163691
824.234	0.0163651
824.312	0.0161648
824.390	0.0161530
824.468	0.0165430
824.546	0.0163451
824.624	0.0162505
824.703	0.0163173
824.781	0.0164075
824.859	0.0164765
824.937	0.0163799
825.015	0.0164098
825.093	0.0165627
825.171	0.0164027
825.249	0.0165192
825.328	0.0165758
825.406	0.0166053
825.484	0.0164453
825.562	0.0165192
825.640	0.0164292
825.718	0.0164756
825.796	0.0164410
825.874	0.0162871
825.953	0.0163202
826.031	0.0161431
826.109	0.0161277
826.187	0.0161504
826.265	0.0161180
826.343	0.0160403
826.421	0.0159415
826.499	0.0159855
826.578	0.0157736
826.656	0.0159251
826.734	0.0159888
826.812	0.0160793
826.890	0.0161405
826.968	0.0160439
827.046	0.0160298
827.124	0.0159671
827.203	0.0161374
827.281	0.0161646
827.359	0.0162241
827.437	0.0161318
827.515	0.0162882
827.593	0.0160977
827.671	0.0159748
827.749	0.0162712
827.828	0.0161557
827.906	0.0160912
827.984	0.0161100
828.062	0.0160654
828.140	0.0159862
828.218	0.0160154
828.296	0.0158810
828.374	0.0158920
828.453	0.0157829
828.531	0.0158658
828.609	0.0157606
828.687	0.0160269
828.765	0.0159229
828.843	0.0158701
828.921	0.0161646
828.999	0.0159556
829.078	0.0161130
829.156	0.0161958
829.234	0.0163852
829.312	0.0162913
829.390	0.0163669
829.468	0.0165751
829.546	0.0165851
829.624	0.0162778
829.703	0.0164562
829.781	0.0165405
829.859	0.0165683
829.937	0.0164420
830.015	0.0164486
830.093	0.0166686
830.171	0.0165842
830.249	0.0165347
830.328	0.0164471
830.406	0.0164717
830.484	0.0165850
830.562	0.0164816
830.640	0.0164621
830.718	0.0163716
830.796	0.0162385
830.874	0.0163746
830.953	0.0161456
831.031	0.0161053
831.109	0.0160540
831.187	0.0161265
831.265	0.0159125
831.343	0.0159193
831.421	0.0158698
831.499	0.0158198
831.578	0.0158234
831.656	0.0157160
831.734	0.0155760
831.812	0.0157840
831.890	0.0159212
831.968	0.0158950
832.046	0.0157550
832.124	0.0158533
832.203	0.0158831
832.281	0.0158763
832.359	0.0161359
832.437	0.0162210
832.515	0.0161044
832.593	0.0163921
832.671	0.0163081
832.749	0.0163174
832.828	0.0165227
832.906	0.0165579
832.984	0.0165884
833.062	0.0166333
833.140	0.0166084
833.218	0.0165781
833.296	0.0167128
833.374	0.0166493
833.453	0.0165898
833.531	0.0166328
833.609	0.0165276
833.687	0.0166277
833.765	0.0166973
833.843	0.0165908
833.921	0.0164084
833.999	0.0163900
834.078	0.0162784
834.156	0.0161271
834.234	0.0161800
834.312	0.0159844
834.390	0.0158745
834.468	0.0158161
834.546	0.0158134
834.624	0.0158699
834.703	0.0155937
834.781	0.0155837
834.859	0.0156315
834.937	0.0155646
835.015	0.0155179
835.093	0.0157138
835.171	0.0156686
835.249	0.0157938
835.328	0.0157615
835.406	0.0159251
835.484	0.0159438
835.562	0.0161638
835.640	0.0160842
835.718	0.0162533
835.796	0.0163088
835.874	0.0163223
835.953	0.0164323
836.031	0.0163471
836.109	0.0164945
836.187	0.0166068
836.265	0.0166904
836.343	0.0166222
836.421	0.0166393
836.499	0.0167800
836.578	0.0165705
836.656	0.0166322
836.734	0.0166261
836.812	0.0164965
836.890	0.0165646
836.968	0.0165539
837.046	0.0164249
837.124	0.0166639
837.203	0.0165109
837.281	0.0165289
837.359	0.0164807
837.437	0.0164574
837.515	0.0165228
837.593	0.0164620
837.671	0.0163019
837.749	0.0164156
837.828	0.0163824
837.906	0.0162353
837.984	0.0161859
838.062	0.0160867
838.140	0.0159710
838.218	0.0160117
838.296	0.0159270
838.374	0.0159859
838.453	0.0158471
838.531	0.0159458
838.609	0.0158380
838.687	0.0158224
838.765	0.0157170
838.843	0.0157770
838.921	0.0157674
838.999	0.0157204
839.078	0.0157383
839.156	0.0158437
839.234	0.0157826
839.312	0.0158408
839.390	0.0158415
839.468	0.0157736
839.546	0.0158114
839.624	0.0159196
839.703	0.0160147
839.781	0.0158705
839.859	0.0159086
839.937	0.0159232
840.015	0.0159425
840.093	0.0160242
840.171	0.0161383
840.249	0.0160768
840.328	0.0161787
840.406	0.0161850
840.484	0.0163443
840.562	0.0162955
840.640	0.0164407
840.718	0.0165465
840.796	0.0165578
840.874	0.0166361
840.953	0.0167105
841.031	0.0166949
841.109	0.0166762
841.187	0.0165942
841.265	0.0165162
841.343	0.0165578
841.421	0.0165786
841.499	0.0164703
841.578	0.0164988
841.656	0.0166095
841.734	0.0165302
841.812	0.0162135
841.890	0.0163979
841.968	0.0161877
842.046	0.0163205
842.124	0.0161955
842.203	0.0161404
842.281	0.0161678
842.359	0.0158769
842.437	0.0160185
842.515	0.0160287
842.593	0.0159011
842.671	0.0157514
842.749	0.0157438
842.828	0.0156654
842.906	0.0155552
842.984	0.0157305
843.062	0.0155260
843.140	0.0153764
843.218	0.0154535
843.296	0.0154153
843.374	0.0155362
843.453	0.0154684
843.531	0.0154521
843.609	0.0154527
843.687	0.0155829
843.765	0.0155862
843.843	0.0158171
843.921	0.0158355
843.999	0.0160039
844.078	0.0160581
844.156	0.0160640
844.234	0.0161081
844.312	0.0162167
844.390	0.0163159
844.468	0.0163393
844.546	0.0163869
844.624	0.0163721
844.703	0.0164586
844.781	0.0164137
844.859	0.0163414
844.937	0.0165744
845.015	0.0163077
845.093	0.0164087
845.171	0.0163392
845.249	0.0163031
845.328	0.0162930
845.406	0.0161655
845.484	0.0160246
845.562	0.0161247
845.640	0.0160741
845.718	0.0161707
845.796	0.0160588
845.874	0.0158998
845.953	0.0157925
846.031	0.0158612
846.109	0.0159509
846.187	0.0159506
846.265	0.0158877
846.343	0.0160588
846.421	0.0158148
846.499	0.0159785
846.578	0.0157753
846.656	0.0158273
846.734	0.0158295
846.812	0.0159048
846.890	0.0157519
846.968	0.0158490
847.046	0.0158284
847.124	0.0159431
847.203	0.0158610
847.281	0.0159834
847.359	0.0159164
847.437	0.0158307
847.515	0.0158540
847.593	0.0159195
847.671	0.0158738
847.749	0.0160070
847.828	0.0160629
847.906	0.0159974
847.984	0.0160555
848.062	0.0160728
848.140	0.0161227
848.218	0.0161385
848.296	0.0161752
848.374	0.0161666
848.453	0.0162321
848.531	0.0163141
848.609	0.0161978
848.687	0.0162819
848.765	0.0162393
848.843	0.0161710
848.921	0.0162147
848.999	0.0161253
849.078	0.0162791
849.156	0.0162220
849.234	0.0161303
849.312	0.0160300
849.390	0.0161176
849.468	0.0162132
849.546	0.0160841
849.624	0.0161391
849.703	0.0160378
849.781	0.0158620
849.859	0.0159507
849.937	0.0159846
850.015	0.0160648
850.093	0.0160854
850.171	0.0159921
850.249	0.0160104
850.328	0.0160572
850.406	0.0160866
850.484	0.0159566
850.562	0.0160255
850.640	0.0161328
850.718	0.0160293
850.796	0.0159849
850.874	0.0160873
850.953	0.0159962
851.031	0.0159563
851.109	0.0158167
851.187	0.0159747
851.265	0.0158636
851.343	0.0158365
851.421	0.0159795
851.499	0.0159421
851.578	0.0159065
851.656	0.0158921
851.734	0.0159391
851.812	0.0159431
851.890	0.0159492
851.968	0.0160120
852.046	0.0159497
852.124	0.0161264
852.203	0.0162154
852.281	0.0161470
852.359	0.0161193
852.437	0.0162835
852.515	0.0162404
852.593	0.0162109
852.671	0.0163706
852.749	0.0161783
852.828	0.0164708
852.906	0.0163770
852.984	0.0163955
853.062	0.0165505
853.140	0.0165054
853.218	0.0164476
853.296	0.0164961
853.374	0.0164162
853.453	0.0163861
853.531	0.0163826
853.609	0.0162869
853.687	0.0162468
853.765	0.0162134
853.843	0.0160055
853.921	0.0160280
853.999	0.0160237
854.078	0.0158867
854.156	0.0158811
854.234	0.0157414
854.312	0.0156722
854.390	0.0158088
854.468	0.0157500
854.546	0.0156676
854.624	0.0157191
854.703	0.0156680
854.781	0.0156838
854.859	0.0156860
854.937	0.0158383
855.015	0.0158981
855.093	0.0160462
855.171	0.0159762
855.249	0.0160493
855.328	0.0161897
855.406	0.0162158
855.484	0.0163365
855.562	0.0162080
855.640	0.0163446
855.718	0.0165392
855.796	0.0165235
855.874	0.0163612
855.953	0.0164910
856.031	0.0164721
856.109	0.0163789
856.187	0.0165758
856.265	0.0164543
856.343	0.0163686
856.421	0.0164307
856.499	0.0165697
856.578	0.0163025
856.656	0.0162096
856.734	0.0162979
856.812	0.0162181
856.890	0.0162051
856.968	0.0160119
857.046	0.0160423
857.124	0.0159580
857.203	0.0160657
857.281	0.0161332
857.359	0.0159740
857.437	0.0160652
857.515	0.0159682
857.593	0.0160438
857.671	0.0160215
857.749	0.0160874
857.828	0.0160284
857.906	0.0159226
857.984	0.0161601
858.062	0.0160657
858.140	0.0161400
858.218	0.0160126
858.296	0.0161073
858.374	0.0159148
858.453	0.0161308
858.531	0.0162305
858.609	0.0160007
858.687	0.0160658
858.765	0.0162061
858.843	0.0161998
858.921	0.0161913
858.999	0.0161995
859.078	0.0161813
859.156	0.0162274
859.234	0.0163229
859.312	0.0161887
859.390	0.0162273
859.468	0.0161952
859.546	0.0161818
859.624	0.0163147
859.703	0.0160433
859.781	0.0160841
859.859	0.0160088
859.937	0.0161694
860.015	0.0162503
860.093	0.0162261
860.171	0.0161157
860.249	0.0161543
860.328	0.0159718
860.406	0.0162233
860.484	0.0161965
860.562	0.0161746
860.640	0.0160918
860.718	0.0160454
860.796	0.0160835
860.874	0.0163181
860.953	0.0160960
861.031	0.0160330
861.109	0.0160423
861.187	0.0160997
861.265	0.0161299
861.343	0.0160046
861.421	0.0160023
861.499	0.0159100
861.578	0.0161665
861.656	0.0159886
861.734	0.0159161
861.812	0.0159923
861.890	0.0159776
861.968	0.0159532
862.046	0.0159637
862.124	0.0159737
862.203	0.0158844
862.281	0.0158378
862.359	0.0158782
862.437	0.0159577
862.515	0.0158462
862.593	0.0159373
862.671	0.0158639
862.749	0.0159818
862.828	0.0159538
862.906	0.0160084
862.984	0.0159879
863.062	0.0161222
863.140	0.0159356
863.218	0.0159141
863.296	0.0161787
863.374	0.0160666
863.453	0.0160498
863.531	0.0161797
863.609	0.0162775
863.687	0.0161488
863.765	0.0161702
863.843	0.0161275
863.921	0.0161731
863.999	0.0163924
864.078	0.0161248
864.156	0.0161824
864.234	0.0161899
864.312	0.0160013
864.390	0.0161317
864.468	0.0161264
864.546	0.0160158
864.624	0.0160270
864.703	0.0160869
864.781	0.0161810
864.859	0.0160879
864.937	0.0160526
865.015	0.0160903
865.093	0.0160878
865.171	0.0160498
865.249	0.0159289
865.328	0.0160436
865.406	0.0159612
865.484	0.0159998
865.562	0.0159528
865.640	0.0159496
865.718	0.0159814
865.796	0.0159615
865.874	0.0158947
865.953	0.0160162
866.031	0.0160358
866.109	0.0159645
866.187	0.0159734
866.265	0.0159840
866.343	0.0160704
866.421	0.0159155
866.499	0.0158703
866.578	0.0158688
866.656	0.0160760
866.734	0.0159549
866.812	0.0158562
866.890	0.0159348
866.968	0.0159127
867.046	0.0157619
867.124	0.0157472
867.203	0.0159744
867.281	0.0159466
867.359	0.0158619
867.437	0.0158424
867.515	0.0159576
867.593	0.0158453
867.671	0.0159606
867.749	0.0159944
867.828	0.0159375
867.906	0.0159995
867.984	0.0159233
868.062	0.0159624
868.140	0.0161021
868.218	0.0161905
868.296	0.0162001
868.374	0.0161533
868.453	0.0163399
868.531	0.0163866
868.609	0.0162848
868.687	0.0163929
868.765	0.0163682
868.843	0.0162547
868.921	0.0163277
868.999	0.0162712
869.078	0.0162796
869.156	0.0162739
869.234	0.0163403
869.312	0.0163313
869.390	0.0161076
869.468	0.0160914
869.546	0.0162562
869.624	0.0160958
869.703	0.0161649
869.781	0.0162075
869.859	0.0160892
869.937	0.0160434
870.015	0.0160146
870.093	0.0160278
870.171	0.0159689
870.249	0.0158614
870.328	0.0159377
870.406	0.0160013
870.484	0.0159949
870.562	0.0159442
870.640	0.0159851
870.718	0.0158871
870.796	0.0159103
870.874	0.0159778
870.953	0.0159365
871.031	0.0158356
871.109	0.0159736
871.187	0.0159321
871.265	0.0158245
871.343	0.0159651
871.421	0.0160267
871.499	0.0160120
871.578	0.0161033
871.656	0.0161753
871.734	0.0161305
871.812	0.0160783
871.890	0.0160960
871.968	0.0161858
872.046	0.0161890
872.124	0.0163234
872.203	0.0162936
872.281	0.0162257
872.359	0.0163673
872.437	0.0162779
872.515	0.0161975
872.593	0.0162329
872.671	0.0162717
872.749	0.0162166
872.828	0.0161152
872.906	0.0161993
872.984	0.0161399
873.062	0.0161501
873.140	0.0161020
873.218	0.0160855
873.296	0.0159478
873.374	0.0159126
873.453	0.0160979
873.531	0.0161629
873.609	0.0160683
873.687	0.0160889
873.765	0.0161029
873.843	0.0160776
873.921	0.0160410
873.999	0.0160584
874.078	0.0159946
874.156	0.0160860
874.234	0.0161806
874.312	0.0160630
874.390	0.0162228
874.468	0.0161755
874.546	0.0161852
874.624	0.0163661
874.703	0.0162343
874.781	0.0162483
874.859	0.0162379
874.937	0.0163100
875.015	0.0163277
875.093	0.0164007
875.171	0.0162614
875.249	0.0162299
875.328	0.0163046
875.406	0.0160668
875.484	0.0160679
875.562	0.0162695
875.640	0.0162109
875.718	0.0161723
875.796	0.0161631
875.874	0.0161644
875.953	0.0161071
876.031	0.0162096
876.109	0.0162933
876.187	0.0161536
876.265	0.0162034
876.343	0.0162600
876.421	0.0161533
876.499	0.0162469
876.578	0.0162146
876.656	0.0162969
876.734	0.0163822
876.812	0.0163501
876.890	0.0163415
876.968	0.0163089
877.046	0.0163168
877.124	0.0162302
877.203	0.0161718
877.281	0.0163513
877.359	0.0163081
877.437	0.0161790
877.515	0.0163737
877.593	0.0163003
877.671	0.0161861
877.749	0.0161995
877.828	0.0162360
877.906	0.0163156
877.984	0.0162848
878.062	0.0162479
878.140	0.0162499
878.218	0.0164437
878.296	0.0162727
878.374	0.0163097
878.453	0.0163448
878.531	0.0163000
878.609	0.0161508
878.687	0.0163115
878.765	0.0162437
878.843	0.0161333
878.921	0.0162171
878.999	0.0162064
879.078	0.0162284
879.156	0.0161766
879.234	0.0161057
879.312	0.0161210
879.390	0.0161060
879.468	0.0160895
879.546	0.0162679
879.624	0.0162885
879.703	0.0160937
879.781	0.0160880
879.859	0.0161935
879.937	0.0161968
880.015	0.0162125
880.093	0.0161395
880.171	0.0161848
880.249	0.0161211
880.328	0.0162810
880.406	0.0163126
880.484	0.0161575
880.562	0.0161784
880.640	0.0161021
880.718	0.0162831
880.796	0.0162667
880.874	0.0162175
880.953	0.0160898
881.031	0.0162179
881.109	0.0161607
881.187	0.0161299
881.265	0.0162091
881.343	0.0162171
881.421	0.0161527
881.499	0.0162003
881.578	0.0161301
881.656	0.0162541
881.734	0.0161475
881.812	0.0161662
881.890	0.0160681
881.968	0.0160169
882.046	0.0160143
882.124	0.0160677
882.203	0.0160351
882.281	0.0159936
882.359	0.0159602
882.437	0.0158812
882.515	0.0159140
882.593	0.0159493
882.671	0.0159252
882.749	0.0160367
882.828	0.0160056
882.906	0.0159984
882.984	0.0161356
883.062	0.0161272
883.140	0.0160384
883.218	0.0161944
883.296	0.0160172
883.374	0.0160278
883.453	0.0161497
883.531	0.0160473
883.609	0.0160494
883.687	0.0159820
883.765	0.0159908
883.843	0.0160835
883.921	0.0160439
883.999	0.0159313
884.078	0.0160618
884.156	0.0160104
884.234	0.0160529
884.312	0.0159665
884.390	0.0159815
884.468	0.0160572
884.546	0.0161542
884.624	0.0161603
884.703	0.0161498
884.781	0.0160747
884.859	0.0159606
884.937	0.0160165
885.015	0.0160704
885.093	0.0160812
885.171	0.0160719
885.249	0.0160636
885.328	0.0159921
885.406	0.0160265
885.484	0.0161031
885.562	0.0161481
885.640	0.0161438
885.718	0.0160209
885.796	0.0161491
885.874	0.0160786
885.953	0.0161967
886.031	0.0161338
886.109	0.0162340
886.187	0.0162257
886.265	0.0162056
886.343	0.0162632
886.421	0.0164156
886.499	0.0161855
886.578	0.0161781
886.656	0.0162988
886.734	0.0161183
886.812	0.0160936
886.890	0.0161607
886.968	0.0162142
887.046	0.0160635
887.124	0.0162057
887.203	0.0161460
887.281	0.0158998
887.359	0.0159066
887.437	0.0161195
887.515	0.0160722
887.593	0.0158461
887.671	0.0160042
887.749	0.0159219
887.828	0.0159740
887.906	0.0158654
887.984	0.0158532
888.062	0.0160616
888.140	0.0159782
888.218	0.0160417
888.296	0.0160728
888.374	0.0160350
888.453	0.0160880
888.531	0.0161565
888.609	0.0160445
888.687	0.0160940
888.765	0.0162340
888.843	0.0162383
888.921	0.0161992
888.999	0.0162321
889.078	0.0161826
889.156	0.0162704
889.234	0.0163346
889.312	0.0162194
889.390	0.0163164
889.468	0.0162423
889.546	0.0163477
889.624	0.0163737
889.703	0.0162267
889.781	0.0160787
889.859	0.0161974
889.937	0.0161546
890.015	0.0161262
890.093	0.0161060
890.171	0.0161407
890.249	0.0161101
890.328	0.0160787
890.406	0.0160030
890.484	0.0160397
890.562	0.0159411
890.640	0.0160400
890.718	0.0160547
890.796	0.0159604
890.874	0.0158416
890.953	0.0160260
891.031	0.0159814
891.109	0.0158876
891.187	0.0159582
891.265	0.0160023
891.343	0.0160654
891.421	0.0160003
891.499	0.0161295
891.578	0.0159907
891.656	0.0161185
891.734	0.0161288
891.812	0.0160801
891.890	0.0161269
891.968	0.0161426
892.046	0.0160953
892.124	0.0161719
892.203	0.0162300
892.281	0.0160094
892.359	0.0162482
892.437	0.0162609
892.515	0.0162818
892.593	0.0161832
892.671	0.0162436
892.749	0.0162173
892.828	0.0161894
892.906	0.0161691
892.984	0.0160765
893.062	0.0162475
893.140	0.0162858
893.218	0.0160909
893.296	0.0160973
893.374	0.0161331
893.453	0.0161250
893.531	0.0161948
893.609	0.0161189
893.687	0.0161272
893.765	0.0160848
893.843	0.0160801
893.921	0.0162154
893.999	0.0160796
894.078	0.0161307
894.156	0.0161333
894.234	0.0162035
894.312	0.0161074
894.390	0.0160828
894.468	0.0161572
894.546	0.0160184
894.624	0.0162088
894.703	0.0161192
894.781	0.0161761
894.859	0.0161272
894.937	0.0161192
895.015	0.0160712
895.093	0.0159658
895.171	0.0161684
895.249	0.0161897
895.328	0.0161465
895.406	0.0161473
895.484	0.0160147
895.562	0.0161526
895.640	0.0162539
895.718	0.0161256
895.796	0.0160820
895.874	0.0161258
895.953	0.0160751
896.031	0.0161665
896.109	0.0161065
896.187	0.0160741
896.265	0.0161524
896.343	0.0162033
896.421	0.0161947
896.499	0.0162006
896.578	0.0162502
896.656	0.0162644
896.734	0.0162792
896.812	0.0162688
896.890	0.0162632
896.968	0.0162781
897.046	0.0162729
897.124	0.0163771
897.203	0.0163306
897.281	0.0162006
897.359	0.0162588
897.437	0.0163802
897.515	0.0163165
897.593	0.0163705
897.671	0.0163200
897.749	0.0161771
897.828	0.0164074
897.906	0.0163236
897.984	0.0162427
898.062	0.0162384
898.140	0.0162392
898.218	0.0161006
898.296	0.0161518
898.374	0.0161480
898.453	0.0161137
898.531	0.0160389
898.609	0.0162128
898.687	0.0160678
898.765	0.0159723
898.843	0.0160604
898.921	0.0160880
898.999	0.0160321
899.078	0.0159518
899.156	0.0160785
899.234	0.0160235
899.312	0.0159116
899.390	0.0160873
899.468	0.0159883
899.546	0.0161149
899.624	0.0160832
899.703	0.0160503
899.781	0.0162401
899.859	0.0161178
899.937	0.0161557
900.015	0.0161166
900.093	0.0161674
900.171	0.0161217
900.249	0.0162451
900.328	0.0162157
900.406	0.0163017
900.484	0.0163564
900.562	0.0162949
900.640	0.0163837
900.718	0.0161774
900.796	0.0161530
900.874	0.0163677
900.953	0.0163293
901.031	0.0163226
901.109	0.0163480
901.187	0.0163245
901.265	0.0161496
901.343	0.0163958
901.421	0.0163026
901.499	0.0163385
901.578	0.0162347
901.656	0.0163019
901.734	0.0163461
901.812	0.0162949
901.890	0.0163033
901.968	0.0162710
902.046	0.0161856
902.124	0.0162917
902.203	0.0163145
902.281	0.0162444
902.359	0.0161915
902.437	0.0162215
902.515	0.0163038
902.593	0.0162064
902.671	0.0163692
902.749	0.0163001
902.828	0.0162531
902.906	0.0163412
902.984	0.0162126
903.062	0.0162490
903.140	0.0164166
903.218	0.0162241
903.296	0.0162207
903.374	0.0161594
903.453	0.0163006
903.531	0.0161378
903.609	0.0162133
903.687	0.0162122
903.765	0.0162218
903.843	0.0160749
903.921	0.0162654
903.999	0.0159554
904.078	0.0161239
904.156	0.0162700
904.234	0.0159954
904.312	0.0163267
904.390	0.0162514
904.468	0.0161640
904.546	0.0160569
904.624	0.0161745
904.703	0.0161224
904.781	0.0162833
904.859	0.0162050
904.937	0.0161543
905.015	0.0163345
905.093	0.0162566
905.171	0.0162585
905.249	0.0161874
905.328	0.0162428
905.406	0.0162504
905.484	0.0162201
905.562	0.0162316
905.640	0.0162666
905.718	0.0162254
905.796	0.0161798
905.874	0.0162256
905.953	0.0161261
906.031	0.0162311
906.109	0.0161275
906.187	0.0161720
906.265	0.0163390
906.343	0.0163234
906.421	0.0162291
906.499	0.0162029
906.578	0.0162129
906.656	0.0161815
906.734	0.0161605
906.812	0.0160938
906.890	0.0162156
906.968	0.0161122
907.046	0.0160772
907.124	0.0160798
907.203	0.0161472
907.281	0.0159144
907.359	0.0159898
907.437	0.0160332
907.515	0.0160629
907.593	0.0161971
907.671	0.0162467
907.749	0.0160592
907.828	0.0159438
907.906	0.0161220
907.984	0.0161742
908.062	0.0160632
908.140	0.0161705
908.218	0.0160351
908.296	0.0160346
908.374	0.0160540
908.453	0.0161643
908.531	0.0161184
908.609	0.0162223
908.687	0.0162473
908.765	0.0162571
908.843	0.0162195
908.921	0.0160780
908.999	0.0160139
909.078	0.0160859
909.156	0.0161537
909.234	0.0161672
909.312	0.0160930
909.390	0.0161711
909.468	0.0161858
909.546	0.0161607
909.624	0.0161172
909.703	0.0159727
909.781	0.0160692
909.859	0.0160203
909.937	0.0160268
910.015	0.0162482
910.093	0.0161852
910.171	0.0161160
910.249	0.0159766
910.328	0.0161917
910.406	0.0163267
910.484	0.0161135
910.562	0.0161865
910.640	0.0161866
910.718	0.0161008
910.796	0.0161349
910.874	0.0161513
910.953	0.0163138
911.031	0.0162625
911.109	0.0161013
911.187	0.0162131
911.265	0.0162264
911.343	0.0163623
911.421	0.0161643
911.499	0.0161212
911.578	0.0161816
911.656	0.0161957
911.734	0.0163168
911.812	0.0161520
911.890	0.0162629
911.968	0.0162218
912.046	0.0160934
912.124	0.0162675
912.203	0.0162931
912.281	0.0162449
912.359	0.0161870
912.437	0.0163439
912.515	0.0161507
912.593	0.0163585
912.671	0.0163185
912.749	0.0162499
912.828	0.0163304
912.906	0.0162583
912.984	0.0161529
913.062	0.0160415
913.140	0.0160901
913.218	0.0162108
913.296	0.0161440
913.374	0.0160828
913.453	0.0162695
913.531	0.0161563
913.609	0.0161104
913.687	0.0162007
913.765	0.0161213
913.843	0.0163201
913.921	0.0163326
913.999	0.0162716
914.078	0.0162572
914.156	0.0161815
914.234	0.0161291
914.312	0.0162611
914.390	0.0160876
914.468	0.0161430
914.546	0.0163018
914.624	0.0163025
914.703	0.0161315
914.781	0.0162001
914.859	0.0162870
914.937	0.0161662
915.015	0.0161942
915.093	0.0161018
915.171	0.0160969
915.249	0.0161481
915.328	0.0162827
915.406	0.0161412
915.484	0.0160958
915.562	0.0161292
915.640	0.0160622
915.718	0.0160873
915.796	0.0159234
915.874	0.0159462
915.953	0.0160149
916.031	0.0159894
916.109	0.0158835
916.187	0.0160154
916.265	0.0160571
916.343	0.0159845
916.421	0.0159472
916.499	0.0158994
916.578	0.0159608
916.656	0.0159098
916.734	0.0159820
916.812	0.0160311
916.890	0.0159354
916.968	0.0160680
917.046	0.0161230
917.124	0.0161279
917.203	0.0160975
917.281	0.0160396
917.359	0.0160439
917.437	0.0161445
917.515	0.0161822
917.593	0.0161232
917.671	0.0162627
917.749	0.0162328
917.828	0.0160802
917.906	0.0161401
917.984	0.0160889
918.062	0.0160186
918.140	0.0160206
918.218	0.0162206
918.296	0.0161934
918.374	0.0162402
918.453	0.0160340
918.531	0.0159642
918.609	0.0159892
918.687	0.0161977
918.765	0.0161730
918.843	0.0160159
918.921	0.0159106
918.999	0.0160701
919.078	0.0159229
919.156	0.0159207
919.234	0.0159726
919.312	0.0159476
919.390	0.0159886
919.468	0.0161207
919.546	0.0158848
919.624	0.0158571
919.703	0.0160065
919.781	0.0159237
919.859	0.0160373
919.937	0.0159319
