06/10/2022	18:59:25	Ver.	4.1	UNKNOWN
Optical Delay	600.015094	Delta X		0.078125	Sweeps	1	Scan Rate	0/0
Coordinates	Axis 1	NaN	Axis 2	NaN	Axis 3	NaN	Axis 4	NaN	Axis 5	NaN	Axis 6	0.000000
TX Power	0.000000	RX Power	0.000000

600.015	0.0162403
600.093	0.0161201
600.171	0.0161336
600.249	0.0161087
600.328	0.0162206
600.406	0.0163200
600.484	0.0160710
600.562	0.0160843
600.640	0.0161222
600.718	0.0161580
600.796	0.0161150
600.874	0.0162445
600.953	0.0162177
601.031	0.0161548
601.109	0.0161360
601.187	0.0161211
601.265	0.0161777
601.343	0.0160509
601.421	0.0159542
601.499	0.0160809
601.578	0.0160092
601.656	0.0160252
601.734	0.0159940
601.812	0.0160453
601.890	0.0160681
601.968	0.0159528
602.046	0.0161933
602.124	0.0160709
602.203	0.0159830
602.281	0.0160524
602.359	0.0161384
602.437	0.0161171
602.515	0.0161806
602.593	0.0160172
602.671	0.0158897
602.749	0.0160603
602.828	0.0159913
602.906	0.0160075
602.984	0.0159904
603.062	0.0159605
603.140	0.0159954
603.218	0.0161561
603.296	0.0159621
603.374	0.0159100
603.453	0.0160196
603.531	0.0159821
603.609	0.0161451
603.687	0.0160313
603.765	0.0160192
603.843	0.0160708
603.921	0.0159892
603.999	0.0159802
604.078	0.0159570
604.156	0.0160004
604.234	0.0159351
604.312	0.0159579
604.390	0.0159793
604.468	0.0159742
604.546	0.0160181
604.624	0.0159148
604.703	0.0160162
604.781	0.0159532
604.859	0.0159893
604.937	0.0161264
605.015	0.0159839
605.093	0.0160306
605.171	0.0160460
605.249	0.0159527
605.328	0.0159118
605.406	0.0159595
605.484	0.0159624
605.562	0.0159901
605.640	0.0159911
605.718	0.0158642
605.796	0.0159097
605.874	0.0160419
605.953	0.0159866
606.031	0.0160155
606.109	0.0159413
606.187	0.0160255
606.265	0.0159657
606.343	0.0159714
606.421	0.0159773
606.499	0.0160340
606.578	0.0160440
606.656	0.0159703
606.734	0.0158979
606.812	0.0157800
606.890	0.0159879
606.968	0.0160138
607.046	0.0159801
607.124	0.0159895
607.203	0.0159669
607.281	0.0159538
607.359	0.0161115
607.437	0.0159676
607.515	0.0159820
607.593	0.0159131
607.671	0.0159419
607.749	0.0160247
607.828	0.0158371
607.906	0.0159284
607.984	0.0159714
608.062	0.0160504
608.140	0.0159543
608.218	0.0159342
608.296	0.0159486
608.374	0.0160098
608.453	0.0159636
608.531	0.0159106
608.609	0.0159338
608.687	0.0160931
608.765	0.0161272
608.843	0.0158982
608.921	0.0159847
608.999	0.0160253
609.078	0.0161039
609.156	0.0160405
609.234	0.0160184
609.312	0.0160400
609.390	0.0161739
609.468	0.0159431
609.546	0.0159334
609.624	0.0160356
609.703	0.0158909
609.781	0.0159748
609.859	0.0159864
609.937	0.0159850
610.015	0.0160767
610.093	0.0159752
610.171	0.0159782
610.249	0.0159981
610.328	0.0160554
610.406	0.0160220
610.484	0.0160285
610.562	0.0161541
610.640	0.0162218
610.718	0.0160289
610.796	0.0160513
610.874	0.0161082
610.953	0.0161880
611.031	0.0161778
611.109	0.0159455
611.187	0.0161935
611.265	0.0161837
611.343	0.0160165
611.421	0.0161056
611.499	0.0161935
611.578	0.0161066
611.656	0.0161485
611.734	0.0161063
611.812	0.0160632
611.890	0.0161246
611.968	0.0160880
612.046	0.0161786
612.124	0.0161286
612.203	0.0160561
612.281	0.0160781
612.359	0.0161427
612.437	0.0161531
612.515	0.0161567
612.593	0.0160896
612.671	0.0161523
612.749	0.0160780
612.828	0.0161211
612.906	0.0159413
612.984	0.0161291
613.062	0.0160197
613.140	0.0161505
613.218	0.0159312
613.296	0.0162805
613.374	0.0163155
613.453	0.0160057
613.531	0.0159494
613.609	0.0160609
613.687	0.0160587
613.765	0.0160535
613.843	0.0160535
613.921	0.0161596
613.999	0.0160697
614.078	0.0160116
614.156	0.0161758
614.234	0.0161115
614.312	0.0160984
614.390	0.0160486
614.468	0.0161182
614.546	0.0161736
614.624	0.0161620
614.703	0.0160625
614.781	0.0161619
614.859	0.0161966
614.937	0.0161500
615.015	0.0160854
615.093	0.0161069
615.171	0.0161795
615.249	0.0160967
615.328	0.0161239
615.406	0.0161279
615.484	0.0160605
615.562	0.0160303
615.640	0.0159649
615.718	0.0160426
615.796	0.0160632
615.874	0.0160340
615.953	0.0159676
616.031	0.0160867
616.109	0.0161973
616.187	0.0161673
616.265	0.0160953
616.343	0.0160594
616.421	0.0162563
616.499	0.0161077
616.578	0.0160238
616.656	0.0161380
616.734	0.0161340
616.812	0.0160909
616.890	0.0162450
616.968	0.0160424
617.046	0.0159698
617.124	0.0161564
617.203	0.0162289
617.281	0.0161073
617.359	0.0160574
617.437	0.0160509
617.515	0.0162054
617.593	0.0162605
617.671	0.0161904
617.749	0.0160378
617.828	0.0161905
617.906	0.0161465
617.984	0.0160582
618.062	0.0160312
618.140	0.0161329
618.218	0.0160938
618.296	0.0160168
618.374	0.0159869
618.453	0.0160681
618.531	0.0161123
618.609	0.0159568
618.687	0.0160482
618.765	0.0161742
618.843	0.0160844
618.921	0.0161533
618.999	0.0160079
619.078	0.0161524
619.156	0.0162481
619.234	0.0162881
619.312	0.0160901
619.390	0.0159801
619.468	0.0161012
619.546	0.0161716
619.624	0.0161284
619.703	0.0161037
619.781	0.0161665
619.859	0.0159898
619.937	0.0160703
620.015	0.0161613
620.093	0.0161683
620.171	0.0161609
620.249	0.0161344
620.328	0.0160651
620.406	0.0161188
620.484	0.0161758
620.562	0.0160374
620.640	0.0161086
620.718	0.0160724
620.796	0.0160469
620.874	0.0162262
620.953	0.0162008
621.031	0.0160406
621.109	0.0161173
621.187	0.0162065
621.265	0.0160448
621.343	0.0160713
621.421	0.0161981
621.499	0.0162481
621.578	0.0161089
621.656	0.0161014
621.734	0.0159905
621.812	0.0160201
621.890	0.0162013
621.968	0.0160565
622.046	0.0162846
622.124	0.0161478
622.203	0.0161228
622.281	0.0161948
622.359	0.0160942
622.437	0.0161459
622.515	0.0160575
622.593	0.0161480
622.671	0.0161371
622.749	0.0161744
622.828	0.0161540
622.906	0.0161242
622.984	0.0159921
623.062	0.0160728
623.140	0.0161161
623.218	0.0161677
623.296	0.0161024
623.374	0.0161829
623.453	0.0162899
623.531	0.0161939
623.609	0.0160808
623.687	0.0161618
623.765	0.0161861
623.843	0.0161979
623.921	0.0162437
623.999	0.0163063
624.078	0.0162618
624.156	0.0160198
624.234	0.0162030
624.312	0.0162180
624.390	0.0160664
624.468	0.0162092
624.546	0.0161276
624.624	0.0161982
624.703	0.0159970
624.781	0.0160847
624.859	0.0161093
624.937	0.0160709
625.015	0.0160532
625.093	0.0160992
625.171	0.0160694
625.249	0.0161662
625.328	0.0161488
625.406	0.0161100
625.484	0.0159995
625.562	0.0160604
625.640	0.0161301
625.718	0.0160912
625.796	0.0161339
625.874	0.0160170
625.953	0.0160452
626.031	0.0160835
626.109	0.0162322
626.187	0.0160773
626.265	0.0161166
626.343	0.0159562
626.421	0.0160483
626.499	0.0160786
626.578	0.0160942
626.656	0.0159776
626.734	0.0160523
626.812	0.0160149
626.890	0.0159956
626.968	0.0160300
627.046	0.0160335
627.124	0.0160488
627.203	0.0159680
627.281	0.0159846
627.359	0.0159995
627.437	0.0161250
627.515	0.0161444
627.593	0.0160217
627.671	0.0160209
627.749	0.0161555
627.828	0.0160673
627.906	0.0160207
627.984	0.0160119
628.062	0.0161185
628.140	0.0160354
628.218	0.0160320
628.296	0.0160547
628.374	0.0161012
628.453	0.0160907
628.531	0.0160843
628.609	0.0160252
628.687	0.0160614
628.765	0.0160278
628.843	0.0160091
628.921	0.0159999
628.999	0.0160632
629.078	0.0159689
629.156	0.0161151
629.234	0.0160872
629.312	0.0160795
629.390	0.0158822
629.468	0.0160175
629.546	0.0160641
629.624	0.0160658
629.703	0.0160824
629.781	0.0161478
629.859	0.0160044
629.937	0.0159781
630.015	0.0158591
630.093	0.0159114
630.171	0.0158983
630.249	0.0159933
630.328	0.0160608
630.406	0.0159908
630.484	0.0160485
630.562	0.0160789
630.640	0.0160947
630.718	0.0159238
630.796	0.0160478
630.874	0.0159570
630.953	0.0159546
631.031	0.0161009
631.109	0.0159921
631.187	0.0159201
631.265	0.0160587
631.343	0.0161073
631.421	0.0160572
631.499	0.0160120
631.578	0.0160716
631.656	0.0159052
631.734	0.0158746
631.812	0.0160756
631.890	0.0158430
631.968	0.0159788
632.046	0.0159630
632.124	0.0158383
632.203	0.0158993
632.281	0.0161205
632.359	0.0160118
632.437	0.0160533
632.515	0.0159698
632.593	0.0158133
632.671	0.0159727
632.749	0.0159307
632.828	0.0159554
632.906	0.0160136
632.984	0.0160061
633.062	0.0160102
633.140	0.0159732
633.218	0.0160180
633.296	0.0160484
633.374	0.0159573
633.453	0.0159759
633.531	0.0160056
633.609	0.0159444
633.687	0.0159683
633.765	0.0159962
633.843	0.0159171
633.921	0.0160712
633.999	0.0160647
634.078	0.0160303
634.156	0.0158616
634.234	0.0160788
634.312	0.0160046
634.390	0.0158619
634.468	0.0159670
634.546	0.0161109
634.624	0.0159142
634.703	0.0160052
634.781	0.0159149
634.859	0.0159261
634.937	0.0159206
635.015	0.0160334
635.093	0.0159676
635.171	0.0160380
635.249	0.0159902
635.328	0.0159599
635.406	0.0161050
635.484	0.0159789
635.562	0.0159283
635.640	0.0159502
635.718	0.0158687
635.796	0.0160551
635.874	0.0160894
635.953	0.0160266
636.031	0.0160556
636.109	0.0159835
636.187	0.0159990
636.265	0.0159590
636.343	0.0161155
636.421	0.0161018
636.499	0.0159520
636.578	0.0160714
636.656	0.0160871
636.734	0.0160488
636.812	0.0160862
636.890	0.0160051
636.968	0.0160629
637.046	0.0161790
637.124	0.0160401
637.203	0.0160654
637.281	0.0159650
637.359	0.0160629
637.437	0.0160844
637.515	0.0161163
637.593	0.0160309
637.671	0.0159969
637.749	0.0158434
637.828	0.0160452
637.906	0.0161834
637.984	0.0160198
638.062	0.0160731
638.140	0.0159659
638.218	0.0160906
638.296	0.0161623
638.374	0.0161107
638.453	0.0161668
638.531	0.0161707
638.609	0.0160393
638.687	0.0161258
638.765	0.0160958
638.843	0.0160577
638.921	0.0161345
638.999	0.0161618
639.078	0.0160629
639.156	0.0161120
639.234	0.0161237
639.312	0.0161874
639.390	0.0161742
639.468	0.0160471
639.546	0.0161601
639.624	0.0162075
639.703	0.0162446
639.781	0.0162637
639.859	0.0161787
639.937	0.0160367
640.015	0.0160776
640.093	0.0162572
640.171	0.0162000
640.249	0.0161297
640.328	0.0162916
640.406	0.0161531
640.484	0.0162341
640.562	0.0161003
640.640	0.0161119
640.718	0.0161533
640.796	0.0161714
640.874	0.0162164
640.953	0.0161929
641.031	0.0162386
641.109	0.0161304
641.187	0.0161357
641.265	0.0161963
641.343	0.0160946
641.421	0.0161785
641.499	0.0162498
641.578	0.0160481
641.656	0.0160084
641.734	0.0162668
641.812	0.0162345
641.890	0.0161379
641.968	0.0161127
642.046	0.0160352
642.124	0.0160718
642.203	0.0159612
642.281	0.0159986
642.359	0.0162377
642.437	0.0160703
642.515	0.0160248
642.593	0.0160308
642.671	0.0161156
642.749	0.0160526
642.828	0.0159958
642.906	0.0160461
642.984	0.0161140
643.062	0.0161146
643.140	0.0159949
643.218	0.0160482
643.296	0.0161489
643.374	0.0160067
643.453	0.0159747
643.531	0.0159326
643.609	0.0160731
643.687	0.0161534
643.765	0.0160611
643.843	0.0160989
643.921	0.0160886
643.999	0.0160216
644.078	0.0160872
644.156	0.0159812
644.234	0.0160146
644.312	0.0161134
644.390	0.0160535
644.468	0.0160570
644.546	0.0161523
644.624	0.0162210
644.703	0.0162074
644.781	0.0160851
644.859	0.0158878
644.937	0.0159584
645.015	0.0161845
645.093	0.0161252
645.171	0.0160758
645.249	0.0160509
645.328	0.0159748
645.406	0.0161820
645.484	0.0160326
645.562	0.0162579
645.640	0.0161659
645.718	0.0161409
645.796	0.0161868
645.874	0.0162042
645.953	0.0160616
646.031	0.0161234
646.109	0.0161758
646.187	0.0160905
646.265	0.0160930
646.343	0.0161200
646.421	0.0161797
646.499	0.0160872
646.578	0.0161118
646.656	0.0161250
646.734	0.0158988
646.812	0.0160904
646.890	0.0161591
646.968	0.0161356
647.046	0.0159671
647.124	0.0160853
647.203	0.0160303
647.281	0.0161067
647.359	0.0161938
647.437	0.0162753
647.515	0.0161224
647.593	0.0161620
647.671	0.0162209
647.749	0.0160896
647.828	0.0161753
647.906	0.0161838
647.984	0.0161259
648.062	0.0161713
648.140	0.0161520
648.218	0.0161753
648.296	0.0161604
648.374	0.0160847
648.453	0.0162393
648.531	0.0162037
648.609	0.0162378
648.687	0.0160835
648.765	0.0162437
648.843	0.0162054
648.921	0.0160691
648.999	0.0161546
649.078	0.0161746
649.156	0.0160023
649.234	0.0160213
649.312	0.0161370
649.390	0.0161176
649.468	0.0161889
649.546	0.0161600
649.624	0.0161114
649.703	0.0161937
649.781	0.0160850
649.859	0.0161107
649.937	0.0161031
650.015	0.0161530
650.093	0.0161578
650.171	0.0161242
650.249	0.0161304
650.328	0.0161197
650.406	0.0160747
650.484	0.0160891
650.562	0.0161332
650.640	0.0159582
650.718	0.0159284
650.796	0.0162000
650.874	0.0161958
650.953	0.0160238
651.031	0.0160833
651.109	0.0159686
651.187	0.0160249
651.265	0.0159545
651.343	0.0159944
651.421	0.0161321
651.499	0.0160397
651.578	0.0160787
651.656	0.0160385
651.734	0.0161617
651.812	0.0160868
651.890	0.0160495
651.968	0.0161855
652.046	0.0160724
652.124	0.0161576
652.203	0.0159982
652.281	0.0161391
652.359	0.0160435
652.437	0.0160673
652.515	0.0159270
652.593	0.0161842
652.671	0.0160798
652.749	0.0159515
652.828	0.0159808
652.906	0.0159206
652.984	0.0161214
653.062	0.0159918
653.140	0.0159453
653.218	0.0159106
653.296	0.0160472
653.374	0.0160575
653.453	0.0159905
653.531	0.0160290
653.609	0.0160715
653.687	0.0160693
653.765	0.0160610
653.843	0.0160764
653.921	0.0161034
653.999	0.0160678
654.078	0.0160451
654.156	0.0160138
654.234	0.0161062
654.312	0.0160683
654.390	0.0161075
654.468	0.0159763
654.546	0.0161342
654.624	0.0160421
654.703	0.0160349
654.781	0.0160447
654.859	0.0159248
654.937	0.0158646
655.015	0.0160625
655.093	0.0161784
655.171	0.0158701
655.249	0.0159776
655.328	0.0159744
655.406	0.0160773
655.484	0.0162120
655.562	0.0160320
655.640	0.0159281
655.718	0.0159237
655.796	0.0158801
655.874	0.0160165
655.953	0.0160035
656.031	0.0160377
656.109	0.0160848
656.187	0.0160012
656.265	0.0158983
656.343	0.0159583
656.421	0.0160033
656.499	0.0159491
656.578	0.0159000
656.656	0.0160124
656.734	0.0158651
656.812	0.0159700
656.890	0.0159637
656.968	0.0160370
657.046	0.0160026
657.124	0.0159996
657.203	0.0159514
657.281	0.0159701
657.359	0.0161048
657.437	0.0159400
657.515	0.0158946
657.593	0.0158925
657.671	0.0159937
657.749	0.0158633
657.828	0.0161754
657.906	0.0160472
657.984	0.0159733
658.062	0.0160089
658.140	0.0159486
658.218	0.0159686
658.296	0.0161108
658.374	0.0159394
658.453	0.0159721
658.531	0.0159378
658.609	0.0158980
658.687	0.0160104
658.765	0.0160076
658.843	0.0158738
658.921	0.0157715
658.999	0.0160635
659.078	0.0159685
659.156	0.0160123
659.234	0.0159159
659.312	0.0159142
659.390	0.0158800
659.468	0.0159396
659.546	0.0160010
659.624	0.0160696
659.703	0.0160595
659.781	0.0159499
659.859	0.0159106
659.937	0.0159294
660.015	0.0159658
660.093	0.0159213
660.171	0.0159301
660.249	0.0159538
660.328	0.0159562
660.406	0.0160990
660.484	0.0160361
660.562	0.0159987
660.640	0.0159564
660.718	0.0159313
660.796	0.0159232
660.874	0.0159679
660.953	0.0159538
661.031	0.0160477
661.109	0.0159958
661.187	0.0159777
661.265	0.0159766
661.343	0.0161237
661.421	0.0160360
661.499	0.0160739
661.578	0.0160117
661.656	0.0160559
661.734	0.0160279
661.812	0.0161317
661.890	0.0161544
661.968	0.0159286
662.046	0.0158874
662.124	0.0159784
662.203	0.0159269
662.281	0.0161240
662.359	0.0160197
662.437	0.0159451
662.515	0.0159896
662.593	0.0160594
662.671	0.0160693
662.749	0.0160609
662.828	0.0160359
662.906	0.0160764
662.984	0.0160661
663.062	0.0160629
663.140	0.0160310
663.218	0.0160551
663.296	0.0159734
663.374	0.0160369
663.453	0.0159124
663.531	0.0160342
663.609	0.0161060
663.687	0.0159287
663.765	0.0160474
663.843	0.0161523
663.921	0.0160458
663.999	0.0161186
664.078	0.0161539
664.156	0.0161806
664.234	0.0161504
664.312	0.0161837
664.390	0.0160979
664.468	0.0160677
664.546	0.0161131
664.624	0.0161344
664.703	0.0161103
664.781	0.0161460
664.859	0.0161298
664.937	0.0160703
665.015	0.0161405
665.093	0.0162117
665.171	0.0160124
665.249	0.0162096
665.328	0.0161755
665.406	0.0161375
665.484	0.0162200
665.562	0.0161629
665.640	0.0161403
665.718	0.0162041
665.796	0.0162560
665.874	0.0163916
665.953	0.0161926
666.031	0.0161662
666.109	0.0161266
666.187	0.0161147
666.265	0.0159840
666.343	0.0161219
666.421	0.0160780
666.499	0.0162878
666.578	0.0162645
666.656	0.0160911
666.734	0.0162331
666.812	0.0161761
666.890	0.0161760
666.968	0.0161646
667.046	0.0162148
667.124	0.0161199
667.203	0.0161315
667.281	0.0161484
667.359	0.0161415
667.437	0.0162636
667.515	0.0161086
667.593	0.0161445
667.671	0.0161005
667.749	0.0160506
667.828	0.0160991
667.906	0.0161519
667.984	0.0160760
668.062	0.0160841
668.140	0.0160873
668.218	0.0161074
668.296	0.0161352
668.374	0.0161593
668.453	0.0161647
668.531	0.0161361
668.609	0.0161047
668.687	0.0162484
668.765	0.0162032
668.843	0.0161388
668.921	0.0161294
668.999	0.0160826
669.078	0.0161322
669.156	0.0162174
669.234	0.0161046
669.312	0.0160809
669.390	0.0159791
669.468	0.0161143
669.546	0.0161104
669.624	0.0161379
669.703	0.0161230
669.781	0.0160056
669.859	0.0159945
669.937	0.0161606
670.015	0.0161159
670.093	0.0161539
670.171	0.0160785
670.249	0.0161205
670.328	0.0162679
670.406	0.0160031
670.484	0.0160985
670.562	0.0162371
670.640	0.0161769
670.718	0.0162209
670.796	0.0162746
670.874	0.0160646
670.953	0.0159408
671.031	0.0161585
671.109	0.0162428
671.187	0.0161301
671.265	0.0160874
671.343	0.0161236
671.421	0.0161429
671.499	0.0161012
671.578	0.0160746
671.656	0.0162598
671.734	0.0162292
671.812	0.0161905
671.890	0.0161330
671.968	0.0161251
672.046	0.0159733
672.124	0.0161713
672.203	0.0160650
672.281	0.0161168
672.359	0.0162040
672.437	0.0160680
672.515	0.0161239
672.593	0.0163052
672.671	0.0162292
672.749	0.0161240
672.828	0.0160998
672.906	0.0159815
672.984	0.0161719
673.062	0.0160877
673.140	0.0160107
673.218	0.0160999
673.296	0.0162238
673.374	0.0161004
673.453	0.0161639
673.531	0.0161858
673.609	0.0161128
673.687	0.0161561
673.765	0.0160709
673.843	0.0161645
673.921	0.0162167
673.999	0.0160439
674.078	0.0160382
674.156	0.0160019
674.234	0.0159903
674.312	0.0161256
674.390	0.0160177
674.468	0.0159168
674.546	0.0161019
674.624	0.0161872
674.703	0.0160891
674.781	0.0159710
674.859	0.0160991
674.937	0.0161218
675.015	0.0160419
675.093	0.0160655
675.171	0.0160981
675.249	0.0159240
675.328	0.0160697
675.406	0.0160128
675.484	0.0161960
675.562	0.0161477
675.640	0.0161269
675.718	0.0160741
675.796	0.0159417
675.874	0.0161302
675.953	0.0161172
676.031	0.0159267
676.109	0.0160943
676.187	0.0159714
676.265	0.0160915
676.343	0.0160673
676.421	0.0159623
676.499	0.0161118
676.578	0.0161512
676.656	0.0161722
676.734	0.0160694
676.812	0.0160637
676.890	0.0160663
676.968	0.0160519
677.046	0.0161082
677.124	0.0160589
677.203	0.0159097
677.281	0.0159639
677.359	0.0159637
677.437	0.0160213
677.515	0.0159246
677.593	0.0159075
677.671	0.0159406
677.749	0.0159451
677.828	0.0162238
677.906	0.0160059
677.984	0.0161204
678.062	0.0160473
678.140	0.0161724
678.218	0.0161129
678.296	0.0160233
678.374	0.0160185
678.453	0.0159345
678.531	0.0159756
678.609	0.0160207
678.687	0.0160072
678.765	0.0159512
678.843	0.0160590
678.921	0.0161681
678.999	0.0160689
679.078	0.0160981
679.156	0.0161354
679.234	0.0161904
679.312	0.0160030
679.390	0.0161248
679.468	0.0159483
679.546	0.0159830
679.624	0.0160896
679.703	0.0159093
679.781	0.0161330
679.859	0.0159736
679.937	0.0159228
680.015	0.0160625
680.093	0.0159714
680.171	0.0160809
680.249	0.0160519
680.328	0.0160516
680.406	0.0160896
680.484	0.0159792
680.562	0.0160422
680.640	0.0159750
680.718	0.0158721
680.796	0.0158816
680.874	0.0158987
680.953	0.0158757
681.031	0.0159964
681.109	0.0160414
681.187	0.0159573
681.265	0.0158601
681.343	0.0158076
681.421	0.0159595
681.499	0.0161147
681.578	0.0158678
681.656	0.0158954
681.734	0.0158908
681.812	0.0159489
681.890	0.0159895
681.968	0.0159232
682.046	0.0157370
682.124	0.0159798
682.203	0.0158588
682.281	0.0158910
682.359	0.0158666
682.437	0.0159821
682.515	0.0160127
682.593	0.0159735
682.671	0.0160056
682.749	0.0158667
682.828	0.0160094
682.906	0.0159020
682.984	0.0159948
683.062	0.0159540
683.140	0.0160096
683.218	0.0159410
683.296	0.0159759
683.374	0.0160491
683.453	0.0159131
683.531	0.0160116
683.609	0.0159081
683.687	0.0158910
683.765	0.0159735
683.843	0.0159766
683.921	0.0159072
683.999	0.0159428
684.078	0.0159950
684.156	0.0160175
684.234	0.0159944
684.312	0.0160210
684.390	0.0158286
684.468	0.0158712
684.546	0.0159865
684.624	0.0160068
684.703	0.0159495
684.781	0.0160213
684.859	0.0160403
684.937	0.0158869
685.015	0.0157259
685.093	0.0159109
685.171	0.0158763
685.249	0.0159602
685.328	0.0158931
685.406	0.0159958
685.484	0.0160558
685.562	0.0158248
685.640	0.0159418
685.718	0.0159760
685.796	0.0160614
685.874	0.0159375
685.953	0.0159893
686.031	0.0160342
686.109	0.0160204
686.187	0.0159818
686.265	0.0159377
686.343	0.0160287
686.421	0.0161056
686.499	0.0159404
686.578	0.0161040
686.656	0.0161411
686.734	0.0160365
686.812	0.0160567
686.890	0.0161098
686.968	0.0160626
687.046	0.0159343
687.124	0.0161115
687.203	0.0159966
687.281	0.0159781
687.359	0.0159941
687.437	0.0159783
687.515	0.0160281
687.593	0.0160177
687.671	0.0160677
687.749	0.0158935
687.828	0.0159931
687.906	0.0160927
687.984	0.0161331
688.062	0.0161215
688.140	0.0159907
688.218	0.0159888
688.296	0.0161163
688.374	0.0160882
688.453	0.0161611
688.531	0.0159662
688.609	0.0160967
688.687	0.0160274
688.765	0.0159623
688.843	0.0160606
688.921	0.0160683
688.999	0.0161922
689.078	0.0161031
689.156	0.0159601
689.234	0.0159754
689.312	0.0162051
689.390	0.0160387
689.468	0.0160366
689.546	0.0162130
689.624	0.0160949
689.703	0.0161285
689.781	0.0160279
689.859	0.0160219
689.937	0.0160891
690.015	0.0161906
690.093	0.0160413
690.171	0.0161430
690.249	0.0161707
690.328	0.0160633
690.406	0.0160062
690.484	0.0160905
690.562	0.0161346
690.640	0.0160464
690.718	0.0163100
690.796	0.0161085
690.874	0.0162206
690.953	0.0161926
691.031	0.0161263
691.109	0.0160548
691.187	0.0160888
691.265	0.0161771
691.343	0.0161182
691.421	0.0162917
691.499	0.0161972
691.578	0.0160841
691.656	0.0161069
691.734	0.0159548
691.812	0.0162521
691.890	0.0161115
691.968	0.0162730
692.046	0.0161181
692.124	0.0162218
692.203	0.0161378
692.281	0.0161015
692.359	0.0161449
692.437	0.0161482
692.515	0.0162905
692.593	0.0160896
692.671	0.0162868
692.749	0.0160239
692.828	0.0162423
692.906	0.0162318
692.984	0.0160580
693.062	0.0161095
693.140	0.0161079
693.218	0.0160921
693.296	0.0160144
693.374	0.0162706
693.453	0.0161723
693.531	0.0160201
693.609	0.0161794
693.687	0.0163411
693.765	0.0161309
693.843	0.0162952
693.921	0.0160591
693.999	0.0161465
694.078	0.0160777
694.156	0.0160685
694.234	0.0161909
694.312	0.0161615
694.390	0.0161729
694.468	0.0162224
694.546	0.0160934
694.624	0.0160770
694.703	0.0161241
694.781	0.0161650
694.859	0.0160277
694.937	0.0161505
695.015	0.0161706
695.093	0.0162010
695.171	0.0160867
695.249	0.0160995
695.328	0.0161898
695.406	0.0162673
695.484	0.0160825
695.562	0.0159834
695.640	0.0160558
695.718	0.0162004
695.796	0.0161450
695.874	0.0161214
695.953	0.0162066
696.031	0.0160947
696.109	0.0161158
696.187	0.0162366
696.265	0.0161550
696.343	0.0161293
696.421	0.0160379
696.499	0.0160964
696.578	0.0160790
696.656	0.0160714
696.734	0.0162886
696.812	0.0162976
696.890	0.0161436
696.968	0.0159628
697.046	0.0160442
697.124	0.0162305
697.203	0.0161637
697.281	0.0162052
697.359	0.0161191
697.437	0.0162230
697.515	0.0161163
697.593	0.0161095
697.671	0.0160947
697.749	0.0160455
697.828	0.0161252
697.906	0.0161644
697.984	0.0161205
698.062	0.0160216
698.140	0.0160443
698.218	0.0160110
698.296	0.0161554
698.374	0.0161386
698.453	0.0159602
698.531	0.0161943
698.609	0.0162910
698.687	0.0161600
698.765	0.0160402
698.843	0.0161794
698.921	0.0160841
698.999	0.0160357
699.078	0.0160371
699.156	0.0161292
699.234	0.0161067
699.312	0.0161819
699.390	0.0162253
699.468	0.0160653
699.546	0.0161028
699.624	0.0161174
699.703	0.0160950
699.781	0.0160774
699.859	0.0161107
699.937	0.0160302
700.015	0.0161196
700.093	0.0160464
700.171	0.0161407
700.249	0.0159971
700.328	0.0161342
700.406	0.0162325
700.484	0.0159280
700.562	0.0161831
700.640	0.0161534
700.718	0.0158890
700.796	0.0159754
700.874	0.0159673
700.953	0.0159380
701.031	0.0160043
701.109	0.0160758
701.187	0.0160563
701.265	0.0160169
701.343	0.0160716
701.421	0.0161604
701.499	0.0160582
701.578	0.0160276
701.656	0.0161003
701.734	0.0160125
701.812	0.0160217
701.890	0.0161364
701.968	0.0160468
702.046	0.0161127
702.124	0.0160271
702.203	0.0160757
702.281	0.0160320
702.359	0.0160044
702.437	0.0160315
702.515	0.0161115
702.593	0.0160688
702.671	0.0161638
702.749	0.0159114
702.828	0.0159164
702.906	0.0160075
702.984	0.0159560
703.062	0.0160271
703.140	0.0161226
703.218	0.0160311
703.296	0.0159734
703.374	0.0161879
703.453	0.0160988
703.531	0.0159020
703.609	0.0159158
703.687	0.0160825
703.765	0.0159482
703.843	0.0159052
703.921	0.0159833
703.999	0.0160186
704.078	0.0159904
704.156	0.0160392
704.234	0.0159911
704.312	0.0159225
704.390	0.0160120
704.468	0.0160246
704.546	0.0160787
704.624	0.0160815
704.703	0.0159663
704.781	0.0160207
704.859	0.0160117
704.937	0.0159834
705.015	0.0160928
705.093	0.0158098
705.171	0.0159314
705.249	0.0160233
705.328	0.0161108
705.406	0.0159659
705.484	0.0160028
705.562	0.0159623
705.640	0.0160111
705.718	0.0159189
705.796	0.0160202
705.874	0.0160757
705.953	0.0159753
706.031	0.0159239
706.109	0.0159837
706.187	0.0161090
706.265	0.0161527
706.343	0.0159903
706.421	0.0159637
706.499	0.0159442
706.578	0.0159317
706.656	0.0159123
706.734	0.0158743
706.812	0.0159123
706.890	0.0158592
706.968	0.0159483
707.046	0.0160800
707.124	0.0159590
707.203	0.0161279
707.281	0.0161037
707.359	0.0160025
707.437	0.0160285
707.515	0.0160709
707.593	0.0159606
707.671	0.0159728
707.749	0.0160228
707.828	0.0161566
707.906	0.0159417
707.984	0.0159107
708.062	0.0159368
708.140	0.0159619
708.218	0.0160217
708.296	0.0159783
708.374	0.0159170
708.453	0.0159818
708.531	0.0159216
708.609	0.0159354
708.687	0.0159458
708.765	0.0159463
708.843	0.0159076
708.921	0.0159657
708.999	0.0159409
709.078	0.0160191
709.156	0.0158932
709.234	0.0159869
709.312	0.0159586
709.390	0.0159394
709.468	0.0160600
709.546	0.0160056
709.624	0.0159480
709.703	0.0159583
709.781	0.0158455
709.859	0.0158167
709.937	0.0160999
710.015	0.0160029
710.093	0.0159605
710.171	0.0161137
710.249	0.0159818
710.328	0.0159728
710.406	0.0158777
710.484	0.0159361
710.562	0.0159743
710.640	0.0159333
710.718	0.0159418
710.796	0.0160056
710.874	0.0160595
710.953	0.0159206
711.031	0.0159608
711.109	0.0160500
711.187	0.0161594
711.265	0.0161516
711.343	0.0160828
711.421	0.0160726
711.499	0.0160233
711.578	0.0160036
711.656	0.0160493
711.734	0.0159744
711.812	0.0160287
711.890	0.0159968
711.968	0.0159049
712.046	0.0161577
712.124	0.0161012
712.203	0.0160790
712.281	0.0161167
712.359	0.0160815
712.437	0.0160881
712.515	0.0161562
712.593	0.0160330
712.671	0.0160954
712.749	0.0160225
712.828	0.0160996
712.906	0.0161017
712.984	0.0160347
713.062	0.0159807
713.140	0.0159441
713.218	0.0160926
713.296	0.0160780
713.374	0.0160280
713.453	0.0161640
713.531	0.0161890
713.609	0.0160372
713.687	0.0160751
713.765	0.0159537
713.843	0.0162090
713.921	0.0161699
713.999	0.0160210
714.078	0.0161438
714.156	0.0161800
714.234	0.0161530
714.312	0.0161333
714.390	0.0161043
714.468	0.0160441
714.546	0.0160094
714.624	0.0161394
714.703	0.0161896
714.781	0.0161346
714.859	0.0159255
714.937	0.0161316
715.015	0.0161047
715.093	0.0159411
715.171	0.0160663
715.249	0.0159795
715.328	0.0160711
715.406	0.0160262
715.484	0.0160263
715.562	0.0160513
715.640	0.0160728
715.718	0.0159776
715.796	0.0161822
715.874	0.0161038
715.953	0.0159524
716.031	0.0159131
716.109	0.0160197
716.187	0.0161561
716.265	0.0160807
716.343	0.0160824
716.421	0.0160405
716.499	0.0160402
716.578	0.0159068
716.656	0.0161304
716.734	0.0161562
716.812	0.0161103
716.890	0.0160705
716.968	0.0161195
717.046	0.0160963
717.124	0.0161107
717.203	0.0160893
717.281	0.0161658
717.359	0.0162463
717.437	0.0160700
717.515	0.0161214
717.593	0.0158988
717.671	0.0160887
717.749	0.0161836
717.828	0.0160335
717.906	0.0160036
717.984	0.0158631
718.062	0.0160060
718.140	0.0160468
718.218	0.0161796
718.296	0.0160670
718.374	0.0161254
718.453	0.0161194
718.531	0.0160114
718.609	0.0160146
718.687	0.0161168
718.765	0.0162189
718.843	0.0161950
718.921	0.0162428
718.999	0.0161644
719.078	0.0161336
719.156	0.0161460
719.234	0.0161024
719.312	0.0161169
719.390	0.0161964
719.468	0.0160004
719.546	0.0161172
719.624	0.0161789
719.703	0.0160686
719.781	0.0159993
719.859	0.0160078
719.937	0.0160669
720.015	0.0160378
720.093	0.0161510
720.171	0.0162179
720.249	0.0160770
720.328	0.0159451
720.406	0.0162739
720.484	0.0162350
720.562	0.0162447
720.640	0.0161291
720.718	0.0160989
720.796	0.0161165
720.874	0.0161780
720.953	0.0160551
721.031	0.0160487
721.109	0.0160529
721.187	0.0160715
721.265	0.0160311
721.343	0.0162038
721.421	0.0162099
721.499	0.0161626
721.578	0.0161568
721.656	0.0160988
721.734	0.0161054
721.812	0.0161538
721.890	0.0160998
721.968	0.0160679
722.046	0.0160844
722.124	0.0161980
722.203	0.0161656
722.281	0.0161446
722.359	0.0161493
722.437	0.0161085
722.515	0.0161248
722.593	0.0161742
722.671	0.0161223
722.749	0.0160529
722.828	0.0162342
722.906	0.0162159
722.984	0.0161060
723.062	0.0161390
723.140	0.0161398
723.218	0.0161692
723.296	0.0161838
723.374	0.0161887
723.453	0.0161388
723.531	0.0161535
723.609	0.0160668
723.687	0.0162209
723.765	0.0161968
723.843	0.0162213
723.921	0.0161319
723.999	0.0161278
724.078	0.0161533
724.156	0.0160706
724.234	0.0161928
724.312	0.0161349
724.390	0.0162149
724.468	0.0160229
724.546	0.0161417
724.624	0.0161702
724.703	0.0160759
724.781	0.0161308
724.859	0.0162112
724.937	0.0161620
725.015	0.0161246
725.093	0.0161626
725.171	0.0161024
725.249	0.0161349
725.328	0.0161375
725.406	0.0162912
725.484	0.0160958
725.562	0.0161105
725.640	0.0161402
725.718	0.0160985
725.796	0.0161600
725.874	0.0162003
725.953	0.0161276
726.031	0.0161893
726.109	0.0159635
726.187	0.0161034
726.265	0.0160806
726.343	0.0160878
726.421	0.0160700
726.499	0.0161600
726.578	0.0159854
726.656	0.0159688
726.734	0.0161074
726.812	0.0160565
726.890	0.0161607
726.968	0.0162109
727.046	0.0161253
727.124	0.0160011
727.203	0.0162075
727.281	0.0160664
727.359	0.0159985
727.437	0.0159739
727.515	0.0160286
727.593	0.0159883
727.671	0.0159619
727.749	0.0159965
727.828	0.0161783
727.906	0.0160497
727.984	0.0160781
728.062	0.0159619
728.140	0.0160170
728.218	0.0161903
728.296	0.0160584
728.374	0.0161121
728.453	0.0160382
728.531	0.0159727
728.609	0.0160011
728.687	0.0160411
728.765	0.0159883
728.843	0.0159538
728.921	0.0159431
728.999	0.0160925
729.078	0.0160217
729.156	0.0159988
729.234	0.0160223
729.312	0.0160092
729.390	0.0159573
729.468	0.0159435
729.546	0.0159389
729.624	0.0160519
729.703	0.0160887
729.781	0.0159399
729.859	0.0159726
729.937	0.0160875
730.015	0.0160380
730.093	0.0159660
730.171	0.0159958
730.249	0.0159750
730.328	0.0159383
730.406	0.0161463
730.484	0.0160080
730.562	0.0159390
730.640	0.0160191
730.718	0.0160315
730.796	0.0160654
730.874	0.0160754
730.953	0.0160034
731.031	0.0159269
731.109	0.0160158
731.187	0.0160074
731.265	0.0160512
731.343	0.0159353
731.421	0.0160586
731.499	0.0160558
731.578	0.0161060
731.656	0.0160313
731.734	0.0159605
731.812	0.0160162
731.890	0.0160381
731.968	0.0159600
732.046	0.0160060
732.124	0.0158474
732.203	0.0159470
732.281	0.0159234
732.359	0.0160764
732.437	0.0160371
732.515	0.0160605
732.593	0.0159961
732.671	0.0160756
732.749	0.0159798
732.828	0.0160524
732.906	0.0159488
732.984	0.0160651
733.062	0.0160595
733.140	0.0161981
733.218	0.0159679
733.296	0.0159540
733.374	0.0159809
733.453	0.0160923
733.531	0.0161208
733.609	0.0159801
733.687	0.0160577
733.765	0.0160844
733.843	0.0160898
733.921	0.0160736
733.999	0.0160944
734.078	0.0160918
734.156	0.0161366
734.234	0.0161520
734.312	0.0160924
734.390	0.0160515
734.468	0.0161678
734.546	0.0161103
734.624	0.0160287
734.703	0.0160706
734.781	0.0159515
734.859	0.0159555
734.937	0.0161548
735.015	0.0161317
735.093	0.0158694
735.171	0.0161472
735.249	0.0160732
735.328	0.0162018
735.406	0.0160983
735.484	0.0160052
735.562	0.0161546
735.640	0.0161955
735.718	0.0160175
735.796	0.0160670
735.874	0.0162038
735.953	0.0161863
736.031	0.0161364
736.109	0.0159927
736.187	0.0158238
736.265	0.0160776
736.343	0.0161927
736.421	0.0160563
736.499	0.0159705
736.578	0.0160492
736.656	0.0160606
736.734	0.0159853
736.812	0.0160621
736.890	0.0160581
736.968	0.0160394
737.046	0.0160567
737.124	0.0159922
737.203	0.0160471
737.281	0.0161046
737.359	0.0159912
737.437	0.0160485
737.515	0.0159800
737.593	0.0160446
737.671	0.0160770
737.749	0.0159743
737.828	0.0159978
737.906	0.0161270
737.984	0.0159879
738.062	0.0159860
738.140	0.0160771
738.218	0.0160980
738.296	0.0161073
738.374	0.0160059
738.453	0.0159775
738.531	0.0161211
738.609	0.0161098
738.687	0.0162448
738.765	0.0160199
738.843	0.0160865
738.921	0.0160136
738.999	0.0160339
739.078	0.0161127
739.156	0.0160999
739.234	0.0159529
739.312	0.0159961
739.390	0.0160748
739.468	0.0161871
739.546	0.0159558
739.624	0.0160931
739.703	0.0160343
739.781	0.0160453
739.859	0.0160657
739.937	0.0161322
740.015	0.0161891
740.093	0.0162225
740.171	0.0160586
740.249	0.0160049
740.328	0.0160825
740.406	0.0162209
740.484	0.0160109
740.562	0.0161935
740.640	0.0161629
740.718	0.0160943
740.796	0.0161337
740.874	0.0162105
740.953	0.0161291
741.031	0.0160163
741.109	0.0161386
741.187	0.0161188
741.265	0.0160713
741.343	0.0161832
741.421	0.0161013
741.499	0.0161519
741.578	0.0161121
741.656	0.0161052
741.734	0.0161559
741.812	0.0161340
741.890	0.0161271
741.968	0.0160861
742.046	0.0161481
742.124	0.0162244
742.203	0.0161395
742.281	0.0161907
742.359	0.0161284
742.437	0.0161530
742.515	0.0160441
742.593	0.0161132
742.671	0.0161197
742.749	0.0160919
742.828	0.0160793
742.906	0.0161309
742.984	0.0160551
743.062	0.0160928
743.140	0.0161109
743.218	0.0160852
743.296	0.0161323
743.374	0.0162373
743.453	0.0160614
743.531	0.0161548
743.609	0.0162095
743.687	0.0162022
743.765	0.0162115
743.843	0.0160818
743.921	0.0160025
743.999	0.0161156
744.078	0.0160702
744.156	0.0161034
744.234	0.0160178
744.312	0.0162021
744.390	0.0160937
744.468	0.0161382
744.546	0.0161775
744.624	0.0160159
744.703	0.0161036
744.781	0.0160369
744.859	0.0161070
744.937	0.0162070
745.015	0.0161885
745.093	0.0160359
745.171	0.0161816
745.249	0.0161194
745.328	0.0161801
745.406	0.0161793
745.484	0.0161009
745.562	0.0162139
745.640	0.0161724
745.718	0.0160754
745.796	0.0160732
745.874	0.0160882
745.953	0.0161440
746.031	0.0161280
746.109	0.0159779
746.187	0.0160287
746.265	0.0160751
746.343	0.0159727
746.421	0.0161908
746.499	0.0161332
746.578	0.0159632
746.656	0.0158183
746.734	0.0160423
746.812	0.0160235
746.890	0.0159853
746.968	0.0159428
747.046	0.0161714
747.124	0.0161872
747.203	0.0161035
747.281	0.0160073
747.359	0.0161974
747.437	0.0162103
747.515	0.0160628
747.593	0.0160764
747.671	0.0161502
747.749	0.0161148
747.828	0.0160140
747.906	0.0160414
747.984	0.0160868
748.062	0.0161482
748.140	0.0162016
748.218	0.0160815
748.296	0.0161105
748.374	0.0161285
748.453	0.0160730
748.531	0.0160773
748.609	0.0160381
748.687	0.0163187
748.765	0.0162012
748.843	0.0160465
748.921	0.0161419
748.999	0.0160973
749.078	0.0159599
749.156	0.0160440
749.234	0.0161205
749.312	0.0159309
749.390	0.0160604
749.468	0.0161009
749.546	0.0159427
749.624	0.0159264
749.703	0.0160144
749.781	0.0160381
749.859	0.0160894
749.937	0.0159560
750.015	0.0159540
750.093	0.0160967
750.171	0.0161047
750.249	0.0160894
750.328	0.0160023
750.406	0.0160270
750.484	0.0160434
750.562	0.0159993
750.640	0.0159850
750.718	0.0159570
750.796	0.0160002
750.874	0.0158776
750.953	0.0159489
751.031	0.0159876
751.109	0.0158736
751.187	0.0159984
751.265	0.0159676
751.343	0.0159241
751.421	0.0158179
751.499	0.0159402
751.578	0.0159197
751.656	0.0159541
751.734	0.0159534
751.812	0.0159779
751.890	0.0160319
751.968	0.0161387
752.046	0.0160188
752.124	0.0159305
752.203	0.0160911
752.281	0.0161613
752.359	0.0162446
752.437	0.0161046
752.515	0.0160580
752.593	0.0161361
752.671	0.0162167
752.749	0.0162785
752.828	0.0160789
752.906	0.0161129
752.984	0.0161697
753.062	0.0162287
753.140	0.0162197
753.218	0.0160802
753.296	0.0160096
753.374	0.0161568
753.453	0.0162044
753.531	0.0160554
753.609	0.0159328
753.687	0.0160161
753.765	0.0161037
753.843	0.0159887
753.921	0.0159157
753.999	0.0159718
754.078	0.0159944
754.156	0.0159698
754.234	0.0159111
754.312	0.0158274
754.390	0.0159529
754.468	0.0159191
754.546	0.0159270
754.624	0.0160106
754.703	0.0157542
754.781	0.0160704
754.859	0.0158855
754.937	0.0158593
755.015	0.0159444
755.093	0.0159451
755.171	0.0159415
755.249	0.0159348
755.328	0.0158543
755.406	0.0159876
755.484	0.0160263
755.562	0.0161142
755.640	0.0162356
755.718	0.0161465
755.796	0.0161698
755.874	0.0160876
755.953	0.0161081
756.031	0.0159777
756.109	0.0159801
756.187	0.0161234
756.265	0.0160332
756.343	0.0159652
756.421	0.0161117
756.499	0.0161145
756.578	0.0161808
756.656	0.0160374
756.734	0.0162383
756.812	0.0160279
756.890	0.0159547
756.968	0.0159962
757.046	0.0161289
757.124	0.0160020
757.203	0.0160928
757.281	0.0159068
757.359	0.0159438
757.437	0.0160194
757.515	0.0160168
757.593	0.0161633
757.671	0.0159280
757.749	0.0158113
757.828	0.0157880
757.906	0.0158636
757.984	0.0160132
758.062	0.0158817
758.140	0.0158791
758.218	0.0158800
758.296	0.0159169
758.374	0.0159563
758.453	0.0160629
758.531	0.0160389
758.609	0.0160208
758.687	0.0160744
758.765	0.0160986
758.843	0.0161606
758.921	0.0161706
758.999	0.0162489
759.078	0.0162100
759.156	0.0162305
759.234	0.0162257
759.312	0.0162038
759.390	0.0161082
759.468	0.0160501
759.546	0.0160476
759.624	0.0159900
759.703	0.0159628
759.781	0.0158475
759.859	0.0159922
759.937	0.0159646
760.015	0.0160087
760.093	0.0159190
760.171	0.0160381
760.249	0.0161161
760.328	0.0161847
760.406	0.0160427
760.484	0.0159702
760.562	0.0160073
760.640	0.0159841
760.718	0.0159028
760.796	0.0158651
760.874	0.0158864
760.953	0.0158000
761.031	0.0158466
761.109	0.0156852
761.187	0.0158047
761.265	0.0158655
761.343	0.0157675
761.421	0.0157510
761.499	0.0157690
761.578	0.0158296
761.656	0.0157369
761.734	0.0158111
761.812	0.0156912
761.890	0.0158273
761.968	0.0158220
762.046	0.0159698
762.124	0.0158920
762.203	0.0159220
762.281	0.0159856
762.359	0.0159903
762.437	0.0159195
762.515	0.0160504
762.593	0.0159330
762.671	0.0158372
762.749	0.0161651
762.828	0.0161259
762.906	0.0160929
762.984	0.0160266
763.062	0.0161162
763.140	0.0160674
763.218	0.0160602
763.296	0.0161463
763.374	0.0161359
763.453	0.0159956
763.531	0.0160425
763.609	0.0161217
763.687	0.0160595
763.765	0.0161372
763.843	0.0161329
763.921	0.0159160
763.999	0.0160556
764.078	0.0161379
764.156	0.0161083
764.234	0.0159760
764.312	0.0161554
764.390	0.0161855
764.468	0.0161891
764.546	0.0162691
764.624	0.0161011
764.703	0.0161013
764.781	0.0160246
764.859	0.0160412
764.937	0.0160358
765.015	0.0159063
765.093	0.0160100
765.171	0.0158109
765.249	0.0158591
765.328	0.0157842
765.406	0.0158280
765.484	0.0159139
765.562	0.0157912
765.640	0.0157925
765.718	0.0158711
765.796	0.0160529
765.874	0.0158865
765.953	0.0158525
766.031	0.0158233
766.109	0.0160221
766.187	0.0159299
766.265	0.0158408
766.343	0.0158796
766.421	0.0158233
766.499	0.0158846
766.578	0.0158911
766.656	0.0159309
766.734	0.0160074
766.812	0.0159777
766.890	0.0160871
766.968	0.0160722
767.046	0.0160976
767.124	0.0162051
767.203	0.0162032
767.281	0.0161829
767.359	0.0163497
767.437	0.0162230
767.515	0.0162953
767.593	0.0161687
767.671	0.0162504
767.749	0.0162276
767.828	0.0162658
767.906	0.0162876
767.984	0.0162232
768.062	0.0163585
768.140	0.0163723
768.218	0.0163217
768.296	0.0164209
768.374	0.0162285
768.453	0.0161860
768.531	0.0162315
768.609	0.0160881
768.687	0.0161309
768.765	0.0162964
768.843	0.0161189
768.921	0.0159864
768.999	0.0159124
769.078	0.0158826
769.156	0.0159885
769.234	0.0157827
769.312	0.0158286
769.390	0.0158239
769.468	0.0157575
769.546	0.0158037
769.624	0.0156610
769.703	0.0156845
769.781	0.0156708
769.859	0.0157076
769.937	0.0157771
770.015	0.0156313
770.093	0.0159228
770.171	0.0157909
770.249	0.0158858
770.328	0.0159140
770.406	0.0160035
770.484	0.0160992
770.562	0.0160641
770.640	0.0159908
770.718	0.0161880
770.796	0.0161164
770.874	0.0162364
770.953	0.0162033
771.031	0.0162914
771.109	0.0160557
771.187	0.0162460
771.265	0.0163316
771.343	0.0162021
771.421	0.0161987
771.499	0.0160995
771.578	0.0160559
771.656	0.0160717
771.734	0.0161052
771.812	0.0160961
771.890	0.0161298
771.968	0.0162171
772.046	0.0159743
772.124	0.0161605
772.203	0.0162033
772.281	0.0162089
772.359	0.0160803
772.437	0.0161658
772.515	0.0160167
772.593	0.0161848
772.671	0.0159549
772.749	0.0159837
772.828	0.0159502
772.906	0.0158031
772.984	0.0158548
773.062	0.0159001
773.140	0.0159300
773.218	0.0159778
773.296	0.0159048
773.374	0.0159431
773.453	0.0160844
773.531	0.0159284
773.609	0.0159763
773.687	0.0160035
773.765	0.0160242
773.843	0.0159779
773.921	0.0160561
773.999	0.0160940
774.078	0.0159976
774.156	0.0161595
774.234	0.0160693
774.312	0.0159688
774.390	0.0161343
774.468	0.0161732
774.546	0.0162503
774.624	0.0160402
774.703	0.0161589
774.781	0.0161256
774.859	0.0160711
774.937	0.0160213
775.015	0.0160203
775.093	0.0160806
775.171	0.0160822
775.249	0.0160917
775.328	0.0161621
775.406	0.0158428
775.484	0.0159793
775.562	0.0161752
775.640	0.0161497
775.718	0.0162840
775.796	0.0161562
775.874	0.0162951
775.953	0.0162860
776.031	0.0164574
776.109	0.0164892
776.187	0.0164101
776.265	0.0165122
776.343	0.0164388
776.421	0.0164059
776.499	0.0163790
776.578	0.0164202
776.656	0.0164880
776.734	0.0164730
776.812	0.0162455
776.890	0.0163288
776.968	0.0163061
777.046	0.0161382
777.124	0.0161078
777.203	0.0160130
777.281	0.0160600
777.359	0.0158742
777.437	0.0156878
777.515	0.0158424
777.593	0.0158972
777.671	0.0157607
777.749	0.0156012
777.828	0.0157107
777.906	0.0156085
777.984	0.0155668
778.062	0.0155902
778.140	0.0155996
778.218	0.0155730
778.296	0.0157835
778.374	0.0157026
778.453	0.0157365
778.531	0.0157588
778.609	0.0157779
778.687	0.0158297
778.765	0.0160333
778.843	0.0161556
778.921	0.0160538
778.999	0.0161311
779.078	0.0161175
779.156	0.0162353
779.234	0.0162372
779.312	0.0163062
779.390	0.0162962
779.468	0.0163417
779.546	0.0162496
779.624	0.0161930
779.703	0.0162163
779.781	0.0161983
779.859	0.0162466
779.937	0.0161740
780.015	0.0160529
780.093	0.0161010
780.171	0.0159969
780.249	0.0159435
780.328	0.0160877
780.406	0.0159214
780.484	0.0159533
780.562	0.0159847
780.640	0.0160146
780.718	0.0161270
780.796	0.0161785
780.874	0.0161603
780.953	0.0160085
781.031	0.0161090
781.109	0.0161758
781.187	0.0161243
781.265	0.0161334
781.343	0.0161697
781.421	0.0160936
781.499	0.0161990
781.578	0.0163148
781.656	0.0163651
781.734	0.0162770
781.812	0.0162196
781.890	0.0161683
781.968	0.0161492
782.046	0.0160914
782.124	0.0159663
782.203	0.0160261
782.281	0.0159651
782.359	0.0158972
782.437	0.0159582
782.515	0.0159168
782.593	0.0156616
782.671	0.0156791
782.749	0.0156606
782.828	0.0155343
782.906	0.0154824
782.984	0.0155078
783.062	0.0155520
783.140	0.0154565
783.218	0.0154011
783.296	0.0153972
783.374	0.0152188
783.453	0.0154368
783.531	0.0157018
783.609	0.0155704
783.687	0.0156721
783.765	0.0157966
783.843	0.0159428
783.921	0.0161134
783.999	0.0162710
784.078	0.0162154
784.156	0.0164474
784.234	0.0164341
784.312	0.0166140
784.390	0.0165733
784.468	0.0166123
784.546	0.0166278
784.624	0.0165549
784.703	0.0166000
784.781	0.0165540
784.859	0.0165759
784.937	0.0165704
785.015	0.0163480
785.093	0.0165807
785.171	0.0164167
785.249	0.0164132
785.328	0.0164476
785.406	0.0161818
785.484	0.0162496
785.562	0.0162089
785.640	0.0160631
785.718	0.0161343
785.796	0.0161264
785.874	0.0159444
785.953	0.0159630
786.031	0.0157629
786.109	0.0157362
786.187	0.0157613
786.265	0.0157326
786.343	0.0156021
786.421	0.0155403
786.499	0.0155296
786.578	0.0155228
786.656	0.0154652
786.734	0.0156782
786.812	0.0157046
786.890	0.0157931
786.968	0.0157809
787.046	0.0159863
787.124	0.0159467
787.203	0.0159086
787.281	0.0160287
787.359	0.0160657
787.437	0.0160065
787.515	0.0161864
787.593	0.0161556
787.671	0.0160538
787.749	0.0161721
787.828	0.0160644
787.906	0.0160838
787.984	0.0160454
788.062	0.0159959
788.140	0.0161920
788.218	0.0162277
788.296	0.0160416
788.374	0.0162153
788.453	0.0162598
788.531	0.0163963
788.609	0.0161578
788.687	0.0162214
788.765	0.0162284
788.843	0.0161459
788.921	0.0161323
788.999	0.0162532
789.078	0.0162244
789.156	0.0161415
789.234	0.0161282
789.312	0.0162959
789.390	0.0161254
789.468	0.0159920
789.546	0.0159875
789.624	0.0161286
789.703	0.0162337
789.781	0.0160788
789.859	0.0160513
789.937	0.0159669
790.015	0.0160146
790.093	0.0158456
790.171	0.0159461
790.249	0.0160012
790.328	0.0159457
790.406	0.0160030
790.484	0.0158942
790.562	0.0157568
790.640	0.0157240
790.718	0.0157849
790.796	0.0157478
790.874	0.0157861
790.953	0.0156850
791.031	0.0156723
791.109	0.0156728
791.187	0.0157551
791.265	0.0157008
791.343	0.0156924
791.421	0.0155923
791.499	0.0158538
791.578	0.0157957
791.656	0.0160252
791.734	0.0160641
791.812	0.0161366
791.890	0.0161953
791.968	0.0162534
792.046	0.0163633
792.124	0.0164993
792.203	0.0165114
792.281	0.0166022
792.359	0.0164655
792.437	0.0165800
792.515	0.0166577
792.593	0.0167199
792.671	0.0166627
792.749	0.0165635
792.828	0.0167513
792.906	0.0166310
792.984	0.0166622
793.062	0.0167391
793.140	0.0166501
793.218	0.0165809
793.296	0.0163820
793.374	0.0165540
793.453	0.0163702
793.531	0.0163798
793.609	0.0161607
793.687	0.0161926
793.765	0.0161230
793.843	0.0161190
793.921	0.0159566
793.999	0.0158606
794.078	0.0159106
794.156	0.0158114
794.234	0.0157714
794.312	0.0157748
794.390	0.0156881
794.468	0.0156406
794.546	0.0156658
794.624	0.0156280
794.703	0.0156616
794.781	0.0155702
794.859	0.0156716
794.937	0.0157123
795.015	0.0159025
795.093	0.0157539
795.171	0.0157776
795.249	0.0157990
795.328	0.0158412
795.406	0.0159482
795.484	0.0159618
795.562	0.0160069
795.640	0.0161518
795.718	0.0162460
795.796	0.0162718
795.874	0.0163017
795.953	0.0162456
796.031	0.0163084
796.109	0.0163355
796.187	0.0163720
796.265	0.0162395
796.343	0.0164218
796.421	0.0165723
796.499	0.0165912
796.578	0.0165854
796.656	0.0166914
796.734	0.0168465
796.812	0.0167438
796.890	0.0166240
796.968	0.0168349
797.046	0.0167458
797.124	0.0166485
797.203	0.0166563
797.281	0.0165789
797.359	0.0164658
797.437	0.0163821
797.515	0.0162663
797.593	0.0160639
797.671	0.0160207
797.749	0.0160740
797.828	0.0160384
797.906	0.0158559
797.984	0.0158212
798.062	0.0157679
798.140	0.0156537
798.218	0.0157891
798.296	0.0156602
798.374	0.0157776
798.453	0.0156075
798.531	0.0155915
798.609	0.0157639
798.687	0.0156842
798.765	0.0155326
798.843	0.0158121
798.921	0.0157048
798.999	0.0158873
799.078	0.0159111
799.156	0.0160182
799.234	0.0160271
799.312	0.0161950
799.390	0.0162501
799.468	0.0162411
799.546	0.0163795
799.624	0.0164358
799.703	0.0162914
799.781	0.0163238
799.859	0.0163810
799.937	0.0164743
800.015	0.0162557
800.093	0.0163248
800.171	0.0163457
800.249	0.0164137
800.328	0.0164014
800.406	0.0161823
800.484	0.0160609
800.562	0.0163092
800.640	0.0163496
800.718	0.0162284
800.796	0.0162996
800.874	0.0161749
800.953	0.0161987
801.031	0.0162727
801.109	0.0160474
801.187	0.0161764
801.265	0.0161281
801.343	0.0162030
801.421	0.0161294
801.499	0.0160627
801.578	0.0161310
801.656	0.0161060
801.734	0.0159209
801.812	0.0159458
801.890	0.0159739
801.968	0.0159478
802.046	0.0160061
802.124	0.0159048
802.203	0.0159763
802.281	0.0158713
802.359	0.0158834
802.437	0.0159843
802.515	0.0158633
802.593	0.0159795
802.671	0.0157906
802.749	0.0159853
802.828	0.0159274
802.906	0.0158990
802.984	0.0158409
803.062	0.0159339
803.140	0.0159303
803.218	0.0160793
803.296	0.0160197
803.374	0.0160664
803.453	0.0160841
803.531	0.0160405
803.609	0.0161280
803.687	0.0161519
803.765	0.0160449
803.843	0.0161879
803.921	0.0163135
803.999	0.0162856
804.078	0.0163690
804.156	0.0164848
804.234	0.0165096
804.312	0.0165929
804.390	0.0166248
804.468	0.0165705
804.546	0.0166572
804.624	0.0166631
804.703	0.0166985
804.781	0.0165319
804.859	0.0164113
804.937	0.0163944
805.015	0.0163416
805.093	0.0162435
805.171	0.0161540
805.249	0.0162444
805.328	0.0159743
805.406	0.0158807
805.484	0.0158979
805.562	0.0158185
805.640	0.0155277
805.718	0.0156671
805.796	0.0156247
805.874	0.0155847
805.953	0.0154520
806.031	0.0156390
806.109	0.0156062
806.187	0.0154735
806.265	0.0156900
806.343	0.0157878
806.421	0.0156409
806.499	0.0158631
806.578	0.0157710
806.656	0.0158888
806.734	0.0159565
806.812	0.0158080
806.890	0.0161861
806.968	0.0161874
807.046	0.0161097
807.124	0.0162339
807.203	0.0161609
807.281	0.0161938
807.359	0.0163255
807.437	0.0163249
807.515	0.0164843
807.593	0.0164982
807.671	0.0164058
807.749	0.0163903
807.828	0.0164404
807.906	0.0164288
807.984	0.0163626
808.062	0.0163695
808.140	0.0163145
808.218	0.0164249
808.296	0.0161744
808.374	0.0161410
808.453	0.0159486
808.531	0.0160464
808.609	0.0161356
808.687	0.0161500
808.765	0.0160435
808.843	0.0158515
808.921	0.0158910
808.999	0.0159842
809.078	0.0160162
809.156	0.0160381
809.234	0.0159422
809.312	0.0158350
809.390	0.0158884
809.468	0.0159747
809.546	0.0159338
809.624	0.0160709
809.703	0.0159103
809.781	0.0158801
809.859	0.0159232
809.937	0.0159448
810.015	0.0158672
810.093	0.0157571
810.171	0.0156842
810.249	0.0157513
810.328	0.0157410
810.406	0.0156375
810.484	0.0156665
810.562	0.0156110
810.640	0.0159004
810.718	0.0159126
810.796	0.0159024
810.874	0.0160126
810.953	0.0160238
811.031	0.0159940
811.109	0.0160722
811.187	0.0161689
811.265	0.0162200
811.343	0.0163222
811.421	0.0161385
811.499	0.0162553
811.578	0.0163276
811.656	0.0162032
811.734	0.0163694
811.812	0.0161996
811.890	0.0162958
811.968	0.0162453
812.046	0.0162728
812.124	0.0161228
812.203	0.0160799
812.281	0.0161205
812.359	0.0160915
812.437	0.0160447
812.515	0.0160703
812.593	0.0161092
812.671	0.0159809
812.749	0.0158676
812.828	0.0160244
812.906	0.0160906
812.984	0.0160381
813.062	0.0159453
813.140	0.0158836
813.218	0.0159272
813.296	0.0159556
813.374	0.0158274
813.453	0.0158392
813.531	0.0158367
813.609	0.0158504
813.687	0.0157247
813.765	0.0157742
813.843	0.0157320
813.921	0.0158023
813.999	0.0158810
814.078	0.0158773
814.156	0.0157569
814.234	0.0157262
814.312	0.0160291
814.390	0.0159222
814.468	0.0159385
814.546	0.0160625
814.624	0.0161377
814.703	0.0159583
814.781	0.0160348
814.859	0.0161421
814.937	0.0162337
815.015	0.0162253
815.093	0.0162438
815.171	0.0163129
815.249	0.0164326
815.328	0.0163750
815.406	0.0166523
815.484	0.0166061
815.562	0.0165041
815.640	0.0166065
815.718	0.0165730
815.796	0.0164081
815.874	0.0163397
815.953	0.0164684
816.031	0.0164832
816.109	0.0164161
816.187	0.0162557
816.265	0.0163412
816.343	0.0163126
816.421	0.0162476
816.499	0.0162608
816.578	0.0161727
816.656	0.0160682
816.734	0.0161105
816.812	0.0159241
816.890	0.0158042
816.968	0.0159851
817.046	0.0159026
817.124	0.0158477
817.203	0.0159339
817.281	0.0157763
817.359	0.0158258
817.437	0.0157927
817.515	0.0157869
817.593	0.0157629
817.671	0.0158135
817.749	0.0158752
817.828	0.0157594
817.906	0.0156529
817.984	0.0157880
818.062	0.0158060
818.140	0.0158933
818.218	0.0160339
818.296	0.0160318
818.374	0.0161102
818.453	0.0162622
818.531	0.0160919
818.609	0.0163066
818.687	0.0163717
818.765	0.0162627
818.843	0.0162531
818.921	0.0163487
818.999	0.0163345
819.078	0.0163084
819.156	0.0163470
819.234	0.0164560
819.312	0.0163203
819.390	0.0164252
819.468	0.0166030
819.546	0.0163543
819.624	0.0165940
819.703	0.0164865
819.781	0.0165184
819.859	0.0163258
819.937	0.0163566
820.015	0.0162760
820.093	0.0161504
820.171	0.0162066
820.249	0.0160799
820.328	0.0160882
820.406	0.0160159
820.484	0.0158904
820.562	0.0158118
820.640	0.0157605
820.718	0.0155920
820.796	0.0157081
820.874	0.0158520
820.953	0.0158675
821.031	0.0158569
821.109	0.0157275
821.187	0.0158007
821.265	0.0159457
821.343	0.0159342
821.421	0.0161002
821.499	0.0161684
821.578	0.0161610
821.656	0.0163159
821.734	0.0162568
821.812	0.0164158
821.890	0.0163901
821.968	0.0163203
822.046	0.0163105
822.124	0.0164841
822.203	0.0163969
822.281	0.0163033
822.359	0.0162296
822.437	0.0161517
822.515	0.0161459
822.593	0.0160034
822.671	0.0159492
822.749	0.0158836
822.828	0.0159374
822.906	0.0159281
822.984	0.0158842
823.062	0.0158612
823.140	0.0158668
823.218	0.0157579
823.296	0.0157812
823.374	0.0157651
823.453	0.0156921
823.531	0.0156458
823.609	0.0157181
823.687	0.0158761
823.765	0.0159520
823.843	0.0158667
823.921	0.0158949
823.999	0.0159634
824.078	0.0159407
824.156	0.0160815
824.234	0.0160246
824.312	0.0161456
824.390	0.0159989
824.468	0.0160715
824.546	0.0160630
824.624	0.0160800
824.703	0.0161474
824.781	0.0162194
824.859	0.0161829
824.937	0.0163008
825.015	0.0163057
825.093	0.0163428
825.171	0.0162677
825.249	0.0162061
825.328	0.0161510
825.406	0.0161683
825.484	0.0163360
825.562	0.0162353
825.640	0.0162033
825.718	0.0163181
825.796	0.0162019
825.874	0.0161879
825.953	0.0162478
826.031	0.0160050
826.109	0.0161497
826.187	0.0161333
826.265	0.0162553
826.343	0.0161386
826.421	0.0161340
826.499	0.0162544
826.578	0.0163567
826.656	0.0160931
826.734	0.0161243
826.812	0.0161434
826.890	0.0161675
826.968	0.0160875
827.046	0.0161404
827.124	0.0159383
827.203	0.0160023
827.281	0.0159039
827.359	0.0158653
827.437	0.0158730
827.515	0.0156275
827.593	0.0157542
827.671	0.0158590
827.749	0.0156646
827.828	0.0156994
827.906	0.0156953
827.984	0.0156391
828.062	0.0156369
828.140	0.0156487
828.218	0.0158129
828.296	0.0158412
828.374	0.0159181
828.453	0.0160219
828.531	0.0161672
828.609	0.0160220
828.687	0.0160414
828.765	0.0159496
828.843	0.0162688
828.921	0.0161744
828.999	0.0161277
829.078	0.0161680
829.156	0.0161105
829.234	0.0160902
829.312	0.0161256
829.390	0.0161349
829.468	0.0160990
829.546	0.0160540
829.624	0.0160493
829.703	0.0160743
829.781	0.0160334
829.859	0.0160083
829.937	0.0160544
830.015	0.0160802
830.093	0.0159534
830.171	0.0160496
830.249	0.0161712
830.328	0.0160839
830.406	0.0160816
830.484	0.0161026
830.562	0.0162914
830.640	0.0162379
830.718	0.0162594
830.796	0.0161759
830.874	0.0162555
830.953	0.0162994
831.031	0.0162428
831.109	0.0161411
831.187	0.0163927
831.265	0.0161041
831.343	0.0161288
831.421	0.0160718
831.499	0.0162363
831.578	0.0161895
831.656	0.0161893
831.734	0.0161499
831.812	0.0161073
831.890	0.0160623
831.968	0.0161253
832.046	0.0160072
832.124	0.0159892
832.203	0.0160258
832.281	0.0160973
832.359	0.0159053
832.437	0.0158839
832.515	0.0159360
832.593	0.0159876
832.671	0.0158212
832.749	0.0156982
832.828	0.0159271
832.906	0.0157993
832.984	0.0156045
833.062	0.0156884
833.140	0.0156489
833.218	0.0156049
833.296	0.0155665
833.374	0.0155328
833.453	0.0155694
833.531	0.0156413
833.609	0.0156273
833.687	0.0155846
833.765	0.0155961
833.843	0.0158624
833.921	0.0159096
833.999	0.0159519
834.078	0.0159560
834.156	0.0160391
834.234	0.0159764
834.312	0.0159710
834.390	0.0161082
834.468	0.0161617
834.546	0.0162304
834.624	0.0162719
834.703	0.0163017
834.781	0.0162643
834.859	0.0162753
834.937	0.0163583
835.015	0.0163282
835.093	0.0164996
835.171	0.0163426
835.249	0.0164057
835.328	0.0165462
835.406	0.0164021
835.484	0.0163379
835.562	0.0162638
835.640	0.0162436
835.718	0.0162167
835.796	0.0160832
835.874	0.0161018
835.953	0.0159322
836.031	0.0158356
836.109	0.0157925
836.187	0.0157844
836.265	0.0157800
836.343	0.0156382
836.421	0.0155735
836.499	0.0155924
836.578	0.0155710
836.656	0.0156424
836.734	0.0157948
836.812	0.0156126
836.890	0.0155418
836.968	0.0157584
837.046	0.0158498
837.124	0.0157072
837.203	0.0158301
837.281	0.0160220
837.359	0.0160277
837.437	0.0160857
837.515	0.0160547
837.593	0.0158865
837.671	0.0161063
837.749	0.0160794
837.828	0.0162034
837.906	0.0161205
837.984	0.0161082
838.062	0.0161906
838.140	0.0162280
838.218	0.0162570
838.296	0.0163678
838.374	0.0162729
838.453	0.0164419
838.531	0.0164830
838.609	0.0164168
838.687	0.0163279
838.765	0.0162579
838.843	0.0163761
838.921	0.0163191
838.999	0.0162598
839.078	0.0163198
839.156	0.0160997
839.234	0.0159909
839.312	0.0160668
839.390	0.0159583
839.468	0.0158076
839.546	0.0156580
839.624	0.0156850
839.703	0.0154633
839.781	0.0155156
839.859	0.0155376
839.937	0.0154504
840.015	0.0154877
840.093	0.0154599
840.171	0.0153125
840.249	0.0154848
840.328	0.0156601
840.406	0.0155839
840.484	0.0156112
840.562	0.0156372
840.640	0.0158275
840.718	0.0158819
840.796	0.0158651
840.874	0.0159136
840.953	0.0159988
841.031	0.0159669
841.109	0.0160738
841.187	0.0162473
841.265	0.0162090
841.343	0.0163244
841.421	0.0164055
841.499	0.0163256
841.578	0.0163184
841.656	0.0163072
841.734	0.0165729
841.812	0.0166043
841.890	0.0166203
841.968	0.0164246
842.046	0.0164715
842.124	0.0165157
842.203	0.0164969
842.281	0.0163914
842.359	0.0166035
842.437	0.0165224
842.515	0.0163795
842.593	0.0165128
842.671	0.0164028
842.749	0.0162384
842.828	0.0162729
842.906	0.0161414
842.984	0.0160455
843.062	0.0160017
843.140	0.0159418
843.218	0.0157993
843.296	0.0158840
843.374	0.0157452
843.453	0.0156828
843.531	0.0157191
843.609	0.0155721
843.687	0.0155186
843.765	0.0155602
843.843	0.0156214
843.921	0.0155499
843.999	0.0156974
844.078	0.0155704
844.156	0.0156282
844.234	0.0156094
844.312	0.0156787
844.390	0.0157565
844.468	0.0156625
844.546	0.0157749
844.624	0.0157783
844.703	0.0157188
844.781	0.0158726
844.859	0.0159613
844.937	0.0158228
845.015	0.0159875
845.093	0.0160191
845.171	0.0160041
845.249	0.0160099
845.328	0.0161257
845.406	0.0161144
845.484	0.0161720
845.562	0.0161386
845.640	0.0162887
845.718	0.0160874
845.796	0.0161381
845.874	0.0162427
845.953	0.0163123
846.031	0.0161396
846.109	0.0161887
846.187	0.0162358
846.265	0.0162826
846.343	0.0162464
846.421	0.0162216
846.499	0.0162606
846.578	0.0162388
846.656	0.0162195
846.734	0.0162350
846.812	0.0162051
846.890	0.0160625
846.968	0.0160638
847.046	0.0162682
847.124	0.0161656
847.203	0.0161330
847.281	0.0162622
847.359	0.0161722
847.437	0.0160809
847.515	0.0161356
847.593	0.0161188
847.671	0.0161132
847.749	0.0161798
847.828	0.0161090
847.906	0.0161737
847.984	0.0159834
848.062	0.0160503
848.140	0.0159539
848.218	0.0160310
848.296	0.0159583
848.374	0.0157388
848.453	0.0159588
848.531	0.0158979
848.609	0.0158446
848.687	0.0156949
848.765	0.0156628
848.843	0.0157809
848.921	0.0156077
848.999	0.0157176
849.078	0.0154952
849.156	0.0156442
849.234	0.0157970
849.312	0.0157240
849.390	0.0157027
849.468	0.0158732
849.546	0.0156483
849.624	0.0157561
849.703	0.0157742
849.781	0.0159028
849.859	0.0158810
849.937	0.0158897
850.015	0.0159178
850.093	0.0161424
850.171	0.0160860
850.249	0.0161215
850.328	0.0162138
850.406	0.0161968
850.484	0.0163091
850.562	0.0162480
850.640	0.0163287
850.718	0.0163244
850.796	0.0164272
850.874	0.0163055
850.953	0.0163055
851.031	0.0162265
851.109	0.0162847
851.187	0.0162192
851.265	0.0161912
851.343	0.0161455
851.421	0.0161890
851.499	0.0159836
851.578	0.0159085
851.656	0.0160114
851.734	0.0158512
851.812	0.0159829
851.890	0.0159980
851.968	0.0159208
852.046	0.0159256
852.124	0.0159105
852.203	0.0158906
852.281	0.0157949
852.359	0.0157066
852.437	0.0159364
852.515	0.0160773
852.593	0.0157451
852.671	0.0159126
852.749	0.0158635
852.828	0.0158377
852.906	0.0158949
852.984	0.0157909
853.062	0.0159031
853.140	0.0159097
853.218	0.0157128
853.296	0.0159972
853.374	0.0158991
853.453	0.0159187
853.531	0.0162031
853.609	0.0161485
853.687	0.0160403
853.765	0.0160397
853.843	0.0161095
853.921	0.0162359
853.999	0.0161818
854.078	0.0162589
854.156	0.0162878
854.234	0.0163105
854.312	0.0162395
854.390	0.0162802
854.468	0.0162489
854.546	0.0163377
854.624	0.0163399
854.703	0.0163705
854.781	0.0163777
854.859	0.0164761
854.937	0.0164218
855.015	0.0162853
855.093	0.0162153
855.171	0.0161507
855.249	0.0162380
855.328	0.0161103
855.406	0.0161623
855.484	0.0160756
855.562	0.0159209
855.640	0.0160156
855.718	0.0160439
855.796	0.0159525
855.874	0.0160545
855.953	0.0160263
856.031	0.0160297
856.109	0.0158920
856.187	0.0159617
856.265	0.0160807
856.343	0.0159915
856.421	0.0158451
856.499	0.0158239
856.578	0.0160108
856.656	0.0159739
856.734	0.0159490
856.812	0.0160440
856.890	0.0158336
856.968	0.0160551
857.046	0.0160753
857.124	0.0160338
857.203	0.0161493
857.281	0.0161137
857.359	0.0161646
857.437	0.0162425
857.515	0.0161472
857.593	0.0161087
857.671	0.0162036
857.749	0.0161651
857.828	0.0161749
857.906	0.0162032
857.984	0.0161098
858.062	0.0162675
858.140	0.0163172
858.218	0.0161320
858.296	0.0160677
858.374	0.0162028
858.453	0.0162342
858.531	0.0162325
858.609	0.0161031
858.687	0.0160426
858.765	0.0161953
858.843	0.0163389
858.921	0.0161813
858.999	0.0162437
859.078	0.0161092
859.156	0.0159232
859.234	0.0160896
859.312	0.0161674
859.390	0.0161105
859.468	0.0160694
859.546	0.0159190
859.624	0.0159445
859.703	0.0160675
859.781	0.0159612
859.859	0.0161225
859.937	0.0158837
860.015	0.0158968
860.093	0.0159209
860.171	0.0158967
860.249	0.0158864
860.328	0.0158183
860.406	0.0156806
860.484	0.0157764
860.562	0.0158162
860.640	0.0159969
860.718	0.0160403
860.796	0.0160880
860.874	0.0158749
860.953	0.0158822
861.031	0.0161978
861.109	0.0160495
861.187	0.0161064
861.265	0.0161314
861.343	0.0161131
861.421	0.0161839
861.499	0.0161021
861.578	0.0162287
861.656	0.0160598
861.734	0.0161031
861.812	0.0162337
861.890	0.0160537
861.968	0.0160081
862.046	0.0161609
862.124	0.0159464
862.203	0.0161474
862.281	0.0160334
862.359	0.0160058
862.437	0.0159989
862.515	0.0159573
862.593	0.0158299
862.671	0.0158340
862.749	0.0159645
862.828	0.0160387
862.906	0.0159031
862.984	0.0158882
863.062	0.0158513
863.140	0.0158897
863.218	0.0157480
863.296	0.0158366
863.374	0.0158282
863.453	0.0157140
863.531	0.0158311
863.609	0.0157008
863.687	0.0157788
863.765	0.0158501
863.843	0.0159234
863.921	0.0158923
863.999	0.0159108
864.078	0.0160236
864.156	0.0159097
864.234	0.0160291
864.312	0.0159896
864.390	0.0160252
864.468	0.0160957
864.546	0.0162803
864.624	0.0160904
864.703	0.0161835
864.781	0.0162506
864.859	0.0162324
864.937	0.0162173
865.015	0.0160622
865.093	0.0160844
865.171	0.0161479
865.249	0.0160914
865.328	0.0160310
865.406	0.0159910
865.484	0.0160995
865.562	0.0159779
865.640	0.0158492
865.718	0.0158457
865.796	0.0159144
865.874	0.0159837
865.953	0.0159061
866.031	0.0159437
866.109	0.0160526
866.187	0.0160165
866.265	0.0158839
866.343	0.0157912
866.421	0.0159914
866.499	0.0160529
866.578	0.0159407
866.656	0.0160017
866.734	0.0159662
866.812	0.0158071
866.890	0.0159932
866.968	0.0159405
867.046	0.0159534
867.124	0.0160219
867.203	0.0160435
867.281	0.0160231
867.359	0.0161324
867.437	0.0161003
867.515	0.0161643
867.593	0.0160895
867.671	0.0161130
867.749	0.0160255
867.828	0.0160741
867.906	0.0160915
867.984	0.0159978
868.062	0.0160499
868.140	0.0160102
868.218	0.0160954
868.296	0.0160255
868.374	0.0160007
868.453	0.0159612
868.531	0.0160486
868.609	0.0160208
868.687	0.0158743
868.765	0.0158321
868.843	0.0161236
868.921	0.0160496
868.999	0.0162663
869.078	0.0161750
869.156	0.0160307
869.234	0.0162682
869.312	0.0161974
869.390	0.0161690
869.468	0.0162038
869.546	0.0162465
869.624	0.0162723
869.703	0.0163121
869.781	0.0162921
869.859	0.0161362
869.937	0.0161243
870.015	0.0162708
870.093	0.0161329
870.171	0.0161663
870.249	0.0161023
870.328	0.0162076
870.406	0.0162196
870.484	0.0160607
870.562	0.0162015
870.640	0.0161591
870.718	0.0160715
870.796	0.0161629
870.874	0.0161023
870.953	0.0160897
871.031	0.0162107
871.109	0.0160938
871.187	0.0160496
871.265	0.0161217
871.343	0.0159615
871.421	0.0160995
871.499	0.0161343
871.578	0.0160170
871.656	0.0159737
871.734	0.0159549
871.812	0.0160387
871.890	0.0159643
871.968	0.0160915
872.046	0.0160664
872.124	0.0160301
872.203	0.0159546
872.281	0.0160806
872.359	0.0160133
872.437	0.0160580
872.515	0.0160439
872.593	0.0160754
872.671	0.0160944
872.749	0.0160034
872.828	0.0162418
872.906	0.0161678
872.984	0.0161310
873.062	0.0159752
873.140	0.0160110
873.218	0.0160714
873.296	0.0161021
873.374	0.0160212
873.453	0.0160191
873.531	0.0160710
873.609	0.0161600
873.687	0.0161754
873.765	0.0160311
873.843	0.0162502
873.921	0.0162663
873.999	0.0162811
874.078	0.0160551
874.156	0.0160616
874.234	0.0161454
874.312	0.0160143
874.390	0.0160140
874.468	0.0160728
874.546	0.0161118
874.624	0.0160361
874.703	0.0160339
874.781	0.0159988
874.859	0.0160587
874.937	0.0160435
875.015	0.0160362
875.093	0.0160939
875.171	0.0160203
875.249	0.0160551
875.328	0.0159782
875.406	0.0161616
875.484	0.0159618
875.562	0.0159789
875.640	0.0161049
875.718	0.0160574
875.796	0.0161532
875.874	0.0160266
875.953	0.0161389
876.031	0.0161220
876.109	0.0162112
876.187	0.0161762
876.265	0.0161085
876.343	0.0161565
876.421	0.0162070
876.499	0.0161505
876.578	0.0160861
876.656	0.0161923
876.734	0.0161353
876.812	0.0159985
876.890	0.0160796
876.968	0.0160479
877.046	0.0159838
877.124	0.0159922
877.203	0.0160048
877.281	0.0160458
877.359	0.0159941
877.437	0.0160565
877.515	0.0158951
877.593	0.0159922
877.671	0.0162199
877.749	0.0161182
877.828	0.0160657
877.906	0.0160542
877.984	0.0160769
878.062	0.0161415
878.140	0.0162145
878.218	0.0162113
878.296	0.0161399
878.374	0.0161322
878.453	0.0161743
878.531	0.0160751
878.609	0.0161620
878.687	0.0162572
878.765	0.0161652
878.843	0.0161519
878.921	0.0160902
878.999	0.0160638
879.078	0.0161331
879.156	0.0159740
879.234	0.0159892
879.312	0.0160770
879.390	0.0160304
879.468	0.0161501
879.546	0.0161032
879.624	0.0160077
879.703	0.0160102
879.781	0.0161349
879.859	0.0160852
879.937	0.0160326
880.015	0.0160629
880.093	0.0160550
880.171	0.0161339
880.249	0.0160195
880.328	0.0161476
880.406	0.0163589
880.484	0.0161494
880.562	0.0161248
880.640	0.0162196
880.718	0.0162168
880.796	0.0162621
880.874	0.0162057
880.953	0.0162063
881.031	0.0163214
881.109	0.0161931
881.187	0.0161835
881.265	0.0163204
881.343	0.0162923
881.421	0.0164097
881.499	0.0163534
881.578	0.0162495
881.656	0.0163467
881.734	0.0163213
881.812	0.0162422
881.890	0.0162255
881.968	0.0161868
882.046	0.0160900
882.124	0.0161190
882.203	0.0159143
882.281	0.0158930
882.359	0.0159484
882.437	0.0160574
882.515	0.0159023
882.593	0.0159613
882.671	0.0159664
882.749	0.0159279
882.828	0.0158245
882.906	0.0159035
882.984	0.0161006
883.062	0.0159859
883.140	0.0159309
883.218	0.0159682
883.296	0.0160732
883.374	0.0160663
883.453	0.0160694
883.531	0.0160830
883.609	0.0159808
883.687	0.0159936
883.765	0.0160429
883.843	0.0160668
883.921	0.0159880
883.999	0.0159580
884.078	0.0159755
884.156	0.0160889
884.234	0.0161214
884.312	0.0161003
884.390	0.0160383
884.468	0.0159386
884.546	0.0160881
884.624	0.0160321
884.703	0.0160994
884.781	0.0161311
884.859	0.0160623
884.937	0.0160889
885.015	0.0161720
885.093	0.0160339
885.171	0.0160279
885.249	0.0161146
885.328	0.0159913
885.406	0.0160730
885.484	0.0161706
885.562	0.0159888
885.640	0.0159885
885.718	0.0158109
885.796	0.0160159
885.874	0.0160181
885.953	0.0159290
886.031	0.0159684
886.109	0.0161209
886.187	0.0160065
886.265	0.0160334
886.343	0.0161295
886.421	0.0160872
886.499	0.0159744
886.578	0.0159675
886.656	0.0160539
886.734	0.0160825
886.812	0.0159933
886.890	0.0160064
886.968	0.0160767
887.046	0.0161201
887.124	0.0160333
887.203	0.0160302
887.281	0.0160027
887.359	0.0159297
887.437	0.0158867
887.515	0.0160292
887.593	0.0158902
887.671	0.0160827
887.749	0.0160977
887.828	0.0160022
887.906	0.0160129
887.984	0.0161395
888.062	0.0160722
888.140	0.0160224
888.218	0.0160723
888.296	0.0160912
888.374	0.0160719
888.453	0.0160886
888.531	0.0162269
888.609	0.0161017
888.687	0.0160677
888.765	0.0160578
888.843	0.0161733
888.921	0.0163301
888.999	0.0160676
889.078	0.0160676
889.156	0.0161163
889.234	0.0160843
889.312	0.0160863
889.390	0.0160748
889.468	0.0161243
889.546	0.0161392
889.624	0.0161370
889.703	0.0160235
889.781	0.0160471
889.859	0.0160161
889.937	0.0160798
890.015	0.0162028
890.093	0.0160320
890.171	0.0158930
890.249	0.0159492
890.328	0.0159330
890.406	0.0160989
890.484	0.0161514
890.562	0.0158660
890.640	0.0159077
890.718	0.0160331
890.796	0.0160172
890.874	0.0159362
890.953	0.0158904
891.031	0.0160501
891.109	0.0160888
891.187	0.0159437
891.265	0.0159670
891.343	0.0159221
891.421	0.0161067
891.499	0.0158422
891.578	0.0159777
891.656	0.0159119
891.734	0.0159655
891.812	0.0160149
891.890	0.0157937
891.968	0.0158107
892.046	0.0159312
892.124	0.0159971
892.203	0.0158095
892.281	0.0159576
892.359	0.0159177
892.437	0.0159099
892.515	0.0159313
892.593	0.0159650
892.671	0.0161024
892.749	0.0159748
892.828	0.0160609
892.906	0.0160338
892.984	0.0160889
893.062	0.0161880
893.140	0.0161509
893.218	0.0161562
893.296	0.0160822
893.374	0.0162057
893.453	0.0163329
893.531	0.0162051
893.609	0.0160901
893.687	0.0162003
893.765	0.0163141
893.843	0.0161936
893.921	0.0162367
893.999	0.0162190
894.078	0.0161024
894.156	0.0161989
894.234	0.0162274
894.312	0.0161800
894.390	0.0161522
894.468	0.0160727
894.546	0.0161852
894.624	0.0161210
894.703	0.0160420
894.781	0.0160612
894.859	0.0160911
894.937	0.0160587
895.015	0.0160117
895.093	0.0159599
895.171	0.0160264
895.249	0.0159229
895.328	0.0159921
895.406	0.0159746
895.484	0.0159752
895.562	0.0160103
895.640	0.0161702
895.718	0.0161732
895.796	0.0161282
895.874	0.0160284
895.953	0.0159996
896.031	0.0161868
896.109	0.0161817
896.187	0.0161576
896.265	0.0162313
896.343	0.0161527
896.421	0.0161400
896.499	0.0160589
896.578	0.0161723
896.656	0.0160350
896.734	0.0161842
896.812	0.0160936
896.890	0.0161677
896.968	0.0162116
897.046	0.0161424
897.124	0.0160725
897.203	0.0161963
897.281	0.0161272
897.359	0.0160520
897.437	0.0161275
897.515	0.0161275
897.593	0.0160238
897.671	0.0160351
897.749	0.0160691
897.828	0.0160690
897.906	0.0160641
897.984	0.0161019
898.062	0.0160738
898.140	0.0160940
898.218	0.0161113
898.296	0.0161533
898.374	0.0162456
898.453	0.0161501
898.531	0.0161105
898.609	0.0161967
898.687	0.0163219
898.765	0.0162193
898.843	0.0161961
898.921	0.0162993
898.999	0.0163068
899.078	0.0162537
899.156	0.0161916
899.234	0.0162682
899.312	0.0161906
899.390	0.0161047
899.468	0.0159763
899.546	0.0161057
899.624	0.0160947
899.703	0.0160359
899.781	0.0159377
899.859	0.0159245
899.937	0.0160725
900.015	0.0160181
900.093	0.0160855
900.171	0.0159206
900.249	0.0159663
900.328	0.0160957
900.406	0.0159708
900.484	0.0159579
900.562	0.0160963
900.640	0.0159785
900.718	0.0161074
900.796	0.0160677
900.874	0.0160886
900.953	0.0160863
901.031	0.0161337
901.109	0.0162965
901.187	0.0163244
901.265	0.0160592
901.343	0.0160336
901.421	0.0162563
901.499	0.0161931
901.578	0.0163225
901.656	0.0161311
901.734	0.0164180
901.812	0.0162216
901.890	0.0162531
901.968	0.0161565
902.046	0.0161668
902.124	0.0161009
902.203	0.0161895
902.281	0.0162429
902.359	0.0161521
902.437	0.0161125
902.515	0.0160786
902.593	0.0161294
902.671	0.0160910
902.749	0.0161108
902.828	0.0161414
902.906	0.0160064
902.984	0.0160227
903.062	0.0160227
903.140	0.0159749
903.218	0.0159773
903.296	0.0160879
903.374	0.0159566
903.453	0.0160179
903.531	0.0158775
903.609	0.0160134
903.687	0.0160380
903.765	0.0161574
903.843	0.0162508
903.921	0.0161563
903.999	0.0162534
904.078	0.0162062
904.156	0.0161605
904.234	0.0163007
904.312	0.0161709
904.390	0.0161353
904.468	0.0160951
904.546	0.0161412
904.624	0.0161358
904.703	0.0161906
904.781	0.0162177
904.859	0.0161774
904.937	0.0162376
905.015	0.0163060
905.093	0.0161655
905.171	0.0162651
905.249	0.0161189
905.328	0.0160404
905.406	0.0160476
905.484	0.0160110
905.562	0.0160599
905.640	0.0158932
905.718	0.0160075
905.796	0.0160851
905.874	0.0159306
905.953	0.0158624
906.031	0.0159905
906.109	0.0159865
906.187	0.0161549
906.265	0.0159454
906.343	0.0160868
906.421	0.0160540
906.499	0.0160152
906.578	0.0160127
906.656	0.0159805
906.734	0.0159255
906.812	0.0161224
906.890	0.0161221
906.968	0.0162103
907.046	0.0162630
907.124	0.0161392
907.203	0.0160587
907.281	0.0161003
907.359	0.0160231
907.437	0.0160837
907.515	0.0162454
907.593	0.0162084
907.671	0.0160241
907.749	0.0159601
907.828	0.0159583
907.906	0.0159586
907.984	0.0161153
908.062	0.0160941
908.140	0.0161465
908.218	0.0160439
908.296	0.0160622
908.374	0.0160998
908.453	0.0158587
908.531	0.0159856
908.609	0.0159818
908.687	0.0158518
908.765	0.0158774
908.843	0.0160129
908.921	0.0159912
908.999	0.0159725
909.078	0.0161308
909.156	0.0161185
909.234	0.0159595
909.312	0.0158600
909.390	0.0160437
909.468	0.0160098
909.546	0.0160086
909.624	0.0160738
909.703	0.0160300
909.781	0.0160046
909.859	0.0158485
909.937	0.0159727
910.015	0.0159457
910.093	0.0159895
910.171	0.0158920
910.249	0.0159864
910.328	0.0159862
910.406	0.0158612
910.484	0.0158449
910.562	0.0158963
910.640	0.0160348
910.718	0.0157975
910.796	0.0158833
910.874	0.0158564
910.953	0.0158327
911.031	0.0159286
911.109	0.0159304
911.187	0.0159033
911.265	0.0157884
911.343	0.0157745
911.421	0.0159065
911.499	0.0159460
911.578	0.0159686
911.656	0.0160629
911.734	0.0158469
911.812	0.0158737
911.890	0.0160251
911.968	0.0159560
912.046	0.0159818
912.124	0.0160085
912.203	0.0159315
912.281	0.0160310
912.359	0.0159340
912.437	0.0159196
912.515	0.0160053
912.593	0.0161143
912.671	0.0160483
912.749	0.0161514
912.828	0.0160791
912.906	0.0160013
912.984	0.0160819
913.062	0.0161858
913.140	0.0160804
913.218	0.0159539
913.296	0.0160594
913.374	0.0161794
913.453	0.0161308
913.531	0.0160630
913.609	0.0160343
913.687	0.0160973
913.765	0.0161884
913.843	0.0160512
913.921	0.0160474
913.999	0.0160235
914.078	0.0161168
914.156	0.0161201
914.234	0.0161615
914.312	0.0161820
914.390	0.0161244
914.468	0.0160779
914.546	0.0159332
914.624	0.0160599
914.703	0.0159998
914.781	0.0160220
914.859	0.0160137
914.937	0.0160654
915.015	0.0160339
915.093	0.0159145
915.171	0.0159653
915.249	0.0159271
915.328	0.0158900
915.406	0.0159822
915.484	0.0159622
915.562	0.0160060
915.640	0.0160328
915.718	0.0161327
915.796	0.0159894
915.874	0.0159908
915.953	0.0160719
916.031	0.0161085
916.109	0.0161580
916.187	0.0161192
916.265	0.0161282
916.343	0.0161225
916.421	0.0160993
916.499	0.0162222
916.578	0.0161283
916.656	0.0160317
916.734	0.0161794
916.812	0.0162123
916.890	0.0161275
916.968	0.0161490
917.046	0.0162698
917.124	0.0162975
917.203	0.0161089
917.281	0.0161905
917.359	0.0161530
917.437	0.0162338
917.515	0.0161866
917.593	0.0161275
917.671	0.0159796
917.749	0.0159785
917.828	0.0162120
917.906	0.0161364
917.984	0.0161230
918.062	0.0160506
918.140	0.0161710
918.218	0.0160886
918.296	0.0161686
918.374	0.0161037
918.453	0.0160745
918.531	0.0161592
918.609	0.0161546
918.687	0.0160163
918.765	0.0161334
918.843	0.0161832
918.921	0.0163003
918.999	0.0161224
919.078	0.0161362
919.156	0.0162732
919.234	0.0161240
919.312	0.0161002
919.390	0.0160685
919.468	0.0162683
919.546	0.0162029
919.624	0.0161975
919.703	0.0161843
919.781	0.0160899
919.859	0.0161417
919.937	0.0161784
