06/10/2022	19:00:15	Ver.	4.1	UNKNOWN
Optical Delay	600.015094	Delta X		0.078125	Sweeps	1	Scan Rate	0/0
Coordinates	Axis 1	NaN	Axis 2	NaN	Axis 3	NaN	Axis 4	NaN	Axis 5	NaN	Axis 6	0.000000
TX Power	0.000000	RX Power	0.000000

600.015	0.0156889
600.093	0.0157198
600.171	0.0157933
600.249	0.0157920
600.328	0.0158811
600.406	0.0156836
600.484	0.0158298
600.562	0.0157612
600.640	0.0157842
600.718	0.0157895
600.796	0.0158232
600.874	0.0158621
600.953	0.0158095
601.031	0.0157150
601.109	0.0158212
601.187	0.0157444
601.265	0.0158527
601.343	0.0157244
601.421	0.0156558
601.499	0.0156927
601.578	0.0158239
601.656	0.0157760
601.734	0.0157912
601.812	0.0156878
601.890	0.0156804
601.968	0.0156854
602.046	0.0157693
602.124	0.0157032
602.203	0.0158202
602.281	0.0156025
602.359	0.0156834
602.437	0.0156409
602.515	0.0156796
602.593	0.0157351
602.671	0.0158090
602.749	0.0158270
602.828	0.0157387
602.906	0.0156607
602.984	0.0157121
603.062	0.0157597
603.140	0.0157120
603.218	0.0156125
603.296	0.0156666
603.374	0.0156693
603.453	0.0156947
603.531	0.0157152
603.609	0.0156707
603.687	0.0157139
603.765	0.0156510
603.843	0.0157849
603.921	0.0157361
603.999	0.0156961
604.078	0.0156241
604.156	0.0158095
604.234	0.0157446
604.312	0.0158451
604.390	0.0157933
604.468	0.0156580
604.546	0.0156853
604.624	0.0156867
604.703	0.0157311
604.781	0.0157395
604.859	0.0157850
604.937	0.0157240
605.015	0.0158027
605.093	0.0157285
605.171	0.0157363
605.249	0.0158363
605.328	0.0158533
605.406	0.0157056
605.484	0.0157848
605.562	0.0157333
605.640	0.0157452
605.718	0.0158334
605.796	0.0157784
605.874	0.0157307
605.953	0.0157981
606.031	0.0157993
606.109	0.0159100
606.187	0.0157732
606.265	0.0158082
606.343	0.0157043
606.421	0.0157114
606.499	0.0158711
606.578	0.0157935
606.656	0.0157559
606.734	0.0156317
606.812	0.0157780
606.890	0.0158180
606.968	0.0158516
607.046	0.0156990
607.124	0.0158031
607.203	0.0157011
607.281	0.0157512
607.359	0.0158273
607.437	0.0157401
607.515	0.0159570
607.593	0.0157547
607.671	0.0157475
607.749	0.0157079
607.828	0.0157880
607.906	0.0158058
607.984	0.0158115
608.062	0.0158641
608.140	0.0157468
608.218	0.0158556
608.296	0.0157198
608.374	0.0157525
608.453	0.0157790
608.531	0.0156914
608.609	0.0157375
608.687	0.0156282
608.765	0.0157900
608.843	0.0158202
608.921	0.0157812
608.999	0.0157343
609.078	0.0157804
609.156	0.0158286
609.234	0.0158764
609.312	0.0158194
609.390	0.0158875
609.468	0.0157655
609.546	0.0157856
609.624	0.0159008
609.703	0.0157508
609.781	0.0158253
609.859	0.0158003
609.937	0.0157163
610.015	0.0157713
610.093	0.0159202
610.171	0.0158869
610.249	0.0156868
610.328	0.0156500
610.406	0.0157977
610.484	0.0157159
610.562	0.0156698
610.640	0.0157910
610.718	0.0156159
610.796	0.0157398
610.874	0.0157965
610.953	0.0157375
611.031	0.0157365
611.109	0.0158149
611.187	0.0157216
611.265	0.0157266
611.343	0.0157446
611.421	0.0157877
611.499	0.0157504
611.578	0.0157686
611.656	0.0157150
611.734	0.0157955
611.812	0.0157765
611.890	0.0156969
611.968	0.0156274
612.046	0.0156997
612.124	0.0158701
612.203	0.0157215
612.281	0.0157990
612.359	0.0157708
612.437	0.0156966
612.515	0.0156266
612.593	0.0158846
612.671	0.0157381
612.749	0.0158073
612.828	0.0158836
612.906	0.0157252
612.984	0.0158028
613.062	0.0158132
613.140	0.0159254
613.218	0.0157996
613.296	0.0157331
613.374	0.0157257
613.453	0.0158020
613.531	0.0157169
613.609	0.0156377
613.687	0.0157374
613.765	0.0158183
613.843	0.0156056
613.921	0.0159097
613.999	0.0158475
614.078	0.0158939
614.156	0.0158302
614.234	0.0157519
614.312	0.0157855
614.390	0.0159116
614.468	0.0157366
614.546	0.0157854
614.624	0.0158347
614.703	0.0157819
614.781	0.0158376
614.859	0.0158205
614.937	0.0157200
615.015	0.0158117
615.093	0.0159090
615.171	0.0158183
615.249	0.0157606
615.328	0.0158538
615.406	0.0157795
615.484	0.0156662
615.562	0.0157523
615.640	0.0157635
615.718	0.0158347
615.796	0.0157742
615.874	0.0157168
615.953	0.0157743
616.031	0.0157269
616.109	0.0156396
616.187	0.0157532
616.265	0.0158201
616.343	0.0157853
616.421	0.0158302
616.499	0.0157455
616.578	0.0157580
616.656	0.0158072
616.734	0.0155981
616.812	0.0155972
616.890	0.0157318
616.968	0.0156330
617.046	0.0158722
617.124	0.0158117
617.203	0.0156519
617.281	0.0157622
617.359	0.0158704
617.437	0.0158172
617.515	0.0157156
617.593	0.0157100
617.671	0.0157101
617.749	0.0158070
617.828	0.0157592
617.906	0.0158408
617.984	0.0156458
618.062	0.0158212
618.140	0.0157957
618.218	0.0157632
618.296	0.0158907
618.374	0.0156783
618.453	0.0157333
618.531	0.0158195
618.609	0.0158440
618.687	0.0156989
618.765	0.0157532
618.843	0.0157946
618.921	0.0158470
618.999	0.0157045
619.078	0.0158701
619.156	0.0157574
619.234	0.0156765
619.312	0.0157086
619.390	0.0157368
619.468	0.0156406
619.546	0.0157169
619.624	0.0157100
619.703	0.0157308
619.781	0.0156932
619.859	0.0157606
619.937	0.0158054
620.015	0.0156754
620.093	0.0157849
620.171	0.0157664
620.249	0.0155878
620.328	0.0157841
620.406	0.0157925
620.484	0.0156606
620.562	0.0157628
620.640	0.0157659
620.718	0.0158720
620.796	0.0157238
620.874	0.0156734
620.953	0.0157676
621.031	0.0156690
621.109	0.0156797
621.187	0.0156085
621.265	0.0156828
621.343	0.0158881
621.421	0.0158030
621.499	0.0157726
621.578	0.0156621
621.656	0.0156693
621.734	0.0157471
621.812	0.0156496
621.890	0.0156734
621.968	0.0157835
622.046	0.0157948
622.124	0.0157227
622.203	0.0157428
622.281	0.0156901
622.359	0.0156400
622.437	0.0157229
622.515	0.0155483
622.593	0.0156439
622.671	0.0157433
622.749	0.0156262
622.828	0.0157358
622.906	0.0156882
622.984	0.0155866
623.062	0.0157384
623.140	0.0157571
623.218	0.0157349
623.296	0.0156070
623.374	0.0156506
623.453	0.0156384
623.531	0.0157658
623.609	0.0157327
623.687	0.0156978
623.765	0.0156457
623.843	0.0156049
623.921	0.0156498
623.999	0.0157770
624.078	0.0156187
624.156	0.0156068
624.234	0.0157923
624.312	0.0156534
624.390	0.0156532
624.468	0.0156976
624.546	0.0156743
624.624	0.0158496
624.703	0.0156538
624.781	0.0157683
624.859	0.0158138
624.937	0.0157157
625.015	0.0157012
625.093	0.0155814
625.171	0.0157037
625.249	0.0154652
625.328	0.0155620
625.406	0.0158410
625.484	0.0157404
625.562	0.0156913
625.640	0.0156098
625.718	0.0156882
625.796	0.0156946
625.874	0.0156229
625.953	0.0156490
626.031	0.0156588
626.109	0.0156460
626.187	0.0156613
626.265	0.0156052
626.343	0.0157702
626.421	0.0156685
626.499	0.0156448
626.578	0.0156969
626.656	0.0157384
626.734	0.0157050
626.812	0.0156343
626.890	0.0156866
626.968	0.0155453
627.046	0.0156255
627.124	0.0156131
627.203	0.0155766
627.281	0.0156657
627.359	0.0156691
627.437	0.0156032
627.515	0.0157642
627.593	0.0157526
627.671	0.0155759
627.749	0.0157818
627.828	0.0157100
627.906	0.0156143
627.984	0.0157236
628.062	0.0156465
628.140	0.0157009
628.218	0.0156484
628.296	0.0156661
628.374	0.0157305
628.453	0.0156873
628.531	0.0157367
628.609	0.0158654
628.687	0.0156422
628.765	0.0157013
628.843	0.0158380
628.921	0.0156641
628.999	0.0158076
629.078	0.0157352
629.156	0.0157171
629.234	0.0157291
629.312	0.0156174
629.390	0.0157693
629.468	0.0157812
629.546	0.0157153
629.624	0.0157037
629.703	0.0157095
629.781	0.0157227
629.859	0.0156966
629.937	0.0157816
630.015	0.0156960
630.093	0.0157239
630.171	0.0156515
630.249	0.0158786
630.328	0.0157437
630.406	0.0158257
630.484	0.0158134
630.562	0.0156788
630.640	0.0156549
630.718	0.0157229
630.796	0.0159535
630.874	0.0159099
630.953	0.0157163
631.031	0.0157557
631.109	0.0158311
631.187	0.0158488
631.265	0.0156848
631.343	0.0157892
631.421	0.0159726
631.499	0.0157581
631.578	0.0158514
631.656	0.0157829
631.734	0.0156782
631.812	0.0158017
631.890	0.0158291
631.968	0.0158040
632.046	0.0159458
632.124	0.0158611
632.203	0.0158051
632.281	0.0157779
632.359	0.0158203
632.437	0.0158398
632.515	0.0159352
632.593	0.0159203
632.671	0.0159128
632.749	0.0157387
632.828	0.0159249
632.906	0.0159364
632.984	0.0158260
633.062	0.0157587
633.140	0.0157995
633.218	0.0158360
633.296	0.0158206
633.374	0.0159995
633.453	0.0158662
633.531	0.0158720
633.609	0.0159982
633.687	0.0159079
633.765	0.0158192
633.843	0.0157295
633.921	0.0158440
633.999	0.0160963
634.078	0.0159199
634.156	0.0158047
634.234	0.0158407
634.312	0.0158995
634.390	0.0156627
634.468	0.0158930
634.546	0.0157909
634.624	0.0158144
634.703	0.0158495
634.781	0.0159141
634.859	0.0157984
634.937	0.0156757
635.015	0.0158502
635.093	0.0156973
635.171	0.0157513
635.249	0.0158432
635.328	0.0156897
635.406	0.0157838
635.484	0.0157896
635.562	0.0156379
635.640	0.0157433
635.718	0.0157961
635.796	0.0158509
635.874	0.0157162
635.953	0.0156038
636.031	0.0157976
636.109	0.0157205
636.187	0.0158568
636.265	0.0157504
636.343	0.0158207
636.421	0.0158525
636.499	0.0157756
636.578	0.0158157
636.656	0.0157786
636.734	0.0158199
636.812	0.0157850
636.890	0.0157649
636.968	0.0158145
637.046	0.0156299
637.124	0.0156989
637.203	0.0159131
637.281	0.0155759
637.359	0.0158131
637.437	0.0157671
637.515	0.0157466
637.593	0.0156293
637.671	0.0156845
637.749	0.0157318
637.828	0.0157962
637.906	0.0159597
637.984	0.0158379
638.062	0.0156332
638.140	0.0156776
638.218	0.0156275
638.296	0.0157322
638.374	0.0158948
638.453	0.0158292
638.531	0.0158379
638.609	0.0157837
638.687	0.0157676
638.765	0.0156829
638.843	0.0157608
638.921	0.0158204
638.999	0.0157816
639.078	0.0157741
639.156	0.0158453
639.234	0.0157475
639.312	0.0158025
639.390	0.0158681
639.468	0.0157578
639.546	0.0158496
639.624	0.0157836
639.703	0.0157063
639.781	0.0159393
639.859	0.0158637
639.937	0.0158020
640.015	0.0157151
640.093	0.0157130
640.171	0.0159161
640.249	0.0159074
640.328	0.0156815
640.406	0.0157716
640.484	0.0158888
640.562	0.0158961
640.640	0.0158046
640.718	0.0157813
640.796	0.0157724
640.874	0.0157919
640.953	0.0158098
641.031	0.0157412
641.109	0.0157487
641.187	0.0156911
641.265	0.0157603
641.343	0.0159387
641.421	0.0157316
641.499	0.0157946
641.578	0.0159113
641.656	0.0157405
641.734	0.0157262
641.812	0.0157192
641.890	0.0158645
641.968	0.0159482
642.046	0.0158228
642.124	0.0157858
642.203	0.0156761
642.281	0.0158501
642.359	0.0158936
642.437	0.0157835
642.515	0.0157546
642.593	0.0158019
642.671	0.0157825
642.749	0.0158187
642.828	0.0156857
642.906	0.0157630
642.984	0.0158237
643.062	0.0157973
643.140	0.0158368
643.218	0.0157394
643.296	0.0156853
643.374	0.0158115
643.453	0.0157994
643.531	0.0157533
643.609	0.0157901
643.687	0.0157107
643.765	0.0156175
643.843	0.0157948
643.921	0.0158416
643.999	0.0157452
644.078	0.0157606
644.156	0.0158447
644.234	0.0159396
644.312	0.0158543
644.390	0.0157658
644.468	0.0159106
644.546	0.0158392
644.624	0.0157272
644.703	0.0158104
644.781	0.0158056
644.859	0.0158054
644.937	0.0158426
645.015	0.0157507
645.093	0.0157409
645.171	0.0157832
645.249	0.0156979
645.328	0.0158710
645.406	0.0159930
645.484	0.0157328
645.562	0.0156857
645.640	0.0157507
645.718	0.0158473
645.796	0.0157626
645.874	0.0158255
645.953	0.0157586
646.031	0.0158674
646.109	0.0158400
646.187	0.0158530
646.265	0.0158238
646.343	0.0157167
646.421	0.0156229
646.499	0.0158739
646.578	0.0158633
646.656	0.0157118
646.734	0.0158276
646.812	0.0159232
646.890	0.0157720
646.968	0.0158192
647.046	0.0157707
647.124	0.0157171
647.203	0.0157671
647.281	0.0159236
647.359	0.0157079
647.437	0.0157491
647.515	0.0158404
647.593	0.0158101
647.671	0.0157465
647.749	0.0157371
647.828	0.0157873
647.906	0.0158532
647.984	0.0158527
648.062	0.0158160
648.140	0.0156542
648.218	0.0157519
648.296	0.0158130
648.374	0.0157555
648.453	0.0157243
648.531	0.0157546
648.609	0.0156520
648.687	0.0156947
648.765	0.0155962
648.843	0.0156650
648.921	0.0158192
648.999	0.0155673
649.078	0.0155733
649.156	0.0156424
649.234	0.0155795
649.312	0.0154767
649.390	0.0155878
649.468	0.0155895
649.546	0.0155747
649.624	0.0155480
649.703	0.0155378
649.781	0.0156288
649.859	0.0155616
649.937	0.0154865
650.015	0.0156486
650.093	0.0156433
650.171	0.0155286
650.249	0.0155785
650.328	0.0156392
650.406	0.0157559
650.484	0.0158327
650.562	0.0156106
650.640	0.0155961
650.718	0.0157515
650.796	0.0158251
650.874	0.0158100
650.953	0.0155350
651.031	0.0157233
651.109	0.0156139
651.187	0.0157969
651.265	0.0156916
651.343	0.0157286
651.421	0.0155344
651.499	0.0157393
651.578	0.0155873
651.656	0.0155668
651.734	0.0157340
651.812	0.0156547
651.890	0.0156980
651.968	0.0156377
652.046	0.0157542
652.124	0.0157072
652.203	0.0156494
652.281	0.0156005
652.359	0.0155228
652.437	0.0156775
652.515	0.0157724
652.593	0.0156596
652.671	0.0157727
652.749	0.0158637
652.828	0.0157660
652.906	0.0158164
652.984	0.0156905
653.062	0.0156277
653.140	0.0157362
653.218	0.0157836
653.296	0.0158315
653.374	0.0157985
653.453	0.0157980
653.531	0.0157446
653.609	0.0155640
653.687	0.0156734
653.765	0.0157514
653.843	0.0156613
653.921	0.0158088
653.999	0.0156996
654.078	0.0157173
654.156	0.0156805
654.234	0.0157453
654.312	0.0157345
654.390	0.0157800
654.468	0.0156940
654.546	0.0156140
654.624	0.0155547
654.703	0.0155824
654.781	0.0155856
654.859	0.0157148
654.937	0.0156831
655.015	0.0158021
655.093	0.0157969
655.171	0.0156676
655.249	0.0157316
655.328	0.0156049
655.406	0.0156503
655.484	0.0157293
655.562	0.0158277
655.640	0.0157573
655.718	0.0157935
655.796	0.0158791
655.874	0.0158958
655.953	0.0157910
656.031	0.0157353
656.109	0.0158006
656.187	0.0156940
656.265	0.0157969
656.343	0.0158450
656.421	0.0157692
656.499	0.0157981
656.578	0.0157903
656.656	0.0157743
656.734	0.0158801
656.812	0.0158472
656.890	0.0159422
656.968	0.0158796
657.046	0.0157391
657.124	0.0157414
657.203	0.0158649
657.281	0.0158713
657.359	0.0158685
657.437	0.0157197
657.515	0.0158123
657.593	0.0158662
657.671	0.0157538
657.749	0.0157425
657.828	0.0159126
657.906	0.0156879
657.984	0.0157727
658.062	0.0158522
658.140	0.0159219
658.218	0.0158001
658.296	0.0158706
658.374	0.0158022
658.453	0.0157377
658.531	0.0158331
658.609	0.0157301
658.687	0.0158268
658.765	0.0159734
658.843	0.0157920
658.921	0.0158110
658.999	0.0157721
659.078	0.0158720
659.156	0.0158097
659.234	0.0158234
659.312	0.0158187
659.390	0.0158599
659.468	0.0158257
659.546	0.0158987
659.624	0.0157707
659.703	0.0157447
659.781	0.0158770
659.859	0.0158978
659.937	0.0157781
660.015	0.0158945
660.093	0.0158808
660.171	0.0158524
660.249	0.0158605
660.328	0.0158372
660.406	0.0157589
660.484	0.0158437
660.562	0.0158849
660.640	0.0158349
660.718	0.0157758
660.796	0.0158144
660.874	0.0158253
660.953	0.0158121
661.031	0.0156305
661.109	0.0158211
661.187	0.0157854
661.265	0.0157555
661.343	0.0158813
661.421	0.0159511
661.499	0.0157589
661.578	0.0158169
661.656	0.0157885
661.734	0.0157492
661.812	0.0158067
661.890	0.0158102
661.968	0.0157181
662.046	0.0158338
662.124	0.0159217
662.203	0.0157554
662.281	0.0158112
662.359	0.0158611
662.437	0.0158228
662.515	0.0159130
662.593	0.0158723
662.671	0.0158120
662.749	0.0158690
662.828	0.0158006
662.906	0.0158865
662.984	0.0157726
663.062	0.0157352
663.140	0.0159694
663.218	0.0158909
663.296	0.0156402
663.374	0.0157545
663.453	0.0158092
663.531	0.0158277
663.609	0.0159006
663.687	0.0158051
663.765	0.0159129
663.843	0.0158518
663.921	0.0157826
663.999	0.0157232
664.078	0.0159402
664.156	0.0159148
664.234	0.0157880
664.312	0.0159954
664.390	0.0159459
664.468	0.0159109
664.546	0.0157357
664.624	0.0159036
664.703	0.0158749
664.781	0.0158645
664.859	0.0157624
664.937	0.0158104
665.015	0.0158440
665.093	0.0158877
665.171	0.0158036
665.249	0.0158807
665.328	0.0158731
665.406	0.0157558
665.484	0.0157021
665.562	0.0158274
665.640	0.0157842
665.718	0.0158009
665.796	0.0156855
665.874	0.0156796
665.953	0.0157948
666.031	0.0157126
666.109	0.0157353
666.187	0.0156497
666.265	0.0157225
666.343	0.0157760
666.421	0.0158031
666.499	0.0157565
666.578	0.0157682
666.656	0.0157082
666.734	0.0158008
666.812	0.0157513
666.890	0.0157759
666.968	0.0156590
667.046	0.0158100
667.124	0.0158107
667.203	0.0157870
667.281	0.0157500
667.359	0.0157606
667.437	0.0157518
667.515	0.0158072
667.593	0.0158270
667.671	0.0158075
667.749	0.0158354
667.828	0.0157705
667.906	0.0159225
667.984	0.0156834
668.062	0.0158202
668.140	0.0158645
668.218	0.0158019
668.296	0.0156567
668.374	0.0157826
668.453	0.0158105
668.531	0.0158109
668.609	0.0157139
668.687	0.0157892
668.765	0.0158251
668.843	0.0158662
668.921	0.0158221
668.999	0.0157976
669.078	0.0158086
669.156	0.0158462
669.234	0.0156012
669.312	0.0159686
669.390	0.0157629
669.468	0.0156973
669.546	0.0158928
669.624	0.0158109
669.703	0.0156618
669.781	0.0158028
669.859	0.0158040
669.937	0.0157790
670.015	0.0157676
670.093	0.0158775
670.171	0.0157596
670.249	0.0157848
670.328	0.0157711
670.406	0.0157354
670.484	0.0157281
670.562	0.0156969
670.640	0.0157934
670.718	0.0158575
670.796	0.0159831
670.874	0.0156387
670.953	0.0155841
671.031	0.0157646
671.109	0.0158695
671.187	0.0157277
671.265	0.0156950
671.343	0.0157861
671.421	0.0157041
671.499	0.0158266
671.578	0.0157317
671.656	0.0158443
671.734	0.0156765
671.812	0.0157188
671.890	0.0156551
671.968	0.0158321
672.046	0.0157483
672.124	0.0158515
672.203	0.0157839
672.281	0.0157018
672.359	0.0157483
672.437	0.0158953
672.515	0.0156649
672.593	0.0157233
672.671	0.0157369
672.749	0.0158214
672.828	0.0157211
672.906	0.0156345
672.984	0.0156957
673.062	0.0156978
673.140	0.0156548
673.218	0.0157832
673.296	0.0157103
673.374	0.0157425
673.453	0.0157370
673.531	0.0157094
673.609	0.0155724
673.687	0.0157276
673.765	0.0157364
673.843	0.0156786
673.921	0.0157397
673.999	0.0158027
674.078	0.0156337
674.156	0.0156087
674.234	0.0155771
674.312	0.0156774
674.390	0.0157134
674.468	0.0157655
674.546	0.0156026
674.624	0.0155328
674.703	0.0155915
674.781	0.0157163
674.859	0.0156550
674.937	0.0157408
675.015	0.0156633
675.093	0.0154762
675.171	0.0156470
675.249	0.0157441
675.328	0.0155632
675.406	0.0154890
675.484	0.0156555
675.562	0.0156297
675.640	0.0156866
675.718	0.0156063
675.796	0.0156673
675.874	0.0155518
675.953	0.0156024
676.031	0.0156826
676.109	0.0155450
676.187	0.0155724
676.265	0.0154884
676.343	0.0156098
676.421	0.0156080
676.499	0.0155863
676.578	0.0156517
676.656	0.0156270
676.734	0.0156737
676.812	0.0156123
676.890	0.0156948
676.968	0.0155940
677.046	0.0156013
677.124	0.0156551
677.203	0.0155334
677.281	0.0155870
677.359	0.0155385
677.437	0.0155263
677.515	0.0156381
677.593	0.0155483
677.671	0.0156278
677.749	0.0156620
677.828	0.0155186
677.906	0.0156857
677.984	0.0157252
678.062	0.0155087
678.140	0.0155854
678.218	0.0155607
678.296	0.0155271
678.374	0.0156763
678.453	0.0155515
678.531	0.0155779
678.609	0.0155944
678.687	0.0156639
678.765	0.0154893
678.843	0.0155499
678.921	0.0156194
678.999	0.0158543
679.078	0.0156490
679.156	0.0156572
679.234	0.0156121
679.312	0.0155618
679.390	0.0155364
679.468	0.0156076
679.546	0.0155194
679.624	0.0155249
679.703	0.0157774
679.781	0.0155624
679.859	0.0156104
679.937	0.0156499
680.015	0.0156295
680.093	0.0156551
680.171	0.0155865
680.249	0.0158259
680.328	0.0157479
680.406	0.0155726
680.484	0.0156632
680.562	0.0157693
680.640	0.0157045
680.718	0.0157143
680.796	0.0156692
680.874	0.0157726
680.953	0.0156663
681.031	0.0158256
681.109	0.0157109
681.187	0.0157777
681.265	0.0157421
681.343	0.0157499
681.421	0.0158009
681.499	0.0156988
681.578	0.0158491
681.656	0.0156847
681.734	0.0157703
681.812	0.0156522
681.890	0.0158191
681.968	0.0158049
682.046	0.0157442
682.124	0.0158086
682.203	0.0158617
682.281	0.0158169
682.359	0.0157691
682.437	0.0156618
682.515	0.0159084
682.593	0.0158807
682.671	0.0157028
682.749	0.0158532
682.828	0.0158012
682.906	0.0158575
682.984	0.0157522
683.062	0.0158125
683.140	0.0159274
683.218	0.0159062
683.296	0.0157950
683.374	0.0157668
683.453	0.0158360
683.531	0.0158049
683.609	0.0157890
683.687	0.0159782
683.765	0.0159759
683.843	0.0157928
683.921	0.0158817
683.999	0.0157980
684.078	0.0159391
684.156	0.0158980
684.234	0.0159384
684.312	0.0160162
684.390	0.0159553
684.468	0.0159670
684.546	0.0158708
684.624	0.0160228
684.703	0.0159012
684.781	0.0158951
684.859	0.0158234
684.937	0.0158278
685.015	0.0160003
685.093	0.0158574
685.171	0.0157726
685.249	0.0158356
685.328	0.0158182
685.406	0.0158489
685.484	0.0159221
685.562	0.0157055
685.640	0.0158008
685.718	0.0159122
685.796	0.0158333
685.874	0.0159372
685.953	0.0158943
686.031	0.0159435
686.109	0.0157474
686.187	0.0158855
686.265	0.0157906
686.343	0.0157437
686.421	0.0159340
686.499	0.0158808
686.578	0.0158041
686.656	0.0158886
686.734	0.0158398
686.812	0.0159235
686.890	0.0158387
686.968	0.0158074
687.046	0.0159111
687.124	0.0159275
687.203	0.0160258
687.281	0.0159557
687.359	0.0159336
687.437	0.0157800
687.515	0.0157297
687.593	0.0158462
687.671	0.0158776
687.749	0.0158685
687.828	0.0160216
687.906	0.0159528
687.984	0.0158490
688.062	0.0157493
688.140	0.0158657
688.218	0.0159792
688.296	0.0157090
688.374	0.0158109
688.453	0.0157407
688.531	0.0158369
688.609	0.0159628
688.687	0.0158227
688.765	0.0158370
688.843	0.0157650
688.921	0.0158205
688.999	0.0157933
689.078	0.0157626
689.156	0.0158511
689.234	0.0158457
689.312	0.0158637
689.390	0.0157687
689.468	0.0156303
689.546	0.0157713
689.624	0.0156963
689.703	0.0156956
689.781	0.0157304
689.859	0.0157816
689.937	0.0158079
690.015	0.0157704
690.093	0.0156910
690.171	0.0157960
690.249	0.0157540
690.328	0.0157584
690.406	0.0156423
690.484	0.0157861
690.562	0.0157346
690.640	0.0158560
690.718	0.0157392
690.796	0.0158113
690.874	0.0158121
690.953	0.0157732
691.031	0.0159760
691.109	0.0158895
691.187	0.0158832
691.265	0.0158389
691.343	0.0157574
691.421	0.0158997
691.499	0.0157532
691.578	0.0158190
691.656	0.0157449
691.734	0.0157972
691.812	0.0157645
691.890	0.0157443
691.968	0.0156496
692.046	0.0158091
692.124	0.0158314
692.203	0.0156076
692.281	0.0157768
692.359	0.0157121
692.437	0.0156810
692.515	0.0156573
692.593	0.0156423
692.671	0.0156667
692.749	0.0156474
692.828	0.0156947
692.906	0.0157585
692.984	0.0157242
693.062	0.0157056
693.140	0.0157781
693.218	0.0156928
693.296	0.0155894
693.374	0.0159596
693.453	0.0157506
693.531	0.0157044
693.609	0.0156470
693.687	0.0156571
693.765	0.0157777
693.843	0.0156571
693.921	0.0156892
693.999	0.0158904
694.078	0.0156087
694.156	0.0157315
694.234	0.0155810
694.312	0.0156676
694.390	0.0157681
694.468	0.0158268
694.546	0.0158637
694.624	0.0156188
694.703	0.0156602
694.781	0.0157330
694.859	0.0158074
694.937	0.0157577
695.015	0.0156739
695.093	0.0157695
695.171	0.0157653
695.249	0.0157163
695.328	0.0156530
695.406	0.0155835
695.484	0.0156991
695.562	0.0156017
695.640	0.0156918
695.718	0.0156408
695.796	0.0156590
695.874	0.0157471
695.953	0.0157326
696.031	0.0156944
696.109	0.0156973
696.187	0.0156548
696.265	0.0156087
696.343	0.0155993
696.421	0.0155666
696.499	0.0156496
696.578	0.0155932
696.656	0.0154879
696.734	0.0157101
696.812	0.0157420
696.890	0.0155442
696.968	0.0156953
697.046	0.0157731
697.124	0.0157068
697.203	0.0155100
697.281	0.0155444
697.359	0.0156207
697.437	0.0156231
697.515	0.0157256
697.593	0.0155573
697.671	0.0154922
697.749	0.0155111
697.828	0.0156627
697.906	0.0156223
697.984	0.0155335
698.062	0.0155176
698.140	0.0156463
698.218	0.0157159
698.296	0.0156432
698.374	0.0156018
698.453	0.0156145
698.531	0.0156844
698.609	0.0156121
698.687	0.0155872
698.765	0.0156857
698.843	0.0156596
698.921	0.0156006
698.999	0.0157184
699.078	0.0157181
699.156	0.0156196
699.234	0.0156820
699.312	0.0158609
699.390	0.0157201
699.468	0.0155299
699.546	0.0156418
699.624	0.0156835
699.703	0.0156258
699.781	0.0157677
699.859	0.0156107
699.937	0.0156721
700.015	0.0155947
700.093	0.0156660
700.171	0.0156931
700.249	0.0156520
700.328	0.0157314
700.406	0.0157658
700.484	0.0157518
700.562	0.0157573
700.640	0.0157201
700.718	0.0154686
700.796	0.0156628
700.874	0.0156808
700.953	0.0157297
701.031	0.0157014
701.109	0.0156871
701.187	0.0155172
701.265	0.0156693
701.343	0.0156291
701.421	0.0154996
701.499	0.0156287
701.578	0.0155664
701.656	0.0155498
701.734	0.0157161
701.812	0.0157415
701.890	0.0156382
701.968	0.0156285
702.046	0.0157253
702.124	0.0156465
702.203	0.0157223
702.281	0.0157551
702.359	0.0156479
702.437	0.0155768
702.515	0.0156005
702.593	0.0157581
702.671	0.0156670
702.749	0.0156484
702.828	0.0156733
702.906	0.0157467
702.984	0.0156477
703.062	0.0156023
703.140	0.0157195
703.218	0.0155615
703.296	0.0157082
703.374	0.0156043
703.453	0.0156510
703.531	0.0157089
703.609	0.0156032
703.687	0.0157132
703.765	0.0156622
703.843	0.0158720
703.921	0.0156937
703.999	0.0156893
704.078	0.0156786
704.156	0.0159607
704.234	0.0156106
704.312	0.0157840
704.390	0.0157519
704.468	0.0158178
704.546	0.0156335
704.624	0.0159320
704.703	0.0158371
704.781	0.0156183
704.859	0.0157162
704.937	0.0157772
705.015	0.0157741
705.093	0.0156532
705.171	0.0157330
705.249	0.0158273
705.328	0.0157401
705.406	0.0158173
705.484	0.0157635
705.562	0.0157579
705.640	0.0157297
705.718	0.0158685
705.796	0.0158382
705.874	0.0157538
705.953	0.0158246
706.031	0.0157262
706.109	0.0157377
706.187	0.0157352
706.265	0.0156981
706.343	0.0157121
706.421	0.0157745
706.499	0.0157050
706.578	0.0156840
706.656	0.0158683
706.734	0.0158230
706.812	0.0157010
706.890	0.0157565
706.968	0.0157215
707.046	0.0157829
707.124	0.0158211
707.203	0.0156307
707.281	0.0157209
707.359	0.0157765
707.437	0.0157172
707.515	0.0158635
707.593	0.0157493
707.671	0.0158076
707.749	0.0158232
707.828	0.0157407
707.906	0.0157658
707.984	0.0156238
708.062	0.0157153
708.140	0.0158266
708.218	0.0157347
708.296	0.0157510
708.374	0.0158101
708.453	0.0157382
708.531	0.0156940
708.609	0.0158360
708.687	0.0158171
708.765	0.0157542
708.843	0.0159153
708.921	0.0158271
708.999	0.0157201
709.078	0.0157547
709.156	0.0158868
709.234	0.0158404
709.312	0.0158189
709.390	0.0158340
709.468	0.0158434
709.546	0.0158774
709.624	0.0157301
709.703	0.0156921
709.781	0.0157822
709.859	0.0157130
709.937	0.0157913
710.015	0.0158746
710.093	0.0158994
710.171	0.0158217
710.249	0.0159564
710.328	0.0159573
710.406	0.0157297
710.484	0.0159237
710.562	0.0159771
710.640	0.0157669
710.718	0.0159035
710.796	0.0159443
710.874	0.0158013
710.953	0.0159789
711.031	0.0159055
711.109	0.0157693
711.187	0.0158817
711.265	0.0161082
711.343	0.0159241
711.421	0.0159254
711.499	0.0158706
711.578	0.0158508
711.656	0.0159275
711.734	0.0158190
711.812	0.0159283
711.890	0.0158926
711.968	0.0158318
712.046	0.0159009
712.124	0.0158651
712.203	0.0158904
712.281	0.0157769
712.359	0.0159913
712.437	0.0159716
712.515	0.0157568
712.593	0.0158984
712.671	0.0159082
712.749	0.0159660
712.828	0.0158537
712.906	0.0158875
712.984	0.0159505
713.062	0.0160174
713.140	0.0158927
713.218	0.0158173
713.296	0.0159408
713.374	0.0157213
713.453	0.0158483
713.531	0.0158049
713.609	0.0157625
713.687	0.0158127
713.765	0.0159556
713.843	0.0158624
713.921	0.0156590
713.999	0.0158854
714.078	0.0159109
714.156	0.0159000
714.234	0.0158149
714.312	0.0159184
714.390	0.0159104
714.468	0.0158204
714.546	0.0159008
714.624	0.0159186
714.703	0.0158591
714.781	0.0159566
714.859	0.0158770
714.937	0.0158150
715.015	0.0158369
715.093	0.0159241
715.171	0.0159702
715.249	0.0156732
715.328	0.0157485
715.406	0.0158711
715.484	0.0157624
715.562	0.0158598
715.640	0.0157367
715.718	0.0157275
715.796	0.0157962
715.874	0.0158388
715.953	0.0160017
716.031	0.0156586
716.109	0.0158236
716.187	0.0157117
716.265	0.0158673
716.343	0.0156881
716.421	0.0157589
716.499	0.0157603
716.578	0.0158286
716.656	0.0158185
716.734	0.0158328
716.812	0.0158515
716.890	0.0158273
716.968	0.0157598
717.046	0.0157115
717.124	0.0157748
717.203	0.0159480
717.281	0.0158023
717.359	0.0157204
717.437	0.0157576
717.515	0.0156815
717.593	0.0157596
717.671	0.0157681
717.749	0.0157423
717.828	0.0157041
717.906	0.0157159
717.984	0.0156708
718.062	0.0157777
718.140	0.0157000
718.218	0.0157964
718.296	0.0158003
718.374	0.0157363
718.453	0.0156333
718.531	0.0157327
718.609	0.0158764
718.687	0.0156259
718.765	0.0157085
718.843	0.0156631
718.921	0.0157523
718.999	0.0158481
719.078	0.0157747
719.156	0.0156927
719.234	0.0157282
719.312	0.0157288
719.390	0.0155930
719.468	0.0157434
719.546	0.0156979
719.624	0.0157581
719.703	0.0158571
719.781	0.0158670
719.859	0.0156205
719.937	0.0156702
720.015	0.0158638
720.093	0.0157764
720.171	0.0157894
720.249	0.0157191
720.328	0.0158866
720.406	0.0156577
720.484	0.0157891
720.562	0.0158057
720.640	0.0158652
720.718	0.0157533
720.796	0.0157146
720.874	0.0157774
720.953	0.0157243
721.031	0.0156326
721.109	0.0155752
721.187	0.0156707
721.265	0.0155919
721.343	0.0156947
721.421	0.0157068
721.499	0.0157516
721.578	0.0156500
721.656	0.0156523
721.734	0.0156031
721.812	0.0157207
721.890	0.0156391
721.968	0.0156399
722.046	0.0157652
722.124	0.0155844
722.203	0.0156580
722.281	0.0157404
722.359	0.0157564
722.437	0.0156239
722.515	0.0156487
722.593	0.0156512
722.671	0.0156901
722.749	0.0157316
722.828	0.0156125
722.906	0.0157267
722.984	0.0157420
723.062	0.0157142
723.140	0.0156486
723.218	0.0155298
723.296	0.0156903
723.374	0.0157789
723.453	0.0154754
723.531	0.0156190
723.609	0.0157287
723.687	0.0157044
723.765	0.0154762
723.843	0.0155894
723.921	0.0156470
723.999	0.0155697
724.078	0.0155796
724.156	0.0156971
724.234	0.0155884
724.312	0.0156215
724.390	0.0156669
724.468	0.0157548
724.546	0.0156183
724.624	0.0157037
724.703	0.0155814
724.781	0.0156257
724.859	0.0155669
724.937	0.0155698
725.015	0.0155640
725.093	0.0158093
725.171	0.0157352
725.249	0.0157552
725.328	0.0156454
725.406	0.0156850
725.484	0.0157502
725.562	0.0156580
725.640	0.0156587
725.718	0.0156989
725.796	0.0155849
725.874	0.0157320
725.953	0.0157953
726.031	0.0156108
726.109	0.0157806
726.187	0.0156846
726.265	0.0156988
726.343	0.0158145
726.421	0.0157407
726.499	0.0157037
726.578	0.0156248
726.656	0.0157622
726.734	0.0156953
726.812	0.0156311
726.890	0.0157274
726.968	0.0157204
727.046	0.0157784
727.124	0.0156786
727.203	0.0157038
727.281	0.0157336
727.359	0.0157980
727.437	0.0157681
727.515	0.0157818
727.593	0.0157600
727.671	0.0158006
727.749	0.0157491
727.828	0.0157397
727.906	0.0157222
727.984	0.0158035
728.062	0.0157875
728.140	0.0157529
728.218	0.0157455
728.296	0.0157342
728.374	0.0157730
728.453	0.0158176
728.531	0.0158639
728.609	0.0158057
728.687	0.0158730
728.765	0.0158059
728.843	0.0158074
728.921	0.0158823
728.999	0.0156807
729.078	0.0157428
729.156	0.0158085
729.234	0.0157799
729.312	0.0158093
729.390	0.0158602
729.468	0.0157454
729.546	0.0157132
729.624	0.0158509
729.703	0.0157212
729.781	0.0158398
729.859	0.0157618
729.937	0.0157484
730.015	0.0156603
730.093	0.0157326
730.171	0.0158371
730.249	0.0158298
730.328	0.0158277
730.406	0.0156338
730.484	0.0157574
730.562	0.0157682
730.640	0.0158143
730.718	0.0156910
730.796	0.0156784
730.874	0.0158697
730.953	0.0158529
731.031	0.0158703
731.109	0.0159254
731.187	0.0158375
731.265	0.0157774
731.343	0.0159203
731.421	0.0158033
731.499	0.0157384
731.578	0.0158349
731.656	0.0158511
731.734	0.0156794
731.812	0.0158691
731.890	0.0158743
731.968	0.0157848
732.046	0.0159561
732.124	0.0157424
732.203	0.0157607
732.281	0.0157423
732.359	0.0157801
732.437	0.0157791
732.515	0.0158699
732.593	0.0158615
732.671	0.0158644
732.749	0.0159235
732.828	0.0158002
732.906	0.0159165
732.984	0.0158431
733.062	0.0158858
733.140	0.0158412
733.218	0.0159489
733.296	0.0158926
733.374	0.0157138
733.453	0.0158531
733.531	0.0159153
733.609	0.0158233
733.687	0.0157832
733.765	0.0158010
733.843	0.0157666
733.921	0.0159317
733.999	0.0158348
734.078	0.0157457
734.156	0.0157658
734.234	0.0157928
734.312	0.0159288
734.390	0.0157865
734.468	0.0160071
734.546	0.0157664
734.624	0.0157993
734.703	0.0158845
734.781	0.0158379
734.859	0.0158557
734.937	0.0159621
735.015	0.0158918
735.093	0.0159910
735.171	0.0157864
735.249	0.0158601
735.328	0.0158482
735.406	0.0157747
735.484	0.0158469
735.562	0.0158100
735.640	0.0159307
735.718	0.0156733
735.796	0.0158005
735.874	0.0158955
735.953	0.0157608
736.031	0.0157668
736.109	0.0158625
736.187	0.0157757
736.265	0.0158028
736.343	0.0157171
736.421	0.0158630
736.499	0.0158111
736.578	0.0158028
736.656	0.0158679
736.734	0.0158684
736.812	0.0158976
736.890	0.0157243
736.968	0.0156962
737.046	0.0157109
737.124	0.0159087
737.203	0.0157915
737.281	0.0157979
737.359	0.0158697
737.437	0.0156736
737.515	0.0158102
737.593	0.0158060
737.671	0.0157893
737.749	0.0157788
737.828	0.0157549
737.906	0.0157652
737.984	0.0158584
738.062	0.0158528
738.140	0.0157026
738.218	0.0157919
738.296	0.0158945
738.374	0.0157594
738.453	0.0157549
738.531	0.0158715
738.609	0.0157251
738.687	0.0156924
738.765	0.0157989
738.843	0.0158541
738.921	0.0159239
738.999	0.0157594
739.078	0.0156393
739.156	0.0158706
739.234	0.0158323
739.312	0.0158517
739.390	0.0157249
739.468	0.0158000
739.546	0.0157601
739.624	0.0157587
739.703	0.0158662
739.781	0.0158217
739.859	0.0158710
739.937	0.0157392
740.015	0.0157840
740.093	0.0158125
740.171	0.0158295
740.249	0.0158418
740.328	0.0157932
740.406	0.0158168
740.484	0.0157884
740.562	0.0157915
740.640	0.0158472
740.718	0.0158205
740.796	0.0158112
740.874	0.0158308
740.953	0.0158587
741.031	0.0158143
741.109	0.0156828
741.187	0.0159093
741.265	0.0157437
741.343	0.0158098
741.421	0.0159023
741.499	0.0157553
741.578	0.0157291
741.656	0.0157211
741.734	0.0157239
741.812	0.0157815
741.890	0.0158470
741.968	0.0157712
742.046	0.0156398
742.124	0.0157327
742.203	0.0157369
742.281	0.0156673
742.359	0.0158443
742.437	0.0157173
742.515	0.0157384
742.593	0.0156411
742.671	0.0157934
742.749	0.0158691
742.828	0.0158181
742.906	0.0156886
742.984	0.0156401
743.062	0.0158092
743.140	0.0158339
743.218	0.0156396
743.296	0.0156282
743.374	0.0157483
743.453	0.0156787
743.531	0.0156163
743.609	0.0156793
743.687	0.0156118
743.765	0.0155484
743.843	0.0156259
743.921	0.0157338
743.999	0.0157285
744.078	0.0158082
744.156	0.0156703
744.234	0.0156496
744.312	0.0156918
744.390	0.0158316
744.468	0.0157081
744.546	0.0155327
744.624	0.0157785
744.703	0.0156632
744.781	0.0157062
744.859	0.0157363
744.937	0.0157552
745.015	0.0158373
745.093	0.0157217
745.171	0.0158115
745.249	0.0158623
745.328	0.0157841
745.406	0.0157287
745.484	0.0157519
745.562	0.0157753
745.640	0.0158378
745.718	0.0158105
745.796	0.0156497
745.874	0.0157626
745.953	0.0158467
746.031	0.0158068
746.109	0.0157644
746.187	0.0157970
746.265	0.0158339
746.343	0.0156892
746.421	0.0158366
746.499	0.0158218
746.578	0.0157422
746.656	0.0157505
746.734	0.0158053
746.812	0.0157851
746.890	0.0158150
746.968	0.0158962
747.046	0.0158180
747.124	0.0156806
747.203	0.0156821
747.281	0.0157172
747.359	0.0157343
747.437	0.0157108
747.515	0.0156591
747.593	0.0155966
747.671	0.0157286
747.749	0.0157913
747.828	0.0156738
747.906	0.0156545
747.984	0.0155635
748.062	0.0157078
748.140	0.0154688
748.218	0.0156621
748.296	0.0157874
748.374	0.0154998
748.453	0.0155462
748.531	0.0156444
748.609	0.0155406
748.687	0.0155357
748.765	0.0157038
748.843	0.0157945
748.921	0.0156059
748.999	0.0156095
749.078	0.0157397
749.156	0.0157178
749.234	0.0158018
749.312	0.0159515
749.390	0.0157990
749.468	0.0156925
749.546	0.0158662
749.624	0.0159083
749.703	0.0158062
749.781	0.0157287
749.859	0.0159464
749.937	0.0157780
750.015	0.0155314
750.093	0.0157105
750.171	0.0156388
750.249	0.0156460
750.328	0.0156414
750.406	0.0157147
750.484	0.0155721
750.562	0.0155251
750.640	0.0157336
750.718	0.0156944
750.796	0.0157191
750.874	0.0157813
750.953	0.0158886
751.031	0.0159267
751.109	0.0158281
751.187	0.0159002
751.265	0.0156547
751.343	0.0156718
751.421	0.0158266
751.499	0.0158054
751.578	0.0157347
751.656	0.0156458
751.734	0.0156786
751.812	0.0157267
751.890	0.0156738
751.968	0.0156345
752.046	0.0157210
752.124	0.0157835
752.203	0.0155902
752.281	0.0157433
752.359	0.0155441
752.437	0.0156538
752.515	0.0156284
752.593	0.0156281
752.671	0.0156581
752.749	0.0156991
752.828	0.0156059
752.906	0.0156773
752.984	0.0155727
753.062	0.0156176
753.140	0.0158118
753.218	0.0156496
753.296	0.0156212
753.374	0.0154416
753.453	0.0154567
753.531	0.0156471
753.609	0.0155714
753.687	0.0155345
753.765	0.0156171
753.843	0.0155738
753.921	0.0155618
753.999	0.0155925
754.078	0.0156758
754.156	0.0156533
754.234	0.0155882
754.312	0.0156131
754.390	0.0155960
754.468	0.0157466
754.546	0.0156608
754.624	0.0157788
754.703	0.0158258
754.781	0.0157573
754.859	0.0158023
754.937	0.0157041
755.015	0.0157756
755.093	0.0158319
755.171	0.0157655
755.249	0.0158172
755.328	0.0157275
755.406	0.0158028
755.484	0.0156115
755.562	0.0157193
755.640	0.0158756
755.718	0.0156958
755.796	0.0156312
755.874	0.0156351
755.953	0.0157196
756.031	0.0158292
756.109	0.0157690
756.187	0.0157442
756.265	0.0156368
756.343	0.0156343
756.421	0.0156964
756.499	0.0157919
756.578	0.0156863
756.656	0.0156573
756.734	0.0156843
756.812	0.0156951
756.890	0.0157741
756.968	0.0158180
757.046	0.0157848
757.124	0.0158652
757.203	0.0157613
757.281	0.0156446
757.359	0.0158583
757.437	0.0156705
757.515	0.0156519
757.593	0.0156564
757.671	0.0158285
757.749	0.0157825
757.828	0.0157853
757.906	0.0158487
757.984	0.0158320
758.062	0.0157856
758.140	0.0158982
758.218	0.0158682
758.296	0.0158299
758.374	0.0158740
758.453	0.0159490
758.531	0.0158851
758.609	0.0157691
758.687	0.0157659
758.765	0.0158125
758.843	0.0158616
758.921	0.0158321
758.999	0.0157201
759.078	0.0157767
759.156	0.0157880
759.234	0.0158720
759.312	0.0159058
759.390	0.0158334
759.468	0.0156469
759.546	0.0158220
759.624	0.0158501
759.703	0.0158739
759.781	0.0158405
759.859	0.0158712
759.937	0.0157808
760.015	0.0158329
760.093	0.0157546
760.171	0.0156871
760.249	0.0157069
760.328	0.0157277
760.406	0.0156833
760.484	0.0156773
760.562	0.0156347
760.640	0.0156332
760.718	0.0157988
760.796	0.0157221
760.874	0.0157359
760.953	0.0156187
761.031	0.0156747
761.109	0.0156052
761.187	0.0157244
761.265	0.0158149
761.343	0.0157761
761.421	0.0157903
761.499	0.0158135
761.578	0.0158028
761.656	0.0159561
761.734	0.0158636
761.812	0.0158763
761.890	0.0160587
761.968	0.0160117
762.046	0.0160022
762.124	0.0160964
762.203	0.0159877
762.281	0.0159876
762.359	0.0160336
762.437	0.0159707
762.515	0.0158850
762.593	0.0158092
762.671	0.0159100
762.749	0.0158978
762.828	0.0158380
762.906	0.0158404
762.984	0.0158412
763.062	0.0158372
763.140	0.0157437
763.218	0.0158272
763.296	0.0157935
763.374	0.0158440
763.453	0.0158392
763.531	0.0157707
763.609	0.0158171
763.687	0.0157205
763.765	0.0157880
763.843	0.0157436
763.921	0.0156352
763.999	0.0156848
764.078	0.0156279
764.156	0.0156231
764.234	0.0155840
764.312	0.0155035
764.390	0.0155515
764.468	0.0156153
764.546	0.0155698
764.624	0.0154568
764.703	0.0157062
764.781	0.0156168
764.859	0.0155241
764.937	0.0156709
765.015	0.0156540
765.093	0.0156011
765.171	0.0156461
765.249	0.0156336
765.328	0.0156843
765.406	0.0157401
765.484	0.0158522
765.562	0.0156480
765.640	0.0155779
765.718	0.0158440
765.796	0.0158494
765.874	0.0157881
765.953	0.0157993
766.031	0.0158079
766.109	0.0158086
766.187	0.0158042
766.265	0.0159696
766.343	0.0158819
766.421	0.0159315
766.499	0.0159177
766.578	0.0159681
766.656	0.0159389
766.734	0.0159762
766.812	0.0160000
766.890	0.0159447
766.968	0.0158417
767.046	0.0159061
767.124	0.0159227
767.203	0.0160314
767.281	0.0159181
767.359	0.0160179
767.437	0.0159218
767.515	0.0159671
767.593	0.0159571
767.671	0.0159857
767.749	0.0161191
767.828	0.0159801
767.906	0.0159361
767.984	0.0160394
768.062	0.0158254
768.140	0.0157834
768.218	0.0156691
768.296	0.0155990
768.374	0.0155796
768.453	0.0155364
768.531	0.0154309
768.609	0.0154442
768.687	0.0154927
768.765	0.0155077
768.843	0.0154800
768.921	0.0153999
768.999	0.0153645
769.078	0.0154086
769.156	0.0154948
769.234	0.0156388
769.312	0.0155690
769.390	0.0154552
769.468	0.0154117
769.546	0.0154203
769.624	0.0156240
769.703	0.0156149
769.781	0.0156636
769.859	0.0156982
769.937	0.0158574
770.015	0.0156901
770.093	0.0156895
770.171	0.0158035
770.249	0.0157918
770.328	0.0158771
770.406	0.0159418
770.484	0.0159079
770.562	0.0157912
770.640	0.0159431
770.718	0.0159118
770.796	0.0159857
770.874	0.0161298
770.953	0.0158418
771.031	0.0159166
771.109	0.0158849
771.187	0.0157520
771.265	0.0158723
771.343	0.0159294
771.421	0.0160494
771.499	0.0159312
771.578	0.0157730
771.656	0.0158474
771.734	0.0157774
771.812	0.0157237
771.890	0.0156783
771.968	0.0154770
772.046	0.0156674
772.124	0.0155221
772.203	0.0155125
772.281	0.0154020
772.359	0.0155771
772.437	0.0155153
772.515	0.0154322
772.593	0.0154174
772.671	0.0154539
772.749	0.0155402
772.828	0.0156423
772.906	0.0155910
772.984	0.0156482
773.062	0.0156995
773.140	0.0157398
773.218	0.0157207
773.296	0.0156069
773.374	0.0156943
773.453	0.0156209
773.531	0.0156936
773.609	0.0156380
773.687	0.0155016
773.765	0.0156102
773.843	0.0157355
773.921	0.0156361
773.999	0.0155151
774.078	0.0156449
774.156	0.0157131
774.234	0.0158247
774.312	0.0156963
774.390	0.0158143
774.468	0.0155968
774.546	0.0156026
774.624	0.0155228
774.703	0.0156255
774.781	0.0154144
774.859	0.0153337
774.937	0.0155101
775.015	0.0155116
775.093	0.0157316
775.171	0.0155869
775.249	0.0156144
775.328	0.0158057
775.406	0.0158899
775.484	0.0159020
775.562	0.0158794
775.640	0.0159173
775.718	0.0160632
775.796	0.0158485
775.874	0.0158563
775.953	0.0161894
776.031	0.0160111
776.109	0.0158529
776.187	0.0158647
776.265	0.0159486
776.343	0.0159189
776.421	0.0157449
776.499	0.0157519
776.578	0.0158205
776.656	0.0158464
776.734	0.0158046
776.812	0.0155907
776.890	0.0157172
776.968	0.0155176
777.046	0.0154930
777.124	0.0154814
777.203	0.0154202
777.281	0.0153922
777.359	0.0153542
777.437	0.0153273
777.515	0.0153526
777.593	0.0153427
777.671	0.0151804
777.749	0.0152450
777.828	0.0155230
777.906	0.0154381
777.984	0.0153396
778.062	0.0154079
778.140	0.0155148
778.218	0.0154001
778.296	0.0156597
778.374	0.0156574
778.453	0.0157767
778.531	0.0158321
778.609	0.0158746
778.687	0.0159051
778.765	0.0159595
778.843	0.0158864
778.921	0.0159652
778.999	0.0160047
779.078	0.0159542
779.156	0.0159628
779.234	0.0159113
779.312	0.0159514
779.390	0.0158489
779.468	0.0157442
779.546	0.0159071
779.624	0.0157317
779.703	0.0157666
779.781	0.0157965
779.859	0.0156843
779.937	0.0157220
780.015	0.0157515
780.093	0.0157243
780.171	0.0158553
780.249	0.0155958
780.328	0.0157725
780.406	0.0158241
780.484	0.0158099
780.562	0.0157772
780.640	0.0158684
780.718	0.0157996
780.796	0.0156183
780.874	0.0156820
780.953	0.0157471
781.031	0.0158092
781.109	0.0158377
781.187	0.0159285
781.265	0.0157651
781.343	0.0157110
781.421	0.0158184
781.499	0.0156643
781.578	0.0156726
781.656	0.0157172
781.734	0.0157127
781.812	0.0155968
781.890	0.0156114
781.968	0.0156010
782.046	0.0156065
782.124	0.0154942
782.203	0.0154292
782.281	0.0155769
782.359	0.0156248
782.437	0.0153632
782.515	0.0154398
782.593	0.0154315
782.671	0.0153609
782.749	0.0153565
782.828	0.0153330
782.906	0.0153588
782.984	0.0153965
783.062	0.0154691
783.140	0.0153687
783.218	0.0154848
783.296	0.0156684
783.374	0.0157011
783.453	0.0157876
783.531	0.0157743
783.609	0.0158245
783.687	0.0159861
783.765	0.0160414
783.843	0.0161119
783.921	0.0161230
783.999	0.0162018
784.078	0.0161574
784.156	0.0161834
784.234	0.0161862
784.312	0.0163574
784.390	0.0162434
784.468	0.0160986
784.546	0.0163599
784.624	0.0162026
784.703	0.0161060
784.781	0.0160262
784.859	0.0162560
784.937	0.0161096
785.015	0.0161604
785.093	0.0161413
785.171	0.0160649
785.249	0.0160326
785.328	0.0160233
785.406	0.0159729
785.484	0.0158658
785.562	0.0158533
785.640	0.0157721
785.718	0.0156454
785.796	0.0157510
785.874	0.0156522
785.953	0.0155939
786.031	0.0155144
786.109	0.0156695
786.187	0.0156023
786.265	0.0155033
786.343	0.0156938
786.421	0.0156138
786.499	0.0156596
786.578	0.0156387
786.656	0.0156111
786.734	0.0155341
786.812	0.0156409
786.890	0.0155912
786.968	0.0155777
787.046	0.0154981
787.124	0.0156228
787.203	0.0156989
787.281	0.0157131
787.359	0.0156194
787.437	0.0155563
787.515	0.0157454
787.593	0.0157405
787.671	0.0157699
787.749	0.0157831
787.828	0.0158748
787.906	0.0160699
787.984	0.0160575
788.062	0.0162019
788.140	0.0162931
788.218	0.0162482
788.296	0.0162550
788.374	0.0162598
788.453	0.0162686
788.531	0.0162624
788.609	0.0163428
788.687	0.0161652
788.765	0.0160688
788.843	0.0160587
788.921	0.0159736
788.999	0.0159386
789.078	0.0159145
789.156	0.0158643
789.234	0.0158921
789.312	0.0157587
789.390	0.0156838
789.468	0.0157014
789.546	0.0158334
789.624	0.0157698
789.703	0.0157434
789.781	0.0154680
789.859	0.0156315
789.937	0.0156480
790.015	0.0154699
790.093	0.0157199
790.171	0.0156347
790.249	0.0156106
790.328	0.0156119
790.406	0.0154460
790.484	0.0155181
790.562	0.0155227
790.640	0.0152847
790.718	0.0155132
790.796	0.0154786
790.874	0.0156264
790.953	0.0155594
791.031	0.0156001
791.109	0.0154365
791.187	0.0156313
791.265	0.0156584
791.343	0.0156655
791.421	0.0157395
791.499	0.0157670
791.578	0.0157885
791.656	0.0158636
791.734	0.0158913
791.812	0.0158170
791.890	0.0158955
791.968	0.0158862
792.046	0.0160603
792.124	0.0160275
792.203	0.0160076
792.281	0.0160149
792.359	0.0159808
792.437	0.0161929
792.515	0.0160393
792.593	0.0160210
792.671	0.0159688
792.749	0.0160516
792.828	0.0161060
792.906	0.0161091
792.984	0.0161266
793.062	0.0160153
793.140	0.0160223
793.218	0.0159209
793.296	0.0158358
793.374	0.0157305
793.453	0.0157838
793.531	0.0156583
793.609	0.0156618
793.687	0.0155265
793.765	0.0155439
793.843	0.0154751
793.921	0.0154617
793.999	0.0154192
794.078	0.0153407
794.156	0.0153642
794.234	0.0151960
794.312	0.0153570
794.390	0.0152604
794.468	0.0152682
794.546	0.0153436
794.624	0.0153962
794.703	0.0154184
794.781	0.0154603
794.859	0.0154641
794.937	0.0156666
795.015	0.0157235
795.093	0.0155963
795.171	0.0155047
795.249	0.0156159
795.328	0.0157155
795.406	0.0157540
795.484	0.0158151
795.562	0.0158286
795.640	0.0158159
795.718	0.0158882
795.796	0.0158592
795.874	0.0158831
795.953	0.0159289
796.031	0.0158871
796.109	0.0159771
796.187	0.0159683
796.265	0.0160155
796.343	0.0161101
796.421	0.0161492
796.499	0.0162514
796.578	0.0162678
796.656	0.0160838
796.734	0.0161477
796.812	0.0163297
796.890	0.0162835
796.968	0.0163761
797.046	0.0163646
797.124	0.0163489
797.203	0.0162537
797.281	0.0162458
797.359	0.0161460
797.437	0.0162280
797.515	0.0162544
797.593	0.0159702
797.671	0.0157801
797.749	0.0156722
797.828	0.0159457
797.906	0.0157213
797.984	0.0154327
798.062	0.0154646
798.140	0.0154768
798.218	0.0153431
798.296	0.0152558
798.374	0.0153802
798.453	0.0153156
798.531	0.0152078
798.609	0.0153331
798.687	0.0153100
798.765	0.0152438
798.843	0.0155022
798.921	0.0154939
798.999	0.0154556
799.078	0.0156193
799.156	0.0155202
799.234	0.0156718
799.312	0.0155761
799.390	0.0157384
799.468	0.0157893
799.546	0.0158195
799.624	0.0158955
799.703	0.0159311
799.781	0.0159678
799.859	0.0160001
799.937	0.0160490
800.015	0.0161715
800.093	0.0161153
800.171	0.0160896
800.249	0.0161022
800.328	0.0161411
800.406	0.0159698
800.484	0.0161675
800.562	0.0161923
800.640	0.0161444
800.718	0.0161274
800.796	0.0161228
800.874	0.0161036
800.953	0.0159287
801.031	0.0159811
801.109	0.0157769
801.187	0.0159049
801.265	0.0157718
801.343	0.0158205
801.421	0.0158850
801.499	0.0156956
801.578	0.0156526
801.656	0.0156502
801.734	0.0156307
801.812	0.0155060
801.890	0.0157556
801.968	0.0154338
802.046	0.0154745
802.124	0.0155430
802.203	0.0155563
802.281	0.0155991
802.359	0.0156131
802.437	0.0154580
802.515	0.0155812
802.593	0.0155676
802.671	0.0158254
802.749	0.0156181
802.828	0.0155315
802.906	0.0156356
802.984	0.0156480
803.062	0.0156167
803.140	0.0156344
803.218	0.0156649
803.296	0.0156843
803.374	0.0156666
803.453	0.0156144
803.531	0.0156264
803.609	0.0156905
803.687	0.0158031
803.765	0.0158823
803.843	0.0158059
803.921	0.0157302
803.999	0.0159328
804.078	0.0159862
804.156	0.0158128
804.234	0.0159074
804.312	0.0160670
804.390	0.0159148
804.468	0.0159971
804.546	0.0160902
804.624	0.0159807
804.703	0.0159216
804.781	0.0159600
804.859	0.0159874
804.937	0.0160537
805.015	0.0160919
805.093	0.0159408
805.171	0.0159341
805.249	0.0158938
805.328	0.0161625
805.406	0.0160636
805.484	0.0157925
805.562	0.0158163
805.640	0.0157378
805.718	0.0156711
805.796	0.0156486
805.874	0.0155712
805.953	0.0153111
806.031	0.0153654
806.109	0.0155627
806.187	0.0154794
806.265	0.0152573
806.343	0.0153262
806.421	0.0152795
806.499	0.0152586
806.578	0.0153405
806.656	0.0155127
806.734	0.0154115
806.812	0.0153737
806.890	0.0154788
806.968	0.0154861
807.046	0.0155714
807.124	0.0155896
807.203	0.0155615
807.281	0.0156113
807.359	0.0156989
807.437	0.0157737
807.515	0.0157241
807.593	0.0160141
807.671	0.0159644
807.749	0.0160740
807.828	0.0160751
807.906	0.0160260
807.984	0.0161051
808.062	0.0159594
808.140	0.0161109
808.218	0.0160543
808.296	0.0161634
808.374	0.0162051
808.453	0.0161845
808.531	0.0161575
808.609	0.0162355
808.687	0.0161227
808.765	0.0161164
808.843	0.0160961
808.921	0.0160401
808.999	0.0158380
809.078	0.0159821
809.156	0.0158943
809.234	0.0157154
809.312	0.0158839
809.390	0.0157060
809.468	0.0156207
809.546	0.0155598
809.624	0.0155882
809.703	0.0155868
809.781	0.0155167
809.859	0.0155524
809.937	0.0153687
810.015	0.0152175
810.093	0.0152770
810.171	0.0152789
810.249	0.0152679
810.328	0.0152906
810.406	0.0152382
810.484	0.0154436
810.562	0.0155955
810.640	0.0155651
810.718	0.0154305
810.796	0.0155463
810.874	0.0156572
810.953	0.0157150
811.031	0.0156812
811.109	0.0158350
811.187	0.0157887
811.265	0.0157536
811.343	0.0158631
811.421	0.0159445
811.499	0.0158282
811.578	0.0158337
811.656	0.0159269
811.734	0.0159050
811.812	0.0160297
811.890	0.0159420
811.968	0.0157494
812.046	0.0158174
812.124	0.0158984
812.203	0.0159087
812.281	0.0157115
812.359	0.0158250
812.437	0.0158457
812.515	0.0157595
812.593	0.0157861
812.671	0.0158635
812.749	0.0157166
812.828	0.0157275
812.906	0.0157999
812.984	0.0157767
813.062	0.0156562
813.140	0.0157858
813.218	0.0155472
813.296	0.0157697
813.374	0.0156546
813.453	0.0156386
813.531	0.0156271
813.609	0.0156883
813.687	0.0157706
813.765	0.0157719
813.843	0.0157421
813.921	0.0159437
813.999	0.0156908
814.078	0.0156408
814.156	0.0158044
814.234	0.0157303
814.312	0.0156126
814.390	0.0157584
814.468	0.0157330
814.546	0.0155629
814.624	0.0154659
814.703	0.0154137
814.781	0.0154454
814.859	0.0155862
814.937	0.0154592
815.015	0.0153722
815.093	0.0156116
815.171	0.0157555
815.249	0.0157583
815.328	0.0157101
815.406	0.0158427
815.484	0.0158212
815.562	0.0159285
815.640	0.0160543
815.718	0.0161269
815.796	0.0160410
815.874	0.0161856
815.953	0.0161617
816.031	0.0160867
816.109	0.0161777
816.187	0.0162535
816.265	0.0161790
816.343	0.0160004
816.421	0.0160052
816.499	0.0158860
816.578	0.0158986
816.656	0.0158730
816.734	0.0158595
816.812	0.0157215
816.890	0.0157583
816.968	0.0157131
817.046	0.0156323
817.124	0.0156013
817.203	0.0157353
817.281	0.0156697
817.359	0.0157162
817.437	0.0156631
817.515	0.0157079
817.593	0.0156198
817.671	0.0154506
817.749	0.0155566
817.828	0.0155223
817.906	0.0154279
817.984	0.0154459
818.062	0.0154250
818.140	0.0153796
818.218	0.0153305
818.296	0.0153856
818.374	0.0154130
818.453	0.0154242
818.531	0.0156319
818.609	0.0157027
818.687	0.0156185
818.765	0.0154967
818.843	0.0157571
818.921	0.0157739
818.999	0.0159310
819.078	0.0158823
819.156	0.0160256
819.234	0.0161256
819.312	0.0159796
819.390	0.0160684
819.468	0.0159782
819.546	0.0159555
819.624	0.0162048
819.703	0.0161221
819.781	0.0160637
819.859	0.0161106
819.937	0.0161265
820.015	0.0160425
820.093	0.0161086
820.171	0.0161291
820.249	0.0160321
820.328	0.0160886
820.406	0.0159235
820.484	0.0160142
820.562	0.0159121
820.640	0.0159482
820.718	0.0158437
820.796	0.0157894
820.874	0.0158766
820.953	0.0157208
821.031	0.0155542
821.109	0.0156234
821.187	0.0155754
821.265	0.0156320
821.343	0.0155357
821.421	0.0154733
821.499	0.0155280
821.578	0.0153182
821.656	0.0154366
821.734	0.0155588
821.812	0.0155204
821.890	0.0155132
821.968	0.0155476
822.046	0.0155753
822.124	0.0155248
822.203	0.0154886
822.281	0.0155138
822.359	0.0156587
822.437	0.0157635
822.515	0.0156726
822.593	0.0157415
822.671	0.0158239
822.749	0.0159856
822.828	0.0160705
822.906	0.0159874
822.984	0.0159960
823.062	0.0162173
823.140	0.0162254
823.218	0.0162055
823.296	0.0160658
823.374	0.0159625
823.453	0.0160123
823.531	0.0162696
823.609	0.0160271
823.687	0.0158879
823.765	0.0160250
823.843	0.0160910
823.921	0.0159917
823.999	0.0159441
824.078	0.0159106
824.156	0.0157660
824.234	0.0157471
824.312	0.0156728
824.390	0.0155019
824.468	0.0156618
824.546	0.0156221
824.624	0.0156082
824.703	0.0154689
824.781	0.0154464
824.859	0.0154515
824.937	0.0154610
825.015	0.0154668
825.093	0.0154685
825.171	0.0154804
825.249	0.0155310
825.328	0.0155318
825.406	0.0155544
825.484	0.0156510
825.562	0.0157109
825.640	0.0157351
825.718	0.0156953
825.796	0.0157668
825.874	0.0158649
825.953	0.0159609
826.031	0.0160284
826.109	0.0160182
826.187	0.0159927
826.265	0.0158099
826.343	0.0160835
826.421	0.0161036
826.499	0.0159287
826.578	0.0159792
826.656	0.0160614
826.734	0.0160861
826.812	0.0159878
826.890	0.0159847
826.968	0.0158855
827.046	0.0158479
827.124	0.0158856
827.203	0.0157776
827.281	0.0157067
827.359	0.0157600
827.437	0.0158916
827.515	0.0156493
827.593	0.0156615
827.671	0.0156655
827.749	0.0156329
827.828	0.0155886
827.906	0.0154847
827.984	0.0155681
828.062	0.0156322
828.140	0.0155312
828.218	0.0155402
828.296	0.0155043
828.374	0.0152695
828.453	0.0154789
828.531	0.0155047
828.609	0.0154494
828.687	0.0154473
828.765	0.0155396
828.843	0.0155004
828.921	0.0154534
828.999	0.0153986
829.078	0.0155428
829.156	0.0155746
829.234	0.0154874
829.312	0.0156086
829.390	0.0155898
829.468	0.0156302
829.546	0.0157110
829.624	0.0157593
829.703	0.0157892
829.781	0.0155887
829.859	0.0158445
829.937	0.0158298
830.015	0.0160773
830.093	0.0161092
830.171	0.0161108
830.249	0.0159933
830.328	0.0160229
830.406	0.0161255
830.484	0.0160015
830.562	0.0159473
830.640	0.0159441
830.718	0.0158487
830.796	0.0158299
830.874	0.0158379
830.953	0.0156865
831.031	0.0158071
831.109	0.0155739
831.187	0.0155843
831.265	0.0156164
831.343	0.0155151
831.421	0.0154593
831.499	0.0154300
831.578	0.0153310
831.656	0.0153910
831.734	0.0154375
831.812	0.0153352
831.890	0.0154620
831.968	0.0155326
832.046	0.0155000
832.124	0.0155853
832.203	0.0155754
832.281	0.0156748
832.359	0.0156831
832.437	0.0156448
832.515	0.0157416
832.593	0.0157358
832.671	0.0155939
832.749	0.0157533
832.828	0.0157480
832.906	0.0159356
832.984	0.0157235
833.062	0.0158023
833.140	0.0159588
833.218	0.0158309
833.296	0.0157138
833.374	0.0157063
833.453	0.0157784
833.531	0.0155364
833.609	0.0155998
833.687	0.0157424
833.765	0.0157565
833.843	0.0155911
833.921	0.0156235
833.999	0.0155421
834.078	0.0154246
834.156	0.0153754
834.234	0.0153582
834.312	0.0153642
834.390	0.0154794
834.468	0.0153788
834.546	0.0153358
834.624	0.0153239
834.703	0.0154191
834.781	0.0153560
834.859	0.0155360
834.937	0.0155139
835.015	0.0155918
835.093	0.0157012
835.171	0.0156480
835.249	0.0158356
835.328	0.0159996
835.406	0.0160781
835.484	0.0159694
835.562	0.0159927
835.640	0.0160072
835.718	0.0160423
835.796	0.0160747
835.874	0.0161316
835.953	0.0161430
836.031	0.0161928
836.109	0.0162553
836.187	0.0161100
836.265	0.0161086
836.343	0.0161008
836.421	0.0160700
836.499	0.0161123
836.578	0.0160162
836.656	0.0160755
836.734	0.0160019
836.812	0.0159075
836.890	0.0158552
836.968	0.0157647
837.046	0.0156477
837.124	0.0155016
837.203	0.0154398
837.281	0.0153805
837.359	0.0152748
837.437	0.0152706
837.515	0.0152706
837.593	0.0152033
837.671	0.0152366
837.749	0.0150427
837.828	0.0150661
837.906	0.0150971
837.984	0.0150796
838.062	0.0150813
838.140	0.0151968
838.218	0.0151815
838.296	0.0153868
838.374	0.0153751
838.453	0.0156723
838.531	0.0156171
838.609	0.0156221
838.687	0.0159207
838.765	0.0158372
838.843	0.0158598
838.921	0.0159743
838.999	0.0159641
839.078	0.0159946
839.156	0.0159293
839.234	0.0159879
839.312	0.0160000
839.390	0.0161098
839.468	0.0160984
839.546	0.0161225
839.624	0.0160379
839.703	0.0160751
839.781	0.0160374
839.859	0.0159490
839.937	0.0159045
840.015	0.0160388
840.093	0.0159526
840.171	0.0159446
840.249	0.0157811
840.328	0.0157679
840.406	0.0157870
840.484	0.0157373
840.562	0.0157005
840.640	0.0155551
840.718	0.0156602
840.796	0.0155655
840.874	0.0155716
840.953	0.0155365
841.031	0.0155343
841.109	0.0154926
841.187	0.0154046
841.265	0.0153148
841.343	0.0153377
841.421	0.0152265
841.499	0.0153089
841.578	0.0154412
841.656	0.0154259
841.734	0.0155173
841.812	0.0156007
841.890	0.0157288
841.968	0.0156562
842.046	0.0155845
842.124	0.0157112
842.203	0.0157793
842.281	0.0156670
842.359	0.0159418
842.437	0.0159259
842.515	0.0158579
842.593	0.0157701
842.671	0.0159679
842.749	0.0159492
842.828	0.0159164
842.906	0.0159901
842.984	0.0159545
843.062	0.0159196
843.140	0.0159657
843.218	0.0159808
843.296	0.0159659
843.374	0.0160263
843.453	0.0158977
843.531	0.0159400
843.609	0.0159680
843.687	0.0158379
843.765	0.0159146
843.843	0.0159274
843.921	0.0157402
843.999	0.0156831
844.078	0.0156613
844.156	0.0158553
844.234	0.0156448
844.312	0.0155313
844.390	0.0155451
844.468	0.0155987
844.546	0.0154483
844.624	0.0153094
844.703	0.0153976
844.781	0.0152832
844.859	0.0153975
844.937	0.0153036
845.015	0.0153134
845.093	0.0153136
845.171	0.0154436
845.249	0.0153593
845.328	0.0152553
845.406	0.0152517
845.484	0.0153238
845.562	0.0154099
845.640	0.0155003
845.718	0.0155672
845.796	0.0155713
845.874	0.0156677
845.953	0.0156196
846.031	0.0155986
846.109	0.0156828
846.187	0.0157611
846.265	0.0156423
846.343	0.0158601
846.421	0.0158382
846.499	0.0159198
846.578	0.0159735
846.656	0.0158882
846.734	0.0159254
846.812	0.0161058
846.890	0.0159263
846.968	0.0159172
847.046	0.0160299
847.124	0.0160448
847.203	0.0160377
847.281	0.0160500
847.359	0.0160714
847.437	0.0163857
847.515	0.0160629
847.593	0.0161260
847.671	0.0161032
847.749	0.0160577
847.828	0.0160112
847.906	0.0159193
847.984	0.0158914
848.062	0.0159488
848.140	0.0158509
848.218	0.0158507
848.296	0.0158691
848.374	0.0157616
848.453	0.0158171
848.531	0.0155822
848.609	0.0155922
848.687	0.0155685
848.765	0.0157037
848.843	0.0154880
848.921	0.0156215
848.999	0.0155387
849.078	0.0155222
849.156	0.0155997
849.234	0.0154790
849.312	0.0155057
849.390	0.0157164
849.468	0.0156493
849.546	0.0155301
849.624	0.0155285
849.703	0.0155306
849.781	0.0155479
849.859	0.0156283
849.937	0.0156204
850.015	0.0156475
850.093	0.0156942
850.171	0.0156094
850.249	0.0154639
850.328	0.0157107
850.406	0.0157014
850.484	0.0155713
850.562	0.0156728
850.640	0.0158920
850.718	0.0158085
850.796	0.0156812
850.874	0.0157784
850.953	0.0157928
851.031	0.0158058
851.109	0.0158952
851.187	0.0157266
851.265	0.0157119
851.343	0.0158472
851.421	0.0158567
851.499	0.0159956
851.578	0.0157850
851.656	0.0159008
851.734	0.0159273
851.812	0.0159174
851.890	0.0158865
851.968	0.0158865
852.046	0.0158360
852.124	0.0158344
852.203	0.0158661
852.281	0.0159361
852.359	0.0159874
852.437	0.0158994
852.515	0.0159362
852.593	0.0160611
852.671	0.0160168
852.749	0.0159861
852.828	0.0159946
852.906	0.0158239
852.984	0.0159032
853.062	0.0158900
853.140	0.0158739
853.218	0.0159502
853.296	0.0158081
853.374	0.0158712
853.453	0.0156046
853.531	0.0157179
853.609	0.0157128
853.687	0.0157396
853.765	0.0156302
853.843	0.0155443
853.921	0.0153953
853.999	0.0154458
854.078	0.0153664
854.156	0.0154324
854.234	0.0155991
854.312	0.0153457
854.390	0.0154353
854.468	0.0153124
854.546	0.0151380
854.624	0.0153105
854.703	0.0153547
854.781	0.0152831
854.859	0.0152661
854.937	0.0153037
855.015	0.0155173
855.093	0.0154816
855.171	0.0155237
855.249	0.0155846
855.328	0.0156852
855.406	0.0156245
855.484	0.0156622
855.562	0.0158881
855.640	0.0158010
855.718	0.0158507
855.796	0.0159642
855.874	0.0160146
855.953	0.0159142
856.031	0.0159182
856.109	0.0160619
856.187	0.0159840
856.265	0.0159229
856.343	0.0159502
856.421	0.0159836
856.499	0.0158637
856.578	0.0157687
856.656	0.0158273
856.734	0.0158890
856.812	0.0156896
856.890	0.0156684
856.968	0.0156699
857.046	0.0156845
857.124	0.0157366
857.203	0.0155824
857.281	0.0155468
857.359	0.0154256
857.437	0.0155250
857.515	0.0153863
857.593	0.0155279
857.671	0.0153967
857.749	0.0154620
857.828	0.0155602
857.906	0.0155734
857.984	0.0155396
858.062	0.0155398
858.140	0.0156006
858.218	0.0155441
858.296	0.0157268
858.374	0.0157686
858.453	0.0156683
858.531	0.0158009
858.609	0.0157402
858.687	0.0156379
858.765	0.0157994
858.843	0.0158179
858.921	0.0159270
858.999	0.0158859
859.078	0.0160040
859.156	0.0158354
859.234	0.0158405
859.312	0.0157780
859.390	0.0156332
859.468	0.0158141
859.546	0.0158511
859.624	0.0157378
859.703	0.0156445
859.781	0.0156723
859.859	0.0157387
859.937	0.0156310
860.015	0.0156857
860.093	0.0155952
860.171	0.0155695
860.249	0.0156578
860.328	0.0156210
860.406	0.0156935
860.484	0.0157482
860.562	0.0157841
860.640	0.0156654
860.718	0.0157795
860.796	0.0158142
860.874	0.0157903
860.953	0.0157275
861.031	0.0157444
861.109	0.0158351
861.187	0.0157496
861.265	0.0157751
861.343	0.0157621
861.421	0.0158248
861.499	0.0159596
861.578	0.0158655
861.656	0.0156607
861.734	0.0157763
861.812	0.0156969
861.890	0.0156309
861.968	0.0156728
862.046	0.0156080
862.124	0.0156596
862.203	0.0156897
862.281	0.0156116
862.359	0.0157597
862.437	0.0157748
862.515	0.0156671
862.593	0.0156667
862.671	0.0156343
862.749	0.0157114
862.828	0.0157961
862.906	0.0158656
862.984	0.0157256
863.062	0.0157704
863.140	0.0158378
863.218	0.0158267
863.296	0.0158569
863.374	0.0159608
863.453	0.0159184
863.531	0.0159068
863.609	0.0159515
863.687	0.0159396
863.765	0.0160123
863.843	0.0160015
863.921	0.0161145
863.999	0.0160856
864.078	0.0158881
864.156	0.0158965
864.234	0.0159132
864.312	0.0160400
864.390	0.0160398
864.468	0.0157571
864.546	0.0159182
864.624	0.0159437
864.703	0.0159269
864.781	0.0158651
864.859	0.0158241
864.937	0.0159662
865.015	0.0158996
865.093	0.0158492
865.171	0.0159274
865.249	0.0159460
865.328	0.0160434
865.406	0.0159385
865.484	0.0158288
865.562	0.0158567
865.640	0.0157999
865.718	0.0157894
865.796	0.0159190
865.874	0.0157591
865.953	0.0157874
866.031	0.0157544
866.109	0.0157061
866.187	0.0157525
866.265	0.0157868
866.343	0.0158080
866.421	0.0158435
866.499	0.0157027
866.578	0.0157799
866.656	0.0158756
866.734	0.0157395
866.812	0.0157236
866.890	0.0158624
866.968	0.0158435
867.046	0.0157912
867.124	0.0159321
867.203	0.0156750
867.281	0.0157017
867.359	0.0157515
867.437	0.0157494
867.515	0.0156402
867.593	0.0157202
867.671	0.0156805
867.749	0.0155785
867.828	0.0156627
867.906	0.0156607
867.984	0.0156848
868.062	0.0155971
868.140	0.0156650
868.218	0.0158243
868.296	0.0157553
868.374	0.0157279
868.453	0.0158705
868.531	0.0158276
868.609	0.0157721
868.687	0.0157870
868.765	0.0158767
868.843	0.0158409
868.921	0.0157372
868.999	0.0157302
869.078	0.0158320
869.156	0.0158263
869.234	0.0157517
869.312	0.0157616
869.390	0.0157731
869.468	0.0157420
869.546	0.0157293
869.624	0.0156943
869.703	0.0156001
869.781	0.0156389
869.859	0.0156802
869.937	0.0156942
870.015	0.0156305
870.093	0.0157372
870.171	0.0157224
870.249	0.0157428
870.328	0.0157852
870.406	0.0157192
870.484	0.0157865
870.562	0.0157338
870.640	0.0156306
870.718	0.0156707
870.796	0.0158276
870.874	0.0158067
870.953	0.0158013
871.031	0.0156960
871.109	0.0157528
871.187	0.0158668
871.265	0.0158370
871.343	0.0157336
871.421	0.0156753
871.499	0.0157803
871.578	0.0156546
871.656	0.0156235
871.734	0.0157888
871.812	0.0158958
871.890	0.0159274
871.968	0.0157488
872.046	0.0157684
872.124	0.0158802
872.203	0.0157602
872.281	0.0158337
872.359	0.0159927
872.437	0.0159818
872.515	0.0159979
872.593	0.0159059
872.671	0.0160395
872.749	0.0159397
872.828	0.0159313
872.906	0.0158952
872.984	0.0159594
873.062	0.0159710
873.140	0.0159189
873.218	0.0158912
873.296	0.0159143
873.374	0.0158466
873.453	0.0160326
873.531	0.0158609
873.609	0.0159380
873.687	0.0157989
873.765	0.0158092
873.843	0.0158466
873.921	0.0158342
873.999	0.0158368
874.078	0.0157305
874.156	0.0157221
874.234	0.0157776
874.312	0.0156660
874.390	0.0156640
874.468	0.0156761
874.546	0.0157273
874.624	0.0155499
874.703	0.0156602
874.781	0.0157312
874.859	0.0156754
874.937	0.0156926
875.015	0.0157458
875.093	0.0158012
875.171	0.0157883
875.249	0.0156053
875.328	0.0156510
875.406	0.0157921
875.484	0.0160000
875.562	0.0158709
875.640	0.0159297
875.718	0.0158288
875.796	0.0158432
875.874	0.0157991
875.953	0.0157558
876.031	0.0156821
876.109	0.0158209
876.187	0.0156992
876.265	0.0156928
876.343	0.0156583
876.421	0.0156181
876.499	0.0156937
876.578	0.0156281
876.656	0.0157137
876.734	0.0156850
876.812	0.0156013
876.890	0.0158213
876.968	0.0156031
877.046	0.0157233
877.124	0.0155372
877.203	0.0155955
877.281	0.0156136
877.359	0.0156500
877.437	0.0157253
877.515	0.0155614
877.593	0.0156161
877.671	0.0155981
877.749	0.0155237
877.828	0.0156429
877.906	0.0156143
877.984	0.0155695
878.062	0.0155988
878.140	0.0155424
878.218	0.0156194
878.296	0.0157252
878.374	0.0155312
878.453	0.0157818
878.531	0.0156435
878.609	0.0156760
878.687	0.0156979
878.765	0.0156541
878.843	0.0157085
878.921	0.0157610
878.999	0.0156192
879.078	0.0156676
879.156	0.0156605
879.234	0.0159184
879.312	0.0157571
879.390	0.0157676
879.468	0.0156070
879.546	0.0157307
879.624	0.0157047
879.703	0.0156624
879.781	0.0157624
879.859	0.0157681
879.937	0.0158097
880.015	0.0156482
880.093	0.0157930
880.171	0.0158128
880.249	0.0157856
880.328	0.0158875
880.406	0.0156980
880.484	0.0158419
880.562	0.0158592
880.640	0.0156448
880.718	0.0158695
880.796	0.0157906
880.874	0.0158833
880.953	0.0158530
881.031	0.0158458
881.109	0.0158699
881.187	0.0158891
881.265	0.0158215
881.343	0.0156957
881.421	0.0157516
881.499	0.0158936
881.578	0.0158541
881.656	0.0157426
881.734	0.0157005
881.812	0.0157577
881.890	0.0158821
881.968	0.0158970
882.046	0.0157288
882.124	0.0157479
882.203	0.0158329
882.281	0.0159221
882.359	0.0158622
882.437	0.0158151
882.515	0.0158565
882.593	0.0157985
882.671	0.0158558
882.749	0.0158331
882.828	0.0157464
882.906	0.0158562
882.984	0.0157335
883.062	0.0158509
883.140	0.0158319
883.218	0.0155340
883.296	0.0157662
883.374	0.0157615
883.453	0.0156676
883.531	0.0156880
883.609	0.0155809
883.687	0.0156555
883.765	0.0155848
883.843	0.0156946
883.921	0.0156159
883.999	0.0157098
884.078	0.0156254
884.156	0.0157603
884.234	0.0158955
884.312	0.0157403
884.390	0.0156550
884.468	0.0157401
884.546	0.0157281
884.624	0.0158919
884.703	0.0159094
884.781	0.0156857
884.859	0.0159009
884.937	0.0158580
885.015	0.0155848
885.093	0.0157552
885.171	0.0158598
885.249	0.0157600
885.328	0.0157995
885.406	0.0159238
885.484	0.0158749
885.562	0.0158621
885.640	0.0158387
885.718	0.0159965
885.796	0.0160147
885.874	0.0157763
885.953	0.0158238
886.031	0.0158563
886.109	0.0156474
886.187	0.0158034
886.265	0.0157353
886.343	0.0157507
886.421	0.0157450
886.499	0.0155694
886.578	0.0156947
886.656	0.0157789
886.734	0.0156617
886.812	0.0156875
886.890	0.0157597
886.968	0.0156315
887.046	0.0157320
887.124	0.0157184
887.203	0.0156274
887.281	0.0157277
887.359	0.0158928
887.437	0.0159411
887.515	0.0159122
887.593	0.0158175
887.671	0.0159293
887.749	0.0159560
887.828	0.0158335
887.906	0.0159971
887.984	0.0159755
888.062	0.0159290
888.140	0.0158710
888.218	0.0159109
888.296	0.0160122
888.374	0.0158989
888.453	0.0159306
888.531	0.0159184
888.609	0.0158887
888.687	0.0158636
888.765	0.0158153
888.843	0.0158447
888.921	0.0158675
888.999	0.0158755
889.078	0.0159670
889.156	0.0158746
889.234	0.0159728
889.312	0.0157282
889.390	0.0157947
889.468	0.0159798
889.546	0.0158560
889.624	0.0160142
889.703	0.0158904
889.781	0.0158415
889.859	0.0159071
889.937	0.0158666
890.015	0.0158352
890.093	0.0158325
890.171	0.0158445
890.249	0.0157932
890.328	0.0159946
890.406	0.0158432
890.484	0.0158402
890.562	0.0158662
890.640	0.0157986
890.718	0.0158582
890.796	0.0158998
890.874	0.0158147
890.953	0.0158131
891.031	0.0157452
891.109	0.0157334
891.187	0.0156895
891.265	0.0157444
891.343	0.0158556
891.421	0.0157325
891.499	0.0157476
891.578	0.0158018
891.656	0.0156733
891.734	0.0155626
891.812	0.0156528
891.890	0.0158458
891.968	0.0157661
892.046	0.0157156
892.124	0.0158574
892.203	0.0158411
892.281	0.0157203
892.359	0.0158297
892.437	0.0158517
892.515	0.0157825
892.593	0.0158013
892.671	0.0157690
892.749	0.0158550
892.828	0.0158311
892.906	0.0156776
892.984	0.0157723
893.062	0.0157648
893.140	0.0156601
893.218	0.0157163
893.296	0.0156448
893.374	0.0157172
893.453	0.0155533
893.531	0.0155396
893.609	0.0156770
893.687	0.0156252
893.765	0.0157420
893.843	0.0156190
893.921	0.0156416
893.999	0.0156496
894.078	0.0156107
894.156	0.0157426
894.234	0.0157951
894.312	0.0155775
894.390	0.0157227
894.468	0.0158560
894.546	0.0158762
894.624	0.0158253
894.703	0.0157898
894.781	0.0159281
894.859	0.0158848
894.937	0.0157533
895.015	0.0158980
895.093	0.0158733
895.171	0.0158723
895.249	0.0158458
895.328	0.0160150
895.406	0.0158592
895.484	0.0158308
895.562	0.0157510
895.640	0.0157229
895.718	0.0157178
895.796	0.0159566
895.874	0.0157745
895.953	0.0158100
896.031	0.0159000
896.109	0.0158249
896.187	0.0157785
896.265	0.0157760
896.343	0.0158231
896.421	0.0157609
896.499	0.0158083
896.578	0.0159326
896.656	0.0157139
896.734	0.0157109
896.812	0.0159138
896.890	0.0158954
896.968	0.0158608
897.046	0.0158086
897.124	0.0157764
897.203	0.0158847
897.281	0.0159336
897.359	0.0158502
897.437	0.0159305
897.515	0.0158779
897.593	0.0158769
897.671	0.0159843
897.749	0.0159206
897.828	0.0158853
897.906	0.0159565
897.984	0.0158910
898.062	0.0158878
898.140	0.0158539
898.218	0.0158664
898.296	0.0159286
898.374	0.0158319
898.453	0.0158490
898.531	0.0157188
898.609	0.0157528
898.687	0.0158509
898.765	0.0156852
898.843	0.0158185
898.921	0.0157215
898.999	0.0156772
899.078	0.0156979
899.156	0.0157054
899.234	0.0157311
899.312	0.0156979
899.390	0.0158482
899.468	0.0158182
899.546	0.0158054
899.624	0.0156861
899.703	0.0158101
899.781	0.0158281
899.859	0.0158059
899.937	0.0159037
900.015	0.0158279
900.093	0.0157911
900.171	0.0158935
900.249	0.0158183
900.328	0.0159145
900.406	0.0157719
900.484	0.0159698
900.562	0.0160104
900.640	0.0158207
900.718	0.0157501
900.796	0.0158102
900.874	0.0159208
900.953	0.0157366
901.031	0.0157633
901.109	0.0157138
901.187	0.0158288
901.265	0.0157773
901.343	0.0158062
901.421	0.0157627
901.499	0.0156843
901.578	0.0156286
901.656	0.0155959
901.734	0.0157552
901.812	0.0156850
901.890	0.0156001
901.968	0.0155932
902.046	0.0154425
902.124	0.0155297
902.203	0.0155111
902.281	0.0154994
902.359	0.0158263
902.437	0.0156451
902.515	0.0157061
902.593	0.0157842
902.671	0.0157545
902.749	0.0157744
902.828	0.0156062
902.906	0.0156020
902.984	0.0157259
903.062	0.0156765
903.140	0.0156422
903.218	0.0155714
903.296	0.0157410
903.374	0.0155836
903.453	0.0155871
903.531	0.0155978
903.609	0.0156215
903.687	0.0155569
903.765	0.0155081
903.843	0.0155431
903.921	0.0156406
903.999	0.0155328
904.078	0.0154887
904.156	0.0154993
904.234	0.0156196
904.312	0.0155480
904.390	0.0157478
904.468	0.0156818
904.546	0.0155172
904.624	0.0155589
904.703	0.0156335
904.781	0.0156054
904.859	0.0158652
904.937	0.0156238
905.015	0.0158093
905.093	0.0157507
905.171	0.0157059
905.249	0.0158398
905.328	0.0157372
905.406	0.0157507
905.484	0.0158707
905.562	0.0158437
905.640	0.0157752
905.718	0.0158266
905.796	0.0158057
905.874	0.0158529
905.953	0.0156046
906.031	0.0156840
906.109	0.0158743
906.187	0.0156711
906.265	0.0155991
906.343	0.0157802
906.421	0.0156794
906.499	0.0157291
906.578	0.0155566
906.656	0.0155690
906.734	0.0156991
906.812	0.0155864
906.890	0.0156436
906.968	0.0156747
907.046	0.0154235
907.124	0.0155704
907.203	0.0155614
907.281	0.0156676
907.359	0.0156296
907.437	0.0155504
907.515	0.0157108
907.593	0.0157478
907.671	0.0156182
907.749	0.0157498
907.828	0.0156422
907.906	0.0157835
907.984	0.0157588
908.062	0.0157346
908.140	0.0158460
908.218	0.0157826
908.296	0.0159157
908.374	0.0160656
908.453	0.0158540
908.531	0.0158923
908.609	0.0158700
908.687	0.0159748
908.765	0.0159333
908.843	0.0160241
908.921	0.0159283
908.999	0.0159172
909.078	0.0159571
909.156	0.0158442
909.234	0.0157664
909.312	0.0158228
909.390	0.0156915
909.468	0.0158300
909.546	0.0158440
909.624	0.0157113
909.703	0.0156662
909.781	0.0157010
909.859	0.0156500
909.937	0.0157915
910.015	0.0158250
910.093	0.0157531
910.171	0.0158200
910.249	0.0157525
910.328	0.0158337
910.406	0.0158411
910.484	0.0157199
910.562	0.0158261
910.640	0.0158841
910.718	0.0158688
910.796	0.0158166
910.874	0.0157762
910.953	0.0158167
911.031	0.0159181
911.109	0.0158884
911.187	0.0159023
911.265	0.0158199
911.343	0.0158202
911.421	0.0158003
911.499	0.0159262
911.578	0.0158514
911.656	0.0159060
911.734	0.0159242
911.812	0.0159336
911.890	0.0158630
911.968	0.0157927
912.046	0.0159479
912.124	0.0159169
912.203	0.0158222
912.281	0.0158649
912.359	0.0158511
912.437	0.0159499
912.515	0.0157245
912.593	0.0158185
912.671	0.0158140
912.749	0.0159024
912.828	0.0157710
912.906	0.0156105
912.984	0.0157038
913.062	0.0156572
913.140	0.0158337
913.218	0.0159066
913.296	0.0158263
913.374	0.0157821
913.453	0.0157787
913.531	0.0159359
913.609	0.0158789
913.687	0.0158411
913.765	0.0157328
913.843	0.0159131
913.921	0.0158301
913.999	0.0157920
914.078	0.0158194
914.156	0.0158698
914.234	0.0157895
914.312	0.0157482
914.390	0.0157967
914.468	0.0157798
914.546	0.0157492
914.624	0.0156974
914.703	0.0158177
914.781	0.0158206
914.859	0.0157510
914.937	0.0156434
915.015	0.0157431
915.093	0.0157012
915.171	0.0156785
915.249	0.0154805
915.328	0.0156348
915.406	0.0157306
915.484	0.0156501
915.562	0.0157056
915.640	0.0156171
915.718	0.0156390
915.796	0.0156329
915.874	0.0158221
915.953	0.0155968
916.031	0.0155843
916.109	0.0156098
916.187	0.0157137
916.265	0.0157200
916.343	0.0158088
916.421	0.0157431
916.499	0.0158823
916.578	0.0159322
916.656	0.0159196
916.734	0.0158865
916.812	0.0158573
916.890	0.0158213
916.968	0.0158440
917.046	0.0158407
917.124	0.0158568
917.203	0.0159241
917.281	0.0158047
917.359	0.0158173
917.437	0.0157576
917.515	0.0158935
917.593	0.0158128
917.671	0.0158472
917.749	0.0157220
917.828	0.0157836
917.906	0.0157029
917.984	0.0157442
918.062	0.0156832
918.140	0.0157983
918.218	0.0158015
918.296	0.0157124
918.374	0.0157317
918.453	0.0156868
918.531	0.0156071
918.609	0.0156068
918.687	0.0156024
918.765	0.0157237
918.843	0.0156112
918.921	0.0156694
918.999	0.0157132
919.078	0.0156376
919.156	0.0156695
919.234	0.0156617
919.312	0.0156374
919.390	0.0158283
919.468	0.0157125
919.546	0.0156864
919.624	0.0156631
919.703	0.0157206
919.781	0.0158518
919.859	0.0159187
919.937	0.0156378
