06/10/2022	19:00:30	Ver.	4.1	UNKNOWN
Optical Delay	600.015094	Delta X		0.078125	Sweeps	1	Scan Rate	0/0
Coordinates	Axis 1	NaN	Axis 2	NaN	Axis 3	NaN	Axis 4	NaN	Axis 5	NaN	Axis 6	0.000000
TX Power	0.000000	RX Power	0.000000

600.015	0.0159632
600.093	0.0159129
600.171	0.0160194
600.249	0.0160244
600.328	0.0159416
600.406	0.0158962
600.484	0.0160451
600.562	0.0159841
600.640	0.0160041
600.718	0.0159399
600.796	0.0160123
600.874	0.0159035
600.953	0.0159962
601.031	0.0160227
601.109	0.0160419
601.187	0.0159377
601.265	0.0158864
601.343	0.0160522
601.421	0.0160137
601.499	0.0159639
601.578	0.0159729
601.656	0.0159581
601.734	0.0160386
601.812	0.0159969
601.890	0.0160775
601.968	0.0160207
602.046	0.0159482
602.124	0.0158847
602.203	0.0160834
602.281	0.0160933
602.359	0.0160708
602.437	0.0159816
602.515	0.0160101
602.593	0.0159475
602.671	0.0159973
602.749	0.0159858
602.828	0.0161242
602.906	0.0159757
602.984	0.0160161
603.062	0.0159855
603.140	0.0160485
603.218	0.0160175
603.296	0.0160592
603.374	0.0159778
603.453	0.0159907
603.531	0.0159024
603.609	0.0160632
603.687	0.0160428
603.765	0.0160242
603.843	0.0161028
603.921	0.0159824
603.999	0.0159436
604.078	0.0160507
604.156	0.0160399
604.234	0.0160231
604.312	0.0159561
604.390	0.0160744
604.468	0.0159739
604.546	0.0160407
604.624	0.0159736
604.703	0.0160101
604.781	0.0160007
604.859	0.0159168
604.937	0.0160871
605.015	0.0160303
605.093	0.0160664
605.171	0.0161251
605.249	0.0159410
605.328	0.0160164
605.406	0.0159145
605.484	0.0160029
605.562	0.0159446
605.640	0.0161363
605.718	0.0160551
605.796	0.0160403
605.874	0.0161037
605.953	0.0159352
606.031	0.0159184
606.109	0.0159589
606.187	0.0159220
606.265	0.0160193
606.343	0.0159026
606.421	0.0159566
606.499	0.0160264
606.578	0.0159984
606.656	0.0160335
606.734	0.0159515
606.812	0.0160038
606.890	0.0159623
606.968	0.0160133
607.046	0.0160297
607.124	0.0159193
607.203	0.0160738
607.281	0.0159774
607.359	0.0159770
607.437	0.0160140
607.515	0.0159231
607.593	0.0160429
607.671	0.0160470
607.749	0.0161262
607.828	0.0159818
607.906	0.0159357
607.984	0.0160054
608.062	0.0159383
608.140	0.0159852
608.218	0.0159647
608.296	0.0159806
608.374	0.0159316
608.453	0.0159972
608.531	0.0159092
608.609	0.0161102
608.687	0.0160067
608.765	0.0160126
608.843	0.0159845
608.921	0.0159033
608.999	0.0158657
609.078	0.0158580
609.156	0.0160365
609.234	0.0160168
609.312	0.0159378
609.390	0.0159595
609.468	0.0158503
609.546	0.0159867
609.624	0.0160647
609.703	0.0157543
609.781	0.0158453
609.859	0.0159511
609.937	0.0160172
610.015	0.0159883
610.093	0.0158934
610.171	0.0160202
610.249	0.0160349
610.328	0.0160364
610.406	0.0159107
610.484	0.0158559
610.562	0.0159380
610.640	0.0160398
610.718	0.0158708
610.796	0.0159769
610.874	0.0160417
610.953	0.0160752
611.031	0.0160458
611.109	0.0159894
611.187	0.0159888
611.265	0.0160269
611.343	0.0160714
611.421	0.0161369
611.499	0.0160171
611.578	0.0160111
611.656	0.0160325
611.734	0.0159022
611.812	0.0158870
611.890	0.0159738
611.968	0.0159409
612.046	0.0160069
612.124	0.0158269
612.203	0.0158710
612.281	0.0159039
612.359	0.0159553
612.437	0.0158739
612.515	0.0160905
612.593	0.0159954
612.671	0.0159583
612.749	0.0159946
612.828	0.0159998
612.906	0.0159904
612.984	0.0160310
613.062	0.0160558
613.140	0.0161133
613.218	0.0159250
613.296	0.0160443
613.374	0.0161313
613.453	0.0159235
613.531	0.0159307
613.609	0.0160614
613.687	0.0159629
613.765	0.0159665
613.843	0.0160508
613.921	0.0159557
613.999	0.0160748
614.078	0.0160381
614.156	0.0159586
614.234	0.0159782
614.312	0.0158414
614.390	0.0160262
614.468	0.0158947
614.546	0.0159352
614.624	0.0158894
614.703	0.0160467
614.781	0.0160767
614.859	0.0160739
614.937	0.0159798
615.015	0.0160143
615.093	0.0159660
615.171	0.0159601
615.249	0.0160881
615.328	0.0159197
615.406	0.0160343
615.484	0.0160143
615.562	0.0160104
615.640	0.0159300
615.718	0.0158375
615.796	0.0160436
615.874	0.0160415
615.953	0.0160600
616.031	0.0159570
616.109	0.0159126
616.187	0.0160382
616.265	0.0160355
616.343	0.0159478
616.421	0.0160117
616.499	0.0158469
616.578	0.0159456
616.656	0.0160629
616.734	0.0161217
616.812	0.0160097
616.890	0.0160861
616.968	0.0160395
617.046	0.0160557
617.124	0.0160338
617.203	0.0160979
617.281	0.0160294
617.359	0.0159885
617.437	0.0158941
617.515	0.0159446
617.593	0.0160508
617.671	0.0160238
617.749	0.0158350
617.828	0.0158497
617.906	0.0160274
617.984	0.0159224
618.062	0.0160098
618.140	0.0159370
618.218	0.0159991
618.296	0.0159524
618.374	0.0158352
618.453	0.0159772
618.531	0.0159949
618.609	0.0157769
618.687	0.0159972
618.765	0.0159792
618.843	0.0159289
618.921	0.0159232
618.999	0.0159375
619.078	0.0158953
619.156	0.0159721
619.234	0.0160102
619.312	0.0160097
619.390	0.0159468
619.468	0.0159923
619.546	0.0158915
619.624	0.0159066
619.703	0.0160280
619.781	0.0157849
619.859	0.0158673
619.937	0.0159764
620.015	0.0159184
620.093	0.0159370
620.171	0.0160284
620.249	0.0159351
620.328	0.0159208
620.406	0.0158595
620.484	0.0158451
620.562	0.0157970
620.640	0.0158864
620.718	0.0159945
620.796	0.0159967
620.874	0.0158101
620.953	0.0159512
621.031	0.0158423
621.109	0.0159767
621.187	0.0159644
621.265	0.0159122
621.343	0.0158617
621.421	0.0159460
621.499	0.0159019
621.578	0.0158886
621.656	0.0159365
621.734	0.0158256
621.812	0.0158070
621.890	0.0158437
621.968	0.0159270
622.046	0.0160763
622.124	0.0159925
622.203	0.0158967
622.281	0.0159068
622.359	0.0159691
622.437	0.0157761
622.515	0.0158966
622.593	0.0159801
622.671	0.0158316
622.749	0.0159103
622.828	0.0159670
622.906	0.0158800
622.984	0.0158759
623.062	0.0158002
623.140	0.0159094
623.218	0.0159214
623.296	0.0159363
623.374	0.0158247
623.453	0.0157864
623.531	0.0159287
623.609	0.0159701
623.687	0.0159244
623.765	0.0159717
623.843	0.0158590
623.921	0.0159403
623.999	0.0158211
624.078	0.0157654
624.156	0.0160377
624.234	0.0159189
624.312	0.0157899
624.390	0.0158138
624.468	0.0158703
624.546	0.0159202
624.624	0.0158382
624.703	0.0158863
624.781	0.0159553
624.859	0.0158215
624.937	0.0159791
625.015	0.0159506
625.093	0.0158597
625.171	0.0159086
625.249	0.0158974
625.328	0.0159872
625.406	0.0158724
625.484	0.0158205
625.562	0.0160738
625.640	0.0160724
625.718	0.0159314
625.796	0.0159135
625.874	0.0159041
625.953	0.0160046
626.031	0.0159406
626.109	0.0160532
626.187	0.0159747
626.265	0.0159828
626.343	0.0160591
626.421	0.0160232
626.499	0.0158899
626.578	0.0159007
626.656	0.0159821
626.734	0.0159603
626.812	0.0160546
626.890	0.0158822
626.968	0.0159360
627.046	0.0159883
627.124	0.0159152
627.203	0.0159108
627.281	0.0159967
627.359	0.0158968
627.437	0.0160656
627.515	0.0160156
627.593	0.0159609
627.671	0.0157899
627.749	0.0160842
627.828	0.0159924
627.906	0.0158877
627.984	0.0159863
628.062	0.0160415
628.140	0.0159813
628.218	0.0160603
628.296	0.0159609
628.374	0.0159222
628.453	0.0161024
628.531	0.0160604
628.609	0.0159621
628.687	0.0159593
628.765	0.0160683
628.843	0.0160732
628.921	0.0161182
628.999	0.0161977
629.078	0.0160373
629.156	0.0159779
629.234	0.0159783
629.312	0.0161435
629.390	0.0160480
629.468	0.0161159
629.546	0.0160550
629.624	0.0160938
629.703	0.0160336
629.781	0.0159405
629.859	0.0161742
629.937	0.0161620
630.015	0.0159969
630.093	0.0162000
630.171	0.0161196
630.249	0.0160625
630.328	0.0161576
630.406	0.0159299
630.484	0.0160533
630.562	0.0161186
630.640	0.0160830
630.718	0.0160137
630.796	0.0161217
630.874	0.0160969
630.953	0.0160434
631.031	0.0160663
631.109	0.0162805
631.187	0.0160789
631.265	0.0159769
631.343	0.0159835
631.421	0.0160205
631.499	0.0161401
631.578	0.0160313
631.656	0.0160546
631.734	0.0160352
631.812	0.0159939
631.890	0.0159808
631.968	0.0160051
632.046	0.0159422
632.124	0.0159692
632.203	0.0159592
632.281	0.0159809
632.359	0.0160554
632.437	0.0160384
632.515	0.0158450
632.593	0.0159642
632.671	0.0160557
632.749	0.0160418
632.828	0.0158845
632.906	0.0159914
632.984	0.0160567
633.062	0.0160393
633.140	0.0159434
633.218	0.0160271
633.296	0.0159521
633.374	0.0159898
633.453	0.0159750
633.531	0.0160336
633.609	0.0160018
633.687	0.0159355
633.765	0.0158913
633.843	0.0158838
633.921	0.0160713
633.999	0.0160839
634.078	0.0159193
634.156	0.0159724
634.234	0.0160588
634.312	0.0159843
634.390	0.0161715
634.468	0.0158983
634.546	0.0159543
634.624	0.0159695
634.703	0.0159793
634.781	0.0160060
634.859	0.0159288
634.937	0.0160188
635.015	0.0159642
635.093	0.0159756
635.171	0.0160197
635.249	0.0159933
635.328	0.0158575
635.406	0.0159155
635.484	0.0159270
635.562	0.0160481
635.640	0.0160034
635.718	0.0159526
635.796	0.0159782
635.874	0.0160374
635.953	0.0159915
636.031	0.0159685
636.109	0.0160358
636.187	0.0160427
636.265	0.0161009
636.343	0.0160589
636.421	0.0159990
636.499	0.0159635
636.578	0.0158758
636.656	0.0159007
636.734	0.0159423
636.812	0.0160274
636.890	0.0160200
636.968	0.0159412
637.046	0.0160377
637.124	0.0160806
637.203	0.0161501
637.281	0.0159089
637.359	0.0160636
637.437	0.0159560
637.515	0.0159467
637.593	0.0160749
637.671	0.0160578
637.749	0.0161565
637.828	0.0160654
637.906	0.0160218
637.984	0.0159823
638.062	0.0161011
638.140	0.0159580
638.218	0.0160357
638.296	0.0160632
638.374	0.0159843
638.453	0.0160500
638.531	0.0161037
638.609	0.0160253
638.687	0.0159505
638.765	0.0161218
638.843	0.0160414
638.921	0.0160048
638.999	0.0160326
639.078	0.0160575
639.156	0.0160795
639.234	0.0160716
639.312	0.0161316
639.390	0.0161234
639.468	0.0160748
639.546	0.0159129
639.624	0.0160187
639.703	0.0160809
639.781	0.0160600
639.859	0.0159920
639.937	0.0160894
640.015	0.0159764
640.093	0.0159659
640.171	0.0160160
640.249	0.0158950
640.328	0.0159339
640.406	0.0161119
640.484	0.0160825
640.562	0.0159521
640.640	0.0160657
640.718	0.0160698
640.796	0.0161168
640.874	0.0161127
640.953	0.0159675
641.031	0.0159581
641.109	0.0158733
641.187	0.0159938
641.265	0.0159783
641.343	0.0160255
641.421	0.0160468
641.499	0.0161235
641.578	0.0159083
641.656	0.0160497
641.734	0.0159678
641.812	0.0160128
641.890	0.0160805
641.968	0.0160396
642.046	0.0159499
642.124	0.0160011
642.203	0.0159037
642.281	0.0159705
642.359	0.0159726
642.437	0.0159653
642.515	0.0161198
642.593	0.0160039
642.671	0.0158799
642.749	0.0159961
642.828	0.0161143
642.906	0.0158658
642.984	0.0158707
643.062	0.0159887
643.140	0.0160789
643.218	0.0158424
643.296	0.0159747
643.374	0.0160276
643.453	0.0160900
643.531	0.0160998
643.609	0.0159934
643.687	0.0159883
643.765	0.0160668
643.843	0.0160056
643.921	0.0158815
643.999	0.0159157
644.078	0.0159547
644.156	0.0160603
644.234	0.0159218
644.312	0.0159404
644.390	0.0159905
644.468	0.0159673
644.546	0.0160430
644.624	0.0159683
644.703	0.0160149
644.781	0.0160209
644.859	0.0160054
644.937	0.0160194
645.015	0.0160356
645.093	0.0160723
645.171	0.0159816
645.249	0.0159663
645.328	0.0159222
645.406	0.0159255
645.484	0.0159182
645.562	0.0157892
645.640	0.0158674
645.718	0.0158758
645.796	0.0160404
645.874	0.0159888
645.953	0.0158105
646.031	0.0159650
646.109	0.0158508
646.187	0.0159880
646.265	0.0159418
646.343	0.0157986
646.421	0.0156781
646.499	0.0157747
646.578	0.0157658
646.656	0.0156669
646.734	0.0157280
646.812	0.0157032
646.890	0.0156914
646.968	0.0157836
647.046	0.0157857
647.124	0.0158049
647.203	0.0157370
647.281	0.0158215
647.359	0.0158653
647.437	0.0157819
647.515	0.0158054
647.593	0.0159112
647.671	0.0158408
647.749	0.0159196
647.828	0.0158667
647.906	0.0159596
647.984	0.0160419
648.062	0.0159221
648.140	0.0159754
648.218	0.0159702
648.296	0.0158021
648.374	0.0157845
648.453	0.0159854
648.531	0.0157964
648.609	0.0159753
648.687	0.0159306
648.765	0.0159071
648.843	0.0158096
648.921	0.0159185
648.999	0.0159813
649.078	0.0158475
649.156	0.0157843
649.234	0.0160053
649.312	0.0159606
649.390	0.0157290
649.468	0.0158714
649.546	0.0157856
649.624	0.0158960
649.703	0.0158973
649.781	0.0157899
649.859	0.0157554
649.937	0.0157684
650.015	0.0159771
650.093	0.0158527
650.171	0.0157992
650.249	0.0159699
650.328	0.0159563
650.406	0.0159270
650.484	0.0159641
650.562	0.0158594
650.640	0.0159747
650.718	0.0158794
650.796	0.0158177
650.874	0.0158480
650.953	0.0159318
651.031	0.0158415
651.109	0.0159054
651.187	0.0158750
651.265	0.0159817
651.343	0.0158472
651.421	0.0158392
651.499	0.0158130
651.578	0.0158411
651.656	0.0158773
651.734	0.0159370
651.812	0.0159523
651.890	0.0157349
651.968	0.0159409
652.046	0.0159446
652.124	0.0157598
652.203	0.0157158
652.281	0.0158514
652.359	0.0158195
652.437	0.0158969
652.515	0.0158633
652.593	0.0159206
652.671	0.0158329
652.749	0.0158388
652.828	0.0158177
652.906	0.0160058
652.984	0.0159914
653.062	0.0159209
653.140	0.0158251
653.218	0.0159350
653.296	0.0160516
653.374	0.0160908
653.453	0.0160263
653.531	0.0159679
653.609	0.0159990
653.687	0.0159422
653.765	0.0159794
653.843	0.0159500
653.921	0.0160474
653.999	0.0160881
654.078	0.0161155
654.156	0.0160160
654.234	0.0160629
654.312	0.0160152
654.390	0.0159612
654.468	0.0160374
654.546	0.0160799
654.624	0.0159994
654.703	0.0159856
654.781	0.0160303
654.859	0.0159414
654.937	0.0160869
655.015	0.0160789
655.093	0.0160677
655.171	0.0159945
655.249	0.0160490
655.328	0.0159979
655.406	0.0161169
655.484	0.0161275
655.562	0.0160517
655.640	0.0159373
655.718	0.0159785
655.796	0.0160247
655.874	0.0161315
655.953	0.0160508
656.031	0.0161166
656.109	0.0160539
656.187	0.0160711
656.265	0.0160156
656.343	0.0159793
656.421	0.0161169
656.499	0.0160925
656.578	0.0159318
656.656	0.0159009
656.734	0.0160466
656.812	0.0160542
656.890	0.0159752
656.968	0.0161050
657.046	0.0159492
657.124	0.0160617
657.203	0.0159883
657.281	0.0160558
657.359	0.0159674
657.437	0.0161366
657.515	0.0161140
657.593	0.0160648
657.671	0.0160263
657.749	0.0161620
657.828	0.0159985
657.906	0.0161166
657.984	0.0160623
658.062	0.0160381
658.140	0.0159402
658.218	0.0160093
658.296	0.0161089
658.374	0.0160969
658.453	0.0160764
658.531	0.0160345
658.609	0.0160249
658.687	0.0158097
658.765	0.0160737
658.843	0.0161761
658.921	0.0161400
658.999	0.0159254
659.078	0.0160479
659.156	0.0160346
659.234	0.0160515
659.312	0.0161139
659.390	0.0159956
659.468	0.0160355
659.546	0.0160260
659.624	0.0160188
659.703	0.0159616
659.781	0.0161121
659.859	0.0159571
659.937	0.0160379
660.015	0.0159092
660.093	0.0160217
660.171	0.0159104
660.249	0.0160143
660.328	0.0159486
660.406	0.0160514
660.484	0.0160719
660.562	0.0160603
660.640	0.0160986
660.718	0.0160771
660.796	0.0160178
660.874	0.0160768
660.953	0.0161359
661.031	0.0161426
661.109	0.0160086
661.187	0.0160592
661.265	0.0159342
661.343	0.0161176
661.421	0.0162132
661.499	0.0160760
661.578	0.0159830
661.656	0.0158945
661.734	0.0159867
661.812	0.0160249
661.890	0.0160354
661.968	0.0160132
662.046	0.0159949
662.124	0.0159214
662.203	0.0161177
662.281	0.0159347
662.359	0.0159603
662.437	0.0160889
662.515	0.0160385
662.593	0.0161148
662.671	0.0159717
662.749	0.0159856
662.828	0.0159706
662.906	0.0161020
662.984	0.0159684
663.062	0.0158866
663.140	0.0159779
663.218	0.0159529
663.296	0.0160435
663.374	0.0160543
663.453	0.0160962
663.531	0.0160101
663.609	0.0160242
663.687	0.0160313
663.765	0.0159740
663.843	0.0159644
663.921	0.0159540
663.999	0.0160863
664.078	0.0160061
664.156	0.0157709
664.234	0.0159500
664.312	0.0160020
664.390	0.0160181
664.468	0.0160640
664.546	0.0159634
664.624	0.0159582
664.703	0.0159824
664.781	0.0160928
664.859	0.0161060
664.937	0.0160629
665.015	0.0159665
665.093	0.0160091
665.171	0.0159818
665.249	0.0161655
665.328	0.0160707
665.406	0.0160252
665.484	0.0159701
665.562	0.0161345
665.640	0.0160881
665.718	0.0161451
665.796	0.0159930
665.874	0.0159705
665.953	0.0160720
666.031	0.0161119
666.109	0.0159039
666.187	0.0160117
666.265	0.0159274
666.343	0.0158399
666.421	0.0159629
666.499	0.0159627
666.578	0.0161045
666.656	0.0160999
666.734	0.0160035
666.812	0.0160245
666.890	0.0160057
666.968	0.0160751
667.046	0.0159733
667.124	0.0161256
667.203	0.0159900
667.281	0.0160292
667.359	0.0160840
667.437	0.0159051
667.515	0.0159032
667.593	0.0161352
667.671	0.0160068
667.749	0.0160342
667.828	0.0161079
667.906	0.0161301
667.984	0.0161342
668.062	0.0159492
668.140	0.0160600
668.218	0.0159725
668.296	0.0160919
668.374	0.0159596
668.453	0.0160133
668.531	0.0159819
668.609	0.0159206
668.687	0.0159467
668.765	0.0159214
668.843	0.0160413
668.921	0.0159364
668.999	0.0159536
669.078	0.0159510
669.156	0.0160558
669.234	0.0160436
669.312	0.0159179
669.390	0.0159563
669.468	0.0160027
669.546	0.0159689
669.624	0.0159362
669.703	0.0159568
669.781	0.0158389
669.859	0.0158478
669.937	0.0159357
670.015	0.0158054
670.093	0.0159290
670.171	0.0159861
670.249	0.0159615
670.328	0.0159270
670.406	0.0159828
670.484	0.0158830
670.562	0.0158857
670.640	0.0158707
670.718	0.0159422
670.796	0.0159545
670.874	0.0158711
670.953	0.0158522
671.031	0.0159937
671.109	0.0159953
671.187	0.0157218
671.265	0.0158338
671.343	0.0158447
671.421	0.0157996
671.499	0.0157625
671.578	0.0158219
671.656	0.0159029
671.734	0.0156753
671.812	0.0158272
671.890	0.0159856
671.968	0.0158038
672.046	0.0158243
672.124	0.0157909
672.203	0.0158118
672.281	0.0156417
672.359	0.0157852
672.437	0.0157668
672.515	0.0157889
672.593	0.0158585
672.671	0.0157967
672.749	0.0158884
672.828	0.0158140
672.906	0.0158665
672.984	0.0158036
673.062	0.0158379
673.140	0.0157652
673.218	0.0158430
673.296	0.0157476
673.374	0.0156924
673.453	0.0157596
673.531	0.0159093
673.609	0.0158997
673.687	0.0158463
673.765	0.0157288
673.843	0.0158016
673.921	0.0158138
673.999	0.0158481
674.078	0.0156220
674.156	0.0158242
674.234	0.0156202
674.312	0.0158338
674.390	0.0157619
674.468	0.0158475
674.546	0.0159155
674.624	0.0156969
674.703	0.0157754
674.781	0.0158441
674.859	0.0158474
674.937	0.0156000
675.015	0.0158778
675.093	0.0159258
675.171	0.0157544
675.249	0.0159866
675.328	0.0158406
675.406	0.0158041
675.484	0.0158052
675.562	0.0157679
675.640	0.0158897
675.718	0.0157276
675.796	0.0159372
675.874	0.0158315
675.953	0.0158698
676.031	0.0157468
676.109	0.0158536
676.187	0.0157551
676.265	0.0157487
676.343	0.0158151
676.421	0.0159681
676.499	0.0158497
676.578	0.0159059
676.656	0.0158054
676.734	0.0157255
676.812	0.0158730
676.890	0.0158984
676.968	0.0159252
677.046	0.0160057
677.124	0.0159518
677.203	0.0158916
677.281	0.0158713
677.359	0.0158096
677.437	0.0159848
677.515	0.0157784
677.593	0.0158923
677.671	0.0158285
677.749	0.0158870
677.828	0.0159197
677.906	0.0158413
677.984	0.0159602
678.062	0.0159423
678.140	0.0159148
678.218	0.0159103
678.296	0.0159361
678.374	0.0158126
678.453	0.0158688
678.531	0.0160400
678.609	0.0160017
678.687	0.0160004
678.765	0.0159708
678.843	0.0159970
678.921	0.0159805
678.999	0.0159507
679.078	0.0158822
679.156	0.0159508
679.234	0.0160083
679.312	0.0159434
679.390	0.0161659
679.468	0.0159325
679.546	0.0159384
679.624	0.0160999
679.703	0.0160425
679.781	0.0158527
679.859	0.0159438
679.937	0.0160017
680.015	0.0160117
680.093	0.0160354
680.171	0.0160983
680.249	0.0159644
680.328	0.0160539
680.406	0.0161266
680.484	0.0160812
680.562	0.0160394
680.640	0.0160065
680.718	0.0160889
680.796	0.0160297
680.874	0.0160041
680.953	0.0160635
681.031	0.0159198
681.109	0.0160398
681.187	0.0160816
681.265	0.0159969
681.343	0.0160780
681.421	0.0160507
681.499	0.0158854
681.578	0.0161382
681.656	0.0160291
681.734	0.0160059
681.812	0.0160106
681.890	0.0160035
681.968	0.0160493
682.046	0.0160916
682.124	0.0159929
682.203	0.0161798
682.281	0.0161003
682.359	0.0160098
682.437	0.0159118
682.515	0.0159419
682.593	0.0161125
682.671	0.0161201
682.749	0.0160319
682.828	0.0159776
682.906	0.0161474
682.984	0.0159773
683.062	0.0159270
683.140	0.0160043
683.218	0.0160762
683.296	0.0162407
683.374	0.0160114
683.453	0.0161862
683.531	0.0160931
683.609	0.0160363
683.687	0.0161159
683.765	0.0161344
683.843	0.0159212
683.921	0.0159448
683.999	0.0162262
684.078	0.0160929
684.156	0.0160804
684.234	0.0160069
684.312	0.0161143
684.390	0.0159995
684.468	0.0160378
684.546	0.0160795
684.624	0.0160172
684.703	0.0160376
684.781	0.0161140
684.859	0.0161156
684.937	0.0161440
685.015	0.0160573
685.093	0.0158946
685.171	0.0159164
685.249	0.0160288
685.328	0.0161919
685.406	0.0160673
685.484	0.0160142
685.562	0.0159681
685.640	0.0159583
685.718	0.0160989
685.796	0.0159047
685.874	0.0159727
685.953	0.0160471
686.031	0.0160146
686.109	0.0160131
686.187	0.0159364
686.265	0.0159932
686.343	0.0160528
686.421	0.0161021
686.499	0.0160796
686.578	0.0160168
686.656	0.0158727
686.734	0.0160301
686.812	0.0160479
686.890	0.0160126
686.968	0.0160490
687.046	0.0158860
687.124	0.0160130
687.203	0.0160523
687.281	0.0159830
687.359	0.0159399
687.437	0.0160779
687.515	0.0158666
687.593	0.0159763
687.671	0.0160020
687.749	0.0160427
687.828	0.0159454
687.906	0.0159653
687.984	0.0158949
688.062	0.0158775
688.140	0.0159866
688.218	0.0160538
688.296	0.0159304
688.374	0.0160530
688.453	0.0160234
688.531	0.0160737
688.609	0.0159006
688.687	0.0157460
688.765	0.0159563
688.843	0.0159573
688.921	0.0159189
688.999	0.0159491
689.078	0.0158714
689.156	0.0160599
689.234	0.0158405
689.312	0.0159898
689.390	0.0159372
689.468	0.0159281
689.546	0.0157411
689.624	0.0160393
689.703	0.0159979
689.781	0.0158731
689.859	0.0159220
689.937	0.0160616
690.015	0.0160102
690.093	0.0159424
690.171	0.0158462
690.249	0.0158791
690.328	0.0161172
690.406	0.0160413
690.484	0.0158970
690.562	0.0159058
690.640	0.0159565
690.718	0.0159504
690.796	0.0160252
690.874	0.0157739
690.953	0.0159164
691.031	0.0159781
691.109	0.0160030
691.187	0.0159064
691.265	0.0159286
691.343	0.0159845
691.421	0.0158721
691.499	0.0158363
691.578	0.0159818
691.656	0.0159605
691.734	0.0158595
691.812	0.0160162
691.890	0.0158071
691.968	0.0158742
692.046	0.0160368
692.124	0.0160390
692.203	0.0159220
692.281	0.0159767
692.359	0.0158401
692.437	0.0160139
692.515	0.0160275
692.593	0.0158773
692.671	0.0159513
692.749	0.0159271
692.828	0.0158604
692.906	0.0158003
692.984	0.0158694
693.062	0.0158614
693.140	0.0158901
693.218	0.0158324
693.296	0.0158295
693.374	0.0158623
693.453	0.0159032
693.531	0.0159205
693.609	0.0159259
693.687	0.0157675
693.765	0.0159598
693.843	0.0157833
693.921	0.0158551
693.999	0.0158053
694.078	0.0159068
694.156	0.0157965
694.234	0.0159171
694.312	0.0157843
694.390	0.0158119
694.468	0.0158752
694.546	0.0156948
694.624	0.0158057
694.703	0.0159241
694.781	0.0157908
694.859	0.0157983
694.937	0.0157481
695.015	0.0159406
695.093	0.0159041
695.171	0.0157415
695.249	0.0158889
695.328	0.0159199
695.406	0.0158778
695.484	0.0158519
695.562	0.0158979
695.640	0.0159381
695.718	0.0158356
695.796	0.0157487
695.874	0.0160091
695.953	0.0159484
696.031	0.0158987
696.109	0.0158884
696.187	0.0158041
696.265	0.0159622
696.343	0.0159259
696.421	0.0158346
696.499	0.0158342
696.578	0.0159050
696.656	0.0159863
696.734	0.0158688
696.812	0.0158659
696.890	0.0157913
696.968	0.0159708
697.046	0.0158879
697.124	0.0158978
697.203	0.0158881
697.281	0.0159031
697.359	0.0158525
697.437	0.0159820
697.515	0.0157112
697.593	0.0158678
697.671	0.0159176
697.749	0.0159814
697.828	0.0158528
697.906	0.0158546
697.984	0.0159747
698.062	0.0159578
698.140	0.0159283
698.218	0.0158994
698.296	0.0159428
698.374	0.0158857
698.453	0.0159557
698.531	0.0159034
698.609	0.0158777
698.687	0.0159712
698.765	0.0158488
698.843	0.0159538
698.921	0.0158157
698.999	0.0159065
699.078	0.0158695
699.156	0.0160927
699.234	0.0159151
699.312	0.0158587
699.390	0.0158945
699.468	0.0159791
699.546	0.0158275
699.624	0.0159844
699.703	0.0159644
699.781	0.0159745
699.859	0.0158780
699.937	0.0159679
700.015	0.0160086
700.093	0.0158212
700.171	0.0158796
700.249	0.0159376
700.328	0.0158887
700.406	0.0159348
700.484	0.0159199
700.562	0.0159258
700.640	0.0159209
700.718	0.0159029
700.796	0.0159303
700.874	0.0157820
700.953	0.0159985
701.031	0.0160024
701.109	0.0159049
701.187	0.0158125
701.265	0.0157840
701.343	0.0160028
701.421	0.0159620
701.499	0.0159563
701.578	0.0158369
701.656	0.0159447
701.734	0.0160069
701.812	0.0159004
701.890	0.0159810
701.968	0.0159270
702.046	0.0158916
702.124	0.0158772
702.203	0.0159087
702.281	0.0159570
702.359	0.0159317
702.437	0.0161037
702.515	0.0159628
702.593	0.0159344
702.671	0.0161185
702.749	0.0159381
702.828	0.0159706
702.906	0.0159971
702.984	0.0159755
703.062	0.0159953
703.140	0.0159069
703.218	0.0160975
703.296	0.0159538
703.374	0.0158740
703.453	0.0159639
703.531	0.0159880
703.609	0.0158649
703.687	0.0159700
703.765	0.0160649
703.843	0.0160406
703.921	0.0160497
703.999	0.0159638
704.078	0.0159167
704.156	0.0159859
704.234	0.0161652
704.312	0.0159296
704.390	0.0158874
704.468	0.0160186
704.546	0.0160887
704.624	0.0159883
704.703	0.0159660
704.781	0.0160203
704.859	0.0162103
704.937	0.0160271
705.015	0.0159837
705.093	0.0158813
705.171	0.0159386
705.249	0.0160455
705.328	0.0159503
705.406	0.0159995
705.484	0.0161022
705.562	0.0161299
705.640	0.0160595
705.718	0.0159514
705.796	0.0160208
705.874	0.0160341
705.953	0.0160693
706.031	0.0160076
706.109	0.0159587
706.187	0.0161713
706.265	0.0159826
706.343	0.0159893
706.421	0.0159734
706.499	0.0160278
706.578	0.0159889
706.656	0.0160917
706.734	0.0159994
706.812	0.0160193
706.890	0.0160995
706.968	0.0159348
707.046	0.0158664
707.124	0.0160852
707.203	0.0160057
707.281	0.0159384
707.359	0.0161317
707.437	0.0160728
707.515	0.0159444
707.593	0.0160421
707.671	0.0160685
707.749	0.0160982
707.828	0.0159776
707.906	0.0160690
707.984	0.0159228
708.062	0.0159067
708.140	0.0160406
708.218	0.0160188
708.296	0.0161916
708.374	0.0160395
708.453	0.0160416
708.531	0.0160066
708.609	0.0159115
708.687	0.0161092
708.765	0.0159640
708.843	0.0160882
708.921	0.0161138
708.999	0.0160562
709.078	0.0159986
709.156	0.0160624
709.234	0.0160448
709.312	0.0160619
709.390	0.0160482
709.468	0.0160718
709.546	0.0160298
709.624	0.0158611
709.703	0.0160673
709.781	0.0160377
709.859	0.0160130
709.937	0.0159579
710.015	0.0160262
710.093	0.0158965
710.171	0.0159592
710.249	0.0160506
710.328	0.0161295
710.406	0.0159476
710.484	0.0160197
710.562	0.0160369
710.640	0.0161240
710.718	0.0158923
710.796	0.0159600
710.874	0.0159709
710.953	0.0159551
711.031	0.0161105
711.109	0.0160230
711.187	0.0160057
711.265	0.0161652
711.343	0.0159991
711.421	0.0160874
711.499	0.0160348
711.578	0.0161409
711.656	0.0159398
711.734	0.0159762
711.812	0.0160458
711.890	0.0160653
711.968	0.0160780
712.046	0.0160962
712.124	0.0160696
712.203	0.0159866
712.281	0.0161667
712.359	0.0160933
712.437	0.0159453
712.515	0.0160281
712.593	0.0160417
712.671	0.0160104
712.749	0.0159886
712.828	0.0160582
712.906	0.0160670
712.984	0.0159052
713.062	0.0161373
713.140	0.0160632
713.218	0.0159920
713.296	0.0160463
713.374	0.0161129
713.453	0.0161335
713.531	0.0161807
713.609	0.0160213
713.687	0.0160216
713.765	0.0161387
713.843	0.0159802
713.921	0.0160243
713.999	0.0159754
714.078	0.0159200
714.156	0.0161652
714.234	0.0160921
714.312	0.0159222
714.390	0.0159568
714.468	0.0160401
714.546	0.0159746
714.624	0.0159631
714.703	0.0161011
714.781	0.0160859
714.859	0.0161160
714.937	0.0160466
715.015	0.0160544
715.093	0.0159087
715.171	0.0159901
715.249	0.0158768
715.328	0.0160501
715.406	0.0161133
715.484	0.0158421
715.562	0.0159320
715.640	0.0160909
715.718	0.0160159
715.796	0.0159180
715.874	0.0160395
715.953	0.0159275
716.031	0.0158651
716.109	0.0159933
716.187	0.0160321
716.265	0.0160321
716.343	0.0158772
716.421	0.0159116
716.499	0.0159122
716.578	0.0159503
716.656	0.0160065
716.734	0.0159605
716.812	0.0159747
716.890	0.0161465
716.968	0.0159279
717.046	0.0160191
717.124	0.0159462
717.203	0.0158014
717.281	0.0159612
717.359	0.0160587
717.437	0.0160270
717.515	0.0159818
717.593	0.0158971
717.671	0.0159750
717.749	0.0158358
717.828	0.0158558
717.906	0.0159474
717.984	0.0158376
718.062	0.0158797
718.140	0.0158700
718.218	0.0159808
718.296	0.0158927
718.374	0.0161118
718.453	0.0159643
718.531	0.0157919
718.609	0.0159530
718.687	0.0159669
718.765	0.0159462
718.843	0.0157976
718.921	0.0159581
718.999	0.0158789
719.078	0.0159064
719.156	0.0158815
719.234	0.0158903
719.312	0.0159421
719.390	0.0157844
719.468	0.0158217
719.546	0.0158717
719.624	0.0159329
719.703	0.0160146
719.781	0.0158414
719.859	0.0158573
719.937	0.0158138
720.015	0.0158397
720.093	0.0157671
720.171	0.0157676
720.249	0.0157988
720.328	0.0158131
720.406	0.0158244
720.484	0.0158026
720.562	0.0158537
720.640	0.0159336
720.718	0.0158381
720.796	0.0158041
720.874	0.0160664
720.953	0.0158755
721.031	0.0157790
721.109	0.0158993
721.187	0.0158203
721.265	0.0159915
721.343	0.0158104
721.421	0.0158678
721.499	0.0159459
721.578	0.0159344
721.656	0.0159216
721.734	0.0158894
721.812	0.0159174
721.890	0.0159681
721.968	0.0159279
722.046	0.0157758
722.124	0.0158939
722.203	0.0159466
722.281	0.0158598
722.359	0.0158265
722.437	0.0159579
722.515	0.0158898
722.593	0.0158572
722.671	0.0157903
722.749	0.0159521
722.828	0.0160041
722.906	0.0159416
722.984	0.0158109
723.062	0.0159216
723.140	0.0159097
723.218	0.0159499
723.296	0.0160649
723.374	0.0160049
723.453	0.0159168
723.531	0.0159212
723.609	0.0160087
723.687	0.0159360
723.765	0.0159919
723.843	0.0159894
723.921	0.0159509
723.999	0.0157577
724.078	0.0158105
724.156	0.0159472
724.234	0.0158784
724.312	0.0159566
724.390	0.0160469
724.468	0.0159142
724.546	0.0159455
724.624	0.0159571
724.703	0.0159097
724.781	0.0160548
724.859	0.0161465
724.937	0.0159872
725.015	0.0159869
725.093	0.0161139
725.171	0.0159645
725.249	0.0159599
725.328	0.0161324
725.406	0.0160261
725.484	0.0160268
725.562	0.0160635
725.640	0.0159578
725.718	0.0160752
725.796	0.0159940
725.874	0.0160071
725.953	0.0162175
726.031	0.0160349
726.109	0.0159706
726.187	0.0161062
726.265	0.0160458
726.343	0.0160700
726.421	0.0161207
726.499	0.0160522
726.578	0.0160690
726.656	0.0161439
726.734	0.0160945
726.812	0.0159118
726.890	0.0159271
726.968	0.0159525
727.046	0.0159731
727.124	0.0160747
727.203	0.0160400
727.281	0.0160755
727.359	0.0162159
727.437	0.0160825
727.515	0.0159846
727.593	0.0161256
727.671	0.0160095
727.749	0.0160493
727.828	0.0160522
727.906	0.0160108
727.984	0.0160613
728.062	0.0160459
728.140	0.0161025
728.218	0.0159760
728.296	0.0160377
728.374	0.0161136
728.453	0.0161176
728.531	0.0160270
728.609	0.0160412
728.687	0.0161156
728.765	0.0161130
728.843	0.0160192
728.921	0.0160664
728.999	0.0161870
729.078	0.0160692
729.156	0.0160238
729.234	0.0159427
729.312	0.0160515
729.390	0.0160594
729.468	0.0161141
729.546	0.0160590
729.624	0.0160034
729.703	0.0159378
729.781	0.0160589
729.859	0.0161277
729.937	0.0160663
730.015	0.0160686
730.093	0.0160329
730.171	0.0160209
730.249	0.0160368
730.328	0.0161190
730.406	0.0161440
730.484	0.0160114
730.562	0.0160989
730.640	0.0161440
730.718	0.0159322
730.796	0.0161254
730.874	0.0161102
730.953	0.0162101
731.031	0.0160480
731.109	0.0160400
731.187	0.0160139
731.265	0.0159666
731.343	0.0160512
731.421	0.0160534
731.499	0.0161427
731.578	0.0159957
731.656	0.0160970
731.734	0.0160570
731.812	0.0163212
731.890	0.0159915
731.968	0.0159623
732.046	0.0160574
732.124	0.0160788
732.203	0.0160991
732.281	0.0160934
732.359	0.0159512
732.437	0.0159158
732.515	0.0160732
732.593	0.0160010
732.671	0.0159315
732.749	0.0159962
732.828	0.0159490
732.906	0.0159801
732.984	0.0159953
733.062	0.0160408
733.140	0.0159414
733.218	0.0159769
733.296	0.0160636
733.374	0.0159720
733.453	0.0159608
733.531	0.0159858
733.609	0.0159043
733.687	0.0160407
733.765	0.0159030
733.843	0.0158099
733.921	0.0160143
733.999	0.0160275
734.078	0.0160648
734.156	0.0159410
734.234	0.0159354
734.312	0.0160651
734.390	0.0158246
734.468	0.0159882
734.546	0.0160176
734.624	0.0159945
734.703	0.0160267
734.781	0.0159240
734.859	0.0158952
734.937	0.0159871
735.015	0.0158510
735.093	0.0160181
735.171	0.0158989
735.249	0.0159168
735.328	0.0159010
735.406	0.0158408
735.484	0.0158379
735.562	0.0159707
735.640	0.0160706
735.718	0.0157433
735.796	0.0159492
735.874	0.0159445
735.953	0.0159927
736.031	0.0160161
736.109	0.0159319
736.187	0.0160169
736.265	0.0159805
736.343	0.0158736
736.421	0.0161098
736.499	0.0159645
736.578	0.0161176
736.656	0.0161283
736.734	0.0158912
736.812	0.0159676
736.890	0.0159788
736.968	0.0160604
737.046	0.0160954
737.124	0.0159618
737.203	0.0157812
737.281	0.0160542
737.359	0.0161439
737.437	0.0159566
737.515	0.0161368
737.593	0.0161932
737.671	0.0161075
737.749	0.0160003
737.828	0.0160958
737.906	0.0161768
737.984	0.0160146
738.062	0.0161210
738.140	0.0159975
738.218	0.0160052
738.296	0.0159963
738.374	0.0159253
738.453	0.0160216
738.531	0.0160395
738.609	0.0161298
738.687	0.0161516
738.765	0.0160026
738.843	0.0159953
738.921	0.0159756
738.999	0.0160342
739.078	0.0160600
739.156	0.0160854
739.234	0.0159541
739.312	0.0161586
739.390	0.0159898
739.468	0.0159663
739.546	0.0161162
739.624	0.0160744
739.703	0.0159067
739.781	0.0160732
739.859	0.0160072
739.937	0.0159654
740.015	0.0160689
740.093	0.0159381
740.171	0.0160027
740.249	0.0160947
740.328	0.0159772
740.406	0.0159332
740.484	0.0160750
740.562	0.0160519
740.640	0.0159095
740.718	0.0159000
740.796	0.0158257
740.874	0.0157942
740.953	0.0159286
741.031	0.0160453
741.109	0.0159371
741.187	0.0159492
741.265	0.0158740
741.343	0.0159325
741.421	0.0158107
741.499	0.0160345
741.578	0.0159771
741.656	0.0158518
741.734	0.0158582
741.812	0.0159956
741.890	0.0159395
741.968	0.0158696
742.046	0.0158807
742.124	0.0159458
742.203	0.0160082
742.281	0.0158682
742.359	0.0158903
742.437	0.0159299
742.515	0.0159286
742.593	0.0160282
742.671	0.0160302
742.749	0.0160287
742.828	0.0159800
742.906	0.0160282
742.984	0.0158514
743.062	0.0159118
743.140	0.0159383
743.218	0.0158282
743.296	0.0159852
743.374	0.0160023
743.453	0.0159002
743.531	0.0160632
743.609	0.0160117
743.687	0.0159489
743.765	0.0158360
743.843	0.0158652
743.921	0.0159270
743.999	0.0158939
744.078	0.0159982
744.156	0.0159631
744.234	0.0156819
744.312	0.0158179
744.390	0.0158631
744.468	0.0157509
744.546	0.0159525
744.624	0.0158638
744.703	0.0157407
744.781	0.0159551
744.859	0.0159889
744.937	0.0158627
745.015	0.0159244
745.093	0.0159316
745.171	0.0159759
745.249	0.0159413
745.328	0.0159282
745.406	0.0158905
745.484	0.0158862
745.562	0.0159757
745.640	0.0157431
745.718	0.0159804
745.796	0.0159264
745.874	0.0158899
745.953	0.0159383
746.031	0.0158418
746.109	0.0158221
746.187	0.0158984
746.265	0.0160030
746.343	0.0159959
746.421	0.0159404
746.499	0.0159883
746.578	0.0159904
746.656	0.0158717
746.734	0.0159324
746.812	0.0159118
746.890	0.0159299
746.968	0.0158382
747.046	0.0158765
747.124	0.0159354
747.203	0.0157730
747.281	0.0159668
747.359	0.0159646
747.437	0.0159462
747.515	0.0158264
747.593	0.0158220
747.671	0.0158813
747.749	0.0158580
747.828	0.0157249
747.906	0.0157808
747.984	0.0159506
748.062	0.0157524
748.140	0.0157335
748.218	0.0157826
748.296	0.0159052
748.374	0.0158111
748.453	0.0158818
748.531	0.0159772
748.609	0.0159567
748.687	0.0158728
748.765	0.0159508
748.843	0.0159080
748.921	0.0159474
748.999	0.0160234
749.078	0.0161243
749.156	0.0160304
749.234	0.0160522
749.312	0.0159619
749.390	0.0159748
749.468	0.0158858
749.546	0.0157708
749.624	0.0158247
749.703	0.0158244
749.781	0.0158434
749.859	0.0157941
749.937	0.0158381
750.015	0.0158070
750.093	0.0159340
750.171	0.0158565
750.249	0.0158010
750.328	0.0160301
750.406	0.0159719
750.484	0.0158685
750.562	0.0158735
750.640	0.0160923
750.718	0.0160296
750.796	0.0159823
750.874	0.0160691
750.953	0.0160197
751.031	0.0160413
751.109	0.0160738
751.187	0.0159618
751.265	0.0160336
751.343	0.0160454
751.421	0.0160183
751.499	0.0159299
751.578	0.0159240
751.656	0.0158266
751.734	0.0159190
751.812	0.0159615
751.890	0.0157952
751.968	0.0160199
752.046	0.0158662
752.124	0.0158610
752.203	0.0159591
752.281	0.0158562
752.359	0.0158524
752.437	0.0158432
752.515	0.0158479
752.593	0.0157990
752.671	0.0156525
752.749	0.0158504
752.828	0.0158338
752.906	0.0157732
752.984	0.0158675
753.062	0.0156944
753.140	0.0158595
753.218	0.0157722
753.296	0.0157863
753.374	0.0157702
753.453	0.0158203
753.531	0.0157777
753.609	0.0159619
753.687	0.0159161
753.765	0.0159342
753.843	0.0159966
753.921	0.0159000
753.999	0.0159935
754.078	0.0160809
754.156	0.0160426
754.234	0.0160624
754.312	0.0160331
754.390	0.0160802
754.468	0.0160735
754.546	0.0160958
754.624	0.0161710
754.703	0.0160083
754.781	0.0161224
754.859	0.0163238
754.937	0.0160158
755.015	0.0160071
755.093	0.0159447
755.171	0.0160132
755.249	0.0161304
755.328	0.0160351
755.406	0.0161147
755.484	0.0159476
755.562	0.0160217
755.640	0.0160288
755.718	0.0160198
755.796	0.0160381
755.874	0.0160284
755.953	0.0158949
756.031	0.0160679
756.109	0.0160813
756.187	0.0160813
756.265	0.0160814
756.343	0.0159196
756.421	0.0160194
756.499	0.0160962
756.578	0.0160493
756.656	0.0159699
756.734	0.0160413
756.812	0.0159673
756.890	0.0160432
756.968	0.0160592
757.046	0.0160215
757.124	0.0159867
757.203	0.0160360
757.281	0.0159685
757.359	0.0160641
757.437	0.0159949
757.515	0.0159891
757.593	0.0161855
757.671	0.0160165
757.749	0.0160343
757.828	0.0160799
757.906	0.0160876
757.984	0.0161323
758.062	0.0162026
758.140	0.0161071
758.218	0.0161600
758.296	0.0159766
758.374	0.0160228
758.453	0.0161980
758.531	0.0160052
758.609	0.0159271
758.687	0.0159598
758.765	0.0160591
758.843	0.0160444
758.921	0.0160737
758.999	0.0159696
759.078	0.0160457
759.156	0.0160209
759.234	0.0160359
759.312	0.0161471
759.390	0.0159855
759.468	0.0159983
759.546	0.0159953
759.624	0.0159678
759.703	0.0161672
759.781	0.0159871
759.859	0.0160056
759.937	0.0160022
760.015	0.0159814
760.093	0.0158881
760.171	0.0158380
760.249	0.0159737
760.328	0.0158585
760.406	0.0158330
760.484	0.0158087
760.562	0.0159422
760.640	0.0157835
760.718	0.0158784
760.796	0.0160133
760.874	0.0159124
760.953	0.0159917
761.031	0.0158990
761.109	0.0159850
761.187	0.0161526
761.265	0.0161681
761.343	0.0161045
761.421	0.0162178
761.499	0.0161686
761.578	0.0162756
761.656	0.0161517
761.734	0.0162675
761.812	0.0162514
761.890	0.0161958
761.968	0.0161474
762.046	0.0161353
762.124	0.0162293
762.203	0.0161217
762.281	0.0161269
762.359	0.0161141
762.437	0.0160981
762.515	0.0160730
762.593	0.0160282
762.671	0.0160110
762.749	0.0161189
762.828	0.0160993
762.906	0.0161096
762.984	0.0160463
763.062	0.0160284
763.140	0.0160110
763.218	0.0160246
763.296	0.0161409
763.374	0.0160220
763.453	0.0160234
763.531	0.0158560
763.609	0.0158203
763.687	0.0159678
763.765	0.0159322
763.843	0.0158143
763.921	0.0158433
763.999	0.0157968
764.078	0.0159050
764.156	0.0158234
764.234	0.0157782
764.312	0.0159300
764.390	0.0159265
764.468	0.0157918
764.546	0.0158714
764.624	0.0158714
764.703	0.0159580
764.781	0.0158704
764.859	0.0158441
764.937	0.0159664
765.015	0.0158771
765.093	0.0158080
765.171	0.0158891
765.249	0.0158865
765.328	0.0159554
765.406	0.0159742
765.484	0.0159789
765.562	0.0158588
765.640	0.0160034
765.718	0.0159896
765.796	0.0160138
765.874	0.0160201
765.953	0.0160223
766.031	0.0160698
766.109	0.0161050
766.187	0.0161290
766.265	0.0160994
766.343	0.0160973
766.421	0.0161266
766.499	0.0161299
766.578	0.0160487
766.656	0.0161136
766.734	0.0160690
766.812	0.0160225
766.890	0.0160331
766.968	0.0161417
767.046	0.0159402
767.124	0.0160753
767.203	0.0159859
767.281	0.0162082
767.359	0.0160905
767.437	0.0161865
767.515	0.0160750
767.593	0.0162497
767.671	0.0159734
767.749	0.0161135
767.828	0.0161321
767.906	0.0158826
767.984	0.0158008
768.062	0.0157687
768.140	0.0157206
768.218	0.0156196
768.296	0.0157092
768.374	0.0156193
768.453	0.0154646
768.531	0.0156791
768.609	0.0156446
768.687	0.0156602
768.765	0.0155375
768.843	0.0155598
768.921	0.0158293
768.999	0.0157129
769.078	0.0155735
769.156	0.0154203
769.234	0.0155284
769.312	0.0155301
769.390	0.0157265
769.468	0.0155727
769.546	0.0158075
769.624	0.0157452
769.703	0.0158407
769.781	0.0158375
769.859	0.0159055
769.937	0.0160329
770.015	0.0160680
770.093	0.0159825
770.171	0.0160989
770.249	0.0160896
770.328	0.0159795
770.406	0.0160216
770.484	0.0160986
770.562	0.0159956
770.640	0.0162225
770.718	0.0161749
770.796	0.0159546
770.874	0.0158645
770.953	0.0161874
771.031	0.0160118
771.109	0.0161475
771.187	0.0159729
771.265	0.0159909
771.343	0.0159895
771.421	0.0158391
771.499	0.0159608
771.578	0.0159913
771.656	0.0158580
771.734	0.0157491
771.812	0.0158431
771.890	0.0157205
771.968	0.0156721
772.046	0.0155678
772.124	0.0155435
772.203	0.0157074
772.281	0.0157037
772.359	0.0156962
772.437	0.0157721
772.515	0.0155985
772.593	0.0157881
772.671	0.0157649
772.749	0.0158678
772.828	0.0157446
772.906	0.0159519
772.984	0.0160402
773.062	0.0159580
773.140	0.0158336
773.218	0.0159441
773.296	0.0159299
773.374	0.0159499
773.453	0.0157435
773.531	0.0158376
773.609	0.0158161
773.687	0.0160105
773.765	0.0160984
773.843	0.0159865
773.921	0.0159968
773.999	0.0159241
774.078	0.0159489
774.156	0.0158759
774.234	0.0159628
774.312	0.0158464
774.390	0.0158521
774.468	0.0157710
774.546	0.0157729
774.624	0.0158208
774.703	0.0158467
774.781	0.0158493
774.859	0.0158092
774.937	0.0158219
775.015	0.0159947
775.093	0.0160341
775.171	0.0160748
775.249	0.0159901
775.328	0.0160115
775.406	0.0160551
775.484	0.0161958
775.562	0.0161726
775.640	0.0160757
775.718	0.0160617
775.796	0.0161685
775.874	0.0161526
775.953	0.0160925
776.031	0.0160461
776.109	0.0162011
776.187	0.0161105
776.265	0.0160998
776.343	0.0159972
776.421	0.0161419
776.499	0.0159592
776.578	0.0159454
776.656	0.0160800
776.734	0.0157606
776.812	0.0158644
776.890	0.0158485
776.968	0.0158343
777.046	0.0156953
777.124	0.0157292
777.203	0.0158194
777.281	0.0157011
777.359	0.0156083
777.437	0.0155736
777.515	0.0156220
777.593	0.0157543
777.671	0.0157256
777.749	0.0156143
777.828	0.0156645
777.906	0.0156556
777.984	0.0158892
778.062	0.0158076
778.140	0.0159956
778.218	0.0159466
778.296	0.0161052
778.374	0.0162936
778.453	0.0161534
778.531	0.0161332
778.609	0.0161980
778.687	0.0160404
778.765	0.0161118
778.843	0.0161866
778.921	0.0161048
778.999	0.0162286
779.078	0.0162141
779.156	0.0160464
779.234	0.0159808
779.312	0.0160485
779.390	0.0160886
779.468	0.0160423
779.546	0.0158701
779.624	0.0160103
779.703	0.0160782
779.781	0.0161557
779.859	0.0160618
779.937	0.0159182
780.015	0.0159983
780.093	0.0159563
780.171	0.0160493
780.249	0.0159986
780.328	0.0160780
780.406	0.0159537
780.484	0.0160883
780.562	0.0160195
780.640	0.0159658
780.718	0.0159390
780.796	0.0158728
780.874	0.0159456
780.953	0.0160548
781.031	0.0159398
781.109	0.0159061
781.187	0.0159668
781.265	0.0159580
781.343	0.0159483
781.421	0.0157307
781.499	0.0158218
781.578	0.0157513
781.656	0.0158978
781.734	0.0158343
781.812	0.0158932
781.890	0.0158940
781.968	0.0159365
782.046	0.0158863
782.124	0.0158806
782.203	0.0157928
782.281	0.0158031
782.359	0.0159578
782.437	0.0157748
782.515	0.0156859
782.593	0.0158315
782.671	0.0158872
782.749	0.0156474
782.828	0.0159124
782.906	0.0159972
782.984	0.0158466
783.062	0.0158932
783.140	0.0158582
783.218	0.0159818
783.296	0.0160634
783.374	0.0160678
783.453	0.0162165
783.531	0.0162124
783.609	0.0161342
783.687	0.0161540
783.765	0.0163358
783.843	0.0164072
783.921	0.0163085
783.999	0.0162887
784.078	0.0164050
784.156	0.0161828
784.234	0.0162840
784.312	0.0164465
784.390	0.0164259
784.468	0.0162906
784.546	0.0162658
784.624	0.0162758
784.703	0.0163162
784.781	0.0162798
784.859	0.0161926
784.937	0.0160657
785.015	0.0161968
785.093	0.0161772
785.171	0.0162404
785.249	0.0161196
785.328	0.0160330
785.406	0.0160156
785.484	0.0159341
785.562	0.0158713
785.640	0.0159447
785.718	0.0157864
785.796	0.0157397
785.874	0.0157899
785.953	0.0156795
786.031	0.0157124
786.109	0.0156116
786.187	0.0156223
786.265	0.0157050
786.343	0.0157094
786.421	0.0157314
786.499	0.0156042
786.578	0.0156866
786.656	0.0157208
786.734	0.0156686
786.812	0.0156107
786.890	0.0155536
786.968	0.0156947
787.046	0.0157036
787.124	0.0157608
787.203	0.0157384
787.281	0.0157279
787.359	0.0158321
787.437	0.0159702
787.515	0.0159291
787.593	0.0160333
787.671	0.0161613
787.749	0.0162148
787.828	0.0161993
787.906	0.0164129
787.984	0.0164661
788.062	0.0164814
788.140	0.0165812
788.218	0.0165199
788.296	0.0165372
788.374	0.0163502
788.453	0.0163432
788.531	0.0165292
788.609	0.0164363
788.687	0.0162946
788.765	0.0164235
788.843	0.0162852
788.921	0.0162597
788.999	0.0160581
789.078	0.0160964
789.156	0.0159550
789.234	0.0158895
789.312	0.0159383
789.390	0.0157960
789.468	0.0159347
789.546	0.0157687
789.624	0.0158234
789.703	0.0157979
789.781	0.0156809
789.859	0.0157066
789.937	0.0157256
790.015	0.0156929
790.093	0.0157525
790.171	0.0156055
790.249	0.0156042
790.328	0.0157520
790.406	0.0157038
790.484	0.0156571
790.562	0.0156921
790.640	0.0156989
790.718	0.0157979
790.796	0.0158106
790.874	0.0157951
790.953	0.0158295
791.031	0.0157343
791.109	0.0159191
791.187	0.0159040
791.265	0.0158929
791.343	0.0158721
791.421	0.0159684
791.499	0.0160203
791.578	0.0160208
791.656	0.0160887
791.734	0.0159657
791.812	0.0161151
791.890	0.0160746
791.968	0.0162056
792.046	0.0163415
792.124	0.0162769
792.203	0.0163548
792.281	0.0162885
792.359	0.0164112
792.437	0.0164338
792.515	0.0162843
792.593	0.0162717
792.671	0.0163959
792.749	0.0164244
792.828	0.0165419
792.906	0.0163605
792.984	0.0163441
793.062	0.0162247
793.140	0.0161459
793.218	0.0161808
793.296	0.0158839
793.374	0.0159429
793.453	0.0161578
793.531	0.0159786
793.609	0.0159602
793.687	0.0158931
793.765	0.0159758
793.843	0.0156817
793.921	0.0156383
793.999	0.0155753
794.078	0.0155999
794.156	0.0157656
794.234	0.0156828
794.312	0.0157825
794.390	0.0155873
794.468	0.0155548
794.546	0.0156550
794.624	0.0158476
794.703	0.0157801
794.781	0.0157677
794.859	0.0157970
794.937	0.0158208
795.015	0.0159253
795.093	0.0160069
795.171	0.0159740
795.249	0.0160075
795.328	0.0159119
795.406	0.0160158
795.484	0.0159168
795.562	0.0159783
795.640	0.0161485
795.718	0.0161161
795.796	0.0161876
795.874	0.0161347
795.953	0.0162404
796.031	0.0162618
796.109	0.0162661
796.187	0.0162439
796.265	0.0163937
796.343	0.0163506
796.421	0.0163985
796.499	0.0164225
796.578	0.0165182
796.656	0.0164365
796.734	0.0164436
796.812	0.0164661
796.890	0.0164617
796.968	0.0164928
797.046	0.0163505
797.124	0.0165369
797.203	0.0165737
797.281	0.0164082
797.359	0.0162610
797.437	0.0161403
797.515	0.0161924
797.593	0.0160638
797.671	0.0160841
797.749	0.0161971
797.828	0.0159096
797.906	0.0158537
797.984	0.0158155
798.062	0.0156462
798.140	0.0155804
798.218	0.0154993
798.296	0.0156929
798.374	0.0156041
798.453	0.0155054
798.531	0.0154610
798.609	0.0154810
798.687	0.0155813
798.765	0.0155687
798.843	0.0155206
798.921	0.0156767
798.999	0.0156375
799.078	0.0156043
799.156	0.0157759
799.234	0.0158551
799.312	0.0159605
799.390	0.0159536
799.468	0.0158768
799.546	0.0159570
799.624	0.0159606
799.703	0.0161672
799.781	0.0159331
799.859	0.0161090
799.937	0.0162278
800.015	0.0162031
800.093	0.0162175
800.171	0.0163068
800.249	0.0162460
800.328	0.0161874
800.406	0.0163350
800.484	0.0164114
800.562	0.0163863
800.640	0.0164606
800.718	0.0163412
800.796	0.0161920
800.874	0.0162067
800.953	0.0162155
801.031	0.0162189
801.109	0.0162119
801.187	0.0161661
801.265	0.0160810
801.343	0.0159714
801.421	0.0160177
801.499	0.0158691
801.578	0.0157973
801.656	0.0159347
801.734	0.0157726
801.812	0.0158393
801.890	0.0158064
801.968	0.0157744
802.046	0.0157544
802.124	0.0157030
802.203	0.0157233
802.281	0.0157057
802.359	0.0157658
802.437	0.0157439
802.515	0.0158666
802.593	0.0157559
802.671	0.0156421
802.749	0.0157196
802.828	0.0157964
802.906	0.0157931
802.984	0.0158284
803.062	0.0157486
803.140	0.0157142
803.218	0.0157833
803.296	0.0158147
803.374	0.0159087
803.453	0.0157632
803.531	0.0160071
803.609	0.0159476
803.687	0.0159335
803.765	0.0159348
803.843	0.0160024
803.921	0.0159216
803.999	0.0159323
804.078	0.0160142
804.156	0.0161387
804.234	0.0159782
804.312	0.0162207
804.390	0.0160715
804.468	0.0161411
804.546	0.0160970
804.624	0.0160414
804.703	0.0160963
804.781	0.0162135
804.859	0.0162125
804.937	0.0161421
805.015	0.0160806
805.093	0.0160642
805.171	0.0160654
805.249	0.0161607
805.328	0.0161077
805.406	0.0160728
805.484	0.0159611
805.562	0.0158931
805.640	0.0157688
805.718	0.0157162
805.796	0.0159068
805.874	0.0157208
805.953	0.0157381
806.031	0.0156281
806.109	0.0157182
806.187	0.0156853
806.265	0.0156675
806.343	0.0155627
806.421	0.0156240
806.499	0.0156263
806.578	0.0156380
806.656	0.0155598
806.734	0.0155409
806.812	0.0155792
806.890	0.0156570
806.968	0.0155270
807.046	0.0155648
807.124	0.0156773
807.203	0.0157558
807.281	0.0157463
807.359	0.0158755
807.437	0.0158835
807.515	0.0158369
807.593	0.0158327
807.671	0.0161069
807.749	0.0161787
807.828	0.0162318
807.906	0.0162283
807.984	0.0162182
808.062	0.0162134
808.140	0.0163474
808.218	0.0162369
808.296	0.0163833
808.374	0.0162241
808.453	0.0162325
808.531	0.0162403
808.609	0.0164092
808.687	0.0162509
808.765	0.0162599
808.843	0.0163048
808.921	0.0162905
808.999	0.0161974
809.078	0.0161172
809.156	0.0161684
809.234	0.0160199
809.312	0.0159251
809.390	0.0159485
809.468	0.0159724
809.546	0.0159747
809.624	0.0158247
809.703	0.0157293
809.781	0.0156369
809.859	0.0155949
809.937	0.0154568
810.015	0.0155477
810.093	0.0155343
810.171	0.0154566
810.249	0.0154507
810.328	0.0153719
810.406	0.0154388
810.484	0.0156953
810.562	0.0156060
810.640	0.0155746
810.718	0.0157422
810.796	0.0157114
810.874	0.0159666
810.953	0.0159504
811.031	0.0160210
811.109	0.0159244
811.187	0.0160299
811.265	0.0161765
811.343	0.0162224
811.421	0.0161311
811.499	0.0161676
811.578	0.0162749
811.656	0.0160598
811.734	0.0162096
811.812	0.0162947
811.890	0.0162359
811.968	0.0162961
812.046	0.0161727
812.124	0.0161331
812.203	0.0159988
812.281	0.0160764
812.359	0.0159956
812.437	0.0160673
812.515	0.0160868
812.593	0.0161337
812.671	0.0160137
812.749	0.0159158
812.828	0.0159882
812.906	0.0160747
812.984	0.0160741
813.062	0.0161839
813.140	0.0159753
813.218	0.0160824
813.296	0.0159884
813.374	0.0158845
813.453	0.0158851
813.531	0.0159793
813.609	0.0158512
813.687	0.0158073
813.765	0.0159229
813.843	0.0158416
813.921	0.0158985
813.999	0.0159330
814.078	0.0159245
814.156	0.0157759
814.234	0.0157129
814.312	0.0157648
814.390	0.0158125
814.468	0.0159401
814.546	0.0156898
814.624	0.0157527
814.703	0.0157728
814.781	0.0157684
814.859	0.0157577
814.937	0.0157315
815.015	0.0157011
815.093	0.0156837
815.171	0.0157121
815.249	0.0158265
815.328	0.0158357
815.406	0.0159074
815.484	0.0159406
815.562	0.0161282
815.640	0.0161980
815.718	0.0161985
815.796	0.0161528
815.874	0.0162772
815.953	0.0162381
816.031	0.0163020
816.109	0.0161543
816.187	0.0162221
816.265	0.0162923
816.343	0.0163445
816.421	0.0161488
816.499	0.0162188
816.578	0.0162765
816.656	0.0161095
816.734	0.0160218
816.812	0.0160827
816.890	0.0160368
816.968	0.0159238
817.046	0.0157993
817.124	0.0158945
817.203	0.0159590
817.281	0.0158846
817.359	0.0158314
817.437	0.0159103
817.515	0.0160046
817.593	0.0159369
817.671	0.0158199
817.749	0.0158528
817.828	0.0159220
817.906	0.0158789
817.984	0.0159649
818.062	0.0158400
818.140	0.0156499
818.218	0.0156155
818.296	0.0158889
818.374	0.0158313
818.453	0.0157485
818.531	0.0155963
818.609	0.0158202
818.687	0.0159278
818.765	0.0159915
818.843	0.0158869
818.921	0.0160749
818.999	0.0160361
819.078	0.0161080
819.156	0.0163089
819.234	0.0163167
819.312	0.0162778
819.390	0.0162754
819.468	0.0163309
819.546	0.0162565
819.624	0.0162796
819.703	0.0163995
819.781	0.0164370
819.859	0.0162458
819.937	0.0162279
820.015	0.0164613
820.093	0.0162531
820.171	0.0162288
820.249	0.0163474
820.328	0.0163452
820.406	0.0162299
820.484	0.0164066
820.562	0.0162921
820.640	0.0160358
820.718	0.0162118
820.796	0.0163386
820.874	0.0160448
820.953	0.0161211
821.031	0.0160807
821.109	0.0160607
821.187	0.0159469
821.265	0.0160573
821.343	0.0158504
821.421	0.0157726
821.499	0.0156736
821.578	0.0157185
821.656	0.0156883
821.734	0.0156709
821.812	0.0157542
821.890	0.0157423
821.968	0.0157354
822.046	0.0157239
822.124	0.0157490
822.203	0.0156617
822.281	0.0157500
822.359	0.0158407
822.437	0.0158487
822.515	0.0157800
822.593	0.0157267
822.671	0.0157813
822.749	0.0157822
822.828	0.0159948
822.906	0.0158470
822.984	0.0159926
823.062	0.0162260
823.140	0.0160591
823.218	0.0161899
823.296	0.0162105
823.374	0.0163810
823.453	0.0164022
823.531	0.0164922
823.609	0.0163681
823.687	0.0164169
823.765	0.0163531
823.843	0.0162539
823.921	0.0162360
823.999	0.0164204
824.078	0.0161877
824.156	0.0161815
824.234	0.0162485
824.312	0.0160351
824.390	0.0159872
824.468	0.0160033
824.546	0.0159286
824.624	0.0158486
824.703	0.0156770
824.781	0.0156351
824.859	0.0155068
824.937	0.0156506
825.015	0.0154177
825.093	0.0153733
825.171	0.0155184
825.249	0.0154190
825.328	0.0154827
825.406	0.0154991
825.484	0.0155569
825.562	0.0155819
825.640	0.0157157
825.718	0.0158117
825.796	0.0157413
825.874	0.0157134
825.953	0.0157494
826.031	0.0158926
826.109	0.0160281
826.187	0.0160368
826.265	0.0160370
826.343	0.0161378
826.421	0.0162128
826.499	0.0161488
826.578	0.0161960
826.656	0.0164114
826.734	0.0164561
826.812	0.0163630
826.890	0.0163740
826.968	0.0161328
827.046	0.0162607
827.124	0.0163975
827.203	0.0161088
827.281	0.0160316
827.359	0.0159796
827.437	0.0159808
827.515	0.0158397
827.593	0.0157863
827.671	0.0158406
827.749	0.0158763
827.828	0.0157488
827.906	0.0157531
827.984	0.0157741
828.062	0.0157167
828.140	0.0156255
828.218	0.0156699
828.296	0.0155758
828.374	0.0155831
828.453	0.0156693
828.531	0.0156709
828.609	0.0155096
828.687	0.0155437
828.765	0.0155907
828.843	0.0156834
828.921	0.0156879
828.999	0.0157088
829.078	0.0157763
829.156	0.0157899
829.234	0.0157455
829.312	0.0157389
829.390	0.0157725
829.468	0.0157043
829.546	0.0158132
829.624	0.0158699
829.703	0.0158321
829.781	0.0159895
829.859	0.0160413
829.937	0.0160342
830.015	0.0161385
830.093	0.0162051
830.171	0.0162042
830.249	0.0162298
830.328	0.0162172
830.406	0.0162087
830.484	0.0161977
830.562	0.0161559
830.640	0.0161597
830.718	0.0161156
830.796	0.0161655
830.874	0.0159998
830.953	0.0160514
831.031	0.0160423
831.109	0.0160262
831.187	0.0160613
831.265	0.0160635
831.343	0.0158353
831.421	0.0159238
831.499	0.0159122
831.578	0.0157661
831.656	0.0157165
831.734	0.0157055
831.812	0.0157935
831.890	0.0157818
831.968	0.0156931
832.046	0.0156580
832.124	0.0156796
832.203	0.0156580
832.281	0.0159245
832.359	0.0157325
832.437	0.0158910
832.515	0.0158636
832.593	0.0159204
832.671	0.0159722
832.749	0.0157951
832.828	0.0159455
832.906	0.0160477
832.984	0.0159476
833.062	0.0159557
833.140	0.0159306
833.218	0.0159312
833.296	0.0160994
833.374	0.0159163
833.453	0.0160278
833.531	0.0160378
833.609	0.0160455
833.687	0.0160635
833.765	0.0160708
833.843	0.0160424
833.921	0.0159563
833.999	0.0158802
834.078	0.0160408
834.156	0.0159653
834.234	0.0158467
834.312	0.0155794
834.390	0.0157245
834.468	0.0158140
834.546	0.0156384
834.624	0.0157215
834.703	0.0157664
834.781	0.0156604
834.859	0.0157275
834.937	0.0156911
835.015	0.0156326
835.093	0.0155946
835.171	0.0156697
835.249	0.0156996
835.328	0.0158494
835.406	0.0159390
835.484	0.0159243
835.562	0.0160809
835.640	0.0160675
835.718	0.0159991
835.796	0.0162560
835.874	0.0162307
835.953	0.0164782
836.031	0.0163303
836.109	0.0160955
836.187	0.0162836
836.265	0.0162450
836.343	0.0161079
836.421	0.0160427
836.499	0.0161228
836.578	0.0161508
836.656	0.0161422
836.734	0.0159772
836.812	0.0159296
836.890	0.0159938
836.968	0.0162084
837.046	0.0160273
837.124	0.0159887
837.203	0.0159481
837.281	0.0158488
837.359	0.0157737
837.437	0.0157864
837.515	0.0158356
837.593	0.0157022
837.671	0.0155885
837.749	0.0155955
837.828	0.0156123
837.906	0.0155680
837.984	0.0155146
838.062	0.0155606
838.140	0.0155979
838.218	0.0154763
838.296	0.0154344
838.374	0.0155305
838.453	0.0155385
838.531	0.0156050
838.609	0.0157224
838.687	0.0155798
838.765	0.0156220
838.843	0.0157898
838.921	0.0159609
838.999	0.0159742
839.078	0.0160635
839.156	0.0160780
839.234	0.0160034
839.312	0.0161217
839.390	0.0162710
839.468	0.0163071
839.546	0.0162427
839.624	0.0162036
839.703	0.0162342
839.781	0.0164512
839.859	0.0163148
839.937	0.0162513
840.015	0.0164046
840.093	0.0164507
840.171	0.0163152
840.249	0.0161716
840.328	0.0162473
840.406	0.0162160
840.484	0.0162998
840.562	0.0160890
840.640	0.0160941
840.718	0.0160745
840.796	0.0160029
840.874	0.0161677
840.953	0.0160785
841.031	0.0158011
841.109	0.0157914
841.187	0.0159349
841.265	0.0158664
841.343	0.0157616
841.421	0.0157403
841.499	0.0157114
841.578	0.0157484
841.656	0.0158071
841.734	0.0157195
841.812	0.0157227
841.890	0.0156526
841.968	0.0157059
842.046	0.0156937
842.124	0.0158730
842.203	0.0157619
842.281	0.0157641
842.359	0.0159000
842.437	0.0159205
842.515	0.0160534
842.593	0.0159930
842.671	0.0160183
842.749	0.0160683
842.828	0.0159898
842.906	0.0161609
842.984	0.0161495
843.062	0.0161031
843.140	0.0161552
843.218	0.0162261
843.296	0.0162377
843.374	0.0162675
843.453	0.0162338
843.531	0.0163044
843.609	0.0163850
843.687	0.0162630
843.765	0.0163290
843.843	0.0162490
843.921	0.0162441
843.999	0.0162585
844.078	0.0162466
844.156	0.0163322
844.234	0.0163532
844.312	0.0161655
844.390	0.0161186
844.468	0.0160535
844.546	0.0161004
844.624	0.0160046
844.703	0.0157950
844.781	0.0158178
844.859	0.0159001
844.937	0.0156630
845.015	0.0156330
845.093	0.0156458
845.171	0.0156651
845.249	0.0156431
845.328	0.0153885
845.406	0.0156940
845.484	0.0157034
845.562	0.0156622
845.640	0.0155811
845.718	0.0156946
845.796	0.0158527
845.874	0.0158180
845.953	0.0157474
846.031	0.0159538
846.109	0.0158243
846.187	0.0157635
846.265	0.0159052
846.343	0.0160901
846.421	0.0159829
846.499	0.0160148
846.578	0.0160854
846.656	0.0159938
846.734	0.0161919
846.812	0.0161630
846.890	0.0162222
846.968	0.0162054
847.046	0.0162091
847.124	0.0162706
847.203	0.0162043
847.281	0.0162001
847.359	0.0161729
847.437	0.0163564
847.515	0.0162341
847.593	0.0163683
847.671	0.0165134
847.749	0.0163273
847.828	0.0163586
847.906	0.0162760
847.984	0.0163805
848.062	0.0163806
848.140	0.0163641
848.218	0.0162720
848.296	0.0161659
848.374	0.0160963
848.453	0.0161419
848.531	0.0160456
848.609	0.0159119
848.687	0.0159125
848.765	0.0159931
848.843	0.0159016
848.921	0.0159305
848.999	0.0157206
849.078	0.0157485
849.156	0.0158408
849.234	0.0157331
849.312	0.0157782
849.390	0.0158646
849.468	0.0157934
849.546	0.0158906
849.624	0.0158614
849.703	0.0159161
849.781	0.0159658
849.859	0.0157594
849.937	0.0157702
850.015	0.0159562
850.093	0.0159200
850.171	0.0159133
850.249	0.0159190
850.328	0.0159641
850.406	0.0158986
850.484	0.0158354
850.562	0.0158358
850.640	0.0159175
850.718	0.0159586
850.796	0.0158887
850.874	0.0159351
850.953	0.0158857
851.031	0.0158103
851.109	0.0159083
851.187	0.0160322
851.265	0.0159148
851.343	0.0159137
851.421	0.0159554
851.499	0.0159160
851.578	0.0159019
851.656	0.0159743
851.734	0.0159525
851.812	0.0161044
851.890	0.0161259
851.968	0.0159752
852.046	0.0161953
852.124	0.0161375
852.203	0.0159138
852.281	0.0161559
852.359	0.0162003
852.437	0.0162158
852.515	0.0161644
852.593	0.0162110
852.671	0.0161017
852.749	0.0161248
852.828	0.0161223
852.906	0.0161546
852.984	0.0161417
853.062	0.0161003
853.140	0.0159954
853.218	0.0159356
853.296	0.0159484
853.374	0.0161289
853.453	0.0159741
853.531	0.0159531
853.609	0.0159911
853.687	0.0160281
853.765	0.0158897
853.843	0.0159116
853.921	0.0158987
853.999	0.0159695
854.078	0.0158197
854.156	0.0158546
854.234	0.0157243
854.312	0.0157187
854.390	0.0156473
854.468	0.0155959
854.546	0.0156797
854.624	0.0156001
854.703	0.0155704
854.781	0.0153893
854.859	0.0154898
854.937	0.0155944
855.015	0.0154472
855.093	0.0154451
855.171	0.0155975
855.249	0.0156544
855.328	0.0155819
855.406	0.0155472
855.484	0.0156455
855.562	0.0157243
855.640	0.0158804
855.718	0.0159129
855.796	0.0159974
855.874	0.0161300
855.953	0.0161269
856.031	0.0162237
856.109	0.0161781
856.187	0.0163017
856.265	0.0162540
856.343	0.0162495
856.421	0.0165472
856.499	0.0165310
856.578	0.0164043
856.656	0.0163744
856.734	0.0162898
856.812	0.0161346
856.890	0.0162438
856.968	0.0161819
857.046	0.0161854
857.124	0.0161575
857.203	0.0161372
857.281	0.0160685
857.359	0.0160612
857.437	0.0160377
857.515	0.0159317
857.593	0.0158244
857.671	0.0156685
857.749	0.0157455
857.828	0.0158149
857.906	0.0158788
857.984	0.0157121
858.062	0.0157396
858.140	0.0158571
858.218	0.0158126
858.296	0.0158012
858.374	0.0157430
858.453	0.0159755
858.531	0.0158200
858.609	0.0159468
858.687	0.0159427
858.765	0.0159042
858.843	0.0159759
858.921	0.0159657
858.999	0.0159216
859.078	0.0159702
859.156	0.0159708
859.234	0.0158873
859.312	0.0160869
859.390	0.0160098
859.468	0.0160410
859.546	0.0160096
859.624	0.0161047
859.703	0.0160073
859.781	0.0160120
859.859	0.0159937
859.937	0.0160551
860.015	0.0158565
860.093	0.0160091
860.171	0.0160953
860.249	0.0160782
860.328	0.0160560
860.406	0.0158028
860.484	0.0160352
860.562	0.0161024
860.640	0.0160980
860.718	0.0162885
860.796	0.0160791
860.874	0.0160520
860.953	0.0160846
861.031	0.0161109
861.109	0.0161629
861.187	0.0162407
861.265	0.0162019
861.343	0.0162504
861.421	0.0162452
861.499	0.0161591
861.578	0.0162621
861.656	0.0163399
861.734	0.0161358
861.812	0.0162108
861.890	0.0161597
861.968	0.0161513
862.046	0.0162403
862.124	0.0159917
862.203	0.0159543
862.281	0.0160442
862.359	0.0159176
862.437	0.0159233
862.515	0.0160706
862.593	0.0159722
862.671	0.0159023
862.749	0.0158582
862.828	0.0158333
862.906	0.0158147
862.984	0.0158950
863.062	0.0157809
863.140	0.0158755
863.218	0.0157803
863.296	0.0160056
863.374	0.0159001
863.453	0.0158884
863.531	0.0159510
863.609	0.0159676
863.687	0.0160835
863.765	0.0159977
863.843	0.0161300
863.921	0.0160965
863.999	0.0160261
864.078	0.0161758
864.156	0.0161656
864.234	0.0161079
864.312	0.0161611
864.390	0.0161923
864.468	0.0161947
864.546	0.0161028
864.624	0.0161015
864.703	0.0160769
864.781	0.0159500
864.859	0.0161385
864.937	0.0160166
865.015	0.0160278
865.093	0.0159829
865.171	0.0159835
865.249	0.0158138
865.328	0.0158669
865.406	0.0159982
865.484	0.0159544
865.562	0.0157914
865.640	0.0157919
865.718	0.0157388
865.796	0.0158845
865.874	0.0158738
865.953	0.0158183
866.031	0.0157672
866.109	0.0158586
866.187	0.0157539
866.265	0.0158001
866.343	0.0159254
866.421	0.0158473
866.499	0.0158067
866.578	0.0159255
866.656	0.0158704
866.734	0.0159925
866.812	0.0158772
866.890	0.0158076
866.968	0.0159456
867.046	0.0157454
867.124	0.0159004
867.203	0.0159462
867.281	0.0158336
867.359	0.0159782
867.437	0.0159113
867.515	0.0157862
867.593	0.0159196
867.671	0.0159024
867.749	0.0159826
867.828	0.0160297
867.906	0.0160117
867.984	0.0158849
868.062	0.0158698
868.140	0.0159151
868.218	0.0159286
868.296	0.0157912
868.374	0.0157524
868.453	0.0158818
868.531	0.0159026
868.609	0.0159032
868.687	0.0160068
868.765	0.0159698
868.843	0.0160003
868.921	0.0159667
868.999	0.0159940
869.078	0.0160210
869.156	0.0160786
869.234	0.0160061
869.312	0.0160719
869.390	0.0161044
869.468	0.0162335
869.546	0.0161649
869.624	0.0161270
869.703	0.0162086
869.781	0.0160538
869.859	0.0159801
869.937	0.0162059
870.015	0.0160713
870.093	0.0161284
870.171	0.0160947
870.249	0.0160305
870.328	0.0160203
870.406	0.0159570
870.484	0.0159005
870.562	0.0158685
870.640	0.0159279
870.718	0.0160129
870.796	0.0159225
870.874	0.0159066
870.953	0.0159493
871.031	0.0159133
871.109	0.0159483
871.187	0.0158857
871.265	0.0158970
871.343	0.0159922
871.421	0.0158898
871.499	0.0159323
871.578	0.0159582
871.656	0.0158711
871.734	0.0159489
871.812	0.0158748
871.890	0.0158624
871.968	0.0160712
872.046	0.0160525
872.124	0.0159447
872.203	0.0160724
872.281	0.0160310
872.359	0.0161248
872.437	0.0159322
872.515	0.0159901
872.593	0.0161388
872.671	0.0161390
872.749	0.0161337
872.828	0.0161477
872.906	0.0161472
872.984	0.0159529
873.062	0.0160860
873.140	0.0162209
873.218	0.0161323
873.296	0.0160099
873.374	0.0160104
873.453	0.0160358
873.531	0.0159708
873.609	0.0158553
873.687	0.0159369
873.765	0.0158202
873.843	0.0159287
873.921	0.0159032
873.999	0.0158483
874.078	0.0157739
874.156	0.0158425
874.234	0.0158894
874.312	0.0159267
874.390	0.0156951
874.468	0.0158821
874.546	0.0157698
874.624	0.0157630
874.703	0.0156590
874.781	0.0157582
874.859	0.0157833
874.937	0.0157207
875.015	0.0159129
875.093	0.0157607
875.171	0.0159200
875.249	0.0160252
875.328	0.0158301
875.406	0.0158665
875.484	0.0159719
875.562	0.0159398
875.640	0.0158671
875.718	0.0160047
875.796	0.0157296
875.874	0.0159293
875.953	0.0160374
876.031	0.0160624
876.109	0.0159449
876.187	0.0160427
876.265	0.0159179
876.343	0.0160995
876.421	0.0159401
876.499	0.0160667
876.578	0.0158812
876.656	0.0158995
876.734	0.0158741
876.812	0.0160571
876.890	0.0159145
876.968	0.0158426
877.046	0.0157226
877.124	0.0158914
877.203	0.0157587
877.281	0.0158322
877.359	0.0158310
877.437	0.0159156
877.515	0.0158871
877.593	0.0158028
877.671	0.0159203
877.749	0.0158738
877.828	0.0159334
877.906	0.0160389
877.984	0.0160257
878.062	0.0158482
878.140	0.0159212
878.218	0.0160220
878.296	0.0159738
878.374	0.0159089
878.453	0.0160564
878.531	0.0159312
878.609	0.0159831
878.687	0.0160032
878.765	0.0159486
878.843	0.0159203
878.921	0.0159396
878.999	0.0158704
879.078	0.0159995
879.156	0.0159657
879.234	0.0160379
879.312	0.0161227
879.390	0.0161493
879.468	0.0159259
879.546	0.0160764
879.624	0.0161092
879.703	0.0161341
879.781	0.0161005
879.859	0.0160380
879.937	0.0160675
880.015	0.0161032
880.093	0.0160711
880.171	0.0159239
880.249	0.0159996
880.328	0.0161677
880.406	0.0161246
880.484	0.0159404
880.562	0.0159470
880.640	0.0160067
880.718	0.0160937
880.796	0.0159447
880.874	0.0161130
880.953	0.0158730
881.031	0.0158842
881.109	0.0160026
881.187	0.0159801
881.265	0.0159650
881.343	0.0161108
881.421	0.0160892
881.499	0.0159677
881.578	0.0159590
881.656	0.0159329
881.734	0.0159142
881.812	0.0159592
881.890	0.0160400
881.968	0.0157077
882.046	0.0158736
882.124	0.0158524
882.203	0.0158249
882.281	0.0158649
882.359	0.0159476
882.437	0.0159185
882.515	0.0159321
882.593	0.0159380
882.671	0.0159019
882.749	0.0159391
882.828	0.0160101
882.906	0.0160078
882.984	0.0160831
883.062	0.0159850
883.140	0.0160606
883.218	0.0160262
883.296	0.0159509
883.374	0.0160163
883.453	0.0159492
883.531	0.0161150
883.609	0.0159686
883.687	0.0159988
883.765	0.0161280
883.843	0.0161340
883.921	0.0160463
883.999	0.0161237
884.078	0.0159675
884.156	0.0158006
884.234	0.0160793
884.312	0.0160360
884.390	0.0159522
884.468	0.0159605
884.546	0.0160265
884.624	0.0159869
884.703	0.0161545
884.781	0.0160120
884.859	0.0159091
884.937	0.0159707
885.015	0.0159566
885.093	0.0160303
885.171	0.0161693
885.249	0.0160870
885.328	0.0160497
885.406	0.0160769
885.484	0.0162479
885.562	0.0160721
885.640	0.0161396
885.718	0.0161269
885.796	0.0159709
885.874	0.0161235
885.953	0.0161898
886.031	0.0161772
886.109	0.0160363
886.187	0.0160306
886.265	0.0161898
886.343	0.0161904
886.421	0.0160081
886.499	0.0158845
886.578	0.0161903
886.656	0.0160813
886.734	0.0159518
886.812	0.0159255
886.890	0.0159769
886.968	0.0159538
887.046	0.0160644
887.124	0.0159310
887.203	0.0157769
887.281	0.0158183
887.359	0.0159140
887.437	0.0160338
887.515	0.0160058
887.593	0.0160727
887.671	0.0159311
887.749	0.0160139
887.828	0.0160658
887.906	0.0160082
887.984	0.0160615
888.062	0.0160388
888.140	0.0159800
888.218	0.0161819
888.296	0.0161199
888.374	0.0160941
888.453	0.0162114
888.531	0.0160593
888.609	0.0161646
888.687	0.0161803
888.765	0.0162047
888.843	0.0159278
888.921	0.0160867
888.999	0.0160523
889.078	0.0159818
889.156	0.0161063
889.234	0.0159081
889.312	0.0159103
889.390	0.0159893
889.468	0.0160616
889.546	0.0159407
889.624	0.0158053
889.703	0.0158584
889.781	0.0158455
889.859	0.0158654
889.937	0.0159358
890.015	0.0159197
890.093	0.0160011
890.171	0.0158707
890.249	0.0159805
890.328	0.0158421
890.406	0.0159341
890.484	0.0158532
890.562	0.0159042
890.640	0.0159057
890.718	0.0159153
890.796	0.0159323
890.874	0.0159602
890.953	0.0161360
891.031	0.0160250
891.109	0.0159126
891.187	0.0158347
891.265	0.0160580
891.343	0.0160397
891.421	0.0159390
891.499	0.0159340
891.578	0.0160365
891.656	0.0158366
891.734	0.0159524
891.812	0.0158633
891.890	0.0158701
891.968	0.0159878
892.046	0.0160447
892.124	0.0161456
892.203	0.0161082
892.281	0.0161131
892.359	0.0159297
892.437	0.0160297
892.515	0.0160649
892.593	0.0162228
892.671	0.0160807
892.749	0.0161844
892.828	0.0162158
892.906	0.0160760
892.984	0.0161011
893.062	0.0160155
893.140	0.0159853
893.218	0.0160423
893.296	0.0161403
893.374	0.0160532
893.453	0.0161871
893.531	0.0160860
893.609	0.0161311
893.687	0.0161815
893.765	0.0159966
893.843	0.0160912
893.921	0.0160952
893.999	0.0159575
894.078	0.0159996
894.156	0.0160654
894.234	0.0160228
894.312	0.0159892
894.390	0.0159887
894.468	0.0160689
894.546	0.0160064
894.624	0.0159872
894.703	0.0160254
894.781	0.0160403
894.859	0.0161065
894.937	0.0159933
895.015	0.0159395
895.093	0.0158965
895.171	0.0160233
895.249	0.0159322
895.328	0.0158935
895.406	0.0160139
895.484	0.0159753
895.562	0.0159197
895.640	0.0160004
895.718	0.0159082
895.796	0.0159354
895.874	0.0160632
895.953	0.0161283
896.031	0.0159982
896.109	0.0159606
896.187	0.0160302
896.265	0.0161106
896.343	0.0160369
896.421	0.0160129
896.499	0.0161115
896.578	0.0159805
896.656	0.0160933
896.734	0.0161366
896.812	0.0160343
896.890	0.0159844
896.968	0.0161304
897.046	0.0159843
897.124	0.0159853
897.203	0.0160403
897.281	0.0159604
897.359	0.0159688
897.437	0.0159315
897.515	0.0161176
897.593	0.0160908
897.671	0.0160501
897.749	0.0159121
897.828	0.0160349
897.906	0.0160290
897.984	0.0159000
898.062	0.0159801
898.140	0.0160030
898.218	0.0159422
898.296	0.0159769
898.374	0.0159868
898.453	0.0159087
898.531	0.0159383
898.609	0.0158958
898.687	0.0159227
898.765	0.0158644
898.843	0.0158982
898.921	0.0158387
898.999	0.0157800
899.078	0.0158485
899.156	0.0159185
899.234	0.0156701
899.312	0.0157789
899.390	0.0158720
899.468	0.0156737
899.546	0.0157223
899.624	0.0158543
899.703	0.0159127
899.781	0.0156702
899.859	0.0158499
899.937	0.0159065
900.015	0.0158826
900.093	0.0156788
900.171	0.0156859
900.249	0.0159531
900.328	0.0158807
900.406	0.0159796
900.484	0.0158120
900.562	0.0159525
900.640	0.0159157
900.718	0.0158522
900.796	0.0159821
900.874	0.0159409
900.953	0.0159066
901.031	0.0160112
901.109	0.0159910
901.187	0.0160300
901.265	0.0159530
901.343	0.0158804
901.421	0.0158293
901.499	0.0159046
901.578	0.0159164
901.656	0.0159831
901.734	0.0159264
901.812	0.0159295
901.890	0.0157964
901.968	0.0159435
902.046	0.0156367
902.124	0.0158990
902.203	0.0159136
902.281	0.0158762
902.359	0.0160886
902.437	0.0159497
902.515	0.0158389
902.593	0.0159904
902.671	0.0161036
902.749	0.0158890
902.828	0.0158836
902.906	0.0159583
902.984	0.0159375
903.062	0.0159477
903.140	0.0159460
903.218	0.0158775
903.296	0.0159692
903.374	0.0159618
903.453	0.0160696
903.531	0.0160350
903.609	0.0160181
903.687	0.0158457
903.765	0.0159096
903.843	0.0159460
903.921	0.0158662
903.999	0.0158740
904.078	0.0158694
904.156	0.0158047
904.234	0.0158621
904.312	0.0158515
904.390	0.0161269
904.468	0.0160410
904.546	0.0158661
904.624	0.0159110
904.703	0.0160186
904.781	0.0160938
904.859	0.0160177
904.937	0.0160384
905.015	0.0160624
905.093	0.0160253
905.171	0.0159642
905.249	0.0160816
905.328	0.0160128
905.406	0.0159844
905.484	0.0160558
905.562	0.0160637
905.640	0.0159974
905.718	0.0161184
905.796	0.0160664
905.874	0.0160058
905.953	0.0160128
906.031	0.0159984
906.109	0.0159796
906.187	0.0159839
906.265	0.0160839
906.343	0.0160571
906.421	0.0158604
906.499	0.0158839
906.578	0.0158688
906.656	0.0159623
906.734	0.0158688
906.812	0.0159199
906.890	0.0157993
906.968	0.0159159
907.046	0.0159309
907.124	0.0159193
907.203	0.0158147
907.281	0.0157391
907.359	0.0157216
907.437	0.0158196
907.515	0.0157922
907.593	0.0159554
907.671	0.0158737
907.749	0.0159704
907.828	0.0157710
907.906	0.0158285
907.984	0.0161463
908.062	0.0159848
908.140	0.0158605
908.218	0.0159446
908.296	0.0160936
908.374	0.0160685
908.453	0.0160944
908.531	0.0161248
908.609	0.0161511
908.687	0.0160938
908.765	0.0160387
908.843	0.0159866
908.921	0.0162139
908.999	0.0161030
909.078	0.0160905
909.156	0.0161158
909.234	0.0161382
909.312	0.0161469
909.390	0.0160767
909.468	0.0159871
909.546	0.0160467
909.624	0.0161463
909.703	0.0159520
909.781	0.0160678
909.859	0.0158483
909.937	0.0158453
910.015	0.0159978
910.093	0.0159279
910.171	0.0158884
910.249	0.0158128
910.328	0.0159404
910.406	0.0159283
910.484	0.0158219
910.562	0.0158151
910.640	0.0159060
910.718	0.0158190
910.796	0.0159243
910.874	0.0159150
910.953	0.0159018
911.031	0.0160568
911.109	0.0158845
911.187	0.0160549
911.265	0.0159556
911.343	0.0159022
911.421	0.0159126
911.499	0.0159689
911.578	0.0160291
911.656	0.0159700
911.734	0.0159373
911.812	0.0159400
911.890	0.0159716
911.968	0.0160692
912.046	0.0159624
912.124	0.0158862
912.203	0.0158829
912.281	0.0159952
912.359	0.0159768
912.437	0.0160399
912.515	0.0159580
912.593	0.0159258
912.671	0.0159006
912.749	0.0158821
912.828	0.0158829
912.906	0.0159902
912.984	0.0159626
913.062	0.0159464
913.140	0.0158237
913.218	0.0158621
913.296	0.0159772
913.374	0.0159242
913.453	0.0157983
913.531	0.0157848
913.609	0.0160471
913.687	0.0159221
913.765	0.0158980
913.843	0.0159697
913.921	0.0160965
913.999	0.0159921
914.078	0.0159407
914.156	0.0160645
914.234	0.0159935
914.312	0.0159676
914.390	0.0161465
914.468	0.0161028
914.546	0.0161052
914.624	0.0160851
914.703	0.0160940
914.781	0.0161489
914.859	0.0161028
914.937	0.0160449
915.015	0.0160950
915.093	0.0161438
915.171	0.0159753
915.249	0.0161533
915.328	0.0160350
915.406	0.0159032
915.484	0.0159316
915.562	0.0159368
915.640	0.0159398
915.718	0.0158856
915.796	0.0158917
915.874	0.0158813
915.953	0.0158498
916.031	0.0158182
916.109	0.0158595
916.187	0.0160174
916.265	0.0158418
916.343	0.0159376
916.421	0.0159536
916.499	0.0160551
916.578	0.0158498
916.656	0.0158801
916.734	0.0159925
916.812	0.0159116
916.890	0.0160890
916.968	0.0161281
917.046	0.0159792
917.124	0.0158922
917.203	0.0160051
917.281	0.0160297
917.359	0.0159953
917.437	0.0158655
917.515	0.0159566
917.593	0.0159574
917.671	0.0160610
917.749	0.0160191
917.828	0.0160382
917.906	0.0161523
917.984	0.0158568
918.062	0.0159354
918.140	0.0159990
918.218	0.0159987
918.296	0.0159949
918.374	0.0158391
918.453	0.0158089
918.531	0.0158743
918.609	0.0158571
918.687	0.0158458
918.765	0.0157568
918.843	0.0158282
918.921	0.0158154
918.999	0.0157290
919.078	0.0158041
919.156	0.0158529
919.234	0.0157896
919.312	0.0158830
919.390	0.0157647
919.468	0.0157636
919.546	0.0158650
919.624	0.0158393
919.703	0.0158716
919.781	0.0159099
919.859	0.0158530
919.937	0.0158329
