06/10/2022	19:00:45	Ver.	4.1	UNKNOWN
Optical Delay	600.015094	Delta X		0.078125	Sweeps	1	Scan Rate	0/0
Coordinates	Axis 1	NaN	Axis 2	NaN	Axis 3	NaN	Axis 4	NaN	Axis 5	NaN	Axis 6	0.000000
TX Power	0.000000	RX Power	0.000000

600.015	0.0160052
600.093	0.0160522
600.171	0.0160813
600.249	0.0161803
600.328	0.0159112
600.406	0.0160287
600.484	0.0161028
600.562	0.0160386
600.640	0.0159762
600.718	0.0160744
600.796	0.0159876
600.874	0.0160021
600.953	0.0161066
601.031	0.0159764
601.109	0.0160130
601.187	0.0159389
601.265	0.0160377
601.343	0.0160349
601.421	0.0160242
601.499	0.0160593
601.578	0.0159361
601.656	0.0159961
601.734	0.0161926
601.812	0.0158725
601.890	0.0159084
601.968	0.0160268
602.046	0.0161000
602.124	0.0161204
602.203	0.0161227
602.281	0.0161029
602.359	0.0161175
602.437	0.0162685
602.515	0.0159728
602.593	0.0159329
602.671	0.0160497
602.749	0.0160424
602.828	0.0160201
602.906	0.0161325
602.984	0.0161208
603.062	0.0160589
603.140	0.0160607
603.218	0.0160565
603.296	0.0160374
603.374	0.0159934
603.453	0.0160426
603.531	0.0160439
603.609	0.0161347
603.687	0.0160172
603.765	0.0161037
603.843	0.0160640
603.921	0.0160059
603.999	0.0160303
604.078	0.0160596
604.156	0.0160022
604.234	0.0159993
604.312	0.0161073
604.390	0.0159560
604.468	0.0159573
604.546	0.0161529
604.624	0.0160255
604.703	0.0160581
604.781	0.0160915
604.859	0.0160294
604.937	0.0160064
605.015	0.0161526
605.093	0.0159537
605.171	0.0159720
605.249	0.0160809
605.328	0.0159503
605.406	0.0160923
605.484	0.0161748
605.562	0.0159701
605.640	0.0160327
605.718	0.0160186
605.796	0.0159583
605.874	0.0159817
605.953	0.0159577
606.031	0.0159917
606.109	0.0159851
606.187	0.0159639
606.265	0.0159715
606.343	0.0159901
606.421	0.0159219
606.499	0.0158986
606.578	0.0160117
606.656	0.0158604
606.734	0.0160152
606.812	0.0161216
606.890	0.0159870
606.968	0.0160042
607.046	0.0160878
607.124	0.0160609
607.203	0.0159927
607.281	0.0159975
607.359	0.0159403
607.437	0.0160989
607.515	0.0159424
607.593	0.0160413
607.671	0.0159019
607.749	0.0160709
607.828	0.0160661
607.906	0.0160082
607.984	0.0158964
608.062	0.0160264
608.140	0.0161278
608.218	0.0160045
608.296	0.0160354
608.374	0.0158945
608.453	0.0159525
608.531	0.0159614
608.609	0.0160398
608.687	0.0159365
608.765	0.0159957
608.843	0.0160389
608.921	0.0160112
608.999	0.0160665
609.078	0.0159184
609.156	0.0158375
609.234	0.0160078
609.312	0.0160791
609.390	0.0161134
609.468	0.0160851
609.546	0.0159779
609.624	0.0159994
609.703	0.0160250
609.781	0.0160632
609.859	0.0159953
609.937	0.0160825
610.015	0.0159898
610.093	0.0159510
610.171	0.0161259
610.249	0.0160559
610.328	0.0159922
610.406	0.0159787
610.484	0.0160601
610.562	0.0160223
610.640	0.0160677
610.718	0.0161319
610.796	0.0161015
610.874	0.0160825
610.953	0.0160327
611.031	0.0160125
611.109	0.0160969
611.187	0.0160465
611.265	0.0160140
611.343	0.0160526
611.421	0.0160941
611.499	0.0159414
611.578	0.0159624
611.656	0.0161201
611.734	0.0161429
611.812	0.0161650
611.890	0.0160005
611.968	0.0160209
612.046	0.0159371
612.124	0.0161131
612.203	0.0160626
612.281	0.0160240
612.359	0.0160915
612.437	0.0159744
612.515	0.0159904
612.593	0.0158957
612.671	0.0160113
612.749	0.0160555
612.828	0.0159272
612.906	0.0160369
612.984	0.0160520
613.062	0.0159789
613.140	0.0159867
613.218	0.0159721
613.296	0.0159583
613.374	0.0160180
613.453	0.0159362
613.531	0.0159695
613.609	0.0159765
613.687	0.0159167
613.765	0.0159686
613.843	0.0158916
613.921	0.0159689
613.999	0.0159379
614.078	0.0158933
614.156	0.0159823
614.234	0.0160617
614.312	0.0160054
614.390	0.0160538
614.468	0.0160242
614.546	0.0159242
614.624	0.0160090
614.703	0.0160037
614.781	0.0160606
614.859	0.0160881
614.937	0.0160583
615.015	0.0161230
615.093	0.0159399
615.171	0.0159074
615.249	0.0157761
615.328	0.0157727
615.406	0.0158291
615.484	0.0160223
615.562	0.0160686
615.640	0.0160915
615.718	0.0159737
615.796	0.0159837
615.874	0.0158458
615.953	0.0158868
616.031	0.0160287
616.109	0.0161171
616.187	0.0159692
616.265	0.0160180
616.343	0.0159408
616.421	0.0158635
616.499	0.0159114
616.578	0.0159479
616.656	0.0158703
616.734	0.0158736
616.812	0.0160027
616.890	0.0159344
616.968	0.0159583
617.046	0.0160123
617.124	0.0159866
617.203	0.0158824
617.281	0.0160239
617.359	0.0160069
617.437	0.0159509
617.515	0.0159582
617.593	0.0160859
617.671	0.0158391
617.749	0.0158923
617.828	0.0161132
617.906	0.0159312
617.984	0.0158415
618.062	0.0160618
618.140	0.0159201
618.218	0.0158706
618.296	0.0159263
618.374	0.0160131
618.453	0.0159657
618.531	0.0160654
618.609	0.0158533
618.687	0.0159185
618.765	0.0160736
618.843	0.0158866
618.921	0.0158465
618.999	0.0158765
619.078	0.0160161
619.156	0.0158430
619.234	0.0159175
619.312	0.0160682
619.390	0.0160493
619.468	0.0159301
619.546	0.0159178
619.624	0.0159844
619.703	0.0159920
619.781	0.0159804
619.859	0.0159573
619.937	0.0160641
620.015	0.0159705
620.093	0.0159534
620.171	0.0160651
620.249	0.0160741
620.328	0.0159564
620.406	0.0159995
620.484	0.0160342
620.562	0.0159176
620.640	0.0160084
620.718	0.0158414
620.796	0.0160757
620.874	0.0160109
620.953	0.0160008
621.031	0.0160770
621.109	0.0160447
621.187	0.0160169
621.265	0.0159812
621.343	0.0158595
621.421	0.0160594
621.499	0.0159037
621.578	0.0159968
621.656	0.0160374
621.734	0.0158614
621.812	0.0159454
621.890	0.0159177
621.968	0.0159724
622.046	0.0160596
622.124	0.0159827
622.203	0.0159609
622.281	0.0160155
622.359	0.0160345
622.437	0.0159587
622.515	0.0159929
622.593	0.0160183
622.671	0.0160963
622.749	0.0160423
622.828	0.0159388
622.906	0.0159966
622.984	0.0160242
623.062	0.0159252
623.140	0.0162038
623.218	0.0159290
623.296	0.0160148
623.374	0.0158780
623.453	0.0160423
623.531	0.0161094
623.609	0.0159174
623.687	0.0160857
623.765	0.0161176
623.843	0.0160516
623.921	0.0161408
623.999	0.0162230
624.078	0.0160251
624.156	0.0160421
624.234	0.0159745
624.312	0.0159928
624.390	0.0160524
624.468	0.0160033
624.546	0.0160328
624.624	0.0161282
624.703	0.0160163
624.781	0.0160618
624.859	0.0160667
624.937	0.0160919
625.015	0.0160706
625.093	0.0160743
625.171	0.0161044
625.249	0.0161497
625.328	0.0161001
625.406	0.0159535
625.484	0.0161717
625.562	0.0161028
625.640	0.0160152
625.718	0.0160748
625.796	0.0159756
625.874	0.0160690
625.953	0.0161417
626.031	0.0160649
626.109	0.0161020
626.187	0.0159442
626.265	0.0160271
626.343	0.0159916
626.421	0.0162403
626.499	0.0159885
626.578	0.0161145
626.656	0.0160653
626.734	0.0159923
626.812	0.0162054
626.890	0.0160355
626.968	0.0161391
627.046	0.0162727
627.124	0.0161120
627.203	0.0161193
627.281	0.0163093
627.359	0.0160481
627.437	0.0161058
627.515	0.0162981
627.593	0.0160716
627.671	0.0160759
627.749	0.0161462
627.828	0.0160482
627.906	0.0160542
627.984	0.0161730
628.062	0.0162653
628.140	0.0161079
628.218	0.0162094
628.296	0.0161930
628.374	0.0161764
628.453	0.0161034
628.531	0.0160986
628.609	0.0159688
628.687	0.0160181
628.765	0.0161017
628.843	0.0160491
628.921	0.0161499
628.999	0.0160712
629.078	0.0161268
629.156	0.0160531
629.234	0.0159546
629.312	0.0160993
629.390	0.0160973
629.468	0.0160796
629.546	0.0160104
629.624	0.0159961
629.703	0.0160413
629.781	0.0158565
629.859	0.0160043
629.937	0.0160762
630.015	0.0159442
630.093	0.0159568
630.171	0.0160117
630.249	0.0159737
630.328	0.0160062
630.406	0.0160557
630.484	0.0160760
630.562	0.0160831
630.640	0.0161547
630.718	0.0159572
630.796	0.0158922
630.874	0.0161398
630.953	0.0159887
631.031	0.0161707
631.109	0.0160434
631.187	0.0159940
631.265	0.0160941
631.343	0.0160117
631.421	0.0159095
631.499	0.0159315
631.578	0.0161089
631.656	0.0161061
631.734	0.0160129
631.812	0.0159998
631.890	0.0160206
631.968	0.0160422
632.046	0.0159570
632.124	0.0159824
632.203	0.0159403
632.281	0.0161600
632.359	0.0161042
632.437	0.0160392
632.515	0.0159176
632.593	0.0160276
632.671	0.0160777
632.749	0.0161002
632.828	0.0160480
632.906	0.0159862
632.984	0.0160390
633.062	0.0161066
633.140	0.0160585
633.218	0.0159856
633.296	0.0161095
633.374	0.0160061
633.453	0.0159913
633.531	0.0159214
633.609	0.0159393
633.687	0.0160349
633.765	0.0160636
633.843	0.0160751
633.921	0.0160772
633.999	0.0161127
634.078	0.0161032
634.156	0.0159565
634.234	0.0160683
634.312	0.0160853
634.390	0.0160281
634.468	0.0160888
634.546	0.0160431
634.624	0.0160590
634.703	0.0160508
634.781	0.0159682
634.859	0.0161125
634.937	0.0161893
635.015	0.0159801
635.093	0.0160194
635.171	0.0159387
635.249	0.0159548
635.328	0.0160735
635.406	0.0159351
635.484	0.0160287
635.562	0.0160496
635.640	0.0160757
635.718	0.0161155
635.796	0.0160595
635.874	0.0160190
635.953	0.0160767
636.031	0.0160658
636.109	0.0161035
636.187	0.0158849
636.265	0.0159831
636.343	0.0160432
636.421	0.0161372
636.499	0.0160863
636.578	0.0160655
636.656	0.0159635
636.734	0.0160075
636.812	0.0159591
636.890	0.0160376
636.968	0.0161481
637.046	0.0160760
637.124	0.0160883
637.203	0.0158763
637.281	0.0160403
637.359	0.0162160
637.437	0.0162371
637.515	0.0160294
637.593	0.0160966
637.671	0.0159879
637.749	0.0160150
637.828	0.0161530
637.906	0.0160322
637.984	0.0160361
638.062	0.0160699
638.140	0.0160011
638.218	0.0159967
638.296	0.0161441
638.374	0.0160839
638.453	0.0159784
638.531	0.0160635
638.609	0.0160646
638.687	0.0161240
638.765	0.0159992
638.843	0.0160528
638.921	0.0160412
638.999	0.0160149
639.078	0.0161150
639.156	0.0160719
639.234	0.0159583
639.312	0.0160348
639.390	0.0160189
639.468	0.0162136
639.546	0.0159993
639.624	0.0159633
639.703	0.0160416
639.781	0.0159959
639.859	0.0159680
639.937	0.0161412
640.015	0.0161029
640.093	0.0160202
640.171	0.0160337
640.249	0.0159814
640.328	0.0161835
640.406	0.0159726
640.484	0.0161272
640.562	0.0159870
640.640	0.0160443
640.718	0.0161851
640.796	0.0160163
640.874	0.0160294
640.953	0.0159795
641.031	0.0160792
641.109	0.0159998
641.187	0.0159701
641.265	0.0160418
641.343	0.0161772
641.421	0.0160664
641.499	0.0160344
641.578	0.0161074
641.656	0.0160946
641.734	0.0159982
641.812	0.0161251
641.890	0.0159680
641.968	0.0160392
642.046	0.0161687
642.124	0.0161098
642.203	0.0162059
642.281	0.0160509
642.359	0.0160460
642.437	0.0161573
642.515	0.0161511
642.593	0.0160033
642.671	0.0160955
642.749	0.0161263
642.828	0.0160641
642.906	0.0160634
642.984	0.0159781
643.062	0.0160204
643.140	0.0160103
643.218	0.0160117
643.296	0.0160335
643.374	0.0159985
643.453	0.0159907
643.531	0.0159640
643.609	0.0157405
643.687	0.0158778
643.765	0.0159556
643.843	0.0159155
643.921	0.0158630
643.999	0.0158627
644.078	0.0157388
644.156	0.0157981
644.234	0.0158057
644.312	0.0158261
644.390	0.0160577
644.468	0.0159804
644.546	0.0158437
644.624	0.0159215
644.703	0.0160416
644.781	0.0160244
644.859	0.0158075
644.937	0.0159460
645.015	0.0160610
645.093	0.0159740
645.171	0.0161661
645.249	0.0160767
645.328	0.0159921
645.406	0.0159855
645.484	0.0158421
645.562	0.0159375
645.640	0.0160277
645.718	0.0160651
645.796	0.0158981
645.874	0.0157700
645.953	0.0159176
646.031	0.0161248
646.109	0.0157765
646.187	0.0158848
646.265	0.0158430
646.343	0.0158334
646.421	0.0158545
646.499	0.0159789
646.578	0.0158161
646.656	0.0157232
646.734	0.0159434
646.812	0.0158530
646.890	0.0160193
646.968	0.0159533
647.046	0.0160551
647.124	0.0160452
647.203	0.0158659
647.281	0.0160423
647.359	0.0159489
647.437	0.0160756
647.515	0.0160065
647.593	0.0160000
647.671	0.0160185
647.749	0.0158965
647.828	0.0160846
647.906	0.0159054
647.984	0.0160098
648.062	0.0158858
648.140	0.0159451
648.218	0.0160483
648.296	0.0158474
648.374	0.0158801
648.453	0.0159879
648.531	0.0158631
648.609	0.0160841
648.687	0.0159286
648.765	0.0160358
648.843	0.0160522
648.921	0.0158791
648.999	0.0159907
649.078	0.0159750
649.156	0.0158925
649.234	0.0159382
649.312	0.0159834
649.390	0.0159102
649.468	0.0159908
649.546	0.0160655
649.624	0.0160494
649.703	0.0159715
649.781	0.0159451
649.859	0.0160652
649.937	0.0160718
650.015	0.0161868
650.093	0.0160162
650.171	0.0160475
650.249	0.0160941
650.328	0.0161472
650.406	0.0159968
650.484	0.0161077
650.562	0.0160785
650.640	0.0160519
650.718	0.0162167
650.796	0.0160306
650.874	0.0160571
650.953	0.0160641
651.031	0.0160148
651.109	0.0161416
651.187	0.0160818
651.265	0.0160973
651.343	0.0160066
651.421	0.0161101
651.499	0.0159937
651.578	0.0161235
651.656	0.0159946
651.734	0.0160762
651.812	0.0162163
651.890	0.0160458
651.968	0.0159563
652.046	0.0160074
652.124	0.0161162
652.203	0.0160204
652.281	0.0160104
652.359	0.0161101
652.437	0.0160947
652.515	0.0160748
652.593	0.0160362
652.671	0.0160392
652.749	0.0160056
652.828	0.0160654
652.906	0.0162092
652.984	0.0161544
653.062	0.0161128
653.140	0.0161186
653.218	0.0161577
653.296	0.0161862
653.374	0.0161815
653.453	0.0161124
653.531	0.0161847
653.609	0.0161664
653.687	0.0160367
653.765	0.0161066
653.843	0.0160820
653.921	0.0162280
653.999	0.0160445
654.078	0.0160240
654.156	0.0160780
654.234	0.0159456
654.312	0.0159853
654.390	0.0160208
654.468	0.0162163
654.546	0.0161189
654.624	0.0160381
654.703	0.0160542
654.781	0.0160228
654.859	0.0161053
654.937	0.0159814
655.015	0.0161346
655.093	0.0160001
655.171	0.0161241
655.249	0.0161845
655.328	0.0160986
655.406	0.0160687
655.484	0.0160423
655.562	0.0160683
655.640	0.0161877
655.718	0.0160178
655.796	0.0159047
655.874	0.0161040
655.953	0.0161665
656.031	0.0160300
656.109	0.0160374
656.187	0.0160613
656.265	0.0160556
656.343	0.0162122
656.421	0.0160202
656.499	0.0160973
656.578	0.0161203
656.656	0.0160765
656.734	0.0161519
656.812	0.0161903
656.890	0.0160343
656.968	0.0160829
657.046	0.0160623
657.124	0.0162320
657.203	0.0161698
657.281	0.0162142
657.359	0.0161353
657.437	0.0161220
657.515	0.0160709
657.593	0.0160835
657.671	0.0160600
657.749	0.0161262
657.828	0.0162106
657.906	0.0162541
657.984	0.0161253
658.062	0.0162412
658.140	0.0163032
658.218	0.0161506
658.296	0.0161156
658.374	0.0161909
658.453	0.0161980
658.531	0.0160970
658.609	0.0162536
658.687	0.0161630
658.765	0.0161977
658.843	0.0159812
658.921	0.0163735
658.999	0.0161352
659.078	0.0160482
659.156	0.0161873
659.234	0.0161608
659.312	0.0160809
659.390	0.0160886
659.468	0.0160210
659.546	0.0162605
659.624	0.0161655
659.703	0.0160847
659.781	0.0162255
659.859	0.0160593
659.937	0.0160733
660.015	0.0161266
660.093	0.0161491
660.171	0.0160715
660.249	0.0159175
660.328	0.0159920
660.406	0.0161436
660.484	0.0160539
660.562	0.0160909
660.640	0.0161497
660.718	0.0159638
660.796	0.0162223
660.874	0.0160867
660.953	0.0160530
661.031	0.0161932
661.109	0.0161326
661.187	0.0160676
661.265	0.0160963
661.343	0.0160470
661.421	0.0160894
661.499	0.0161616
661.578	0.0162526
661.656	0.0161665
661.734	0.0161382
661.812	0.0161621
661.890	0.0162218
661.968	0.0161142
662.046	0.0160609
662.124	0.0161749
662.203	0.0162557
662.281	0.0161524
662.359	0.0159931
662.437	0.0161034
662.515	0.0162131
662.593	0.0161094
662.671	0.0161343
662.749	0.0160870
662.828	0.0160751
662.906	0.0162167
662.984	0.0160404
663.062	0.0160607
663.140	0.0160374
663.218	0.0159913
663.296	0.0160428
663.374	0.0161391
663.453	0.0160973
663.531	0.0159989
663.609	0.0159584
663.687	0.0160627
663.765	0.0162243
663.843	0.0160475
663.921	0.0160018
663.999	0.0159787
664.078	0.0159411
664.156	0.0159638
664.234	0.0161250
664.312	0.0159824
664.390	0.0158717
664.468	0.0159666
664.546	0.0159179
664.624	0.0159880
664.703	0.0160114
664.781	0.0160480
664.859	0.0159385
664.937	0.0160006
665.015	0.0159970
665.093	0.0159800
665.171	0.0159641
665.249	0.0160110
665.328	0.0158837
665.406	0.0160427
665.484	0.0159493
665.562	0.0160104
665.640	0.0159549
665.718	0.0158770
665.796	0.0158945
665.874	0.0158897
665.953	0.0159192
666.031	0.0158878
666.109	0.0160117
666.187	0.0158215
666.265	0.0159067
666.343	0.0160692
666.421	0.0160534
666.499	0.0161113
666.578	0.0159412
666.656	0.0158954
666.734	0.0160150
666.812	0.0158969
666.890	0.0159532
666.968	0.0160030
667.046	0.0159253
667.124	0.0160176
667.203	0.0159668
667.281	0.0160251
667.359	0.0159746
667.437	0.0159110
667.515	0.0158706
667.593	0.0159393
667.671	0.0158679
667.749	0.0158762
667.828	0.0158601
667.906	0.0159316
667.984	0.0158965
668.062	0.0160147
668.140	0.0158385
668.218	0.0159100
668.296	0.0159747
668.374	0.0159300
668.453	0.0158247
668.531	0.0158521
668.609	0.0158904
668.687	0.0159305
668.765	0.0158868
668.843	0.0158572
668.921	0.0158925
668.999	0.0158314
669.078	0.0157921
669.156	0.0160538
669.234	0.0159886
669.312	0.0158125
669.390	0.0158065
669.468	0.0159054
669.546	0.0159199
669.624	0.0158449
669.703	0.0158007
669.781	0.0158128
669.859	0.0159308
669.937	0.0158362
670.015	0.0160009
670.093	0.0159045
670.171	0.0158433
670.249	0.0158398
670.328	0.0159167
670.406	0.0158566
670.484	0.0160448
670.562	0.0158046
670.640	0.0157280
670.718	0.0159373
670.796	0.0159109
670.874	0.0159113
670.953	0.0158557
671.031	0.0158956
671.109	0.0159003
671.187	0.0158077
671.265	0.0159322
671.343	0.0159694
671.421	0.0158292
671.499	0.0157664
671.578	0.0157951
671.656	0.0159191
671.734	0.0158427
671.812	0.0158453
671.890	0.0159506
671.968	0.0160130
672.046	0.0157758
672.124	0.0158405
672.203	0.0159191
672.281	0.0157314
672.359	0.0158111
672.437	0.0159274
672.515	0.0158057
672.593	0.0159523
672.671	0.0159676
672.749	0.0158963
672.828	0.0158742
672.906	0.0158980
672.984	0.0157677
673.062	0.0157909
673.140	0.0159767
673.218	0.0159522
673.296	0.0161181
673.374	0.0158369
673.453	0.0158415
673.531	0.0158595
673.609	0.0158424
673.687	0.0160088
673.765	0.0157680
673.843	0.0160310
673.921	0.0159186
673.999	0.0158225
674.078	0.0159066
674.156	0.0161111
674.234	0.0158987
674.312	0.0159871
674.390	0.0159544
674.468	0.0159035
674.546	0.0159549
674.624	0.0159087
674.703	0.0159229
674.781	0.0161341
674.859	0.0160085
674.937	0.0159254
675.015	0.0160085
675.093	0.0159940
675.171	0.0158904
675.249	0.0160148
675.328	0.0159688
675.406	0.0158562
675.484	0.0161270
675.562	0.0160504
675.640	0.0159906
675.718	0.0159867
675.796	0.0159111
675.874	0.0159544
675.953	0.0160158
676.031	0.0160688
676.109	0.0161800
676.187	0.0161297
676.265	0.0160828
676.343	0.0159987
676.421	0.0160118
676.499	0.0160877
676.578	0.0160796
676.656	0.0160077
676.734	0.0160342
676.812	0.0160314
676.890	0.0161342
676.968	0.0161148
677.046	0.0160252
677.124	0.0159241
677.203	0.0160616
677.281	0.0161451
677.359	0.0159813
677.437	0.0160725
677.515	0.0160606
677.593	0.0161455
677.671	0.0161155
677.749	0.0161528
677.828	0.0160972
677.906	0.0160606
677.984	0.0161137
678.062	0.0161277
678.140	0.0160637
678.218	0.0162093
678.296	0.0160960
678.374	0.0161221
678.453	0.0160259
678.531	0.0159837
678.609	0.0162027
678.687	0.0160552
678.765	0.0160037
678.843	0.0160335
678.921	0.0160857
678.999	0.0160857
679.078	0.0161372
679.156	0.0161197
679.234	0.0159808
679.312	0.0161694
679.390	0.0159208
679.468	0.0161648
679.546	0.0161348
679.624	0.0159215
679.703	0.0161182
679.781	0.0161114
679.859	0.0160933
679.937	0.0161591
680.015	0.0160773
680.093	0.0160059
680.171	0.0160555
680.249	0.0160622
680.328	0.0161983
680.406	0.0161652
680.484	0.0162115
680.562	0.0161837
680.640	0.0160535
680.718	0.0159538
680.796	0.0161060
680.874	0.0162144
680.953	0.0161915
681.031	0.0161582
681.109	0.0161330
681.187	0.0159952
681.265	0.0160207
681.343	0.0159851
681.421	0.0161437
681.499	0.0161729
681.578	0.0161477
681.656	0.0160998
681.734	0.0162802
681.812	0.0160963
681.890	0.0161282
681.968	0.0161154
682.046	0.0161513
682.124	0.0162452
682.203	0.0162823
682.281	0.0162132
682.359	0.0160978
682.437	0.0160626
682.515	0.0161594
682.593	0.0161311
682.671	0.0160490
682.749	0.0160931
682.828	0.0161406
682.906	0.0162175
682.984	0.0160583
683.062	0.0161182
683.140	0.0160564
683.218	0.0160177
683.296	0.0159625
683.374	0.0160916
683.453	0.0161108
683.531	0.0159929
683.609	0.0160624
683.687	0.0159269
683.765	0.0158968
683.843	0.0159000
683.921	0.0160332
683.999	0.0159162
684.078	0.0159137
684.156	0.0159988
684.234	0.0161294
684.312	0.0160644
684.390	0.0160062
684.468	0.0159319
684.546	0.0159586
684.624	0.0160059
684.703	0.0159439
684.781	0.0161704
684.859	0.0159982
684.937	0.0159226
685.015	0.0160107
685.093	0.0160555
685.171	0.0160130
685.249	0.0160158
685.328	0.0160149
685.406	0.0160786
685.484	0.0160394
685.562	0.0160203
685.640	0.0160647
685.718	0.0160050
685.796	0.0161983
685.874	0.0159740
685.953	0.0160714
686.031	0.0160562
686.109	0.0160286
686.187	0.0160368
686.265	0.0160713
686.343	0.0160546
686.421	0.0160966
686.499	0.0159797
686.578	0.0159541
686.656	0.0159609
686.734	0.0159277
686.812	0.0157600
686.890	0.0160465
686.968	0.0159950
687.046	0.0160218
687.124	0.0160255
687.203	0.0160521
687.281	0.0159163
687.359	0.0159795
687.437	0.0158598
687.515	0.0159523
687.593	0.0161007
687.671	0.0158642
687.749	0.0160001
687.828	0.0159588
687.906	0.0159142
687.984	0.0159278
688.062	0.0160121
688.140	0.0158514
688.218	0.0159139
688.296	0.0159587
688.374	0.0160345
688.453	0.0159480
688.531	0.0160081
688.609	0.0159612
688.687	0.0159355
688.765	0.0160712
688.843	0.0161007
688.921	0.0159097
688.999	0.0160439
689.078	0.0159415
689.156	0.0159676
689.234	0.0160242
689.312	0.0159248
689.390	0.0159354
689.468	0.0158732
689.546	0.0159830
689.624	0.0160777
689.703	0.0159307
689.781	0.0158474
689.859	0.0159177
689.937	0.0160834
690.015	0.0158632
690.093	0.0159372
690.171	0.0160448
690.249	0.0158765
690.328	0.0160040
690.406	0.0158159
690.484	0.0159302
690.562	0.0159252
690.640	0.0159249
690.718	0.0160264
690.796	0.0159043
690.874	0.0159286
690.953	0.0158768
691.031	0.0159203
691.109	0.0159972
691.187	0.0158804
691.265	0.0159142
691.343	0.0158310
691.421	0.0159682
691.499	0.0158829
691.578	0.0159458
691.656	0.0160265
691.734	0.0159223
691.812	0.0158781
691.890	0.0158750
691.968	0.0158089
692.046	0.0158892
692.124	0.0158994
692.203	0.0158529
692.281	0.0158564
692.359	0.0158216
692.437	0.0158646
692.515	0.0159361
692.593	0.0158976
692.671	0.0157963
692.749	0.0159058
692.828	0.0157780
692.906	0.0159907
692.984	0.0158616
693.062	0.0158610
693.140	0.0159316
693.218	0.0159946
693.296	0.0159028
693.374	0.0159903
693.453	0.0158918
693.531	0.0159572
693.609	0.0158759
693.687	0.0159656
693.765	0.0158709
693.843	0.0159737
693.921	0.0158933
693.999	0.0160259
694.078	0.0159648
694.156	0.0158119
694.234	0.0159907
694.312	0.0159615
694.390	0.0160448
694.468	0.0160200
694.546	0.0158952
694.624	0.0159643
694.703	0.0159225
694.781	0.0160988
694.859	0.0159875
694.937	0.0158651
695.015	0.0160069
695.093	0.0159605
695.171	0.0160770
695.249	0.0157973
695.328	0.0158925
695.406	0.0159212
695.484	0.0160096
695.562	0.0159882
695.640	0.0160651
695.718	0.0159863
695.796	0.0159355
695.874	0.0159464
695.953	0.0160583
696.031	0.0158331
696.109	0.0159489
696.187	0.0158249
696.265	0.0158199
696.343	0.0160222
696.421	0.0160789
696.499	0.0159011
696.578	0.0159246
696.656	0.0160249
696.734	0.0159163
696.812	0.0159572
696.890	0.0158553
696.968	0.0159715
697.046	0.0159991
697.124	0.0159750
697.203	0.0158776
697.281	0.0159449
697.359	0.0161148
697.437	0.0159990
697.515	0.0160609
697.593	0.0159869
697.671	0.0159881
697.749	0.0160262
697.828	0.0160818
697.906	0.0159209
697.984	0.0158998
698.062	0.0159505
698.140	0.0159794
698.218	0.0160418
698.296	0.0160514
698.374	0.0159892
698.453	0.0158939
698.531	0.0159793
698.609	0.0160433
698.687	0.0161385
698.765	0.0160181
698.843	0.0159608
698.921	0.0161587
698.999	0.0160873
699.078	0.0159951
699.156	0.0159383
699.234	0.0160394
699.312	0.0161125
699.390	0.0160210
699.468	0.0160336
699.546	0.0160094
699.624	0.0161599
699.703	0.0161092
699.781	0.0158555
699.859	0.0162085
699.937	0.0160760
700.015	0.0160871
700.093	0.0160260
700.171	0.0160648
700.249	0.0160260
700.328	0.0160451
700.406	0.0157899
700.484	0.0160282
700.562	0.0160275
700.640	0.0160651
700.718	0.0160757
700.796	0.0160485
700.874	0.0161965
700.953	0.0160275
701.031	0.0161607
701.109	0.0160370
701.187	0.0160313
701.265	0.0160825
701.343	0.0160777
701.421	0.0159893
701.499	0.0159438
701.578	0.0161308
701.656	0.0160059
701.734	0.0160051
701.812	0.0160957
701.890	0.0161011
701.968	0.0159723
702.046	0.0160745
702.124	0.0159432
702.203	0.0160696
702.281	0.0160794
702.359	0.0160607
702.437	0.0160725
702.515	0.0160098
702.593	0.0159810
702.671	0.0159616
702.749	0.0160634
702.828	0.0161578
702.906	0.0160707
702.984	0.0160020
703.062	0.0160764
703.140	0.0161314
703.218	0.0161328
703.296	0.0160586
703.374	0.0160572
703.453	0.0159800
703.531	0.0160110
703.609	0.0160871
703.687	0.0159170
703.765	0.0159956
703.843	0.0159222
703.921	0.0161958
703.999	0.0160184
704.078	0.0158783
704.156	0.0158943
704.234	0.0160328
704.312	0.0159755
704.390	0.0160043
704.468	0.0160661
704.546	0.0158698
704.624	0.0159453
704.703	0.0159740
704.781	0.0160287
704.859	0.0159870
704.937	0.0158245
705.015	0.0159968
705.093	0.0160715
705.171	0.0159880
705.249	0.0160062
705.328	0.0160060
705.406	0.0161297
705.484	0.0160863
705.562	0.0160928
705.640	0.0159316
705.718	0.0160439
705.796	0.0159978
705.874	0.0161331
705.953	0.0160182
706.031	0.0160175
706.109	0.0161028
706.187	0.0160155
706.265	0.0160780
706.343	0.0160438
706.421	0.0160367
706.499	0.0158911
706.578	0.0159988
706.656	0.0160860
706.734	0.0159486
706.812	0.0159783
706.890	0.0160704
706.968	0.0160489
707.046	0.0161097
707.124	0.0160187
707.203	0.0159592
707.281	0.0160127
707.359	0.0160519
707.437	0.0161843
707.515	0.0159974
707.593	0.0159830
707.671	0.0161182
707.749	0.0160329
707.828	0.0160250
707.906	0.0160390
707.984	0.0161665
708.062	0.0159207
708.140	0.0160171
708.218	0.0161703
708.296	0.0159986
708.374	0.0161260
708.453	0.0160591
708.531	0.0159843
708.609	0.0161206
708.687	0.0160885
708.765	0.0160843
708.843	0.0159899
708.921	0.0160504
708.999	0.0160120
709.078	0.0160724
709.156	0.0160320
709.234	0.0159294
709.312	0.0160493
709.390	0.0159409
709.468	0.0160717
709.546	0.0161219
709.624	0.0161166
709.703	0.0160452
709.781	0.0161008
709.859	0.0160931
709.937	0.0159489
710.015	0.0160246
710.093	0.0160447
710.171	0.0160268
710.249	0.0160635
710.328	0.0160162
710.406	0.0160574
710.484	0.0159795
710.562	0.0161066
710.640	0.0160679
710.718	0.0160044
710.796	0.0160051
710.874	0.0160178
710.953	0.0160136
711.031	0.0161578
711.109	0.0160452
711.187	0.0160511
711.265	0.0160743
711.343	0.0160385
711.421	0.0160612
711.499	0.0161537
711.578	0.0161293
711.656	0.0159277
711.734	0.0160665
711.812	0.0160835
711.890	0.0160262
711.968	0.0160781
712.046	0.0159805
712.124	0.0160448
712.203	0.0159332
712.281	0.0159773
712.359	0.0161308
712.437	0.0159459
712.515	0.0160283
712.593	0.0161079
712.671	0.0160264
712.749	0.0160197
712.828	0.0159381
712.906	0.0160084
712.984	0.0160020
713.062	0.0159618
713.140	0.0160475
713.218	0.0159888
713.296	0.0160025
713.374	0.0158562
713.453	0.0158855
713.531	0.0158696
713.609	0.0159589
713.687	0.0161016
713.765	0.0159620
713.843	0.0160908
713.921	0.0160368
713.999	0.0158726
714.078	0.0158996
714.156	0.0160802
714.234	0.0159841
714.312	0.0159132
714.390	0.0161263
714.468	0.0160279
714.546	0.0160448
714.624	0.0160139
714.703	0.0159951
714.781	0.0158461
714.859	0.0159748
714.937	0.0161909
715.015	0.0160103
715.093	0.0159718
715.171	0.0161007
715.249	0.0159972
715.328	0.0160278
715.406	0.0159220
715.484	0.0160627
715.562	0.0159134
715.640	0.0160023
715.718	0.0159134
715.796	0.0160181
715.874	0.0158763
715.953	0.0160081
716.031	0.0158765
716.109	0.0160381
716.187	0.0161052
716.265	0.0159138
716.343	0.0159435
716.421	0.0160218
716.499	0.0159851
716.578	0.0160011
716.656	0.0160191
716.734	0.0159470
716.812	0.0159855
716.890	0.0160792
716.968	0.0159181
717.046	0.0159007
717.124	0.0160964
717.203	0.0160894
717.281	0.0159147
717.359	0.0160190
717.437	0.0159060
717.515	0.0158459
717.593	0.0159792
717.671	0.0160454
717.749	0.0159671
717.828	0.0160603
717.906	0.0159423
717.984	0.0160035
718.062	0.0159625
718.140	0.0159570
718.218	0.0160625
718.296	0.0159280
718.374	0.0159905
718.453	0.0158256
718.531	0.0159698
718.609	0.0158959
718.687	0.0158231
718.765	0.0159689
718.843	0.0159966
718.921	0.0159293
718.999	0.0159075
719.078	0.0159255
719.156	0.0160256
719.234	0.0159844
719.312	0.0158909
719.390	0.0159436
719.468	0.0160506
719.546	0.0160618
719.624	0.0160632
719.703	0.0159589
719.781	0.0159246
719.859	0.0158562
719.937	0.0159621
720.015	0.0160179
720.093	0.0159032
720.171	0.0159804
720.249	0.0160980
720.328	0.0159836
720.406	0.0159146
720.484	0.0160485
720.562	0.0160692
720.640	0.0161356
720.718	0.0159932
720.796	0.0159930
720.874	0.0160500
720.953	0.0159761
721.031	0.0160767
721.109	0.0159354
721.187	0.0161353
721.265	0.0160194
721.343	0.0161041
721.421	0.0161355
721.499	0.0161094
721.578	0.0160141
721.656	0.0160814
721.734	0.0162025
721.812	0.0161229
721.890	0.0160133
721.968	0.0160960
722.046	0.0159898
722.124	0.0159325
722.203	0.0160794
722.281	0.0160145
722.359	0.0161038
722.437	0.0160960
722.515	0.0160092
722.593	0.0161150
722.671	0.0161539
722.749	0.0161273
722.828	0.0161122
722.906	0.0161232
722.984	0.0161197
723.062	0.0160244
723.140	0.0160669
723.218	0.0160766
723.296	0.0160495
723.374	0.0161710
723.453	0.0160915
723.531	0.0160922
723.609	0.0162503
723.687	0.0160723
723.765	0.0160258
723.843	0.0160313
723.921	0.0160593
723.999	0.0159879
724.078	0.0159401
724.156	0.0159581
724.234	0.0161208
724.312	0.0160685
724.390	0.0161233
724.468	0.0160944
724.546	0.0159423
724.624	0.0159329
724.703	0.0161518
724.781	0.0160630
724.859	0.0160110
724.937	0.0161205
725.015	0.0161506
725.093	0.0161755
725.171	0.0159741
725.249	0.0160274
725.328	0.0160558
725.406	0.0160122
725.484	0.0160876
725.562	0.0159617
725.640	0.0159739
725.718	0.0160069
725.796	0.0160730
725.874	0.0162274
725.953	0.0160845
726.031	0.0159814
726.109	0.0161140
726.187	0.0161803
726.265	0.0159332
726.343	0.0159523
726.421	0.0160695
726.499	0.0160406
726.578	0.0160854
726.656	0.0161119
726.734	0.0161054
726.812	0.0160198
726.890	0.0159986
726.968	0.0159237
727.046	0.0160657
727.124	0.0161295
727.203	0.0161705
727.281	0.0160492
727.359	0.0159479
727.437	0.0162807
727.515	0.0161109
727.593	0.0159825
727.671	0.0161987
727.749	0.0161399
727.828	0.0159932
727.906	0.0161014
727.984	0.0159761
728.062	0.0161408
728.140	0.0162043
728.218	0.0161671
728.296	0.0161250
728.374	0.0159500
728.453	0.0159673
728.531	0.0162054
728.609	0.0161816
728.687	0.0160159
728.765	0.0161552
728.843	0.0160520
728.921	0.0160410
728.999	0.0160803
729.078	0.0160251
729.156	0.0161060
729.234	0.0160056
729.312	0.0160829
729.390	0.0160725
729.468	0.0161189
729.546	0.0160310
729.624	0.0161580
729.703	0.0160466
729.781	0.0160390
729.859	0.0161309
729.937	0.0160658
730.015	0.0159380
730.093	0.0159774
730.171	0.0160205
730.249	0.0160314
730.328	0.0160047
730.406	0.0161208
730.484	0.0160021
730.562	0.0161341
730.640	0.0160629
730.718	0.0161924
730.796	0.0161263
730.874	0.0159272
730.953	0.0160653
731.031	0.0159895
731.109	0.0161324
731.187	0.0160691
731.265	0.0160620
731.343	0.0160651
731.421	0.0159389
731.499	0.0160020
731.578	0.0160788
731.656	0.0161243
731.734	0.0160509
731.812	0.0159358
731.890	0.0159918
731.968	0.0159309
732.046	0.0161086
732.124	0.0161562
732.203	0.0161449
732.281	0.0160255
732.359	0.0159894
732.437	0.0159380
732.515	0.0159952
732.593	0.0161199
732.671	0.0161762
732.749	0.0162229
732.828	0.0161710
732.906	0.0160114
732.984	0.0159535
733.062	0.0161149
733.140	0.0161143
733.218	0.0160937
733.296	0.0160146
733.374	0.0160204
733.453	0.0162909
733.531	0.0161460
733.609	0.0161443
733.687	0.0161189
733.765	0.0160259
733.843	0.0158964
733.921	0.0160166
733.999	0.0162177
734.078	0.0163042
734.156	0.0160489
734.234	0.0159736
734.312	0.0161950
734.390	0.0162088
734.468	0.0160699
734.546	0.0161027
734.624	0.0161757
734.703	0.0160731
734.781	0.0161612
734.859	0.0160748
734.937	0.0160712
735.015	0.0160369
735.093	0.0161305
735.171	0.0161870
735.249	0.0161198
735.328	0.0161493
735.406	0.0160968
735.484	0.0161131
735.562	0.0161722
735.640	0.0161260
735.718	0.0161355
735.796	0.0159786
735.874	0.0161999
735.953	0.0160986
736.031	0.0160994
736.109	0.0160880
736.187	0.0160611
736.265	0.0161120
736.343	0.0161526
736.421	0.0160256
736.499	0.0160438
736.578	0.0159841
736.656	0.0161442
736.734	0.0160569
736.812	0.0161108
736.890	0.0160780
736.968	0.0159673
737.046	0.0160415
737.124	0.0161201
737.203	0.0161061
737.281	0.0161451
737.359	0.0160683
737.437	0.0160301
737.515	0.0158929
737.593	0.0162136
737.671	0.0160376
737.749	0.0160267
737.828	0.0159161
737.906	0.0160075
737.984	0.0159754
738.062	0.0159516
738.140	0.0159483
738.218	0.0159769
738.296	0.0160312
738.374	0.0158709
738.453	0.0159064
738.531	0.0160075
738.609	0.0160455
738.687	0.0159894
738.765	0.0160703
738.843	0.0159362
738.921	0.0158799
738.999	0.0159871
739.078	0.0160638
739.156	0.0160419
739.234	0.0160495
739.312	0.0160181
739.390	0.0160055
739.468	0.0162017
739.546	0.0160139
739.624	0.0159797
739.703	0.0160150
739.781	0.0160015
739.859	0.0159908
739.937	0.0160763
740.015	0.0160891
740.093	0.0160095
740.171	0.0159901
740.249	0.0160722
740.328	0.0159954
740.406	0.0160983
740.484	0.0159198
740.562	0.0160573
740.640	0.0161526
740.718	0.0160506
740.796	0.0161555
740.874	0.0159729
740.953	0.0158763
741.031	0.0158733
741.109	0.0159090
741.187	0.0160526
741.265	0.0159789
741.343	0.0160475
741.421	0.0157737
741.499	0.0160202
741.578	0.0160115
741.656	0.0159032
741.734	0.0159695
741.812	0.0159048
741.890	0.0159166
741.968	0.0159197
742.046	0.0159270
742.124	0.0159567
742.203	0.0159814
742.281	0.0160025
742.359	0.0158448
742.437	0.0159425
742.515	0.0160322
742.593	0.0158430
742.671	0.0160375
742.749	0.0159053
742.828	0.0159758
742.906	0.0160117
742.984	0.0160267
743.062	0.0160648
743.140	0.0160202
743.218	0.0160236
743.296	0.0160731
743.374	0.0160184
743.453	0.0159373
743.531	0.0159686
743.609	0.0160356
743.687	0.0160555
743.765	0.0160631
743.843	0.0160177
743.921	0.0161392
743.999	0.0161051
744.078	0.0160403
744.156	0.0159821
744.234	0.0160858
744.312	0.0159421
744.390	0.0160637
744.468	0.0159022
744.546	0.0159854
744.624	0.0159473
744.703	0.0159560
744.781	0.0158733
744.859	0.0159362
744.937	0.0159785
745.015	0.0159983
745.093	0.0160372
745.171	0.0159278
745.249	0.0159396
745.328	0.0158395
745.406	0.0159206
745.484	0.0159771
745.562	0.0160099
745.640	0.0159738
745.718	0.0159151
745.796	0.0160773
745.874	0.0159669
745.953	0.0158829
746.031	0.0159016
746.109	0.0158406
746.187	0.0158471
746.265	0.0159367
746.343	0.0159176
746.421	0.0158373
746.499	0.0158861
746.578	0.0158501
746.656	0.0160125
746.734	0.0158875
746.812	0.0158083
746.890	0.0158572
746.968	0.0159154
747.046	0.0158248
747.124	0.0158562
747.203	0.0156782
747.281	0.0158678
747.359	0.0158469
747.437	0.0159548
747.515	0.0160342
747.593	0.0160357
747.671	0.0159171
747.749	0.0160392
747.828	0.0159750
747.906	0.0159579
747.984	0.0160145
748.062	0.0158425
748.140	0.0160423
748.218	0.0160371
748.296	0.0160813
748.374	0.0159144
748.453	0.0161500
748.531	0.0160372
748.609	0.0158210
748.687	0.0158781
748.765	0.0159250
748.843	0.0158355
748.921	0.0159335
748.999	0.0159147
749.078	0.0158469
749.156	0.0160041
749.234	0.0159265
749.312	0.0159088
749.390	0.0159241
749.468	0.0160247
749.546	0.0160074
749.624	0.0161453
749.703	0.0160570
749.781	0.0159524
749.859	0.0161348
749.937	0.0160811
750.015	0.0159949
750.093	0.0159977
750.171	0.0161134
750.249	0.0160616
750.328	0.0160067
750.406	0.0160595
750.484	0.0158539
750.562	0.0160021
750.640	0.0160650
750.718	0.0160911
750.796	0.0160108
750.874	0.0158640
750.953	0.0159256
751.031	0.0162305
751.109	0.0161272
751.187	0.0161626
751.265	0.0161168
751.343	0.0161070
751.421	0.0160325
751.499	0.0161813
751.578	0.0160414
751.656	0.0159354
751.734	0.0161023
751.812	0.0160143
751.890	0.0158337
751.968	0.0160407
752.046	0.0159455
752.124	0.0159213
752.203	0.0159856
752.281	0.0160226
752.359	0.0159415
752.437	0.0160954
752.515	0.0159144
752.593	0.0159241
752.671	0.0160764
752.749	0.0159651
752.828	0.0159731
752.906	0.0160001
752.984	0.0160835
753.062	0.0160590
753.140	0.0161288
753.218	0.0161948
753.296	0.0162366
753.374	0.0161156
753.453	0.0162208
753.531	0.0162376
753.609	0.0162465
753.687	0.0162267
753.765	0.0162189
753.843	0.0162000
753.921	0.0161874
753.999	0.0161358
754.078	0.0163020
754.156	0.0161942
754.234	0.0160937
754.312	0.0161513
754.390	0.0159776
754.468	0.0160738
754.546	0.0160696
754.624	0.0160710
754.703	0.0160432
754.781	0.0162078
754.859	0.0160054
754.937	0.0159998
755.015	0.0160466
755.093	0.0161539
755.171	0.0160755
755.249	0.0159506
755.328	0.0160530
755.406	0.0161663
755.484	0.0160952
755.562	0.0159782
755.640	0.0160011
755.718	0.0160367
755.796	0.0158411
755.874	0.0159010
755.953	0.0160475
756.031	0.0159850
756.109	0.0159913
756.187	0.0160150
756.265	0.0161784
756.343	0.0161802
756.421	0.0159591
756.499	0.0160165
756.578	0.0161005
756.656	0.0160487
756.734	0.0159255
756.812	0.0159866
756.890	0.0160271
756.968	0.0159879
757.046	0.0161764
757.124	0.0160303
757.203	0.0160635
757.281	0.0160899
757.359	0.0160598
757.437	0.0160764
757.515	0.0160454
757.593	0.0160744
757.671	0.0161607
757.749	0.0160812
757.828	0.0161216
757.906	0.0160905
757.984	0.0159800
758.062	0.0160262
758.140	0.0160454
758.218	0.0162114
758.296	0.0160925
758.374	0.0161646
758.453	0.0160284
758.531	0.0161417
758.609	0.0160614
758.687	0.0161183
758.765	0.0160533
758.843	0.0160297
758.921	0.0161676
758.999	0.0161092
759.078	0.0160671
759.156	0.0160524
759.234	0.0160341
759.312	0.0159344
759.390	0.0160450
759.468	0.0158657
759.546	0.0159329
759.624	0.0159502
759.703	0.0157809
759.781	0.0159518
759.859	0.0159314
759.937	0.0159257
760.015	0.0158632
760.093	0.0159489
760.171	0.0160442
760.249	0.0162182
760.328	0.0160597
760.406	0.0160892
760.484	0.0160537
760.562	0.0160978
760.640	0.0160703
760.718	0.0161343
760.796	0.0162843
760.874	0.0162524
760.953	0.0163001
761.031	0.0161848
761.109	0.0161802
761.187	0.0161990
761.265	0.0163112
761.343	0.0159903
761.421	0.0160071
761.499	0.0161488
761.578	0.0158999
761.656	0.0160905
761.734	0.0161784
761.812	0.0160195
761.890	0.0160051
761.968	0.0160867
762.046	0.0160913
762.124	0.0160197
762.203	0.0158801
762.281	0.0158845
762.359	0.0159216
762.437	0.0160801
762.515	0.0159061
762.593	0.0159158
762.671	0.0160506
762.749	0.0159048
762.828	0.0158215
762.906	0.0157706
762.984	0.0158512
763.062	0.0157460
763.140	0.0158356
763.218	0.0158740
763.296	0.0159280
763.374	0.0158721
763.453	0.0159437
763.531	0.0158994
763.609	0.0159021
763.687	0.0158511
763.765	0.0159402
763.843	0.0158353
763.921	0.0157926
763.999	0.0159988
764.078	0.0158963
764.156	0.0158723
764.234	0.0159188
764.312	0.0158923
764.390	0.0160289
764.468	0.0160127
764.546	0.0158364
764.624	0.0158414
764.703	0.0159863
764.781	0.0159373
764.859	0.0158083
764.937	0.0158914
765.015	0.0158981
765.093	0.0160385
765.171	0.0160588
765.249	0.0160925
765.328	0.0160333
765.406	0.0161502
765.484	0.0161514
765.562	0.0160376
765.640	0.0162078
765.718	0.0162687
765.796	0.0160467
765.874	0.0161634
765.953	0.0161644
766.031	0.0161256
766.109	0.0160973
766.187	0.0159168
766.265	0.0159943
766.343	0.0161299
766.421	0.0159135
766.499	0.0159697
766.578	0.0160868
766.656	0.0161704
766.734	0.0161466
766.812	0.0160445
766.890	0.0160874
766.968	0.0159816
767.046	0.0161875
767.124	0.0160674
767.203	0.0158806
767.281	0.0158205
767.359	0.0157721
767.437	0.0157500
767.515	0.0158056
767.593	0.0156219
767.671	0.0156817
767.749	0.0156400
767.828	0.0155402
767.906	0.0155959
767.984	0.0155046
768.062	0.0155544
768.140	0.0156718
768.218	0.0155866
768.296	0.0155452
768.374	0.0154710
768.453	0.0158140
768.531	0.0157905
768.609	0.0156714
768.687	0.0157354
768.765	0.0157305
768.843	0.0159134
768.921	0.0158044
768.999	0.0158816
769.078	0.0158545
769.156	0.0160191
769.234	0.0161880
769.312	0.0161375
769.390	0.0161912
769.468	0.0160676
769.546	0.0161648
769.624	0.0161678
769.703	0.0162540
769.781	0.0162276
769.859	0.0162232
769.937	0.0161724
770.015	0.0162280
770.093	0.0161364
770.171	0.0163098
770.249	0.0162057
770.328	0.0162357
770.406	0.0161919
770.484	0.0161246
770.562	0.0161457
770.640	0.0161684
770.718	0.0160798
770.796	0.0161531
770.874	0.0160645
770.953	0.0160816
771.031	0.0158273
771.109	0.0158736
771.187	0.0159364
771.265	0.0157753
771.343	0.0158491
771.421	0.0159846
771.499	0.0156962
771.578	0.0158342
771.656	0.0157529
771.734	0.0158739
771.812	0.0158684
771.890	0.0159246
771.968	0.0157529
772.046	0.0159890
772.124	0.0160155
772.203	0.0160342
772.281	0.0158862
772.359	0.0160863
772.437	0.0160872
772.515	0.0159933
772.593	0.0160708
772.671	0.0161926
772.749	0.0159751
772.828	0.0158915
772.906	0.0160764
772.984	0.0160469
773.062	0.0160274
773.140	0.0159850
773.218	0.0160490
773.296	0.0161192
773.374	0.0160838
773.453	0.0161357
773.531	0.0159851
773.609	0.0160924
773.687	0.0159836
773.765	0.0158915
773.843	0.0159748
773.921	0.0159750
773.999	0.0160414
774.078	0.0159461
774.156	0.0159388
774.234	0.0158543
774.312	0.0161352
774.390	0.0160871
774.468	0.0161903
774.546	0.0160992
774.624	0.0161906
774.703	0.0161229
774.781	0.0161098
774.859	0.0161919
774.937	0.0161937
775.015	0.0161912
775.093	0.0162132
775.171	0.0161048
775.249	0.0160386
775.328	0.0160726
775.406	0.0159904
775.484	0.0160626
775.562	0.0161063
775.640	0.0160605
775.718	0.0161339
775.796	0.0161870
775.874	0.0160061
775.953	0.0158945
776.031	0.0159667
776.109	0.0159240
776.187	0.0159225
776.265	0.0157607
776.343	0.0159226
776.421	0.0158392
776.499	0.0157030
776.578	0.0157289
776.656	0.0158972
776.734	0.0157369
776.812	0.0156659
776.890	0.0156664
776.968	0.0157779
777.046	0.0156616
777.124	0.0156002
777.203	0.0156288
777.281	0.0157048
777.359	0.0157954
777.437	0.0159122
777.515	0.0159637
777.593	0.0159093
777.671	0.0159765
777.749	0.0161539
777.828	0.0162890
777.906	0.0161855
777.984	0.0161207
778.062	0.0163194
778.140	0.0161956
778.218	0.0162711
778.296	0.0162510
778.374	0.0162194
778.453	0.0161367
778.531	0.0161372
778.609	0.0161351
778.687	0.0161446
778.765	0.0162197
778.843	0.0162125
778.921	0.0161906
778.999	0.0162238
779.078	0.0161328
779.156	0.0161932
779.234	0.0161776
779.312	0.0162401
779.390	0.0161034
779.468	0.0160301
779.546	0.0160654
779.624	0.0160899
779.703	0.0161315
779.781	0.0160710
779.859	0.0160442
779.937	0.0159377
780.015	0.0160106
780.093	0.0160252
780.171	0.0160703
780.249	0.0161497
780.328	0.0159228
780.406	0.0159595
780.484	0.0159156
780.562	0.0159855
780.640	0.0158965
780.718	0.0159603
780.796	0.0159474
780.874	0.0159019
780.953	0.0159932
781.031	0.0158958
781.109	0.0158583
781.187	0.0160705
781.265	0.0160186
781.343	0.0159674
781.421	0.0160841
781.499	0.0160916
781.578	0.0159429
781.656	0.0159502
781.734	0.0158491
781.812	0.0159579
781.890	0.0160141
781.968	0.0159859
782.046	0.0158111
782.124	0.0160138
782.203	0.0158781
782.281	0.0159513
782.359	0.0159649
782.437	0.0160553
782.515	0.0161225
782.593	0.0160657
782.671	0.0159771
782.749	0.0160469
782.828	0.0160308
782.906	0.0160323
782.984	0.0161668
783.062	0.0162657
783.140	0.0161577
783.218	0.0161927
783.296	0.0163357
783.374	0.0162782
783.453	0.0162466
783.531	0.0163387
783.609	0.0164379
783.687	0.0162656
783.765	0.0164497
783.843	0.0163622
783.921	0.0163923
783.999	0.0162983
784.078	0.0161884
784.156	0.0162877
784.234	0.0162701
784.312	0.0162299
784.390	0.0162209
784.468	0.0162258
784.546	0.0161871
784.624	0.0160403
784.703	0.0161745
784.781	0.0161540
784.859	0.0161171
784.937	0.0160317
785.015	0.0160697
785.093	0.0160717
785.171	0.0158748
785.249	0.0158580
785.328	0.0158038
785.406	0.0158152
785.484	0.0158598
785.562	0.0157904
785.640	0.0156468
785.718	0.0157205
785.796	0.0156512
785.874	0.0154918
785.953	0.0156178
786.031	0.0155878
786.109	0.0155108
786.187	0.0155938
786.265	0.0155515
786.343	0.0156355
786.421	0.0155388
786.499	0.0157101
786.578	0.0158097
786.656	0.0157222
786.734	0.0157591
786.812	0.0159254
786.890	0.0158878
786.968	0.0160689
787.046	0.0162153
787.124	0.0161504
787.203	0.0161987
787.281	0.0162850
787.359	0.0162169
787.437	0.0163816
787.515	0.0165013
787.593	0.0163683
787.671	0.0165491
787.749	0.0166334
787.828	0.0166594
787.906	0.0164408
787.984	0.0164919
788.062	0.0164719
788.140	0.0164817
788.218	0.0163776
788.296	0.0163174
788.374	0.0162405
788.453	0.0162424
788.531	0.0161972
788.609	0.0159309
788.687	0.0158925
788.765	0.0159238
788.843	0.0158675
788.921	0.0158705
788.999	0.0158238
789.078	0.0156755
789.156	0.0158157
789.234	0.0157568
789.312	0.0155823
789.390	0.0157659
789.468	0.0159662
789.546	0.0157774
789.624	0.0157169
789.703	0.0155810
789.781	0.0156978
789.859	0.0157426
789.937	0.0156892
790.015	0.0157915
790.093	0.0158482
790.171	0.0158301
790.249	0.0157722
790.328	0.0157963
790.406	0.0159293
790.484	0.0159650
790.562	0.0159579
790.640	0.0158881
790.718	0.0159948
790.796	0.0160881
790.874	0.0159718
790.953	0.0160357
791.031	0.0159950
791.109	0.0160107
791.187	0.0160682
791.265	0.0160313
791.343	0.0162859
791.421	0.0161667
791.499	0.0160388
791.578	0.0163526
791.656	0.0163625
791.734	0.0163125
791.812	0.0164097
791.890	0.0164825
791.968	0.0163713
792.046	0.0164024
792.124	0.0162228
792.203	0.0164339
792.281	0.0165150
792.359	0.0163941
792.437	0.0163005
792.515	0.0161772
792.593	0.0163068
792.671	0.0161950
792.749	0.0161934
792.828	0.0162062
792.906	0.0160412
792.984	0.0161507
793.062	0.0161351
793.140	0.0160787
793.218	0.0159961
793.296	0.0158079
793.374	0.0159827
793.453	0.0158713
793.531	0.0156683
793.609	0.0156804
793.687	0.0157586
793.765	0.0157616
793.843	0.0157001
793.921	0.0157504
793.999	0.0158138
794.078	0.0158509
794.156	0.0158991
794.234	0.0158099
794.312	0.0157797
794.390	0.0158923
794.468	0.0158043
794.546	0.0158421
794.624	0.0159088
794.703	0.0160146
794.781	0.0159856
794.859	0.0160534
794.937	0.0161723
795.015	0.0160379
795.093	0.0160197
795.171	0.0162585
795.249	0.0160455
795.328	0.0161701
795.406	0.0163352
795.484	0.0162220
795.562	0.0162572
795.640	0.0165208
795.718	0.0164738
795.796	0.0163023
795.874	0.0162830
795.953	0.0163853
796.031	0.0164920
796.109	0.0162872
796.187	0.0163290
796.265	0.0164085
796.343	0.0164312
796.421	0.0163480
796.499	0.0163835
796.578	0.0162547
796.656	0.0163176
796.734	0.0162133
796.812	0.0162936
796.890	0.0161999
796.968	0.0160518
797.046	0.0160275
797.124	0.0159752
797.203	0.0160212
797.281	0.0158472
797.359	0.0160169
797.437	0.0156887
797.515	0.0157915
797.593	0.0155159
797.671	0.0155740
797.749	0.0155861
797.828	0.0155107
797.906	0.0153565
797.984	0.0155292
798.062	0.0154679
798.140	0.0155197
798.218	0.0155021
798.296	0.0155051
798.374	0.0156146
798.453	0.0156477
798.531	0.0155605
798.609	0.0157956
798.687	0.0158053
798.765	0.0157407
798.843	0.0158580
798.921	0.0157871
798.999	0.0159782
799.078	0.0158863
799.156	0.0160984
799.234	0.0160337
799.312	0.0160721
799.390	0.0161169
799.468	0.0160097
799.546	0.0162383
799.624	0.0162308
799.703	0.0160868
799.781	0.0161624
799.859	0.0164292
799.937	0.0164360
800.015	0.0162413
800.093	0.0162552
800.171	0.0162753
800.249	0.0164160
800.328	0.0163266
800.406	0.0162994
800.484	0.0161933
800.562	0.0161765
800.640	0.0161612
800.718	0.0161351
800.796	0.0160576
800.874	0.0161223
800.953	0.0160324
801.031	0.0158669
801.109	0.0157961
801.187	0.0158405
801.265	0.0157941
801.343	0.0157918
801.421	0.0156482
801.499	0.0157365
801.578	0.0156422
801.656	0.0158333
801.734	0.0157262
801.812	0.0155999
801.890	0.0157383
801.968	0.0156673
802.046	0.0156893
802.124	0.0158262
802.203	0.0156039
802.281	0.0157298
802.359	0.0156752
802.437	0.0156560
802.515	0.0156565
802.593	0.0158412
802.671	0.0158960
802.749	0.0157844
802.828	0.0159776
802.906	0.0160796
802.984	0.0160242
803.062	0.0160221
803.140	0.0159335
803.218	0.0160801
803.296	0.0160329
803.374	0.0159246
803.453	0.0159988
803.531	0.0161218
803.609	0.0160210
803.687	0.0159846
803.765	0.0161302
803.843	0.0162402
803.921	0.0160420
803.999	0.0160706
804.078	0.0160606
804.156	0.0159495
804.234	0.0160199
804.312	0.0161262
804.390	0.0161035
804.468	0.0161969
804.546	0.0160363
804.624	0.0160197
804.703	0.0160098
804.781	0.0160506
804.859	0.0160966
804.937	0.0160762
805.015	0.0159528
805.093	0.0159839
805.171	0.0160535
805.249	0.0160017
805.328	0.0158958
805.406	0.0158616
805.484	0.0157233
805.562	0.0159067
805.640	0.0158153
805.718	0.0157478
805.796	0.0158527
805.874	0.0157496
805.953	0.0156985
806.031	0.0158012
806.109	0.0157484
806.187	0.0156172
806.265	0.0155917
806.343	0.0156199
806.421	0.0155985
806.499	0.0156028
806.578	0.0155586
806.656	0.0158265
806.734	0.0158112
806.812	0.0157735
806.890	0.0157969
806.968	0.0158022
807.046	0.0158423
807.124	0.0160131
807.203	0.0160358
807.281	0.0161482
807.359	0.0161133
807.437	0.0161116
807.515	0.0161443
807.593	0.0162653
807.671	0.0163446
807.749	0.0163881
807.828	0.0163088
807.906	0.0162811
807.984	0.0162724
808.062	0.0163922
808.140	0.0162688
808.218	0.0164182
808.296	0.0164056
808.374	0.0162070
808.453	0.0163495
808.531	0.0164832
808.609	0.0163570
808.687	0.0161699
808.765	0.0162064
808.843	0.0161396
808.921	0.0161259
808.999	0.0161211
809.078	0.0159235
809.156	0.0159711
809.234	0.0158914
809.312	0.0156512
809.390	0.0157241
809.468	0.0156921
809.546	0.0155004
809.624	0.0155785
809.703	0.0155711
809.781	0.0156602
809.859	0.0156628
809.937	0.0154723
810.015	0.0157347
810.093	0.0156706
810.171	0.0157093
810.249	0.0156986
810.328	0.0157623
810.406	0.0158069
810.484	0.0159532
810.562	0.0158384
810.640	0.0160087
810.718	0.0159511
810.796	0.0161433
810.874	0.0161658
810.953	0.0161889
811.031	0.0162929
811.109	0.0163309
811.187	0.0162724
811.265	0.0162762
811.343	0.0162664
811.421	0.0164263
811.499	0.0162202
811.578	0.0162301
811.656	0.0161776
811.734	0.0161211
811.812	0.0162465
811.890	0.0161983
811.968	0.0160464
812.046	0.0160625
812.124	0.0160428
812.203	0.0160459
812.281	0.0159737
812.359	0.0159312
812.437	0.0160617
812.515	0.0161379
812.593	0.0160533
812.671	0.0161725
812.749	0.0161620
812.828	0.0161087
812.906	0.0160838
812.984	0.0161312
813.062	0.0161151
813.140	0.0160397
813.218	0.0160954
813.296	0.0160995
813.374	0.0159103
813.453	0.0159664
813.531	0.0158949
813.609	0.0159789
813.687	0.0159975
813.765	0.0161062
813.843	0.0159123
813.921	0.0159570
813.999	0.0159893
814.078	0.0160162
814.156	0.0159208
814.234	0.0160381
814.312	0.0159978
814.390	0.0159061
814.468	0.0159063
814.546	0.0159879
814.624	0.0160040
814.703	0.0159570
814.781	0.0161005
814.859	0.0159265
814.937	0.0159164
815.015	0.0160592
815.093	0.0161198
815.171	0.0160589
815.249	0.0160218
815.328	0.0162059
815.406	0.0162307
815.484	0.0162405
815.562	0.0162402
815.640	0.0163403
815.718	0.0163121
815.796	0.0162380
815.874	0.0163913
815.953	0.0163039
816.031	0.0163744
816.109	0.0162260
816.187	0.0161337
816.265	0.0161533
816.343	0.0161411
816.421	0.0161320
816.499	0.0161062
816.578	0.0162375
816.656	0.0159930
816.734	0.0159214
816.812	0.0159671
816.890	0.0160331
816.968	0.0160217
817.046	0.0159533
817.124	0.0159004
817.203	0.0159206
817.281	0.0159654
817.359	0.0158678
817.437	0.0159766
817.515	0.0161503
817.593	0.0159767
817.671	0.0159307
817.749	0.0159068
817.828	0.0160033
817.906	0.0160200
817.984	0.0158688
818.062	0.0158197
818.140	0.0158382
818.218	0.0156459
818.296	0.0158315
818.374	0.0158240
818.453	0.0157928
818.531	0.0159048
818.609	0.0160271
818.687	0.0160233
818.765	0.0160096
818.843	0.0160290
818.921	0.0161431
818.999	0.0161581
819.078	0.0162359
819.156	0.0163804
819.234	0.0162952
819.312	0.0162971
819.390	0.0162081
819.468	0.0163237
819.546	0.0162643
819.624	0.0161205
819.703	0.0160345
819.781	0.0161422
819.859	0.0161283
819.937	0.0161053
820.015	0.0159564
820.093	0.0161023
820.171	0.0161123
820.249	0.0161579
820.328	0.0161639
820.406	0.0161208
820.484	0.0159520
820.562	0.0160585
820.640	0.0161603
820.718	0.0160693
820.796	0.0160423
820.874	0.0159245
820.953	0.0159589
821.031	0.0159664
821.109	0.0159087
821.187	0.0159272
821.265	0.0158092
821.343	0.0158880
821.421	0.0156348
821.499	0.0155422
821.578	0.0156994
821.656	0.0156773
821.734	0.0155834
821.812	0.0155146
821.890	0.0156097
821.968	0.0155391
822.046	0.0157217
822.124	0.0157409
822.203	0.0157052
822.281	0.0158710
822.359	0.0158327
822.437	0.0158434
822.515	0.0159426
822.593	0.0158253
822.671	0.0159988
822.749	0.0160870
822.828	0.0160413
822.906	0.0160518
822.984	0.0161215
823.062	0.0162344
823.140	0.0162488
823.218	0.0163545
823.296	0.0162791
823.374	0.0163109
823.453	0.0164535
823.531	0.0165125
823.609	0.0164244
823.687	0.0163721
823.765	0.0163713
823.843	0.0163229
823.921	0.0162793
823.999	0.0162767
824.078	0.0160912
824.156	0.0160777
824.234	0.0160415
824.312	0.0159372
824.390	0.0158550
824.468	0.0156133
824.546	0.0155875
824.624	0.0155743
824.703	0.0155999
824.781	0.0155725
824.859	0.0154631
824.937	0.0153931
825.015	0.0152787
825.093	0.0154109
825.171	0.0155412
825.249	0.0154876
825.328	0.0155332
825.406	0.0155273
825.484	0.0156614
825.562	0.0156284
825.640	0.0157957
825.718	0.0157861
825.796	0.0159541
825.874	0.0160249
825.953	0.0160421
826.031	0.0162177
826.109	0.0161852
826.187	0.0162214
826.265	0.0165241
826.343	0.0165781
826.421	0.0164467
826.499	0.0164623
826.578	0.0165936
826.656	0.0165296
826.734	0.0164108
826.812	0.0164912
826.890	0.0162708
826.968	0.0162578
827.046	0.0162411
827.124	0.0160570
827.203	0.0159015
827.281	0.0159036
827.359	0.0159384
827.437	0.0158954
827.515	0.0157713
827.593	0.0156395
827.671	0.0156499
827.749	0.0155405
827.828	0.0154514
827.906	0.0156337
827.984	0.0155017
828.062	0.0155042
828.140	0.0156129
828.218	0.0154989
828.296	0.0155736
828.374	0.0155410
828.453	0.0156305
828.531	0.0157002
828.609	0.0157650
828.687	0.0157480
828.765	0.0158953
828.843	0.0158938
828.921	0.0158479
828.999	0.0160920
829.078	0.0159750
829.156	0.0159052
829.234	0.0159377
829.312	0.0159460
829.390	0.0159016
829.468	0.0159763
829.546	0.0159473
829.624	0.0160504
829.703	0.0161286
829.781	0.0161280
829.859	0.0160607
829.937	0.0161948
830.015	0.0161357
830.093	0.0161073
830.171	0.0161672
830.249	0.0161439
830.328	0.0162563
830.406	0.0161918
830.484	0.0161485
830.562	0.0160349
830.640	0.0160352
830.718	0.0160317
830.796	0.0160967
830.874	0.0161758
830.953	0.0160575
831.031	0.0159560
831.109	0.0159339
831.187	0.0160670
831.265	0.0159500
831.343	0.0159376
831.421	0.0159050
831.499	0.0160426
831.578	0.0159672
831.656	0.0157942
831.734	0.0156236
831.812	0.0156784
831.890	0.0158042
831.968	0.0158669
832.046	0.0159153
832.124	0.0157256
832.203	0.0157626
832.281	0.0158199
832.359	0.0158063
832.437	0.0158228
832.515	0.0160037
832.593	0.0160165
832.671	0.0159936
832.749	0.0159391
832.828	0.0160052
832.906	0.0160651
832.984	0.0162214
833.062	0.0160625
833.140	0.0161259
833.218	0.0162458
833.296	0.0161218
833.374	0.0162996
833.453	0.0160921
833.531	0.0161139
833.609	0.0161621
833.687	0.0160291
833.765	0.0160460
833.843	0.0159057
833.921	0.0159489
833.999	0.0158256
834.078	0.0159024
834.156	0.0159352
834.234	0.0157696
834.312	0.0158203
834.390	0.0157027
834.468	0.0157380
834.546	0.0158664
834.624	0.0157774
834.703	0.0159052
834.781	0.0158962
834.859	0.0160450
834.937	0.0158089
835.015	0.0159380
835.093	0.0159313
835.171	0.0159773
835.249	0.0160461
835.328	0.0159340
835.406	0.0162630
835.484	0.0161797
835.562	0.0163144
835.640	0.0164176
835.718	0.0162470
835.796	0.0161383
835.874	0.0163277
835.953	0.0162655
836.031	0.0162749
836.109	0.0162622
836.187	0.0162770
836.265	0.0162156
836.343	0.0161590
836.421	0.0162470
836.499	0.0162180
836.578	0.0161266
836.656	0.0160213
836.734	0.0161276
836.812	0.0160202
836.890	0.0161012
836.968	0.0160442
837.046	0.0159696
837.124	0.0160081
837.203	0.0158869
837.281	0.0159630
837.359	0.0158904
837.437	0.0159363
837.515	0.0157924
837.593	0.0157067
837.671	0.0156344
837.749	0.0156470
837.828	0.0155960
837.906	0.0156956
837.984	0.0156819
838.062	0.0155694
838.140	0.0155714
838.218	0.0156556
838.296	0.0156385
838.374	0.0157026
838.453	0.0156738
838.531	0.0157623
838.609	0.0157996
838.687	0.0158360
838.765	0.0158897
838.843	0.0161626
838.921	0.0159984
838.999	0.0161142
839.078	0.0162334
839.156	0.0161456
839.234	0.0163195
839.312	0.0162741
839.390	0.0165076
839.468	0.0164427
839.546	0.0163670
839.624	0.0162896
839.703	0.0162100
839.781	0.0164090
839.859	0.0163537
839.937	0.0163405
840.015	0.0162962
840.093	0.0162737
840.171	0.0163537
840.249	0.0162999
840.328	0.0163391
840.406	0.0160232
840.484	0.0160516
840.562	0.0160217
840.640	0.0161008
840.718	0.0160694
840.796	0.0161832
840.874	0.0159956
840.953	0.0159851
841.031	0.0159272
841.109	0.0159325
841.187	0.0159248
841.265	0.0159692
841.343	0.0158653
841.421	0.0158406
841.499	0.0157849
841.578	0.0158198
841.656	0.0158601
841.734	0.0157619
841.812	0.0158029
841.890	0.0158304
841.968	0.0158547
842.046	0.0158736
842.124	0.0157596
842.203	0.0157529
842.281	0.0158350
842.359	0.0159369
842.437	0.0159443
842.515	0.0158982
842.593	0.0159957
842.671	0.0159679
842.749	0.0160816
842.828	0.0160851
842.906	0.0160419
842.984	0.0162168
843.062	0.0163596
843.140	0.0164375
843.218	0.0162659
843.296	0.0163272
843.374	0.0164239
843.453	0.0163735
843.531	0.0163058
843.609	0.0163535
843.687	0.0162998
843.765	0.0164582
843.843	0.0164623
843.921	0.0164282
843.999	0.0162275
844.078	0.0162138
844.156	0.0161618
844.234	0.0160387
844.312	0.0160717
844.390	0.0161174
844.468	0.0161288
844.546	0.0160075
844.624	0.0159582
844.703	0.0157928
844.781	0.0159038
844.859	0.0158691
844.937	0.0157851
845.015	0.0157040
845.093	0.0157089
845.171	0.0157020
845.249	0.0156862
845.328	0.0156445
845.406	0.0157781
845.484	0.0156759
845.562	0.0157768
845.640	0.0157382
845.718	0.0158236
845.796	0.0158697
845.874	0.0157845
845.953	0.0158321
846.031	0.0156901
846.109	0.0158635
846.187	0.0159583
846.265	0.0160905
846.343	0.0159560
846.421	0.0161407
846.499	0.0161768
846.578	0.0159872
846.656	0.0161263
846.734	0.0162383
846.812	0.0162273
846.890	0.0162299
846.968	0.0162247
847.046	0.0162079
847.124	0.0162387
847.203	0.0162616
847.281	0.0162723
847.359	0.0162621
847.437	0.0163651
847.515	0.0162486
847.593	0.0163460
847.671	0.0162552
847.749	0.0163091
847.828	0.0162906
847.906	0.0163098
847.984	0.0162389
848.062	0.0161765
848.140	0.0160868
848.218	0.0160427
848.296	0.0160155
848.374	0.0159106
848.453	0.0159218
848.531	0.0158385
848.609	0.0158905
848.687	0.0157475
848.765	0.0158355
848.843	0.0157536
848.921	0.0158319
848.999	0.0158576
849.078	0.0159528
849.156	0.0156995
849.234	0.0158179
849.312	0.0158118
849.390	0.0157799
849.468	0.0158495
849.546	0.0159211
849.624	0.0159869
849.703	0.0158317
849.781	0.0158338
849.859	0.0159354
849.937	0.0159350
850.015	0.0159259
850.093	0.0158314
850.171	0.0159320
850.249	0.0158904
850.328	0.0159231
850.406	0.0158823
850.484	0.0157849
850.562	0.0158374
850.640	0.0160596
850.718	0.0159088
850.796	0.0158292
850.874	0.0159602
850.953	0.0159193
851.031	0.0159503
851.109	0.0159052
851.187	0.0158992
851.265	0.0159746
851.343	0.0161040
851.421	0.0159480
851.499	0.0159146
851.578	0.0159565
851.656	0.0158916
851.734	0.0159942
851.812	0.0161372
851.890	0.0160886
851.968	0.0161069
852.046	0.0161207
852.124	0.0161614
852.203	0.0162941
852.281	0.0161339
852.359	0.0161516
852.437	0.0160442
852.515	0.0160819
852.593	0.0161528
852.671	0.0161646
852.749	0.0161320
852.828	0.0159908
852.906	0.0159957
852.984	0.0161234
853.062	0.0161444
853.140	0.0160027
853.218	0.0160513
853.296	0.0161595
853.374	0.0159974
853.453	0.0159966
853.531	0.0160995
853.609	0.0160118
853.687	0.0160345
853.765	0.0159142
853.843	0.0160361
853.921	0.0158678
853.999	0.0158674
854.078	0.0157699
854.156	0.0157760
854.234	0.0157246
854.312	0.0158968
854.390	0.0157996
854.468	0.0157979
854.546	0.0157224
854.624	0.0157757
854.703	0.0156664
854.781	0.0156664
854.859	0.0157269
854.937	0.0157674
855.015	0.0157287
855.093	0.0157535
855.171	0.0156605
855.249	0.0157956
855.328	0.0159314
855.406	0.0159342
855.484	0.0158698
855.562	0.0160810
855.640	0.0159766
855.718	0.0160858
855.796	0.0161346
855.874	0.0162479
855.953	0.0164010
856.031	0.0163335
856.109	0.0163092
856.187	0.0163089
856.265	0.0163496
856.343	0.0162878
856.421	0.0164143
856.499	0.0163946
856.578	0.0163280
856.656	0.0162772
856.734	0.0162746
856.812	0.0162543
856.890	0.0162490
856.968	0.0160989
857.046	0.0162751
857.124	0.0162561
857.203	0.0161524
857.281	0.0161616
857.359	0.0161243
857.437	0.0160789
857.515	0.0159298
857.593	0.0161191
857.671	0.0159962
857.749	0.0160413
857.828	0.0160223
857.906	0.0159054
857.984	0.0158623
858.062	0.0159995
858.140	0.0160583
858.218	0.0160492
858.296	0.0160392
858.374	0.0161346
858.453	0.0161183
858.531	0.0160226
858.609	0.0160558
858.687	0.0160098
858.765	0.0161382
858.843	0.0161073
858.921	0.0160228
858.999	0.0160041
859.078	0.0160832
859.156	0.0160548
859.234	0.0160561
859.312	0.0159624
859.390	0.0159322
859.468	0.0159918
859.546	0.0160077
859.624	0.0160822
859.703	0.0159962
859.781	0.0160347
859.859	0.0159368
859.937	0.0159888
860.015	0.0159961
860.093	0.0160704
860.171	0.0161517
860.249	0.0160760
860.328	0.0161823
860.406	0.0161780
860.484	0.0160819
860.562	0.0162002
860.640	0.0162497
860.718	0.0162693
860.796	0.0161427
860.874	0.0161830
860.953	0.0161507
861.031	0.0162141
861.109	0.0161954
861.187	0.0162595
861.265	0.0161436
861.343	0.0161971
861.421	0.0162331
861.499	0.0161817
861.578	0.0161871
861.656	0.0161466
861.734	0.0161275
861.812	0.0160294
861.890	0.0162175
861.968	0.0160821
862.046	0.0160685
862.124	0.0160816
862.203	0.0159074
862.281	0.0159637
862.359	0.0159184
862.437	0.0159543
862.515	0.0157580
862.593	0.0158801
862.671	0.0157157
862.749	0.0156668
862.828	0.0157832
862.906	0.0159915
862.984	0.0158614
863.062	0.0157610
863.140	0.0158775
863.218	0.0158302
863.296	0.0157829
863.374	0.0158844
863.453	0.0160495
863.531	0.0160235
863.609	0.0160659
863.687	0.0159995
863.765	0.0160693
863.843	0.0161929
863.921	0.0159872
863.999	0.0160320
864.078	0.0159238
864.156	0.0159935
864.234	0.0161429
864.312	0.0161042
864.390	0.0162315
864.468	0.0161589
864.546	0.0160912
864.624	0.0161534
864.703	0.0161768
864.781	0.0162540
864.859	0.0160268
864.937	0.0159393
865.015	0.0160661
865.093	0.0160213
865.171	0.0159605
865.249	0.0160812
865.328	0.0158902
865.406	0.0160362
865.484	0.0161337
865.562	0.0160315
865.640	0.0160764
865.718	0.0160216
865.796	0.0158874
865.874	0.0159558
865.953	0.0161047
866.031	0.0160226
866.109	0.0159521
866.187	0.0159267
866.265	0.0161575
866.343	0.0159774
866.421	0.0160012
866.499	0.0160143
866.578	0.0161317
866.656	0.0162338
866.734	0.0159849
866.812	0.0163082
866.890	0.0161375
866.968	0.0159940
867.046	0.0160453
867.124	0.0160408
867.203	0.0161467
867.281	0.0161675
867.359	0.0160573
867.437	0.0161838
867.515	0.0160797
867.593	0.0160122
867.671	0.0160497
867.749	0.0160500
867.828	0.0161298
867.906	0.0161022
867.984	0.0160807
868.062	0.0160388
868.140	0.0160602
868.218	0.0160533
868.296	0.0159785
868.374	0.0161031
868.453	0.0161470
868.531	0.0160183
868.609	0.0161122
868.687	0.0160995
868.765	0.0159415
868.843	0.0160899
868.921	0.0160608
868.999	0.0161771
869.078	0.0161696
869.156	0.0159825
869.234	0.0160298
869.312	0.0161801
869.390	0.0162132
869.468	0.0160792
869.546	0.0162268
869.624	0.0163206
869.703	0.0160663
869.781	0.0160479
869.859	0.0160226
869.937	0.0160219
870.015	0.0159657
870.093	0.0159905
870.171	0.0160278
870.249	0.0159214
870.328	0.0158662
870.406	0.0158844
870.484	0.0160542
870.562	0.0158523
870.640	0.0158160
870.718	0.0159373
870.796	0.0158518
870.874	0.0158433
870.953	0.0159739
871.031	0.0157523
871.109	0.0159754
871.187	0.0159177
871.265	0.0159705
871.343	0.0159393
871.421	0.0159895
871.499	0.0158633
871.578	0.0158636
871.656	0.0158713
871.734	0.0158611
871.812	0.0159259
871.890	0.0160162
871.968	0.0159228
872.046	0.0159600
872.124	0.0159401
872.203	0.0161414
872.281	0.0160491
872.359	0.0159647
872.437	0.0160547
872.515	0.0161399
872.593	0.0161624
872.671	0.0161177
872.749	0.0160258
872.828	0.0159734
872.906	0.0159705
872.984	0.0161038
873.062	0.0159648
873.140	0.0160123
873.218	0.0159100
873.296	0.0161274
873.374	0.0158983
873.453	0.0159959
873.531	0.0158497
873.609	0.0158862
873.687	0.0159247
873.765	0.0158359
873.843	0.0157717
873.921	0.0159966
873.999	0.0159044
874.078	0.0158681
874.156	0.0157511
874.234	0.0158290
874.312	0.0158729
874.390	0.0159038
874.468	0.0158803
874.546	0.0160179
874.624	0.0159412
874.703	0.0159669
874.781	0.0159801
874.859	0.0160133
874.937	0.0160074
875.015	0.0159785
875.093	0.0160924
875.171	0.0160361
875.249	0.0160417
875.328	0.0161443
875.406	0.0162479
875.484	0.0161108
875.562	0.0161230
875.640	0.0161610
875.718	0.0162001
875.796	0.0162216
875.874	0.0162117
875.953	0.0161184
876.031	0.0161425
876.109	0.0161098
876.187	0.0162889
876.265	0.0163109
876.343	0.0160869
876.421	0.0161044
876.499	0.0160022
876.578	0.0159943
876.656	0.0160761
876.734	0.0159591
876.812	0.0159571
876.890	0.0158817
876.968	0.0159975
877.046	0.0159849
877.124	0.0161060
877.203	0.0159666
877.281	0.0158128
877.359	0.0159982
877.437	0.0159907
877.515	0.0160454
877.593	0.0159668
877.671	0.0160026
877.749	0.0161364
877.828	0.0161919
877.906	0.0160841
877.984	0.0161285
878.062	0.0160872
878.140	0.0160783
878.218	0.0160902
878.296	0.0160398
878.374	0.0160471
878.453	0.0160905
878.531	0.0160180
878.609	0.0159355
878.687	0.0160767
878.765	0.0160906
878.843	0.0160279
878.921	0.0160556
878.999	0.0159776
879.078	0.0160155
879.156	0.0159489
879.234	0.0159499
879.312	0.0161227
879.390	0.0159023
879.468	0.0158793
879.546	0.0158655
879.624	0.0159710
879.703	0.0160483
879.781	0.0159827
879.859	0.0159477
879.937	0.0160933
880.015	0.0160793
880.093	0.0159787
880.171	0.0159373
880.249	0.0160171
880.328	0.0160739
880.406	0.0160252
880.484	0.0160120
880.562	0.0160487
880.640	0.0160410
880.718	0.0159299
880.796	0.0159670
880.874	0.0160805
880.953	0.0159430
881.031	0.0160697
881.109	0.0161763
881.187	0.0160925
881.265	0.0159605
881.343	0.0161539
881.421	0.0160943
881.499	0.0160707
881.578	0.0159435
881.656	0.0159955
881.734	0.0160586
881.812	0.0160392
881.890	0.0160533
881.968	0.0160316
882.046	0.0160036
882.124	0.0159215
882.203	0.0159505
882.281	0.0159886
882.359	0.0160745
882.437	0.0159697
882.515	0.0160756
882.593	0.0160297
882.671	0.0160413
882.749	0.0160947
882.828	0.0159263
882.906	0.0160308
882.984	0.0161237
883.062	0.0160985
883.140	0.0160309
883.218	0.0161033
883.296	0.0161307
883.374	0.0160944
883.453	0.0161705
883.531	0.0161317
883.609	0.0160666
883.687	0.0161761
883.765	0.0161970
883.843	0.0161500
883.921	0.0161494
883.999	0.0160526
884.078	0.0160506
884.156	0.0161544
884.234	0.0162010
884.312	0.0162119
884.390	0.0161689
884.468	0.0161902
884.546	0.0159762
884.624	0.0160411
884.703	0.0161923
884.781	0.0162267
884.859	0.0159944
884.937	0.0161108
885.015	0.0160046
885.093	0.0160405
885.171	0.0159333
885.249	0.0160371
885.328	0.0160700
885.406	0.0160991
885.484	0.0160046
885.562	0.0160230
885.640	0.0160619
885.718	0.0161620
885.796	0.0160711
885.874	0.0161625
885.953	0.0160032
886.031	0.0159314
886.109	0.0161976
886.187	0.0159554
886.265	0.0160284
886.343	0.0161091
886.421	0.0161126
886.499	0.0160152
886.578	0.0159476
886.656	0.0158974
886.734	0.0159607
886.812	0.0158145
886.890	0.0159284
886.968	0.0159438
887.046	0.0159190
887.124	0.0158962
887.203	0.0159359
887.281	0.0158128
887.359	0.0158618
887.437	0.0158443
887.515	0.0158699
887.593	0.0159875
887.671	0.0160088
887.749	0.0159177
887.828	0.0160229
887.906	0.0161992
887.984	0.0160325
888.062	0.0160875
888.140	0.0160508
888.218	0.0160976
888.296	0.0162200
888.374	0.0160280
888.453	0.0160726
888.531	0.0159940
888.609	0.0161671
888.687	0.0161921
888.765	0.0161303
888.843	0.0160682
888.921	0.0160878
888.999	0.0160382
889.078	0.0160841
889.156	0.0161097
889.234	0.0160115
889.312	0.0161059
889.390	0.0160764
889.468	0.0159325
889.546	0.0159979
889.624	0.0160583
889.703	0.0161743
889.781	0.0159221
889.859	0.0160229
889.937	0.0160459
890.015	0.0158593
890.093	0.0159612
890.171	0.0160936
890.249	0.0158723
890.328	0.0161299
890.406	0.0159828
890.484	0.0159507
890.562	0.0158836
890.640	0.0161089
890.718	0.0160709
890.796	0.0161085
890.874	0.0160107
890.953	0.0160029
891.031	0.0161360
891.109	0.0160631
891.187	0.0159965
891.265	0.0161832
891.343	0.0159413
891.421	0.0160371
891.499	0.0161417
891.578	0.0160994
891.656	0.0161111
891.734	0.0161967
891.812	0.0162369
891.890	0.0161362
891.968	0.0161053
892.046	0.0161308
892.124	0.0160802
892.203	0.0161697
892.281	0.0161446
892.359	0.0161880
892.437	0.0160641
892.515	0.0161401
892.593	0.0162384
892.671	0.0161156
892.749	0.0160466
892.828	0.0161013
892.906	0.0161320
892.984	0.0161289
893.062	0.0161826
893.140	0.0160195
893.218	0.0161624
893.296	0.0160586
893.374	0.0160710
893.453	0.0161213
893.531	0.0161709
893.609	0.0160190
893.687	0.0160944
893.765	0.0161343
893.843	0.0159779
893.921	0.0160934
893.999	0.0161384
894.078	0.0161972
894.156	0.0160706
894.234	0.0161212
894.312	0.0160835
894.390	0.0160149
894.468	0.0159281
894.546	0.0159959
894.624	0.0160678
894.703	0.0161182
894.781	0.0161665
894.859	0.0161538
894.937	0.0160609
895.015	0.0159850
895.093	0.0160014
895.171	0.0159843
895.249	0.0160725
895.328	0.0159930
895.406	0.0160565
895.484	0.0160638
895.562	0.0161147
895.640	0.0158239
895.718	0.0161620
895.796	0.0160477
895.874	0.0160539
895.953	0.0159741
896.031	0.0161256
896.109	0.0160104
896.187	0.0159785
896.265	0.0161015
896.343	0.0161214
896.421	0.0161522
896.499	0.0159953
896.578	0.0160045
896.656	0.0160924
896.734	0.0160711
896.812	0.0160491
896.890	0.0160184
896.968	0.0159544
897.046	0.0160132
897.124	0.0159305
897.203	0.0159331
897.281	0.0159269
897.359	0.0160245
897.437	0.0159718
897.515	0.0158840
897.593	0.0157339
897.671	0.0159146
897.749	0.0159589
897.828	0.0158569
897.906	0.0159585
897.984	0.0159401
898.062	0.0159982
898.140	0.0157043
898.218	0.0158767
898.296	0.0158099
898.374	0.0159464
898.453	0.0157753
898.531	0.0159538
898.609	0.0159335
898.687	0.0158613
898.765	0.0158601
898.843	0.0157987
898.921	0.0157260
898.999	0.0157922
899.078	0.0158547
899.156	0.0157134
899.234	0.0158511
899.312	0.0158670
899.390	0.0159370
899.468	0.0159442
899.546	0.0158461
899.624	0.0160753
899.703	0.0159522
899.781	0.0159589
899.859	0.0159634
899.937	0.0158566
900.015	0.0160816
900.093	0.0160641
900.171	0.0159858
900.249	0.0159932
900.328	0.0159866
900.406	0.0159966
900.484	0.0159473
900.562	0.0161190
900.640	0.0159715
900.718	0.0159789
900.796	0.0162298
900.874	0.0159728
900.953	0.0160613
901.031	0.0160308
901.109	0.0161216
901.187	0.0159400
901.265	0.0160510
901.343	0.0160654
901.421	0.0160430
901.499	0.0160500
901.578	0.0160510
901.656	0.0160756
901.734	0.0159558
901.812	0.0160012
901.890	0.0160809
901.968	0.0159027
902.046	0.0158929
902.124	0.0159142
902.203	0.0160085
902.281	0.0158453
902.359	0.0158670
902.437	0.0159775
902.515	0.0160046
902.593	0.0159425
902.671	0.0160615
902.749	0.0159765
902.828	0.0158513
902.906	0.0160732
902.984	0.0160182
903.062	0.0159791
903.140	0.0160336
903.218	0.0159778
903.296	0.0158722
903.374	0.0159929
903.453	0.0159592
903.531	0.0159290
903.609	0.0158944
903.687	0.0158912
903.765	0.0159233
903.843	0.0159055
903.921	0.0157430
903.999	0.0158493
904.078	0.0158484
904.156	0.0158237
904.234	0.0159321
904.312	0.0159442
904.390	0.0158795
904.468	0.0159090
904.546	0.0159613
904.624	0.0158521
904.703	0.0159631
904.781	0.0160388
904.859	0.0158273
904.937	0.0158801
905.015	0.0159808
905.093	0.0160595
905.171	0.0161382
905.249	0.0160250
905.328	0.0160823
905.406	0.0160133
905.484	0.0161040
905.562	0.0159672
905.640	0.0159615
905.718	0.0160661
905.796	0.0160688
905.874	0.0160216
905.953	0.0159557
906.031	0.0159635
906.109	0.0162159
906.187	0.0161481
906.265	0.0160021
906.343	0.0159459
906.421	0.0160107
906.499	0.0159738
906.578	0.0159836
906.656	0.0160561
906.734	0.0160123
906.812	0.0159313
906.890	0.0159598
906.968	0.0159966
907.046	0.0159042
907.124	0.0158437
907.203	0.0159550
907.281	0.0159344
907.359	0.0160932
907.437	0.0160826
907.515	0.0159145
907.593	0.0159729
907.671	0.0159514
907.749	0.0158418
907.828	0.0159245
907.906	0.0160639
907.984	0.0159595
908.062	0.0160447
908.140	0.0161494
908.218	0.0161457
908.296	0.0161508
908.374	0.0160153
908.453	0.0160916
908.531	0.0161470
908.609	0.0159966
908.687	0.0161092
908.765	0.0161440
908.843	0.0161533
908.921	0.0160504
908.999	0.0160991
909.078	0.0160870
909.156	0.0160631
909.234	0.0160901
909.312	0.0161042
909.390	0.0161191
909.468	0.0159830
909.546	0.0160941
909.624	0.0160999
909.703	0.0160408
909.781	0.0160619
909.859	0.0160229
909.937	0.0161072
910.015	0.0159016
910.093	0.0160252
910.171	0.0159959
910.249	0.0160997
910.328	0.0160139
910.406	0.0158895
910.484	0.0159222
910.562	0.0159497
910.640	0.0160421
910.718	0.0159933
910.796	0.0160152
910.874	0.0159940
910.953	0.0160401
911.031	0.0159766
911.109	0.0159898
911.187	0.0160647
911.265	0.0161734
911.343	0.0160432
911.421	0.0160112
911.499	0.0160111
911.578	0.0160349
911.656	0.0160287
911.734	0.0160699
911.812	0.0160632
911.890	0.0160234
911.968	0.0160815
912.046	0.0161023
912.124	0.0160881
912.203	0.0160757
912.281	0.0160175
912.359	0.0159406
912.437	0.0161547
912.515	0.0159760
912.593	0.0160364
912.671	0.0160434
912.749	0.0159651
912.828	0.0161678
912.906	0.0160576
912.984	0.0160308
913.062	0.0160072
913.140	0.0159584
913.218	0.0159713
913.296	0.0159564
913.374	0.0159450
913.453	0.0160173
913.531	0.0159692
913.609	0.0160048
913.687	0.0159300
913.765	0.0160487
913.843	0.0160943
913.921	0.0158946
913.999	0.0158944
914.078	0.0160574
914.156	0.0162133
914.234	0.0160973
914.312	0.0160216
914.390	0.0161900
914.468	0.0161396
914.546	0.0161554
914.624	0.0160875
914.703	0.0160212
914.781	0.0161664
914.859	0.0160783
914.937	0.0159721
915.015	0.0160257
915.093	0.0160836
915.171	0.0161610
915.249	0.0161481
915.328	0.0160622
915.406	0.0159734
915.484	0.0159648
915.562	0.0160960
915.640	0.0159560
915.718	0.0160116
915.796	0.0159497
915.874	0.0159261
915.953	0.0159235
916.031	0.0159739
916.109	0.0160390
916.187	0.0158600
916.265	0.0158887
916.343	0.0158627
916.421	0.0159008
916.499	0.0159629
916.578	0.0159400
916.656	0.0159000
916.734	0.0160145
916.812	0.0160274
916.890	0.0159792
916.968	0.0160189
917.046	0.0159731
917.124	0.0160206
917.203	0.0161979
917.281	0.0159801
917.359	0.0160150
917.437	0.0160667
917.515	0.0161089
917.593	0.0160705
917.671	0.0160979
917.749	0.0160234
917.828	0.0159631
917.906	0.0159510
917.984	0.0159452
918.062	0.0160432
918.140	0.0160986
918.218	0.0161179
918.296	0.0160069
918.374	0.0159541
918.453	0.0159122
918.531	0.0159978
918.609	0.0159419
918.687	0.0159435
918.765	0.0158681
918.843	0.0158232
918.921	0.0159190
918.999	0.0158472
919.078	0.0158868
919.156	0.0157607
919.234	0.0157880
919.312	0.0158171
919.390	0.0157993
919.468	0.0159441
919.546	0.0159761
919.624	0.0159612
919.703	0.0159332
919.781	0.0160706
919.859	0.0162077
919.937	0.0160870
