06/10/2022	18:27:04	Ver.	4.1	UNKNOWN
Optical Delay	600.015094	Delta X		0.078125	Sweeps	1	Scan Rate	0/0
Coordinates	Axis 1	NaN	Axis 2	NaN	Axis 3	NaN	Axis 4	NaN	Axis 5	NaN	Axis 6	0.000000
TX Power	0.000000	RX Power	0.000000

600.015	0.0157950
600.093	0.0158092
600.171	0.0156832
600.249	0.0157479
600.328	0.0157204
600.406	0.0157540
600.484	0.0156302
600.562	0.0156586
600.640	0.0157735
600.718	0.0158677
600.796	0.0159054
600.874	0.0157230
600.953	0.0156484
601.031	0.0157176
601.109	0.0156095
601.187	0.0157032
601.265	0.0158766
601.343	0.0158147
601.421	0.0157861
601.499	0.0156316
601.578	0.0158187
601.656	0.0157249
601.734	0.0157514
601.812	0.0158432
601.890	0.0157132
601.968	0.0156949
602.046	0.0157183
602.124	0.0157731
602.203	0.0159499
602.281	0.0157706
602.359	0.0158514
602.437	0.0157861
602.515	0.0157134
602.593	0.0156639
602.671	0.0157499
602.749	0.0158451
602.828	0.0157951
602.906	0.0157175
602.984	0.0157729
603.062	0.0156681
603.140	0.0157314
603.218	0.0156937
603.296	0.0158097
603.374	0.0157408
603.453	0.0157339
603.531	0.0157513
603.609	0.0158965
603.687	0.0157635
603.765	0.0158601
603.843	0.0157304
603.921	0.0158274
603.999	0.0159212
604.078	0.0157024
604.156	0.0157741
604.234	0.0157804
604.312	0.0158705
604.390	0.0157996
604.468	0.0159313
604.546	0.0157297
604.624	0.0158530
604.703	0.0157236
604.781	0.0157714
604.859	0.0158344
604.937	0.0158335
605.015	0.0156983
605.093	0.0157911
605.171	0.0157671
605.249	0.0156907
605.328	0.0158109
605.406	0.0158453
605.484	0.0157426
605.562	0.0158582
605.640	0.0158808
605.718	0.0156610
605.796	0.0159155
605.874	0.0158010
605.953	0.0157887
606.031	0.0157381
606.109	0.0158255
606.187	0.0157977
606.265	0.0157976
606.343	0.0157512
606.421	0.0157658
606.499	0.0157114
606.578	0.0158310
606.656	0.0158096
606.734	0.0157432
606.812	0.0157739
606.890	0.0157504
606.968	0.0157597
607.046	0.0157993
607.124	0.0158049
607.203	0.0157758
607.281	0.0158121
607.359	0.0157742
607.437	0.0157452
607.515	0.0157867
607.593	0.0158288
607.671	0.0157433
607.749	0.0156972
607.828	0.0157336
607.906	0.0158569
607.984	0.0158476
608.062	0.0157570
608.140	0.0157657
608.218	0.0157796
608.296	0.0157097
608.374	0.0158699
608.453	0.0158640
608.531	0.0157485
608.609	0.0156303
608.687	0.0157415
608.765	0.0157027
608.843	0.0157051
608.921	0.0157615
608.999	0.0155869
609.078	0.0156081
609.156	0.0158199
609.234	0.0157317
609.312	0.0158258
609.390	0.0157964
609.468	0.0157071
609.546	0.0157763
609.624	0.0157601
609.703	0.0157355
609.781	0.0157062
609.859	0.0157117
609.937	0.0157364
610.015	0.0156157
610.093	0.0156528
610.171	0.0157184
610.249	0.0156885
610.328	0.0157244
610.406	0.0156601
610.484	0.0157699
610.562	0.0155873
610.640	0.0156628
610.718	0.0157146
610.796	0.0157906
610.874	0.0157236
610.953	0.0158253
611.031	0.0157442
611.109	0.0156680
611.187	0.0158756
611.265	0.0157687
611.343	0.0158006
611.421	0.0157796
611.499	0.0157169
611.578	0.0157814
611.656	0.0155621
611.734	0.0158789
611.812	0.0158199
611.890	0.0158379
611.968	0.0157325
612.046	0.0157289
612.124	0.0157332
612.203	0.0157762
612.281	0.0158546
612.359	0.0157322
612.437	0.0157149
612.515	0.0157413
612.593	0.0157136
612.671	0.0157222
612.749	0.0158026
612.828	0.0157283
612.906	0.0156924
612.984	0.0156033
613.062	0.0158675
613.140	0.0157973
613.218	0.0158057
613.296	0.0157890
613.374	0.0156124
613.453	0.0156956
613.531	0.0157371
613.609	0.0158120
613.687	0.0158129
613.765	0.0157139
613.843	0.0157513
613.921	0.0157000
613.999	0.0157260
614.078	0.0156784
614.156	0.0157040
614.234	0.0158502
614.312	0.0157447
614.390	0.0157237
614.468	0.0157874
614.546	0.0157870
614.624	0.0158429
614.703	0.0158051
614.781	0.0156907
614.859	0.0156525
614.937	0.0157561
615.015	0.0158721
615.093	0.0158640
615.171	0.0157504
615.249	0.0158758
615.328	0.0155993
615.406	0.0157730
615.484	0.0159003
615.562	0.0158491
615.640	0.0157290
615.718	0.0157378
615.796	0.0157798
615.874	0.0158186
615.953	0.0157996
616.031	0.0157951
616.109	0.0157495
616.187	0.0157449
616.265	0.0158816
616.343	0.0158578
616.421	0.0158156
616.499	0.0157658
616.578	0.0157565
616.656	0.0157693
616.734	0.0156964
616.812	0.0156622
616.890	0.0158148
616.968	0.0157786
617.046	0.0156882
617.124	0.0156740
617.203	0.0157403
617.281	0.0157905
617.359	0.0157130
617.437	0.0157513
617.515	0.0157898
617.593	0.0156335
617.671	0.0157212
617.749	0.0156622
617.828	0.0157382
617.906	0.0157401
617.984	0.0158092
618.062	0.0157619
618.140	0.0158006
618.218	0.0156931
618.296	0.0156679
618.374	0.0157787
618.453	0.0156814
618.531	0.0157469
618.609	0.0156512
618.687	0.0157423
618.765	0.0157263
618.843	0.0157938
618.921	0.0158268
618.999	0.0157424
619.078	0.0158564
619.156	0.0156964
619.234	0.0157626
619.312	0.0156993
619.390	0.0156861
619.468	0.0157388
619.546	0.0158040
619.624	0.0157494
619.703	0.0157756
619.781	0.0157142
619.859	0.0157484
619.937	0.0157142
620.015	0.0157714
620.093	0.0159900
620.171	0.0158383
620.249	0.0157713
620.328	0.0158134
620.406	0.0158348
620.484	0.0157067
620.562	0.0158349
620.640	0.0156099
620.718	0.0156511
620.796	0.0157261
620.874	0.0157388
620.953	0.0156988
621.031	0.0156638
621.109	0.0156931
621.187	0.0158255
621.265	0.0155878
621.343	0.0158833
621.421	0.0158144
621.499	0.0157839
621.578	0.0158228
621.656	0.0157224
621.734	0.0158373
621.812	0.0158874
621.890	0.0158696
621.968	0.0159014
622.046	0.0158034
622.124	0.0157326
622.203	0.0157691
622.281	0.0158492
622.359	0.0157018
622.437	0.0158078
622.515	0.0157920
622.593	0.0157097
622.671	0.0158225
622.749	0.0157561
622.828	0.0158015
622.906	0.0157539
622.984	0.0157745
623.062	0.0156139
623.140	0.0157322
623.218	0.0158447
623.296	0.0159818
623.374	0.0157536
623.453	0.0157192
623.531	0.0158591
623.609	0.0157912
623.687	0.0158327
623.765	0.0157452
623.843	0.0158448
623.921	0.0159513
623.999	0.0157674
624.078	0.0157459
624.156	0.0155938
624.234	0.0156575
624.312	0.0157905
624.390	0.0158716
624.468	0.0156837
624.546	0.0157604
624.624	0.0159048
624.703	0.0157434
624.781	0.0156947
624.859	0.0158041
624.937	0.0157155
625.015	0.0156688
625.093	0.0157798
625.171	0.0158618
625.249	0.0157922
625.328	0.0158167
625.406	0.0158082
625.484	0.0157392
625.562	0.0157806
625.640	0.0157468
625.718	0.0156540
625.796	0.0157541
625.874	0.0157929
625.953	0.0158064
626.031	0.0157990
626.109	0.0156998
626.187	0.0158689
626.265	0.0157018
626.343	0.0157195
626.421	0.0157861
626.499	0.0157224
626.578	0.0158216
626.656	0.0156987
626.734	0.0158746
626.812	0.0157291
626.890	0.0158708
626.968	0.0156791
627.046	0.0157873
627.124	0.0158507
627.203	0.0158268
627.281	0.0157796
627.359	0.0156158
627.437	0.0158044
627.515	0.0158163
627.593	0.0157854
627.671	0.0156995
627.749	0.0157551
627.828	0.0157092
627.906	0.0158601
627.984	0.0157526
628.062	0.0157539
628.140	0.0157198
628.218	0.0158595
628.296	0.0157307
628.374	0.0157359
628.453	0.0156203
628.531	0.0157838
628.609	0.0157455
628.687	0.0157249
628.765	0.0159390
628.843	0.0156033
628.921	0.0158005
628.999	0.0157999
629.078	0.0158447
629.156	0.0156649
629.234	0.0157574
629.312	0.0158227
629.390	0.0159136
629.468	0.0157591
629.546	0.0158489
629.624	0.0157001
629.703	0.0157690
629.781	0.0156885
629.859	0.0158099
629.937	0.0157069
630.015	0.0157522
630.093	0.0157310
630.171	0.0156907
630.249	0.0157684
630.328	0.0158139
630.406	0.0158223
630.484	0.0157873
630.562	0.0156632
630.640	0.0157870
630.718	0.0159386
630.796	0.0156934
630.874	0.0157930
630.953	0.0158855
631.031	0.0157951
631.109	0.0157020
631.187	0.0157301
631.265	0.0157520
631.343	0.0158339
631.421	0.0158808
631.499	0.0156654
631.578	0.0155823
631.656	0.0157795
631.734	0.0158710
631.812	0.0157888
631.890	0.0157792
631.968	0.0158103
632.046	0.0157140
632.124	0.0156899
632.203	0.0157131
632.281	0.0156129
632.359	0.0157653
632.437	0.0158481
632.515	0.0157361
632.593	0.0158324
632.671	0.0159154
632.749	0.0158138
632.828	0.0157327
632.906	0.0158891
632.984	0.0156151
633.062	0.0157849
633.140	0.0158070
633.218	0.0158579
633.296	0.0159074
633.374	0.0157402
633.453	0.0157664
633.531	0.0158723
633.609	0.0158470
633.687	0.0157508
633.765	0.0158627
633.843	0.0156002
633.921	0.0157011
633.999	0.0158593
634.078	0.0158576
634.156	0.0157961
634.234	0.0158762
634.312	0.0157654
634.390	0.0157944
634.468	0.0158747
634.546	0.0157558
634.624	0.0157805
634.703	0.0157740
634.781	0.0158112
634.859	0.0158356
634.937	0.0157876
635.015	0.0158030
635.093	0.0156741
635.171	0.0158292
635.249	0.0158419
635.328	0.0157874
635.406	0.0158073
635.484	0.0157474
635.562	0.0157034
635.640	0.0157636
635.718	0.0158244
635.796	0.0157766
635.874	0.0157211
635.953	0.0158010
636.031	0.0158688
636.109	0.0157072
636.187	0.0156357
636.265	0.0157467
636.343	0.0156120
636.421	0.0157196
636.499	0.0158081
636.578	0.0158360
636.656	0.0157580
636.734	0.0157709
636.812	0.0156511
636.890	0.0157903
636.968	0.0158958
637.046	0.0159524
637.124	0.0157775
637.203	0.0158689
637.281	0.0158238
637.359	0.0157256
637.437	0.0156889
637.515	0.0157242
637.593	0.0157191
637.671	0.0157627
637.749	0.0158321
637.828	0.0158199
637.906	0.0158229
637.984	0.0157877
638.062	0.0158537
638.140	0.0158904
638.218	0.0157507
638.296	0.0157969
638.374	0.0158380
638.453	0.0158312
638.531	0.0157304
638.609	0.0157409
638.687	0.0158095
638.765	0.0157404
638.843	0.0157531
638.921	0.0157357
638.999	0.0157368
639.078	0.0157464
639.156	0.0157529
639.234	0.0157483
639.312	0.0157146
639.390	0.0157382
639.468	0.0157726
639.546	0.0157523
639.624	0.0157472
639.703	0.0158128
639.781	0.0158253
639.859	0.0158055
639.937	0.0157933
640.015	0.0157678
640.093	0.0158779
640.171	0.0158217
640.249	0.0158286
640.328	0.0156795
640.406	0.0156716
640.484	0.0157961
640.562	0.0158350
640.640	0.0156853
640.718	0.0157514
640.796	0.0158331
640.874	0.0159470
640.953	0.0158834
641.031	0.0156422
641.109	0.0157719
641.187	0.0157906
641.265	0.0157795
641.343	0.0157458
641.421	0.0157545
641.499	0.0156839
641.578	0.0157014
641.656	0.0157864
641.734	0.0158352
641.812	0.0157631
641.890	0.0156765
641.968	0.0158462
642.046	0.0157920
642.124	0.0158342
642.203	0.0158122
642.281	0.0157549
642.359	0.0158620
642.437	0.0158208
642.515	0.0157784
642.593	0.0157749
642.671	0.0159106
642.749	0.0157243
642.828	0.0157885
642.906	0.0157311
642.984	0.0157932
643.062	0.0157374
643.140	0.0157338
643.218	0.0156879
643.296	0.0157513
643.374	0.0157995
643.453	0.0157961
643.531	0.0157790
643.609	0.0159829
643.687	0.0157787
643.765	0.0157870
643.843	0.0157130
643.921	0.0158633
643.999	0.0157867
644.078	0.0158049
644.156	0.0157623
644.234	0.0157511
644.312	0.0157957
644.390	0.0158412
644.468	0.0156796
644.546	0.0156763
644.624	0.0157032
644.703	0.0156557
644.781	0.0158876
644.859	0.0158379
644.937	0.0157420
645.015	0.0157240
645.093	0.0156441
645.171	0.0156494
645.249	0.0158295
645.328	0.0157675
645.406	0.0158723
645.484	0.0158095
645.562	0.0156815
645.640	0.0157523
645.718	0.0158252
645.796	0.0157262
645.874	0.0157246
645.953	0.0157378
646.031	0.0158728
646.109	0.0157481
646.187	0.0156350
646.265	0.0157463
646.343	0.0158619
646.421	0.0157038
646.499	0.0157606
646.578	0.0157227
646.656	0.0157529
646.734	0.0156773
646.812	0.0158161
646.890	0.0157669
646.968	0.0156290
647.046	0.0158575
647.124	0.0158710
647.203	0.0157129
647.281	0.0157765
647.359	0.0158506
647.437	0.0158035
647.515	0.0157201
647.593	0.0157698
647.671	0.0157212
647.749	0.0158140
647.828	0.0156837
647.906	0.0157751
647.984	0.0158469
648.062	0.0157906
648.140	0.0158313
648.218	0.0158891
648.296	0.0158325
648.374	0.0157635
648.453	0.0158392
648.531	0.0158794
648.609	0.0158054
648.687	0.0158096
648.765	0.0157659
648.843	0.0157833
648.921	0.0156705
648.999	0.0158061
649.078	0.0157693
649.156	0.0158168
649.234	0.0158905
649.312	0.0158339
649.390	0.0158363
649.468	0.0157715
649.546	0.0158697
649.624	0.0157076
649.703	0.0157845
649.781	0.0157272
649.859	0.0157400
649.937	0.0157620
650.015	0.0158237
650.093	0.0157780
650.171	0.0158167
650.249	0.0158543
650.328	0.0158241
650.406	0.0156654
650.484	0.0158104
650.562	0.0158595
650.640	0.0158411
650.718	0.0158997
650.796	0.0159019
650.874	0.0157699
650.953	0.0157883
651.031	0.0158847
651.109	0.0158181
651.187	0.0157394
651.265	0.0158554
651.343	0.0157320
651.421	0.0157954
651.499	0.0158089
651.578	0.0155643
651.656	0.0157349
651.734	0.0158227
651.812	0.0159175
651.890	0.0158041
651.968	0.0157185
652.046	0.0157696
652.124	0.0157447
652.203	0.0158255
652.281	0.0157926
652.359	0.0159052
652.437	0.0157408
652.515	0.0158852
652.593	0.0157207
652.671	0.0157499
652.749	0.0158097
652.828	0.0158110
652.906	0.0157693
652.984	0.0158438
653.062	0.0160105
653.140	0.0157813
653.218	0.0157294
653.296	0.0157574
653.374	0.0157525
653.453	0.0158025
653.531	0.0158899
653.609	0.0158022
653.687	0.0157283
653.765	0.0157705
653.843	0.0157130
653.921	0.0157060
653.999	0.0157894
654.078	0.0158298
654.156	0.0156567
654.234	0.0157185
654.312	0.0159454
654.390	0.0157893
654.468	0.0157637
654.546	0.0156944
654.624	0.0156601
654.703	0.0158317
654.781	0.0157558
654.859	0.0158140
654.937	0.0157409
655.015	0.0156528
655.093	0.0158356
655.171	0.0158356
655.249	0.0157755
655.328	0.0157399
655.406	0.0156940
655.484	0.0158635
655.562	0.0157148
655.640	0.0158170
655.718	0.0158396
655.796	0.0158356
655.874	0.0158363
655.953	0.0157056
656.031	0.0158137
656.109	0.0157261
656.187	0.0155900
656.265	0.0158100
656.343	0.0157608
656.421	0.0158324
656.499	0.0157724
656.578	0.0156758
656.656	0.0157068
656.734	0.0158720
656.812	0.0157256
656.890	0.0157281
656.968	0.0158376
657.046	0.0157432
657.124	0.0157816
657.203	0.0157099
657.281	0.0158035
657.359	0.0158658
657.437	0.0158154
657.515	0.0156975
657.593	0.0159295
657.671	0.0158938
657.749	0.0157719
657.828	0.0157274
657.906	0.0157838
657.984	0.0157764
658.062	0.0157568
658.140	0.0158627
658.218	0.0158232
658.296	0.0156302
658.374	0.0156154
658.453	0.0158502
658.531	0.0159024
658.609	0.0157829
658.687	0.0156493
658.765	0.0158183
658.843	0.0157600
658.921	0.0156559
658.999	0.0157616
659.078	0.0158333
659.156	0.0157341
659.234	0.0157415
659.312	0.0157716
659.390	0.0157543
659.468	0.0156942
659.546	0.0157929
659.624	0.0157355
659.703	0.0158116
659.781	0.0157029
659.859	0.0157906
659.937	0.0158359
660.015	0.0157736
660.093	0.0157481
660.171	0.0157088
660.249	0.0156522
660.328	0.0157631
660.406	0.0157825
660.484	0.0156224
660.562	0.0157053
660.640	0.0156671
660.718	0.0157541
660.796	0.0158239
660.874	0.0157961
660.953	0.0158496
661.031	0.0156493
661.109	0.0156617
661.187	0.0157122
661.265	0.0159270
661.343	0.0159839
661.421	0.0158750
661.499	0.0156906
661.578	0.0157165
661.656	0.0156795
661.734	0.0156761
661.812	0.0159066
661.890	0.0158260
661.968	0.0157366
662.046	0.0157014
662.124	0.0157468
662.203	0.0157433
662.281	0.0157584
662.359	0.0157272
662.437	0.0157307
662.515	0.0156972
662.593	0.0158204
662.671	0.0158102
662.749	0.0158004
662.828	0.0157363
662.906	0.0157499
662.984	0.0157183
663.062	0.0157101
663.140	0.0158366
663.218	0.0158501
663.296	0.0157672
663.374	0.0157877
663.453	0.0158009
663.531	0.0157222
663.609	0.0158298
663.687	0.0157962
663.765	0.0157024
663.843	0.0159297
663.921	0.0158380
663.999	0.0158179
664.078	0.0157828
664.156	0.0157395
664.234	0.0156853
664.312	0.0157688
664.390	0.0157372
664.468	0.0156995
664.546	0.0158893
664.624	0.0158090
664.703	0.0156903
664.781	0.0157985
664.859	0.0157583
664.937	0.0157822
665.015	0.0157584
665.093	0.0158752
665.171	0.0157571
665.249	0.0157979
665.328	0.0156469
665.406	0.0157170
665.484	0.0157926
665.562	0.0157968
665.640	0.0157833
665.718	0.0158762
665.796	0.0157982
665.874	0.0157343
665.953	0.0158042
666.031	0.0158006
666.109	0.0158698
666.187	0.0157178
666.265	0.0157648
666.343	0.0158184
666.421	0.0158064
666.499	0.0158742
666.578	0.0156442
666.656	0.0157745
666.734	0.0157977
666.812	0.0157245
666.890	0.0158163
666.968	0.0156979
667.046	0.0156969
667.124	0.0157997
667.203	0.0156309
667.281	0.0158357
667.359	0.0158720
667.437	0.0158562
667.515	0.0156894
667.593	0.0158290
667.671	0.0156816
667.749	0.0157382
667.828	0.0158572
667.906	0.0158223
667.984	0.0157288
668.062	0.0156905
668.140	0.0157956
668.218	0.0157134
668.296	0.0157188
668.374	0.0158712
668.453	0.0158240
668.531	0.0157940
668.609	0.0157162
668.687	0.0157445
668.765	0.0156988
668.843	0.0157437
668.921	0.0156367
668.999	0.0157922
669.078	0.0157600
669.156	0.0156560
669.234	0.0158400
669.312	0.0158001
669.390	0.0155864
669.468	0.0155405
669.546	0.0157431
669.624	0.0156818
669.703	0.0156222
669.781	0.0158615
669.859	0.0157442
669.937	0.0158060
670.015	0.0156460
670.093	0.0157548
670.171	0.0157051
670.249	0.0156811
670.328	0.0157045
670.406	0.0157339
670.484	0.0157397
670.562	0.0156529
670.640	0.0157323
670.718	0.0158256
670.796	0.0157314
670.874	0.0157632
670.953	0.0157165
671.031	0.0156753
671.109	0.0156673
671.187	0.0157536
671.265	0.0157243
671.343	0.0157864
671.421	0.0157398
671.499	0.0157508
671.578	0.0158480
671.656	0.0158354
671.734	0.0156884
671.812	0.0156915
671.890	0.0159249
671.968	0.0157523
672.046	0.0157555
672.124	0.0157284
672.203	0.0158037
672.281	0.0158658
672.359	0.0157500
672.437	0.0157489
672.515	0.0157236
672.593	0.0157137
672.671	0.0158105
672.749	0.0158296
672.828	0.0158007
672.906	0.0156361
672.984	0.0156892
673.062	0.0158776
673.140	0.0157752
673.218	0.0157275
673.296	0.0158867
673.374	0.0157937
673.453	0.0156348
673.531	0.0157781
673.609	0.0156506
673.687	0.0156213
673.765	0.0156758
673.843	0.0157418
673.921	0.0158641
673.999	0.0156763
674.078	0.0158125
674.156	0.0156289
674.234	0.0158227
674.312	0.0156330
674.390	0.0157165
674.468	0.0157240
674.546	0.0157603
674.624	0.0157524
674.703	0.0158600
674.781	0.0156678
674.859	0.0156786
674.937	0.0157410
675.015	0.0157414
675.093	0.0157307
675.171	0.0157261
675.249	0.0158227
675.328	0.0157424
675.406	0.0157849
675.484	0.0157669
675.562	0.0157150
675.640	0.0156797
675.718	0.0157397
675.796	0.0157327
675.874	0.0158225
675.953	0.0158453
676.031	0.0156669
676.109	0.0157504
676.187	0.0157364
676.265	0.0158607
676.343	0.0157469
676.421	0.0157155
676.499	0.0157698
676.578	0.0157890
676.656	0.0157342
676.734	0.0158453
676.812	0.0158224
676.890	0.0156966
676.968	0.0159206
677.046	0.0157145
677.124	0.0157233
677.203	0.0157420
677.281	0.0157851
677.359	0.0158186
677.437	0.0156783
677.515	0.0158130
677.593	0.0157555
677.671	0.0156891
677.749	0.0158189
677.828	0.0158336
677.906	0.0156181
677.984	0.0156494
678.062	0.0157944
678.140	0.0158824
678.218	0.0158082
678.296	0.0157631
678.374	0.0156656
678.453	0.0156847
678.531	0.0157778
678.609	0.0157656
678.687	0.0159283
678.765	0.0158375
678.843	0.0157320
678.921	0.0158781
678.999	0.0159026
679.078	0.0158292
679.156	0.0157227
679.234	0.0157796
679.312	0.0156826
679.390	0.0158863
679.468	0.0157670
679.546	0.0157700
679.624	0.0158994
679.703	0.0158144
679.781	0.0157706
679.859	0.0156905
679.937	0.0158427
680.015	0.0158558
680.093	0.0157291
680.171	0.0157649
680.249	0.0157589
680.328	0.0157734
680.406	0.0156790
680.484	0.0156840
680.562	0.0157403
680.640	0.0157584
680.718	0.0156715
680.796	0.0157764
680.874	0.0158284
680.953	0.0157928
681.031	0.0157074
681.109	0.0158750
681.187	0.0157587
681.265	0.0157414
681.343	0.0158606
681.421	0.0156990
681.499	0.0157921
681.578	0.0155960
681.656	0.0157531
681.734	0.0157069
681.812	0.0157793
681.890	0.0157438
681.968	0.0157819
682.046	0.0157313
682.124	0.0158154
682.203	0.0157761
682.281	0.0156540
682.359	0.0157326
682.437	0.0158038
682.515	0.0157046
682.593	0.0157250
682.671	0.0156993
682.749	0.0157840
682.828	0.0159161
682.906	0.0159392
682.984	0.0157143
683.062	0.0158418
683.140	0.0157318
683.218	0.0157888
683.296	0.0158282
683.374	0.0158821
683.453	0.0157623
683.531	0.0156721
683.609	0.0158686
683.687	0.0158249
683.765	0.0158170
683.843	0.0158118
683.921	0.0156824
683.999	0.0156657
684.078	0.0158426
684.156	0.0157156
684.234	0.0156383
684.312	0.0157069
684.390	0.0157977
684.468	0.0157346
684.546	0.0158302
684.624	0.0158199
684.703	0.0157048
684.781	0.0157632
684.859	0.0156538
684.937	0.0157136
685.015	0.0157853
685.093	0.0157372
685.171	0.0158479
685.249	0.0158106
685.328	0.0159921
685.406	0.0157056
685.484	0.0158388
685.562	0.0157644
685.640	0.0157832
685.718	0.0158232
685.796	0.0158833
685.874	0.0156333
685.953	0.0156875
686.031	0.0157954
686.109	0.0157690
686.187	0.0157348
686.265	0.0157676
686.343	0.0157862
686.421	0.0156853
686.499	0.0156344
686.578	0.0158157
686.656	0.0158389
686.734	0.0157587
686.812	0.0158082
686.890	0.0158446
686.968	0.0157340
687.046	0.0157903
687.124	0.0157403
687.203	0.0157545
687.281	0.0157680
687.359	0.0158128
687.437	0.0157484
687.515	0.0156995
687.593	0.0158443
687.671	0.0157655
687.749	0.0157420
687.828	0.0157719
687.906	0.0156312
687.984	0.0158373
688.062	0.0156506
688.140	0.0157629
688.218	0.0158008
688.296	0.0158119
688.374	0.0157284
688.453	0.0157258
688.531	0.0156418
688.609	0.0157792
688.687	0.0157677
688.765	0.0155732
688.843	0.0157834
688.921	0.0158713
688.999	0.0156937
689.078	0.0157433
689.156	0.0157126
689.234	0.0158707
689.312	0.0157563
689.390	0.0157380
689.468	0.0156705
689.546	0.0157202
689.624	0.0156389
689.703	0.0157833
689.781	0.0156516
689.859	0.0158416
689.937	0.0158627
690.015	0.0156949
690.093	0.0157569
690.171	0.0157787
690.249	0.0157826
690.328	0.0157605
690.406	0.0156258
690.484	0.0156525
690.562	0.0157801
690.640	0.0158440
690.718	0.0158173
690.796	0.0158607
690.874	0.0157642
690.953	0.0156915
691.031	0.0157284
691.109	0.0157233
691.187	0.0158801
691.265	0.0158675
691.343	0.0157700
691.421	0.0158123
691.499	0.0157660
691.578	0.0159025
691.656	0.0158046
691.734	0.0157337
691.812	0.0158851
691.890	0.0157772
691.968	0.0158327
692.046	0.0157439
692.124	0.0158318
692.203	0.0157076
692.281	0.0157280
692.359	0.0157127
692.437	0.0157242
692.515	0.0158912
692.593	0.0158910
692.671	0.0157220
692.749	0.0157458
692.828	0.0157475
692.906	0.0157185
692.984	0.0157664
693.062	0.0159343
693.140	0.0157735
693.218	0.0158833
693.296	0.0157258
693.374	0.0156049
693.453	0.0157269
693.531	0.0157386
693.609	0.0157959
693.687	0.0156847
693.765	0.0158242
693.843	0.0158137
693.921	0.0157782
693.999	0.0157008
694.078	0.0157479
694.156	0.0157661
694.234	0.0157018
694.312	0.0156896
694.390	0.0158154
694.468	0.0157656
694.546	0.0158047
694.624	0.0158434
694.703	0.0157789
694.781	0.0156838
694.859	0.0158287
694.937	0.0158329
695.015	0.0156798
695.093	0.0158850
695.171	0.0158653
695.249	0.0157433
695.328	0.0157705
695.406	0.0156561
695.484	0.0158701
695.562	0.0155701
695.640	0.0158044
695.718	0.0158090
695.796	0.0156989
695.874	0.0157053
695.953	0.0157863
696.031	0.0158199
696.109	0.0157486
696.187	0.0158279
696.265	0.0158474
696.343	0.0158084
696.421	0.0158376
696.499	0.0157571
696.578	0.0157323
696.656	0.0157710
696.734	0.0158704
696.812	0.0158160
696.890	0.0157541
696.968	0.0158544
697.046	0.0156625
697.124	0.0156281
697.203	0.0157031
697.281	0.0158238
697.359	0.0156553
697.437	0.0157717
697.515	0.0157998
697.593	0.0157623
697.671	0.0157557
697.749	0.0157177
697.828	0.0158362
697.906	0.0157784
697.984	0.0156155
698.062	0.0158427
698.140	0.0158808
698.218	0.0158406
698.296	0.0156913
698.374	0.0158732
698.453	0.0158379
698.531	0.0157060
698.609	0.0156402
698.687	0.0157619
698.765	0.0157999
698.843	0.0156491
698.921	0.0157408
698.999	0.0157687
699.078	0.0157250
699.156	0.0158497
699.234	0.0157658
699.312	0.0159112
699.390	0.0156332
699.468	0.0157126
699.546	0.0159093
699.624	0.0157701
699.703	0.0157482
699.781	0.0156377
699.859	0.0159358
699.937	0.0158015
700.015	0.0156689
700.093	0.0159116
700.171	0.0157101
700.249	0.0159205
700.328	0.0157747
700.406	0.0156532
700.484	0.0157735
700.562	0.0157827
700.640	0.0156104
700.718	0.0157619
700.796	0.0158187
700.874	0.0156760
700.953	0.0156867
701.031	0.0157935
701.109	0.0157569
701.187	0.0159373
701.265	0.0157370
701.343	0.0157383
701.421	0.0157819
701.499	0.0158059
701.578	0.0158170
701.656	0.0158302
701.734	0.0157565
701.812	0.0158270
701.890	0.0158256
701.968	0.0157045
702.046	0.0156264
702.124	0.0157795
702.203	0.0158277
702.281	0.0157492
702.359	0.0156506
702.437	0.0158150
702.515	0.0157494
702.593	0.0157741
702.671	0.0156911
702.749	0.0157291
702.828	0.0158577
702.906	0.0158573
702.984	0.0157056
703.062	0.0157790
703.140	0.0158240
703.218	0.0157262
703.296	0.0156915
703.374	0.0156707
703.453	0.0157078
703.531	0.0158005
703.609	0.0158200
703.687	0.0157638
703.765	0.0158060
703.843	0.0157703
703.921	0.0157601
703.999	0.0158849
704.078	0.0158759
704.156	0.0158874
704.234	0.0157813
704.312	0.0157610
704.390	0.0158463
704.468	0.0156598
704.546	0.0156738
704.624	0.0158054
704.703	0.0157955
704.781	0.0158034
704.859	0.0158042
704.937	0.0157375
705.015	0.0157401
705.093	0.0157651
705.171	0.0158878
705.249	0.0157852
705.328	0.0157701
705.406	0.0158041
705.484	0.0158530
705.562	0.0157765
705.640	0.0157806
705.718	0.0157556
705.796	0.0156813
705.874	0.0157140
705.953	0.0157536
706.031	0.0158289
706.109	0.0156686
706.187	0.0156138
706.265	0.0157575
706.343	0.0157915
706.421	0.0157947
706.499	0.0157641
706.578	0.0157825
706.656	0.0158069
706.734	0.0158926
706.812	0.0158288
706.890	0.0157533
706.968	0.0157642
707.046	0.0157867
707.124	0.0157523
707.203	0.0157106
707.281	0.0158622
707.359	0.0159609
707.437	0.0157281
707.515	0.0157768
707.593	0.0158036
707.671	0.0157347
707.749	0.0159398
707.828	0.0157806
707.906	0.0158298
707.984	0.0157500
708.062	0.0157518
708.140	0.0157283
708.218	0.0156450
708.296	0.0156926
708.374	0.0157816
708.453	0.0156360
708.531	0.0156121
708.609	0.0157169
708.687	0.0157603
708.765	0.0157941
708.843	0.0159088
708.921	0.0157619
708.999	0.0159007
709.078	0.0157565
709.156	0.0157515
709.234	0.0158446
709.312	0.0158070
709.390	0.0156475
709.468	0.0158279
709.546	0.0157310
709.624	0.0157047
709.703	0.0158025
709.781	0.0156758
709.859	0.0157211
709.937	0.0158945
710.015	0.0158456
710.093	0.0157619
710.171	0.0157379
710.249	0.0156581
710.328	0.0157401
710.406	0.0158654
710.484	0.0156346
710.562	0.0157044
710.640	0.0156911
710.718	0.0158853
710.796	0.0157648
710.874	0.0156517
710.953	0.0159093
711.031	0.0157929
711.109	0.0158047
711.187	0.0157500
711.265	0.0157258
711.343	0.0157429
711.421	0.0157884
711.499	0.0157911
711.578	0.0158010
711.656	0.0157948
711.734	0.0156723
711.812	0.0158406
711.890	0.0156149
711.968	0.0157650
712.046	0.0157055
712.124	0.0155912
712.203	0.0158353
712.281	0.0158192
712.359	0.0156965
712.437	0.0157110
712.515	0.0157417
712.593	0.0157145
712.671	0.0156912
712.749	0.0157491
712.828	0.0156863
712.906	0.0159106
712.984	0.0157850
713.062	0.0157014
713.140	0.0158273
713.218	0.0156844
713.296	0.0157538
713.374	0.0157385
713.453	0.0158429
713.531	0.0157885
713.609	0.0156202
713.687	0.0157534
713.765	0.0157928
713.843	0.0157224
713.921	0.0156907
713.999	0.0157488
714.078	0.0156924
714.156	0.0158639
714.234	0.0157137
714.312	0.0156505
714.390	0.0158257
714.468	0.0158418
714.546	0.0158095
714.624	0.0157512
714.703	0.0157836
714.781	0.0156370
714.859	0.0157375
714.937	0.0157610
715.015	0.0157171
715.093	0.0157886
715.171	0.0158093
715.249	0.0157562
715.328	0.0159209
715.406	0.0158022
715.484	0.0157195
715.562	0.0157182
715.640	0.0157497
715.718	0.0157644
715.796	0.0156473
715.874	0.0156922
715.953	0.0158255
716.031	0.0157787
716.109	0.0157485
716.187	0.0157989
716.265	0.0157693
716.343	0.0157851
716.421	0.0158025
716.499	0.0157086
716.578	0.0157506
716.656	0.0158302
716.734	0.0157731
716.812	0.0157294
716.890	0.0157240
716.968	0.0158189
717.046	0.0157768
717.124	0.0157676
717.203	0.0157583
717.281	0.0155636
717.359	0.0155956
717.437	0.0156622
717.515	0.0156342
717.593	0.0157629
717.671	0.0157098
717.749	0.0156778
717.828	0.0157463
717.906	0.0156409
717.984	0.0156285
718.062	0.0157490
718.140	0.0156763
718.218	0.0156586
718.296	0.0157367
718.374	0.0156323
718.453	0.0156931
718.531	0.0157830
718.609	0.0156036
718.687	0.0157306
718.765	0.0156654
718.843	0.0156541
718.921	0.0157156
718.999	0.0157137
719.078	0.0157695
719.156	0.0156651
719.234	0.0156381
719.312	0.0157239
719.390	0.0158012
719.468	0.0156676
719.546	0.0157234
719.624	0.0156508
719.703	0.0156030
719.781	0.0156634
719.859	0.0157507
719.937	0.0157504
720.015	0.0156786
720.093	0.0156726
720.171	0.0156075
720.249	0.0157340
720.328	0.0156209
720.406	0.0158372
720.484	0.0157253
720.562	0.0157119
720.640	0.0158834
720.718	0.0156534
720.796	0.0157303
720.874	0.0157641
720.953	0.0157133
721.031	0.0156917
721.109	0.0157778
721.187	0.0157451
721.265	0.0156468
721.343	0.0157053
721.421	0.0157435
721.499	0.0158427
721.578	0.0157835
721.656	0.0157314
721.734	0.0157516
721.812	0.0157083
721.890	0.0158366
721.968	0.0157864
722.046	0.0158340
722.124	0.0157308
722.203	0.0158030
722.281	0.0158430
722.359	0.0157925
722.437	0.0158495
722.515	0.0157384
722.593	0.0158467
722.671	0.0157391
722.749	0.0158396
722.828	0.0158292
722.906	0.0158178
722.984	0.0156860
723.062	0.0157822
723.140	0.0157837
723.218	0.0158052
723.296	0.0158457
723.374	0.0157900
723.453	0.0156786
723.531	0.0158305
723.609	0.0157874
723.687	0.0157964
723.765	0.0157634
723.843	0.0158545
723.921	0.0158935
723.999	0.0158634
724.078	0.0159312
724.156	0.0158009
724.234	0.0157912
724.312	0.0157904
724.390	0.0158305
724.468	0.0158629
724.546	0.0157405
724.624	0.0159217
724.703	0.0158279
724.781	0.0158994
724.859	0.0158183
724.937	0.0158712
725.015	0.0156991
725.093	0.0158131
725.171	0.0159185
725.249	0.0158290
725.328	0.0157961
725.406	0.0157164
725.484	0.0157762
725.562	0.0159483
725.640	0.0158776
725.718	0.0158691
725.796	0.0158382
725.874	0.0158007
725.953	0.0159546
726.031	0.0158243
726.109	0.0156503
726.187	0.0159344
726.265	0.0157574
726.343	0.0158158
726.421	0.0160248
726.499	0.0158585
726.578	0.0158813
726.656	0.0158315
726.734	0.0159448
726.812	0.0158817
726.890	0.0157793
726.968	0.0157745
727.046	0.0158048
727.124	0.0158291
727.203	0.0159147
727.281	0.0158912
727.359	0.0159177
727.437	0.0158820
727.515	0.0158304
727.593	0.0158533
727.671	0.0157584
727.749	0.0157732
727.828	0.0157936
727.906	0.0158212
727.984	0.0157659
728.062	0.0158589
728.140	0.0158325
728.218	0.0156452
728.296	0.0156917
728.374	0.0159064
728.453	0.0158409
728.531	0.0157148
728.609	0.0157767
728.687	0.0157843
728.765	0.0156932
728.843	0.0157793
728.921	0.0158719
728.999	0.0157701
729.078	0.0158801
729.156	0.0157870
729.234	0.0156073
729.312	0.0157094
729.390	0.0157396
729.468	0.0156522
729.546	0.0155900
729.624	0.0157384
729.703	0.0158839
729.781	0.0158321
729.859	0.0156790
729.937	0.0156624
730.015	0.0157265
730.093	0.0156786
730.171	0.0157902
730.249	0.0157104
730.328	0.0157573
730.406	0.0157840
730.484	0.0156980
730.562	0.0156882
730.640	0.0157508
730.718	0.0155305
730.796	0.0156557
730.874	0.0156816
730.953	0.0157478
731.031	0.0156669
731.109	0.0155827
731.187	0.0155872
731.265	0.0156480
731.343	0.0156747
731.421	0.0157055
731.499	0.0157268
731.578	0.0156232
731.656	0.0155008
731.734	0.0156208
731.812	0.0157504
731.890	0.0156978
731.968	0.0155849
732.046	0.0157047
732.124	0.0156966
732.203	0.0157005
732.281	0.0156998
732.359	0.0156657
732.437	0.0157819
732.515	0.0156717
732.593	0.0158656
732.671	0.0158694
732.749	0.0157676
732.828	0.0157195
732.906	0.0157325
732.984	0.0157155
733.062	0.0155805
733.140	0.0158763
733.218	0.0157824
733.296	0.0156435
733.374	0.0156742
733.453	0.0156711
733.531	0.0158041
733.609	0.0157276
733.687	0.0157630
733.765	0.0157122
733.843	0.0157513
733.921	0.0158823
733.999	0.0158417
734.078	0.0156403
734.156	0.0156750
734.234	0.0157399
734.312	0.0157155
734.390	0.0157111
734.468	0.0157397
734.546	0.0158214
734.624	0.0157525
734.703	0.0157283
734.781	0.0157656
734.859	0.0157669
734.937	0.0158154
735.015	0.0158401
735.093	0.0158011
735.171	0.0157098
735.249	0.0159012
735.328	0.0157339
735.406	0.0157158
735.484	0.0158167
735.562	0.0158076
735.640	0.0158951
735.718	0.0157732
735.796	0.0156689
735.874	0.0158348
735.953	0.0157935
736.031	0.0157698
736.109	0.0157668
736.187	0.0157729
736.265	0.0155885
736.343	0.0156955
736.421	0.0155807
736.499	0.0157806
736.578	0.0157905
736.656	0.0157227
736.734	0.0157375
736.812	0.0159457
736.890	0.0159888
736.968	0.0158421
737.046	0.0159222
737.124	0.0159232
737.203	0.0160427
737.281	0.0160156
737.359	0.0159196
737.437	0.0159274
737.515	0.0158716
737.593	0.0159593
737.671	0.0158338
737.749	0.0156014
737.828	0.0154045
737.906	0.0153915
737.984	0.0154727
738.062	0.0152724
738.140	0.0151417
738.218	0.0151530
738.296	0.0153708
738.374	0.0154116
738.453	0.0155965
738.531	0.0158825
738.609	0.0162400
738.687	0.0166266
738.765	0.0167532
738.843	0.0169119
738.921	0.0172610
738.999	0.0171762
739.078	0.0170518
739.156	0.0170046
739.234	0.0166526
739.312	0.0163145
739.390	0.0158268
739.468	0.0152425
739.546	0.0148614
739.624	0.0143016
739.703	0.0140600
739.781	0.0139231
739.859	0.0139227
739.937	0.0139110
740.015	0.0141872
740.093	0.0144724
740.171	0.0149826
740.249	0.0153841
740.328	0.0159918
740.406	0.0164085
740.484	0.0170123
740.562	0.0171291
740.640	0.0174538
740.718	0.0177859
740.796	0.0180188
740.874	0.0178725
740.953	0.0177557
741.031	0.0175539
741.109	0.0172463
741.187	0.0165933
741.265	0.0160275
741.343	0.0153229
741.421	0.0147861
741.499	0.0142906
741.578	0.0136551
741.656	0.0133044
741.734	0.0131182
741.812	0.0133203
741.890	0.0133163
741.968	0.0135041
742.046	0.0139587
742.124	0.0145705
742.203	0.0150650
742.281	0.0156313
742.359	0.0161149
742.437	0.0166698
742.515	0.0170683
742.593	0.0173359
742.671	0.0176418
742.749	0.0177245
742.828	0.0176859
742.906	0.0176814
742.984	0.0175500
743.062	0.0170958
743.140	0.0166404
743.218	0.0161940
743.296	0.0157084
743.374	0.0154546
743.453	0.0148832
743.531	0.0146136
743.609	0.0142072
743.687	0.0142248
743.765	0.0142452
743.843	0.0143497
743.921	0.0144366
743.999	0.0147308
744.078	0.0149457
744.156	0.0153648
744.234	0.0156760
744.312	0.0161763
744.390	0.0168443
744.468	0.0171503
744.546	0.0176414
744.624	0.0180717
744.703	0.0184835
744.781	0.0187136
744.859	0.0186313
744.937	0.0186063
745.015	0.0184930
745.093	0.0181502
745.171	0.0176632
745.249	0.0169270
745.328	0.0165013
745.406	0.0157069
745.484	0.0150481
745.562	0.0141468
745.640	0.0136304
745.718	0.0130113
745.796	0.0124475
745.874	0.0119284
745.953	0.0115313
746.031	0.0113683
746.109	0.0113298
746.187	0.0111132
746.265	0.0112966
746.343	0.0115276
746.421	0.0120275
746.499	0.0124895
746.578	0.0131167
746.656	0.0141405
746.734	0.0150072
746.812	0.0159650
746.890	0.0169373
746.968	0.0179256
747.046	0.0185775
747.124	0.0193879
747.203	0.0198853
747.281	0.0202576
747.359	0.0205755
747.437	0.0205315
747.515	0.0204491
747.593	0.0201818
747.671	0.0199535
747.749	0.0196056
747.828	0.0190543
747.906	0.0185604
747.984	0.0177700
748.062	0.0172155
748.140	0.0165776
748.218	0.0160480
748.296	0.0156210
748.374	0.0151971
748.453	0.0147629
748.531	0.0143850
748.609	0.0143503
748.687	0.0142761
748.765	0.0142104
748.843	0.0142305
748.921	0.0142412
748.999	0.0142218
749.078	0.0142303
749.156	0.0142781
749.234	0.0143525
749.312	0.0141447
749.390	0.0141515
749.468	0.0140376
749.546	0.0139534
749.624	0.0140969
749.703	0.0142124
749.781	0.0142196
749.859	0.0143282
749.937	0.0144353
750.015	0.0145811
750.093	0.0146616
750.171	0.0147413
750.249	0.0148885
750.328	0.0148958
750.406	0.0150954
750.484	0.0151415
750.562	0.0153085
750.640	0.0154327
750.718	0.0155575
750.796	0.0154321
750.874	0.0156153
750.953	0.0157484
751.031	0.0158311
751.109	0.0159811
751.187	0.0162302
751.265	0.0164018
751.343	0.0168292
751.421	0.0170082
751.499	0.0173600
751.578	0.0176290
751.656	0.0178107
751.734	0.0182236
751.812	0.0182699
751.890	0.0184080
751.968	0.0182690
752.046	0.0183085
752.124	0.0180396
752.203	0.0178210
752.281	0.0175801
752.359	0.0173322
752.437	0.0169211
752.515	0.0166264
752.593	0.0162539
752.671	0.0157820
752.749	0.0156330
752.828	0.0153003
752.906	0.0146603
752.984	0.0146503
753.062	0.0146750
753.140	0.0144753
753.218	0.0143613
753.296	0.0144752
753.374	0.0145503
753.453	0.0146302
753.531	0.0146139
753.609	0.0148920
753.687	0.0150540
753.765	0.0150457
753.843	0.0153222
753.921	0.0152388
753.999	0.0153607
754.078	0.0152977
754.156	0.0153348
754.234	0.0152583
754.312	0.0151747
754.390	0.0150768
754.468	0.0149920
754.546	0.0148000
754.624	0.0146764
754.703	0.0145728
754.781	0.0144439
754.859	0.0145322
754.937	0.0146101
755.015	0.0146496
755.093	0.0150228
755.171	0.0150124
755.249	0.0152169
755.328	0.0155380
755.406	0.0157759
755.484	0.0160899
755.562	0.0162741
755.640	0.0164684
755.718	0.0165164
755.796	0.0167725
755.874	0.0167587
755.953	0.0168382
756.031	0.0168719
756.109	0.0168755
756.187	0.0169421
756.265	0.0168335
756.343	0.0167120
756.421	0.0168069
756.499	0.0168326
756.578	0.0165675
756.656	0.0166057
756.734	0.0165376
756.812	0.0164513
756.890	0.0162168
756.968	0.0162119
757.046	0.0159856
757.124	0.0159323
757.203	0.0160149
757.281	0.0159531
757.359	0.0157795
757.437	0.0158002
757.515	0.0156997
757.593	0.0157094
757.671	0.0157403
757.749	0.0157755
757.828	0.0156180
757.906	0.0156976
757.984	0.0156514
758.062	0.0156647
758.140	0.0155504
758.218	0.0155165
758.296	0.0155369
758.374	0.0154742
758.453	0.0154172
758.531	0.0153556
758.609	0.0153794
758.687	0.0154807
758.765	0.0152654
758.843	0.0152450
758.921	0.0151085
758.999	0.0153205
759.078	0.0150042
759.156	0.0148770
759.234	0.0148869
759.312	0.0148339
759.390	0.0148048
759.468	0.0147305
759.546	0.0145889
759.624	0.0147348
759.703	0.0145954
759.781	0.0146958
759.859	0.0147726
759.937	0.0148107
760.015	0.0147331
760.093	0.0149235
760.171	0.0150639
760.249	0.0153627
760.328	0.0156818
760.406	0.0157042
760.484	0.0157948
760.562	0.0159322
760.640	0.0162511
760.718	0.0163702
760.796	0.0165897
760.874	0.0165573
760.953	0.0166042
761.031	0.0167258
761.109	0.0166064
761.187	0.0168448
761.265	0.0167130
761.343	0.0169163
761.421	0.0168578
761.499	0.0167577
761.578	0.0168634
761.656	0.0167917
761.734	0.0168739
761.812	0.0168170
761.890	0.0166140
761.968	0.0164854
762.046	0.0163996
762.124	0.0164363
762.203	0.0161245
762.281	0.0159336
762.359	0.0157802
762.437	0.0157694
762.515	0.0155263
762.593	0.0155794
762.671	0.0153287
762.749	0.0152861
762.828	0.0154104
762.906	0.0153967
762.984	0.0152670
763.062	0.0154713
763.140	0.0153426
763.218	0.0154397
763.296	0.0154279
763.374	0.0153558
763.453	0.0154113
763.531	0.0154111
763.609	0.0154748
763.687	0.0154333
763.765	0.0154536
763.843	0.0154857
763.921	0.0153934
763.999	0.0152261
764.078	0.0151521
764.156	0.0151970
764.234	0.0150766
764.312	0.0150021
764.390	0.0149575
764.468	0.0150764
764.546	0.0150188
764.624	0.0151125
764.703	0.0151218
764.781	0.0153387
764.859	0.0154425
764.937	0.0154282
765.015	0.0154736
765.093	0.0155789
765.171	0.0157037
765.249	0.0156686
765.328	0.0158418
765.406	0.0158279
765.484	0.0158461
765.562	0.0160277
765.640	0.0158897
765.718	0.0160091
765.796	0.0160443
765.874	0.0160838
765.953	0.0160108
766.031	0.0159849
766.109	0.0161004
766.187	0.0163085
766.265	0.0164755
766.343	0.0165215
766.421	0.0166312
766.499	0.0167662
766.578	0.0169016
766.656	0.0170390
766.734	0.0172558
766.812	0.0171223
766.890	0.0169742
766.968	0.0168521
767.046	0.0166953
767.124	0.0166248
767.203	0.0164381
767.281	0.0161661
767.359	0.0159573
767.437	0.0157148
767.515	0.0155753
767.593	0.0151865
767.671	0.0151032
767.749	0.0150087
767.828	0.0148834
767.906	0.0147980
767.984	0.0146668
768.062	0.0147062
768.140	0.0147695
768.218	0.0148923
768.296	0.0149285
768.374	0.0149605
768.453	0.0151916
768.531	0.0152425
768.609	0.0152016
768.687	0.0154323
768.765	0.0154105
768.843	0.0155103
768.921	0.0154601
768.999	0.0154396
769.078	0.0153626
769.156	0.0153495
769.234	0.0153289
769.312	0.0152491
769.390	0.0152621
769.468	0.0152608
769.546	0.0152466
769.624	0.0152579
769.703	0.0153401
769.781	0.0154314
769.859	0.0152910
769.937	0.0154287
770.015	0.0157214
770.093	0.0156840
770.171	0.0155982
770.249	0.0157508
770.328	0.0161068
770.406	0.0162160
770.484	0.0162439
770.562	0.0163303
770.640	0.0164002
770.718	0.0165501
770.796	0.0166575
770.874	0.0165562
770.953	0.0166174
771.031	0.0164877
771.109	0.0165440
771.187	0.0164474
771.265	0.0163361
771.343	0.0162671
771.421	0.0160977
771.499	0.0161847
771.578	0.0161133
771.656	0.0161017
771.734	0.0160207
771.812	0.0159996
771.890	0.0161030
771.968	0.0161800
772.046	0.0160673
772.124	0.0160138
772.203	0.0159954
772.281	0.0160843
772.359	0.0160454
772.437	0.0158674
772.515	0.0159045
772.593	0.0157564
772.671	0.0156139
772.749	0.0154397
772.828	0.0152825
772.906	0.0152396
772.984	0.0150230
773.062	0.0149912
773.140	0.0147814
773.218	0.0148122
773.296	0.0149901
773.374	0.0147775
773.453	0.0147918
773.531	0.0148665
773.609	0.0150328
773.687	0.0150700
773.765	0.0151505
773.843	0.0153323
773.921	0.0155515
773.999	0.0156531
774.078	0.0157275
774.156	0.0159145
774.234	0.0158260
774.312	0.0159562
774.390	0.0161852
774.468	0.0160766
774.546	0.0162668
774.624	0.0163863
774.703	0.0162856
774.781	0.0163509
774.859	0.0163338
774.937	0.0163293
775.015	0.0162732
775.093	0.0162512
775.171	0.0162878
775.249	0.0162517
775.328	0.0161850
775.406	0.0162030
775.484	0.0161645
775.562	0.0160501
775.640	0.0159400
775.718	0.0159853
775.796	0.0158363
775.874	0.0157899
775.953	0.0158428
776.031	0.0156268
776.109	0.0154511
776.187	0.0154893
776.265	0.0154457
776.343	0.0153063
776.421	0.0151573
776.499	0.0151513
776.578	0.0152409
776.656	0.0152224
776.734	0.0152836
776.812	0.0155991
776.890	0.0154292
776.968	0.0156432
777.046	0.0158121
777.124	0.0157425
777.203	0.0158608
777.281	0.0158911
777.359	0.0159484
777.437	0.0160095
777.515	0.0159992
777.593	0.0160561
777.671	0.0161667
777.749	0.0160353
777.828	0.0160756
777.906	0.0160799
777.984	0.0160742
778.062	0.0161930
778.140	0.0161845
778.218	0.0160060
778.296	0.0162391
778.374	0.0159861
778.453	0.0159865
778.531	0.0159628
778.609	0.0158481
778.687	0.0158432
778.765	0.0157470
778.843	0.0156086
778.921	0.0154888
778.999	0.0155633
779.078	0.0155205
779.156	0.0154749
779.234	0.0153497
779.312	0.0152357
779.390	0.0153133
779.468	0.0152169
779.546	0.0152094
779.624	0.0152418
779.703	0.0151377
779.781	0.0154385
779.859	0.0154578
779.937	0.0154256
780.015	0.0155610
780.093	0.0155715
780.171	0.0157487
780.249	0.0157687
780.328	0.0158492
780.406	0.0158153
780.484	0.0158910
780.562	0.0159663
780.640	0.0160812
780.718	0.0161130
780.796	0.0159335
780.874	0.0159908
780.953	0.0161184
781.031	0.0159743
781.109	0.0159904
781.187	0.0160735
781.265	0.0159756
781.343	0.0161047
781.421	0.0160893
781.499	0.0158942
781.578	0.0158842
781.656	0.0157542
781.734	0.0157915
781.812	0.0157767
781.890	0.0158149
781.968	0.0157114
782.046	0.0157253
782.124	0.0156496
782.203	0.0156829
782.281	0.0156506
782.359	0.0157470
782.437	0.0156577
782.515	0.0156761
782.593	0.0156974
782.671	0.0156763
782.749	0.0155558
782.828	0.0157571
782.906	0.0158195
782.984	0.0156699
783.062	0.0158183
783.140	0.0158686
783.218	0.0157364
783.296	0.0158423
783.374	0.0159408
783.453	0.0159790
783.531	0.0158744
783.609	0.0159462
783.687	0.0159058
783.765	0.0158112
783.843	0.0157308
783.921	0.0158270
783.999	0.0157859
784.078	0.0156222
784.156	0.0157444
784.234	0.0156249
784.312	0.0156435
784.390	0.0155994
784.468	0.0155178
784.546	0.0155025
784.624	0.0157195
784.703	0.0155546
784.781	0.0156805
784.859	0.0156553
784.937	0.0157800
785.015	0.0157807
785.093	0.0158561
785.171	0.0159357
785.249	0.0158703
785.328	0.0159331
785.406	0.0157830
785.484	0.0159019
785.562	0.0159454
785.640	0.0158711
785.718	0.0157971
785.796	0.0157790
785.874	0.0157717
785.953	0.0157391
786.031	0.0157661
786.109	0.0157502
786.187	0.0157404
786.265	0.0157616
786.343	0.0156182
786.421	0.0157428
786.499	0.0155911
786.578	0.0154289
786.656	0.0155927
786.734	0.0156620
786.812	0.0156761
786.890	0.0156898
786.968	0.0155513
787.046	0.0156443
787.124	0.0156602
787.203	0.0157349
787.281	0.0155934
787.359	0.0156712
787.437	0.0155529
787.515	0.0155755
787.593	0.0156631
787.671	0.0155564
787.749	0.0155679
787.828	0.0156362
787.906	0.0156387
787.984	0.0155251
788.062	0.0155148
788.140	0.0155814
788.218	0.0157257
788.296	0.0155990
788.374	0.0157603
788.453	0.0157648
788.531	0.0157342
788.609	0.0157111
788.687	0.0156785
788.765	0.0158458
788.843	0.0156539
788.921	0.0157568
788.999	0.0157436
789.078	0.0157818
789.156	0.0157800
789.234	0.0157745
789.312	0.0159261
789.390	0.0159022
789.468	0.0158528
789.546	0.0158930
789.624	0.0159348
789.703	0.0158912
789.781	0.0160429
789.859	0.0160876
789.937	0.0161028
790.015	0.0161502
790.093	0.0162123
790.171	0.0164201
790.249	0.0163835
790.328	0.0161977
790.406	0.0161581
790.484	0.0162552
790.562	0.0161343
790.640	0.0160435
790.718	0.0160657
790.796	0.0160344
790.874	0.0158471
790.953	0.0157847
791.031	0.0155225
791.109	0.0155685
791.187	0.0155865
791.265	0.0153232
791.343	0.0151717
791.421	0.0150732
791.499	0.0151630
791.578	0.0150777
791.656	0.0152264
791.734	0.0150957
791.812	0.0150210
791.890	0.0150569
791.968	0.0152489
792.046	0.0152041
792.124	0.0154147
792.203	0.0154956
792.281	0.0156039
792.359	0.0157387
792.437	0.0158458
792.515	0.0160036
792.593	0.0160378
792.671	0.0161541
792.749	0.0161478
792.828	0.0161701
792.906	0.0161740
792.984	0.0162391
793.062	0.0160743
793.140	0.0162495
793.218	0.0160307
793.296	0.0160111
793.374	0.0159715
793.453	0.0160348
793.531	0.0159278
793.609	0.0160252
793.687	0.0158617
793.765	0.0159415
793.843	0.0158736
793.921	0.0158408
793.999	0.0158278
794.078	0.0155874
794.156	0.0157013
794.234	0.0157404
794.312	0.0157139
794.390	0.0155927
794.468	0.0155119
794.546	0.0156512
794.624	0.0157165
794.703	0.0155370
794.781	0.0155947
794.859	0.0155765
794.937	0.0154302
795.015	0.0155244
795.093	0.0156178
795.171	0.0154925
795.249	0.0155520
795.328	0.0154581
795.406	0.0156466
795.484	0.0157139
795.562	0.0156465
795.640	0.0157116
795.718	0.0156934
795.796	0.0158218
795.874	0.0158046
795.953	0.0158613
796.031	0.0158590
796.109	0.0158137
796.187	0.0159082
796.265	0.0158940
796.343	0.0158517
796.421	0.0158269
796.499	0.0157026
796.578	0.0155891
796.656	0.0156239
796.734	0.0156406
796.812	0.0157427
796.890	0.0156071
796.968	0.0155298
797.046	0.0154955
797.124	0.0156930
797.203	0.0155746
797.281	0.0156001
797.359	0.0157250
797.437	0.0157804
797.515	0.0157458
797.593	0.0159026
797.671	0.0158913
797.749	0.0159966
797.828	0.0158354
797.906	0.0158962
797.984	0.0160562
798.062	0.0160530
798.140	0.0159007
798.218	0.0159205
798.296	0.0159944
798.374	0.0157584
798.453	0.0156655
798.531	0.0156892
798.609	0.0155909
798.687	0.0155702
798.765	0.0155323
798.843	0.0154485
798.921	0.0155155
798.999	0.0154026
799.078	0.0153766
799.156	0.0152830
799.234	0.0153397
799.312	0.0153345
799.390	0.0154592
799.468	0.0154093
799.546	0.0154430
799.624	0.0156425
799.703	0.0155428
799.781	0.0156258
799.859	0.0157761
799.937	0.0157137
800.015	0.0159498
800.093	0.0160146
800.171	0.0159331
800.249	0.0160238
800.328	0.0162082
800.406	0.0161140
800.484	0.0161407
800.562	0.0162483
800.640	0.0163251
800.718	0.0164311
800.796	0.0164882
800.874	0.0163609
800.953	0.0162506
801.031	0.0163934
801.109	0.0163423
801.187	0.0162440
801.265	0.0161781
801.343	0.0160109
801.421	0.0160063
801.499	0.0160323
801.578	0.0159418
801.656	0.0159412
801.734	0.0158817
801.812	0.0157966
801.890	0.0156834
801.968	0.0156681
802.046	0.0154189
802.124	0.0155285
802.203	0.0155860
802.281	0.0155318
802.359	0.0154069
802.437	0.0154804
802.515	0.0153561
802.593	0.0154473
802.671	0.0154221
802.749	0.0153872
802.828	0.0152982
802.906	0.0154654
802.984	0.0153347
803.062	0.0155222
803.140	0.0153549
803.218	0.0154439
803.296	0.0154978
803.374	0.0153886
803.453	0.0157175
803.531	0.0155906
803.609	0.0156173
803.687	0.0158411
803.765	0.0158716
803.843	0.0157775
803.921	0.0157700
803.999	0.0159389
804.078	0.0159852
804.156	0.0160439
804.234	0.0160034
804.312	0.0160058
804.390	0.0161031
804.468	0.0161488
804.546	0.0160866
804.624	0.0162943
804.703	0.0161413
804.781	0.0161238
804.859	0.0160054
804.937	0.0160841
805.015	0.0160756
805.093	0.0159426
805.171	0.0159735
805.249	0.0160022
805.328	0.0157987
805.406	0.0158466
805.484	0.0158149
805.562	0.0157642
805.640	0.0157265
805.718	0.0158046
805.796	0.0156814
805.874	0.0156197
805.953	0.0156580
806.031	0.0158332
806.109	0.0158628
806.187	0.0157275
806.265	0.0156992
806.343	0.0158187
806.421	0.0158522
806.499	0.0159373
806.578	0.0159882
806.656	0.0159052
806.734	0.0160088
806.812	0.0158168
806.890	0.0158000
806.968	0.0158704
807.046	0.0160038
807.124	0.0158456
807.203	0.0157648
807.281	0.0158684
807.359	0.0158736
807.437	0.0156341
807.515	0.0157185
807.593	0.0156430
807.671	0.0156837
807.749	0.0156376
807.828	0.0155458
807.906	0.0157152
807.984	0.0157271
808.062	0.0156849
808.140	0.0155465
808.218	0.0156631
808.296	0.0155869
808.374	0.0156251
808.453	0.0156303
808.531	0.0157434
808.609	0.0155417
808.687	0.0155846
808.765	0.0157273
808.843	0.0157543
808.921	0.0157402
808.999	0.0158190
809.078	0.0158110
809.156	0.0158972
809.234	0.0159362
809.312	0.0159453
809.390	0.0159185
809.468	0.0158828
809.546	0.0158853
809.624	0.0159517
809.703	0.0159747
809.781	0.0158677
809.859	0.0157990
809.937	0.0159443
810.015	0.0157809
810.093	0.0159785
810.171	0.0159866
810.249	0.0158043
810.328	0.0158053
810.406	0.0156550
810.484	0.0156560
810.562	0.0157806
810.640	0.0156335
810.718	0.0158370
810.796	0.0157958
810.874	0.0157288
810.953	0.0158615
811.031	0.0158074
811.109	0.0158054
811.187	0.0157217
811.265	0.0156857
811.343	0.0158744
811.421	0.0158213
811.499	0.0158327
811.578	0.0159491
811.656	0.0157571
811.734	0.0157068
811.812	0.0159275
811.890	0.0157306
811.968	0.0156468
812.046	0.0157058
812.124	0.0157578
812.203	0.0156040
812.281	0.0155615
812.359	0.0157341
812.437	0.0156154
812.515	0.0155858
812.593	0.0156834
812.671	0.0155517
812.749	0.0157175
812.828	0.0156876
812.906	0.0157035
812.984	0.0157620
813.062	0.0158147
813.140	0.0158452
813.218	0.0159278
813.296	0.0158514
813.374	0.0158391
813.453	0.0159171
813.531	0.0159631
813.609	0.0159135
813.687	0.0157616
813.765	0.0158572
813.843	0.0157424
813.921	0.0157566
813.999	0.0157147
814.078	0.0156670
814.156	0.0157604
814.234	0.0157157
814.312	0.0155286
814.390	0.0155806
814.468	0.0157096
814.546	0.0156503
814.624	0.0156352
814.703	0.0157130
814.781	0.0156894
814.859	0.0157289
814.937	0.0158660
815.015	0.0158316
815.093	0.0159951
815.171	0.0158469
815.249	0.0159283
815.328	0.0158850
815.406	0.0158929
815.484	0.0159360
815.562	0.0158875
815.640	0.0159168
815.718	0.0159356
815.796	0.0160696
815.874	0.0158975
815.953	0.0159096
816.031	0.0157863
816.109	0.0159054
816.187	0.0158649
816.265	0.0158329
816.343	0.0159200
816.421	0.0157514
816.499	0.0157874
816.578	0.0158289
816.656	0.0158421
816.734	0.0157980
816.812	0.0157162
816.890	0.0158177
816.968	0.0158652
817.046	0.0157700
817.124	0.0158863
817.203	0.0158900
817.281	0.0156989
817.359	0.0157641
817.437	0.0155943
817.515	0.0157085
817.593	0.0156086
817.671	0.0156137
817.749	0.0155975
817.828	0.0156454
817.906	0.0156496
817.984	0.0155125
818.062	0.0155045
818.140	0.0155011
818.218	0.0156427
818.296	0.0154977
818.374	0.0155042
818.453	0.0155560
818.531	0.0155711
818.609	0.0155842
818.687	0.0155923
818.765	0.0155267
818.843	0.0155545
818.921	0.0155540
818.999	0.0156092
819.078	0.0155142
819.156	0.0155313
819.234	0.0156707
819.312	0.0157050
819.390	0.0159325
819.468	0.0158362
819.546	0.0158436
819.624	0.0159203
819.703	0.0158495
819.781	0.0158770
819.859	0.0160217
819.937	0.0159067
820.015	0.0160211
820.093	0.0158992
820.171	0.0160050
820.249	0.0160409
820.328	0.0159533
820.406	0.0159238
820.484	0.0158561
820.562	0.0160140
820.640	0.0159464
820.718	0.0159637
820.796	0.0157634
820.874	0.0156897
820.953	0.0158894
821.031	0.0158990
821.109	0.0158952
821.187	0.0156181
821.265	0.0158199
821.343	0.0158211
821.421	0.0157456
821.499	0.0155827
821.578	0.0156400
821.656	0.0157716
821.734	0.0157019
821.812	0.0154942
821.890	0.0157246
821.968	0.0155061
822.046	0.0155901
822.124	0.0155852
822.203	0.0155715
822.281	0.0155244
822.359	0.0155154
822.437	0.0155865
822.515	0.0155199
822.593	0.0153529
822.671	0.0155085
822.749	0.0155640
822.828	0.0155137
822.906	0.0155976
822.984	0.0156046
823.062	0.0156055
823.140	0.0155788
823.218	0.0158778
823.296	0.0157501
823.374	0.0155469
823.453	0.0157566
823.531	0.0157224
823.609	0.0158231
823.687	0.0158149
823.765	0.0158349
823.843	0.0158370
823.921	0.0160594
823.999	0.0160192
824.078	0.0157695
824.156	0.0159212
824.234	0.0158256
824.312	0.0158846
824.390	0.0158407
824.468	0.0157982
824.546	0.0158581
824.624	0.0158576
824.703	0.0156220
824.781	0.0158093
824.859	0.0157336
824.937	0.0157188
825.015	0.0157276
825.093	0.0156995
825.171	0.0158308
825.249	0.0158354
825.328	0.0156838
825.406	0.0156670
825.484	0.0157040
825.562	0.0157327
825.640	0.0157888
825.718	0.0157818
825.796	0.0156927
825.874	0.0158214
825.953	0.0158412
826.031	0.0157080
826.109	0.0157444
826.187	0.0158657
826.265	0.0158647
826.343	0.0158347
826.421	0.0157375
826.499	0.0157593
826.578	0.0157880
826.656	0.0158250
826.734	0.0158193
826.812	0.0157639
826.890	0.0157209
826.968	0.0159208
827.046	0.0156755
827.124	0.0158049
827.203	0.0156837
827.281	0.0157858
827.359	0.0157713
827.437	0.0157681
827.515	0.0157782
827.593	0.0156221
827.671	0.0156970
827.749	0.0155826
827.828	0.0156177
827.906	0.0155622
827.984	0.0156097
828.062	0.0156747
828.140	0.0156919
828.218	0.0156091
828.296	0.0156460
828.374	0.0157765
828.453	0.0157430
828.531	0.0156561
828.609	0.0157019
828.687	0.0156687
828.765	0.0157336
828.843	0.0158654
828.921	0.0156705
828.999	0.0157104
829.078	0.0157423
829.156	0.0157986
829.234	0.0156733
829.312	0.0156950
829.390	0.0156504
829.468	0.0157834
829.546	0.0157441
829.624	0.0156973
829.703	0.0157751
829.781	0.0158731
829.859	0.0158244
829.937	0.0157584
830.015	0.0159040
830.093	0.0158337
830.171	0.0159322
830.249	0.0158571
830.328	0.0160171
830.406	0.0158575
830.484	0.0158085
830.562	0.0159522
830.640	0.0159125
830.718	0.0158587
830.796	0.0157889
830.874	0.0159241
830.953	0.0158809
831.031	0.0159740
831.109	0.0159786
831.187	0.0158512
831.265	0.0160015
831.343	0.0157802
831.421	0.0158324
831.499	0.0159155
831.578	0.0158424
831.656	0.0158472
831.734	0.0158335
831.812	0.0158115
831.890	0.0158458
831.968	0.0157014
832.046	0.0157429
832.124	0.0157901
832.203	0.0158019
832.281	0.0158195
832.359	0.0157310
832.437	0.0156664
832.515	0.0157465
832.593	0.0157372
832.671	0.0156385
832.749	0.0156639
832.828	0.0156219
832.906	0.0157249
832.984	0.0155310
833.062	0.0156356
833.140	0.0156995
833.218	0.0156593
833.296	0.0155991
833.374	0.0156074
833.453	0.0156661
833.531	0.0157151
833.609	0.0155599
833.687	0.0156246
833.765	0.0155807
833.843	0.0157736
833.921	0.0157689
833.999	0.0157838
834.078	0.0157475
834.156	0.0157550
834.234	0.0158508
834.312	0.0158965
834.390	0.0158679
834.468	0.0158058
834.546	0.0158564
834.624	0.0157600
834.703	0.0158646
834.781	0.0159203
834.859	0.0158282
834.937	0.0159435
835.015	0.0158958
835.093	0.0158501
835.171	0.0159814
835.249	0.0159001
835.328	0.0160085
835.406	0.0159246
835.484	0.0158725
835.562	0.0159276
835.640	0.0160345
835.718	0.0159261
835.796	0.0160336
835.874	0.0158793
835.953	0.0160790
836.031	0.0160213
836.109	0.0159585
836.187	0.0159114
836.265	0.0157837
836.343	0.0157595
836.421	0.0156367
836.499	0.0156519
836.578	0.0156888
836.656	0.0156324
836.734	0.0156564
836.812	0.0157312
836.890	0.0156937
836.968	0.0155125
837.046	0.0156792
837.124	0.0157233
837.203	0.0157879
837.281	0.0157915
837.359	0.0158207
837.437	0.0157955
837.515	0.0158584
837.593	0.0158142
837.671	0.0158207
837.749	0.0157847
837.828	0.0157935
837.906	0.0157440
837.984	0.0156873
838.062	0.0157589
838.140	0.0159074
838.218	0.0156623
838.296	0.0157894
838.374	0.0158984
838.453	0.0157153
838.531	0.0157330
838.609	0.0157739
838.687	0.0156943
838.765	0.0155610
838.843	0.0156044
838.921	0.0156813
838.999	0.0158154
839.078	0.0157713
839.156	0.0157000
839.234	0.0158809
839.312	0.0157900
839.390	0.0157811
839.468	0.0156863
839.546	0.0158719
839.624	0.0157217
839.703	0.0158443
839.781	0.0157287
839.859	0.0158294
839.937	0.0156979
840.015	0.0157687
840.093	0.0157264
840.171	0.0156512
840.249	0.0158564
840.328	0.0158504
840.406	0.0156660
840.484	0.0157058
840.562	0.0156866
840.640	0.0157787
840.718	0.0158621
840.796	0.0159190
840.874	0.0160511
840.953	0.0159889
841.031	0.0159215
841.109	0.0159608
841.187	0.0159942
841.265	0.0161303
841.343	0.0160841
841.421	0.0159291
841.499	0.0159452
841.578	0.0159879
841.656	0.0159397
841.734	0.0158894
841.812	0.0158350
841.890	0.0157164
841.968	0.0157362
842.046	0.0157169
842.124	0.0156834
842.203	0.0156573
842.281	0.0156358
842.359	0.0156205
842.437	0.0156583
842.515	0.0154404
842.593	0.0154581
842.671	0.0155500
842.749	0.0155703
842.828	0.0156081
842.906	0.0154755
842.984	0.0155616
843.062	0.0155884
843.140	0.0155074
843.218	0.0155965
843.296	0.0156723
843.374	0.0157349
843.453	0.0157239
843.531	0.0157343
843.609	0.0158636
843.687	0.0157159
843.765	0.0157793
843.843	0.0159386
843.921	0.0157021
843.999	0.0158879
844.078	0.0158115
844.156	0.0157607
844.234	0.0157784
844.312	0.0159341
844.390	0.0158329
844.468	0.0159589
844.546	0.0159894
844.624	0.0159173
844.703	0.0160784
844.781	0.0161047
844.859	0.0160880
844.937	0.0160994
845.015	0.0160680
845.093	0.0161484
845.171	0.0160388
845.249	0.0162083
845.328	0.0160847
845.406	0.0158929
845.484	0.0158971
845.562	0.0158195
845.640	0.0159021
845.718	0.0157875
845.796	0.0158487
845.874	0.0156141
845.953	0.0157336
846.031	0.0155588
846.109	0.0155791
846.187	0.0154254
846.265	0.0153928
846.343	0.0154094
846.421	0.0153240
846.499	0.0153106
846.578	0.0153507
846.656	0.0154154
846.734	0.0152450
846.812	0.0154182
846.890	0.0153957
846.968	0.0154680
847.046	0.0153271
847.124	0.0156242
847.203	0.0156380
847.281	0.0156785
847.359	0.0156511
847.437	0.0157937
847.515	0.0158652
847.593	0.0159637
847.671	0.0160494
847.749	0.0159127
847.828	0.0159354
847.906	0.0160525
847.984	0.0161769
848.062	0.0162086
848.140	0.0159836
848.218	0.0159570
848.296	0.0160833
848.374	0.0160060
848.453	0.0159119
848.531	0.0158834
848.609	0.0159306
848.687	0.0159103
848.765	0.0157150
848.843	0.0158593
848.921	0.0158994
848.999	0.0157381
849.078	0.0157917
849.156	0.0156635
849.234	0.0155916
849.312	0.0155804
849.390	0.0155968
849.468	0.0155438
849.546	0.0158568
849.624	0.0157693
849.703	0.0157054
849.781	0.0156323
849.859	0.0157619
849.937	0.0157430
850.015	0.0157055
850.093	0.0157871
850.171	0.0156594
850.249	0.0156657
850.328	0.0157671
850.406	0.0157254
850.484	0.0158308
850.562	0.0157365
850.640	0.0157666
850.718	0.0156019
850.796	0.0155030
850.874	0.0155036
850.953	0.0155283
851.031	0.0155019
851.109	0.0155019
851.187	0.0154471
851.265	0.0154796
851.343	0.0157558
851.421	0.0153448
851.499	0.0154503
851.578	0.0155704
851.656	0.0156287
851.734	0.0156080
851.812	0.0157022
851.890	0.0156450
851.968	0.0155994
852.046	0.0157198
852.124	0.0157370
852.203	0.0157674
852.281	0.0158532
852.359	0.0159709
852.437	0.0159243
852.515	0.0157995
852.593	0.0158569
852.671	0.0160016
852.749	0.0159980
852.828	0.0160081
852.906	0.0161166
852.984	0.0159988
853.062	0.0159342
853.140	0.0159288
853.218	0.0158743
853.296	0.0159219
853.374	0.0158047
853.453	0.0157260
853.531	0.0158340
853.609	0.0157903
853.687	0.0157925
853.765	0.0156702
853.843	0.0157352
853.921	0.0156922
853.999	0.0158437
854.078	0.0157687
854.156	0.0157674
854.234	0.0156963
854.312	0.0157780
854.390	0.0157386
854.468	0.0157796
854.546	0.0156749
854.624	0.0158054
854.703	0.0156931
854.781	0.0156783
854.859	0.0157313
854.937	0.0157772
855.015	0.0157090
855.093	0.0159401
855.171	0.0156952
855.249	0.0157117
855.328	0.0158688
855.406	0.0157377
855.484	0.0155852
855.562	0.0154796
855.640	0.0155182
855.718	0.0157488
855.796	0.0156859
855.874	0.0155544
855.953	0.0156048
856.031	0.0154541
856.109	0.0155954
856.187	0.0156367
856.265	0.0156458
856.343	0.0157225
856.421	0.0157364
856.499	0.0158014
856.578	0.0157918
856.656	0.0157938
856.734	0.0158430
856.812	0.0158092
856.890	0.0160113
856.968	0.0158881
857.046	0.0158047
857.124	0.0160378
857.203	0.0159489
857.281	0.0160030
857.359	0.0159473
857.437	0.0160216
857.515	0.0159101
857.593	0.0159195
857.671	0.0158997
857.749	0.0160437
857.828	0.0159264
857.906	0.0160004
857.984	0.0159507
858.062	0.0158203
858.140	0.0159318
858.218	0.0159605
858.296	0.0158550
858.374	0.0158332
858.453	0.0158762
858.531	0.0158261
858.609	0.0159340
858.687	0.0159637
858.765	0.0157945
858.843	0.0158546
858.921	0.0158675
858.999	0.0158373
859.078	0.0157574
859.156	0.0157619
859.234	0.0158102
859.312	0.0158646
859.390	0.0157942
859.468	0.0157466
859.546	0.0158722
859.624	0.0157913
859.703	0.0157964
859.781	0.0158293
859.859	0.0157258
859.937	0.0158566
860.015	0.0157393
860.093	0.0156962
860.171	0.0157316
860.249	0.0157661
860.328	0.0156869
860.406	0.0157130
860.484	0.0157478
860.562	0.0156848
860.640	0.0156259
860.718	0.0157150
860.796	0.0157292
860.874	0.0156901
860.953	0.0157555
861.031	0.0157636
861.109	0.0157378
861.187	0.0157928
861.265	0.0158797
861.343	0.0157375
861.421	0.0157672
861.499	0.0158627
861.578	0.0157778
861.656	0.0156915
861.734	0.0158158
861.812	0.0157698
861.890	0.0157569
861.968	0.0157574
862.046	0.0159011
862.124	0.0158404
862.203	0.0155998
862.281	0.0157165
862.359	0.0158279
862.437	0.0156981
862.515	0.0157436
862.593	0.0157599
862.671	0.0159463
862.749	0.0160279
862.828	0.0159158
862.906	0.0159576
862.984	0.0159887
863.062	0.0159963
863.140	0.0159161
863.218	0.0159188
863.296	0.0158636
863.374	0.0158282
863.453	0.0158624
863.531	0.0158895
863.609	0.0159099
863.687	0.0157294
863.765	0.0157352
863.843	0.0157119
863.921	0.0155893
863.999	0.0156663
864.078	0.0157688
864.156	0.0156108
864.234	0.0156113
864.312	0.0156590
864.390	0.0156652
864.468	0.0156172
864.546	0.0156731
864.624	0.0157363
864.703	0.0155030
864.781	0.0156207
864.859	0.0156563
864.937	0.0156357
865.015	0.0155892
865.093	0.0154984
865.171	0.0157831
865.249	0.0157839
865.328	0.0156824
865.406	0.0157446
865.484	0.0157574
865.562	0.0157703
865.640	0.0158197
865.718	0.0158407
865.796	0.0157245
865.874	0.0160836
865.953	0.0159552
866.031	0.0158835
866.109	0.0158794
866.187	0.0158646
866.265	0.0158199
866.343	0.0156839
866.421	0.0157582
866.499	0.0157069
866.578	0.0156439
866.656	0.0158263
866.734	0.0156940
866.812	0.0156301
866.890	0.0157059
866.968	0.0156129
867.046	0.0157583
867.124	0.0158546
867.203	0.0156393
867.281	0.0157230
867.359	0.0156506
867.437	0.0157382
867.515	0.0158358
867.593	0.0157479
867.671	0.0157715
867.749	0.0157912
867.828	0.0157794
867.906	0.0157645
867.984	0.0156533
868.062	0.0157620
868.140	0.0156873
868.218	0.0156876
868.296	0.0158507
868.374	0.0157045
868.453	0.0157402
868.531	0.0158332
868.609	0.0157007
868.687	0.0156950
868.765	0.0156551
868.843	0.0157163
868.921	0.0158068
868.999	0.0159095
869.078	0.0158170
869.156	0.0157146
869.234	0.0157525
869.312	0.0158363
869.390	0.0158159
869.468	0.0158353
869.546	0.0157962
869.624	0.0158475
869.703	0.0158244
869.781	0.0157029
869.859	0.0157280
869.937	0.0157470
870.015	0.0157216
870.093	0.0155986
870.171	0.0156260
870.249	0.0155359
870.328	0.0156599
870.406	0.0155428
870.484	0.0155366
870.562	0.0155354
870.640	0.0154040
870.718	0.0155306
870.796	0.0154549
870.874	0.0155939
870.953	0.0156915
871.031	0.0155306
871.109	0.0156136
871.187	0.0156332
871.265	0.0155927
871.343	0.0155933
871.421	0.0158037
871.499	0.0158318
871.578	0.0156626
871.656	0.0157881
871.734	0.0158558
871.812	0.0158781
871.890	0.0158264
871.968	0.0159219
872.046	0.0157774
872.124	0.0159665
872.203	0.0159390
872.281	0.0159024
872.359	0.0157971
872.437	0.0159058
872.515	0.0158551
872.593	0.0157830
872.671	0.0158022
872.749	0.0158022
872.828	0.0158198
872.906	0.0158361
872.984	0.0157328
873.062	0.0157614
873.140	0.0158838
873.218	0.0158028
873.296	0.0158135
873.374	0.0156967
873.453	0.0157704
873.531	0.0157999
873.609	0.0157402
873.687	0.0158185
873.765	0.0157444
873.843	0.0158230
873.921	0.0157594
873.999	0.0158331
874.078	0.0158378
874.156	0.0156696
874.234	0.0156696
874.312	0.0157070
874.390	0.0157196
874.468	0.0157423
874.546	0.0157120
874.624	0.0157494
874.703	0.0155582
874.781	0.0155744
874.859	0.0155322
874.937	0.0155849
875.015	0.0157507
875.093	0.0157452
875.171	0.0156006
875.249	0.0157048
875.328	0.0158715
875.406	0.0158437
875.484	0.0156582
875.562	0.0157979
875.640	0.0158025
875.718	0.0158484
875.796	0.0158198
875.874	0.0157412
875.953	0.0158984
876.031	0.0158250
876.109	0.0159257
876.187	0.0158969
876.265	0.0158074
876.343	0.0157896
876.421	0.0157420
876.499	0.0158030
876.578	0.0157840
876.656	0.0158389
876.734	0.0158875
876.812	0.0158439
876.890	0.0157581
876.968	0.0157740
877.046	0.0158911
877.124	0.0158586
877.203	0.0158361
877.281	0.0158715
877.359	0.0158546
877.437	0.0158150
877.515	0.0158656
877.593	0.0158706
877.671	0.0157661
877.749	0.0158372
877.828	0.0158985
877.906	0.0158885
877.984	0.0158772
878.062	0.0158629
878.140	0.0155876
878.218	0.0157255
878.296	0.0157355
878.374	0.0158089
878.453	0.0156426
878.531	0.0156470
878.609	0.0157262
878.687	0.0155399
878.765	0.0156294
878.843	0.0156757
878.921	0.0157202
878.999	0.0155666
879.078	0.0156828
879.156	0.0156278
879.234	0.0156730
879.312	0.0156851
879.390	0.0156665
879.468	0.0157511
879.546	0.0158868
879.624	0.0157732
879.703	0.0157829
879.781	0.0158345
879.859	0.0158762
879.937	0.0158256
880.015	0.0159254
880.093	0.0158987
880.171	0.0158115
880.249	0.0159029
880.328	0.0159251
880.406	0.0159112
880.484	0.0160304
880.562	0.0159778
880.640	0.0158812
880.718	0.0159753
880.796	0.0160089
880.874	0.0159232
880.953	0.0158752
881.031	0.0159045
881.109	0.0158312
881.187	0.0158548
881.265	0.0158313
881.343	0.0158364
881.421	0.0158286
881.499	0.0157628
881.578	0.0158032
881.656	0.0158002
881.734	0.0156881
881.812	0.0156971
881.890	0.0156454
881.968	0.0156386
882.046	0.0156075
882.124	0.0155789
882.203	0.0155810
882.281	0.0155172
882.359	0.0155578
882.437	0.0155371
882.515	0.0156160
882.593	0.0156002
882.671	0.0156451
882.749	0.0157886
882.828	0.0157544
882.906	0.0155470
882.984	0.0157568
883.062	0.0157236
883.140	0.0157140
883.218	0.0157098
883.296	0.0156179
883.374	0.0158688
883.453	0.0158842
883.531	0.0158583
883.609	0.0157786
883.687	0.0160130
883.765	0.0159693
883.843	0.0158797
883.921	0.0158766
883.999	0.0159917
884.078	0.0159539
884.156	0.0159473
884.234	0.0159306
884.312	0.0159514
884.390	0.0159063
884.468	0.0160080
884.546	0.0159491
884.624	0.0158264
884.703	0.0158758
884.781	0.0159063
884.859	0.0159325
884.937	0.0159218
885.015	0.0158782
885.093	0.0158755
885.171	0.0159132
885.249	0.0158943
885.328	0.0158360
885.406	0.0157816
885.484	0.0160143
885.562	0.0157189
885.640	0.0158425
885.718	0.0158950
885.796	0.0157765
885.874	0.0159264
885.953	0.0159387
886.031	0.0158609
886.109	0.0158944
886.187	0.0158311
886.265	0.0157950
886.343	0.0158665
886.421	0.0158451
886.499	0.0158729
886.578	0.0158550
886.656	0.0157522
886.734	0.0157666
886.812	0.0156276
886.890	0.0156380
886.968	0.0156541
887.046	0.0156136
887.124	0.0155408
887.203	0.0154897
887.281	0.0155395
887.359	0.0156338
887.437	0.0153854
887.515	0.0156057
887.593	0.0156481
887.671	0.0154060
887.749	0.0154851
887.828	0.0156261
887.906	0.0157731
887.984	0.0156548
888.062	0.0156637
888.140	0.0156796
888.218	0.0157959
888.296	0.0157795
888.374	0.0158144
888.453	0.0158937
888.531	0.0158573
888.609	0.0158562
888.687	0.0159305
888.765	0.0160686
888.843	0.0159749
888.921	0.0160046
888.999	0.0160169
889.078	0.0159956
889.156	0.0159286
889.234	0.0159393
889.312	0.0160004
889.390	0.0158967
889.468	0.0156821
889.546	0.0156434
889.624	0.0156419
889.703	0.0158354
889.781	0.0157915
889.859	0.0157082
889.937	0.0157175
890.015	0.0156291
890.093	0.0156671
890.171	0.0154879
890.249	0.0155094
890.328	0.0156194
890.406	0.0156052
890.484	0.0155807
890.562	0.0157111
890.640	0.0156685
890.718	0.0158281
890.796	0.0158212
890.874	0.0158045
890.953	0.0158581
891.031	0.0159485
891.109	0.0158732
891.187	0.0160050
891.265	0.0158976
891.343	0.0158481
891.421	0.0158853
891.499	0.0158418
891.578	0.0159168
891.656	0.0159496
891.734	0.0158417
891.812	0.0158930
891.890	0.0158302
891.968	0.0158765
892.046	0.0156862
892.124	0.0158579
892.203	0.0158179
892.281	0.0156850
892.359	0.0156491
892.437	0.0156574
892.515	0.0157561
892.593	0.0156699
892.671	0.0157281
892.749	0.0157577
892.828	0.0156130
892.906	0.0155932
892.984	0.0155932
893.062	0.0156985
893.140	0.0156477
893.218	0.0154564
893.296	0.0155654
893.374	0.0157737
893.453	0.0156555
893.531	0.0157024
893.609	0.0157562
893.687	0.0157508
893.765	0.0157762
893.843	0.0156358
893.921	0.0155959
893.999	0.0156483
894.078	0.0157083
894.156	0.0156367
894.234	0.0156493
894.312	0.0156882
894.390	0.0156520
894.468	0.0157581
894.546	0.0156829
894.624	0.0156783
894.703	0.0155792
894.781	0.0156562
894.859	0.0156095
894.937	0.0156204
895.015	0.0157470
895.093	0.0157706
895.171	0.0156186
895.249	0.0156903
895.328	0.0157407
895.406	0.0157938
895.484	0.0158244
895.562	0.0159495
895.640	0.0159351
895.718	0.0159782
895.796	0.0159542
895.874	0.0159907
895.953	0.0160519
896.031	0.0160435
896.109	0.0159098
896.187	0.0159394
896.265	0.0159243
896.343	0.0161663
896.421	0.0159518
896.499	0.0159561
896.578	0.0158383
896.656	0.0159512
896.734	0.0158996
896.812	0.0158826
896.890	0.0159140
896.968	0.0158541
897.046	0.0158129
897.124	0.0159486
897.203	0.0158514
897.281	0.0157604
897.359	0.0158356
897.437	0.0158344
897.515	0.0157981
897.593	0.0158385
897.671	0.0156573
897.749	0.0156987
897.828	0.0157838
897.906	0.0157236
897.984	0.0156720
898.062	0.0156005
898.140	0.0157237
898.218	0.0156081
898.296	0.0156271
898.374	0.0157436
898.453	0.0157159
898.531	0.0157365
898.609	0.0156711
898.687	0.0156436
898.765	0.0157053
898.843	0.0157203
898.921	0.0156776
898.999	0.0157283
899.078	0.0158089
899.156	0.0157011
899.234	0.0156918
899.312	0.0157553
899.390	0.0158358
899.468	0.0155974
899.546	0.0157467
899.624	0.0159214
899.703	0.0158086
899.781	0.0157269
899.859	0.0158484
899.937	0.0157307
900.015	0.0156821
900.093	0.0156735
900.171	0.0158509
900.249	0.0159418
900.328	0.0158310
900.406	0.0157991
900.484	0.0158990
900.562	0.0158193
900.640	0.0158582
900.718	0.0158257
900.796	0.0157047
900.874	0.0156814
900.953	0.0156744
901.031	0.0157755
901.109	0.0158192
901.187	0.0157365
901.265	0.0156591
901.343	0.0156476
901.421	0.0156283
901.499	0.0156004
901.578	0.0156119
901.656	0.0157742
901.734	0.0158197
901.812	0.0157874
901.890	0.0155821
901.968	0.0156029
902.046	0.0157783
902.124	0.0158383
902.203	0.0157748
902.281	0.0157023
902.359	0.0158813
902.437	0.0159347
902.515	0.0157999
902.593	0.0157909
902.671	0.0158916
902.749	0.0157539
902.828	0.0158036
902.906	0.0158923
902.984	0.0158898
903.062	0.0157628
903.140	0.0157503
903.218	0.0156753
903.296	0.0157814
903.374	0.0157128
903.453	0.0157487
903.531	0.0157001
903.609	0.0156916
903.687	0.0157041
903.765	0.0158572
903.843	0.0158464
903.921	0.0157234
903.999	0.0156464
904.078	0.0157420
904.156	0.0157607
904.234	0.0157343
904.312	0.0155366
904.390	0.0158183
904.468	0.0156827
904.546	0.0156037
904.624	0.0157528
904.703	0.0157561
904.781	0.0157369
904.859	0.0157303
904.937	0.0156821
905.015	0.0156940
905.093	0.0157774
905.171	0.0156541
905.249	0.0156712
905.328	0.0156059
905.406	0.0157841
905.484	0.0157647
905.562	0.0156954
905.640	0.0157812
905.718	0.0158028
905.796	0.0156722
905.874	0.0158224
905.953	0.0158469
906.031	0.0157482
906.109	0.0157130
906.187	0.0158460
906.265	0.0160258
906.343	0.0159690
906.421	0.0159237
906.499	0.0160021
906.578	0.0159351
906.656	0.0159577
906.734	0.0159222
906.812	0.0158563
906.890	0.0161016
906.968	0.0159228
907.046	0.0159515
907.124	0.0158636
907.203	0.0158964
907.281	0.0159550
907.359	0.0159442
907.437	0.0158530
907.515	0.0159866
907.593	0.0157973
907.671	0.0158581
907.749	0.0159554
907.828	0.0158844
907.906	0.0158511
907.984	0.0158271
908.062	0.0158323
908.140	0.0159321
908.218	0.0159223
908.296	0.0157269
908.374	0.0157536
908.453	0.0158171
908.531	0.0157854
908.609	0.0158171
908.687	0.0156666
908.765	0.0156403
908.843	0.0155738
908.921	0.0156342
908.999	0.0157513
909.078	0.0156028
909.156	0.0156464
909.234	0.0156212
909.312	0.0157334
909.390	0.0156388
909.468	0.0156531
909.546	0.0155939
909.624	0.0156955
909.703	0.0156060
909.781	0.0156918
909.859	0.0156992
909.937	0.0156470
910.015	0.0156758
910.093	0.0156901
910.171	0.0157910
910.249	0.0157554
910.328	0.0158717
910.406	0.0158564
910.484	0.0158479
910.562	0.0157956
910.640	0.0158360
910.718	0.0160239
910.796	0.0160447
910.874	0.0159409
910.953	0.0159087
911.031	0.0158905
911.109	0.0158839
911.187	0.0159436
911.265	0.0159666
911.343	0.0158270
911.421	0.0158383
911.499	0.0159138
911.578	0.0158521
911.656	0.0159546
911.734	0.0158765
911.812	0.0158798
911.890	0.0159917
911.968	0.0157507
912.046	0.0156689
912.124	0.0157813
912.203	0.0158267
912.281	0.0157559
912.359	0.0157988
912.437	0.0159238
912.515	0.0156540
912.593	0.0156201
912.671	0.0157288
912.749	0.0156068
912.828	0.0156380
912.906	0.0156323
912.984	0.0157466
913.062	0.0157320
913.140	0.0155999
913.218	0.0155570
913.296	0.0158238
913.374	0.0158303
913.453	0.0157378
913.531	0.0157157
913.609	0.0156977
913.687	0.0156757
913.765	0.0157988
913.843	0.0157292
913.921	0.0157350
913.999	0.0156701
914.078	0.0157197
914.156	0.0156540
914.234	0.0156106
914.312	0.0156816
914.390	0.0157513
914.468	0.0157100
914.546	0.0157654
914.624	0.0157106
914.703	0.0158443
914.781	0.0158076
914.859	0.0156491
914.937	0.0157377
915.015	0.0157553
915.093	0.0157507
915.171	0.0157207
915.249	0.0155989
915.328	0.0158329
915.406	0.0156228
915.484	0.0157384
915.562	0.0158655
915.640	0.0156108
915.718	0.0158333
915.796	0.0156988
915.874	0.0156382
915.953	0.0157300
916.031	0.0157173
916.109	0.0157849
916.187	0.0156428
916.265	0.0157996
916.343	0.0157961
916.421	0.0157410
916.499	0.0157240
916.578	0.0157394
916.656	0.0157055
916.734	0.0157302
916.812	0.0156895
916.890	0.0157873
916.968	0.0157540
917.046	0.0156848
917.124	0.0157868
917.203	0.0158525
917.281	0.0158225
917.359	0.0157729
917.437	0.0158166
917.515	0.0157308
917.593	0.0157003
917.671	0.0158345
917.749	0.0157136
917.828	0.0156448
917.906	0.0158528
917.984	0.0156965
918.062	0.0157452
918.140	0.0157220
918.218	0.0158043
918.296	0.0157334
918.374	0.0157144
918.453	0.0156556
918.531	0.0155923
918.609	0.0156683
918.687	0.0157166
918.765	0.0157332
918.843	0.0158216
918.921	0.0156731
918.999	0.0158567
919.078	0.0156975
919.156	0.0156284
919.234	0.0158005
919.312	0.0157589
919.390	0.0157932
919.468	0.0158051
919.546	0.0157935
919.624	0.0157171
919.703	0.0156984
919.781	0.0155991
919.859	0.0157085
919.937	0.0157843
