06/10/2022	19:01:15	Ver.	4.1	UNKNOWN
Optical Delay	600.015094	Delta X		0.078125	Sweeps	1	Scan Rate	0/0
Coordinates	Axis 1	NaN	Axis 2	NaN	Axis 3	NaN	Axis 4	NaN	Axis 5	NaN	Axis 6	0.000000
TX Power	0.000000	RX Power	0.000000

600.015	0.0155419
600.093	0.0155884
600.171	0.0154776
600.249	0.0154107
600.328	0.0154044
600.406	0.0155147
600.484	0.0154768
600.562	0.0155520
600.640	0.0154409
600.718	0.0155140
600.796	0.0155094
600.874	0.0155087
600.953	0.0154337
601.031	0.0154319
601.109	0.0155207
601.187	0.0155802
601.265	0.0155343
601.343	0.0155210
601.421	0.0154279
601.499	0.0155155
601.578	0.0155578
601.656	0.0155676
601.734	0.0156615
601.812	0.0155969
601.890	0.0154350
601.968	0.0154798
602.046	0.0154198
602.124	0.0156322
602.203	0.0155003
602.281	0.0155906
602.359	0.0155048
602.437	0.0154748
602.515	0.0156317
602.593	0.0156993
602.671	0.0155611
602.749	0.0154787
602.828	0.0156718
602.906	0.0155484
602.984	0.0155953
603.062	0.0154318
603.140	0.0154826
603.218	0.0156577
603.296	0.0156056
603.374	0.0156206
603.453	0.0154996
603.531	0.0157351
603.609	0.0154755
603.687	0.0156068
603.765	0.0156198
603.843	0.0155989
603.921	0.0157111
603.999	0.0156505
604.078	0.0156081
604.156	0.0157111
604.234	0.0156886
604.312	0.0155068
604.390	0.0155599
604.468	0.0156570
604.546	0.0156982
604.624	0.0156296
604.703	0.0155422
604.781	0.0155357
604.859	0.0157654
604.937	0.0156167
605.015	0.0156059
605.093	0.0156470
605.171	0.0156002
605.249	0.0156065
605.328	0.0157190
605.406	0.0157201
605.484	0.0156855
605.562	0.0156493
605.640	0.0156832
605.718	0.0156367
605.796	0.0154308
605.874	0.0156482
605.953	0.0156758
606.031	0.0155885
606.109	0.0155887
606.187	0.0156100
606.265	0.0157464
606.343	0.0157674
606.421	0.0156060
606.499	0.0156331
606.578	0.0155056
606.656	0.0156602
606.734	0.0156523
606.812	0.0156301
606.890	0.0155919
606.968	0.0156468
607.046	0.0157014
607.124	0.0155999
607.203	0.0154637
607.281	0.0157312
607.359	0.0157076
607.437	0.0156618
607.515	0.0156874
607.593	0.0156812
607.671	0.0156307
607.749	0.0155093
607.828	0.0155684
607.906	0.0156335
607.984	0.0156415
608.062	0.0155519
608.140	0.0156248
608.218	0.0156577
608.296	0.0156567
608.374	0.0155228
608.453	0.0156117
608.531	0.0156132
608.609	0.0156129
608.687	0.0157475
608.765	0.0157173
608.843	0.0156533
608.921	0.0155589
608.999	0.0155761
609.078	0.0155252
609.156	0.0155817
609.234	0.0155675
609.312	0.0156277
609.390	0.0154579
609.468	0.0155761
609.546	0.0154812
609.624	0.0155473
609.703	0.0156215
609.781	0.0155054
609.859	0.0155257
609.937	0.0156187
610.015	0.0155666
610.093	0.0155337
610.171	0.0154978
610.249	0.0156665
610.328	0.0155563
610.406	0.0156483
610.484	0.0155190
610.562	0.0155818
610.640	0.0157075
610.718	0.0155869
610.796	0.0156633
610.874	0.0155804
610.953	0.0155566
611.031	0.0156091
611.109	0.0155652
611.187	0.0155640
611.265	0.0155499
611.343	0.0155973
611.421	0.0154003
611.499	0.0155616
611.578	0.0155432
611.656	0.0155991
611.734	0.0155257
611.812	0.0157094
611.890	0.0155169
611.968	0.0155734
612.046	0.0155508
612.124	0.0155728
612.203	0.0155778
612.281	0.0156044
612.359	0.0154848
612.437	0.0155282
612.515	0.0156465
612.593	0.0156268
612.671	0.0155832
612.749	0.0156533
612.828	0.0155077
612.906	0.0154815
612.984	0.0155869
613.062	0.0155033
613.140	0.0154926
613.218	0.0157142
613.296	0.0155101
613.374	0.0154600
613.453	0.0155112
613.531	0.0153449
613.609	0.0154223
613.687	0.0155457
613.765	0.0154741
613.843	0.0152988
613.921	0.0154835
613.999	0.0155343
614.078	0.0154523
614.156	0.0155238
614.234	0.0154940
614.312	0.0155708
614.390	0.0154211
614.468	0.0156107
614.546	0.0155577
614.624	0.0154443
614.703	0.0154404
614.781	0.0155698
614.859	0.0155337
614.937	0.0154831
615.015	0.0155254
615.093	0.0154626
615.171	0.0155251
615.249	0.0153831
615.328	0.0154844
615.406	0.0154621
615.484	0.0154496
615.562	0.0154987
615.640	0.0154987
615.718	0.0155717
615.796	0.0154880
615.874	0.0154189
615.953	0.0154179
616.031	0.0154910
616.109	0.0154910
616.187	0.0154139
616.265	0.0155748
616.343	0.0154691
616.421	0.0153654
616.499	0.0154859
616.578	0.0155412
616.656	0.0155052
616.734	0.0155802
616.812	0.0154876
616.890	0.0154253
616.968	0.0156378
617.046	0.0156104
617.124	0.0154269
617.203	0.0155684
617.281	0.0154752
617.359	0.0155175
617.437	0.0156638
617.515	0.0155769
617.593	0.0154656
617.671	0.0155534
617.749	0.0155290
617.828	0.0153896
617.906	0.0156349
617.984	0.0156176
618.062	0.0155395
618.140	0.0155040
618.218	0.0154700
618.296	0.0154852
618.374	0.0154707
618.453	0.0156865
618.531	0.0156446
618.609	0.0155465
618.687	0.0155549
618.765	0.0154972
618.843	0.0155620
618.921	0.0156499
618.999	0.0156606
619.078	0.0155341
619.156	0.0156384
619.234	0.0155470
619.312	0.0155497
619.390	0.0154950
619.468	0.0156106
619.546	0.0156222
619.624	0.0156652
619.703	0.0156144
619.781	0.0155117
619.859	0.0155441
619.937	0.0156714
620.015	0.0155005
620.093	0.0155914
620.171	0.0155751
620.249	0.0156241
620.328	0.0155257
620.406	0.0155720
620.484	0.0157691
620.562	0.0156363
620.640	0.0155331
620.718	0.0156673
620.796	0.0155425
620.874	0.0157286
620.953	0.0157291
621.031	0.0156477
621.109	0.0157062
621.187	0.0157148
621.265	0.0154874
621.343	0.0156328
621.421	0.0157428
621.499	0.0156156
621.578	0.0155883
621.656	0.0158688
621.734	0.0155972
621.812	0.0156840
621.890	0.0156002
621.968	0.0157153
622.046	0.0157800
622.124	0.0157728
622.203	0.0156779
622.281	0.0155254
622.359	0.0156013
622.437	0.0156654
622.515	0.0156162
622.593	0.0156103
622.671	0.0154829
622.749	0.0157083
622.828	0.0156401
622.906	0.0156483
622.984	0.0155850
623.062	0.0156493
623.140	0.0158292
623.218	0.0156291
623.296	0.0155112
623.374	0.0155267
623.453	0.0155309
623.531	0.0156355
623.609	0.0156755
623.687	0.0156767
623.765	0.0155727
623.843	0.0156005
623.921	0.0156096
623.999	0.0156107
624.078	0.0155576
624.156	0.0153941
624.234	0.0153891
624.312	0.0155728
624.390	0.0155006
624.468	0.0156853
624.546	0.0156687
624.624	0.0155437
624.703	0.0155822
624.781	0.0155413
624.859	0.0156594
624.937	0.0155727
625.015	0.0155064
625.093	0.0155814
625.171	0.0155504
625.249	0.0155163
625.328	0.0154115
625.406	0.0154860
625.484	0.0156069
625.562	0.0156113
625.640	0.0155226
625.718	0.0155056
625.796	0.0154916
625.874	0.0155187
625.953	0.0155452
626.031	0.0154659
626.109	0.0154053
626.187	0.0155824
626.265	0.0156067
626.343	0.0155286
626.421	0.0154443
626.499	0.0155270
626.578	0.0155566
626.656	0.0155984
626.734	0.0155437
626.812	0.0156371
626.890	0.0154823
626.968	0.0156527
627.046	0.0155244
627.124	0.0154755
627.203	0.0156042
627.281	0.0155373
627.359	0.0154671
627.437	0.0155921
627.515	0.0154939
627.593	0.0154728
627.671	0.0156644
627.749	0.0156480
627.828	0.0154844
627.906	0.0153258
627.984	0.0154516
628.062	0.0155069
628.140	0.0156349
628.218	0.0156350
628.296	0.0155795
628.374	0.0155269
628.453	0.0155736
628.531	0.0155700
628.609	0.0155630
628.687	0.0155562
628.765	0.0157011
628.843	0.0156413
628.921	0.0155611
628.999	0.0154761
629.078	0.0156314
629.156	0.0155743
629.234	0.0156624
629.312	0.0155579
629.390	0.0157224
629.468	0.0156469
629.546	0.0156104
629.624	0.0157264
629.703	0.0156904
629.781	0.0155870
629.859	0.0157487
629.937	0.0157383
630.015	0.0156363
630.093	0.0156925
630.171	0.0156843
630.249	0.0156845
630.328	0.0156172
630.406	0.0155898
630.484	0.0156190
630.562	0.0157246
630.640	0.0156482
630.718	0.0156833
630.796	0.0157289
630.874	0.0156931
630.953	0.0157211
631.031	0.0155767
631.109	0.0157101
631.187	0.0158471
631.265	0.0156602
631.343	0.0156797
631.421	0.0156783
631.499	0.0156052
631.578	0.0156418
631.656	0.0155910
631.734	0.0157248
631.812	0.0157708
631.890	0.0158087
631.968	0.0157877
632.046	0.0155677
632.124	0.0157635
632.203	0.0156948
632.281	0.0156998
632.359	0.0156858
632.437	0.0157391
632.515	0.0156940
632.593	0.0157512
632.671	0.0157906
632.749	0.0156835
632.828	0.0156755
632.906	0.0157426
632.984	0.0156387
633.062	0.0156829
633.140	0.0157234
633.218	0.0157616
633.296	0.0157094
633.374	0.0156921
633.453	0.0156359
633.531	0.0157109
633.609	0.0157195
633.687	0.0155740
633.765	0.0155500
633.843	0.0156955
633.921	0.0157937
633.999	0.0157170
634.078	0.0157018
634.156	0.0157345
634.234	0.0156235
634.312	0.0156026
634.390	0.0156901
634.468	0.0155494
634.546	0.0155609
634.624	0.0156583
634.703	0.0157998
634.781	0.0155398
634.859	0.0156235
634.937	0.0156369
635.015	0.0156812
635.093	0.0156976
635.171	0.0155924
635.249	0.0155683
635.328	0.0156238
635.406	0.0155759
635.484	0.0157178
635.562	0.0156242
635.640	0.0156180
635.718	0.0155784
635.796	0.0157088
635.874	0.0157840
635.953	0.0156878
636.031	0.0157322
636.109	0.0157612
636.187	0.0156383
636.265	0.0156942
636.343	0.0156340
636.421	0.0155267
636.499	0.0156191
636.578	0.0156898
636.656	0.0155904
636.734	0.0156482
636.812	0.0156829
636.890	0.0154964
636.968	0.0156370
637.046	0.0155297
637.124	0.0154099
637.203	0.0157258
637.281	0.0156594
637.359	0.0154894
637.437	0.0156168
637.515	0.0154353
637.593	0.0154991
637.671	0.0154344
637.749	0.0155033
637.828	0.0155360
637.906	0.0154269
637.984	0.0154304
638.062	0.0155711
638.140	0.0154077
638.218	0.0154610
638.296	0.0153232
638.374	0.0152370
638.453	0.0154133
638.531	0.0153062
638.609	0.0154789
638.687	0.0153449
638.765	0.0153258
638.843	0.0153498
638.921	0.0153750
638.999	0.0153107
639.078	0.0154646
639.156	0.0153281
639.234	0.0155450
639.312	0.0154808
639.390	0.0154575
639.468	0.0155936
639.546	0.0156506
639.624	0.0155943
639.703	0.0155519
639.781	0.0155325
639.859	0.0156001
639.937	0.0156179
640.015	0.0154326
640.093	0.0155706
640.171	0.0154102
640.249	0.0154630
640.328	0.0155098
640.406	0.0154804
640.484	0.0153925
640.562	0.0153180
640.640	0.0154137
640.718	0.0152914
640.796	0.0153195
640.874	0.0154044
640.953	0.0152338
641.031	0.0153577
641.109	0.0154121
641.187	0.0154371
641.265	0.0155061
641.343	0.0155149
641.421	0.0154510
641.499	0.0155978
641.578	0.0155455
641.656	0.0153613
641.734	0.0154269
641.812	0.0156313
641.890	0.0154884
641.968	0.0154817
642.046	0.0154921
642.124	0.0156384
642.203	0.0153459
642.281	0.0153912
642.359	0.0154155
642.437	0.0155022
642.515	0.0156713
642.593	0.0155201
642.671	0.0154801
642.749	0.0155530
642.828	0.0154633
642.906	0.0154841
642.984	0.0154400
643.062	0.0155082
643.140	0.0153780
643.218	0.0154881
643.296	0.0155612
643.374	0.0155883
643.453	0.0155519
643.531	0.0155483
643.609	0.0154832
643.687	0.0155280
643.765	0.0156143
643.843	0.0154456
643.921	0.0154729
643.999	0.0156264
644.078	0.0154182
644.156	0.0153460
644.234	0.0155244
644.312	0.0155893
644.390	0.0155686
644.468	0.0156394
644.546	0.0155550
644.624	0.0155201
644.703	0.0157008
644.781	0.0155025
644.859	0.0156610
644.937	0.0158012
645.015	0.0157540
645.093	0.0157053
645.171	0.0156739
645.249	0.0156893
645.328	0.0156859
645.406	0.0156838
645.484	0.0156288
645.562	0.0156284
645.640	0.0156302
645.718	0.0157037
645.796	0.0157570
645.874	0.0156789
645.953	0.0156048
646.031	0.0156390
646.109	0.0156431
646.187	0.0156429
646.265	0.0157863
646.343	0.0157162
646.421	0.0155883
646.499	0.0157239
646.578	0.0156932
646.656	0.0158276
646.734	0.0156396
646.812	0.0156992
646.890	0.0156731
646.968	0.0156763
647.046	0.0157316
647.124	0.0157527
647.203	0.0157477
647.281	0.0156869
647.359	0.0155559
647.437	0.0157642
647.515	0.0156879
647.593	0.0157560
647.671	0.0159151
647.749	0.0156990
647.828	0.0157054
647.906	0.0157120
647.984	0.0156085
648.062	0.0157640
648.140	0.0157509
648.218	0.0156887
648.296	0.0156656
648.374	0.0156276
648.453	0.0157381
648.531	0.0156641
648.609	0.0157924
648.687	0.0156346
648.765	0.0156049
648.843	0.0157170
648.921	0.0156310
648.999	0.0156335
649.078	0.0156318
649.156	0.0156061
649.234	0.0157411
649.312	0.0156846
649.390	0.0155691
649.468	0.0157592
649.546	0.0157173
649.624	0.0156693
649.703	0.0157343
649.781	0.0157175
649.859	0.0157861
649.937	0.0158076
650.015	0.0156663
650.093	0.0157916
650.171	0.0157061
650.249	0.0155193
650.328	0.0156385
650.406	0.0156317
650.484	0.0156123
650.562	0.0155828
650.640	0.0154575
650.718	0.0156691
650.796	0.0156694
650.874	0.0155265
650.953	0.0156688
651.031	0.0157438
651.109	0.0155994
651.187	0.0156950
651.265	0.0156034
651.343	0.0154964
651.421	0.0155633
651.499	0.0157072
651.578	0.0156227
651.656	0.0155473
651.734	0.0155700
651.812	0.0157101
651.890	0.0156606
651.968	0.0157345
652.046	0.0155773
652.124	0.0155111
652.203	0.0155194
652.281	0.0156992
652.359	0.0157623
652.437	0.0156348
652.515	0.0156992
652.593	0.0156084
652.671	0.0157289
652.749	0.0156849
652.828	0.0157204
652.906	0.0156676
652.984	0.0157997
653.062	0.0156110
653.140	0.0155914
653.218	0.0157152
653.296	0.0154472
653.374	0.0156982
653.453	0.0156374
653.531	0.0156448
653.609	0.0156767
653.687	0.0155947
653.765	0.0155332
653.843	0.0155478
653.921	0.0157574
653.999	0.0156885
654.078	0.0154969
654.156	0.0155161
654.234	0.0155704
654.312	0.0155470
654.390	0.0156976
654.468	0.0155867
654.546	0.0155690
654.624	0.0154573
654.703	0.0155901
654.781	0.0156271
654.859	0.0157153
654.937	0.0156121
655.015	0.0155385
655.093	0.0155288
655.171	0.0155839
655.249	0.0156198
655.328	0.0155676
655.406	0.0155837
655.484	0.0155994
655.562	0.0156857
655.640	0.0156093
655.718	0.0154686
655.796	0.0155429
655.874	0.0156125
655.953	0.0155357
656.031	0.0155515
656.109	0.0156348
656.187	0.0156898
656.265	0.0157188
656.343	0.0154888
656.421	0.0156532
656.499	0.0156266
656.578	0.0155025
656.656	0.0155524
656.734	0.0156692
656.812	0.0156641
656.890	0.0156530
656.968	0.0155168
657.046	0.0156412
657.124	0.0156208
657.203	0.0156335
657.281	0.0157488
657.359	0.0157772
657.437	0.0156538
657.515	0.0156109
657.593	0.0155550
657.671	0.0155463
657.749	0.0155256
657.828	0.0155829
657.906	0.0155728
657.984	0.0155700
658.062	0.0157076
658.140	0.0156219
658.218	0.0155740
658.296	0.0155534
658.374	0.0157112
658.453	0.0156347
658.531	0.0156012
658.609	0.0155956
658.687	0.0154806
658.765	0.0156467
658.843	0.0156149
658.921	0.0156591
658.999	0.0156501
659.078	0.0156824
659.156	0.0156824
659.234	0.0156993
659.312	0.0156516
659.390	0.0156054
659.468	0.0155958
659.546	0.0156341
659.624	0.0156438
659.703	0.0156189
659.781	0.0155544
659.859	0.0155735
659.937	0.0156054
660.015	0.0155083
660.093	0.0155320
660.171	0.0155177
660.249	0.0155685
660.328	0.0155632
660.406	0.0156723
660.484	0.0156343
660.562	0.0155905
660.640	0.0155897
660.718	0.0154836
660.796	0.0154941
660.874	0.0157303
660.953	0.0157066
661.031	0.0155293
661.109	0.0156208
661.187	0.0156406
661.265	0.0154615
661.343	0.0156187
661.421	0.0155334
661.499	0.0155849
661.578	0.0155929
661.656	0.0155505
661.734	0.0156176
661.812	0.0155476
661.890	0.0154720
661.968	0.0155489
662.046	0.0155302
662.124	0.0155868
662.203	0.0155334
662.281	0.0154552
662.359	0.0154977
662.437	0.0155481
662.515	0.0154162
662.593	0.0155831
662.671	0.0155590
662.749	0.0154624
662.828	0.0155126
662.906	0.0155152
662.984	0.0154189
663.062	0.0155114
663.140	0.0154476
663.218	0.0154474
663.296	0.0155543
663.374	0.0153752
663.453	0.0154143
663.531	0.0154171
663.609	0.0154459
663.687	0.0153718
663.765	0.0153806
663.843	0.0155296
663.921	0.0154913
663.999	0.0154720
664.078	0.0154663
664.156	0.0154382
664.234	0.0152586
664.312	0.0154253
664.390	0.0154130
664.468	0.0154291
664.546	0.0154895
664.624	0.0154430
664.703	0.0154217
664.781	0.0154642
664.859	0.0153867
664.937	0.0153192
665.015	0.0155550
665.093	0.0154588
665.171	0.0154106
665.249	0.0154993
665.328	0.0154282
665.406	0.0155662
665.484	0.0154925
665.562	0.0153937
665.640	0.0153315
665.718	0.0154224
665.796	0.0154045
665.874	0.0154755
665.953	0.0155180
666.031	0.0154129
666.109	0.0155572
666.187	0.0155546
666.265	0.0155023
666.343	0.0153848
666.421	0.0153539
666.499	0.0154105
666.578	0.0154657
666.656	0.0155247
666.734	0.0153795
666.812	0.0155023
666.890	0.0153200
666.968	0.0153790
667.046	0.0155621
667.124	0.0154575
667.203	0.0154414
667.281	0.0154185
667.359	0.0154002
667.437	0.0154358
667.515	0.0154297
667.593	0.0154860
667.671	0.0154350
667.749	0.0155933
667.828	0.0155235
667.906	0.0156187
667.984	0.0156171
668.062	0.0155533
668.140	0.0155113
668.218	0.0155335
668.296	0.0154092
668.374	0.0154726
668.453	0.0154676
668.531	0.0155349
668.609	0.0155914
668.687	0.0155392
668.765	0.0155273
668.843	0.0155737
668.921	0.0155195
668.999	0.0156069
669.078	0.0155913
669.156	0.0155180
669.234	0.0154272
669.312	0.0155112
669.390	0.0155981
669.468	0.0156369
669.546	0.0155116
669.624	0.0155805
669.703	0.0154326
669.781	0.0154888
669.859	0.0156171
669.937	0.0156021
670.015	0.0154843
670.093	0.0156998
670.171	0.0154991
670.249	0.0155309
670.328	0.0156215
670.406	0.0154850
670.484	0.0155889
670.562	0.0156920
670.640	0.0156267
670.718	0.0155768
670.796	0.0155942
670.874	0.0156528
670.953	0.0156353
671.031	0.0156463
671.109	0.0155215
671.187	0.0155145
671.265	0.0156052
671.343	0.0157812
671.421	0.0156249
671.499	0.0155044
671.578	0.0156036
671.656	0.0157526
671.734	0.0156364
671.812	0.0155981
671.890	0.0156905
671.968	0.0156600
672.046	0.0155428
672.124	0.0155074
672.203	0.0157195
672.281	0.0156341
672.359	0.0156107
672.437	0.0157196
672.515	0.0157223
672.593	0.0156004
672.671	0.0156024
672.749	0.0157978
672.828	0.0157207
672.906	0.0156446
672.984	0.0156050
673.062	0.0156607
673.140	0.0156094
673.218	0.0156117
673.296	0.0156990
673.374	0.0157941
673.453	0.0155698
673.531	0.0155477
673.609	0.0155945
673.687	0.0155736
673.765	0.0156612
673.843	0.0157047
673.921	0.0156228
673.999	0.0156805
674.078	0.0156748
674.156	0.0154541
674.234	0.0156441
674.312	0.0156493
674.390	0.0155035
674.468	0.0156537
674.546	0.0156674
674.624	0.0156790
674.703	0.0154983
674.781	0.0155707
674.859	0.0154333
674.937	0.0157653
675.015	0.0156244
675.093	0.0155374
675.171	0.0154671
675.249	0.0155143
675.328	0.0156348
675.406	0.0157929
675.484	0.0154917
675.562	0.0154799
675.640	0.0155792
675.718	0.0156532
675.796	0.0156882
675.874	0.0154523
675.953	0.0156534
676.031	0.0156675
676.109	0.0157705
676.187	0.0157182
676.265	0.0157117
676.343	0.0157311
676.421	0.0156328
676.499	0.0156269
676.578	0.0157504
676.656	0.0156082
676.734	0.0157471
676.812	0.0157006
676.890	0.0157044
676.968	0.0158299
677.046	0.0157339
677.124	0.0155898
677.203	0.0155549
677.281	0.0155248
677.359	0.0157036
677.437	0.0156208
677.515	0.0156647
677.593	0.0156728
677.671	0.0156268
677.749	0.0156056
677.828	0.0154806
677.906	0.0156353
677.984	0.0156641
678.062	0.0156689
678.140	0.0155570
678.218	0.0155977
678.296	0.0155125
678.374	0.0155510
678.453	0.0156516
678.531	0.0156043
678.609	0.0155154
678.687	0.0155222
678.765	0.0154987
678.843	0.0155495
678.921	0.0156303
678.999	0.0156033
679.078	0.0155353
679.156	0.0154884
679.234	0.0155473
679.312	0.0154911
679.390	0.0156523
679.468	0.0154838
679.546	0.0155849
679.624	0.0154573
679.703	0.0156368
679.781	0.0155098
679.859	0.0155522
679.937	0.0156889
680.015	0.0155916
680.093	0.0155917
680.171	0.0156043
680.249	0.0154903
680.328	0.0155798
680.406	0.0156125
680.484	0.0155486
680.562	0.0155689
680.640	0.0157274
680.718	0.0155355
680.796	0.0154945
680.874	0.0155134
680.953	0.0155053
681.031	0.0156463
681.109	0.0154730
681.187	0.0155322
681.265	0.0154730
681.343	0.0155299
681.421	0.0155197
681.499	0.0156290
681.578	0.0156629
681.656	0.0156229
681.734	0.0156927
681.812	0.0154683
681.890	0.0155199
681.968	0.0154675
682.046	0.0156088
682.124	0.0154935
682.203	0.0155339
682.281	0.0155060
682.359	0.0154960
682.437	0.0155003
682.515	0.0157039
682.593	0.0156731
682.671	0.0155775
682.749	0.0155141
682.828	0.0156141
682.906	0.0156604
682.984	0.0155582
683.062	0.0155173
683.140	0.0154621
683.218	0.0154800
683.296	0.0156541
683.374	0.0156132
683.453	0.0155555
683.531	0.0154795
683.609	0.0154885
683.687	0.0155035
683.765	0.0155248
683.843	0.0156357
683.921	0.0154561
683.999	0.0153930
684.078	0.0155133
684.156	0.0154607
684.234	0.0154871
684.312	0.0155461
684.390	0.0155248
684.468	0.0155158
684.546	0.0154133
684.624	0.0155441
684.703	0.0154463
684.781	0.0153690
684.859	0.0154266
684.937	0.0155462
685.015	0.0154337
685.093	0.0154215
685.171	0.0154495
685.249	0.0154149
685.328	0.0154304
685.406	0.0154340
685.484	0.0155097
685.562	0.0153760
685.640	0.0155255
685.718	0.0154588
685.796	0.0152789
685.874	0.0153468
685.953	0.0154457
686.031	0.0155502
686.109	0.0154191
686.187	0.0153309
686.265	0.0154148
686.343	0.0155021
686.421	0.0153792
686.499	0.0154120
686.578	0.0154260
686.656	0.0154761
686.734	0.0154115
686.812	0.0154529
686.890	0.0154644
686.968	0.0155371
687.046	0.0153540
687.124	0.0154784
687.203	0.0154269
687.281	0.0154939
687.359	0.0155616
687.437	0.0154247
687.515	0.0154244
687.593	0.0154484
687.671	0.0155632
687.749	0.0155800
687.828	0.0153554
687.906	0.0153727
687.984	0.0155488
688.062	0.0155234
688.140	0.0155703
688.218	0.0155038
688.296	0.0155235
688.374	0.0154048
688.453	0.0154313
688.531	0.0155605
688.609	0.0155282
688.687	0.0153925
688.765	0.0153883
688.843	0.0156192
688.921	0.0155624
688.999	0.0155661
689.078	0.0152508
689.156	0.0154813
689.234	0.0154108
689.312	0.0155869
689.390	0.0156217
689.468	0.0156022
689.546	0.0154903
689.624	0.0154726
689.703	0.0155137
689.781	0.0156269
689.859	0.0155826
689.937	0.0155016
690.015	0.0155039
690.093	0.0154108
690.171	0.0155818
690.249	0.0155348
690.328	0.0155306
690.406	0.0153970
690.484	0.0155948
690.562	0.0155881
690.640	0.0155412
690.718	0.0156376
690.796	0.0156021
690.874	0.0156146
690.953	0.0155617
691.031	0.0155470
691.109	0.0154488
691.187	0.0155007
691.265	0.0155299
691.343	0.0155247
691.421	0.0155688
691.499	0.0155311
691.578	0.0155353
691.656	0.0155419
691.734	0.0155148
691.812	0.0155783
691.890	0.0156036
691.968	0.0154769
692.046	0.0154913
692.124	0.0154824
692.203	0.0154288
692.281	0.0156815
692.359	0.0156474
692.437	0.0155886
692.515	0.0155773
692.593	0.0153561
692.671	0.0155151
692.749	0.0155042
692.828	0.0157111
692.906	0.0156238
692.984	0.0154414
693.062	0.0156925
693.140	0.0155604
693.218	0.0155206
693.296	0.0155205
693.374	0.0154585
693.453	0.0154741
693.531	0.0155901
693.609	0.0155599
693.687	0.0156379
693.765	0.0156759
693.843	0.0153975
693.921	0.0155135
693.999	0.0155523
694.078	0.0154124
694.156	0.0154885
694.234	0.0157478
694.312	0.0155962
694.390	0.0155091
694.468	0.0155375
694.546	0.0154749
694.624	0.0154633
694.703	0.0156161
694.781	0.0155931
694.859	0.0156081
694.937	0.0156476
695.015	0.0153930
695.093	0.0155296
695.171	0.0156533
695.249	0.0154028
695.328	0.0154656
695.406	0.0155507
695.484	0.0156093
695.562	0.0155065
695.640	0.0154424
695.718	0.0155392
695.796	0.0155034
695.874	0.0155402
695.953	0.0154668
696.031	0.0154706
696.109	0.0155508
696.187	0.0154955
696.265	0.0154546
696.343	0.0155302
696.421	0.0154353
696.499	0.0156434
696.578	0.0155242
696.656	0.0154768
696.734	0.0156002
696.812	0.0154537
696.890	0.0155093
696.968	0.0155510
697.046	0.0155128
697.124	0.0154864
697.203	0.0155201
697.281	0.0154476
697.359	0.0155200
697.437	0.0155553
697.515	0.0155225
697.593	0.0156237
697.671	0.0155365
697.749	0.0155186
697.828	0.0155632
697.906	0.0154443
697.984	0.0156227
698.062	0.0155857
698.140	0.0154376
698.218	0.0154691
698.296	0.0155643
698.374	0.0156033
698.453	0.0155256
698.531	0.0155528
698.609	0.0157121
698.687	0.0155996
698.765	0.0156036
698.843	0.0155302
698.921	0.0157491
698.999	0.0155942
699.078	0.0155441
699.156	0.0155107
699.234	0.0157162
699.312	0.0156419
699.390	0.0155959
699.468	0.0156045
699.546	0.0155129
699.624	0.0157090
699.703	0.0156821
699.781	0.0156010
699.859	0.0155947
699.937	0.0157612
700.015	0.0158125
700.093	0.0156638
700.171	0.0155843
700.249	0.0156924
700.328	0.0158004
700.406	0.0157097
700.484	0.0156795
700.562	0.0156626
700.640	0.0156009
700.718	0.0156539
700.796	0.0156438
700.874	0.0156055
700.953	0.0156672
701.031	0.0157539
701.109	0.0156188
701.187	0.0154993
701.265	0.0155799
701.343	0.0155670
701.421	0.0157219
701.499	0.0157497
701.578	0.0157195
701.656	0.0155278
701.734	0.0155521
701.812	0.0157368
701.890	0.0156290
701.968	0.0155705
702.046	0.0156496
702.124	0.0156325
702.203	0.0155686
702.281	0.0155679
702.359	0.0156767
702.437	0.0155863
702.515	0.0156503
702.593	0.0155642
702.671	0.0155711
702.749	0.0157483
702.828	0.0157253
702.906	0.0156713
702.984	0.0155071
703.062	0.0155993
703.140	0.0157079
703.218	0.0155254
703.296	0.0157190
703.374	0.0155885
703.453	0.0156219
703.531	0.0156104
703.609	0.0156635
703.687	0.0157093
703.765	0.0157205
703.843	0.0156313
703.921	0.0156566
703.999	0.0156741
704.078	0.0156361
704.156	0.0156484
704.234	0.0155595
704.312	0.0155529
704.390	0.0156706
704.468	0.0154869
704.546	0.0156396
704.624	0.0156541
704.703	0.0155424
704.781	0.0156975
704.859	0.0155544
704.937	0.0155519
705.015	0.0155438
705.093	0.0157461
705.171	0.0157327
705.249	0.0156129
705.328	0.0154841
705.406	0.0155366
705.484	0.0157435
705.562	0.0154908
705.640	0.0155997
705.718	0.0155939
705.796	0.0156451
705.874	0.0155858
705.953	0.0156310
706.031	0.0155046
706.109	0.0156190
706.187	0.0159119
706.265	0.0155775
706.343	0.0156377
706.421	0.0154146
706.499	0.0155582
706.578	0.0156949
706.656	0.0156232
706.734	0.0156076
706.812	0.0155791
706.890	0.0155568
706.968	0.0155869
707.046	0.0156643
707.124	0.0155943
707.203	0.0155638
707.281	0.0156412
707.359	0.0155902
707.437	0.0156628
707.515	0.0155995
707.593	0.0156139
707.671	0.0156992
707.749	0.0155244
707.828	0.0155489
707.906	0.0156341
707.984	0.0156186
708.062	0.0156088
708.140	0.0155256
708.218	0.0156509
708.296	0.0155574
708.374	0.0155447
708.453	0.0156871
708.531	0.0155396
708.609	0.0154474
708.687	0.0155319
708.765	0.0157047
708.843	0.0156070
708.921	0.0156617
708.999	0.0155712
709.078	0.0157446
709.156	0.0156869
709.234	0.0154796
709.312	0.0155833
709.390	0.0155777
709.468	0.0156741
709.546	0.0155472
709.624	0.0155055
709.703	0.0156424
709.781	0.0155378
709.859	0.0155247
709.937	0.0156413
710.015	0.0155640
710.093	0.0156428
710.171	0.0156245
710.249	0.0155156
710.328	0.0154959
710.406	0.0156336
710.484	0.0155896
710.562	0.0156589
710.640	0.0154891
710.718	0.0154102
710.796	0.0154455
710.874	0.0156782
710.953	0.0155556
711.031	0.0154448
711.109	0.0155158
711.187	0.0155604
711.265	0.0156447
711.343	0.0154087
711.421	0.0155845
711.499	0.0154063
711.578	0.0155032
711.656	0.0155904
711.734	0.0154900
711.812	0.0156441
711.890	0.0155547
711.968	0.0155285
712.046	0.0155211
712.124	0.0153886
712.203	0.0155038
712.281	0.0155428
712.359	0.0155714
712.437	0.0155618
712.515	0.0155418
712.593	0.0154203
712.671	0.0155428
712.749	0.0156557
712.828	0.0155378
712.906	0.0155611
712.984	0.0153465
713.062	0.0155013
713.140	0.0154955
713.218	0.0153989
713.296	0.0155355
713.374	0.0155483
713.453	0.0155380
713.531	0.0155370
713.609	0.0155555
713.687	0.0154857
713.765	0.0154015
713.843	0.0155341
713.921	0.0155044
713.999	0.0155112
714.078	0.0154247
714.156	0.0155240
714.234	0.0154881
714.312	0.0154250
714.390	0.0154666
714.468	0.0154951
714.546	0.0155135
714.624	0.0156844
714.703	0.0154539
714.781	0.0154082
714.859	0.0155043
714.937	0.0155212
715.015	0.0154851
715.093	0.0154322
715.171	0.0156068
715.249	0.0155617
715.328	0.0155041
715.406	0.0154887
715.484	0.0154927
715.562	0.0155782
715.640	0.0155318
715.718	0.0156471
715.796	0.0155032
715.874	0.0154090
715.953	0.0156618
716.031	0.0156460
716.109	0.0154211
716.187	0.0155427
716.265	0.0155993
716.343	0.0155371
716.421	0.0154968
716.499	0.0156627
716.578	0.0154894
716.656	0.0155357
716.734	0.0155115
716.812	0.0156930
716.890	0.0154831
716.968	0.0156210
717.046	0.0157913
717.124	0.0155141
717.203	0.0154914
717.281	0.0156650
717.359	0.0155685
717.437	0.0154578
717.515	0.0155521
717.593	0.0154777
717.671	0.0155776
717.749	0.0156521
717.828	0.0155969
717.906	0.0157104
717.984	0.0155847
718.062	0.0155975
718.140	0.0156252
718.218	0.0155078
718.296	0.0156667
718.374	0.0155840
718.453	0.0155827
718.531	0.0155731
718.609	0.0156287
718.687	0.0155842
718.765	0.0155433
718.843	0.0156046
718.921	0.0155614
718.999	0.0154838
719.078	0.0155425
719.156	0.0157263
719.234	0.0156328
719.312	0.0155453
719.390	0.0156326
719.468	0.0156550
719.546	0.0156731
719.624	0.0155466
719.703	0.0155425
719.781	0.0155501
719.859	0.0155863
719.937	0.0156668
720.015	0.0155000
720.093	0.0156385
720.171	0.0155605
720.249	0.0156371
720.328	0.0157345
720.406	0.0156871
720.484	0.0156285
720.562	0.0156516
720.640	0.0156526
720.718	0.0156820
720.796	0.0156509
720.874	0.0156592
720.953	0.0156637
721.031	0.0155538
721.109	0.0157352
721.187	0.0156131
721.265	0.0156020
721.343	0.0156808
721.421	0.0157269
721.499	0.0157034
721.578	0.0156438
721.656	0.0156641
721.734	0.0155760
721.812	0.0157277
721.890	0.0155320
721.968	0.0155601
722.046	0.0157135
722.124	0.0155960
722.203	0.0157394
722.281	0.0156556
722.359	0.0158459
722.437	0.0158079
722.515	0.0156755
722.593	0.0156187
722.671	0.0155735
722.749	0.0157616
722.828	0.0155894
722.906	0.0156982
722.984	0.0156851
723.062	0.0157852
723.140	0.0157908
723.218	0.0155911
723.296	0.0157816
723.374	0.0156319
723.453	0.0155764
723.531	0.0156496
723.609	0.0156690
723.687	0.0156974
723.765	0.0156728
723.843	0.0157181
723.921	0.0156627
723.999	0.0157967
724.078	0.0157626
724.156	0.0156929
724.234	0.0156519
724.312	0.0156037
724.390	0.0156703
724.468	0.0156566
724.546	0.0155134
724.624	0.0157586
724.703	0.0156983
724.781	0.0156440
724.859	0.0157328
724.937	0.0156504
725.015	0.0157244
725.093	0.0155547
725.171	0.0155659
725.249	0.0156925
725.328	0.0156956
725.406	0.0157043
725.484	0.0156097
725.562	0.0157401
725.640	0.0155190
725.718	0.0156888
725.796	0.0155663
725.874	0.0155669
725.953	0.0156525
726.031	0.0155721
726.109	0.0156066
726.187	0.0157048
726.265	0.0157095
726.343	0.0156831
726.421	0.0155808
726.499	0.0156153
726.578	0.0156844
726.656	0.0156579
726.734	0.0156738
726.812	0.0156178
726.890	0.0156889
726.968	0.0156981
727.046	0.0157323
727.124	0.0156233
727.203	0.0156815
727.281	0.0156738
727.359	0.0156210
727.437	0.0156013
727.515	0.0156075
727.593	0.0155416
727.671	0.0156061
727.749	0.0155669
727.828	0.0156736
727.906	0.0156447
727.984	0.0156043
728.062	0.0156406
728.140	0.0157334
728.218	0.0156167
728.296	0.0156153
728.374	0.0156287
728.453	0.0156298
728.531	0.0155151
728.609	0.0156183
728.687	0.0156592
728.765	0.0156437
728.843	0.0156018
728.921	0.0156437
728.999	0.0156374
729.078	0.0156360
729.156	0.0156014
729.234	0.0155800
729.312	0.0155137
729.390	0.0157066
729.468	0.0157019
729.546	0.0155334
729.624	0.0155485
729.703	0.0155133
729.781	0.0156674
729.859	0.0157178
729.937	0.0155807
730.015	0.0155688
730.093	0.0155325
730.171	0.0156886
730.249	0.0157063
730.328	0.0157233
730.406	0.0158206
730.484	0.0157122
730.562	0.0157617
730.640	0.0156859
730.718	0.0157539
730.796	0.0156411
730.874	0.0155572
730.953	0.0155364
731.031	0.0156124
731.109	0.0157119
731.187	0.0155717
731.265	0.0155544
731.343	0.0156666
731.421	0.0156188
731.499	0.0155703
731.578	0.0156850
731.656	0.0156548
731.734	0.0156070
731.812	0.0155962
731.890	0.0156025
731.968	0.0155335
732.046	0.0155859
732.124	0.0156283
732.203	0.0156089
732.281	0.0156398
732.359	0.0156206
732.437	0.0157319
732.515	0.0154638
732.593	0.0156100
732.671	0.0155982
732.749	0.0154742
732.828	0.0155759
732.906	0.0155954
732.984	0.0153165
733.062	0.0155478
733.140	0.0154527
733.218	0.0155136
733.296	0.0155572
733.374	0.0154684
733.453	0.0153592
733.531	0.0156239
733.609	0.0155378
733.687	0.0154683
733.765	0.0155660
733.843	0.0155750
733.921	0.0153967
733.999	0.0156467
734.078	0.0156422
734.156	0.0156848
734.234	0.0156037
734.312	0.0154291
734.390	0.0155651
734.468	0.0156666
734.546	0.0157014
734.624	0.0156204
734.703	0.0155699
734.781	0.0157259
734.859	0.0154974
734.937	0.0155479
735.015	0.0154495
735.093	0.0155795
735.171	0.0156778
735.249	0.0156433
735.328	0.0154585
735.406	0.0156294
735.484	0.0155427
735.562	0.0155209
735.640	0.0154832
735.718	0.0153766
735.796	0.0155374
735.874	0.0154502
735.953	0.0154385
736.031	0.0155162
736.109	0.0154501
736.187	0.0154713
736.265	0.0154754
736.343	0.0155413
736.421	0.0155641
736.499	0.0155489
736.578	0.0156027
736.656	0.0154050
736.734	0.0156193
736.812	0.0154114
736.890	0.0155155
736.968	0.0155592
737.046	0.0155232
737.124	0.0155089
737.203	0.0155405
737.281	0.0155499
737.359	0.0154956
737.437	0.0155863
737.515	0.0155846
737.593	0.0155470
737.671	0.0155940
737.749	0.0155640
737.828	0.0155191
737.906	0.0155762
737.984	0.0156030
738.062	0.0155449
738.140	0.0155739
738.218	0.0155888
738.296	0.0153728
738.374	0.0155270
738.453	0.0154700
738.531	0.0155170
738.609	0.0154130
738.687	0.0154285
738.765	0.0155205
738.843	0.0155252
738.921	0.0155314
738.999	0.0154977
739.078	0.0155888
739.156	0.0155656
739.234	0.0153351
739.312	0.0154207
739.390	0.0155502
739.468	0.0155173
739.546	0.0155719
739.624	0.0154152
739.703	0.0154707
739.781	0.0154334
739.859	0.0154823
739.937	0.0156165
740.015	0.0155653
740.093	0.0155162
740.171	0.0155777
740.249	0.0156472
740.328	0.0155152
740.406	0.0154151
740.484	0.0155911
740.562	0.0155402
740.640	0.0155981
740.718	0.0156164
740.796	0.0154111
740.874	0.0154841
740.953	0.0155846
741.031	0.0154987
741.109	0.0154435
741.187	0.0153592
741.265	0.0153838
741.343	0.0154487
741.421	0.0154997
741.499	0.0154763
741.578	0.0155286
741.656	0.0155700
741.734	0.0154285
741.812	0.0153934
741.890	0.0154794
741.968	0.0154482
742.046	0.0154848
742.124	0.0155334
742.203	0.0155734
742.281	0.0155771
742.359	0.0156052
742.437	0.0156181
742.515	0.0155206
742.593	0.0155054
742.671	0.0156556
742.749	0.0155796
742.828	0.0156515
742.906	0.0156601
742.984	0.0154579
743.062	0.0153961
743.140	0.0153900
743.218	0.0153880
743.296	0.0154051
743.374	0.0155392
743.453	0.0154701
743.531	0.0154829
743.609	0.0155212
743.687	0.0154217
743.765	0.0155038
743.843	0.0154819
743.921	0.0154195
743.999	0.0154958
744.078	0.0154755
744.156	0.0155511
744.234	0.0156873
744.312	0.0155869
744.390	0.0155014
744.468	0.0155625
744.546	0.0156248
744.624	0.0155260
744.703	0.0154273
744.781	0.0155831
744.859	0.0156313
744.937	0.0155267
745.015	0.0154666
745.093	0.0155296
745.171	0.0155503
745.249	0.0155748
745.328	0.0156071
745.406	0.0155850
745.484	0.0154913
745.562	0.0154304
745.640	0.0156105
745.718	0.0156023
745.796	0.0155418
745.874	0.0155660
745.953	0.0155495
746.031	0.0155947
746.109	0.0155552
746.187	0.0154782
746.265	0.0155832
746.343	0.0154797
746.421	0.0155456
746.499	0.0155634
746.578	0.0154049
746.656	0.0156000
746.734	0.0156150
746.812	0.0156235
746.890	0.0155766
746.968	0.0154981
747.046	0.0156981
747.124	0.0156424
747.203	0.0156144
747.281	0.0154915
747.359	0.0156498
747.437	0.0156547
747.515	0.0156806
747.593	0.0156339
747.671	0.0157247
747.749	0.0158226
747.828	0.0158419
747.906	0.0157631
747.984	0.0158806
748.062	0.0156945
748.140	0.0156202
748.218	0.0157648
748.296	0.0156733
748.374	0.0156792
748.453	0.0156811
748.531	0.0156770
748.609	0.0156071
748.687	0.0156133
748.765	0.0154660
748.843	0.0155747
748.921	0.0155225
748.999	0.0156192
749.078	0.0155789
749.156	0.0156184
749.234	0.0155819
749.312	0.0156119
749.390	0.0156438
749.468	0.0156643
749.546	0.0156527
749.624	0.0156364
749.703	0.0156578
749.781	0.0155970
749.859	0.0155442
749.937	0.0156365
750.015	0.0156396
750.093	0.0156473
750.171	0.0157377
750.249	0.0155970
750.328	0.0156322
750.406	0.0156924
750.484	0.0155682
750.562	0.0155546
750.640	0.0155350
750.718	0.0157957
750.796	0.0156371
750.874	0.0156409
750.953	0.0155161
751.031	0.0156384
751.109	0.0156302
751.187	0.0154257
751.265	0.0155414
751.343	0.0155921
751.421	0.0155296
751.499	0.0155037
751.578	0.0154501
751.656	0.0154924
751.734	0.0154012
751.812	0.0154302
751.890	0.0155089
751.968	0.0154034
752.046	0.0155333
752.124	0.0154944
752.203	0.0155762
752.281	0.0154873
752.359	0.0155799
752.437	0.0155130
752.515	0.0155799
752.593	0.0156797
752.671	0.0155716
752.749	0.0154754
752.828	0.0157631
752.906	0.0156055
752.984	0.0156498
753.062	0.0156879
753.140	0.0156830
753.218	0.0156319
753.296	0.0157179
753.374	0.0156596
753.453	0.0156787
753.531	0.0156837
753.609	0.0156754
753.687	0.0157497
753.765	0.0156862
753.843	0.0156598
753.921	0.0156407
753.999	0.0156180
754.078	0.0156013
754.156	0.0157492
754.234	0.0156620
754.312	0.0156545
754.390	0.0155792
754.468	0.0156045
754.546	0.0157852
754.624	0.0156021
754.703	0.0156101
754.781	0.0155807
754.859	0.0154601
754.937	0.0156310
755.015	0.0156104
755.093	0.0156683
755.171	0.0156658
755.249	0.0156855
755.328	0.0155428
755.406	0.0155888
755.484	0.0155517
755.562	0.0155268
755.640	0.0156396
755.718	0.0157014
755.796	0.0156083
755.874	0.0156904
755.953	0.0155462
756.031	0.0155200
756.109	0.0155827
756.187	0.0154666
756.265	0.0154882
756.343	0.0155649
756.421	0.0154183
756.499	0.0154387
756.578	0.0154213
756.656	0.0154707
756.734	0.0155118
756.812	0.0154738
756.890	0.0156172
756.968	0.0156110
757.046	0.0156022
757.124	0.0155429
757.203	0.0156176
757.281	0.0156918
757.359	0.0158163
757.437	0.0155859
757.515	0.0155512
757.593	0.0156943
757.671	0.0157468
757.749	0.0156602
757.828	0.0156199
757.906	0.0155367
757.984	0.0156882
758.062	0.0156864
758.140	0.0157403
758.218	0.0157346
758.296	0.0156627
758.374	0.0155902
758.453	0.0158090
758.531	0.0156033
758.609	0.0156002
758.687	0.0157282
758.765	0.0156505
758.843	0.0155711
758.921	0.0155280
758.999	0.0154557
759.078	0.0154041
759.156	0.0154427
759.234	0.0155009
759.312	0.0154031
759.390	0.0154321
759.468	0.0153245
759.546	0.0153219
759.624	0.0154409
759.703	0.0154718
759.781	0.0154041
759.859	0.0153967
759.937	0.0154540
760.015	0.0156534
760.093	0.0156445
760.171	0.0155689
760.249	0.0156568
760.328	0.0156872
760.406	0.0156298
760.484	0.0157205
760.562	0.0157037
760.640	0.0157098
760.718	0.0156594
760.796	0.0157265
760.874	0.0157734
760.953	0.0157330
761.031	0.0156297
761.109	0.0156999
761.187	0.0156911
761.265	0.0154758
761.343	0.0154257
761.421	0.0154184
761.499	0.0154836
761.578	0.0154100
761.656	0.0154703
761.734	0.0155296
761.812	0.0155904
761.890	0.0155113
761.968	0.0154319
762.046	0.0154733
762.124	0.0153794
762.203	0.0155025
762.281	0.0155948
762.359	0.0155247
762.437	0.0154105
762.515	0.0155108
762.593	0.0155182
762.671	0.0154374
762.749	0.0154947
762.828	0.0154305
762.906	0.0153512
762.984	0.0154708
763.062	0.0154773
763.140	0.0156372
763.218	0.0154469
763.296	0.0154211
763.374	0.0156916
763.453	0.0154788
763.531	0.0154429
763.609	0.0155686
763.687	0.0154851
763.765	0.0153966
763.843	0.0154998
763.921	0.0154126
763.999	0.0154742
764.078	0.0155341
764.156	0.0154823
764.234	0.0153794
764.312	0.0155467
764.390	0.0154441
764.468	0.0154404
764.546	0.0153932
764.624	0.0154800
764.703	0.0154182
764.781	0.0154971
764.859	0.0155417
764.937	0.0155702
765.015	0.0154842
765.093	0.0157153
765.171	0.0156679
765.249	0.0155826
765.328	0.0155888
765.406	0.0156133
765.484	0.0158474
765.562	0.0158270
765.640	0.0157906
765.718	0.0157586
765.796	0.0158775
765.874	0.0156910
765.953	0.0155388
766.031	0.0157294
766.109	0.0155229
766.187	0.0155882
766.265	0.0155203
766.343	0.0155396
766.421	0.0155499
766.499	0.0156255
766.578	0.0155590
766.656	0.0154374
766.734	0.0155553
766.812	0.0156210
766.890	0.0157072
766.968	0.0156554
767.046	0.0155765
767.124	0.0155270
767.203	0.0156937
767.281	0.0156505
767.359	0.0154825
767.437	0.0155077
767.515	0.0154462
767.593	0.0153161
767.671	0.0153249
767.749	0.0154218
767.828	0.0152047
767.906	0.0153580
767.984	0.0153849
768.062	0.0153053
768.140	0.0153467
768.218	0.0152166
768.296	0.0154009
768.374	0.0154788
768.453	0.0153143
768.531	0.0153833
768.609	0.0153366
768.687	0.0154904
768.765	0.0153988
768.843	0.0155459
768.921	0.0154268
768.999	0.0156122
769.078	0.0156473
769.156	0.0156721
769.234	0.0157565
769.312	0.0157409
769.390	0.0157484
769.468	0.0158128
769.546	0.0158510
769.624	0.0158141
769.703	0.0157497
769.781	0.0157207
769.859	0.0158264
769.937	0.0157745
770.015	0.0156699
770.093	0.0157560
770.171	0.0157940
770.249	0.0157243
770.328	0.0157143
770.406	0.0158950
770.484	0.0157261
770.562	0.0155537
770.640	0.0156320
770.718	0.0155408
770.796	0.0156313
770.874	0.0155997
770.953	0.0154056
771.031	0.0153635
771.109	0.0153665
771.187	0.0152879
771.265	0.0153596
771.343	0.0152294
771.421	0.0153453
771.499	0.0153135
771.578	0.0153380
771.656	0.0152173
771.734	0.0153457
771.812	0.0154580
771.890	0.0153235
771.968	0.0152913
772.046	0.0153501
772.124	0.0153806
772.203	0.0154594
772.281	0.0154552
772.359	0.0155094
772.437	0.0154243
772.515	0.0155765
772.593	0.0155350
772.671	0.0155715
772.749	0.0154565
772.828	0.0154793
772.906	0.0154913
772.984	0.0156411
773.062	0.0155462
773.140	0.0154629
773.218	0.0155305
773.296	0.0154603
773.374	0.0156239
773.453	0.0155043
773.531	0.0154510
773.609	0.0155820
773.687	0.0156841
773.765	0.0156537
773.843	0.0156165
773.921	0.0155084
773.999	0.0154884
774.078	0.0156699
774.156	0.0156093
774.234	0.0157372
774.312	0.0154964
774.390	0.0156419
774.468	0.0155581
774.546	0.0159086
774.624	0.0159029
774.703	0.0157124
774.781	0.0156832
774.859	0.0158438
774.937	0.0159117
775.015	0.0157558
775.093	0.0156844
775.171	0.0157423
775.249	0.0156830
775.328	0.0156519
775.406	0.0155943
775.484	0.0156131
775.562	0.0157368
775.640	0.0157398
775.718	0.0157146
775.796	0.0156682
775.874	0.0158260
775.953	0.0157316
776.031	0.0157762
776.109	0.0157600
776.187	0.0158197
776.265	0.0157027
776.343	0.0157014
776.421	0.0157662
776.499	0.0158109
776.578	0.0157486
776.656	0.0156161
776.734	0.0155846
776.812	0.0154623
776.890	0.0154758
776.968	0.0154147
777.046	0.0155137
777.124	0.0153535
777.203	0.0155486
777.281	0.0153702
777.359	0.0155237
777.437	0.0155744
777.515	0.0155573
777.593	0.0156313
777.671	0.0155316
777.749	0.0155661
777.828	0.0156760
777.906	0.0158033
777.984	0.0156477
778.062	0.0157747
778.140	0.0158300
778.218	0.0157899
778.296	0.0159014
778.374	0.0158618
778.453	0.0157625
778.531	0.0157380
778.609	0.0157940
778.687	0.0157588
778.765	0.0159515
778.843	0.0158786
778.921	0.0159780
778.999	0.0157193
779.078	0.0157088
779.156	0.0159180
779.234	0.0158758
779.312	0.0158508
779.390	0.0160235
779.468	0.0158500
779.546	0.0157057
779.624	0.0157676
779.703	0.0156616
779.781	0.0155617
779.859	0.0157362
779.937	0.0157584
780.015	0.0155326
780.093	0.0154895
780.171	0.0154771
780.249	0.0155054
780.328	0.0154363
780.406	0.0155660
780.484	0.0154237
780.562	0.0153917
780.640	0.0155170
780.718	0.0154066
780.796	0.0153350
780.874	0.0153720
780.953	0.0154838
781.031	0.0154301
781.109	0.0154147
781.187	0.0153716
781.265	0.0154486
781.343	0.0154341
781.421	0.0154224
781.499	0.0155218
781.578	0.0155576
781.656	0.0155901
781.734	0.0156551
781.812	0.0155647
781.890	0.0157690
781.968	0.0156650
782.046	0.0157112
782.124	0.0157295
782.203	0.0157383
782.281	0.0155734
782.359	0.0156252
782.437	0.0157479
782.515	0.0156010
782.593	0.0153981
782.671	0.0155495
782.749	0.0156102
782.828	0.0156233
782.906	0.0154020
782.984	0.0155678
783.062	0.0156096
783.140	0.0155058
783.218	0.0155470
783.296	0.0155180
783.374	0.0155535
783.453	0.0156872
783.531	0.0158543
783.609	0.0157697
783.687	0.0158430
783.765	0.0157294
783.843	0.0157986
783.921	0.0159529
783.999	0.0158108
784.078	0.0158926
784.156	0.0158189
784.234	0.0157870
784.312	0.0159461
784.390	0.0157729
784.468	0.0158816
784.546	0.0159313
784.624	0.0157779
784.703	0.0157188
784.781	0.0156959
784.859	0.0157683
784.937	0.0156905
785.015	0.0156628
785.093	0.0156329
785.171	0.0154074
785.249	0.0154124
785.328	0.0153914
785.406	0.0155640
785.484	0.0154337
785.562	0.0153323
785.640	0.0152020
785.718	0.0153772
785.796	0.0151933
785.874	0.0151041
785.953	0.0151460
786.031	0.0151434
786.109	0.0151513
786.187	0.0151744
786.265	0.0153255
786.343	0.0153131
786.421	0.0153546
786.499	0.0152744
786.578	0.0153732
786.656	0.0153967
786.734	0.0153087
786.812	0.0154591
786.890	0.0156504
786.968	0.0156566
787.046	0.0156378
787.124	0.0156927
787.203	0.0156983
787.281	0.0158748
787.359	0.0158385
787.437	0.0160152
787.515	0.0159653
787.593	0.0162241
787.671	0.0160930
787.749	0.0161305
787.828	0.0160480
787.906	0.0160815
787.984	0.0161960
788.062	0.0160976
788.140	0.0162733
788.218	0.0162106
788.296	0.0160659
788.374	0.0161564
788.453	0.0160449
788.531	0.0159205
788.609	0.0159538
788.687	0.0159401
788.765	0.0157837
788.843	0.0156542
788.921	0.0155697
788.999	0.0155782
789.078	0.0155508
789.156	0.0153443
789.234	0.0151414
789.312	0.0152379
789.390	0.0151077
789.468	0.0151418
789.546	0.0150221
789.624	0.0151027
789.703	0.0152511
789.781	0.0151538
789.859	0.0150550
789.937	0.0152537
790.015	0.0151944
790.093	0.0152338
790.171	0.0152457
790.249	0.0152767
790.328	0.0152692
790.406	0.0154113
790.484	0.0152876
790.562	0.0153968
790.640	0.0152955
790.718	0.0153989
790.796	0.0153780
790.874	0.0154651
790.953	0.0154747
791.031	0.0154519
791.109	0.0156222
791.187	0.0155771
791.265	0.0155009
791.343	0.0156326
791.421	0.0156763
791.499	0.0156352
791.578	0.0156458
791.656	0.0156669
791.734	0.0158562
791.812	0.0157565
791.890	0.0157961
791.968	0.0156641
792.046	0.0157571
792.124	0.0157623
792.203	0.0158225
792.281	0.0157366
792.359	0.0157936
792.437	0.0158240
792.515	0.0157891
792.593	0.0158743
792.671	0.0158694
792.749	0.0158490
792.828	0.0157861
792.906	0.0156435
792.984	0.0157944
793.062	0.0157793
793.140	0.0156494
793.218	0.0155885
793.296	0.0154256
793.374	0.0154510
793.453	0.0154869
793.531	0.0154633
793.609	0.0152901
793.687	0.0153183
793.765	0.0152903
793.843	0.0151474
793.921	0.0150802
793.999	0.0151789
794.078	0.0152000
794.156	0.0150907
794.234	0.0152017
794.312	0.0151727
794.390	0.0150972
794.468	0.0152986
794.546	0.0151843
794.624	0.0151834
794.703	0.0154585
794.781	0.0153560
794.859	0.0154821
794.937	0.0155665
795.015	0.0154899
795.093	0.0155724
795.171	0.0155936
795.249	0.0156578
795.328	0.0157148
795.406	0.0158420
795.484	0.0157980
795.562	0.0159225
795.640	0.0157537
795.718	0.0158590
795.796	0.0157654
795.874	0.0156778
795.953	0.0157337
796.031	0.0157972
796.109	0.0157418
796.187	0.0156790
796.265	0.0156912
796.343	0.0158324
796.421	0.0158867
796.499	0.0157784
796.578	0.0158514
796.656	0.0158356
796.734	0.0158833
796.812	0.0157233
796.890	0.0157845
796.968	0.0157693
797.046	0.0156867
797.124	0.0157133
797.203	0.0156607
797.281	0.0157589
797.359	0.0157430
797.437	0.0155196
797.515	0.0154166
797.593	0.0155556
797.671	0.0154164
797.749	0.0153581
797.828	0.0153564
797.906	0.0152716
797.984	0.0152984
798.062	0.0154062
798.140	0.0152470
798.218	0.0153703
798.296	0.0153170
798.374	0.0151445
798.453	0.0152727
798.531	0.0154449
798.609	0.0153973
798.687	0.0153067
798.765	0.0154568
798.843	0.0154066
798.921	0.0155283
798.999	0.0153436
799.078	0.0154530
799.156	0.0155373
799.234	0.0153820
799.312	0.0153134
799.390	0.0154404
799.468	0.0154295
799.546	0.0153719
799.624	0.0155845
799.703	0.0155118
799.781	0.0156728
799.859	0.0157805
799.937	0.0156945
800.015	0.0156530
800.093	0.0158634
800.171	0.0159074
800.249	0.0159795
800.328	0.0159954
800.406	0.0159145
800.484	0.0158630
800.562	0.0159974
800.640	0.0158636
800.718	0.0159034
800.796	0.0159193
800.874	0.0159217
800.953	0.0159103
801.031	0.0158892
801.109	0.0158484
801.187	0.0157703
801.265	0.0158427
801.343	0.0159315
801.421	0.0157160
801.499	0.0157882
801.578	0.0155206
801.656	0.0154085
801.734	0.0156270
801.812	0.0154942
801.890	0.0153862
801.968	0.0154423
802.046	0.0152821
802.124	0.0152853
802.203	0.0153439
802.281	0.0150721
802.359	0.0153221
802.437	0.0153874
802.515	0.0152965
802.593	0.0151893
802.671	0.0152647
802.749	0.0153385
802.828	0.0154095
802.906	0.0154641
802.984	0.0154063
803.062	0.0155577
803.140	0.0154556
803.218	0.0155132
803.296	0.0156565
803.374	0.0156827
803.453	0.0156374
803.531	0.0156586
803.609	0.0157878
803.687	0.0158515
803.765	0.0158666
803.843	0.0159547
803.921	0.0158822
803.999	0.0158099
804.078	0.0159301
804.156	0.0159801
804.234	0.0158234
804.312	0.0157597
804.390	0.0157215
804.468	0.0157973
804.546	0.0157522
804.624	0.0156450
804.703	0.0156795
804.781	0.0155553
804.859	0.0156207
804.937	0.0157665
805.015	0.0156917
805.093	0.0158064
805.171	0.0157128
805.249	0.0157768
805.328	0.0158562
805.406	0.0158390
805.484	0.0158858
805.562	0.0158102
805.640	0.0156943
805.718	0.0156559
805.796	0.0156792
805.874	0.0156942
805.953	0.0158274
806.031	0.0154998
806.109	0.0156188
806.187	0.0156273
806.265	0.0154939
806.343	0.0155173
806.421	0.0155087
806.499	0.0154056
806.578	0.0153337
806.656	0.0155203
806.734	0.0154591
806.812	0.0153384
806.890	0.0152865
806.968	0.0152171
807.046	0.0155084
807.124	0.0153159
807.203	0.0152558
807.281	0.0152478
807.359	0.0153352
807.437	0.0152394
807.515	0.0154300
807.593	0.0154630
807.671	0.0154501
807.749	0.0154385
807.828	0.0154474
807.906	0.0155704
807.984	0.0155518
808.062	0.0155936
808.140	0.0157851
808.218	0.0158324
808.296	0.0157633
808.374	0.0158899
808.453	0.0159105
808.531	0.0160155
808.609	0.0159860
808.687	0.0159694
808.765	0.0159280
808.843	0.0159696
808.921	0.0160123
808.999	0.0160511
809.078	0.0158280
809.156	0.0158572
809.234	0.0158424
809.312	0.0159144
809.390	0.0158961
809.468	0.0157442
809.546	0.0156696
809.624	0.0155570
809.703	0.0155529
809.781	0.0154284
809.859	0.0153026
809.937	0.0153307
810.015	0.0153596
810.093	0.0153127
810.171	0.0152609
810.249	0.0151313
810.328	0.0150923
810.406	0.0151100
810.484	0.0150858
810.562	0.0150996
810.640	0.0152077
810.718	0.0152829
810.796	0.0152458
810.874	0.0152766
810.953	0.0152107
811.031	0.0152361
811.109	0.0154302
811.187	0.0155634
811.265	0.0156067
811.343	0.0156081
811.421	0.0156654
811.499	0.0157529
811.578	0.0156671
811.656	0.0157632
811.734	0.0156884
811.812	0.0158234
811.890	0.0159961
811.968	0.0157873
812.046	0.0158107
812.124	0.0158617
812.203	0.0159344
812.281	0.0158371
812.359	0.0157384
812.437	0.0157593
812.515	0.0158252
812.593	0.0157304
812.671	0.0155811
812.749	0.0156821
812.828	0.0155579
812.906	0.0154881
812.984	0.0154106
813.062	0.0155798
813.140	0.0156321
813.218	0.0155076
813.296	0.0155119
813.374	0.0154415
813.453	0.0156059
813.531	0.0154874
813.609	0.0155021
813.687	0.0155917
813.765	0.0156534
813.843	0.0155057
813.921	0.0155665
813.999	0.0155504
814.078	0.0156773
814.156	0.0154385
814.234	0.0155883
814.312	0.0154012
814.390	0.0153951
814.468	0.0154521
814.546	0.0154797
814.624	0.0153646
814.703	0.0153436
814.781	0.0152655
814.859	0.0153085
814.937	0.0152628
815.015	0.0153536
815.093	0.0153185
815.171	0.0153304
815.249	0.0154332
815.328	0.0153620
815.406	0.0153689
815.484	0.0154900
815.562	0.0154961
815.640	0.0155766
815.718	0.0155038
815.796	0.0155743
815.874	0.0156487
815.953	0.0157009
816.031	0.0155893
816.109	0.0155873
816.187	0.0155920
816.265	0.0156955
816.343	0.0155433
816.421	0.0155990
816.499	0.0157166
816.578	0.0155937
816.656	0.0156576
816.734	0.0156420
816.812	0.0156989
816.890	0.0156871
816.968	0.0156571
817.046	0.0157831
817.124	0.0157996
817.203	0.0156237
817.281	0.0155859
817.359	0.0156490
817.437	0.0155775
817.515	0.0156271
817.593	0.0156982
817.671	0.0156107
817.749	0.0154936
817.828	0.0155898
817.906	0.0156753
817.984	0.0155415
818.062	0.0155724
818.140	0.0156418
818.218	0.0155714
818.296	0.0155314
818.374	0.0156819
818.453	0.0156382
818.531	0.0156263
818.609	0.0154463
818.687	0.0153993
818.765	0.0155844
818.843	0.0155126
818.921	0.0154802
818.999	0.0154457
819.078	0.0153925
819.156	0.0152908
819.234	0.0152986
819.312	0.0152898
819.390	0.0153776
819.468	0.0152845
819.546	0.0152206
819.624	0.0152084
819.703	0.0153349
819.781	0.0152899
819.859	0.0154189
819.937	0.0154726
820.015	0.0153672
820.093	0.0155846
820.171	0.0157366
820.249	0.0157696
820.328	0.0157796
820.406	0.0157340
820.484	0.0158010
820.562	0.0157731
820.640	0.0157031
820.718	0.0158864
820.796	0.0157675
820.874	0.0156861
820.953	0.0156864
821.031	0.0156836
821.109	0.0155370
821.187	0.0156309
821.265	0.0158170
821.343	0.0156575
821.421	0.0155837
821.499	0.0157059
821.578	0.0158234
821.656	0.0157246
821.734	0.0157533
821.812	0.0155640
821.890	0.0156306
821.968	0.0156723
822.046	0.0154105
822.124	0.0154984
822.203	0.0154576
822.281	0.0153492
822.359	0.0153892
822.437	0.0151669
822.515	0.0152946
822.593	0.0151689
822.671	0.0151030
822.749	0.0152323
822.828	0.0152653
822.906	0.0152652
822.984	0.0154437
823.062	0.0153233
823.140	0.0154071
823.218	0.0154987
823.296	0.0155885
823.374	0.0156284
823.453	0.0156966
823.531	0.0156219
823.609	0.0157024
823.687	0.0157563
823.765	0.0157501
823.843	0.0158179
823.921	0.0158475
823.999	0.0158810
824.078	0.0158844
824.156	0.0158758
824.234	0.0160824
824.312	0.0159918
824.390	0.0159460
824.468	0.0160577
824.546	0.0160149
824.624	0.0160619
824.703	0.0159460
824.781	0.0160335
824.859	0.0160997
824.937	0.0159682
825.015	0.0160101
825.093	0.0158687
825.171	0.0156321
825.249	0.0156567
825.328	0.0156187
825.406	0.0154993
825.484	0.0153490
825.562	0.0151920
825.640	0.0150556
825.718	0.0150365
825.796	0.0150921
825.874	0.0149924
825.953	0.0149455
826.031	0.0149379
826.109	0.0150233
826.187	0.0150354
826.265	0.0151357
826.343	0.0151541
826.421	0.0153124
826.499	0.0154553
826.578	0.0154930
826.656	0.0156738
826.734	0.0157404
826.812	0.0157849
826.890	0.0159040
826.968	0.0159419
827.046	0.0158944
827.124	0.0160812
827.203	0.0160854
827.281	0.0162668
827.359	0.0162534
827.437	0.0162932
827.515	0.0162436
827.593	0.0162565
827.671	0.0160907
827.749	0.0160511
827.828	0.0159367
827.906	0.0159268
827.984	0.0159129
828.062	0.0158442
828.140	0.0157700
828.218	0.0155833
828.296	0.0155362
828.374	0.0154068
828.453	0.0154061
828.531	0.0150845
828.609	0.0151884
828.687	0.0151146
828.765	0.0150919
828.843	0.0151176
828.921	0.0151186
828.999	0.0151258
829.078	0.0150993
829.156	0.0153635
829.234	0.0151912
829.312	0.0153378
829.390	0.0153314
829.468	0.0154347
829.546	0.0154472
829.624	0.0155091
829.703	0.0157015
829.781	0.0156206
829.859	0.0156531
829.937	0.0157195
830.015	0.0158317
830.093	0.0156781
830.171	0.0158426
830.249	0.0157635
830.328	0.0159327
830.406	0.0158417
830.484	0.0159155
830.562	0.0156385
830.640	0.0157497
830.718	0.0157310
830.796	0.0158778
830.874	0.0157721
830.953	0.0155804
831.031	0.0156129
831.109	0.0155751
831.187	0.0156184
831.265	0.0157366
831.343	0.0157126
831.421	0.0157111
831.499	0.0155442
831.578	0.0158370
831.656	0.0155810
831.734	0.0156744
831.812	0.0157948
831.890	0.0155838
831.968	0.0156039
832.046	0.0156921
832.124	0.0158933
832.203	0.0158170
832.281	0.0157706
832.359	0.0157035
832.437	0.0155884
832.515	0.0155732
832.593	0.0156885
832.671	0.0156840
832.749	0.0154177
832.828	0.0155021
832.906	0.0155454
832.984	0.0155008
833.062	0.0152404
833.140	0.0153226
833.218	0.0152576
833.296	0.0153326
833.374	0.0153014
833.453	0.0152922
833.531	0.0152592
833.609	0.0152894
833.687	0.0152711
833.765	0.0153029
833.843	0.0153583
833.921	0.0153169
833.999	0.0155412
834.078	0.0155181
834.156	0.0154871
834.234	0.0156193
834.312	0.0155962
834.390	0.0156527
834.468	0.0157085
834.546	0.0157680
834.624	0.0157919
834.703	0.0158649
834.781	0.0159182
834.859	0.0158581
834.937	0.0157654
835.015	0.0157149
835.093	0.0157026
835.171	0.0155686
835.249	0.0156500
835.328	0.0156361
835.406	0.0157094
835.484	0.0155426
835.562	0.0155721
835.640	0.0154980
835.718	0.0154737
835.796	0.0152810
835.874	0.0153397
835.953	0.0153252
836.031	0.0153587
836.109	0.0153470
836.187	0.0154128
836.265	0.0154464
836.343	0.0154321
836.421	0.0153597
836.499	0.0155424
836.578	0.0155626
836.656	0.0153900
836.734	0.0155994
836.812	0.0157440
836.890	0.0156976
836.968	0.0156471
837.046	0.0156454
837.124	0.0156646
837.203	0.0158599
837.281	0.0156445
837.359	0.0157784
837.437	0.0157986
837.515	0.0158221
837.593	0.0157825
837.671	0.0158582
837.749	0.0157838
837.828	0.0157695
837.906	0.0157256
837.984	0.0156168
838.062	0.0156551
838.140	0.0156801
838.218	0.0155559
838.296	0.0155742
838.374	0.0157017
838.453	0.0155826
838.531	0.0155554
838.609	0.0156116
838.687	0.0154536
838.765	0.0154908
838.843	0.0154446
838.921	0.0153936
838.999	0.0155057
839.078	0.0153732
839.156	0.0155263
839.234	0.0154395
839.312	0.0152570
839.390	0.0154125
839.468	0.0154414
839.546	0.0153667
839.624	0.0154430
839.703	0.0155463
839.781	0.0154726
839.859	0.0154664
839.937	0.0154881
840.015	0.0155516
840.093	0.0156180
840.171	0.0155825
840.249	0.0156916
840.328	0.0157598
840.406	0.0157241
840.484	0.0157932
840.562	0.0158484
840.640	0.0158388
840.718	0.0160371
840.796	0.0159581
840.874	0.0158646
840.953	0.0160378
841.031	0.0159351
841.109	0.0158726
841.187	0.0159609
841.265	0.0159512
841.343	0.0158165
841.421	0.0157874
841.499	0.0157315
841.578	0.0159487
841.656	0.0156830
841.734	0.0157293
841.812	0.0156180
841.890	0.0157674
841.968	0.0156394
842.046	0.0156332
842.124	0.0157043
842.203	0.0156255
842.281	0.0156723
842.359	0.0156239
842.437	0.0155954
842.515	0.0155711
842.593	0.0155450
842.671	0.0154712
842.749	0.0153764
842.828	0.0152806
842.906	0.0152586
842.984	0.0154037
843.062	0.0152888
843.140	0.0152258
843.218	0.0154790
843.296	0.0154237
843.374	0.0152881
843.453	0.0153757
843.531	0.0153994
843.609	0.0152583
843.687	0.0155238
843.765	0.0154237
843.843	0.0155165
843.921	0.0154254
843.999	0.0155445
844.078	0.0155902
844.156	0.0157249
844.234	0.0155978
844.312	0.0155666
844.390	0.0157258
844.468	0.0157230
844.546	0.0158266
844.624	0.0158073
844.703	0.0158414
844.781	0.0159099
844.859	0.0157861
844.937	0.0159193
845.015	0.0159017
845.093	0.0158941
845.171	0.0158595
845.249	0.0159038
845.328	0.0158022
845.406	0.0158955
845.484	0.0158039
845.562	0.0157703
845.640	0.0157387
845.718	0.0157430
845.796	0.0157931
845.874	0.0156448
845.953	0.0156206
846.031	0.0156151
846.109	0.0155978
846.187	0.0153641
846.265	0.0154361
846.343	0.0154529
846.421	0.0153240
846.499	0.0153452
846.578	0.0152579
846.656	0.0152605
846.734	0.0153320
846.812	0.0152375
846.890	0.0150327
846.968	0.0151470
847.046	0.0152103
847.124	0.0152454
847.203	0.0151375
847.281	0.0152211
847.359	0.0152345
847.437	0.0154489
847.515	0.0152754
847.593	0.0154620
847.671	0.0155153
847.749	0.0155367
847.828	0.0156097
847.906	0.0156670
847.984	0.0158495
848.062	0.0158456
848.140	0.0157717
848.218	0.0158060
848.296	0.0157876
848.374	0.0158669
848.453	0.0158540
848.531	0.0158278
848.609	0.0156898
848.687	0.0157607
848.765	0.0156955
848.843	0.0157826
848.921	0.0157131
848.999	0.0157581
849.078	0.0156499
849.156	0.0156400
849.234	0.0156561
849.312	0.0156560
849.390	0.0156683
849.468	0.0156920
849.546	0.0155545
849.624	0.0154964
849.703	0.0156557
849.781	0.0156463
849.859	0.0155826
849.937	0.0155159
850.015	0.0155727
850.093	0.0156113
850.171	0.0154481
850.249	0.0155051
850.328	0.0154752
850.406	0.0154990
850.484	0.0154809
850.562	0.0156084
850.640	0.0154347
850.718	0.0154205
850.796	0.0155177
850.874	0.0155025
850.953	0.0155478
851.031	0.0154573
851.109	0.0154925
851.187	0.0153333
851.265	0.0155765
851.343	0.0154317
851.421	0.0155345
851.499	0.0153403
851.578	0.0155595
851.656	0.0156674
851.734	0.0156435
851.812	0.0155125
851.890	0.0154860
851.968	0.0157298
852.046	0.0156235
852.124	0.0157143
852.203	0.0157191
852.281	0.0156557
852.359	0.0157542
852.437	0.0156572
852.515	0.0156436
852.593	0.0157647
852.671	0.0156788
852.749	0.0156911
852.828	0.0158091
852.906	0.0157765
852.984	0.0157226
853.062	0.0157797
853.140	0.0157200
853.218	0.0159052
853.296	0.0158261
853.374	0.0157248
853.453	0.0157081
853.531	0.0156717
853.609	0.0156442
853.687	0.0156809
853.765	0.0156475
853.843	0.0156490
853.921	0.0157276
853.999	0.0157884
854.078	0.0157957
854.156	0.0156162
854.234	0.0156307
854.312	0.0156415
854.390	0.0157079
854.468	0.0155485
854.546	0.0157893
854.624	0.0157166
854.703	0.0155502
854.781	0.0156490
854.859	0.0156059
854.937	0.0155766
855.015	0.0156664
855.093	0.0156313
855.171	0.0155835
855.249	0.0155608
855.328	0.0157831
855.406	0.0156541
855.484	0.0155976
855.562	0.0156559
855.640	0.0155466
855.718	0.0156644
855.796	0.0155939
855.874	0.0155884
855.953	0.0155508
856.031	0.0155601
856.109	0.0155840
856.187	0.0155566
856.265	0.0155608
856.343	0.0155388
856.421	0.0155898
856.499	0.0155632
856.578	0.0153822
856.656	0.0154933
856.734	0.0155837
856.812	0.0154379
856.890	0.0153716
856.968	0.0155065
857.046	0.0154256
857.124	0.0156911
857.203	0.0154940
857.281	0.0156194
857.359	0.0157280
857.437	0.0156767
857.515	0.0157180
857.593	0.0157642
857.671	0.0157494
857.749	0.0157981
857.828	0.0157976
857.906	0.0158083
857.984	0.0158595
858.062	0.0159131
858.140	0.0159303
858.218	0.0157814
858.296	0.0157455
858.374	0.0158080
858.453	0.0157359
858.531	0.0158049
858.609	0.0158682
858.687	0.0158558
858.765	0.0156466
858.843	0.0156863
858.921	0.0157010
858.999	0.0155516
859.078	0.0157201
859.156	0.0157675
859.234	0.0157007
859.312	0.0155810
859.390	0.0156445
859.468	0.0154802
859.546	0.0156030
859.624	0.0155367
859.703	0.0154498
859.781	0.0154464
859.859	0.0153870
859.937	0.0153066
860.015	0.0153640
860.093	0.0154110
860.171	0.0154723
860.249	0.0154375
860.328	0.0154172
860.406	0.0154188
860.484	0.0154674
860.562	0.0153292
860.640	0.0154838
860.718	0.0155100
860.796	0.0156190
860.874	0.0155237
860.953	0.0155302
861.031	0.0155113
861.109	0.0156095
861.187	0.0156163
861.265	0.0155985
861.343	0.0155633
861.421	0.0156716
861.499	0.0157240
861.578	0.0158081
861.656	0.0158337
861.734	0.0157752
861.812	0.0159554
861.890	0.0158558
861.968	0.0159571
862.046	0.0159331
862.124	0.0157873
862.203	0.0157217
862.281	0.0157655
862.359	0.0156852
862.437	0.0156400
862.515	0.0158137
862.593	0.0158196
862.671	0.0158044
862.749	0.0157824
862.828	0.0156365
862.906	0.0157449
862.984	0.0158105
863.062	0.0157059
863.140	0.0158130
863.218	0.0156772
863.296	0.0154878
863.374	0.0156665
863.453	0.0156543
863.531	0.0155856
863.609	0.0154679
863.687	0.0156799
863.765	0.0154617
863.843	0.0154249
863.921	0.0155767
863.999	0.0155222
864.078	0.0153316
864.156	0.0154573
864.234	0.0154554
864.312	0.0154360
864.390	0.0154884
864.468	0.0155662
864.546	0.0153989
864.624	0.0154578
864.703	0.0154192
864.781	0.0152671
864.859	0.0154045
864.937	0.0153282
865.015	0.0153302
865.093	0.0155075
865.171	0.0153668
865.249	0.0152686
865.328	0.0153312
865.406	0.0152780
865.484	0.0154283
865.562	0.0154988
865.640	0.0153877
865.718	0.0154952
865.796	0.0153304
865.874	0.0154054
865.953	0.0155124
866.031	0.0155564
866.109	0.0155677
866.187	0.0155519
866.265	0.0155344
866.343	0.0155774
866.421	0.0156504
866.499	0.0157542
866.578	0.0156798
866.656	0.0155439
866.734	0.0156934
866.812	0.0156360
866.890	0.0155792
866.968	0.0155424
867.046	0.0155851
867.124	0.0154562
867.203	0.0155391
867.281	0.0156810
867.359	0.0155560
867.437	0.0155568
867.515	0.0155916
867.593	0.0155441
867.671	0.0152936
867.749	0.0154397
867.828	0.0153062
867.906	0.0153323
867.984	0.0153262
868.062	0.0153603
868.140	0.0153440
868.218	0.0154691
868.296	0.0153703
868.374	0.0152570
868.453	0.0151509
868.531	0.0152937
868.609	0.0153748
868.687	0.0152594
868.765	0.0153868
868.843	0.0154102
868.921	0.0154765
868.999	0.0153306
869.078	0.0155746
869.156	0.0155103
869.234	0.0155695
869.312	0.0155969
869.390	0.0154156
869.468	0.0155185
869.546	0.0154176
869.624	0.0156919
869.703	0.0155556
869.781	0.0155029
869.859	0.0156914
869.937	0.0155884
870.015	0.0157010
870.093	0.0156111
870.171	0.0155280
870.249	0.0156027
870.328	0.0156732
870.406	0.0156665
870.484	0.0155361
870.562	0.0157100
870.640	0.0155569
870.718	0.0155286
870.796	0.0155921
870.874	0.0156615
870.953	0.0156077
871.031	0.0156277
871.109	0.0156055
871.187	0.0157132
871.265	0.0156937
871.343	0.0156726
871.421	0.0155977
871.499	0.0155840
871.578	0.0155814
871.656	0.0155733
871.734	0.0156052
871.812	0.0156586
871.890	0.0155942
871.968	0.0157073
872.046	0.0156868
872.124	0.0155219
872.203	0.0154972
872.281	0.0155247
872.359	0.0156807
872.437	0.0155322
872.515	0.0154871
872.593	0.0155133
872.671	0.0153996
872.749	0.0154888
872.828	0.0155069
872.906	0.0155341
872.984	0.0154643
873.062	0.0153202
873.140	0.0154431
873.218	0.0153986
873.296	0.0154308
873.374	0.0155322
873.453	0.0154388
873.531	0.0154964
873.609	0.0154776
873.687	0.0155344
873.765	0.0155473
873.843	0.0156057
873.921	0.0155115
873.999	0.0155059
874.078	0.0154160
874.156	0.0155372
874.234	0.0154741
874.312	0.0155769
874.390	0.0154215
874.468	0.0155238
874.546	0.0155028
874.624	0.0155093
874.703	0.0155846
874.781	0.0154453
874.859	0.0155407
874.937	0.0154683
875.015	0.0155250
875.093	0.0155640
875.171	0.0155102
875.249	0.0155957
875.328	0.0156058
875.406	0.0157012
875.484	0.0155488
875.562	0.0156722
875.640	0.0157493
875.718	0.0155421
875.796	0.0155868
875.874	0.0156402
875.953	0.0155388
876.031	0.0155264
876.109	0.0155222
876.187	0.0156102
876.265	0.0155927
876.343	0.0153708
876.421	0.0155719
876.499	0.0156251
876.578	0.0155094
876.656	0.0153866
876.734	0.0155872
876.812	0.0154630
876.890	0.0155466
876.968	0.0156738
877.046	0.0156145
877.124	0.0156025
877.203	0.0156412
877.281	0.0156521
877.359	0.0157453
877.437	0.0158491
877.515	0.0156092
877.593	0.0158034
877.671	0.0157398
877.749	0.0156144
877.828	0.0157130
877.906	0.0157686
877.984	0.0157527
878.062	0.0156877
878.140	0.0157217
878.218	0.0156052
878.296	0.0157165
878.374	0.0155194
878.453	0.0155714
878.531	0.0155627
878.609	0.0154703
878.687	0.0155034
878.765	0.0156434
878.843	0.0156864
878.921	0.0155430
878.999	0.0155917
879.078	0.0158034
879.156	0.0156466
879.234	0.0157275
879.312	0.0157422
879.390	0.0157342
879.468	0.0157598
879.546	0.0156634
879.624	0.0159572
879.703	0.0159163
879.781	0.0157552
879.859	0.0156868
879.937	0.0159534
880.015	0.0159513
880.093	0.0158360
880.171	0.0158641
880.249	0.0158163
880.328	0.0156390
880.406	0.0158232
880.484	0.0155660
880.562	0.0156862
880.640	0.0156745
880.718	0.0156274
880.796	0.0155815
880.874	0.0156504
880.953	0.0157848
881.031	0.0156741
881.109	0.0154013
881.187	0.0155444
881.265	0.0158044
881.343	0.0155989
881.421	0.0156796
881.499	0.0156673
881.578	0.0156358
881.656	0.0155225
881.734	0.0155476
881.812	0.0154774
881.890	0.0154530
881.968	0.0156825
882.046	0.0155768
882.124	0.0155108
882.203	0.0155081
882.281	0.0154800
882.359	0.0156085
882.437	0.0157177
882.515	0.0154678
882.593	0.0155641
882.671	0.0155869
882.749	0.0157124
882.828	0.0156539
882.906	0.0154501
882.984	0.0155560
883.062	0.0154724
883.140	0.0155330
883.218	0.0154128
883.296	0.0153789
883.374	0.0153516
883.453	0.0156286
883.531	0.0156887
883.609	0.0155176
883.687	0.0155336
883.765	0.0155696
883.843	0.0155968
883.921	0.0155157
883.999	0.0155035
884.078	0.0155870
884.156	0.0155086
884.234	0.0155685
884.312	0.0156068
884.390	0.0155599
884.468	0.0155753
884.546	0.0156122
884.624	0.0156994
884.703	0.0156091
884.781	0.0155960
884.859	0.0157138
884.937	0.0156326
885.015	0.0156319
885.093	0.0157200
885.171	0.0156779
885.249	0.0156684
885.328	0.0156175
885.406	0.0157630
885.484	0.0156348
885.562	0.0157004
885.640	0.0156052
885.718	0.0156414
885.796	0.0155428
885.874	0.0155898
885.953	0.0156357
886.031	0.0156300
886.109	0.0156479
886.187	0.0155706
886.265	0.0157304
886.343	0.0156554
886.421	0.0155217
886.499	0.0155099
886.578	0.0155527
886.656	0.0155627
886.734	0.0155264
886.812	0.0154875
886.890	0.0154202
886.968	0.0154655
887.046	0.0154359
887.124	0.0153918
887.203	0.0154903
887.281	0.0155071
887.359	0.0155066
887.437	0.0155130
887.515	0.0154710
887.593	0.0156300
887.671	0.0156835
887.749	0.0155563
887.828	0.0155745
887.906	0.0155301
887.984	0.0155846
888.062	0.0156004
888.140	0.0155063
888.218	0.0155473
888.296	0.0155968
888.374	0.0155083
888.453	0.0156228
888.531	0.0156298
888.609	0.0156383
888.687	0.0156490
888.765	0.0154860
888.843	0.0156051
888.921	0.0156696
888.999	0.0155926
889.078	0.0155663
889.156	0.0154979
889.234	0.0156927
889.312	0.0154802
889.390	0.0154317
889.468	0.0156348
889.546	0.0156158
889.624	0.0155251
889.703	0.0155100
889.781	0.0154346
889.859	0.0154749
889.937	0.0155877
890.015	0.0156161
890.093	0.0156143
890.171	0.0155405
890.249	0.0155704
890.328	0.0156081
890.406	0.0155912
890.484	0.0155552
890.562	0.0156960
890.640	0.0156169
890.718	0.0156487
890.796	0.0155082
890.874	0.0155583
890.953	0.0155286
891.031	0.0154617
891.109	0.0153998
891.187	0.0155711
891.265	0.0156090
891.343	0.0153660
891.421	0.0155383
891.499	0.0154137
891.578	0.0155225
891.656	0.0154732
891.734	0.0154144
891.812	0.0153756
891.890	0.0153695
891.968	0.0152802
892.046	0.0152706
892.124	0.0154256
892.203	0.0153408
892.281	0.0153893
892.359	0.0152927
892.437	0.0153748
892.515	0.0154111
892.593	0.0153965
892.671	0.0154425
892.749	0.0154292
892.828	0.0153661
892.906	0.0153129
892.984	0.0154363
893.062	0.0153980
893.140	0.0154494
893.218	0.0154558
893.296	0.0153864
893.374	0.0153950
893.453	0.0154703
893.531	0.0154797
893.609	0.0155109
893.687	0.0153976
893.765	0.0155695
893.843	0.0155426
893.921	0.0154028
893.999	0.0155463
894.078	0.0155103
894.156	0.0156042
894.234	0.0155208
894.312	0.0154296
894.390	0.0156077
894.468	0.0156359
894.546	0.0154527
894.624	0.0155812
894.703	0.0155786
894.781	0.0155815
894.859	0.0154697
894.937	0.0153977
895.015	0.0154519
895.093	0.0153825
895.171	0.0154534
895.249	0.0153761
895.328	0.0154115
895.406	0.0154471
895.484	0.0153610
895.562	0.0154380
895.640	0.0155505
895.718	0.0155780
895.796	0.0156010
895.874	0.0154614
895.953	0.0154455
896.031	0.0155401
896.109	0.0154755
896.187	0.0154649
896.265	0.0154414
896.343	0.0154826
896.421	0.0154367
896.499	0.0155066
896.578	0.0154384
896.656	0.0155428
896.734	0.0154774
896.812	0.0156805
896.890	0.0154957
896.968	0.0154881
897.046	0.0156947
897.124	0.0156441
897.203	0.0155185
897.281	0.0156617
897.359	0.0156569
897.437	0.0156145
897.515	0.0157255
897.593	0.0155351
897.671	0.0155228
897.749	0.0155610
897.828	0.0157382
897.906	0.0155363
897.984	0.0155341
898.062	0.0156477
898.140	0.0156606
898.218	0.0155041
898.296	0.0155718
898.374	0.0157388
898.453	0.0156654
898.531	0.0153982
898.609	0.0155812
898.687	0.0155331
898.765	0.0154512
898.843	0.0153904
898.921	0.0155469
898.999	0.0154891
899.078	0.0156229
899.156	0.0156557
899.234	0.0154722
899.312	0.0155688
899.390	0.0155133
899.468	0.0154333
899.546	0.0155013
899.624	0.0156259
899.703	0.0155264
899.781	0.0156000
899.859	0.0157284
899.937	0.0156409
900.015	0.0156501
900.093	0.0155399
900.171	0.0155265
900.249	0.0155554
900.328	0.0154417
900.406	0.0156414
900.484	0.0155827
900.562	0.0155040
900.640	0.0156075
900.718	0.0155411
900.796	0.0156503
900.874	0.0156785
900.953	0.0154218
901.031	0.0156239
901.109	0.0156923
901.187	0.0155799
901.265	0.0156265
901.343	0.0158173
901.421	0.0154911
901.499	0.0155522
901.578	0.0156058
901.656	0.0155665
901.734	0.0155973
901.812	0.0155814
901.890	0.0155286
901.968	0.0155305
902.046	0.0156535
902.124	0.0156028
902.203	0.0156200
902.281	0.0155504
902.359	0.0156198
902.437	0.0156512
902.515	0.0156789
902.593	0.0155672
902.671	0.0157584
902.749	0.0156646
902.828	0.0156812
902.906	0.0156791
902.984	0.0156357
903.062	0.0155209
903.140	0.0155439
903.218	0.0154874
903.296	0.0155676
903.374	0.0155774
903.453	0.0155474
903.531	0.0154783
903.609	0.0155285
903.687	0.0155077
903.765	0.0154670
903.843	0.0155255
903.921	0.0154488
903.999	0.0155300
904.078	0.0153864
904.156	0.0154836
904.234	0.0155525
904.312	0.0154555
904.390	0.0157002
904.468	0.0155959
904.546	0.0154887
904.624	0.0155596
904.703	0.0155807
904.781	0.0156282
904.859	0.0156998
904.937	0.0155646
905.015	0.0155617
905.093	0.0156156
905.171	0.0155681
905.249	0.0155358
905.328	0.0156200
905.406	0.0154878
905.484	0.0156596
905.562	0.0155518
905.640	0.0154365
905.718	0.0156412
905.796	0.0155965
905.874	0.0156596
905.953	0.0155923
906.031	0.0155894
906.109	0.0155216
906.187	0.0154155
906.265	0.0156240
906.343	0.0155271
906.421	0.0155473
906.499	0.0155962
906.578	0.0156491
906.656	0.0156369
906.734	0.0157605
906.812	0.0158176
906.890	0.0156058
906.968	0.0156252
907.046	0.0156781
907.124	0.0157690
907.203	0.0156505
907.281	0.0155856
907.359	0.0155967
907.437	0.0155969
907.515	0.0156667
907.593	0.0155524
907.671	0.0157243
907.749	0.0156050
907.828	0.0156223
907.906	0.0156775
907.984	0.0156210
908.062	0.0156913
908.140	0.0154998
908.218	0.0154078
908.296	0.0156071
908.374	0.0156738
908.453	0.0154204
908.531	0.0155744
908.609	0.0156104
908.687	0.0154416
908.765	0.0154790
908.843	0.0155901
908.921	0.0154880
908.999	0.0154733
909.078	0.0155479
909.156	0.0155523
909.234	0.0155730
909.312	0.0154788
909.390	0.0155537
909.468	0.0157814
909.546	0.0155612
909.624	0.0155991
909.703	0.0155207
909.781	0.0155051
909.859	0.0155767
909.937	0.0156829
910.015	0.0156830
910.093	0.0156731
910.171	0.0155605
910.249	0.0156356
910.328	0.0155212
910.406	0.0156561
910.484	0.0155935
910.562	0.0155458
910.640	0.0155978
910.718	0.0155304
910.796	0.0156571
910.874	0.0156260
910.953	0.0154978
911.031	0.0156403
911.109	0.0155820
911.187	0.0156469
911.265	0.0156143
911.343	0.0154822
911.421	0.0155885
911.499	0.0154986
911.578	0.0155823
911.656	0.0154829
911.734	0.0156130
911.812	0.0155283
911.890	0.0155710
911.968	0.0155769
912.046	0.0155371
912.124	0.0156573
912.203	0.0156506
912.281	0.0156118
912.359	0.0155533
912.437	0.0156387
912.515	0.0155892
912.593	0.0154000
912.671	0.0157092
912.749	0.0156577
912.828	0.0156133
912.906	0.0156838
912.984	0.0156162
913.062	0.0154894
913.140	0.0156464
913.218	0.0155652
913.296	0.0156623
913.374	0.0157703
913.453	0.0157532
913.531	0.0156461
913.609	0.0155328
913.687	0.0155956
913.765	0.0156673
913.843	0.0156586
913.921	0.0156197
913.999	0.0155533
914.078	0.0155766
914.156	0.0155560
914.234	0.0154670
914.312	0.0155710
914.390	0.0155907
914.468	0.0154279
914.546	0.0155136
914.624	0.0155979
914.703	0.0154736
914.781	0.0155466
914.859	0.0154791
914.937	0.0155373
915.015	0.0154626
915.093	0.0155606
915.171	0.0155075
915.249	0.0155878
915.328	0.0154647
915.406	0.0156007
915.484	0.0156231
915.562	0.0155618
915.640	0.0155171
915.718	0.0157189
915.796	0.0156704
915.874	0.0156738
915.953	0.0156505
916.031	0.0155728
916.109	0.0155859
916.187	0.0154479
916.265	0.0155769
916.343	0.0154522
916.421	0.0155726
916.499	0.0154908
916.578	0.0154672
916.656	0.0155224
916.734	0.0155335
916.812	0.0155652
916.890	0.0154803
916.968	0.0153961
917.046	0.0151820
917.124	0.0154182
917.203	0.0153180
917.281	0.0154525
917.359	0.0153278
917.437	0.0153527
917.515	0.0154130
917.593	0.0154382
917.671	0.0153165
917.749	0.0154122
917.828	0.0153649
917.906	0.0154610
917.984	0.0154966
918.062	0.0154369
918.140	0.0154599
918.218	0.0154209
918.296	0.0155681
918.374	0.0154609
918.453	0.0154909
918.531	0.0155801
918.609	0.0154387
918.687	0.0156193
918.765	0.0155935
918.843	0.0155266
918.921	0.0155559
918.999	0.0156039
919.078	0.0157379
919.156	0.0155558
919.234	0.0156699
919.312	0.0154143
919.390	0.0155385
919.468	0.0156303
919.546	0.0156340
919.624	0.0153899
919.703	0.0154805
919.781	0.0155686
919.859	0.0155038
919.937	0.0155179
