06/10/2022	19:01:46	Ver.	4.1	UNKNOWN
Optical Delay	600.015094	Delta X		0.078125	Sweeps	1	Scan Rate	0/0
Coordinates	Axis 1	NaN	Axis 2	NaN	Axis 3	NaN	Axis 4	NaN	Axis 5	NaN	Axis 6	0.000000
TX Power	0.000000	RX Power	0.000000

600.015	0.0160159
600.093	0.0160860
600.171	0.0160949
600.249	0.0160313
600.328	0.0160649
600.406	0.0160266
600.484	0.0160477
600.562	0.0160508
600.640	0.0161703
600.718	0.0160741
600.796	0.0159386
600.874	0.0159554
600.953	0.0161375
601.031	0.0160545
601.109	0.0160883
601.187	0.0158796
601.265	0.0161490
601.343	0.0159383
601.421	0.0160004
601.499	0.0159885
601.578	0.0159830
601.656	0.0160497
601.734	0.0160192
601.812	0.0161885
601.890	0.0160094
601.968	0.0159241
602.046	0.0161065
602.124	0.0160201
602.203	0.0159782
602.281	0.0159642
602.359	0.0158981
602.437	0.0159292
602.515	0.0160785
602.593	0.0161219
602.671	0.0159492
602.749	0.0160208
602.828	0.0160016
602.906	0.0161345
602.984	0.0160790
603.062	0.0160397
603.140	0.0161454
603.218	0.0158966
603.296	0.0158790
603.374	0.0160715
603.453	0.0159741
603.531	0.0159609
603.609	0.0160406
603.687	0.0160278
603.765	0.0160224
603.843	0.0159600
603.921	0.0160374
603.999	0.0159686
604.078	0.0159738
604.156	0.0158164
604.234	0.0160988
604.312	0.0160946
604.390	0.0160166
604.468	0.0159431
604.546	0.0159091
604.624	0.0159404
604.703	0.0160139
604.781	0.0160921
604.859	0.0160027
604.937	0.0160347
605.015	0.0159689
605.093	0.0160074
605.171	0.0158733
605.249	0.0159441
605.328	0.0159828
605.406	0.0159262
605.484	0.0160357
605.562	0.0160511
605.640	0.0160046
605.718	0.0160400
605.796	0.0161117
605.874	0.0159001
605.953	0.0158970
606.031	0.0160812
606.109	0.0159827
606.187	0.0159693
606.265	0.0160087
606.343	0.0160471
606.421	0.0160213
606.499	0.0160472
606.578	0.0159446
606.656	0.0158771
606.734	0.0159074
606.812	0.0159118
606.890	0.0159476
606.968	0.0159641
607.046	0.0158839
607.124	0.0159119
607.203	0.0160625
607.281	0.0159686
607.359	0.0158765
607.437	0.0159943
607.515	0.0159308
607.593	0.0159989
607.671	0.0158794
607.749	0.0161101
607.828	0.0159291
607.906	0.0159674
607.984	0.0158748
608.062	0.0159662
608.140	0.0159888
608.218	0.0160488
608.296	0.0158890
608.374	0.0159378
608.453	0.0158720
608.531	0.0159876
608.609	0.0158627
608.687	0.0157917
608.765	0.0157993
608.843	0.0160571
608.921	0.0161705
608.999	0.0159541
609.078	0.0159353
609.156	0.0159406
609.234	0.0159219
609.312	0.0158919
609.390	0.0159326
609.468	0.0158521
609.546	0.0158575
609.624	0.0159221
609.703	0.0158675
609.781	0.0158198
609.859	0.0159507
609.937	0.0159959
610.015	0.0158965
610.093	0.0159196
610.171	0.0158798
610.249	0.0159473
610.328	0.0159367
610.406	0.0159713
610.484	0.0157043
610.562	0.0157507
610.640	0.0159165
610.718	0.0159406
610.796	0.0158920
610.874	0.0158572
610.953	0.0159412
611.031	0.0158163
611.109	0.0159388
611.187	0.0158318
611.265	0.0158253
611.343	0.0158011
611.421	0.0159211
611.499	0.0158866
611.578	0.0159357
611.656	0.0159492
611.734	0.0158694
611.812	0.0159700
611.890	0.0158652
611.968	0.0158984
612.046	0.0158405
612.124	0.0159013
612.203	0.0159538
612.281	0.0159772
612.359	0.0159286
612.437	0.0160420
612.515	0.0158174
612.593	0.0158871
612.671	0.0158813
612.749	0.0159746
612.828	0.0159415
612.906	0.0159858
612.984	0.0158639
613.062	0.0158655
613.140	0.0160868
613.218	0.0159807
613.296	0.0160529
613.374	0.0159067
613.453	0.0159367
613.531	0.0159700
613.609	0.0159962
613.687	0.0160436
613.765	0.0159691
613.843	0.0160716
613.921	0.0159805
613.999	0.0159692
614.078	0.0158685
614.156	0.0159299
614.234	0.0160032
614.312	0.0159544
614.390	0.0159692
614.468	0.0160026
614.546	0.0159025
614.624	0.0160990
614.703	0.0160469
614.781	0.0159384
614.859	0.0160107
614.937	0.0160315
615.015	0.0160580
615.093	0.0161340
615.171	0.0159799
615.249	0.0160164
615.328	0.0160956
615.406	0.0159568
615.484	0.0158740
615.562	0.0161488
615.640	0.0160873
615.718	0.0160279
615.796	0.0159959
615.874	0.0159652
615.953	0.0160116
616.031	0.0159685
616.109	0.0160303
616.187	0.0160114
616.265	0.0160612
616.343	0.0159841
616.421	0.0160166
616.499	0.0161874
616.578	0.0160907
616.656	0.0159995
616.734	0.0162194
616.812	0.0160468
616.890	0.0160360
616.968	0.0160964
617.046	0.0161417
617.124	0.0161398
617.203	0.0161228
617.281	0.0160786
617.359	0.0160057
617.437	0.0161021
617.515	0.0160834
617.593	0.0160129
617.671	0.0161073
617.749	0.0160293
617.828	0.0160873
617.906	0.0160410
617.984	0.0161250
618.062	0.0161738
618.140	0.0160677
618.218	0.0160104
618.296	0.0160675
618.374	0.0161637
618.453	0.0160828
618.531	0.0160159
618.609	0.0160208
618.687	0.0161646
618.765	0.0161354
618.843	0.0161132
618.921	0.0160652
618.999	0.0160798
619.078	0.0159637
619.156	0.0161658
619.234	0.0159827
619.312	0.0160946
619.390	0.0160843
619.468	0.0160524
619.546	0.0160075
619.624	0.0162030
619.703	0.0160218
619.781	0.0157844
619.859	0.0161814
619.937	0.0161170
620.015	0.0159543
620.093	0.0159209
620.171	0.0160474
620.249	0.0159858
620.328	0.0160258
620.406	0.0159902
620.484	0.0160342
620.562	0.0160313
620.640	0.0161060
620.718	0.0160435
620.796	0.0160063
620.874	0.0159867
620.953	0.0160275
621.031	0.0160397
621.109	0.0159245
621.187	0.0158794
621.265	0.0159499
621.343	0.0159621
621.421	0.0159481
621.499	0.0160358
621.578	0.0160637
621.656	0.0160593
621.734	0.0160114
621.812	0.0159246
621.890	0.0159505
621.968	0.0158977
622.046	0.0158913
622.124	0.0160062
622.203	0.0160434
622.281	0.0159749
622.359	0.0159406
622.437	0.0160448
622.515	0.0161093
622.593	0.0159836
622.671	0.0159421
622.749	0.0158954
622.828	0.0160611
622.906	0.0159834
622.984	0.0159106
623.062	0.0160237
623.140	0.0161046
623.218	0.0160303
623.296	0.0159654
623.374	0.0160883
623.453	0.0159561
623.531	0.0160701
623.609	0.0160054
623.687	0.0160137
623.765	0.0159000
623.843	0.0162225
623.921	0.0161077
623.999	0.0159821
624.078	0.0158730
624.156	0.0159861
624.234	0.0160904
624.312	0.0161411
624.390	0.0159988
624.468	0.0160307
624.546	0.0161697
624.624	0.0161127
624.703	0.0161393
624.781	0.0160846
624.859	0.0158680
624.937	0.0160723
625.015	0.0161423
625.093	0.0160290
625.171	0.0159134
625.249	0.0159185
625.328	0.0161016
625.406	0.0160612
625.484	0.0160469
625.562	0.0159948
625.640	0.0161701
625.718	0.0160742
625.796	0.0161316
625.874	0.0160242
625.953	0.0161549
626.031	0.0160882
626.109	0.0160674
626.187	0.0160169
626.265	0.0160447
626.343	0.0159933
626.421	0.0159309
626.499	0.0161488
626.578	0.0161475
626.656	0.0159627
626.734	0.0161484
626.812	0.0161245
626.890	0.0160735
626.968	0.0160932
627.046	0.0161332
627.124	0.0160942
627.203	0.0162177
627.281	0.0160809
627.359	0.0162227
627.437	0.0161754
627.515	0.0160914
627.593	0.0162057
627.671	0.0162022
627.749	0.0162556
627.828	0.0161060
627.906	0.0162118
627.984	0.0160973
628.062	0.0160476
628.140	0.0160966
628.218	0.0161020
628.296	0.0160897
628.374	0.0159935
628.453	0.0160258
628.531	0.0161207
628.609	0.0160969
628.687	0.0162122
628.765	0.0161719
628.843	0.0160065
628.921	0.0160178
628.999	0.0160873
629.078	0.0160004
629.156	0.0161048
629.234	0.0160729
629.312	0.0161832
629.390	0.0161224
629.468	0.0160896
629.546	0.0160723
629.624	0.0159718
629.703	0.0161497
629.781	0.0161635
629.859	0.0160421
629.937	0.0161009
630.015	0.0161502
630.093	0.0160489
630.171	0.0161712
630.249	0.0160953
630.328	0.0160477
630.406	0.0160564
630.484	0.0161729
630.562	0.0161235
630.640	0.0161857
630.718	0.0162003
630.796	0.0161455
630.874	0.0159975
630.953	0.0160155
631.031	0.0161005
631.109	0.0160033
631.187	0.0160593
631.265	0.0160910
631.343	0.0161720
631.421	0.0160500
631.499	0.0161518
631.578	0.0160424
631.656	0.0158762
631.734	0.0160969
631.812	0.0161050
631.890	0.0160192
631.968	0.0160389
632.046	0.0160023
632.124	0.0161604
632.203	0.0161014
632.281	0.0160431
632.359	0.0160593
632.437	0.0160992
632.515	0.0160207
632.593	0.0160541
632.671	0.0160194
632.749	0.0160984
632.828	0.0159177
632.906	0.0159646
632.984	0.0160381
633.062	0.0160155
633.140	0.0159849
633.218	0.0160744
633.296	0.0159862
633.374	0.0158470
633.453	0.0159409
633.531	0.0160509
633.609	0.0159422
633.687	0.0157194
633.765	0.0158529
633.843	0.0156955
633.921	0.0158530
633.999	0.0157770
634.078	0.0157486
634.156	0.0158324
634.234	0.0158690
634.312	0.0157193
634.390	0.0157474
634.468	0.0158318
634.546	0.0157885
634.624	0.0158662
634.703	0.0157303
634.781	0.0158317
634.859	0.0158838
634.937	0.0158398
635.015	0.0158265
635.093	0.0158665
635.171	0.0160317
635.249	0.0161411
635.328	0.0159734
635.406	0.0160752
635.484	0.0161951
635.562	0.0161526
635.640	0.0161224
635.718	0.0159861
635.796	0.0160357
635.874	0.0158970
635.953	0.0159730
636.031	0.0160181
636.109	0.0159567
636.187	0.0158183
636.265	0.0159885
636.343	0.0157906
636.421	0.0158005
636.499	0.0157537
636.578	0.0158078
636.656	0.0158849
636.734	0.0158378
636.812	0.0157533
636.890	0.0158212
636.968	0.0159126
637.046	0.0158559
637.124	0.0161092
637.203	0.0159128
637.281	0.0159540
637.359	0.0158810
637.437	0.0159628
637.515	0.0159875
637.593	0.0160307
637.671	0.0159973
637.749	0.0160656
637.828	0.0160262
637.906	0.0158354
637.984	0.0159030
638.062	0.0159833
638.140	0.0158967
638.218	0.0159117
638.296	0.0160067
638.374	0.0159683
638.453	0.0160809
638.531	0.0159729
638.609	0.0158401
638.687	0.0159365
638.765	0.0159465
638.843	0.0159750
638.921	0.0159422
638.999	0.0158725
639.078	0.0160667
639.156	0.0159870
639.234	0.0159277
639.312	0.0159399
639.390	0.0159945
639.468	0.0159801
639.546	0.0159341
639.624	0.0160281
639.703	0.0161166
639.781	0.0159222
639.859	0.0159631
639.937	0.0161107
640.015	0.0161047
640.093	0.0159919
640.171	0.0160850
640.249	0.0159143
640.328	0.0160840
640.406	0.0160925
640.484	0.0160214
640.562	0.0159692
640.640	0.0159653
640.718	0.0161816
640.796	0.0161887
640.874	0.0162245
640.953	0.0161527
641.031	0.0161842
641.109	0.0160412
641.187	0.0160799
641.265	0.0160767
641.343	0.0162254
641.421	0.0161590
641.499	0.0161597
641.578	0.0160348
641.656	0.0163464
641.734	0.0160752
641.812	0.0160720
641.890	0.0161041
641.968	0.0161964
642.046	0.0161499
642.124	0.0161576
642.203	0.0163245
642.281	0.0162260
642.359	0.0160580
642.437	0.0160902
642.515	0.0161801
642.593	0.0161433
642.671	0.0160045
642.749	0.0160104
642.828	0.0160607
642.906	0.0161602
642.984	0.0161629
643.062	0.0160005
643.140	0.0160661
643.218	0.0160929
643.296	0.0162804
643.374	0.0161676
643.453	0.0161971
643.531	0.0162501
643.609	0.0162379
643.687	0.0161341
643.765	0.0163432
643.843	0.0161578
643.921	0.0161241
643.999	0.0160813
644.078	0.0161391
644.156	0.0161212
644.234	0.0161198
644.312	0.0161864
644.390	0.0162137
644.468	0.0160156
644.546	0.0160641
644.624	0.0160378
644.703	0.0160548
644.781	0.0159429
644.859	0.0162746
644.937	0.0161372
645.015	0.0161600
645.093	0.0160981
645.171	0.0162708
645.249	0.0161904
645.328	0.0161794
645.406	0.0160225
645.484	0.0159460
645.562	0.0161314
645.640	0.0161352
645.718	0.0162285
645.796	0.0161916
645.874	0.0160300
645.953	0.0161416
646.031	0.0159747
646.109	0.0159974
646.187	0.0160793
646.265	0.0159950
646.343	0.0160156
646.421	0.0160204
646.499	0.0161605
646.578	0.0161166
646.656	0.0159440
646.734	0.0159667
646.812	0.0160693
646.890	0.0161038
646.968	0.0161121
647.046	0.0161192
647.124	0.0160467
647.203	0.0160626
647.281	0.0160283
647.359	0.0161134
647.437	0.0160867
647.515	0.0160461
647.593	0.0160892
647.671	0.0159951
647.749	0.0159727
647.828	0.0160101
647.906	0.0160744
647.984	0.0162057
648.062	0.0161197
648.140	0.0160833
648.218	0.0161313
648.296	0.0160063
648.374	0.0160792
648.453	0.0160618
648.531	0.0161030
648.609	0.0162215
648.687	0.0160380
648.765	0.0160583
648.843	0.0160882
648.921	0.0161352
648.999	0.0160898
649.078	0.0159324
649.156	0.0160613
649.234	0.0161107
649.312	0.0161755
649.390	0.0161016
649.468	0.0160235
649.546	0.0160825
649.624	0.0160795
649.703	0.0160902
649.781	0.0161377
649.859	0.0160484
649.937	0.0160902
650.015	0.0160199
650.093	0.0160672
650.171	0.0160479
650.249	0.0159714
650.328	0.0161200
650.406	0.0161136
650.484	0.0160912
650.562	0.0160530
650.640	0.0160696
650.718	0.0159785
650.796	0.0158944
650.874	0.0159686
650.953	0.0159876
651.031	0.0159282
651.109	0.0161283
651.187	0.0161160
651.265	0.0160793
651.343	0.0161652
651.421	0.0161474
651.499	0.0159328
651.578	0.0159281
651.656	0.0160748
651.734	0.0160235
651.812	0.0160825
651.890	0.0161111
651.968	0.0160104
652.046	0.0160618
652.124	0.0158594
652.203	0.0160661
652.281	0.0161565
652.359	0.0161911
652.437	0.0159130
652.515	0.0160358
652.593	0.0160380
652.671	0.0160703
652.749	0.0159936
652.828	0.0162196
652.906	0.0161674
652.984	0.0160695
653.062	0.0160840
653.140	0.0160637
653.218	0.0161034
653.296	0.0161237
653.374	0.0161606
653.453	0.0162337
653.531	0.0161443
653.609	0.0160842
653.687	0.0160970
653.765	0.0162035
653.843	0.0160297
653.921	0.0160928
653.999	0.0161387
654.078	0.0159818
654.156	0.0160617
654.234	0.0161831
654.312	0.0161117
654.390	0.0160292
654.468	0.0162057
654.546	0.0161622
654.624	0.0160191
654.703	0.0161898
654.781	0.0161597
654.859	0.0161121
654.937	0.0159149
655.015	0.0161254
655.093	0.0162202
655.171	0.0162130
655.249	0.0159626
655.328	0.0161150
655.406	0.0160511
655.484	0.0160947
655.562	0.0159339
655.640	0.0160161
655.718	0.0160638
655.796	0.0160504
655.874	0.0160680
655.953	0.0160960
656.031	0.0160169
656.109	0.0160482
656.187	0.0160845
656.265	0.0160704
656.343	0.0161451
656.421	0.0160367
656.499	0.0160609
656.578	0.0160289
656.656	0.0160353
656.734	0.0160552
656.812	0.0161488
656.890	0.0161163
656.968	0.0160133
657.046	0.0161861
657.124	0.0161426
657.203	0.0160779
657.281	0.0159742
657.359	0.0160255
657.437	0.0160571
657.515	0.0160635
657.593	0.0160706
657.671	0.0160255
657.749	0.0161182
657.828	0.0159949
657.906	0.0160885
657.984	0.0160283
658.062	0.0159607
658.140	0.0159495
658.218	0.0159968
658.296	0.0161817
658.374	0.0160367
658.453	0.0159164
658.531	0.0159273
658.609	0.0160228
658.687	0.0159010
658.765	0.0159166
658.843	0.0159399
658.921	0.0158440
658.999	0.0159264
659.078	0.0158347
659.156	0.0160599
659.234	0.0158149
659.312	0.0158659
659.390	0.0159078
659.468	0.0159238
659.546	0.0159527
659.624	0.0158685
659.703	0.0158134
659.781	0.0158887
659.859	0.0159570
659.937	0.0159104
660.015	0.0158529
660.093	0.0158839
660.171	0.0158030
660.249	0.0158718
660.328	0.0158704
660.406	0.0159002
660.484	0.0158550
660.562	0.0160223
660.640	0.0159566
660.718	0.0157618
660.796	0.0158736
660.874	0.0159966
660.953	0.0158038
661.031	0.0159057
661.109	0.0159288
661.187	0.0160548
661.265	0.0158557
661.343	0.0157919
661.421	0.0157938
661.499	0.0159218
661.578	0.0160381
661.656	0.0158939
661.734	0.0157541
661.812	0.0158745
661.890	0.0158782
661.968	0.0157817
662.046	0.0160210
662.124	0.0158535
662.203	0.0159269
662.281	0.0159060
662.359	0.0158606
662.437	0.0157988
662.515	0.0158585
662.593	0.0158778
662.671	0.0159165
662.749	0.0159598
662.828	0.0159731
662.906	0.0159280
662.984	0.0159343
663.062	0.0160093
663.140	0.0158714
663.218	0.0158954
663.296	0.0157964
663.374	0.0159879
663.453	0.0159740
663.531	0.0160093
663.609	0.0160587
663.687	0.0159518
663.765	0.0159496
663.843	0.0158762
663.921	0.0159421
663.999	0.0158850
664.078	0.0159676
664.156	0.0159253
664.234	0.0160225
664.312	0.0158579
664.390	0.0159753
664.468	0.0159359
664.546	0.0158813
664.624	0.0159324
664.703	0.0161614
664.781	0.0159740
664.859	0.0159892
664.937	0.0158671
665.015	0.0158119
665.093	0.0159708
665.171	0.0158971
665.249	0.0159505
665.328	0.0159531
665.406	0.0159000
665.484	0.0159618
665.562	0.0159654
665.640	0.0158855
665.718	0.0160218
665.796	0.0160726
665.874	0.0158907
665.953	0.0157980
666.031	0.0159007
666.109	0.0159452
666.187	0.0159698
666.265	0.0159985
666.343	0.0159910
666.421	0.0160382
666.499	0.0159657
666.578	0.0160178
666.656	0.0161209
666.734	0.0160551
666.812	0.0160859
666.890	0.0160120
666.968	0.0160918
667.046	0.0161447
667.124	0.0159812
667.203	0.0160297
667.281	0.0160285
667.359	0.0159767
667.437	0.0160237
667.515	0.0159814
667.593	0.0159885
667.671	0.0160135
667.749	0.0159320
667.828	0.0160164
667.906	0.0160213
667.984	0.0159196
668.062	0.0160427
668.140	0.0160454
668.218	0.0160114
668.296	0.0160398
668.374	0.0161308
668.453	0.0160013
668.531	0.0160551
668.609	0.0162023
668.687	0.0161594
668.765	0.0160988
668.843	0.0161027
668.921	0.0160930
668.999	0.0161764
669.078	0.0160755
669.156	0.0161080
669.234	0.0160545
669.312	0.0161063
669.390	0.0161353
669.468	0.0160674
669.546	0.0159982
669.624	0.0161091
669.703	0.0161070
669.781	0.0159964
669.859	0.0161436
669.937	0.0159871
670.015	0.0159953
670.093	0.0160026
670.171	0.0161082
670.249	0.0161774
670.328	0.0161289
670.406	0.0161047
670.484	0.0161044
670.562	0.0159777
670.640	0.0160537
670.718	0.0160440
670.796	0.0161563
670.874	0.0161621
670.953	0.0161484
671.031	0.0159553
671.109	0.0159769
671.187	0.0161345
671.265	0.0162155
671.343	0.0160271
671.421	0.0160992
671.499	0.0160858
671.578	0.0161256
671.656	0.0160848
671.734	0.0160725
671.812	0.0159438
671.890	0.0160579
671.968	0.0162115
672.046	0.0161194
672.124	0.0161651
672.203	0.0162085
672.281	0.0161206
672.359	0.0160328
672.437	0.0161991
672.515	0.0162403
672.593	0.0159834
672.671	0.0160270
672.749	0.0160446
672.828	0.0160617
672.906	0.0160209
672.984	0.0161935
673.062	0.0160582
673.140	0.0160645
673.218	0.0159722
673.296	0.0159116
673.374	0.0161738
673.453	0.0161181
673.531	0.0158875
673.609	0.0160543
673.687	0.0159533
673.765	0.0159102
673.843	0.0160511
673.921	0.0160477
673.999	0.0159280
674.078	0.0159748
674.156	0.0158749
674.234	0.0159101
674.312	0.0160948
674.390	0.0160902
674.468	0.0161085
674.546	0.0160262
674.624	0.0159999
674.703	0.0158775
674.781	0.0161342
674.859	0.0161066
674.937	0.0159895
675.015	0.0159539
675.093	0.0159906
675.171	0.0160574
675.249	0.0162215
675.328	0.0158691
675.406	0.0159103
675.484	0.0161081
675.562	0.0160933
675.640	0.0161346
675.718	0.0160217
675.796	0.0160591
675.874	0.0160215
675.953	0.0161521
676.031	0.0161506
676.109	0.0160394
676.187	0.0159334
676.265	0.0159798
676.343	0.0161485
676.421	0.0160359
676.499	0.0160285
676.578	0.0160283
676.656	0.0160513
676.734	0.0161130
676.812	0.0160470
676.890	0.0159473
676.968	0.0161951
677.046	0.0159505
677.124	0.0158314
677.203	0.0159019
677.281	0.0160946
677.359	0.0160857
677.437	0.0160194
677.515	0.0160316
677.593	0.0159682
677.671	0.0159602
677.749	0.0160558
677.828	0.0161264
677.906	0.0159750
677.984	0.0159669
678.062	0.0161296
678.140	0.0159953
678.218	0.0159788
678.296	0.0159792
678.374	0.0160366
678.453	0.0161627
678.531	0.0158933
678.609	0.0159788
678.687	0.0160231
678.765	0.0161983
678.843	0.0160521
678.921	0.0159943
678.999	0.0159512
679.078	0.0159946
679.156	0.0159478
679.234	0.0160723
679.312	0.0159882
679.390	0.0160753
679.468	0.0159671
679.546	0.0159158
679.624	0.0159596
679.703	0.0158810
679.781	0.0160498
679.859	0.0160542
679.937	0.0159596
680.015	0.0159299
680.093	0.0160153
680.171	0.0158678
680.249	0.0158945
680.328	0.0160920
680.406	0.0161034
680.484	0.0160014
680.562	0.0160249
680.640	0.0159544
680.718	0.0160107
680.796	0.0158298
680.874	0.0158602
680.953	0.0158570
681.031	0.0159605
681.109	0.0159130
681.187	0.0159444
681.265	0.0159064
681.343	0.0157611
681.421	0.0158349
681.499	0.0160387
681.578	0.0159182
681.656	0.0159524
681.734	0.0158935
681.812	0.0159222
681.890	0.0158578
681.968	0.0158675
682.046	0.0159119
682.124	0.0158944
682.203	0.0160036
682.281	0.0158437
682.359	0.0158778
682.437	0.0159042
682.515	0.0158179
682.593	0.0158968
682.671	0.0158455
682.749	0.0158298
682.828	0.0160011
682.906	0.0158875
682.984	0.0158730
683.062	0.0159694
683.140	0.0159122
683.218	0.0158751
683.296	0.0159147
683.374	0.0159471
683.453	0.0158885
683.531	0.0159165
683.609	0.0159367
683.687	0.0158305
683.765	0.0159190
683.843	0.0159413
683.921	0.0160503
683.999	0.0158966
684.078	0.0158529
684.156	0.0159605
684.234	0.0159686
684.312	0.0156850
684.390	0.0159047
684.468	0.0158263
684.546	0.0157696
684.624	0.0159100
684.703	0.0158369
684.781	0.0159508
684.859	0.0159169
684.937	0.0158865
685.015	0.0158945
685.093	0.0159689
685.171	0.0159076
685.249	0.0158779
685.328	0.0160060
685.406	0.0160781
685.484	0.0159707
685.562	0.0160360
685.640	0.0159203
685.718	0.0158656
685.796	0.0160143
685.874	0.0159960
685.953	0.0159019
686.031	0.0159193
686.109	0.0159625
686.187	0.0160750
686.265	0.0158974
686.343	0.0160347
686.421	0.0159941
686.499	0.0159560
686.578	0.0159925
686.656	0.0158829
686.734	0.0159016
686.812	0.0158800
686.890	0.0159174
686.968	0.0158387
687.046	0.0160844
687.124	0.0160939
687.203	0.0158349
687.281	0.0159766
687.359	0.0160838
687.437	0.0160192
687.515	0.0159338
687.593	0.0159332
687.671	0.0161810
687.749	0.0159732
687.828	0.0159129
687.906	0.0160899
687.984	0.0160349
688.062	0.0159763
688.140	0.0159686
688.218	0.0159758
688.296	0.0161208
688.374	0.0160550
688.453	0.0159536
688.531	0.0160517
688.609	0.0159657
688.687	0.0159621
688.765	0.0161695
688.843	0.0159512
688.921	0.0159752
688.999	0.0160305
689.078	0.0159992
689.156	0.0159103
689.234	0.0160154
689.312	0.0159156
689.390	0.0160527
689.468	0.0161777
689.546	0.0160369
689.624	0.0160900
689.703	0.0159807
689.781	0.0160080
689.859	0.0160749
689.937	0.0160255
690.015	0.0160306
690.093	0.0160802
690.171	0.0159338
690.249	0.0160397
690.328	0.0160609
690.406	0.0160077
690.484	0.0160056
690.562	0.0159727
690.640	0.0159939
690.718	0.0161731
690.796	0.0159972
690.874	0.0160737
690.953	0.0160393
691.031	0.0160364
691.109	0.0159933
691.187	0.0161411
691.265	0.0161594
691.343	0.0161667
691.421	0.0161295
691.499	0.0161562
691.578	0.0160513
691.656	0.0160811
691.734	0.0160963
691.812	0.0158574
691.890	0.0160890
691.968	0.0161471
692.046	0.0158009
692.124	0.0161029
692.203	0.0160970
692.281	0.0161388
692.359	0.0160157
692.437	0.0160476
692.515	0.0160172
692.593	0.0160303
692.671	0.0160190
692.749	0.0158884
692.828	0.0160669
692.906	0.0160027
692.984	0.0159959
693.062	0.0159552
693.140	0.0160411
693.218	0.0160091
693.296	0.0158756
693.374	0.0159740
693.453	0.0159398
693.531	0.0159551
693.609	0.0161071
693.687	0.0161130
693.765	0.0161265
693.843	0.0160607
693.921	0.0160179
693.999	0.0159942
694.078	0.0159557
694.156	0.0160069
694.234	0.0159911
694.312	0.0160783
694.390	0.0160227
694.468	0.0158621
694.546	0.0159880
694.624	0.0160470
694.703	0.0161378
694.781	0.0159496
694.859	0.0160865
694.937	0.0160038
695.015	0.0159811
695.093	0.0159767
695.171	0.0159850
695.249	0.0160215
695.328	0.0160785
695.406	0.0161356
695.484	0.0161310
695.562	0.0160986
695.640	0.0161964
695.718	0.0159947
695.796	0.0160757
695.874	0.0160735
695.953	0.0161148
696.031	0.0161827
696.109	0.0161949
696.187	0.0161447
696.265	0.0159367
696.343	0.0159698
696.421	0.0162769
696.499	0.0161458
696.578	0.0160789
696.656	0.0159933
696.734	0.0161282
696.812	0.0160741
696.890	0.0160779
696.968	0.0160107
697.046	0.0160486
697.124	0.0160854
697.203	0.0160429
697.281	0.0161217
697.359	0.0160631
697.437	0.0160412
697.515	0.0160843
697.593	0.0162644
697.671	0.0160873
697.749	0.0159929
697.828	0.0161353
697.906	0.0161675
697.984	0.0159821
698.062	0.0160420
698.140	0.0160195
698.218	0.0162383
698.296	0.0160406
698.374	0.0160732
698.453	0.0160352
698.531	0.0160040
698.609	0.0160917
698.687	0.0160475
698.765	0.0161528
698.843	0.0161176
698.921	0.0160597
698.999	0.0161706
699.078	0.0160461
699.156	0.0160702
699.234	0.0159995
699.312	0.0161003
699.390	0.0161842
699.468	0.0160415
699.546	0.0160268
699.624	0.0159702
699.703	0.0159747
699.781	0.0160357
699.859	0.0160623
699.937	0.0160558
700.015	0.0160178
700.093	0.0159534
700.171	0.0161920
700.249	0.0160252
700.328	0.0162613
700.406	0.0160808
700.484	0.0161141
700.562	0.0159515
700.640	0.0160535
700.718	0.0160043
700.796	0.0160048
700.874	0.0161182
700.953	0.0160902
701.031	0.0159694
701.109	0.0160110
701.187	0.0160211
701.265	0.0159454
701.343	0.0160606
701.421	0.0160214
701.499	0.0161088
701.578	0.0159475
701.656	0.0159523
701.734	0.0160744
701.812	0.0160629
701.890	0.0159415
701.968	0.0160596
702.046	0.0159933
702.124	0.0160197
702.203	0.0160230
702.281	0.0159056
702.359	0.0159407
702.437	0.0159706
702.515	0.0160644
702.593	0.0159897
702.671	0.0160040
702.749	0.0158429
702.828	0.0159441
702.906	0.0160953
702.984	0.0160536
703.062	0.0158852
703.140	0.0159003
703.218	0.0159974
703.296	0.0158117
703.374	0.0159332
703.453	0.0160167
703.531	0.0160459
703.609	0.0161056
703.687	0.0161656
703.765	0.0160082
703.843	0.0159821
703.921	0.0160131
703.999	0.0159829
704.078	0.0160465
704.156	0.0160318
704.234	0.0158937
704.312	0.0159190
704.390	0.0160445
704.468	0.0159534
704.546	0.0161106
704.624	0.0161457
704.703	0.0160374
704.781	0.0160641
704.859	0.0160292
704.937	0.0160490
705.015	0.0159008
705.093	0.0160342
705.171	0.0160232
705.249	0.0160343
705.328	0.0159392
705.406	0.0160262
705.484	0.0159921
705.562	0.0159560
705.640	0.0160411
705.718	0.0160289
705.796	0.0161764
705.874	0.0160110
705.953	0.0160747
706.031	0.0159489
706.109	0.0160110
706.187	0.0161665
706.265	0.0160226
706.343	0.0158366
706.421	0.0159822
706.499	0.0159505
706.578	0.0158962
706.656	0.0160952
706.734	0.0159274
706.812	0.0159795
706.890	0.0158931
706.968	0.0159822
707.046	0.0158802
707.124	0.0160211
707.203	0.0160402
707.281	0.0159371
707.359	0.0159464
707.437	0.0160699
707.515	0.0159124
707.593	0.0158879
707.671	0.0160291
707.749	0.0158984
707.828	0.0160596
707.906	0.0160749
707.984	0.0159361
708.062	0.0158946
708.140	0.0159801
708.218	0.0159219
708.296	0.0159704
708.374	0.0160008
708.453	0.0159712
708.531	0.0160733
708.609	0.0160158
708.687	0.0160400
708.765	0.0159656
708.843	0.0160181
708.921	0.0159573
708.999	0.0161090
709.078	0.0160361
709.156	0.0158251
709.234	0.0159663
709.312	0.0159118
709.390	0.0160912
709.468	0.0159673
709.546	0.0158890
709.624	0.0160281
709.703	0.0160783
709.781	0.0158763
709.859	0.0158476
709.937	0.0159326
710.015	0.0159251
710.093	0.0159314
710.171	0.0160994
710.249	0.0159013
710.328	0.0158984
710.406	0.0158884
710.484	0.0160038
710.562	0.0158867
710.640	0.0159058
710.718	0.0159830
710.796	0.0159132
710.874	0.0160055
710.953	0.0159765
711.031	0.0160487
711.109	0.0160391
711.187	0.0160484
711.265	0.0161385
711.343	0.0160723
711.421	0.0160265
711.499	0.0158048
711.578	0.0159534
711.656	0.0159850
711.734	0.0161010
711.812	0.0161164
711.890	0.0161044
711.968	0.0159743
712.046	0.0160413
712.124	0.0160738
712.203	0.0160419
712.281	0.0160325
712.359	0.0160333
712.437	0.0159772
712.515	0.0160721
712.593	0.0159937
712.671	0.0160394
712.749	0.0161526
712.828	0.0160741
712.906	0.0161374
712.984	0.0160266
713.062	0.0160584
713.140	0.0161274
713.218	0.0161709
713.296	0.0161494
713.374	0.0160276
713.453	0.0159849
713.531	0.0161067
713.609	0.0161937
713.687	0.0161282
713.765	0.0161005
713.843	0.0160846
713.921	0.0160550
713.999	0.0161213
714.078	0.0162272
714.156	0.0161436
714.234	0.0159160
714.312	0.0160027
714.390	0.0161359
714.468	0.0161693
714.546	0.0161108
714.624	0.0159885
714.703	0.0160891
714.781	0.0160823
714.859	0.0161562
714.937	0.0161163
715.015	0.0161652
715.093	0.0160083
715.171	0.0160083
715.249	0.0161913
715.328	0.0161349
715.406	0.0162189
715.484	0.0161354
715.562	0.0160865
715.640	0.0160052
715.718	0.0161030
715.796	0.0160884
715.874	0.0161719
715.953	0.0161939
716.031	0.0160864
716.109	0.0160822
716.187	0.0161518
716.265	0.0161682
716.343	0.0160318
716.421	0.0160813
716.499	0.0161143
716.578	0.0161474
716.656	0.0160133
716.734	0.0160164
716.812	0.0163438
716.890	0.0161285
716.968	0.0159891
717.046	0.0161266
717.124	0.0160006
717.203	0.0161649
717.281	0.0160803
717.359	0.0160785
717.437	0.0160885
717.515	0.0160246
717.593	0.0161465
717.671	0.0161345
717.749	0.0161185
717.828	0.0161385
717.906	0.0160352
717.984	0.0161197
718.062	0.0160791
718.140	0.0161052
718.218	0.0162193
718.296	0.0161200
718.374	0.0161333
718.453	0.0161675
718.531	0.0159479
718.609	0.0161871
718.687	0.0160445
718.765	0.0161132
718.843	0.0160454
718.921	0.0160117
718.999	0.0160803
719.078	0.0161334
719.156	0.0161116
719.234	0.0161290
719.312	0.0161525
719.390	0.0160946
719.468	0.0161488
719.546	0.0161395
719.624	0.0161820
719.703	0.0161495
719.781	0.0161943
719.859	0.0160957
719.937	0.0160294
720.015	0.0162233
720.093	0.0160574
720.171	0.0160827
720.249	0.0161018
720.328	0.0161948
720.406	0.0161243
720.484	0.0161503
720.562	0.0159959
720.640	0.0162862
720.718	0.0160835
720.796	0.0159964
720.874	0.0160328
720.953	0.0160425
721.031	0.0162345
721.109	0.0162321
721.187	0.0160936
721.265	0.0159761
721.343	0.0160522
721.421	0.0161816
721.499	0.0160800
721.578	0.0158478
721.656	0.0160988
721.734	0.0161234
721.812	0.0160175
721.890	0.0160247
721.968	0.0160995
722.046	0.0160254
722.124	0.0160190
722.203	0.0162362
722.281	0.0161088
722.359	0.0160139
722.437	0.0159265
722.515	0.0161594
722.593	0.0160663
722.671	0.0160027
722.749	0.0161638
722.828	0.0161361
722.906	0.0160264
722.984	0.0160194
723.062	0.0162072
723.140	0.0161519
723.218	0.0158447
723.296	0.0160186
723.374	0.0160192
723.453	0.0160143
723.531	0.0160128
723.609	0.0160077
723.687	0.0159133
723.765	0.0159737
723.843	0.0161200
723.921	0.0159123
723.999	0.0159949
724.078	0.0160320
724.156	0.0159827
724.234	0.0160197
724.312	0.0161165
724.390	0.0161121
724.468	0.0160100
724.546	0.0162389
724.624	0.0162410
724.703	0.0160939
724.781	0.0160670
724.859	0.0159698
724.937	0.0161491
725.015	0.0161867
725.093	0.0160765
725.171	0.0161445
725.249	0.0161012
725.328	0.0160211
725.406	0.0160390
725.484	0.0161636
725.562	0.0160155
725.640	0.0161096
725.718	0.0160685
725.796	0.0160664
725.874	0.0161279
725.953	0.0162189
726.031	0.0162407
726.109	0.0160073
726.187	0.0160909
726.265	0.0160847
726.343	0.0161607
726.421	0.0160996
726.499	0.0160251
726.578	0.0160463
726.656	0.0160544
726.734	0.0160150
726.812	0.0159320
726.890	0.0160918
726.968	0.0160242
727.046	0.0159718
727.124	0.0160169
727.203	0.0159651
727.281	0.0160929
727.359	0.0160596
727.437	0.0160535
727.515	0.0161199
727.593	0.0159760
727.671	0.0160987
727.749	0.0159499
727.828	0.0161171
727.906	0.0159591
727.984	0.0160363
728.062	0.0159638
728.140	0.0159472
728.218	0.0158844
728.296	0.0159023
728.374	0.0160979
728.453	0.0159672
728.531	0.0160583
728.609	0.0158747
728.687	0.0160938
728.765	0.0159697
728.843	0.0159393
728.921	0.0161331
728.999	0.0158625
729.078	0.0158926
729.156	0.0160858
729.234	0.0160145
729.312	0.0160123
729.390	0.0160815
729.468	0.0161108
729.546	0.0161691
729.624	0.0160512
729.703	0.0160815
729.781	0.0161298
729.859	0.0159734
729.937	0.0160235
730.015	0.0161118
730.093	0.0160449
730.171	0.0159783
730.249	0.0160033
730.328	0.0159495
730.406	0.0160410
730.484	0.0160326
730.562	0.0159286
730.640	0.0159865
730.718	0.0159193
730.796	0.0161086
730.874	0.0160621
730.953	0.0159211
731.031	0.0157928
731.109	0.0159147
731.187	0.0159467
731.265	0.0158354
731.343	0.0158557
731.421	0.0158720
731.499	0.0158823
731.578	0.0158338
731.656	0.0159039
731.734	0.0158704
731.812	0.0158631
731.890	0.0158154
731.968	0.0158553
732.046	0.0159653
732.124	0.0157908
732.203	0.0158330
732.281	0.0159065
732.359	0.0158540
732.437	0.0157925
732.515	0.0159367
732.593	0.0160668
732.671	0.0159750
732.749	0.0160368
732.828	0.0160347
732.906	0.0160388
732.984	0.0158144
733.062	0.0159201
733.140	0.0160899
733.218	0.0159481
733.296	0.0159916
733.374	0.0160457
733.453	0.0160368
733.531	0.0160773
733.609	0.0160043
733.687	0.0160072
733.765	0.0160219
733.843	0.0159528
733.921	0.0159596
733.999	0.0160947
734.078	0.0158962
734.156	0.0159795
734.234	0.0160761
734.312	0.0158923
734.390	0.0160433
734.468	0.0160606
734.546	0.0158580
734.624	0.0157736
734.703	0.0159564
734.781	0.0160389
734.859	0.0158555
734.937	0.0159925
735.015	0.0159164
735.093	0.0158221
735.171	0.0159063
735.249	0.0158358
735.328	0.0158334
735.406	0.0157965
735.484	0.0159618
735.562	0.0158115
735.640	0.0158734
735.718	0.0159972
735.796	0.0159657
735.874	0.0159395
735.953	0.0159234
736.031	0.0159379
736.109	0.0157239
736.187	0.0158058
736.265	0.0160164
736.343	0.0159541
736.421	0.0159753
736.499	0.0158624
736.578	0.0158692
736.656	0.0160167
736.734	0.0158868
736.812	0.0159056
736.890	0.0159602
736.968	0.0158945
737.046	0.0160112
737.124	0.0160178
737.203	0.0158833
737.281	0.0159752
737.359	0.0160378
737.437	0.0161388
737.515	0.0160069
737.593	0.0160814
737.671	0.0159423
737.749	0.0159696
737.828	0.0160733
737.906	0.0159397
737.984	0.0159045
738.062	0.0160403
738.140	0.0161316
738.218	0.0159645
738.296	0.0159578
738.374	0.0158704
738.453	0.0159099
738.531	0.0158685
738.609	0.0160036
738.687	0.0158062
738.765	0.0159386
738.843	0.0159354
738.921	0.0159863
738.999	0.0159556
739.078	0.0159298
739.156	0.0159702
739.234	0.0160769
739.312	0.0159860
739.390	0.0159594
739.468	0.0158752
739.546	0.0159507
739.624	0.0158929
739.703	0.0158527
739.781	0.0159235
739.859	0.0158930
739.937	0.0158894
740.015	0.0160314
740.093	0.0160362
740.171	0.0158981
740.249	0.0160387
740.328	0.0160435
740.406	0.0158809
740.484	0.0160623
740.562	0.0160201
740.640	0.0159152
740.718	0.0159677
740.796	0.0160026
740.874	0.0159339
740.953	0.0158676
741.031	0.0160491
741.109	0.0160175
741.187	0.0158881
741.265	0.0159862
741.343	0.0158961
741.421	0.0159532
741.499	0.0159818
741.578	0.0161101
741.656	0.0160309
741.734	0.0159727
741.812	0.0160668
741.890	0.0160716
741.968	0.0161183
742.046	0.0159999
742.124	0.0161005
742.203	0.0161577
742.281	0.0160381
742.359	0.0160192
742.437	0.0159905
742.515	0.0160604
742.593	0.0160516
742.671	0.0159724
742.749	0.0160604
742.828	0.0159831
742.906	0.0161388
742.984	0.0160851
743.062	0.0160357
743.140	0.0159528
743.218	0.0159980
743.296	0.0160204
743.374	0.0159259
743.453	0.0161995
743.531	0.0159466
743.609	0.0160712
743.687	0.0160763
743.765	0.0160092
743.843	0.0160199
743.921	0.0161214
743.999	0.0161135
744.078	0.0159915
744.156	0.0159512
744.234	0.0162286
744.312	0.0162919
744.390	0.0160639
744.468	0.0161081
744.546	0.0160320
744.624	0.0159106
744.703	0.0160917
744.781	0.0160349
744.859	0.0159986
744.937	0.0158884
745.015	0.0159511
745.093	0.0159849
745.171	0.0160438
745.249	0.0159290
745.328	0.0159830
745.406	0.0160113
745.484	0.0160741
745.562	0.0159338
745.640	0.0159529
745.718	0.0159110
745.796	0.0160335
745.874	0.0159692
745.953	0.0159792
746.031	0.0161304
746.109	0.0160863
746.187	0.0158307
746.265	0.0158262
746.343	0.0160213
746.421	0.0161388
746.499	0.0160441
746.578	0.0160720
746.656	0.0159586
746.734	0.0160933
746.812	0.0160606
746.890	0.0160792
746.968	0.0160899
747.046	0.0162424
747.124	0.0161832
747.203	0.0162080
747.281	0.0160706
747.359	0.0161426
747.437	0.0161559
747.515	0.0161941
747.593	0.0160587
747.671	0.0159991
747.749	0.0160666
747.828	0.0161871
747.906	0.0162069
747.984	0.0159373
748.062	0.0160066
748.140	0.0160983
748.218	0.0159148
748.296	0.0158907
748.374	0.0160312
748.453	0.0159715
748.531	0.0159469
748.609	0.0160312
748.687	0.0159152
748.765	0.0160696
748.843	0.0161559
748.921	0.0160219
748.999	0.0160706
749.078	0.0160979
749.156	0.0160337
749.234	0.0160682
749.312	0.0161018
749.390	0.0160600
749.468	0.0159788
749.546	0.0159505
749.624	0.0159769
749.703	0.0160893
749.781	0.0159937
749.859	0.0160669
749.937	0.0160786
750.015	0.0161555
750.093	0.0159624
750.171	0.0159848
750.249	0.0160519
750.328	0.0161282
750.406	0.0161147
750.484	0.0159643
750.562	0.0160375
750.640	0.0161113
750.718	0.0159431
750.796	0.0160070
750.874	0.0160956
750.953	0.0159576
751.031	0.0159026
751.109	0.0159518
751.187	0.0159551
751.265	0.0159618
751.343	0.0161184
751.421	0.0160363
751.499	0.0160518
751.578	0.0159437
751.656	0.0159837
751.734	0.0160709
751.812	0.0160222
751.890	0.0159935
751.968	0.0160307
752.046	0.0160190
752.124	0.0160232
752.203	0.0160170
752.281	0.0160812
752.359	0.0160684
752.437	0.0161595
752.515	0.0160487
752.593	0.0160566
752.671	0.0160287
752.749	0.0161540
752.828	0.0160993
752.906	0.0162363
752.984	0.0161504
753.062	0.0161604
753.140	0.0161278
753.218	0.0160103
753.296	0.0159695
753.374	0.0159851
753.453	0.0160210
753.531	0.0159972
753.609	0.0159531
753.687	0.0159444
753.765	0.0160358
753.843	0.0159715
753.921	0.0160365
753.999	0.0161053
754.078	0.0158730
754.156	0.0159517
754.234	0.0160159
754.312	0.0160054
754.390	0.0159035
754.468	0.0159653
754.546	0.0159349
754.624	0.0159033
754.703	0.0159878
754.781	0.0161031
754.859	0.0160867
754.937	0.0158789
755.015	0.0159639
755.093	0.0160125
755.171	0.0159454
755.249	0.0159200
755.328	0.0161008
755.406	0.0158986
755.484	0.0158686
755.562	0.0158926
755.640	0.0158881
755.718	0.0159455
755.796	0.0159805
755.874	0.0159224
755.953	0.0159973
756.031	0.0159486
756.109	0.0158966
756.187	0.0158720
756.265	0.0157775
756.343	0.0159596
756.421	0.0160735
756.499	0.0159243
756.578	0.0160079
756.656	0.0160607
756.734	0.0161069
756.812	0.0159186
756.890	0.0158910
756.968	0.0160633
757.046	0.0161749
757.124	0.0159393
757.203	0.0158904
757.281	0.0158710
757.359	0.0160117
757.437	0.0160216
757.515	0.0158498
757.593	0.0158836
757.671	0.0159428
757.749	0.0160191
757.828	0.0159850
757.906	0.0158047
757.984	0.0159935
758.062	0.0159675
758.140	0.0159758
758.218	0.0159264
758.296	0.0159441
758.374	0.0157449
758.453	0.0157597
758.531	0.0159255
758.609	0.0158884
758.687	0.0158049
758.765	0.0158154
758.843	0.0157600
758.921	0.0157816
758.999	0.0158913
759.078	0.0158001
759.156	0.0158543
759.234	0.0159181
759.312	0.0158702
759.390	0.0159028
759.468	0.0160446
759.546	0.0158789
759.624	0.0159001
759.703	0.0159331
759.781	0.0160111
759.859	0.0159148
759.937	0.0159562
760.015	0.0160081
760.093	0.0160185
760.171	0.0158766
760.249	0.0160247
760.328	0.0161707
760.406	0.0159758
760.484	0.0159792
760.562	0.0160715
760.640	0.0159399
760.718	0.0161209
760.796	0.0158967
760.874	0.0159200
760.953	0.0157993
761.031	0.0159015
761.109	0.0159119
761.187	0.0159544
761.265	0.0158783
761.343	0.0158692
761.421	0.0158387
761.499	0.0159119
761.578	0.0159256
761.656	0.0158651
761.734	0.0157564
761.812	0.0158156
761.890	0.0158495
761.968	0.0157765
762.046	0.0158740
762.124	0.0158509
762.203	0.0158441
762.281	0.0158041
762.359	0.0159593
762.437	0.0158839
762.515	0.0158484
762.593	0.0157793
762.671	0.0157742
762.749	0.0158046
762.828	0.0159382
762.906	0.0158755
762.984	0.0160104
763.062	0.0159567
763.140	0.0158590
763.218	0.0159567
763.296	0.0159045
763.374	0.0157596
763.453	0.0157499
763.531	0.0158151
763.609	0.0158363
763.687	0.0159220
763.765	0.0160236
763.843	0.0159014
763.921	0.0157545
763.999	0.0157040
764.078	0.0158844
764.156	0.0159829
764.234	0.0158571
764.312	0.0159088
764.390	0.0160307
764.468	0.0160328
764.546	0.0160317
764.624	0.0160081
764.703	0.0160399
764.781	0.0161379
764.859	0.0160762
764.937	0.0160353
765.015	0.0161133
765.093	0.0160403
765.171	0.0161816
765.249	0.0162388
765.328	0.0160215
765.406	0.0161642
765.484	0.0159967
765.562	0.0157803
765.640	0.0159249
765.718	0.0159259
765.796	0.0158533
765.874	0.0158262
765.953	0.0159338
766.031	0.0158961
766.109	0.0158579
766.187	0.0159544
766.265	0.0159270
766.343	0.0159935
766.421	0.0161423
766.499	0.0160873
766.578	0.0159794
766.656	0.0160675
766.734	0.0159367
766.812	0.0158242
766.890	0.0158931
766.968	0.0157792
767.046	0.0159119
767.124	0.0159328
767.203	0.0157491
767.281	0.0157155
767.359	0.0156514
767.437	0.0157191
767.515	0.0156432
767.593	0.0157066
767.671	0.0155907
767.749	0.0156404
767.828	0.0157522
767.906	0.0158068
767.984	0.0157721
768.062	0.0157423
768.140	0.0155952
768.218	0.0158430
768.296	0.0158398
768.374	0.0160230
768.453	0.0159804
768.531	0.0159934
768.609	0.0160103
768.687	0.0162083
768.765	0.0161245
768.843	0.0162925
768.921	0.0162720
768.999	0.0162798
769.078	0.0162921
769.156	0.0162979
769.234	0.0164127
769.312	0.0162261
769.390	0.0162201
769.468	0.0162153
769.546	0.0163020
769.624	0.0163013
769.703	0.0162498
769.781	0.0163947
769.859	0.0163251
769.937	0.0161855
770.015	0.0162163
770.093	0.0163361
770.171	0.0162332
770.249	0.0162347
770.328	0.0161385
770.406	0.0160348
770.484	0.0159469
770.562	0.0159728
770.640	0.0160180
770.718	0.0157800
770.796	0.0158953
770.874	0.0158598
770.953	0.0158277
771.031	0.0158434
771.109	0.0158378
771.187	0.0160566
771.265	0.0158938
771.343	0.0160515
771.421	0.0159711
771.499	0.0159145
771.578	0.0157478
771.656	0.0158534
771.734	0.0161266
771.812	0.0158726
771.890	0.0159583
771.968	0.0159962
772.046	0.0160148
772.124	0.0160522
772.203	0.0162010
772.281	0.0160669
772.359	0.0161107
772.437	0.0161971
772.515	0.0161356
772.593	0.0160076
772.671	0.0160801
772.749	0.0161682
772.828	0.0160795
772.906	0.0162805
772.984	0.0161249
773.062	0.0159969
773.140	0.0161992
773.218	0.0161620
773.296	0.0160197
773.374	0.0162391
773.453	0.0161561
773.531	0.0160382
773.609	0.0161256
773.687	0.0160842
773.765	0.0162193
773.843	0.0162473
773.921	0.0161436
773.999	0.0162708
774.078	0.0162300
774.156	0.0161726
774.234	0.0162107
774.312	0.0162509
774.390	0.0163373
774.468	0.0162539
774.546	0.0161248
774.624	0.0160823
774.703	0.0161147
774.781	0.0161697
774.859	0.0160281
774.937	0.0160224
775.015	0.0160253
775.093	0.0161155
775.171	0.0158915
775.249	0.0159069
775.328	0.0159779
775.406	0.0160662
775.484	0.0159216
775.562	0.0159474
775.640	0.0160837
775.718	0.0160812
775.796	0.0160884
775.874	0.0160516
775.953	0.0161348
776.031	0.0162373
776.109	0.0162061
776.187	0.0159830
776.265	0.0160394
776.343	0.0158691
776.421	0.0157716
776.499	0.0158069
776.578	0.0157584
776.656	0.0158660
776.734	0.0157979
776.812	0.0157429
776.890	0.0157906
776.968	0.0157098
777.046	0.0159175
777.124	0.0158321
777.203	0.0157288
777.281	0.0158569
777.359	0.0158844
777.437	0.0157897
777.515	0.0159158
777.593	0.0159591
777.671	0.0161079
777.749	0.0159618
777.828	0.0160773
777.906	0.0160553
777.984	0.0160904
778.062	0.0158857
778.140	0.0160368
778.218	0.0161646
778.296	0.0162240
778.374	0.0160867
778.453	0.0161560
778.531	0.0163394
778.609	0.0162358
778.687	0.0161086
778.765	0.0162086
778.843	0.0161260
778.921	0.0161549
778.999	0.0161958
779.078	0.0162429
779.156	0.0160852
779.234	0.0160851
779.312	0.0161182
779.390	0.0160972
779.468	0.0159921
779.546	0.0159910
779.624	0.0159595
779.703	0.0158773
779.781	0.0160152
779.859	0.0159702
779.937	0.0157410
780.015	0.0158409
780.093	0.0157958
780.171	0.0156842
780.249	0.0156833
780.328	0.0157573
780.406	0.0156728
780.484	0.0157996
780.562	0.0157739
780.640	0.0157166
780.718	0.0156850
780.796	0.0158234
780.874	0.0158392
780.953	0.0158115
781.031	0.0159171
781.109	0.0158621
781.187	0.0160950
781.265	0.0160239
781.343	0.0161129
781.421	0.0160728
781.499	0.0161270
781.578	0.0161584
781.656	0.0161994
781.734	0.0162064
781.812	0.0162152
781.890	0.0160123
781.968	0.0160354
782.046	0.0161919
782.124	0.0161854
782.203	0.0161904
782.281	0.0159862
782.359	0.0160854
782.437	0.0159918
782.515	0.0159384
782.593	0.0158411
782.671	0.0158939
782.749	0.0159898
782.828	0.0158905
782.906	0.0159592
782.984	0.0160729
783.062	0.0160427
783.140	0.0159715
783.218	0.0161136
783.296	0.0161591
783.374	0.0161559
783.453	0.0162166
783.531	0.0163112
783.609	0.0160625
783.687	0.0162532
783.765	0.0162807
783.843	0.0162967
783.921	0.0161093
783.999	0.0160418
784.078	0.0161535
784.156	0.0162357
784.234	0.0161423
784.312	0.0161497
784.390	0.0161709
784.468	0.0159969
784.546	0.0158500
784.624	0.0160876
784.703	0.0160266
784.781	0.0158164
784.859	0.0157266
784.937	0.0156421
785.015	0.0157423
785.093	0.0156226
785.171	0.0155614
785.249	0.0156602
785.328	0.0155515
785.406	0.0154440
785.484	0.0156548
785.562	0.0155958
785.640	0.0156078
785.718	0.0155808
785.796	0.0156219
785.874	0.0156208
785.953	0.0157646
786.031	0.0157178
786.109	0.0157272
786.187	0.0158857
786.265	0.0158540
786.343	0.0157977
786.421	0.0158157
786.499	0.0161373
786.578	0.0158738
786.656	0.0160604
786.734	0.0161594
786.812	0.0159896
786.890	0.0159834
786.968	0.0161086
787.046	0.0161414
787.124	0.0161725
787.203	0.0162265
787.281	0.0162812
787.359	0.0162071
787.437	0.0161259
787.515	0.0163312
787.593	0.0164887
787.671	0.0162235
787.749	0.0163270
787.828	0.0164001
787.906	0.0164176
787.984	0.0164368
788.062	0.0163670
788.140	0.0163092
788.218	0.0163334
788.296	0.0162691
788.374	0.0162558
788.453	0.0160605
788.531	0.0160641
788.609	0.0160353
788.687	0.0158347
788.765	0.0158456
788.843	0.0158090
788.921	0.0157722
788.999	0.0157094
789.078	0.0155916
789.156	0.0158038
789.234	0.0154805
789.312	0.0155695
789.390	0.0155825
789.468	0.0155583
789.546	0.0156654
789.624	0.0155584
789.703	0.0156447
789.781	0.0155711
789.859	0.0157074
789.937	0.0156298
790.015	0.0157987
790.093	0.0156974
790.171	0.0157743
790.249	0.0155721
790.328	0.0158349
790.406	0.0158442
790.484	0.0158454
790.562	0.0159313
790.640	0.0159364
790.718	0.0159258
790.796	0.0161244
790.874	0.0159851
790.953	0.0160076
791.031	0.0161576
791.109	0.0160562
791.187	0.0160945
791.265	0.0162038
791.343	0.0163341
791.421	0.0163158
791.499	0.0163608
791.578	0.0162669
791.656	0.0162149
791.734	0.0166200
791.812	0.0164070
791.890	0.0163934
791.968	0.0163963
792.046	0.0164629
792.124	0.0164908
792.203	0.0164054
792.281	0.0163902
792.359	0.0162540
792.437	0.0163160
792.515	0.0162269
792.593	0.0161526
792.671	0.0160978
792.749	0.0161749
792.828	0.0161337
792.906	0.0160014
792.984	0.0161281
793.062	0.0159174
793.140	0.0159077
793.218	0.0159146
793.296	0.0158463
793.374	0.0157924
793.453	0.0157335
793.531	0.0157317
793.609	0.0157307
793.687	0.0157674
793.765	0.0157719
793.843	0.0156915
793.921	0.0157009
793.999	0.0156709
794.078	0.0157209
794.156	0.0157841
794.234	0.0158105
794.312	0.0157507
794.390	0.0156766
794.468	0.0155492
794.546	0.0157516
794.624	0.0159541
794.703	0.0159225
794.781	0.0161067
794.859	0.0160162
794.937	0.0160023
795.015	0.0162516
795.093	0.0162253
795.171	0.0161350
795.249	0.0160699
795.328	0.0161078
795.406	0.0162006
795.484	0.0161583
795.562	0.0162035
795.640	0.0162023
795.718	0.0161588
795.796	0.0161526
795.874	0.0160560
795.953	0.0160890
796.031	0.0162481
796.109	0.0162430
796.187	0.0162279
796.265	0.0162595
796.343	0.0162062
796.421	0.0162971
796.499	0.0162736
796.578	0.0163303
796.656	0.0163671
796.734	0.0161525
796.812	0.0162540
796.890	0.0161483
796.968	0.0161665
797.046	0.0159383
797.124	0.0160167
797.203	0.0159865
797.281	0.0158493
797.359	0.0160075
797.437	0.0158769
797.515	0.0157650
797.593	0.0155959
797.671	0.0157591
797.749	0.0158190
797.828	0.0158126
797.906	0.0158313
797.984	0.0157953
798.062	0.0158347
798.140	0.0157091
798.218	0.0158588
798.296	0.0157178
798.374	0.0159892
798.453	0.0158967
798.531	0.0159055
798.609	0.0159415
798.687	0.0159929
798.765	0.0159422
798.843	0.0159207
798.921	0.0157814
798.999	0.0159985
799.078	0.0158803
799.156	0.0157867
799.234	0.0159464
799.312	0.0159016
799.390	0.0161368
799.468	0.0159860
799.546	0.0159838
799.624	0.0159161
799.703	0.0161127
799.781	0.0160918
799.859	0.0162324
799.937	0.0161579
800.015	0.0162881
800.093	0.0162663
800.171	0.0162594
800.249	0.0164574
800.328	0.0163058
800.406	0.0162637
800.484	0.0162862
800.562	0.0163139
800.640	0.0162184
800.718	0.0162568
800.796	0.0164453
800.874	0.0163264
800.953	0.0161111
801.031	0.0164081
801.109	0.0163124
801.187	0.0163663
801.265	0.0161722
801.343	0.0160740
801.421	0.0161673
801.499	0.0160551
801.578	0.0159534
801.656	0.0157903
801.734	0.0158302
801.812	0.0158849
801.890	0.0156642
801.968	0.0156696
802.046	0.0155865
802.124	0.0157719
802.203	0.0156149
802.281	0.0154980
802.359	0.0155706
802.437	0.0155938
802.515	0.0156017
802.593	0.0157009
802.671	0.0155518
802.749	0.0157556
802.828	0.0157399
802.906	0.0156456
802.984	0.0157784
803.062	0.0158002
803.140	0.0157973
803.218	0.0159663
803.296	0.0160333
803.374	0.0160181
803.453	0.0160105
803.531	0.0160296
803.609	0.0161617
803.687	0.0161934
803.765	0.0161438
803.843	0.0162355
803.921	0.0162023
803.999	0.0160456
804.078	0.0161553
804.156	0.0160438
804.234	0.0160602
804.312	0.0159975
804.390	0.0160789
804.468	0.0161096
804.546	0.0162218
804.624	0.0161389
804.703	0.0161360
804.781	0.0160747
804.859	0.0161256
804.937	0.0160933
805.015	0.0161314
805.093	0.0161530
805.171	0.0162036
805.249	0.0160939
805.328	0.0161647
805.406	0.0161748
805.484	0.0160661
805.562	0.0160434
805.640	0.0162508
805.718	0.0162276
805.796	0.0160060
805.874	0.0159875
805.953	0.0160699
806.031	0.0161570
806.109	0.0159311
806.187	0.0158688
806.265	0.0159107
806.343	0.0158360
806.421	0.0158246
806.499	0.0158491
806.578	0.0157689
806.656	0.0157410
806.734	0.0158576
806.812	0.0157298
806.890	0.0157411
806.968	0.0156721
807.046	0.0157658
807.124	0.0156544
807.203	0.0156712
807.281	0.0156583
807.359	0.0157539
807.437	0.0158595
807.515	0.0158392
807.593	0.0158329
807.671	0.0156577
807.749	0.0158519
807.828	0.0158682
807.906	0.0159787
807.984	0.0159852
808.062	0.0160123
808.140	0.0162808
808.218	0.0162453
808.296	0.0161140
808.374	0.0163332
808.453	0.0163085
808.531	0.0163806
808.609	0.0162408
808.687	0.0164140
808.765	0.0164825
808.843	0.0162647
808.921	0.0164172
808.999	0.0163246
809.078	0.0163940
809.156	0.0163678
809.234	0.0163738
809.312	0.0162843
809.390	0.0160896
809.468	0.0161785
809.546	0.0161987
809.624	0.0159377
809.703	0.0160168
809.781	0.0159094
809.859	0.0159349
809.937	0.0159119
810.015	0.0157066
810.093	0.0156121
810.171	0.0157618
810.249	0.0156823
810.328	0.0155508
810.406	0.0155460
810.484	0.0156322
810.562	0.0157082
810.640	0.0156371
810.718	0.0156735
810.796	0.0156498
810.874	0.0156545
810.953	0.0157432
811.031	0.0156793
811.109	0.0158497
811.187	0.0159679
811.265	0.0159709
811.343	0.0161016
811.421	0.0161207
811.499	0.0159381
811.578	0.0158930
811.656	0.0162811
811.734	0.0160633
811.812	0.0161166
811.890	0.0163078
811.968	0.0161298
812.046	0.0163005
812.124	0.0162016
812.203	0.0162161
812.281	0.0162592
812.359	0.0163802
812.437	0.0162754
812.515	0.0163649
812.593	0.0163354
812.671	0.0163145
812.749	0.0163451
812.828	0.0161391
812.906	0.0162161
812.984	0.0162526
813.062	0.0162158
813.140	0.0161408
813.218	0.0158797
813.296	0.0160490
813.374	0.0160587
813.453	0.0159537
813.531	0.0158550
813.609	0.0158024
813.687	0.0159937
813.765	0.0157976
813.843	0.0158326
813.921	0.0159095
813.999	0.0159659
814.078	0.0158665
814.156	0.0159629
814.234	0.0161160
814.312	0.0160196
814.390	0.0158778
814.468	0.0160738
814.546	0.0159265
814.624	0.0158694
814.703	0.0159666
814.781	0.0159107
814.859	0.0158073
814.937	0.0158752
815.015	0.0158380
815.093	0.0158118
815.171	0.0158199
815.249	0.0157253
815.328	0.0158382
815.406	0.0158906
815.484	0.0158283
815.562	0.0158701
815.640	0.0159704
815.718	0.0159974
815.796	0.0160333
815.874	0.0161096
815.953	0.0162332
816.031	0.0162642
816.109	0.0162238
816.187	0.0162029
816.265	0.0160571
816.343	0.0159994
816.421	0.0160446
816.499	0.0160648
816.578	0.0161452
816.656	0.0159857
816.734	0.0160188
816.812	0.0160363
816.890	0.0159405
816.968	0.0159547
817.046	0.0159908
817.124	0.0159039
817.203	0.0159948
817.281	0.0159758
817.359	0.0160865
817.437	0.0160822
817.515	0.0160963
817.593	0.0160374
817.671	0.0159760
817.749	0.0160823
817.828	0.0161004
817.906	0.0159248
817.984	0.0158953
818.062	0.0158952
818.140	0.0158856
818.218	0.0160416
818.296	0.0159464
818.374	0.0158871
818.453	0.0160513
818.531	0.0158898
818.609	0.0158798
818.687	0.0160022
818.765	0.0159515
818.843	0.0158978
818.921	0.0160446
818.999	0.0159875
819.078	0.0159041
819.156	0.0159463
819.234	0.0158578
819.312	0.0160036
819.390	0.0158196
819.468	0.0156822
819.546	0.0159432
819.624	0.0157110
819.703	0.0156643
819.781	0.0156503
819.859	0.0158313
819.937	0.0157892
820.015	0.0156962
820.093	0.0158697
820.171	0.0158220
820.249	0.0158421
820.328	0.0159104
820.406	0.0159715
820.484	0.0159315
820.562	0.0161087
820.640	0.0161236
820.718	0.0161355
820.796	0.0161896
820.874	0.0163985
820.953	0.0161086
821.031	0.0162158
821.109	0.0163635
821.187	0.0163257
821.265	0.0162017
821.343	0.0161005
821.421	0.0161526
821.499	0.0160744
821.578	0.0159999
821.656	0.0161037
821.734	0.0161377
821.812	0.0160129
821.890	0.0158987
821.968	0.0160072
822.046	0.0159908
822.124	0.0159515
822.203	0.0159077
822.281	0.0160677
822.359	0.0160748
822.437	0.0159539
822.515	0.0159047
822.593	0.0159467
822.671	0.0159538
822.749	0.0158075
822.828	0.0158001
822.906	0.0156778
822.984	0.0157634
823.062	0.0157269
823.140	0.0157451
823.218	0.0156124
823.296	0.0157646
823.374	0.0158138
823.453	0.0158155
823.531	0.0157413
823.609	0.0158298
823.687	0.0159306
823.765	0.0159007
823.843	0.0158826
823.921	0.0159653
823.999	0.0159081
824.078	0.0159397
824.156	0.0159782
824.234	0.0160455
824.312	0.0161010
824.390	0.0159983
824.468	0.0159867
824.546	0.0161628
824.624	0.0160255
824.703	0.0161431
824.781	0.0161735
824.859	0.0162154
824.937	0.0160814
825.015	0.0163254
825.093	0.0164568
825.171	0.0162117
825.249	0.0162340
825.328	0.0161797
825.406	0.0162238
825.484	0.0162118
825.562	0.0161673
825.640	0.0162197
825.718	0.0160776
825.796	0.0159300
825.874	0.0158708
825.953	0.0157901
826.031	0.0156998
826.109	0.0154927
826.187	0.0155779
826.265	0.0155215
826.343	0.0155946
826.421	0.0155653
826.499	0.0156168
826.578	0.0156001
826.656	0.0155027
826.734	0.0155180
826.812	0.0154858
826.890	0.0156700
826.968	0.0157035
827.046	0.0157114
827.124	0.0161099
827.203	0.0159850
827.281	0.0161452
827.359	0.0162728
827.437	0.0163662
827.515	0.0162400
827.593	0.0163795
827.671	0.0164794
827.749	0.0163618
827.828	0.0166077
827.906	0.0164353
827.984	0.0164143
828.062	0.0165300
828.140	0.0163608
828.218	0.0163076
828.296	0.0164067
828.374	0.0162412
828.453	0.0163126
828.531	0.0162306
828.609	0.0160671
828.687	0.0159960
828.765	0.0158878
828.843	0.0157699
828.921	0.0156289
828.999	0.0156831
829.078	0.0156728
829.156	0.0155705
829.234	0.0154408
829.312	0.0153639
829.390	0.0154972
829.468	0.0153722
829.546	0.0154771
829.624	0.0153826
829.703	0.0155346
829.781	0.0155060
829.859	0.0155676
829.937	0.0157006
830.015	0.0158167
830.093	0.0158392
830.171	0.0158077
830.249	0.0159351
830.328	0.0160509
830.406	0.0161259
830.484	0.0160791
830.562	0.0160979
830.640	0.0161810
830.718	0.0162769
830.796	0.0163818
830.874	0.0162730
830.953	0.0162680
831.031	0.0163154
831.109	0.0163919
831.187	0.0164142
831.265	0.0161593
831.343	0.0163858
831.421	0.0163367
831.499	0.0162963
831.578	0.0162447
831.656	0.0161948
831.734	0.0160811
831.812	0.0162990
831.890	0.0161864
831.968	0.0160271
832.046	0.0160123
832.124	0.0160799
832.203	0.0160353
832.281	0.0160642
832.359	0.0159057
832.437	0.0161293
832.515	0.0159307
832.593	0.0160091
832.671	0.0159898
832.749	0.0158820
832.828	0.0160054
832.906	0.0158489
832.984	0.0158130
833.062	0.0157675
833.140	0.0157729
833.218	0.0159367
833.296	0.0160102
833.374	0.0157593
833.453	0.0158521
833.531	0.0159569
833.609	0.0159476
833.687	0.0157357
833.765	0.0159270
833.843	0.0158122
833.921	0.0159801
833.999	0.0159446
834.078	0.0159249
834.156	0.0158607
834.234	0.0158559
834.312	0.0160538
834.390	0.0158839
834.468	0.0160697
834.546	0.0160905
834.624	0.0160037
834.703	0.0160236
834.781	0.0160179
834.859	0.0161366
834.937	0.0162448
835.015	0.0163165
835.093	0.0161421
835.171	0.0162661
835.249	0.0163131
835.328	0.0163480
835.406	0.0163468
835.484	0.0162443
835.562	0.0162974
835.640	0.0163689
835.718	0.0160908
835.796	0.0161634
835.874	0.0161265
835.953	0.0159389
836.031	0.0159796
836.109	0.0160834
836.187	0.0158924
836.265	0.0159615
836.343	0.0160296
836.421	0.0160159
836.499	0.0160336
836.578	0.0158567
836.656	0.0160722
836.734	0.0160574
836.812	0.0160708
836.890	0.0161485
836.968	0.0160539
837.046	0.0161915
837.124	0.0160383
837.203	0.0163947
837.281	0.0161831
837.359	0.0160648
837.437	0.0160620
837.515	0.0162856
837.593	0.0162109
837.671	0.0161852
837.749	0.0162019
837.828	0.0162070
837.906	0.0160068
837.984	0.0163046
838.062	0.0160762
838.140	0.0161185
838.218	0.0160903
838.296	0.0163350
838.374	0.0160690
838.453	0.0160636
838.531	0.0160928
838.609	0.0159702
838.687	0.0160706
838.765	0.0160647
838.843	0.0160043
838.921	0.0157895
838.999	0.0158079
839.078	0.0158193
839.156	0.0158924
839.234	0.0159518
839.312	0.0157553
839.390	0.0157973
839.468	0.0159449
839.546	0.0158881
839.624	0.0160126
839.703	0.0159077
839.781	0.0159690
839.859	0.0159595
839.937	0.0158656
840.015	0.0160296
840.093	0.0159678
840.171	0.0160335
840.249	0.0160146
840.328	0.0159221
840.406	0.0160165
840.484	0.0159948
840.562	0.0159969
840.640	0.0159197
840.718	0.0161006
840.796	0.0160317
840.874	0.0161026
840.953	0.0161201
841.031	0.0160300
841.109	0.0162963
841.187	0.0161663
841.265	0.0162093
841.343	0.0161749
841.421	0.0161150
841.499	0.0161540
841.578	0.0161883
841.656	0.0161698
841.734	0.0162213
841.812	0.0161057
841.890	0.0162157
841.968	0.0160927
842.046	0.0161839
842.124	0.0160804
842.203	0.0160779
842.281	0.0161060
842.359	0.0162302
842.437	0.0160672
842.515	0.0159589
842.593	0.0161027
842.671	0.0161497
842.749	0.0159325
842.828	0.0159949
842.906	0.0159491
842.984	0.0158746
843.062	0.0158681
843.140	0.0158698
843.218	0.0158716
843.296	0.0157506
843.374	0.0157241
843.453	0.0159144
843.531	0.0158273
843.609	0.0156802
843.687	0.0157695
843.765	0.0158294
843.843	0.0157256
843.921	0.0156850
843.999	0.0155928
844.078	0.0156468
844.156	0.0157178
844.234	0.0157420
844.312	0.0157761
844.390	0.0157454
844.468	0.0157365
844.546	0.0159327
844.624	0.0159215
844.703	0.0159144
844.781	0.0160057
844.859	0.0159969
844.937	0.0160754
845.015	0.0160561
845.093	0.0161678
845.171	0.0162714
845.249	0.0162855
845.328	0.0161671
845.406	0.0162580
845.484	0.0163572
845.562	0.0162506
845.640	0.0161745
845.718	0.0163556
845.796	0.0163256
845.874	0.0162339
845.953	0.0162339
846.031	0.0164039
846.109	0.0162802
846.187	0.0161487
846.265	0.0162785
846.343	0.0160393
846.421	0.0160783
846.499	0.0161649
846.578	0.0160738
846.656	0.0159490
846.734	0.0159822
846.812	0.0158112
846.890	0.0158981
846.968	0.0158681
847.046	0.0157890
847.124	0.0156213
847.203	0.0156120
847.281	0.0156030
847.359	0.0157304
847.437	0.0156726
847.515	0.0156368
847.593	0.0156887
847.671	0.0156004
847.749	0.0156385
847.828	0.0157477
847.906	0.0157112
847.984	0.0157573
848.062	0.0158997
848.140	0.0159900
848.218	0.0158899
848.296	0.0159232
848.374	0.0162183
848.453	0.0163419
848.531	0.0162907
848.609	0.0162130
848.687	0.0163628
848.765	0.0164752
848.843	0.0163200
848.921	0.0162930
848.999	0.0162618
849.078	0.0164286
849.156	0.0164129
849.234	0.0161427
849.312	0.0161334
849.390	0.0162170
849.468	0.0162030
849.546	0.0160725
849.624	0.0161359
849.703	0.0162846
849.781	0.0161824
849.859	0.0161604
849.937	0.0160803
850.015	0.0162014
850.093	0.0162421
850.171	0.0160534
850.249	0.0161427
850.328	0.0160769
850.406	0.0161868
850.484	0.0162061
850.562	0.0161462
850.640	0.0161612
850.718	0.0161669
850.796	0.0160870
850.874	0.0160508
850.953	0.0159379
851.031	0.0158599
851.109	0.0159523
851.187	0.0160786
851.265	0.0158617
851.343	0.0158016
851.421	0.0159355
851.499	0.0159946
851.578	0.0160262
851.656	0.0160583
851.734	0.0158704
851.812	0.0159827
851.890	0.0160840
851.968	0.0161182
852.046	0.0160262
852.124	0.0160315
852.203	0.0161468
852.281	0.0161355
852.359	0.0162971
852.437	0.0160249
852.515	0.0160772
852.593	0.0161430
852.671	0.0160466
852.749	0.0160879
852.828	0.0161760
852.906	0.0160187
852.984	0.0161365
853.062	0.0162668
853.140	0.0160281
853.218	0.0161460
853.296	0.0162046
853.374	0.0162311
853.453	0.0161576
853.531	0.0162318
853.609	0.0161134
853.687	0.0162101
853.765	0.0160642
853.843	0.0162235
853.921	0.0162003
853.999	0.0160995
854.078	0.0160496
854.156	0.0160458
854.234	0.0162086
854.312	0.0160049
854.390	0.0159442
854.468	0.0158788
854.546	0.0159129
854.624	0.0158899
854.703	0.0158821
854.781	0.0158783
854.859	0.0158414
854.937	0.0159579
855.015	0.0159167
855.093	0.0160693
855.171	0.0158842
855.249	0.0157733
855.328	0.0159756
855.406	0.0160188
855.484	0.0158382
855.562	0.0159408
855.640	0.0159788
855.718	0.0159290
855.796	0.0160165
855.874	0.0160051
855.953	0.0161415
856.031	0.0161206
856.109	0.0160339
856.187	0.0161104
856.265	0.0161710
856.343	0.0159949
856.421	0.0160905
856.499	0.0161205
856.578	0.0160379
856.656	0.0159205
856.734	0.0159562
856.812	0.0160770
856.890	0.0158579
856.968	0.0160085
857.046	0.0160661
857.124	0.0159347
857.203	0.0158167
857.281	0.0160224
857.359	0.0160210
857.437	0.0157792
857.515	0.0159080
857.593	0.0158823
857.671	0.0159087
857.749	0.0161899
857.828	0.0161075
857.906	0.0161182
857.984	0.0161732
858.062	0.0160352
858.140	0.0162018
858.218	0.0163171
858.296	0.0163733
858.374	0.0162978
858.453	0.0162771
858.531	0.0163479
858.609	0.0161974
858.687	0.0162517
858.765	0.0163346
858.843	0.0162533
858.921	0.0161031
858.999	0.0161525
859.078	0.0162794
859.156	0.0160493
859.234	0.0163112
859.312	0.0161404
859.390	0.0161047
859.468	0.0160974
859.546	0.0160565
859.624	0.0159361
859.703	0.0159511
859.781	0.0160461
859.859	0.0160178
859.937	0.0159115
860.015	0.0159056
860.093	0.0159023
860.171	0.0157859
860.249	0.0158636
860.328	0.0158028
860.406	0.0158125
860.484	0.0158249
860.562	0.0156274
860.640	0.0157281
860.718	0.0157294
860.796	0.0156279
860.874	0.0156749
860.953	0.0156777
861.031	0.0157796
861.109	0.0156992
861.187	0.0155341
861.265	0.0157940
861.343	0.0157696
861.421	0.0159686
861.499	0.0158874
861.578	0.0158835
861.656	0.0157961
861.734	0.0159313
861.812	0.0158739
861.890	0.0158379
861.968	0.0158556
862.046	0.0160542
862.124	0.0160526
862.203	0.0159780
862.281	0.0158855
862.359	0.0161027
862.437	0.0160691
862.515	0.0159912
862.593	0.0161639
862.671	0.0160934
862.749	0.0161980
862.828	0.0161838
862.906	0.0161826
862.984	0.0161708
863.062	0.0162005
863.140	0.0161155
863.218	0.0160871
863.296	0.0161495
863.374	0.0159629
863.453	0.0159406
863.531	0.0159221
863.609	0.0159992
863.687	0.0158764
863.765	0.0159248
863.843	0.0159760
863.921	0.0158496
863.999	0.0158609
864.078	0.0158751
864.156	0.0159320
864.234	0.0158884
864.312	0.0158982
864.390	0.0158987
864.468	0.0158160
864.546	0.0159476
864.624	0.0158125
864.703	0.0157680
864.781	0.0160177
864.859	0.0158654
864.937	0.0158453
865.015	0.0157209
865.093	0.0157055
865.171	0.0157229
865.249	0.0157389
865.328	0.0157391
865.406	0.0158174
865.484	0.0157466
865.562	0.0157699
865.640	0.0157622
865.718	0.0156916
865.796	0.0157652
865.874	0.0158410
865.953	0.0157753
866.031	0.0158488
866.109	0.0160026
866.187	0.0160016
866.265	0.0158934
866.343	0.0160658
866.421	0.0159786
866.499	0.0160442
866.578	0.0160995
866.656	0.0160478
866.734	0.0161010
866.812	0.0161234
866.890	0.0162056
866.968	0.0162794
867.046	0.0163080
867.124	0.0161657
867.203	0.0162051
867.281	0.0162703
867.359	0.0162521
867.437	0.0162041
867.515	0.0162955
867.593	0.0162145
867.671	0.0162712
867.749	0.0162535
867.828	0.0161671
867.906	0.0162280
867.984	0.0162972
868.062	0.0161696
868.140	0.0163578
868.218	0.0161275
868.296	0.0160889
868.374	0.0161222
868.453	0.0159636
868.531	0.0159605
868.609	0.0160120
868.687	0.0158419
868.765	0.0159315
868.843	0.0157668
868.921	0.0158371
868.999	0.0158956
869.078	0.0158652
869.156	0.0159141
869.234	0.0158668
869.312	0.0158685
869.390	0.0157710
869.468	0.0158880
869.546	0.0158744
869.624	0.0158624
869.703	0.0160381
869.781	0.0161005
869.859	0.0158743
869.937	0.0160342
870.015	0.0160178
870.093	0.0160181
870.171	0.0159756
870.249	0.0161492
870.328	0.0160376
870.406	0.0161771
870.484	0.0161797
870.562	0.0161528
870.640	0.0161100
870.718	0.0162194
870.796	0.0162791
870.874	0.0161958
870.953	0.0161586
871.031	0.0162905
871.109	0.0160594
871.187	0.0161188
871.265	0.0160706
871.343	0.0162178
871.421	0.0161765
871.499	0.0161809
871.578	0.0160903
871.656	0.0160969
871.734	0.0160130
871.812	0.0160350
871.890	0.0159605
871.968	0.0160640
872.046	0.0158863
872.124	0.0159792
872.203	0.0160915
872.281	0.0160658
872.359	0.0158675
872.437	0.0159990
872.515	0.0159604
872.593	0.0160854
872.671	0.0160192
872.749	0.0161105
872.828	0.0160875
872.906	0.0160323
872.984	0.0161231
873.062	0.0161364
873.140	0.0161518
873.218	0.0160207
873.296	0.0160613
873.374	0.0160575
873.453	0.0160897
873.531	0.0159352
873.609	0.0160328
873.687	0.0159872
873.765	0.0160059
873.843	0.0160210
873.921	0.0160509
873.999	0.0160329
874.078	0.0160448
874.156	0.0161567
874.234	0.0160551
874.312	0.0162466
874.390	0.0161716
874.468	0.0161058
874.546	0.0161050
874.624	0.0162193
874.703	0.0161535
874.781	0.0162462
874.859	0.0162700
874.937	0.0162120
875.015	0.0160336
875.093	0.0161848
875.171	0.0162440
875.249	0.0161634
875.328	0.0160328
875.406	0.0162363
875.484	0.0161308
875.562	0.0161313
875.640	0.0162309
875.718	0.0162666
875.796	0.0161930
875.874	0.0161845
875.953	0.0162202
876.031	0.0161849
876.109	0.0162727
876.187	0.0162659
876.265	0.0161895
876.343	0.0162579
876.421	0.0160746
876.499	0.0161192
876.578	0.0161293
876.656	0.0162063
876.734	0.0160353
876.812	0.0160081
876.890	0.0160522
876.968	0.0160338
877.046	0.0158681
877.124	0.0159278
877.203	0.0160926
877.281	0.0157983
877.359	0.0159869
877.437	0.0159718
877.515	0.0158995
877.593	0.0159972
877.671	0.0159598
877.749	0.0159580
877.828	0.0160606
877.906	0.0158047
877.984	0.0159733
878.062	0.0158858
878.140	0.0158980
878.218	0.0159687
878.296	0.0160299
878.374	0.0160686
878.453	0.0159837
878.531	0.0161288
878.609	0.0161388
878.687	0.0159778
878.765	0.0158616
878.843	0.0158964
878.921	0.0159371
878.999	0.0159576
879.078	0.0158332
879.156	0.0159670
879.234	0.0158463
879.312	0.0158897
879.390	0.0158833
879.468	0.0158596
879.546	0.0158275
879.624	0.0157774
879.703	0.0159445
879.781	0.0157286
879.859	0.0158578
879.937	0.0158649
880.015	0.0158563
880.093	0.0159372
880.171	0.0158401
880.249	0.0159031
880.328	0.0159263
880.406	0.0160040
880.484	0.0159561
880.562	0.0159807
880.640	0.0158563
880.718	0.0160940
880.796	0.0160522
880.874	0.0161358
880.953	0.0161137
881.031	0.0161790
881.109	0.0161474
881.187	0.0162141
881.265	0.0162767
881.343	0.0161763
881.421	0.0161726
881.499	0.0161282
881.578	0.0160968
881.656	0.0162492
881.734	0.0160199
881.812	0.0159705
881.890	0.0159977
881.968	0.0161262
882.046	0.0160660
882.124	0.0159708
882.203	0.0160065
882.281	0.0159344
882.359	0.0159295
882.437	0.0160589
882.515	0.0158810
882.593	0.0161488
882.671	0.0162054
882.749	0.0159810
882.828	0.0160573
882.906	0.0160687
882.984	0.0160287
883.062	0.0160802
883.140	0.0161518
883.218	0.0160229
883.296	0.0159780
883.374	0.0160953
883.453	0.0160078
883.531	0.0160270
883.609	0.0159741
883.687	0.0160310
883.765	0.0162004
883.843	0.0160805
883.921	0.0161662
883.999	0.0160910
884.078	0.0160759
884.156	0.0161302
884.234	0.0160815
884.312	0.0161867
884.390	0.0161522
884.468	0.0161804
884.546	0.0160507
884.624	0.0162336
884.703	0.0160899
884.781	0.0160206
884.859	0.0160865
884.937	0.0161415
885.015	0.0161288
885.093	0.0159615
885.171	0.0162131
885.249	0.0160035
885.328	0.0161033
885.406	0.0160093
885.484	0.0160384
885.562	0.0160648
885.640	0.0159576
885.718	0.0159926
885.796	0.0159895
885.874	0.0160827
885.953	0.0159981
886.031	0.0161488
886.109	0.0161430
886.187	0.0161569
886.265	0.0159421
886.343	0.0159725
886.421	0.0160536
886.499	0.0159190
886.578	0.0160204
886.656	0.0160538
886.734	0.0160357
886.812	0.0159102
886.890	0.0159263
886.968	0.0160010
887.046	0.0158590
887.124	0.0158322
887.203	0.0159270
887.281	0.0159432
887.359	0.0158376
887.437	0.0157607
887.515	0.0158784
887.593	0.0159327
887.671	0.0157462
887.749	0.0159505
887.828	0.0158710
887.906	0.0158025
887.984	0.0159242
888.062	0.0159054
888.140	0.0158604
888.218	0.0159217
888.296	0.0158185
888.374	0.0158788
888.453	0.0158645
888.531	0.0158879
888.609	0.0159210
888.687	0.0158186
888.765	0.0157964
888.843	0.0159495
888.921	0.0157934
888.999	0.0158762
889.078	0.0158614
889.156	0.0159238
889.234	0.0159785
889.312	0.0158939
889.390	0.0158446
889.468	0.0158736
889.546	0.0159086
889.624	0.0158224
889.703	0.0159625
889.781	0.0159051
889.859	0.0159344
889.937	0.0159422
890.015	0.0157829
890.093	0.0158755
890.171	0.0159464
890.249	0.0158850
890.328	0.0159097
890.406	0.0158869
890.484	0.0158538
890.562	0.0158639
890.640	0.0159109
890.718	0.0159792
890.796	0.0158801
890.874	0.0158630
890.953	0.0159547
891.031	0.0160122
891.109	0.0159114
891.187	0.0157939
891.265	0.0158568
891.343	0.0160682
891.421	0.0159994
891.499	0.0158205
891.578	0.0159518
891.656	0.0160417
891.734	0.0159200
891.812	0.0161728
891.890	0.0160595
891.968	0.0158443
892.046	0.0159255
892.124	0.0160036
892.203	0.0158747
892.281	0.0158981
892.359	0.0159492
892.437	0.0158848
892.515	0.0158703
892.593	0.0158273
892.671	0.0158967
892.749	0.0159100
892.828	0.0158574
892.906	0.0158276
892.984	0.0158135
893.062	0.0158587
893.140	0.0157468
893.218	0.0158705
893.296	0.0159544
893.374	0.0159695
893.453	0.0160097
893.531	0.0158733
893.609	0.0160619
893.687	0.0159340
893.765	0.0159874
893.843	0.0160032
893.921	0.0159937
893.999	0.0160249
894.078	0.0158401
894.156	0.0159120
894.234	0.0160258
894.312	0.0159644
894.390	0.0160700
894.468	0.0157961
894.546	0.0158978
894.624	0.0159933
894.703	0.0161251
894.781	0.0159264
894.859	0.0160361
894.937	0.0159453
895.015	0.0159906
895.093	0.0161357
895.171	0.0160355
895.249	0.0160545
895.328	0.0159991
895.406	0.0161067
895.484	0.0160679
895.562	0.0159755
895.640	0.0158849
895.718	0.0161968
895.796	0.0161500
895.874	0.0161319
895.953	0.0161079
896.031	0.0159786
896.109	0.0160786
896.187	0.0160749
896.265	0.0161354
896.343	0.0162129
896.421	0.0160809
896.499	0.0161621
896.578	0.0161335
896.656	0.0158848
896.734	0.0159414
896.812	0.0161696
896.890	0.0161116
896.968	0.0158410
897.046	0.0160166
897.124	0.0160376
897.203	0.0159499
897.281	0.0160050
897.359	0.0160207
897.437	0.0160246
897.515	0.0160107
897.593	0.0159873
897.671	0.0158997
897.749	0.0159271
897.828	0.0160694
897.906	0.0160690
897.984	0.0160765
898.062	0.0161042
898.140	0.0160120
898.218	0.0161240
898.296	0.0160069
898.374	0.0160724
898.453	0.0160500
898.531	0.0161729
898.609	0.0160658
898.687	0.0160786
898.765	0.0160852
898.843	0.0162666
898.921	0.0160914
898.999	0.0159065
899.078	0.0159769
899.156	0.0161520
899.234	0.0160653
899.312	0.0159293
899.390	0.0160461
899.468	0.0159164
899.546	0.0160555
899.624	0.0161045
899.703	0.0160248
899.781	0.0160596
899.859	0.0158591
899.937	0.0160277
900.015	0.0161703
900.093	0.0158891
900.171	0.0160740
900.249	0.0161310
900.328	0.0160007
900.406	0.0160286
900.484	0.0160610
900.562	0.0159777
900.640	0.0159763
900.718	0.0161584
900.796	0.0161250
900.874	0.0162198
900.953	0.0160989
901.031	0.0162056
901.109	0.0161265
901.187	0.0160825
901.265	0.0160802
901.343	0.0161971
901.421	0.0161089
901.499	0.0160853
901.578	0.0159904
901.656	0.0158984
901.734	0.0159173
901.812	0.0158992
901.890	0.0161151
901.968	0.0159579
902.046	0.0159556
902.124	0.0159422
902.203	0.0158041
902.281	0.0159943
902.359	0.0160287
902.437	0.0159013
902.515	0.0159917
902.593	0.0160330
902.671	0.0159441
902.749	0.0161320
902.828	0.0159470
902.906	0.0159319
902.984	0.0159093
903.062	0.0160832
903.140	0.0160439
903.218	0.0160455
903.296	0.0161642
903.374	0.0160538
903.453	0.0159658
903.531	0.0159983
903.609	0.0159990
903.687	0.0159799
903.765	0.0159659
903.843	0.0158942
903.921	0.0159948
903.999	0.0159338
904.078	0.0159148
904.156	0.0159823
904.234	0.0160109
904.312	0.0159461
904.390	0.0159709
904.468	0.0159011
904.546	0.0159807
904.624	0.0160866
904.703	0.0159651
904.781	0.0159650
904.859	0.0159213
904.937	0.0160440
905.015	0.0158883
905.093	0.0159997
905.171	0.0160107
905.249	0.0159187
905.328	0.0159232
905.406	0.0160374
905.484	0.0160155
905.562	0.0160235
905.640	0.0159873
905.718	0.0160048
905.796	0.0159653
905.874	0.0160738
905.953	0.0161779
906.031	0.0159309
906.109	0.0159685
906.187	0.0161504
906.265	0.0160465
906.343	0.0161343
906.421	0.0161430
906.499	0.0160066
906.578	0.0161043
906.656	0.0161302
906.734	0.0160492
906.812	0.0159074
906.890	0.0160104
906.968	0.0160725
907.046	0.0161523
907.124	0.0160242
907.203	0.0159422
907.281	0.0159033
907.359	0.0159238
907.437	0.0159009
907.515	0.0160988
907.593	0.0160027
907.671	0.0158222
907.749	0.0160243
907.828	0.0159146
907.906	0.0159245
907.984	0.0158638
908.062	0.0160872
908.140	0.0159667
908.218	0.0159947
908.296	0.0160220
908.374	0.0160435
908.453	0.0159322
908.531	0.0158990
908.609	0.0160983
908.687	0.0161191
908.765	0.0160298
908.843	0.0159363
908.921	0.0160468
908.999	0.0159886
909.078	0.0161127
909.156	0.0158863
909.234	0.0160429
909.312	0.0159347
909.390	0.0159043
909.468	0.0161030
909.546	0.0159538
909.624	0.0159814
909.703	0.0159815
909.781	0.0160309
909.859	0.0159648
909.937	0.0160571
910.015	0.0159850
910.093	0.0159703
910.171	0.0160558
910.249	0.0160855
910.328	0.0159183
910.406	0.0158891
910.484	0.0159426
910.562	0.0160611
910.640	0.0160675
910.718	0.0159530
910.796	0.0159576
910.874	0.0159348
910.953	0.0159010
911.031	0.0159233
911.109	0.0159454
911.187	0.0159908
911.265	0.0159078
911.343	0.0159341
911.421	0.0158939
911.499	0.0158900
911.578	0.0159775
911.656	0.0159761
911.734	0.0158836
911.812	0.0158153
911.890	0.0158376
911.968	0.0159084
912.046	0.0159032
912.124	0.0157671
912.203	0.0159180
912.281	0.0158984
912.359	0.0159184
912.437	0.0159067
912.515	0.0159244
912.593	0.0158302
912.671	0.0159615
912.749	0.0159018
912.828	0.0159825
912.906	0.0159090
912.984	0.0158614
913.062	0.0158914
913.140	0.0160419
913.218	0.0158868
913.296	0.0157096
913.374	0.0160376
913.453	0.0160044
913.531	0.0160413
913.609	0.0158707
913.687	0.0160961
913.765	0.0159851
913.843	0.0159799
913.921	0.0158535
913.999	0.0159414
914.078	0.0159258
914.156	0.0159135
914.234	0.0159918
914.312	0.0159322
914.390	0.0159926
914.468	0.0159595
914.546	0.0160017
914.624	0.0159470
914.703	0.0158449
914.781	0.0158661
914.859	0.0159326
914.937	0.0159998
915.015	0.0158398
915.093	0.0159496
915.171	0.0158641
915.249	0.0159760
915.328	0.0159035
915.406	0.0159123
915.484	0.0158309
915.562	0.0159397
915.640	0.0159612
915.718	0.0158275
915.796	0.0160394
915.874	0.0162334
915.953	0.0159647
916.031	0.0160374
916.109	0.0160899
916.187	0.0159776
916.265	0.0159514
916.343	0.0159392
916.421	0.0160939
916.499	0.0159314
916.578	0.0160464
916.656	0.0158932
916.734	0.0160133
916.812	0.0160587
916.890	0.0159444
916.968	0.0159290
917.046	0.0159653
917.124	0.0159652
917.203	0.0158714
917.281	0.0159413
917.359	0.0159102
917.437	0.0158556
917.515	0.0159582
917.593	0.0159215
917.671	0.0158743
917.749	0.0159650
917.828	0.0160291
917.906	0.0158996
917.984	0.0161359
918.062	0.0159936
918.140	0.0158298
918.218	0.0158012
918.296	0.0159192
918.374	0.0159874
918.453	0.0160249
918.531	0.0159283
918.609	0.0159829
918.687	0.0159290
918.765	0.0159983
918.843	0.0158396
918.921	0.0160138
918.999	0.0159045
919.078	0.0158519
919.156	0.0158614
919.234	0.0159195
919.312	0.0160493
919.390	0.0160239
919.468	0.0160116
919.546	0.0159910
919.624	0.0161304
919.703	0.0161301
919.781	0.0162405
919.859	0.0161086
919.937	0.0160700
