06/10/2022	19:02:01	Ver.	4.1	UNKNOWN
Optical Delay	600.015094	Delta X		0.078125	Sweeps	1	Scan Rate	0/0
Coordinates	Axis 1	NaN	Axis 2	NaN	Axis 3	NaN	Axis 4	NaN	Axis 5	NaN	Axis 6	0.000000
TX Power	0.000000	RX Power	0.000000

600.015	0.0160264
600.093	0.0160526
600.171	0.0159700
600.249	0.0160136
600.328	0.0159987
600.406	0.0160085
600.484	0.0161192
600.562	0.0160935
600.640	0.0160598
600.718	0.0159589
600.796	0.0160349
600.874	0.0159563
600.953	0.0158459
601.031	0.0160770
601.109	0.0160469
601.187	0.0159122
601.265	0.0159466
601.343	0.0160078
601.421	0.0159628
601.499	0.0160853
601.578	0.0160072
601.656	0.0159566
601.734	0.0162447
601.812	0.0159319
601.890	0.0159144
601.968	0.0160297
602.046	0.0159748
602.124	0.0160625
602.203	0.0158719
602.281	0.0159461
602.359	0.0160353
602.437	0.0160954
602.515	0.0159788
602.593	0.0161049
602.671	0.0160139
602.749	0.0159940
602.828	0.0161874
602.906	0.0158632
602.984	0.0158997
603.062	0.0161104
603.140	0.0161295
603.218	0.0160279
603.296	0.0159705
603.374	0.0158598
603.453	0.0159315
603.531	0.0159144
603.609	0.0159818
603.687	0.0159308
603.765	0.0159768
603.843	0.0159463
603.921	0.0160110
603.999	0.0159898
604.078	0.0159987
604.156	0.0159808
604.234	0.0160700
604.312	0.0158852
604.390	0.0161126
604.468	0.0159520
604.546	0.0159168
604.624	0.0158478
604.703	0.0160595
604.781	0.0159226
604.859	0.0159471
604.937	0.0159019
605.015	0.0158627
605.093	0.0160403
605.171	0.0158006
605.249	0.0159839
605.328	0.0160000
605.406	0.0159232
605.484	0.0158525
605.562	0.0160889
605.640	0.0160819
605.718	0.0158852
605.796	0.0160062
605.874	0.0159414
605.953	0.0160609
606.031	0.0158964
606.109	0.0159367
606.187	0.0159795
606.265	0.0160024
606.343	0.0159432
606.421	0.0159013
606.499	0.0159531
606.578	0.0160825
606.656	0.0159953
606.734	0.0159576
606.812	0.0159655
606.890	0.0158549
606.968	0.0158694
607.046	0.0158087
607.124	0.0159982
607.203	0.0158975
607.281	0.0159327
607.359	0.0160409
607.437	0.0159110
607.515	0.0158044
607.593	0.0158672
607.671	0.0159204
607.749	0.0159682
607.828	0.0159166
607.906	0.0158449
607.984	0.0158261
608.062	0.0158797
608.140	0.0157307
608.218	0.0159306
608.296	0.0159783
608.374	0.0160207
608.453	0.0157706
608.531	0.0158318
608.609	0.0158028
608.687	0.0158216
608.765	0.0159335
608.843	0.0159718
608.921	0.0157949
608.999	0.0158367
609.078	0.0159523
609.156	0.0159586
609.234	0.0158514
609.312	0.0158795
609.390	0.0158901
609.468	0.0159233
609.546	0.0160017
609.624	0.0160760
609.703	0.0159576
609.781	0.0159119
609.859	0.0159219
609.937	0.0160433
610.015	0.0158730
610.093	0.0158469
610.171	0.0159789
610.249	0.0160022
610.328	0.0159963
610.406	0.0160921
610.484	0.0159467
610.562	0.0158716
610.640	0.0160192
610.718	0.0159689
610.796	0.0160361
610.874	0.0161404
610.953	0.0158770
611.031	0.0160813
611.109	0.0160699
611.187	0.0159922
611.265	0.0158691
611.343	0.0160050
611.421	0.0160888
611.499	0.0159323
611.578	0.0160239
611.656	0.0159827
611.734	0.0160907
611.812	0.0160426
611.890	0.0159127
611.968	0.0160993
612.046	0.0160715
612.124	0.0160004
612.203	0.0161237
612.281	0.0160584
612.359	0.0158936
612.437	0.0160992
612.515	0.0160471
612.593	0.0160313
612.671	0.0160334
612.749	0.0160719
612.828	0.0161104
612.906	0.0159618
612.984	0.0161132
613.062	0.0161375
613.140	0.0160906
613.218	0.0159367
613.296	0.0162158
613.374	0.0161682
613.453	0.0161363
613.531	0.0161220
613.609	0.0161067
613.687	0.0160602
613.765	0.0162192
613.843	0.0160165
613.921	0.0161118
613.999	0.0161276
614.078	0.0162519
614.156	0.0163516
614.234	0.0161396
614.312	0.0161225
614.390	0.0161308
614.468	0.0161503
614.546	0.0161907
614.624	0.0162235
614.703	0.0161555
614.781	0.0161410
614.859	0.0162187
614.937	0.0161829
615.015	0.0161094
615.093	0.0162481
615.171	0.0161050
615.249	0.0161097
615.328	0.0160799
615.406	0.0161790
615.484	0.0161871
615.562	0.0162700
615.640	0.0162630
615.718	0.0161023
615.796	0.0161467
615.874	0.0161316
615.953	0.0160937
616.031	0.0159932
616.109	0.0159602
616.187	0.0161150
616.265	0.0160337
616.343	0.0160007
616.421	0.0159713
616.499	0.0160990
616.578	0.0159678
616.656	0.0160215
616.734	0.0160867
616.812	0.0160036
616.890	0.0161224
616.968	0.0160039
617.046	0.0160861
617.124	0.0161211
617.203	0.0159772
617.281	0.0160220
617.359	0.0160073
617.437	0.0161355
617.515	0.0161068
617.593	0.0160490
617.671	0.0160612
617.749	0.0160352
617.828	0.0160168
617.906	0.0160754
617.984	0.0159122
618.062	0.0160696
618.140	0.0160780
618.218	0.0159162
618.296	0.0159151
618.374	0.0159625
618.453	0.0160836
618.531	0.0159550
618.609	0.0160334
618.687	0.0158572
618.765	0.0159109
618.843	0.0159757
618.921	0.0160026
618.999	0.0160507
619.078	0.0160044
619.156	0.0158797
619.234	0.0159530
619.312	0.0159123
619.390	0.0159465
619.468	0.0158680
619.546	0.0160873
619.624	0.0160841
619.703	0.0159299
619.781	0.0161395
619.859	0.0160696
619.937	0.0160703
620.015	0.0160616
620.093	0.0158538
620.171	0.0159705
620.249	0.0160168
620.328	0.0159433
620.406	0.0158781
620.484	0.0159042
620.562	0.0160113
620.640	0.0160709
620.718	0.0160477
620.796	0.0159265
620.874	0.0160574
620.953	0.0159891
621.031	0.0159797
621.109	0.0159307
621.187	0.0159999
621.265	0.0159278
621.343	0.0159615
621.421	0.0159348
621.499	0.0160580
621.578	0.0160475
621.656	0.0159674
621.734	0.0160056
621.812	0.0162092
621.890	0.0161186
621.968	0.0160114
622.046	0.0159846
622.124	0.0160053
622.203	0.0159653
622.281	0.0161301
622.359	0.0161719
622.437	0.0158282
622.515	0.0159993
622.593	0.0160995
622.671	0.0159863
622.749	0.0161454
622.828	0.0161639
622.906	0.0160045
622.984	0.0161151
623.062	0.0159644
623.140	0.0160077
623.218	0.0161348
623.296	0.0160760
623.374	0.0159710
623.453	0.0159912
623.531	0.0160558
623.609	0.0161172
623.687	0.0161977
623.765	0.0161065
623.843	0.0159577
623.921	0.0161044
623.999	0.0160177
624.078	0.0159863
624.156	0.0159707
624.234	0.0161768
624.312	0.0160373
624.390	0.0160975
624.468	0.0161459
624.546	0.0160136
624.624	0.0158775
624.703	0.0160019
624.781	0.0161298
624.859	0.0161443
624.937	0.0161570
625.015	0.0160403
625.093	0.0161259
625.171	0.0161255
625.249	0.0160686
625.328	0.0161031
625.406	0.0161166
625.484	0.0160514
625.562	0.0161805
625.640	0.0161445
625.718	0.0160381
625.796	0.0159638
625.874	0.0159168
625.953	0.0160390
626.031	0.0161150
626.109	0.0161618
626.187	0.0161278
626.265	0.0161483
626.343	0.0159240
626.421	0.0159940
626.499	0.0161333
626.578	0.0161208
626.656	0.0160123
626.734	0.0159222
626.812	0.0161198
626.890	0.0160851
626.968	0.0160689
627.046	0.0160867
627.124	0.0160313
627.203	0.0160161
627.281	0.0160660
627.359	0.0161430
627.437	0.0161397
627.515	0.0160936
627.593	0.0160006
627.671	0.0160203
627.749	0.0160503
627.828	0.0160941
627.906	0.0161214
627.984	0.0159698
628.062	0.0160307
628.140	0.0159897
628.218	0.0160532
628.296	0.0162775
628.374	0.0159718
628.453	0.0160081
628.531	0.0161367
628.609	0.0161289
628.687	0.0161341
628.765	0.0160276
628.843	0.0160481
628.921	0.0160349
628.999	0.0160741
629.078	0.0161189
629.156	0.0160796
629.234	0.0162125
629.312	0.0160447
629.390	0.0161227
629.468	0.0161613
629.546	0.0161259
629.624	0.0160094
629.703	0.0161288
629.781	0.0159966
629.859	0.0161815
629.937	0.0160928
630.015	0.0161418
630.093	0.0159981
630.171	0.0160115
630.249	0.0160668
630.328	0.0159586
630.406	0.0160363
630.484	0.0159849
630.562	0.0159153
630.640	0.0158872
630.718	0.0160258
630.796	0.0157790
630.874	0.0158531
630.953	0.0158511
631.031	0.0158341
631.109	0.0156890
631.187	0.0157568
631.265	0.0157074
631.343	0.0156995
631.421	0.0156607
631.499	0.0156313
631.578	0.0156691
631.656	0.0158022
631.734	0.0158713
631.812	0.0155987
631.890	0.0158472
631.968	0.0160654
632.046	0.0159138
632.124	0.0159115
632.203	0.0158939
632.281	0.0160702
632.359	0.0161395
632.437	0.0159613
632.515	0.0161353
632.593	0.0160165
632.671	0.0160365
632.749	0.0161453
632.828	0.0160443
632.906	0.0160353
632.984	0.0160555
633.062	0.0160049
633.140	0.0159847
633.218	0.0159228
633.296	0.0157884
633.374	0.0157136
633.453	0.0158069
633.531	0.0157313
633.609	0.0156685
633.687	0.0157001
633.765	0.0157710
633.843	0.0158648
633.921	0.0157954
633.999	0.0159162
634.078	0.0159718
634.156	0.0158678
634.234	0.0159085
634.312	0.0159788
634.390	0.0159343
634.468	0.0158526
634.546	0.0159718
634.624	0.0159689
634.703	0.0159943
634.781	0.0159661
634.859	0.0159058
634.937	0.0159846
635.015	0.0159294
635.093	0.0159724
635.171	0.0160294
635.249	0.0160532
635.328	0.0159206
635.406	0.0159277
635.484	0.0159036
635.562	0.0158933
635.640	0.0158222
635.718	0.0158925
635.796	0.0158710
635.874	0.0159156
635.953	0.0159396
636.031	0.0159016
636.109	0.0158979
636.187	0.0160283
636.265	0.0158805
636.343	0.0158936
636.421	0.0158875
636.499	0.0159750
636.578	0.0159662
636.656	0.0161595
636.734	0.0158787
636.812	0.0159254
636.890	0.0159285
636.968	0.0159084
637.046	0.0159802
637.124	0.0160018
637.203	0.0159889
637.281	0.0159621
637.359	0.0158308
637.437	0.0160321
637.515	0.0160773
637.593	0.0159900
637.671	0.0160335
637.749	0.0160021
637.828	0.0162168
637.906	0.0161899
637.984	0.0160190
638.062	0.0160761
638.140	0.0162223
638.218	0.0161163
638.296	0.0161069
638.374	0.0160870
638.453	0.0161231
638.531	0.0162062
638.609	0.0161387
638.687	0.0160291
638.765	0.0161462
638.843	0.0161620
638.921	0.0162151
638.999	0.0162285
639.078	0.0160588
639.156	0.0161371
639.234	0.0161356
639.312	0.0162263
639.390	0.0161341
639.468	0.0160013
639.546	0.0159026
639.624	0.0160334
639.703	0.0160587
639.781	0.0161746
639.859	0.0160272
639.937	0.0161433
640.015	0.0160696
640.093	0.0160522
640.171	0.0159811
640.249	0.0160758
640.328	0.0160870
640.406	0.0160524
640.484	0.0161008
640.562	0.0161511
640.640	0.0160937
640.718	0.0160197
640.796	0.0161092
640.874	0.0161562
640.953	0.0160729
641.031	0.0160993
641.109	0.0160347
641.187	0.0159633
641.265	0.0160707
641.343	0.0161105
641.421	0.0160107
641.499	0.0160525
641.578	0.0160925
641.656	0.0159860
641.734	0.0160081
641.812	0.0160285
641.890	0.0159836
641.968	0.0162024
642.046	0.0161428
642.124	0.0159885
642.203	0.0160664
642.281	0.0160269
642.359	0.0161049
642.437	0.0160400
642.515	0.0160149
642.593	0.0160324
642.671	0.0160905
642.749	0.0159598
642.828	0.0160853
642.906	0.0159896
642.984	0.0161723
643.062	0.0160669
643.140	0.0161126
643.218	0.0161728
643.296	0.0160424
643.374	0.0159902
643.453	0.0160766
643.531	0.0160902
643.609	0.0159951
643.687	0.0159959
643.765	0.0159993
643.843	0.0160249
643.921	0.0160401
643.999	0.0160448
644.078	0.0160390
644.156	0.0159242
644.234	0.0160980
644.312	0.0160973
644.390	0.0158672
644.468	0.0158981
644.546	0.0160850
644.624	0.0159831
644.703	0.0159482
644.781	0.0161236
644.859	0.0160479
644.937	0.0160275
645.015	0.0159618
645.093	0.0160011
645.171	0.0161890
645.249	0.0160737
645.328	0.0160639
645.406	0.0161987
645.484	0.0162086
645.562	0.0161692
645.640	0.0161345
645.718	0.0161026
645.796	0.0159914
645.874	0.0160677
645.953	0.0161170
646.031	0.0160969
646.109	0.0162140
646.187	0.0160722
646.265	0.0160287
646.343	0.0159653
646.421	0.0159915
646.499	0.0160817
646.578	0.0160445
646.656	0.0161389
646.734	0.0161455
646.812	0.0161009
646.890	0.0161095
646.968	0.0161787
647.046	0.0160035
647.124	0.0159214
647.203	0.0159253
647.281	0.0159102
647.359	0.0160695
647.437	0.0160383
647.515	0.0160306
647.593	0.0160865
647.671	0.0160103
647.749	0.0159917
647.828	0.0158746
647.906	0.0159863
647.984	0.0160068
648.062	0.0160626
648.140	0.0161504
648.218	0.0159680
648.296	0.0159393
648.374	0.0160450
648.453	0.0159850
648.531	0.0160118
648.609	0.0159874
648.687	0.0159760
648.765	0.0160650
648.843	0.0161040
648.921	0.0161334
648.999	0.0159749
649.078	0.0161117
649.156	0.0160966
649.234	0.0160815
649.312	0.0161034
649.390	0.0160128
649.468	0.0160428
649.546	0.0161046
649.624	0.0160933
649.703	0.0159354
649.781	0.0159961
649.859	0.0161109
649.937	0.0159621
650.015	0.0160455
650.093	0.0159830
650.171	0.0161115
650.249	0.0161792
650.328	0.0161348
650.406	0.0160089
650.484	0.0159689
650.562	0.0160878
650.640	0.0159070
650.718	0.0161282
650.796	0.0162180
650.874	0.0160983
650.953	0.0161768
651.031	0.0159990
651.109	0.0160487
651.187	0.0160077
651.265	0.0161244
651.343	0.0160401
651.421	0.0159648
651.499	0.0160165
651.578	0.0160464
651.656	0.0159666
651.734	0.0160114
651.812	0.0161840
651.890	0.0160976
651.968	0.0159302
652.046	0.0159288
652.124	0.0159830
652.203	0.0159976
652.281	0.0160685
652.359	0.0160574
652.437	0.0160281
652.515	0.0160474
652.593	0.0160596
652.671	0.0160748
652.749	0.0159960
652.828	0.0160223
652.906	0.0159820
652.984	0.0161620
653.062	0.0161573
653.140	0.0160126
653.218	0.0159527
653.296	0.0160287
653.374	0.0161334
653.453	0.0160115
653.531	0.0162154
653.609	0.0160708
653.687	0.0159700
653.765	0.0159900
653.843	0.0159892
653.921	0.0162162
653.999	0.0160204
654.078	0.0158150
654.156	0.0159069
654.234	0.0159983
654.312	0.0160862
654.390	0.0160279
654.468	0.0159542
654.546	0.0160568
654.624	0.0159341
654.703	0.0160041
654.781	0.0161118
654.859	0.0160063
654.937	0.0160415
655.015	0.0159298
655.093	0.0158905
655.171	0.0159607
655.249	0.0160146
655.328	0.0160581
655.406	0.0159389
655.484	0.0160098
655.562	0.0159495
655.640	0.0160130
655.718	0.0159187
655.796	0.0158990
655.874	0.0160625
655.953	0.0160723
656.031	0.0159945
656.109	0.0159032
656.187	0.0159901
656.265	0.0158826
656.343	0.0158366
656.421	0.0159069
656.499	0.0159598
656.578	0.0159164
656.656	0.0156979
656.734	0.0158026
656.812	0.0158552
656.890	0.0159023
656.968	0.0157977
657.046	0.0159222
657.124	0.0158423
657.203	0.0158059
657.281	0.0158678
657.359	0.0157100
657.437	0.0158317
657.515	0.0158470
657.593	0.0158101
657.671	0.0158630
657.749	0.0157847
657.828	0.0158493
657.906	0.0157784
657.984	0.0159557
658.062	0.0159201
658.140	0.0157820
658.218	0.0158827
658.296	0.0158782
658.374	0.0158934
658.453	0.0158607
658.531	0.0158989
658.609	0.0159407
658.687	0.0158181
658.765	0.0158102
658.843	0.0157454
658.921	0.0159141
658.999	0.0158961
659.078	0.0158604
659.156	0.0159002
659.234	0.0157964
659.312	0.0160059
659.390	0.0158826
659.468	0.0159077
659.546	0.0157558
659.624	0.0158316
659.703	0.0160240
659.781	0.0159190
659.859	0.0158492
659.937	0.0158028
660.015	0.0157574
660.093	0.0156549
660.171	0.0158531
660.249	0.0158269
660.328	0.0158903
660.406	0.0159769
660.484	0.0160187
660.562	0.0160149
660.640	0.0159070
660.718	0.0159104
660.796	0.0158870
660.874	0.0159135
660.953	0.0158735
661.031	0.0159633
661.109	0.0157961
661.187	0.0160229
661.265	0.0159786
661.343	0.0159981
661.421	0.0159283
661.499	0.0160098
661.578	0.0159933
661.656	0.0159742
661.734	0.0159653
661.812	0.0159737
661.890	0.0160387
661.968	0.0160098
662.046	0.0159354
662.124	0.0158924
662.203	0.0158595
662.281	0.0159125
662.359	0.0161095
662.437	0.0160557
662.515	0.0159444
662.593	0.0159370
662.671	0.0159171
662.749	0.0159441
662.828	0.0159777
662.906	0.0159133
662.984	0.0160036
663.062	0.0160993
663.140	0.0160442
663.218	0.0159294
663.296	0.0160109
663.374	0.0160357
663.453	0.0160155
663.531	0.0160323
663.609	0.0160240
663.687	0.0160469
663.765	0.0160262
663.843	0.0160671
663.921	0.0160221
663.999	0.0160914
664.078	0.0159441
664.156	0.0159401
664.234	0.0160423
664.312	0.0161110
664.390	0.0161638
664.468	0.0162551
664.546	0.0160468
664.624	0.0159414
664.703	0.0160461
664.781	0.0160728
664.859	0.0160135
664.937	0.0160890
665.015	0.0161566
665.093	0.0160557
665.171	0.0159157
665.249	0.0161790
665.328	0.0160512
665.406	0.0158929
665.484	0.0161060
665.562	0.0161417
665.640	0.0160370
665.718	0.0159683
665.796	0.0160434
665.874	0.0161451
665.953	0.0160826
666.031	0.0160220
666.109	0.0160823
666.187	0.0160010
666.265	0.0161184
666.343	0.0160445
666.421	0.0160181
666.499	0.0160688
666.578	0.0160435
666.656	0.0160210
666.734	0.0159463
666.812	0.0160818
666.890	0.0160738
666.968	0.0159867
667.046	0.0160273
667.124	0.0159906
667.203	0.0160648
667.281	0.0160123
667.359	0.0160567
667.437	0.0160506
667.515	0.0158718
667.593	0.0160364
667.671	0.0160674
667.749	0.0160183
667.828	0.0161483
667.906	0.0161066
667.984	0.0160688
668.062	0.0160155
668.140	0.0159280
668.218	0.0160760
668.296	0.0161657
668.374	0.0159673
668.453	0.0159795
668.531	0.0160670
668.609	0.0159577
668.687	0.0161124
668.765	0.0161148
668.843	0.0160698
668.921	0.0161173
668.999	0.0159936
669.078	0.0161094
669.156	0.0161114
669.234	0.0160265
669.312	0.0162270
669.390	0.0161228
669.468	0.0160098
669.546	0.0161190
669.624	0.0161995
669.703	0.0161505
669.781	0.0161945
669.859	0.0159427
669.937	0.0160835
670.015	0.0161012
670.093	0.0160866
670.171	0.0161275
670.249	0.0160109
670.328	0.0160688
670.406	0.0160607
670.484	0.0160319
670.562	0.0159788
670.640	0.0159535
670.718	0.0159593
670.796	0.0160533
670.874	0.0160686
670.953	0.0160220
671.031	0.0161282
671.109	0.0159676
671.187	0.0159854
671.265	0.0157703
671.343	0.0159103
671.421	0.0160944
671.499	0.0160058
671.578	0.0158961
671.656	0.0161552
671.734	0.0160767
671.812	0.0159877
671.890	0.0159677
671.968	0.0160899
672.046	0.0159530
672.124	0.0159909
672.203	0.0160305
672.281	0.0159885
672.359	0.0160395
672.437	0.0160276
672.515	0.0159402
672.593	0.0160603
672.671	0.0159089
672.749	0.0159934
672.828	0.0159978
672.906	0.0160374
672.984	0.0160361
673.062	0.0159737
673.140	0.0160296
673.218	0.0160440
673.296	0.0160463
673.374	0.0160464
673.453	0.0160014
673.531	0.0160266
673.609	0.0158373
673.687	0.0159589
673.765	0.0160464
673.843	0.0159513
673.921	0.0159254
673.999	0.0159235
674.078	0.0158350
674.156	0.0159731
674.234	0.0159093
674.312	0.0159357
674.390	0.0158742
674.468	0.0160110
674.546	0.0159356
674.624	0.0158990
674.703	0.0159078
674.781	0.0159975
674.859	0.0160074
674.937	0.0159508
675.015	0.0159977
675.093	0.0160121
675.171	0.0158028
675.249	0.0159932
675.328	0.0159642
675.406	0.0159962
675.484	0.0159506
675.562	0.0159291
675.640	0.0160616
675.718	0.0158174
675.796	0.0160912
675.874	0.0159090
675.953	0.0160119
676.031	0.0160326
676.109	0.0160030
676.187	0.0158167
676.265	0.0159563
676.343	0.0159949
676.421	0.0159676
676.499	0.0157243
676.578	0.0158727
676.656	0.0160343
676.734	0.0160331
676.812	0.0158796
676.890	0.0158168
676.968	0.0158761
677.046	0.0158876
677.124	0.0160896
677.203	0.0158110
677.281	0.0159033
677.359	0.0159055
677.437	0.0159465
677.515	0.0159648
677.593	0.0160197
677.671	0.0158947
677.749	0.0160378
677.828	0.0159759
677.906	0.0158274
677.984	0.0159058
678.062	0.0158636
678.140	0.0159201
678.218	0.0160134
678.296	0.0159084
678.374	0.0159381
678.453	0.0158820
678.531	0.0157554
678.609	0.0157753
678.687	0.0158131
678.765	0.0158409
678.843	0.0159879
678.921	0.0157779
678.999	0.0158631
679.078	0.0157645
679.156	0.0158361
679.234	0.0158051
679.312	0.0158527
679.390	0.0158862
679.468	0.0159287
679.546	0.0159658
679.624	0.0159515
679.703	0.0158295
679.781	0.0158096
679.859	0.0158604
679.937	0.0158988
680.015	0.0158556
680.093	0.0159622
680.171	0.0158159
680.249	0.0159432
680.328	0.0159005
680.406	0.0158923
680.484	0.0160263
680.562	0.0159833
680.640	0.0158125
680.718	0.0160072
680.796	0.0160103
680.874	0.0159451
680.953	0.0160655
681.031	0.0159050
681.109	0.0158696
681.187	0.0159528
681.265	0.0158738
681.343	0.0159657
681.421	0.0158797
681.499	0.0158604
681.578	0.0159863
681.656	0.0159001
681.734	0.0158485
681.812	0.0158954
681.890	0.0160258
681.968	0.0158971
682.046	0.0158849
682.124	0.0158606
682.203	0.0159256
682.281	0.0158773
682.359	0.0160077
682.437	0.0160535
682.515	0.0159148
682.593	0.0159479
682.671	0.0159184
682.749	0.0159631
682.828	0.0159030
682.906	0.0160568
682.984	0.0158293
683.062	0.0159748
683.140	0.0159818
683.218	0.0160234
683.296	0.0158414
683.374	0.0160728
683.453	0.0158556
683.531	0.0158366
683.609	0.0158878
683.687	0.0160205
683.765	0.0159856
683.843	0.0159323
683.921	0.0159313
683.999	0.0159529
684.078	0.0159451
684.156	0.0159516
684.234	0.0160531
684.312	0.0159871
684.390	0.0159470
684.468	0.0159892
684.546	0.0158646
684.624	0.0159659
684.703	0.0160641
684.781	0.0160750
684.859	0.0160489
684.937	0.0159226
685.015	0.0160527
685.093	0.0160470
685.171	0.0159161
685.249	0.0160784
685.328	0.0160271
685.406	0.0158747
685.484	0.0160548
685.562	0.0159678
685.640	0.0160328
685.718	0.0159696
685.796	0.0161005
685.874	0.0159457
685.953	0.0159304
686.031	0.0160645
686.109	0.0160188
686.187	0.0161227
686.265	0.0160145
686.343	0.0159953
686.421	0.0160075
686.499	0.0159969
686.578	0.0160019
686.656	0.0161567
686.734	0.0160727
686.812	0.0159779
686.890	0.0160653
686.968	0.0160365
687.046	0.0160088
687.124	0.0159579
687.203	0.0159771
687.281	0.0159925
687.359	0.0161623
687.437	0.0159741
687.515	0.0161825
687.593	0.0161351
687.671	0.0159129
687.749	0.0159048
687.828	0.0160528
687.906	0.0161065
687.984	0.0160052
688.062	0.0159896
688.140	0.0160509
688.218	0.0160493
688.296	0.0160004
688.374	0.0160626
688.453	0.0161673
688.531	0.0160929
688.609	0.0159326
688.687	0.0160173
688.765	0.0160493
688.843	0.0160957
688.921	0.0159657
688.999	0.0159563
689.078	0.0159974
689.156	0.0160808
689.234	0.0159814
689.312	0.0161060
689.390	0.0160213
689.468	0.0159087
689.546	0.0160918
689.624	0.0161356
689.703	0.0160326
689.781	0.0158846
689.859	0.0159778
689.937	0.0159847
690.015	0.0158424
690.093	0.0159750
690.171	0.0160744
690.249	0.0160647
690.328	0.0159917
690.406	0.0159332
690.484	0.0160736
690.562	0.0159425
690.640	0.0159992
690.718	0.0160378
690.796	0.0160880
690.874	0.0160322
690.953	0.0160320
691.031	0.0159283
691.109	0.0160058
691.187	0.0160858
691.265	0.0160527
691.343	0.0161432
691.421	0.0159901
691.499	0.0159657
691.578	0.0159717
691.656	0.0160691
691.734	0.0160496
691.812	0.0159764
691.890	0.0160212
691.968	0.0161456
692.046	0.0161006
692.124	0.0162227
692.203	0.0161346
692.281	0.0159232
692.359	0.0159307
692.437	0.0160985
692.515	0.0160120
692.593	0.0160208
692.671	0.0160733
692.749	0.0160141
692.828	0.0160759
692.906	0.0161420
692.984	0.0161759
693.062	0.0161599
693.140	0.0160337
693.218	0.0160088
693.296	0.0160770
693.374	0.0161396
693.453	0.0160638
693.531	0.0160052
693.609	0.0159606
693.687	0.0160710
693.765	0.0159296
693.843	0.0160262
693.921	0.0159597
693.999	0.0160950
694.078	0.0161298
694.156	0.0160586
694.234	0.0159179
694.312	0.0160764
694.390	0.0161679
694.468	0.0160185
694.546	0.0160133
694.624	0.0161951
694.703	0.0161387
694.781	0.0160802
694.859	0.0160853
694.937	0.0160587
695.015	0.0158636
695.093	0.0159478
695.171	0.0161492
695.249	0.0160921
695.328	0.0159314
695.406	0.0160100
695.484	0.0160662
695.562	0.0160679
695.640	0.0161695
695.718	0.0160052
695.796	0.0160035
695.874	0.0161230
695.953	0.0161881
696.031	0.0159896
696.109	0.0159948
696.187	0.0160336
696.265	0.0160545
696.343	0.0161665
696.421	0.0160114
696.499	0.0160969
696.578	0.0160728
696.656	0.0160735
696.734	0.0160267
696.812	0.0159621
696.890	0.0160806
696.968	0.0160176
697.046	0.0159644
697.124	0.0159768
697.203	0.0161928
697.281	0.0160243
697.359	0.0159164
697.437	0.0160177
697.515	0.0160844
697.593	0.0161214
697.671	0.0160294
697.749	0.0160162
697.828	0.0160918
697.906	0.0161272
697.984	0.0160546
698.062	0.0160720
698.140	0.0160109
698.218	0.0159559
698.296	0.0159837
698.374	0.0159370
698.453	0.0159243
698.531	0.0159708
698.609	0.0160008
698.687	0.0159765
698.765	0.0160410
698.843	0.0159113
698.921	0.0159808
698.999	0.0159951
699.078	0.0160345
699.156	0.0160083
699.234	0.0159881
699.312	0.0161801
699.390	0.0160812
699.468	0.0161260
699.546	0.0160747
699.624	0.0158907
699.703	0.0160629
699.781	0.0160430
699.859	0.0159996
699.937	0.0160361
700.015	0.0160522
700.093	0.0161583
700.171	0.0159570
700.249	0.0160705
700.328	0.0159702
700.406	0.0159620
700.484	0.0158901
700.562	0.0160672
700.640	0.0161353
700.718	0.0158697
700.796	0.0160033
700.874	0.0160342
700.953	0.0159794
701.031	0.0161543
701.109	0.0159293
701.187	0.0160770
701.265	0.0161485
701.343	0.0159880
701.421	0.0159324
701.499	0.0160435
701.578	0.0160467
701.656	0.0161201
701.734	0.0159466
701.812	0.0161767
701.890	0.0160220
701.968	0.0160306
702.046	0.0160675
702.124	0.0160677
702.203	0.0158726
702.281	0.0160010
702.359	0.0160814
702.437	0.0159869
702.515	0.0158503
702.593	0.0160026
702.671	0.0159379
702.749	0.0160187
702.828	0.0160754
702.906	0.0160645
702.984	0.0159388
703.062	0.0159346
703.140	0.0159686
703.218	0.0159169
703.296	0.0160059
703.374	0.0160043
703.453	0.0159388
703.531	0.0158771
703.609	0.0159158
703.687	0.0159506
703.765	0.0159968
703.843	0.0161137
703.921	0.0159766
703.999	0.0159648
704.078	0.0158736
704.156	0.0159483
704.234	0.0159478
704.312	0.0159492
704.390	0.0160145
704.468	0.0160171
704.546	0.0158644
704.624	0.0159870
704.703	0.0159231
704.781	0.0158884
704.859	0.0159469
704.937	0.0160166
705.015	0.0161262
705.093	0.0159764
705.171	0.0159362
705.249	0.0160857
705.328	0.0159372
705.406	0.0158966
705.484	0.0159715
705.562	0.0159909
705.640	0.0159296
705.718	0.0159069
705.796	0.0161368
705.874	0.0159277
705.953	0.0160110
706.031	0.0160492
706.109	0.0159061
706.187	0.0160146
706.265	0.0161554
706.343	0.0160857
706.421	0.0159922
706.499	0.0159583
706.578	0.0160767
706.656	0.0160070
706.734	0.0159276
706.812	0.0160475
706.890	0.0160519
706.968	0.0158865
707.046	0.0160822
707.124	0.0159944
707.203	0.0159942
707.281	0.0160384
707.359	0.0160575
707.437	0.0160121
707.515	0.0159038
707.593	0.0160329
707.671	0.0161305
707.749	0.0160184
707.828	0.0160491
707.906	0.0161687
707.984	0.0161279
708.062	0.0161195
708.140	0.0160093
708.218	0.0159315
708.296	0.0160883
708.374	0.0161279
708.453	0.0161031
708.531	0.0160786
708.609	0.0159930
708.687	0.0161000
708.765	0.0161690
708.843	0.0160777
708.921	0.0160710
708.999	0.0162130
709.078	0.0161202
709.156	0.0160072
709.234	0.0160736
709.312	0.0160926
709.390	0.0160578
709.468	0.0161273
709.546	0.0162495
709.624	0.0160993
709.703	0.0161346
709.781	0.0160449
709.859	0.0161317
709.937	0.0161714
710.015	0.0160567
710.093	0.0162604
710.171	0.0161605
710.249	0.0159083
710.328	0.0162498
710.406	0.0163200
710.484	0.0162090
710.562	0.0161501
710.640	0.0162482
710.718	0.0161852
710.796	0.0161723
710.874	0.0159934
710.953	0.0161966
711.031	0.0161938
711.109	0.0160987
711.187	0.0160835
711.265	0.0160976
711.343	0.0161905
711.421	0.0161162
711.499	0.0159795
711.578	0.0161420
711.656	0.0161509
711.734	0.0162159
711.812	0.0161327
711.890	0.0161453
711.968	0.0160508
712.046	0.0161755
712.124	0.0162018
712.203	0.0160536
712.281	0.0160641
712.359	0.0161758
712.437	0.0161308
712.515	0.0161477
712.593	0.0159610
712.671	0.0161696
712.749	0.0161819
712.828	0.0161553
712.906	0.0161001
712.984	0.0161674
713.062	0.0161034
713.140	0.0159711
713.218	0.0162151
713.296	0.0161615
713.374	0.0161024
713.453	0.0159733
713.531	0.0160529
713.609	0.0161996
713.687	0.0162034
713.765	0.0160244
713.843	0.0160445
713.921	0.0160714
713.999	0.0162009
714.078	0.0160760
714.156	0.0162914
714.234	0.0161527
714.312	0.0160744
714.390	0.0160148
714.468	0.0162088
714.546	0.0161632
714.624	0.0161948
714.703	0.0160741
714.781	0.0161529
714.859	0.0161325
714.937	0.0161227
715.015	0.0160454
715.093	0.0162009
715.171	0.0160670
715.249	0.0162420
715.328	0.0160858
715.406	0.0160477
715.484	0.0160934
715.562	0.0159430
715.640	0.0161060
715.718	0.0161940
715.796	0.0160790
715.874	0.0161117
715.953	0.0161156
716.031	0.0160974
716.109	0.0161035
716.187	0.0161418
716.265	0.0161571
716.343	0.0163951
716.421	0.0160315
716.499	0.0161967
716.578	0.0160912
716.656	0.0161287
716.734	0.0161092
716.812	0.0162017
716.890	0.0161269
716.968	0.0161872
717.046	0.0162226
717.124	0.0160744
717.203	0.0162231
717.281	0.0161956
717.359	0.0160060
717.437	0.0160638
717.515	0.0161237
717.593	0.0161379
717.671	0.0161805
717.749	0.0162356
717.828	0.0161734
717.906	0.0162562
717.984	0.0161108
718.062	0.0161436
718.140	0.0161627
718.218	0.0161231
718.296	0.0161284
718.374	0.0161501
718.453	0.0161427
718.531	0.0160477
718.609	0.0160903
718.687	0.0160288
718.765	0.0160719
718.843	0.0161040
718.921	0.0160325
718.999	0.0159541
719.078	0.0161398
719.156	0.0160332
719.234	0.0160791
719.312	0.0160777
719.390	0.0159944
719.468	0.0160903
719.546	0.0161477
719.624	0.0159019
719.703	0.0160626
719.781	0.0159875
719.859	0.0159740
719.937	0.0161174
720.015	0.0161468
720.093	0.0160026
720.171	0.0160207
720.249	0.0160207
720.328	0.0159418
720.406	0.0160772
720.484	0.0161003
720.562	0.0161717
720.640	0.0160863
720.718	0.0159653
720.796	0.0161609
720.874	0.0160831
720.953	0.0161069
721.031	0.0160401
721.109	0.0160532
721.187	0.0160455
721.265	0.0161103
721.343	0.0160842
721.421	0.0161316
721.499	0.0161012
721.578	0.0160000
721.656	0.0161358
721.734	0.0161545
721.812	0.0160563
721.890	0.0161543
721.968	0.0160120
722.046	0.0160219
722.124	0.0161512
722.203	0.0161420
722.281	0.0160323
722.359	0.0161202
722.437	0.0161285
722.515	0.0162685
722.593	0.0160622
722.671	0.0160921
722.749	0.0159442
722.828	0.0159985
722.906	0.0161158
722.984	0.0160479
723.062	0.0160238
723.140	0.0159389
723.218	0.0161063
723.296	0.0160574
723.374	0.0159239
723.453	0.0161987
723.531	0.0160019
723.609	0.0160384
723.687	0.0160590
723.765	0.0159683
723.843	0.0160571
723.921	0.0160503
723.999	0.0160845
724.078	0.0161740
724.156	0.0159650
724.234	0.0161468
724.312	0.0159803
724.390	0.0160763
724.468	0.0161911
724.546	0.0161027
724.624	0.0160400
724.703	0.0159317
724.781	0.0160243
724.859	0.0160215
724.937	0.0159792
725.015	0.0160760
725.093	0.0160902
725.171	0.0160251
725.249	0.0159360
725.328	0.0159866
725.406	0.0159962
725.484	0.0159938
725.562	0.0160774
725.640	0.0161888
725.718	0.0160492
725.796	0.0158942
725.874	0.0160092
725.953	0.0161461
726.031	0.0158938
726.109	0.0160397
726.187	0.0161020
726.265	0.0158785
726.343	0.0160031
726.421	0.0160827
726.499	0.0160431
726.578	0.0159446
726.656	0.0160230
726.734	0.0160320
726.812	0.0160744
726.890	0.0159781
726.968	0.0160811
727.046	0.0160677
727.124	0.0161685
727.203	0.0161269
727.281	0.0159764
727.359	0.0160030
727.437	0.0161335
727.515	0.0161153
727.593	0.0160766
727.671	0.0160098
727.749	0.0160436
727.828	0.0161205
727.906	0.0161357
727.984	0.0160241
728.062	0.0160107
728.140	0.0160191
728.218	0.0159686
728.296	0.0159008
728.374	0.0159312
728.453	0.0159400
728.531	0.0159406
728.609	0.0159085
728.687	0.0160079
728.765	0.0159394
728.843	0.0158949
728.921	0.0159584
728.999	0.0160452
729.078	0.0159108
729.156	0.0158750
729.234	0.0161209
729.312	0.0159916
729.390	0.0159901
729.468	0.0161400
729.546	0.0160239
729.624	0.0160238
729.703	0.0159754
729.781	0.0161517
729.859	0.0160120
729.937	0.0159059
730.015	0.0158268
730.093	0.0161403
730.171	0.0161658
730.249	0.0160022
730.328	0.0159499
730.406	0.0159473
730.484	0.0161242
730.562	0.0160596
730.640	0.0160243
730.718	0.0160880
730.796	0.0159209
730.874	0.0160735
730.953	0.0161373
731.031	0.0158828
731.109	0.0158920
731.187	0.0160147
731.265	0.0159533
731.343	0.0160389
731.421	0.0160925
731.499	0.0160558
731.578	0.0159701
731.656	0.0159689
731.734	0.0160361
731.812	0.0160621
731.890	0.0159774
731.968	0.0159865
732.046	0.0160020
732.124	0.0160537
732.203	0.0159743
732.281	0.0157707
732.359	0.0158989
732.437	0.0159734
732.515	0.0159130
732.593	0.0159612
732.671	0.0160560
732.749	0.0159059
732.828	0.0160668
732.906	0.0159572
732.984	0.0160373
733.062	0.0158930
733.140	0.0158249
733.218	0.0158708
733.296	0.0159959
733.374	0.0158335
733.453	0.0159119
733.531	0.0159884
733.609	0.0159299
733.687	0.0159633
733.765	0.0158277
733.843	0.0159001
733.921	0.0159348
733.999	0.0158895
734.078	0.0158820
734.156	0.0159146
734.234	0.0159312
734.312	0.0158761
734.390	0.0159388
734.468	0.0158704
734.546	0.0160538
734.624	0.0160596
734.703	0.0159962
734.781	0.0159817
734.859	0.0159782
734.937	0.0159366
735.015	0.0158949
735.093	0.0160291
735.171	0.0159259
735.249	0.0159038
735.328	0.0159633
735.406	0.0159446
735.484	0.0160142
735.562	0.0158542
735.640	0.0158678
735.718	0.0157798
735.796	0.0158580
735.874	0.0160219
735.953	0.0160716
736.031	0.0159444
736.109	0.0159128
736.187	0.0159691
736.265	0.0160040
736.343	0.0159757
736.421	0.0157880
736.499	0.0159736
736.578	0.0159945
736.656	0.0159590
736.734	0.0159632
736.812	0.0159339
736.890	0.0159169
736.968	0.0159641
737.046	0.0158257
737.124	0.0160181
737.203	0.0159357
737.281	0.0159248
737.359	0.0158804
737.437	0.0158629
737.515	0.0160681
737.593	0.0159199
737.671	0.0161137
737.749	0.0158641
737.828	0.0159082
737.906	0.0159347
737.984	0.0161505
738.062	0.0159441
738.140	0.0160491
738.218	0.0159623
738.296	0.0160371
738.374	0.0160615
738.453	0.0159373
738.531	0.0159725
738.609	0.0161169
738.687	0.0161238
738.765	0.0161099
738.843	0.0159670
738.921	0.0160853
738.999	0.0161017
739.078	0.0160437
739.156	0.0160110
739.234	0.0161372
739.312	0.0159938
739.390	0.0160372
739.468	0.0159089
739.546	0.0160474
739.624	0.0161713
739.703	0.0160534
739.781	0.0159883
739.859	0.0159367
739.937	0.0158738
740.015	0.0160816
740.093	0.0161381
740.171	0.0160616
740.249	0.0159830
740.328	0.0161157
740.406	0.0159944
740.484	0.0159783
740.562	0.0159845
740.640	0.0162379
740.718	0.0160957
740.796	0.0161620
740.874	0.0161958
740.953	0.0163084
741.031	0.0161157
741.109	0.0160970
741.187	0.0163557
741.265	0.0161629
741.343	0.0160574
741.421	0.0161909
741.499	0.0160448
741.578	0.0160749
741.656	0.0160837
741.734	0.0160091
741.812	0.0160159
741.890	0.0160824
741.968	0.0160611
742.046	0.0161263
742.124	0.0161937
742.203	0.0159523
742.281	0.0160226
742.359	0.0160041
742.437	0.0159779
742.515	0.0159440
742.593	0.0161726
742.671	0.0161031
742.749	0.0160760
742.828	0.0160304
742.906	0.0160889
742.984	0.0160802
743.062	0.0161442
743.140	0.0161243
743.218	0.0160918
743.296	0.0161103
743.374	0.0159869
743.453	0.0161377
743.531	0.0159983
743.609	0.0160194
743.687	0.0160219
743.765	0.0160716
743.843	0.0160684
743.921	0.0160596
743.999	0.0159800
744.078	0.0161368
744.156	0.0162166
744.234	0.0160514
744.312	0.0161773
744.390	0.0160416
744.468	0.0160896
744.546	0.0160139
744.624	0.0160646
744.703	0.0160600
744.781	0.0159733
744.859	0.0159144
744.937	0.0159781
745.015	0.0161758
745.093	0.0160236
745.171	0.0160006
745.249	0.0160615
745.328	0.0160265
745.406	0.0160925
745.484	0.0160200
745.562	0.0161550
745.640	0.0161234
745.718	0.0162625
745.796	0.0160934
745.874	0.0160556
745.953	0.0160914
746.031	0.0161080
746.109	0.0161978
746.187	0.0161465
746.265	0.0161890
746.343	0.0161253
746.421	0.0162463
746.499	0.0161762
746.578	0.0161636
746.656	0.0161293
746.734	0.0162193
746.812	0.0162524
746.890	0.0161457
746.968	0.0161832
747.046	0.0162510
747.124	0.0161116
747.203	0.0161633
747.281	0.0161290
747.359	0.0161899
747.437	0.0163054
747.515	0.0160792
747.593	0.0159921
747.671	0.0160658
747.749	0.0161697
747.828	0.0161639
747.906	0.0161366
747.984	0.0161236
748.062	0.0161169
748.140	0.0161564
748.218	0.0160883
748.296	0.0161284
748.374	0.0161642
748.453	0.0161716
748.531	0.0160725
748.609	0.0161517
748.687	0.0161024
748.765	0.0160846
748.843	0.0161232
748.921	0.0160934
748.999	0.0160017
749.078	0.0160068
749.156	0.0160556
749.234	0.0159843
749.312	0.0159704
749.390	0.0158421
749.468	0.0159430
749.546	0.0159665
749.624	0.0160336
749.703	0.0158762
749.781	0.0160350
749.859	0.0159287
749.937	0.0160020
750.015	0.0158730
750.093	0.0159699
750.171	0.0157829
750.249	0.0158831
750.328	0.0158675
750.406	0.0158952
750.484	0.0159059
750.562	0.0159580
750.640	0.0158403
750.718	0.0157542
750.796	0.0159282
750.874	0.0158880
750.953	0.0158754
751.031	0.0159122
751.109	0.0158479
751.187	0.0159850
751.265	0.0158516
751.343	0.0159588
751.421	0.0158724
751.499	0.0159216
751.578	0.0160800
751.656	0.0161128
751.734	0.0161230
751.812	0.0161443
751.890	0.0162030
751.968	0.0159551
752.046	0.0160189
752.124	0.0161888
752.203	0.0160477
752.281	0.0160506
752.359	0.0160798
752.437	0.0160287
752.515	0.0158553
752.593	0.0159921
752.671	0.0159620
752.749	0.0159442
752.828	0.0158987
752.906	0.0159991
752.984	0.0160048
753.062	0.0158872
753.140	0.0159303
753.218	0.0158397
753.296	0.0159306
753.374	0.0158879
753.453	0.0159917
753.531	0.0160210
753.609	0.0159935
753.687	0.0159542
753.765	0.0160770
753.843	0.0160363
753.921	0.0158379
753.999	0.0158703
754.078	0.0159672
754.156	0.0159117
754.234	0.0158636
754.312	0.0158465
754.390	0.0158831
754.468	0.0157520
754.546	0.0158686
754.624	0.0158489
754.703	0.0158347
754.781	0.0158456
754.859	0.0158198
754.937	0.0159284
755.015	0.0158614
755.093	0.0158290
755.171	0.0159132
755.249	0.0157329
755.328	0.0158295
755.406	0.0158449
755.484	0.0158434
755.562	0.0158878
755.640	0.0158362
755.718	0.0158158
755.796	0.0159503
755.874	0.0158585
755.953	0.0159220
756.031	0.0158776
756.109	0.0160349
756.187	0.0159472
756.265	0.0158781
756.343	0.0158529
756.421	0.0160109
756.499	0.0160056
756.578	0.0161038
756.656	0.0159093
756.734	0.0159703
756.812	0.0158049
756.890	0.0160106
756.968	0.0159901
757.046	0.0159846
757.124	0.0159016
757.203	0.0159277
757.281	0.0159770
757.359	0.0159695
757.437	0.0158714
757.515	0.0160228
757.593	0.0159615
757.671	0.0158364
757.749	0.0159068
757.828	0.0159650
757.906	0.0159155
757.984	0.0159187
758.062	0.0158825
758.140	0.0158152
758.218	0.0158500
758.296	0.0159184
758.374	0.0158281
758.453	0.0157989
758.531	0.0158862
758.609	0.0158726
758.687	0.0158521
758.765	0.0158739
758.843	0.0158720
758.921	0.0160031
758.999	0.0159535
759.078	0.0159737
759.156	0.0160800
759.234	0.0159695
759.312	0.0157972
759.390	0.0158479
759.468	0.0160662
759.546	0.0160949
759.624	0.0159558
759.703	0.0159042
759.781	0.0160159
759.859	0.0160365
759.937	0.0159440
760.015	0.0160698
760.093	0.0160288
760.171	0.0159982
760.249	0.0159588
760.328	0.0159361
760.406	0.0159219
760.484	0.0158727
760.562	0.0158598
760.640	0.0159116
760.718	0.0158401
760.796	0.0158508
760.874	0.0158723
760.953	0.0160385
761.031	0.0158903
761.109	0.0159224
761.187	0.0159705
761.265	0.0160148
761.343	0.0159032
761.421	0.0159581
761.499	0.0160009
761.578	0.0160019
761.656	0.0159544
761.734	0.0159860
761.812	0.0159492
761.890	0.0159360
761.968	0.0159529
762.046	0.0159463
762.124	0.0159766
762.203	0.0159686
762.281	0.0159696
762.359	0.0157959
762.437	0.0159478
762.515	0.0160905
762.593	0.0160583
762.671	0.0160542
762.749	0.0159104
762.828	0.0160278
762.906	0.0160902
762.984	0.0160274
763.062	0.0160310
763.140	0.0160005
763.218	0.0159388
763.296	0.0160822
763.374	0.0158807
763.453	0.0159189
763.531	0.0160140
763.609	0.0160279
763.687	0.0160145
763.765	0.0159997
763.843	0.0160285
763.921	0.0159817
763.999	0.0159930
764.078	0.0161071
764.156	0.0160183
764.234	0.0161110
764.312	0.0162053
764.390	0.0161289
764.468	0.0160983
764.546	0.0161699
764.624	0.0161460
764.703	0.0161936
764.781	0.0161613
764.859	0.0162113
764.937	0.0162572
765.015	0.0160874
765.093	0.0159775
765.171	0.0160466
765.249	0.0160539
765.328	0.0160124
765.406	0.0159404
765.484	0.0159863
765.562	0.0159753
765.640	0.0160136
765.718	0.0159098
765.796	0.0159092
765.874	0.0160696
765.953	0.0159293
766.031	0.0160354
766.109	0.0160437
766.187	0.0160718
766.265	0.0160918
766.343	0.0160331
766.421	0.0160765
766.499	0.0161720
766.578	0.0162408
766.656	0.0160735
766.734	0.0160116
766.812	0.0159373
766.890	0.0159644
766.968	0.0159063
767.046	0.0157419
767.124	0.0159092
767.203	0.0158957
767.281	0.0157446
767.359	0.0158478
767.437	0.0159209
767.515	0.0158771
767.593	0.0157965
767.671	0.0158509
767.749	0.0160022
767.828	0.0161006
767.906	0.0160215
767.984	0.0160964
768.062	0.0161807
768.140	0.0162800
768.218	0.0161648
768.296	0.0162596
768.374	0.0162524
768.453	0.0162837
768.531	0.0164565
768.609	0.0164502
768.687	0.0163657
768.765	0.0165038
768.843	0.0164222
768.921	0.0163269
768.999	0.0163198
769.078	0.0163860
769.156	0.0164479
769.234	0.0165285
769.312	0.0163676
769.390	0.0161005
769.468	0.0162641
769.546	0.0163386
769.624	0.0162263
769.703	0.0160540
769.781	0.0161712
769.859	0.0162234
769.937	0.0161584
770.015	0.0160291
770.093	0.0158145
770.171	0.0160863
770.249	0.0160090
770.328	0.0159414
770.406	0.0158657
770.484	0.0159593
770.562	0.0158321
770.640	0.0158620
770.718	0.0158759
770.796	0.0158221
770.874	0.0159901
770.953	0.0159193
771.031	0.0160587
771.109	0.0160036
771.187	0.0159817
771.265	0.0159931
771.343	0.0159133
771.421	0.0158446
771.499	0.0160139
771.578	0.0159764
771.656	0.0158789
771.734	0.0159744
771.812	0.0159986
771.890	0.0160866
771.968	0.0160775
772.046	0.0161516
772.124	0.0161700
772.203	0.0160555
772.281	0.0162383
772.359	0.0162971
772.437	0.0163857
772.515	0.0160943
772.593	0.0162378
772.671	0.0161874
772.749	0.0163089
772.828	0.0161880
772.906	0.0161549
772.984	0.0161917
773.062	0.0161835
773.140	0.0161393
773.218	0.0162233
773.296	0.0162074
773.374	0.0161739
773.453	0.0161608
773.531	0.0162045
773.609	0.0162017
773.687	0.0162542
773.765	0.0163499
773.843	0.0160590
773.921	0.0162664
773.999	0.0161173
774.078	0.0161809
774.156	0.0161906
774.234	0.0159931
774.312	0.0161110
774.390	0.0160213
774.468	0.0160802
774.546	0.0160568
774.624	0.0159928
774.703	0.0158426
774.781	0.0158993
774.859	0.0159132
774.937	0.0157838
775.015	0.0159486
775.093	0.0160101
775.171	0.0160467
775.249	0.0160085
775.328	0.0160102
775.406	0.0160973
775.484	0.0160595
775.562	0.0158912
775.640	0.0160178
775.718	0.0161647
775.796	0.0159896
775.874	0.0160301
775.953	0.0160135
776.031	0.0158751
776.109	0.0159193
776.187	0.0158211
776.265	0.0158837
776.343	0.0156628
776.421	0.0158018
776.499	0.0159016
776.578	0.0157576
776.656	0.0157208
776.734	0.0157738
776.812	0.0158063
776.890	0.0158729
776.968	0.0157782
777.046	0.0158038
777.124	0.0159019
777.203	0.0159202
777.281	0.0158784
777.359	0.0160034
777.437	0.0159683
777.515	0.0160171
777.593	0.0161424
777.671	0.0161423
777.749	0.0160561
777.828	0.0161946
777.906	0.0162827
777.984	0.0162180
778.062	0.0161674
778.140	0.0161806
778.218	0.0161753
778.296	0.0162385
778.374	0.0162706
778.453	0.0161315
778.531	0.0161794
778.609	0.0162620
778.687	0.0163137
778.765	0.0160062
778.843	0.0161619
778.921	0.0161815
778.999	0.0160551
779.078	0.0160976
779.156	0.0160786
779.234	0.0159299
779.312	0.0158537
779.390	0.0160233
779.468	0.0159062
779.546	0.0158545
779.624	0.0159627
779.703	0.0158394
779.781	0.0158314
779.859	0.0157936
779.937	0.0159300
780.015	0.0156679
780.093	0.0156574
780.171	0.0158582
780.249	0.0156455
780.328	0.0158686
780.406	0.0159187
780.484	0.0158102
780.562	0.0159952
780.640	0.0159009
780.718	0.0159790
780.796	0.0160152
780.874	0.0159063
780.953	0.0160245
781.031	0.0161370
781.109	0.0161388
781.187	0.0162041
781.265	0.0162425
781.343	0.0162549
781.421	0.0161391
781.499	0.0161475
781.578	0.0162806
781.656	0.0159912
781.734	0.0161022
781.812	0.0161342
781.890	0.0160046
781.968	0.0159981
782.046	0.0160694
782.124	0.0158125
782.203	0.0158399
782.281	0.0158476
782.359	0.0159091
782.437	0.0160538
782.515	0.0160100
782.593	0.0159176
782.671	0.0159566
782.749	0.0161221
782.828	0.0161519
782.906	0.0161181
782.984	0.0160845
783.062	0.0160440
783.140	0.0160882
783.218	0.0161032
783.296	0.0161396
783.374	0.0161883
783.453	0.0160516
783.531	0.0160656
783.609	0.0162139
783.687	0.0162183
783.765	0.0162631
783.843	0.0161835
783.921	0.0160751
783.999	0.0161819
784.078	0.0161805
784.156	0.0160606
784.234	0.0160196
784.312	0.0161270
784.390	0.0158401
784.468	0.0158836
784.546	0.0158775
784.624	0.0158103
784.703	0.0157693
784.781	0.0158454
784.859	0.0157047
784.937	0.0157674
785.015	0.0154931
785.093	0.0157632
785.171	0.0157583
785.249	0.0158430
785.328	0.0157622
785.406	0.0158231
785.484	0.0156866
785.562	0.0158609
785.640	0.0157858
785.718	0.0158679
785.796	0.0159188
785.874	0.0159178
785.953	0.0159940
786.031	0.0159545
786.109	0.0159390
786.187	0.0160587
786.265	0.0160137
786.343	0.0162138
786.421	0.0161091
786.499	0.0161182
786.578	0.0161377
786.656	0.0161247
786.734	0.0162164
786.812	0.0162997
786.890	0.0161878
786.968	0.0162965
787.046	0.0163393
787.124	0.0163311
787.203	0.0163919
787.281	0.0163603
787.359	0.0162676
787.437	0.0164602
787.515	0.0165983
787.593	0.0165044
787.671	0.0165788
787.749	0.0163491
787.828	0.0163687
787.906	0.0164915
787.984	0.0163182
788.062	0.0163696
788.140	0.0162289
788.218	0.0161761
788.296	0.0161787
788.374	0.0159962
788.453	0.0160330
788.531	0.0160966
788.609	0.0159984
788.687	0.0158889
788.765	0.0157718
788.843	0.0157146
788.921	0.0158339
788.999	0.0158503
789.078	0.0156554
789.156	0.0157323
789.234	0.0158198
789.312	0.0157516
789.390	0.0157478
789.468	0.0156181
789.546	0.0157118
789.624	0.0156837
789.703	0.0155449
789.781	0.0154860
789.859	0.0156725
789.937	0.0158839
790.015	0.0156953
790.093	0.0158109
790.171	0.0159058
790.249	0.0159063
790.328	0.0160143
790.406	0.0158614
790.484	0.0160854
790.562	0.0161837
790.640	0.0159366
790.718	0.0160294
790.796	0.0161893
790.874	0.0162630
790.953	0.0163120
791.031	0.0162119
791.109	0.0163271
791.187	0.0165165
791.265	0.0164951
791.343	0.0164422
791.421	0.0164192
791.499	0.0165067
791.578	0.0164721
791.656	0.0164670
791.734	0.0164243
791.812	0.0162650
791.890	0.0163560
791.968	0.0164948
792.046	0.0163351
792.124	0.0163279
792.203	0.0162183
792.281	0.0161730
792.359	0.0159995
792.437	0.0159932
792.515	0.0161040
792.593	0.0160450
792.671	0.0159214
792.749	0.0159734
792.828	0.0158971
792.906	0.0157765
792.984	0.0158878
793.062	0.0159898
793.140	0.0157747
793.218	0.0157527
793.296	0.0157182
793.374	0.0157175
793.453	0.0157559
793.531	0.0157868
793.609	0.0157162
793.687	0.0156560
793.765	0.0156842
793.843	0.0158114
793.921	0.0156805
793.999	0.0157372
794.078	0.0157496
794.156	0.0156854
794.234	0.0157165
794.312	0.0158434
794.390	0.0158028
794.468	0.0159668
794.546	0.0158128
794.624	0.0158004
794.703	0.0159957
794.781	0.0160794
794.859	0.0159535
794.937	0.0161550
795.015	0.0161150
795.093	0.0161081
795.171	0.0161056
795.249	0.0160996
795.328	0.0161224
795.406	0.0160841
795.484	0.0161359
795.562	0.0162331
795.640	0.0162930
795.718	0.0162643
795.796	0.0163110
795.874	0.0162400
795.953	0.0162016
796.031	0.0162727
796.109	0.0162812
796.187	0.0162202
796.265	0.0162437
796.343	0.0163089
796.421	0.0161714
796.499	0.0161705
796.578	0.0161309
796.656	0.0161418
796.734	0.0160887
796.812	0.0160526
796.890	0.0159760
796.968	0.0160043
797.046	0.0160631
797.124	0.0158788
797.203	0.0158149
797.281	0.0158643
797.359	0.0158283
797.437	0.0157292
797.515	0.0157980
797.593	0.0158295
797.671	0.0156860
797.749	0.0158189
797.828	0.0158485
797.906	0.0157466
797.984	0.0159373
798.062	0.0158556
798.140	0.0158204
798.218	0.0158792
798.296	0.0158836
798.374	0.0159033
798.453	0.0158049
798.531	0.0158752
798.609	0.0159365
798.687	0.0158871
798.765	0.0159370
798.843	0.0158923
798.921	0.0159681
798.999	0.0158653
799.078	0.0159498
799.156	0.0159805
799.234	0.0160111
799.312	0.0159553
799.390	0.0160130
799.468	0.0159885
799.546	0.0161182
799.624	0.0161687
799.703	0.0161763
799.781	0.0161854
799.859	0.0161037
799.937	0.0161411
800.015	0.0161990
800.093	0.0162453
800.171	0.0161454
800.249	0.0162408
800.328	0.0163767
800.406	0.0160996
800.484	0.0162103
800.562	0.0163528
800.640	0.0161520
800.718	0.0162473
800.796	0.0162251
800.874	0.0162153
800.953	0.0162527
801.031	0.0162093
801.109	0.0161401
801.187	0.0161098
801.265	0.0161308
801.343	0.0161846
801.421	0.0159912
801.499	0.0159563
801.578	0.0158434
801.656	0.0157357
801.734	0.0157777
801.812	0.0156889
801.890	0.0157044
801.968	0.0157896
802.046	0.0155701
802.124	0.0156248
802.203	0.0154881
802.281	0.0156788
802.359	0.0157516
802.437	0.0156097
802.515	0.0157053
802.593	0.0158718
802.671	0.0157494
802.749	0.0157866
802.828	0.0158901
802.906	0.0158956
802.984	0.0159491
803.062	0.0159122
803.140	0.0161428
803.218	0.0160268
803.296	0.0160157
803.374	0.0160409
803.453	0.0161251
803.531	0.0161705
803.609	0.0161961
803.687	0.0161411
803.765	0.0161723
803.843	0.0161884
803.921	0.0160275
803.999	0.0160622
804.078	0.0162005
804.156	0.0162547
804.234	0.0162583
804.312	0.0162621
804.390	0.0162067
804.468	0.0162418
804.546	0.0161118
804.624	0.0162691
804.703	0.0162840
804.781	0.0161355
804.859	0.0161779
804.937	0.0162720
805.015	0.0161596
805.093	0.0160393
805.171	0.0161140
805.249	0.0160017
805.328	0.0160952
805.406	0.0161031
805.484	0.0161835
805.562	0.0161809
805.640	0.0161163
805.718	0.0161399
805.796	0.0160210
805.874	0.0159454
805.953	0.0159321
806.031	0.0159730
806.109	0.0158643
806.187	0.0158210
806.265	0.0159315
806.343	0.0158060
806.421	0.0158070
806.499	0.0158810
806.578	0.0159418
806.656	0.0157764
806.734	0.0157607
806.812	0.0159209
806.890	0.0158541
806.968	0.0157975
807.046	0.0158568
807.124	0.0158084
807.203	0.0157774
807.281	0.0159567
807.359	0.0158761
807.437	0.0159617
807.515	0.0158093
807.593	0.0159313
807.671	0.0161088
807.749	0.0160437
807.828	0.0160037
807.906	0.0161475
807.984	0.0163148
808.062	0.0161995
808.140	0.0162120
808.218	0.0163071
808.296	0.0163464
808.374	0.0162574
808.453	0.0161989
808.531	0.0163165
808.609	0.0164783
808.687	0.0164494
808.765	0.0163538
808.843	0.0164594
808.921	0.0163803
808.999	0.0164102
809.078	0.0164276
809.156	0.0163493
809.234	0.0163493
809.312	0.0163337
809.390	0.0162983
809.468	0.0162343
809.546	0.0162038
809.624	0.0161620
809.703	0.0159147
809.781	0.0159943
809.859	0.0159502
809.937	0.0159007
810.015	0.0159606
810.093	0.0157501
810.171	0.0158884
810.249	0.0158397
810.328	0.0157923
810.406	0.0157860
810.484	0.0157491
810.562	0.0157565
810.640	0.0158163
810.718	0.0157671
810.796	0.0157405
810.874	0.0158713
810.953	0.0158186
811.031	0.0157975
811.109	0.0159872
811.187	0.0159121
811.265	0.0159676
811.343	0.0161465
811.421	0.0160596
811.499	0.0159836
811.578	0.0161533
811.656	0.0161224
811.734	0.0161024
811.812	0.0161691
811.890	0.0162298
811.968	0.0162736
812.046	0.0162872
812.124	0.0161244
812.203	0.0162499
812.281	0.0162520
812.359	0.0162086
812.437	0.0162692
812.515	0.0163531
812.593	0.0162821
812.671	0.0163578
812.749	0.0163290
812.828	0.0162392
812.906	0.0161712
812.984	0.0161748
813.062	0.0161293
813.140	0.0161682
813.218	0.0159669
813.296	0.0159058
813.374	0.0158277
813.453	0.0157710
813.531	0.0158459
813.609	0.0158557
813.687	0.0157483
813.765	0.0156590
813.843	0.0157556
813.921	0.0157397
813.999	0.0157370
814.078	0.0158781
814.156	0.0157944
814.234	0.0158875
814.312	0.0158794
814.390	0.0157521
814.468	0.0158327
814.546	0.0158112
814.624	0.0159027
814.703	0.0159353
814.781	0.0158786
814.859	0.0157724
814.937	0.0159775
815.015	0.0158266
815.093	0.0158965
815.171	0.0158318
815.249	0.0156223
815.328	0.0158974
815.406	0.0158223
815.484	0.0159593
815.562	0.0159258
815.640	0.0158616
815.718	0.0159096
815.796	0.0160213
815.874	0.0161358
815.953	0.0160948
816.031	0.0160743
816.109	0.0160999
816.187	0.0160446
816.265	0.0160658
816.343	0.0160476
816.421	0.0159859
816.499	0.0160008
816.578	0.0160581
816.656	0.0158865
816.734	0.0159671
816.812	0.0159367
816.890	0.0158087
816.968	0.0157066
817.046	0.0159895
817.124	0.0159253
817.203	0.0159068
817.281	0.0158819
817.359	0.0158727
817.437	0.0158515
817.515	0.0158908
817.593	0.0160129
817.671	0.0159801
817.749	0.0159932
817.828	0.0160200
817.906	0.0160507
817.984	0.0159578
818.062	0.0159480
818.140	0.0159406
818.218	0.0157856
818.296	0.0160432
818.374	0.0160954
818.453	0.0159442
818.531	0.0160326
818.609	0.0159575
818.687	0.0158365
818.765	0.0158551
818.843	0.0159305
818.921	0.0160345
818.999	0.0160744
819.078	0.0159356
819.156	0.0158422
819.234	0.0159000
819.312	0.0159740
819.390	0.0157894
819.468	0.0158473
819.546	0.0157520
819.624	0.0158204
819.703	0.0157436
819.781	0.0156891
819.859	0.0157375
819.937	0.0158651
820.015	0.0157815
820.093	0.0158395
820.171	0.0159702
820.249	0.0157153
820.328	0.0157925
820.406	0.0160560
820.484	0.0158824
820.562	0.0160048
820.640	0.0160748
820.718	0.0161651
820.796	0.0160770
820.874	0.0161484
820.953	0.0162234
821.031	0.0161908
821.109	0.0161385
821.187	0.0161458
821.265	0.0159448
821.343	0.0161075
821.421	0.0159274
821.499	0.0159119
821.578	0.0159405
821.656	0.0159641
821.734	0.0158418
821.812	0.0159181
821.890	0.0159149
821.968	0.0160784
822.046	0.0160192
822.124	0.0159711
822.203	0.0161437
822.281	0.0160164
822.359	0.0159561
822.437	0.0159536
822.515	0.0160948
822.593	0.0160371
822.671	0.0160703
822.749	0.0159792
822.828	0.0157137
822.906	0.0159266
822.984	0.0159296
823.062	0.0158068
823.140	0.0157077
823.218	0.0157021
823.296	0.0158646
823.374	0.0156339
823.453	0.0156432
823.531	0.0156712
823.609	0.0157341
823.687	0.0157504
823.765	0.0158786
823.843	0.0158242
823.921	0.0158243
823.999	0.0158752
824.078	0.0159257
824.156	0.0159064
824.234	0.0161389
824.312	0.0161085
824.390	0.0162174
824.468	0.0161224
824.546	0.0161818
824.624	0.0163172
824.703	0.0163512
824.781	0.0162689
824.859	0.0162054
824.937	0.0163213
825.015	0.0161942
825.093	0.0163483
825.171	0.0162497
825.249	0.0162710
825.328	0.0160478
825.406	0.0159702
825.484	0.0163506
825.562	0.0161553
825.640	0.0160838
825.718	0.0160786
825.796	0.0161773
825.874	0.0160726
825.953	0.0158558
826.031	0.0159644
826.109	0.0157845
826.187	0.0158523
826.265	0.0159096
826.343	0.0158470
826.421	0.0156333
826.499	0.0157863
826.578	0.0157344
826.656	0.0155936
826.734	0.0156693
826.812	0.0156723
826.890	0.0157806
826.968	0.0158283
827.046	0.0158495
827.124	0.0158235
827.203	0.0160273
827.281	0.0159667
827.359	0.0160468
827.437	0.0161106
827.515	0.0160101
827.593	0.0162746
827.671	0.0163720
827.749	0.0163269
827.828	0.0163461
827.906	0.0165331
827.984	0.0165284
828.062	0.0164700
828.140	0.0166696
828.218	0.0165712
828.296	0.0163941
828.374	0.0163065
828.453	0.0163795
828.531	0.0164227
828.609	0.0164017
828.687	0.0162173
828.765	0.0163013
828.843	0.0160229
828.921	0.0158893
828.999	0.0159139
829.078	0.0158211
829.156	0.0157533
829.234	0.0156322
829.312	0.0155759
829.390	0.0155809
829.468	0.0155830
829.546	0.0155589
829.624	0.0154015
829.703	0.0154752
829.781	0.0154772
829.859	0.0154830
829.937	0.0156697
830.015	0.0157462
830.093	0.0156819
830.171	0.0157513
830.249	0.0158696
830.328	0.0159568
830.406	0.0161170
830.484	0.0161095
830.562	0.0163004
830.640	0.0163146
830.718	0.0164217
830.796	0.0163461
830.874	0.0163779
830.953	0.0165643
831.031	0.0165100
831.109	0.0164252
831.187	0.0166093
831.265	0.0165771
831.343	0.0165750
831.421	0.0164447
831.499	0.0164136
831.578	0.0165320
831.656	0.0162384
831.734	0.0161101
831.812	0.0162486
831.890	0.0162515
831.968	0.0161697
832.046	0.0160415
832.124	0.0161160
832.203	0.0159714
832.281	0.0160381
832.359	0.0159361
832.437	0.0160384
832.515	0.0159502
832.593	0.0159856
832.671	0.0158687
832.749	0.0158762
832.828	0.0159651
832.906	0.0158418
832.984	0.0158885
833.062	0.0158699
833.140	0.0158335
833.218	0.0157877
833.296	0.0158553
833.374	0.0157618
833.453	0.0157637
833.531	0.0158328
833.609	0.0158865
833.687	0.0158000
833.765	0.0158853
833.843	0.0159728
833.921	0.0159640
833.999	0.0159740
834.078	0.0160686
834.156	0.0159275
834.234	0.0160959
834.312	0.0158940
834.390	0.0159576
834.468	0.0159708
834.546	0.0159599
834.624	0.0159539
834.703	0.0159824
834.781	0.0160172
834.859	0.0160461
834.937	0.0159274
835.015	0.0161394
835.093	0.0161986
835.171	0.0161662
835.249	0.0161288
835.328	0.0161617
835.406	0.0162955
835.484	0.0163438
835.562	0.0163097
835.640	0.0163265
835.718	0.0163990
835.796	0.0162720
835.874	0.0162854
835.953	0.0162838
836.031	0.0160870
836.109	0.0159289
836.187	0.0159524
836.265	0.0160471
836.343	0.0160496
836.421	0.0158121
836.499	0.0159273
836.578	0.0159406
836.656	0.0158492
836.734	0.0158954
836.812	0.0160645
836.890	0.0159377
836.968	0.0159946
837.046	0.0159008
837.124	0.0160079
837.203	0.0160661
837.281	0.0160228
837.359	0.0160196
837.437	0.0160691
837.515	0.0159233
837.593	0.0159409
837.671	0.0159188
837.749	0.0159064
837.828	0.0159741
837.906	0.0159825
837.984	0.0158469
838.062	0.0159839
838.140	0.0158872
838.218	0.0161090
838.296	0.0160553
838.374	0.0158440
838.453	0.0160892
838.531	0.0160435
838.609	0.0160461
838.687	0.0159093
838.765	0.0158656
838.843	0.0158627
838.921	0.0160246
838.999	0.0157629
839.078	0.0159162
839.156	0.0158831
839.234	0.0160268
839.312	0.0159542
839.390	0.0159642
839.468	0.0158552
839.546	0.0159149
839.624	0.0160249
839.703	0.0158970
839.781	0.0159369
839.859	0.0159393
839.937	0.0161046
840.015	0.0159167
840.093	0.0159920
840.171	0.0160197
840.249	0.0159210
840.328	0.0158019
840.406	0.0159282
840.484	0.0159935
840.562	0.0158694
840.640	0.0158986
840.718	0.0159085
840.796	0.0160258
840.874	0.0160287
840.953	0.0159559
841.031	0.0159488
841.109	0.0160015
841.187	0.0159433
841.265	0.0158969
841.343	0.0160854
841.421	0.0159550
841.499	0.0161821
841.578	0.0160540
841.656	0.0160225
841.734	0.0161124
841.812	0.0161439
841.890	0.0160970
841.968	0.0161687
842.046	0.0161127
842.124	0.0160939
842.203	0.0162288
842.281	0.0161276
842.359	0.0162226
842.437	0.0161211
842.515	0.0161179
842.593	0.0161189
842.671	0.0161632
842.749	0.0161292
842.828	0.0161260
842.906	0.0161549
842.984	0.0160229
843.062	0.0161223
843.140	0.0160801
843.218	0.0159829
843.296	0.0161992
843.374	0.0161587
843.453	0.0160461
843.531	0.0161001
843.609	0.0159823
843.687	0.0157892
843.765	0.0158420
843.843	0.0159307
843.921	0.0158204
843.999	0.0157442
844.078	0.0157587
844.156	0.0159200
844.234	0.0157972
844.312	0.0158200
844.390	0.0158836
844.468	0.0157751
844.546	0.0159432
844.624	0.0159154
844.703	0.0157896
844.781	0.0159002
844.859	0.0160107
844.937	0.0160216
845.015	0.0159882
845.093	0.0162164
845.171	0.0161485
845.249	0.0161446
845.328	0.0161015
845.406	0.0162688
845.484	0.0162180
845.562	0.0161843
845.640	0.0163036
845.718	0.0162004
845.796	0.0163633
845.874	0.0163892
845.953	0.0164493
846.031	0.0163639
846.109	0.0164258
846.187	0.0163509
846.265	0.0164956
846.343	0.0163930
846.421	0.0163493
846.499	0.0163654
846.578	0.0163895
846.656	0.0163303
846.734	0.0163062
846.812	0.0161884
846.890	0.0161281
846.968	0.0161149
847.046	0.0158635
847.124	0.0159312
847.203	0.0159083
847.281	0.0158216
847.359	0.0158909
847.437	0.0158313
847.515	0.0157190
847.593	0.0158461
847.671	0.0157631
847.749	0.0156312
847.828	0.0156474
847.906	0.0156086
847.984	0.0158444
848.062	0.0159546
848.140	0.0159219
848.218	0.0158804
848.296	0.0158607
848.374	0.0160831
848.453	0.0160875
848.531	0.0161515
848.609	0.0163536
848.687	0.0161817
848.765	0.0162851
848.843	0.0163547
848.921	0.0163886
848.999	0.0164279
849.078	0.0164545
849.156	0.0164988
849.234	0.0163239
849.312	0.0165278
849.390	0.0163553
849.468	0.0162627
849.546	0.0162904
849.624	0.0163140
849.703	0.0163027
849.781	0.0161707
849.859	0.0162737
849.937	0.0161456
850.015	0.0162186
850.093	0.0161913
850.171	0.0161449
850.249	0.0161451
850.328	0.0161433
850.406	0.0161169
850.484	0.0160931
850.562	0.0160948
850.640	0.0161562
850.718	0.0160023
850.796	0.0161292
850.874	0.0160810
850.953	0.0160867
851.031	0.0161076
851.109	0.0159390
851.187	0.0158398
851.265	0.0159071
851.343	0.0157964
851.421	0.0157180
851.499	0.0157925
851.578	0.0158622
851.656	0.0156336
851.734	0.0156557
851.812	0.0158034
851.890	0.0159586
851.968	0.0158180
852.046	0.0157693
852.124	0.0159435
852.203	0.0158142
852.281	0.0159126
852.359	0.0160257
852.437	0.0160797
852.515	0.0160897
852.593	0.0159723
852.671	0.0160410
852.749	0.0161805
852.828	0.0161391
852.906	0.0160530
852.984	0.0160710
853.062	0.0160683
853.140	0.0161708
853.218	0.0159732
853.296	0.0160268
853.374	0.0161662
853.453	0.0160972
853.531	0.0162567
853.609	0.0164204
853.687	0.0162782
853.765	0.0161815
853.843	0.0161394
853.921	0.0161678
853.999	0.0162653
854.078	0.0161661
854.156	0.0162323
854.234	0.0161503
854.312	0.0161400
854.390	0.0160843
854.468	0.0161166
854.546	0.0160526
854.624	0.0159204
854.703	0.0159063
854.781	0.0159363
854.859	0.0158379
854.937	0.0158076
855.015	0.0159575
855.093	0.0159097
855.171	0.0159657
855.249	0.0158942
855.328	0.0160057
855.406	0.0159469
855.484	0.0159785
855.562	0.0158862
855.640	0.0159027
855.718	0.0159754
855.796	0.0160230
855.874	0.0160846
855.953	0.0161211
856.031	0.0160887
856.109	0.0161523
856.187	0.0161195
856.265	0.0161952
856.343	0.0161842
856.421	0.0160964
856.499	0.0161121
856.578	0.0160886
856.656	0.0159734
856.734	0.0159171
856.812	0.0159872
856.890	0.0160118
856.968	0.0158706
857.046	0.0158861
857.124	0.0157456
857.203	0.0158558
857.281	0.0157941
857.359	0.0158992
857.437	0.0158235
857.515	0.0158193
857.593	0.0158496
857.671	0.0157251
857.749	0.0156979
857.828	0.0156754
857.906	0.0157792
857.984	0.0157703
858.062	0.0156955
858.140	0.0159312
858.218	0.0160530
858.296	0.0160358
858.374	0.0159210
858.453	0.0159829
858.531	0.0160329
858.609	0.0160449
858.687	0.0161020
858.765	0.0161358
858.843	0.0162050
858.921	0.0161333
858.999	0.0160564
859.078	0.0160131
859.156	0.0159941
859.234	0.0160197
859.312	0.0160264
859.390	0.0158572
859.468	0.0158456
859.546	0.0159717
859.624	0.0160703
859.703	0.0160207
859.781	0.0160583
859.859	0.0159400
859.937	0.0158375
860.015	0.0158798
860.093	0.0160035
860.171	0.0159364
860.249	0.0159109
860.328	0.0158657
860.406	0.0159003
860.484	0.0158650
860.562	0.0158743
860.640	0.0159664
860.718	0.0158185
860.796	0.0158644
860.874	0.0158012
860.953	0.0158691
861.031	0.0157774
861.109	0.0157896
861.187	0.0158817
861.265	0.0158121
861.343	0.0157023
861.421	0.0155414
861.499	0.0156569
861.578	0.0158688
861.656	0.0157711
861.734	0.0157177
861.812	0.0158984
861.890	0.0157002
861.968	0.0159464
862.046	0.0159172
862.124	0.0160361
862.203	0.0159980
862.281	0.0160864
862.359	0.0160472
862.437	0.0159550
862.515	0.0160425
862.593	0.0160738
862.671	0.0160164
862.749	0.0159856
862.828	0.0162315
862.906	0.0162061
862.984	0.0161089
863.062	0.0161919
863.140	0.0163199
863.218	0.0161085
863.296	0.0161353
863.374	0.0162266
863.453	0.0160220
863.531	0.0160674
863.609	0.0160709
863.687	0.0162048
863.765	0.0160230
863.843	0.0160328
863.921	0.0160052
863.999	0.0159991
864.078	0.0158508
864.156	0.0161070
864.234	0.0158844
864.312	0.0159361
864.390	0.0159798
864.468	0.0159467
864.546	0.0160322
864.624	0.0158846
864.703	0.0160134
864.781	0.0159140
864.859	0.0159351
864.937	0.0158869
865.015	0.0159560
865.093	0.0159568
865.171	0.0159037
865.249	0.0158397
865.328	0.0159304
865.406	0.0159821
865.484	0.0159636
865.562	0.0159134
865.640	0.0160358
865.718	0.0159557
865.796	0.0159419
865.874	0.0159509
865.953	0.0158875
866.031	0.0159474
866.109	0.0161382
866.187	0.0160293
866.265	0.0160132
866.343	0.0160474
866.421	0.0160314
866.499	0.0160168
866.578	0.0161327
866.656	0.0159668
866.734	0.0160264
866.812	0.0160902
866.890	0.0160183
866.968	0.0162011
867.046	0.0160705
867.124	0.0160168
867.203	0.0160332
867.281	0.0162402
867.359	0.0160361
867.437	0.0161337
867.515	0.0161980
867.593	0.0161251
867.671	0.0160725
867.749	0.0162711
867.828	0.0161859
867.906	0.0161217
867.984	0.0161895
868.062	0.0162146
868.140	0.0162605
868.218	0.0160994
868.296	0.0161789
868.374	0.0161966
868.453	0.0159883
868.531	0.0161678
868.609	0.0160144
868.687	0.0160148
868.765	0.0160507
868.843	0.0161517
868.921	0.0161378
868.999	0.0158812
869.078	0.0160617
869.156	0.0159109
869.234	0.0159497
869.312	0.0159521
869.390	0.0159272
869.468	0.0159174
869.546	0.0159663
869.624	0.0159186
869.703	0.0160842
869.781	0.0159132
869.859	0.0159611
869.937	0.0160105
870.015	0.0160589
870.093	0.0160179
870.171	0.0160658
870.249	0.0161184
870.328	0.0162029
870.406	0.0161788
870.484	0.0160940
870.562	0.0160968
870.640	0.0162844
870.718	0.0161855
870.796	0.0161790
870.874	0.0161991
870.953	0.0162345
871.031	0.0162492
871.109	0.0162640
871.187	0.0162561
871.265	0.0162082
871.343	0.0161135
871.421	0.0162440
871.499	0.0161546
871.578	0.0161785
871.656	0.0160991
871.734	0.0163094
871.812	0.0161289
871.890	0.0161977
871.968	0.0162048
872.046	0.0161146
872.124	0.0160635
872.203	0.0161478
872.281	0.0161021
872.359	0.0160778
872.437	0.0161880
872.515	0.0161758
872.593	0.0160245
872.671	0.0162476
872.749	0.0160789
872.828	0.0161407
872.906	0.0161888
872.984	0.0160465
873.062	0.0161648
873.140	0.0162309
873.218	0.0160779
873.296	0.0162578
873.374	0.0162195
873.453	0.0160783
873.531	0.0160095
873.609	0.0161278
873.687	0.0162053
873.765	0.0161290
873.843	0.0160831
873.921	0.0161551
873.999	0.0160111
874.078	0.0160512
874.156	0.0159544
874.234	0.0160718
874.312	0.0159413
874.390	0.0158565
874.468	0.0159549
874.546	0.0160903
874.624	0.0158441
874.703	0.0161069
874.781	0.0160519
874.859	0.0159251
874.937	0.0159050
875.015	0.0159528
875.093	0.0159607
875.171	0.0158038
875.249	0.0158945
875.328	0.0160146
875.406	0.0160958
875.484	0.0159469
875.562	0.0159302
875.640	0.0159719
875.718	0.0160433
875.796	0.0159232
875.874	0.0160619
875.953	0.0160361
876.031	0.0159542
876.109	0.0160121
876.187	0.0159856
876.265	0.0160523
876.343	0.0159900
876.421	0.0161094
876.499	0.0161464
876.578	0.0159799
876.656	0.0159883
876.734	0.0160691
876.812	0.0159955
876.890	0.0161052
876.968	0.0159570
877.046	0.0159738
877.124	0.0159558
877.203	0.0160828
877.281	0.0160229
877.359	0.0159781
877.437	0.0159775
877.515	0.0159525
877.593	0.0161774
877.671	0.0159605
877.749	0.0158516
877.828	0.0159799
877.906	0.0160493
877.984	0.0159394
878.062	0.0158624
878.140	0.0160126
878.218	0.0160713
878.296	0.0159686
878.374	0.0160457
878.453	0.0160629
878.531	0.0160051
878.609	0.0159481
878.687	0.0160773
878.765	0.0161672
878.843	0.0161549
878.921	0.0160338
878.999	0.0160970
879.078	0.0160090
879.156	0.0160885
879.234	0.0161981
879.312	0.0159618
879.390	0.0160842
879.468	0.0161600
879.546	0.0160140
879.624	0.0160831
879.703	0.0159512
879.781	0.0159930
879.859	0.0159441
879.937	0.0158830
880.015	0.0160985
880.093	0.0159837
880.171	0.0160884
880.249	0.0160081
880.328	0.0161009
880.406	0.0162257
880.484	0.0159661
880.562	0.0159855
880.640	0.0159944
880.718	0.0160194
880.796	0.0161615
880.874	0.0160817
880.953	0.0161000
881.031	0.0161674
881.109	0.0160540
881.187	0.0161142
881.265	0.0160922
881.343	0.0160989
881.421	0.0160365
881.499	0.0160244
881.578	0.0162124
881.656	0.0161262
881.734	0.0160762
881.812	0.0161555
881.890	0.0161454
881.968	0.0160940
882.046	0.0160431
882.124	0.0160518
882.203	0.0159470
882.281	0.0159516
882.359	0.0160158
882.437	0.0160978
882.515	0.0158677
882.593	0.0160136
882.671	0.0160001
882.749	0.0158879
882.828	0.0161406
882.906	0.0160391
882.984	0.0158144
883.062	0.0159631
883.140	0.0159485
883.218	0.0160280
883.296	0.0159732
883.374	0.0160943
883.453	0.0160577
883.531	0.0159718
883.609	0.0159696
883.687	0.0160745
883.765	0.0159608
883.843	0.0160583
883.921	0.0159904
883.999	0.0159240
884.078	0.0159965
884.156	0.0159331
884.234	0.0158694
884.312	0.0158186
884.390	0.0159557
884.468	0.0158504
884.546	0.0157734
884.624	0.0157001
884.703	0.0159000
884.781	0.0159039
884.859	0.0158649
884.937	0.0158267
885.015	0.0158424
885.093	0.0159101
885.171	0.0160232
885.249	0.0159299
885.328	0.0159041
885.406	0.0159599
885.484	0.0159193
885.562	0.0159243
885.640	0.0159452
885.718	0.0159208
885.796	0.0158959
885.874	0.0158450
885.953	0.0159230
886.031	0.0157552
886.109	0.0157877
886.187	0.0158742
886.265	0.0158421
886.343	0.0158818
886.421	0.0158724
886.499	0.0157882
886.578	0.0157538
886.656	0.0159235
886.734	0.0159174
886.812	0.0159911
886.890	0.0160172
886.968	0.0159947
887.046	0.0159864
887.124	0.0158997
887.203	0.0160870
887.281	0.0159618
887.359	0.0159709
887.437	0.0158034
887.515	0.0160281
887.593	0.0159747
887.671	0.0160002
887.749	0.0158817
887.828	0.0158610
887.906	0.0158669
887.984	0.0159261
888.062	0.0159680
888.140	0.0158380
888.218	0.0159348
888.296	0.0157713
888.374	0.0158762
888.453	0.0159669
888.531	0.0159338
888.609	0.0160847
888.687	0.0159654
888.765	0.0159196
888.843	0.0160394
888.921	0.0159978
888.999	0.0160811
889.078	0.0159422
889.156	0.0159037
889.234	0.0161234
889.312	0.0161212
889.390	0.0160435
889.468	0.0159957
889.546	0.0161404
889.624	0.0161353
889.703	0.0161195
889.781	0.0161379
889.859	0.0160668
889.937	0.0161986
890.015	0.0163155
890.093	0.0160973
890.171	0.0161246
890.249	0.0161631
890.328	0.0161205
890.406	0.0161543
890.484	0.0159710
890.562	0.0160426
890.640	0.0160897
890.718	0.0159788
890.796	0.0160061
890.874	0.0160998
890.953	0.0159733
891.031	0.0161320
891.109	0.0159013
891.187	0.0159429
891.265	0.0160341
891.343	0.0160887
891.421	0.0159708
891.499	0.0160845
891.578	0.0160418
891.656	0.0161297
891.734	0.0161604
891.812	0.0159985
891.890	0.0160075
891.968	0.0160850
892.046	0.0160995
892.124	0.0161538
892.203	0.0160516
892.281	0.0160688
892.359	0.0160231
892.437	0.0159013
892.515	0.0161319
892.593	0.0160634
892.671	0.0160583
892.749	0.0159936
892.828	0.0160136
892.906	0.0161163
892.984	0.0159478
893.062	0.0160674
893.140	0.0160163
893.218	0.0159059
893.296	0.0160769
893.374	0.0159975
893.453	0.0159349
893.531	0.0160191
893.609	0.0160052
893.687	0.0160610
893.765	0.0161416
893.843	0.0161777
893.921	0.0161715
893.999	0.0160220
894.078	0.0161813
894.156	0.0161701
894.234	0.0160636
894.312	0.0161282
894.390	0.0160710
894.468	0.0160206
894.546	0.0160271
894.624	0.0161485
894.703	0.0160795
894.781	0.0161687
894.859	0.0162326
894.937	0.0160923
895.015	0.0161574
895.093	0.0159341
895.171	0.0161254
895.249	0.0161688
895.328	0.0160589
895.406	0.0160629
895.484	0.0160915
895.562	0.0159081
895.640	0.0160741
895.718	0.0160647
895.796	0.0160548
895.874	0.0159883
895.953	0.0159414
896.031	0.0160080
896.109	0.0161369
896.187	0.0160644
896.265	0.0160749
896.343	0.0161492
896.421	0.0160732
896.499	0.0160273
896.578	0.0161227
896.656	0.0161422
896.734	0.0159693
896.812	0.0159538
896.890	0.0161364
896.968	0.0161327
897.046	0.0159383
897.124	0.0159745
897.203	0.0159041
897.281	0.0160287
897.359	0.0159883
897.437	0.0159273
897.515	0.0159091
897.593	0.0159512
897.671	0.0159864
897.749	0.0158170
897.828	0.0159413
897.906	0.0160091
897.984	0.0159492
898.062	0.0158484
898.140	0.0159177
898.218	0.0159241
898.296	0.0159395
898.374	0.0160223
898.453	0.0159119
898.531	0.0159711
898.609	0.0160068
898.687	0.0159557
898.765	0.0158432
898.843	0.0158100
898.921	0.0161199
898.999	0.0159043
899.078	0.0160715
899.156	0.0160753
899.234	0.0160889
899.312	0.0158888
899.390	0.0160975
899.468	0.0160243
899.546	0.0161011
899.624	0.0161169
899.703	0.0161245
899.781	0.0162004
899.859	0.0160267
899.937	0.0161302
900.015	0.0161486
900.093	0.0161282
900.171	0.0159790
900.249	0.0159794
900.328	0.0161642
900.406	0.0160685
900.484	0.0161320
900.562	0.0160168
900.640	0.0160536
900.718	0.0159940
900.796	0.0160478
900.874	0.0161028
900.953	0.0160696
901.031	0.0159389
901.109	0.0160667
901.187	0.0161225
901.265	0.0161666
901.343	0.0159602
901.421	0.0160229
901.499	0.0159457
901.578	0.0159753
901.656	0.0161716
901.734	0.0162526
901.812	0.0159786
901.890	0.0159963
901.968	0.0160453
902.046	0.0161001
902.124	0.0161078
902.203	0.0160533
902.281	0.0160167
902.359	0.0160052
902.437	0.0160435
902.515	0.0160266
902.593	0.0159476
902.671	0.0159430
902.749	0.0159230
902.828	0.0159530
902.906	0.0159354
902.984	0.0159016
903.062	0.0159662
903.140	0.0158208
903.218	0.0159527
903.296	0.0160233
903.374	0.0160035
903.453	0.0159678
903.531	0.0160358
903.609	0.0159258
903.687	0.0158836
903.765	0.0159600
903.843	0.0160290
903.921	0.0160805
903.999	0.0160737
904.078	0.0160399
904.156	0.0159814
904.234	0.0159724
904.312	0.0159522
904.390	0.0160256
904.468	0.0160826
904.546	0.0159572
904.624	0.0160069
904.703	0.0161086
904.781	0.0158289
904.859	0.0160311
904.937	0.0160412
905.015	0.0160462
905.093	0.0160181
905.171	0.0160483
905.249	0.0159130
905.328	0.0160922
905.406	0.0161777
905.484	0.0159840
905.562	0.0160275
905.640	0.0160225
905.718	0.0159592
905.796	0.0159908
905.874	0.0160390
905.953	0.0159528
906.031	0.0159972
906.109	0.0160527
906.187	0.0160531
906.265	0.0160096
906.343	0.0159418
906.421	0.0160438
906.499	0.0162621
906.578	0.0160583
906.656	0.0159261
906.734	0.0160465
906.812	0.0160561
906.890	0.0160141
906.968	0.0161712
907.046	0.0160484
907.124	0.0160490
907.203	0.0161387
907.281	0.0159705
907.359	0.0159470
907.437	0.0160337
907.515	0.0159521
907.593	0.0158924
907.671	0.0159060
907.749	0.0159428
907.828	0.0159718
907.906	0.0159911
907.984	0.0159585
908.062	0.0158959
908.140	0.0160166
908.218	0.0159903
908.296	0.0158798
908.374	0.0160231
908.453	0.0159830
908.531	0.0159659
908.609	0.0159799
908.687	0.0160849
908.765	0.0159579
908.843	0.0160094
908.921	0.0159630
908.999	0.0160244
909.078	0.0161463
909.156	0.0160659
909.234	0.0159936
909.312	0.0160538
909.390	0.0159523
909.468	0.0160555
909.546	0.0159181
909.624	0.0160555
909.703	0.0160397
909.781	0.0158313
909.859	0.0159951
909.937	0.0160336
910.015	0.0158671
910.093	0.0158522
910.171	0.0159437
910.249	0.0159544
910.328	0.0157587
910.406	0.0158107
910.484	0.0158518
910.562	0.0158290
910.640	0.0160039
910.718	0.0158707
910.796	0.0159155
910.874	0.0158441
910.953	0.0158501
911.031	0.0158347
911.109	0.0158667
911.187	0.0159592
911.265	0.0158775
911.343	0.0159354
911.421	0.0159891
911.499	0.0158736
911.578	0.0159590
911.656	0.0161230
911.734	0.0159743
911.812	0.0159428
911.890	0.0160168
911.968	0.0160548
912.046	0.0159022
912.124	0.0160546
912.203	0.0159786
912.281	0.0159393
912.359	0.0160998
912.437	0.0159996
912.515	0.0159605
912.593	0.0159743
912.671	0.0159546
912.749	0.0159338
912.828	0.0158649
912.906	0.0159972
912.984	0.0161281
913.062	0.0160047
913.140	0.0159966
913.218	0.0160825
913.296	0.0159594
913.374	0.0158293
913.453	0.0160113
913.531	0.0161021
913.609	0.0159738
913.687	0.0160686
913.765	0.0160933
913.843	0.0160416
913.921	0.0161303
913.999	0.0159782
914.078	0.0160274
914.156	0.0160022
914.234	0.0159636
914.312	0.0160835
914.390	0.0160158
914.468	0.0159771
914.546	0.0161449
914.624	0.0161026
914.703	0.0160433
914.781	0.0159451
914.859	0.0159540
914.937	0.0159856
915.015	0.0159034
915.093	0.0160284
915.171	0.0160957
915.249	0.0159812
915.328	0.0160358
915.406	0.0160105
915.484	0.0160417
915.562	0.0159722
915.640	0.0159981
915.718	0.0159347
915.796	0.0159486
915.874	0.0159428
915.953	0.0160676
916.031	0.0160523
916.109	0.0159083
916.187	0.0159641
916.265	0.0160020
916.343	0.0160578
916.421	0.0159064
916.499	0.0159009
916.578	0.0160104
916.656	0.0160036
916.734	0.0158813
916.812	0.0160703
916.890	0.0161424
916.968	0.0159909
917.046	0.0161607
917.124	0.0160660
917.203	0.0162437
917.281	0.0161250
917.359	0.0162273
917.437	0.0161473
917.515	0.0161707
917.593	0.0162878
917.671	0.0161200
917.749	0.0160266
917.828	0.0161407
917.906	0.0160945
917.984	0.0161555
918.062	0.0160327
918.140	0.0160617
918.218	0.0160139
918.296	0.0159173
918.374	0.0160744
918.453	0.0160185
918.531	0.0160911
918.609	0.0159778
918.687	0.0161327
918.765	0.0161000
918.843	0.0159709
918.921	0.0160735
918.999	0.0160076
919.078	0.0162037
919.156	0.0161717
919.234	0.0162811
919.312	0.0160770
919.390	0.0160767
919.468	0.0160201
919.546	0.0160504
919.624	0.0160419
919.703	0.0160167
919.781	0.0160955
919.859	0.0161008
919.937	0.0161194
