06/10/2022	19:02:31	Ver.	4.1	UNKNOWN
Optical Delay	600.015094	Delta X		0.078125	Sweeps	1	Scan Rate	0/0
Coordinates	Axis 1	NaN	Axis 2	NaN	Axis 3	NaN	Axis 4	NaN	Axis 5	NaN	Axis 6	0.000000
TX Power	0.000000	RX Power	0.000000

600.015	0.0159436
600.093	0.0159155
600.171	0.0159457
600.249	0.0158849
600.328	0.0159105
600.406	0.0158360
600.484	0.0158715
600.562	0.0159352
600.640	0.0159551
600.718	0.0159739
600.796	0.0159344
600.874	0.0159007
600.953	0.0160380
601.031	0.0158447
601.109	0.0158016
601.187	0.0159129
601.265	0.0159000
601.343	0.0159278
601.421	0.0158115
601.499	0.0158458
601.578	0.0158205
601.656	0.0159227
601.734	0.0159441
601.812	0.0158624
601.890	0.0158387
601.968	0.0159572
602.046	0.0159606
602.124	0.0158121
602.203	0.0159059
602.281	0.0158200
602.359	0.0157942
602.437	0.0158836
602.515	0.0158402
602.593	0.0157064
602.671	0.0159129
602.749	0.0158949
602.828	0.0156911
602.906	0.0159300
602.984	0.0158543
603.062	0.0158232
603.140	0.0158118
603.218	0.0158987
603.296	0.0158001
603.374	0.0158739
603.453	0.0157768
603.531	0.0158098
603.609	0.0158238
603.687	0.0158661
603.765	0.0159614
603.843	0.0158851
603.921	0.0158703
603.999	0.0158049
604.078	0.0158198
604.156	0.0159650
604.234	0.0158721
604.312	0.0159214
604.390	0.0157710
604.468	0.0159669
604.546	0.0158985
604.624	0.0158328
604.703	0.0159557
604.781	0.0159167
604.859	0.0159165
604.937	0.0158183
605.015	0.0158804
605.093	0.0160120
605.171	0.0157912
605.249	0.0158498
605.328	0.0159006
605.406	0.0159435
605.484	0.0158716
605.562	0.0158509
605.640	0.0159374
605.718	0.0158539
605.796	0.0158106
605.874	0.0159666
605.953	0.0159097
606.031	0.0159104
606.109	0.0158632
606.187	0.0158467
606.265	0.0158737
606.343	0.0159241
606.421	0.0159753
606.499	0.0158878
606.578	0.0159512
606.656	0.0158472
606.734	0.0159100
606.812	0.0159334
606.890	0.0160889
606.968	0.0159348
607.046	0.0158378
607.124	0.0159519
607.203	0.0160610
607.281	0.0159776
607.359	0.0160232
607.437	0.0160160
607.515	0.0158730
607.593	0.0158896
607.671	0.0159509
607.749	0.0159982
607.828	0.0159936
607.906	0.0160391
607.984	0.0161880
608.062	0.0159725
608.140	0.0161135
608.218	0.0160598
608.296	0.0160729
608.374	0.0160762
608.453	0.0160947
608.531	0.0160797
608.609	0.0160052
608.687	0.0160397
608.765	0.0160942
608.843	0.0160828
608.921	0.0159965
608.999	0.0160313
609.078	0.0160188
609.156	0.0160612
609.234	0.0160389
609.312	0.0160926
609.390	0.0161031
609.468	0.0160896
609.546	0.0161186
609.624	0.0159918
609.703	0.0160037
609.781	0.0161078
609.859	0.0159097
609.937	0.0161326
610.015	0.0160641
610.093	0.0161072
610.171	0.0161363
610.249	0.0160322
610.328	0.0159919
610.406	0.0161025
610.484	0.0160367
610.562	0.0161201
610.640	0.0160362
610.718	0.0161581
610.796	0.0161160
610.874	0.0159518
610.953	0.0160566
611.031	0.0158270
611.109	0.0159545
611.187	0.0160222
611.265	0.0159858
611.343	0.0157967
611.421	0.0158807
611.499	0.0160881
611.578	0.0160136
611.656	0.0159581
611.734	0.0159918
611.812	0.0160954
611.890	0.0158634
611.968	0.0159902
612.046	0.0159740
612.124	0.0159341
612.203	0.0159250
612.281	0.0159683
612.359	0.0159444
612.437	0.0159896
612.515	0.0159907
612.593	0.0159238
612.671	0.0160119
612.749	0.0161273
612.828	0.0159800
612.906	0.0158670
612.984	0.0160168
613.062	0.0159254
613.140	0.0158790
613.218	0.0159227
613.296	0.0160207
613.374	0.0159701
613.453	0.0158472
613.531	0.0160098
613.609	0.0158811
613.687	0.0158152
613.765	0.0159557
613.843	0.0158875
613.921	0.0159419
613.999	0.0158351
614.078	0.0158281
614.156	0.0158040
614.234	0.0160046
614.312	0.0160764
614.390	0.0158350
614.468	0.0159551
614.546	0.0159448
614.624	0.0159335
614.703	0.0159072
614.781	0.0158960
614.859	0.0160734
614.937	0.0159298
615.015	0.0160416
615.093	0.0159940
615.171	0.0160255
615.249	0.0158746
615.328	0.0159247
615.406	0.0158730
615.484	0.0159214
615.562	0.0159618
615.640	0.0159509
615.718	0.0159155
615.796	0.0159595
615.874	0.0159920
615.953	0.0159079
616.031	0.0158174
616.109	0.0159055
616.187	0.0159662
616.265	0.0160121
616.343	0.0159824
616.421	0.0160265
616.499	0.0158353
616.578	0.0159785
616.656	0.0159753
616.734	0.0159640
616.812	0.0160528
616.890	0.0160224
616.968	0.0159718
617.046	0.0158680
617.124	0.0159580
617.203	0.0160035
617.281	0.0159278
617.359	0.0160527
617.437	0.0159733
617.515	0.0160358
617.593	0.0159763
617.671	0.0159812
617.749	0.0159847
617.828	0.0159149
617.906	0.0159944
617.984	0.0159795
618.062	0.0160804
618.140	0.0160751
618.218	0.0160235
618.296	0.0160661
618.374	0.0160081
618.453	0.0160238
618.531	0.0161465
618.609	0.0160326
618.687	0.0160725
618.765	0.0162269
618.843	0.0160940
618.921	0.0161222
618.999	0.0160542
619.078	0.0160565
619.156	0.0160339
619.234	0.0160594
619.312	0.0159972
619.390	0.0161240
619.468	0.0159586
619.546	0.0159484
619.624	0.0160784
619.703	0.0161231
619.781	0.0161374
619.859	0.0160676
619.937	0.0159982
620.015	0.0161584
620.093	0.0161583
620.171	0.0160974
620.249	0.0159958
620.328	0.0160650
620.406	0.0162034
620.484	0.0160418
620.562	0.0160421
620.640	0.0160890
620.718	0.0161082
620.796	0.0160321
620.874	0.0160480
620.953	0.0160439
621.031	0.0160764
621.109	0.0159729
621.187	0.0160461
621.265	0.0160556
621.343	0.0161282
621.421	0.0160857
621.499	0.0160928
621.578	0.0158908
621.656	0.0159785
621.734	0.0160614
621.812	0.0159705
621.890	0.0161916
621.968	0.0160954
622.046	0.0160328
622.124	0.0159885
622.203	0.0160165
622.281	0.0159694
622.359	0.0160017
622.437	0.0160538
622.515	0.0160051
622.593	0.0159746
622.671	0.0161564
622.749	0.0160902
622.828	0.0160307
622.906	0.0160682
622.984	0.0158768
623.062	0.0161034
623.140	0.0160795
623.218	0.0160864
623.296	0.0159725
623.374	0.0159764
623.453	0.0160616
623.531	0.0161987
623.609	0.0160273
623.687	0.0161340
623.765	0.0161833
623.843	0.0161121
623.921	0.0160164
623.999	0.0160648
624.078	0.0159643
624.156	0.0160067
624.234	0.0161547
624.312	0.0160326
624.390	0.0160863
624.468	0.0160417
624.546	0.0160429
624.624	0.0161550
624.703	0.0161472
624.781	0.0160802
624.859	0.0161926
624.937	0.0161971
625.015	0.0159423
625.093	0.0159240
625.171	0.0161166
625.249	0.0160558
625.328	0.0159770
625.406	0.0160621
625.484	0.0161509
625.562	0.0160212
625.640	0.0160336
625.718	0.0160307
625.796	0.0159444
625.874	0.0159757
625.953	0.0159211
626.031	0.0158112
626.109	0.0158509
626.187	0.0159312
626.265	0.0158810
626.343	0.0156509
626.421	0.0158193
626.499	0.0157905
626.578	0.0156495
626.656	0.0157755
626.734	0.0156934
626.812	0.0158164
626.890	0.0157026
626.968	0.0157256
627.046	0.0157151
627.124	0.0158047
627.203	0.0155862
627.281	0.0158248
627.359	0.0158098
627.437	0.0158630
627.515	0.0158895
627.593	0.0159044
627.671	0.0160851
627.749	0.0160467
627.828	0.0159231
627.906	0.0161319
627.984	0.0159918
628.062	0.0160626
628.140	0.0160573
628.218	0.0160199
628.296	0.0160912
628.374	0.0159538
628.453	0.0158160
628.531	0.0158282
628.609	0.0157565
628.687	0.0156434
628.765	0.0158038
628.843	0.0156655
628.921	0.0157339
628.999	0.0156636
629.078	0.0156242
629.156	0.0157094
629.234	0.0156836
629.312	0.0157409
629.390	0.0158121
629.468	0.0157951
629.546	0.0159319
629.624	0.0158875
629.703	0.0159334
629.781	0.0157944
629.859	0.0158349
629.937	0.0159032
630.015	0.0159721
630.093	0.0158750
630.171	0.0159000
630.249	0.0158612
630.328	0.0158186
630.406	0.0159019
630.484	0.0159528
630.562	0.0159200
630.640	0.0159801
630.718	0.0158491
630.796	0.0158295
630.874	0.0158070
630.953	0.0158569
631.031	0.0158887
631.109	0.0157800
631.187	0.0158557
631.265	0.0158133
631.343	0.0157988
631.421	0.0158562
631.499	0.0157375
631.578	0.0156780
631.656	0.0159330
631.734	0.0158394
631.812	0.0159056
631.890	0.0157212
631.968	0.0157400
632.046	0.0158985
632.124	0.0158866
632.203	0.0157230
632.281	0.0159392
632.359	0.0158308
632.437	0.0158610
632.515	0.0159750
632.593	0.0158412
632.671	0.0159029
632.749	0.0158457
632.828	0.0158035
632.906	0.0160186
632.984	0.0159908
633.062	0.0160866
633.140	0.0158673
633.218	0.0158640
633.296	0.0159886
633.374	0.0158308
633.453	0.0160181
633.531	0.0161237
633.609	0.0160167
633.687	0.0160538
633.765	0.0159601
633.843	0.0159221
633.921	0.0161945
633.999	0.0159824
634.078	0.0159965
634.156	0.0160134
634.234	0.0160633
634.312	0.0159815
634.390	0.0160789
634.468	0.0159195
634.546	0.0159741
634.624	0.0160754
634.703	0.0159659
634.781	0.0159992
634.859	0.0159447
634.937	0.0159568
635.015	0.0160311
635.093	0.0159743
635.171	0.0158590
635.249	0.0159782
635.328	0.0160143
635.406	0.0159600
635.484	0.0159602
635.562	0.0160069
635.640	0.0160138
635.718	0.0160961
635.796	0.0160195
635.874	0.0160680
635.953	0.0159786
636.031	0.0160742
636.109	0.0160468
636.187	0.0160021
636.265	0.0160726
636.343	0.0159605
636.421	0.0160498
636.499	0.0160283
636.578	0.0160439
636.656	0.0159910
636.734	0.0159964
636.812	0.0159385
636.890	0.0159261
636.968	0.0159428
637.046	0.0160442
637.124	0.0160974
637.203	0.0160020
637.281	0.0159734
637.359	0.0159930
637.437	0.0158832
637.515	0.0160713
637.593	0.0160892
637.671	0.0160836
637.749	0.0159654
637.828	0.0160513
637.906	0.0159480
637.984	0.0160762
638.062	0.0159811
638.140	0.0158123
638.218	0.0159976
638.296	0.0159790
638.374	0.0160327
638.453	0.0160752
638.531	0.0159862
638.609	0.0159260
638.687	0.0160043
638.765	0.0159466
638.843	0.0159512
638.921	0.0161189
638.999	0.0160429
639.078	0.0160675
639.156	0.0159834
639.234	0.0158919
639.312	0.0160100
639.390	0.0160242
639.468	0.0159715
639.546	0.0160574
639.624	0.0159134
639.703	0.0159798
639.781	0.0160014
639.859	0.0160730
639.937	0.0160536
640.015	0.0161316
640.093	0.0160061
640.171	0.0160333
640.249	0.0160053
640.328	0.0160889
640.406	0.0161767
640.484	0.0161134
640.562	0.0160861
640.640	0.0160413
640.718	0.0160645
640.796	0.0160085
640.874	0.0161142
640.953	0.0161022
641.031	0.0160535
641.109	0.0160973
641.187	0.0160398
641.265	0.0159911
641.343	0.0161621
641.421	0.0161626
641.499	0.0160697
641.578	0.0162153
641.656	0.0160514
641.734	0.0161068
641.812	0.0160464
641.890	0.0161877
641.968	0.0161043
642.046	0.0160018
642.124	0.0161380
642.203	0.0161112
642.281	0.0161073
642.359	0.0161032
642.437	0.0160416
642.515	0.0160808
642.593	0.0160325
642.671	0.0159779
642.749	0.0158327
642.828	0.0160534
642.906	0.0160619
642.984	0.0159936
643.062	0.0159934
643.140	0.0160414
643.218	0.0160309
643.296	0.0161201
643.374	0.0159669
643.453	0.0159737
643.531	0.0160384
643.609	0.0160889
643.687	0.0160107
643.765	0.0159203
643.843	0.0160965
643.921	0.0159243
643.999	0.0160220
644.078	0.0160449
644.156	0.0160937
644.234	0.0160406
644.312	0.0160413
644.390	0.0159899
644.468	0.0161445
644.546	0.0160861
644.624	0.0160613
644.703	0.0160363
644.781	0.0160548
644.859	0.0159837
644.937	0.0160395
645.015	0.0160019
645.093	0.0161128
645.171	0.0160123
645.249	0.0160145
645.328	0.0159859
645.406	0.0159789
645.484	0.0160081
645.562	0.0160141
645.640	0.0159940
645.718	0.0160900
645.796	0.0159895
645.874	0.0160387
645.953	0.0161069
646.031	0.0159669
646.109	0.0160078
646.187	0.0159753
646.265	0.0159838
646.343	0.0159409
646.421	0.0159693
646.499	0.0159734
646.578	0.0160176
646.656	0.0159480
646.734	0.0160667
646.812	0.0158624
646.890	0.0159593
646.968	0.0160297
647.046	0.0159955
647.124	0.0160544
647.203	0.0159380
647.281	0.0159849
647.359	0.0160159
647.437	0.0160099
647.515	0.0160764
647.593	0.0159949
647.671	0.0160741
647.749	0.0159911
647.828	0.0160203
647.906	0.0160077
647.984	0.0160392
648.062	0.0159230
648.140	0.0160403
648.218	0.0160091
648.296	0.0159801
648.374	0.0160412
648.453	0.0159149
648.531	0.0160880
648.609	0.0160263
648.687	0.0158144
648.765	0.0158716
648.843	0.0159988
648.921	0.0160622
648.999	0.0160385
649.078	0.0159245
649.156	0.0159140
649.234	0.0158975
649.312	0.0160257
649.390	0.0160737
649.468	0.0158539
649.546	0.0159880
649.624	0.0159644
649.703	0.0158150
649.781	0.0159994
649.859	0.0158128
649.937	0.0159092
650.015	0.0158996
650.093	0.0158180
650.171	0.0158393
650.249	0.0158963
650.328	0.0159113
650.406	0.0157790
650.484	0.0159062
650.562	0.0158624
650.640	0.0157089
650.718	0.0158632
650.796	0.0158203
650.874	0.0158395
650.953	0.0158769
651.031	0.0158376
651.109	0.0157951
651.187	0.0157867
651.265	0.0157089
651.343	0.0159601
651.421	0.0157908
651.499	0.0157706
651.578	0.0158167
651.656	0.0158369
651.734	0.0156924
651.812	0.0156997
651.890	0.0157252
651.968	0.0157160
652.046	0.0157295
652.124	0.0157244
652.203	0.0157914
652.281	0.0157199
652.359	0.0156780
652.437	0.0158101
652.515	0.0157590
652.593	0.0155756
652.671	0.0157352
652.749	0.0157721
652.828	0.0157660
652.906	0.0156135
652.984	0.0157332
653.062	0.0156593
653.140	0.0156303
653.218	0.0157721
653.296	0.0154955
653.374	0.0157201
653.453	0.0156801
653.531	0.0158028
653.609	0.0157296
653.687	0.0156627
653.765	0.0155704
653.843	0.0155862
653.921	0.0157264
653.999	0.0155725
654.078	0.0155527
654.156	0.0156465
654.234	0.0156406
654.312	0.0157426
654.390	0.0156982
654.468	0.0157245
654.546	0.0156843
654.624	0.0156495
654.703	0.0156991
654.781	0.0157059
654.859	0.0156445
654.937	0.0155780
655.015	0.0157261
655.093	0.0157672
655.171	0.0157542
655.249	0.0157472
655.328	0.0159069
655.406	0.0157207
655.484	0.0157444
655.562	0.0158515
655.640	0.0158197
655.718	0.0157578
655.796	0.0157530
655.874	0.0158080
655.953	0.0156999
656.031	0.0159165
656.109	0.0158499
656.187	0.0158818
656.265	0.0159356
656.343	0.0157756
656.421	0.0158233
656.499	0.0156762
656.578	0.0156856
656.656	0.0157876
656.734	0.0157993
656.812	0.0157037
656.890	0.0160014
656.968	0.0160110
657.046	0.0158143
657.124	0.0158944
657.203	0.0159236
657.281	0.0157275
657.359	0.0158568
657.437	0.0159858
657.515	0.0158502
657.593	0.0159236
657.671	0.0159286
657.749	0.0158275
657.828	0.0159107
657.906	0.0159278
657.984	0.0159121
658.062	0.0159488
658.140	0.0158839
658.218	0.0159635
658.296	0.0158664
658.374	0.0158838
658.453	0.0158370
658.531	0.0158627
658.609	0.0160436
658.687	0.0159417
658.765	0.0158601
658.843	0.0159402
658.921	0.0158205
658.999	0.0158615
659.078	0.0160162
659.156	0.0160073
659.234	0.0159956
659.312	0.0159699
659.390	0.0160448
659.468	0.0159585
659.546	0.0159119
659.624	0.0159965
659.703	0.0159726
659.781	0.0159661
659.859	0.0158344
659.937	0.0158593
660.015	0.0160181
660.093	0.0160056
660.171	0.0159090
660.249	0.0160960
660.328	0.0158833
660.406	0.0159309
660.484	0.0159605
660.562	0.0160271
660.640	0.0160342
660.718	0.0160014
660.796	0.0159785
660.874	0.0159872
660.953	0.0159154
661.031	0.0159574
661.109	0.0160080
661.187	0.0160119
661.265	0.0159976
661.343	0.0160515
661.421	0.0159771
661.499	0.0160024
661.578	0.0160361
661.656	0.0159943
661.734	0.0160707
661.812	0.0160415
661.890	0.0158682
661.968	0.0160316
662.046	0.0160194
662.124	0.0159988
662.203	0.0161060
662.281	0.0160245
662.359	0.0159674
662.437	0.0159478
662.515	0.0159883
662.593	0.0158436
662.671	0.0157952
662.749	0.0160025
662.828	0.0158971
662.906	0.0159039
662.984	0.0159964
663.062	0.0160798
663.140	0.0160136
663.218	0.0159778
663.296	0.0158517
663.374	0.0159208
663.453	0.0159876
663.531	0.0160123
663.609	0.0159061
663.687	0.0159956
663.765	0.0160657
663.843	0.0159923
663.921	0.0159219
663.999	0.0160364
664.078	0.0159615
664.156	0.0160735
664.234	0.0159837
664.312	0.0160297
664.390	0.0159506
664.468	0.0160445
664.546	0.0160334
664.624	0.0160100
664.703	0.0159562
664.781	0.0159965
664.859	0.0160794
664.937	0.0158605
665.015	0.0159613
665.093	0.0159146
665.171	0.0160355
665.249	0.0159158
665.328	0.0158768
665.406	0.0159633
665.484	0.0160941
665.562	0.0158040
665.640	0.0158360
665.718	0.0158924
665.796	0.0161626
665.874	0.0159256
665.953	0.0159251
666.031	0.0160473
666.109	0.0160556
666.187	0.0159704
666.265	0.0158727
666.343	0.0158553
666.421	0.0158400
666.499	0.0157898
666.578	0.0158186
666.656	0.0159339
666.734	0.0158160
666.812	0.0158305
666.890	0.0158849
666.968	0.0159873
667.046	0.0159687
667.124	0.0158184
667.203	0.0158734
667.281	0.0159603
667.359	0.0158317
667.437	0.0158820
667.515	0.0159605
667.593	0.0159863
667.671	0.0159410
667.749	0.0158588
667.828	0.0160165
667.906	0.0159813
667.984	0.0158327
668.062	0.0159554
668.140	0.0159653
668.218	0.0160592
668.296	0.0160040
668.374	0.0159015
668.453	0.0158191
668.531	0.0159473
668.609	0.0158917
668.687	0.0158351
668.765	0.0159412
668.843	0.0160695
668.921	0.0159441
668.999	0.0159044
669.078	0.0158445
669.156	0.0159395
669.234	0.0158033
669.312	0.0159573
669.390	0.0158438
669.468	0.0158723
669.546	0.0159898
669.624	0.0159528
669.703	0.0159443
669.781	0.0158527
669.859	0.0159773
669.937	0.0158658
670.015	0.0160065
670.093	0.0159992
670.171	0.0159621
670.249	0.0159698
670.328	0.0159283
670.406	0.0158610
670.484	0.0159074
670.562	0.0159491
670.640	0.0159188
670.718	0.0158735
670.796	0.0158784
670.874	0.0158382
670.953	0.0158880
671.031	0.0159431
671.109	0.0157924
671.187	0.0160666
671.265	0.0157942
671.343	0.0159698
671.421	0.0157939
671.499	0.0158323
671.578	0.0158553
671.656	0.0160456
671.734	0.0159046
671.812	0.0159167
671.890	0.0160613
671.968	0.0158601
672.046	0.0160763
672.124	0.0159286
672.203	0.0158835
672.281	0.0159278
672.359	0.0159294
672.437	0.0158622
672.515	0.0158230
672.593	0.0160487
672.671	0.0157746
672.749	0.0159148
672.828	0.0159318
672.906	0.0158598
672.984	0.0159806
673.062	0.0158151
673.140	0.0159026
673.218	0.0158566
673.296	0.0157651
673.374	0.0158655
673.453	0.0159798
673.531	0.0158279
673.609	0.0157650
673.687	0.0158525
673.765	0.0159030
673.843	0.0158015
673.921	0.0157720
673.999	0.0158604
674.078	0.0158157
674.156	0.0158965
674.234	0.0157992
674.312	0.0156788
674.390	0.0157703
674.468	0.0157484
674.546	0.0158514
674.624	0.0159648
674.703	0.0158354
674.781	0.0158047
674.859	0.0158620
674.937	0.0157983
675.015	0.0158397
675.093	0.0156873
675.171	0.0159222
675.249	0.0158430
675.328	0.0157584
675.406	0.0158668
675.484	0.0158654
675.562	0.0158669
675.640	0.0158046
675.718	0.0158053
675.796	0.0158435
675.874	0.0158818
675.953	0.0158070
676.031	0.0158154
676.109	0.0157645
676.187	0.0157967
676.265	0.0157914
676.343	0.0158083
676.421	0.0157918
676.499	0.0159347
676.578	0.0159676
676.656	0.0158217
676.734	0.0158092
676.812	0.0160126
676.890	0.0159202
676.968	0.0156900
677.046	0.0157730
677.124	0.0158963
677.203	0.0158519
677.281	0.0157880
677.359	0.0158757
677.437	0.0160350
677.515	0.0158874
677.593	0.0158996
677.671	0.0158931
677.749	0.0158084
677.828	0.0158820
677.906	0.0158952
677.984	0.0158784
678.062	0.0159101
678.140	0.0158836
678.218	0.0159249
678.296	0.0157146
678.374	0.0158392
678.453	0.0158879
678.531	0.0159289
678.609	0.0158753
678.687	0.0159141
678.765	0.0160037
678.843	0.0159430
678.921	0.0158558
678.999	0.0158378
679.078	0.0159297
679.156	0.0159000
679.234	0.0159091
679.312	0.0158963
679.390	0.0159343
679.468	0.0158986
679.546	0.0158018
679.624	0.0158298
679.703	0.0159016
679.781	0.0159408
679.859	0.0159093
679.937	0.0158015
680.015	0.0158031
680.093	0.0158925
680.171	0.0159867
680.249	0.0159480
680.328	0.0159074
680.406	0.0158946
680.484	0.0158949
680.562	0.0157369
680.640	0.0159097
680.718	0.0159410
680.796	0.0158939
680.874	0.0159406
680.953	0.0158300
681.031	0.0158116
681.109	0.0159426
681.187	0.0160196
681.265	0.0158512
681.343	0.0158701
681.421	0.0158603
681.499	0.0159751
681.578	0.0158135
681.656	0.0158997
681.734	0.0158273
681.812	0.0160755
681.890	0.0159703
681.968	0.0159159
682.046	0.0159669
682.124	0.0158417
682.203	0.0160011
682.281	0.0161161
682.359	0.0160301
682.437	0.0158871
682.515	0.0159943
682.593	0.0159064
682.671	0.0158707
682.749	0.0159999
682.828	0.0158147
682.906	0.0159074
682.984	0.0159800
683.062	0.0160371
683.140	0.0159454
683.218	0.0158518
683.296	0.0158397
683.374	0.0160409
683.453	0.0160346
683.531	0.0160989
683.609	0.0160345
683.687	0.0159753
683.765	0.0159663
683.843	0.0159633
683.921	0.0158929
683.999	0.0159153
684.078	0.0159487
684.156	0.0159180
684.234	0.0159230
684.312	0.0157916
684.390	0.0160296
684.468	0.0159596
684.546	0.0159476
684.624	0.0160013
684.703	0.0159016
684.781	0.0158913
684.859	0.0159945
684.937	0.0160140
685.015	0.0159689
685.093	0.0159035
685.171	0.0157564
685.249	0.0158852
685.328	0.0159677
685.406	0.0159557
685.484	0.0158216
685.562	0.0158572
685.640	0.0159790
685.718	0.0158818
685.796	0.0158960
685.874	0.0159682
685.953	0.0160956
686.031	0.0158931
686.109	0.0158495
686.187	0.0159245
686.265	0.0160555
686.343	0.0158560
686.421	0.0159576
686.499	0.0159649
686.578	0.0158203
686.656	0.0160268
686.734	0.0158675
686.812	0.0157804
686.890	0.0159241
686.968	0.0159686
687.046	0.0159352
687.124	0.0158752
687.203	0.0159825
687.281	0.0161360
687.359	0.0159894
687.437	0.0159275
687.515	0.0159762
687.593	0.0159006
687.671	0.0160079
687.749	0.0160001
687.828	0.0159887
687.906	0.0160185
687.984	0.0159308
688.062	0.0158333
688.140	0.0158872
688.218	0.0160523
688.296	0.0160050
688.374	0.0160513
688.453	0.0160558
688.531	0.0159341
688.609	0.0161006
688.687	0.0161501
688.765	0.0160625
688.843	0.0161292
688.921	0.0160179
688.999	0.0159229
689.078	0.0160056
689.156	0.0159454
689.234	0.0160065
689.312	0.0159196
689.390	0.0159203
689.468	0.0160654
689.546	0.0159149
689.624	0.0159714
689.703	0.0158435
689.781	0.0159254
689.859	0.0160571
689.937	0.0159072
690.015	0.0159146
690.093	0.0161015
690.171	0.0159258
690.249	0.0158956
690.328	0.0160490
690.406	0.0160699
690.484	0.0160088
690.562	0.0160721
690.640	0.0160431
690.718	0.0161161
690.796	0.0160489
690.874	0.0158888
690.953	0.0160362
691.031	0.0160631
691.109	0.0159473
691.187	0.0160239
691.265	0.0160221
691.343	0.0159970
691.421	0.0161136
691.499	0.0160117
691.578	0.0159921
691.656	0.0159605
691.734	0.0160115
691.812	0.0160653
691.890	0.0159435
691.968	0.0160030
692.046	0.0160066
692.124	0.0160149
692.203	0.0159439
692.281	0.0158723
692.359	0.0158303
692.437	0.0160060
692.515	0.0159235
692.593	0.0158972
692.671	0.0158814
692.749	0.0159155
692.828	0.0160313
692.906	0.0161481
692.984	0.0159393
693.062	0.0159364
693.140	0.0159554
693.218	0.0160194
693.296	0.0159891
693.374	0.0160582
693.453	0.0158878
693.531	0.0160074
693.609	0.0159717
693.687	0.0159766
693.765	0.0159995
693.843	0.0159367
693.921	0.0160546
693.999	0.0158408
694.078	0.0159405
694.156	0.0159245
694.234	0.0159692
694.312	0.0159837
694.390	0.0160523
694.468	0.0159531
694.546	0.0159672
694.624	0.0158559
694.703	0.0160537
694.781	0.0159582
694.859	0.0159319
694.937	0.0159715
695.015	0.0160521
695.093	0.0159245
695.171	0.0158249
695.249	0.0159547
695.328	0.0159081
695.406	0.0158782
695.484	0.0158616
695.562	0.0159349
695.640	0.0160834
695.718	0.0159984
695.796	0.0159854
695.874	0.0159497
695.953	0.0158422
696.031	0.0160044
696.109	0.0160417
696.187	0.0158141
696.265	0.0159766
696.343	0.0159949
696.421	0.0159933
696.499	0.0159023
696.578	0.0160262
696.656	0.0160905
696.734	0.0159189
696.812	0.0159102
696.890	0.0158746
696.968	0.0160044
697.046	0.0159695
697.124	0.0160496
697.203	0.0160721
697.281	0.0161029
697.359	0.0159669
697.437	0.0158607
697.515	0.0160068
697.593	0.0159628
697.671	0.0159721
697.749	0.0160793
697.828	0.0159451
697.906	0.0160424
697.984	0.0158640
698.062	0.0160441
698.140	0.0160505
698.218	0.0159003
698.296	0.0160452
698.374	0.0159836
698.453	0.0159892
698.531	0.0159079
698.609	0.0158241
698.687	0.0160593
698.765	0.0160606
698.843	0.0158444
698.921	0.0159218
698.999	0.0159296
699.078	0.0159388
699.156	0.0157980
699.234	0.0159657
699.312	0.0159543
699.390	0.0159498
699.468	0.0160322
699.546	0.0159988
699.624	0.0159589
699.703	0.0158710
699.781	0.0158445
699.859	0.0159828
699.937	0.0159946
700.015	0.0159448
700.093	0.0159470
700.171	0.0159724
700.249	0.0159092
700.328	0.0159262
700.406	0.0159314
700.484	0.0158997
700.562	0.0158754
700.640	0.0159715
700.718	0.0159178
700.796	0.0159357
700.874	0.0159531
700.953	0.0158892
701.031	0.0158288
701.109	0.0158644
701.187	0.0158995
701.265	0.0159285
701.343	0.0159178
701.421	0.0159690
701.499	0.0160083
701.578	0.0158889
701.656	0.0158694
701.734	0.0158298
701.812	0.0158620
701.890	0.0159931
701.968	0.0158071
702.046	0.0158150
702.124	0.0159462
702.203	0.0158836
702.281	0.0159816
702.359	0.0159225
702.437	0.0157122
702.515	0.0158290
702.593	0.0158648
702.671	0.0159277
702.749	0.0157758
702.828	0.0159251
702.906	0.0160318
702.984	0.0158132
703.062	0.0159140
703.140	0.0160085
703.218	0.0159647
703.296	0.0159222
703.374	0.0159893
703.453	0.0159129
703.531	0.0160409
703.609	0.0160181
703.687	0.0159309
703.765	0.0160155
703.843	0.0158738
703.921	0.0158939
703.999	0.0159128
704.078	0.0159830
704.156	0.0161559
704.234	0.0159999
704.312	0.0159456
704.390	0.0160201
704.468	0.0160226
704.546	0.0158995
704.624	0.0160366
704.703	0.0160104
704.781	0.0160649
704.859	0.0158319
704.937	0.0160333
705.015	0.0160807
705.093	0.0160680
705.171	0.0158096
705.249	0.0159695
705.328	0.0160773
705.406	0.0160267
705.484	0.0160802
705.562	0.0160050
705.640	0.0160103
705.718	0.0158736
705.796	0.0160057
705.874	0.0160051
705.953	0.0159090
706.031	0.0159963
706.109	0.0160547
706.187	0.0159854
706.265	0.0160104
706.343	0.0159602
706.421	0.0159869
706.499	0.0160489
706.578	0.0160252
706.656	0.0158975
706.734	0.0160998
706.812	0.0160474
706.890	0.0160595
706.968	0.0159588
707.046	0.0159587
707.124	0.0160527
707.203	0.0159411
707.281	0.0160206
707.359	0.0159481
707.437	0.0161045
707.515	0.0161588
707.593	0.0159172
707.671	0.0159868
707.749	0.0159671
707.828	0.0159853
707.906	0.0159130
707.984	0.0159332
708.062	0.0159687
708.140	0.0160721
708.218	0.0158493
708.296	0.0159082
708.374	0.0159032
708.453	0.0159829
708.531	0.0160281
708.609	0.0159828
708.687	0.0160578
708.765	0.0159451
708.843	0.0160116
708.921	0.0161485
708.999	0.0161519
709.078	0.0157890
709.156	0.0159815
709.234	0.0161086
709.312	0.0161003
709.390	0.0159843
709.468	0.0158863
709.546	0.0159840
709.624	0.0159081
709.703	0.0160690
709.781	0.0159394
709.859	0.0159453
709.937	0.0160581
710.015	0.0159501
710.093	0.0159273
710.171	0.0160686
710.249	0.0159766
710.328	0.0159514
710.406	0.0160426
710.484	0.0159845
710.562	0.0159094
710.640	0.0160187
710.718	0.0159000
710.796	0.0159816
710.874	0.0160331
710.953	0.0159285
711.031	0.0159902
711.109	0.0159468
711.187	0.0160896
711.265	0.0160577
711.343	0.0161239
711.421	0.0160200
711.499	0.0160102
711.578	0.0159967
711.656	0.0159519
711.734	0.0158971
711.812	0.0158943
711.890	0.0160265
711.968	0.0160365
712.046	0.0160130
712.124	0.0160423
712.203	0.0160367
712.281	0.0160258
712.359	0.0159698
712.437	0.0160764
712.515	0.0159813
712.593	0.0159798
712.671	0.0160078
712.749	0.0160734
712.828	0.0161030
712.906	0.0160981
712.984	0.0160621
713.062	0.0160942
713.140	0.0160157
713.218	0.0159411
713.296	0.0159473
713.374	0.0159378
713.453	0.0159421
713.531	0.0160391
713.609	0.0159891
713.687	0.0159564
713.765	0.0158958
713.843	0.0159756
713.921	0.0157732
713.999	0.0160386
714.078	0.0159779
714.156	0.0160190
714.234	0.0160481
714.312	0.0159139
714.390	0.0161154
714.468	0.0160952
714.546	0.0160481
714.624	0.0160891
714.703	0.0159126
714.781	0.0159872
714.859	0.0159216
714.937	0.0159023
715.015	0.0161241
715.093	0.0160397
715.171	0.0159318
715.249	0.0158495
715.328	0.0161497
715.406	0.0161947
715.484	0.0160091
715.562	0.0160155
715.640	0.0160523
715.718	0.0158595
715.796	0.0160749
715.874	0.0160027
715.953	0.0159390
716.031	0.0159711
716.109	0.0160526
716.187	0.0160506
716.265	0.0160497
716.343	0.0159956
716.421	0.0159259
716.499	0.0159647
716.578	0.0160973
716.656	0.0161095
716.734	0.0159891
716.812	0.0159447
716.890	0.0160820
716.968	0.0160857
717.046	0.0160751
717.124	0.0162031
717.203	0.0159416
717.281	0.0160490
717.359	0.0161242
717.437	0.0161185
717.515	0.0160693
717.593	0.0161488
717.671	0.0161583
717.749	0.0162009
717.828	0.0160370
717.906	0.0161088
717.984	0.0162039
718.062	0.0159904
718.140	0.0160322
718.218	0.0162273
718.296	0.0161865
718.374	0.0160105
718.453	0.0159758
718.531	0.0161604
718.609	0.0161825
718.687	0.0160812
718.765	0.0159691
718.843	0.0160700
718.921	0.0161864
718.999	0.0159637
719.078	0.0160612
719.156	0.0161585
719.234	0.0161591
719.312	0.0159854
719.390	0.0160001
719.468	0.0161635
719.546	0.0160610
719.624	0.0161002
719.703	0.0159801
719.781	0.0159100
719.859	0.0159549
719.937	0.0161097
720.015	0.0160349
720.093	0.0160014
720.171	0.0160833
720.249	0.0159653
720.328	0.0160486
720.406	0.0159343
720.484	0.0159910
720.562	0.0159322
720.640	0.0159322
720.718	0.0159950
720.796	0.0158471
720.874	0.0159899
720.953	0.0160250
721.031	0.0158925
721.109	0.0158670
721.187	0.0159213
721.265	0.0159546
721.343	0.0159714
721.421	0.0160207
721.499	0.0160198
721.578	0.0159732
721.656	0.0158321
721.734	0.0160445
721.812	0.0159563
721.890	0.0159579
721.968	0.0159862
722.046	0.0160168
722.124	0.0158745
722.203	0.0158667
722.281	0.0158921
722.359	0.0160447
722.437	0.0160242
722.515	0.0159457
722.593	0.0160539
722.671	0.0159178
722.749	0.0159529
722.828	0.0160213
722.906	0.0159997
722.984	0.0160573
723.062	0.0159698
723.140	0.0160477
723.218	0.0159059
723.296	0.0158710
723.374	0.0159334
723.453	0.0159259
723.531	0.0159169
723.609	0.0158839
723.687	0.0157957
723.765	0.0158798
723.843	0.0158991
723.921	0.0159137
723.999	0.0158421
724.078	0.0157585
724.156	0.0156882
724.234	0.0157247
724.312	0.0157679
724.390	0.0159150
724.468	0.0157819
724.546	0.0159132
724.624	0.0159597
724.703	0.0158521
724.781	0.0160255
724.859	0.0159776
724.937	0.0158742
725.015	0.0160386
725.093	0.0160748
725.171	0.0159217
725.249	0.0158417
725.328	0.0159249
725.406	0.0160247
725.484	0.0158289
725.562	0.0159598
725.640	0.0160079
725.718	0.0158636
725.796	0.0158919
725.874	0.0159103
725.953	0.0159546
726.031	0.0157737
726.109	0.0159015
726.187	0.0159433
726.265	0.0158819
726.343	0.0159399
726.421	0.0158158
726.499	0.0159330
726.578	0.0159206
726.656	0.0157542
726.734	0.0158488
726.812	0.0158818
726.890	0.0158926
726.968	0.0157023
727.046	0.0157925
727.124	0.0159006
727.203	0.0158408
727.281	0.0158542
727.359	0.0158077
727.437	0.0157790
727.515	0.0156937
727.593	0.0158163
727.671	0.0159526
727.749	0.0156805
727.828	0.0158501
727.906	0.0158441
727.984	0.0158462
728.062	0.0157930
728.140	0.0156837
728.218	0.0158613
728.296	0.0157546
728.374	0.0157320
728.453	0.0156997
728.531	0.0158040
728.609	0.0158536
728.687	0.0157595
728.765	0.0157421
728.843	0.0158890
728.921	0.0156973
728.999	0.0158939
729.078	0.0158661
729.156	0.0157672
729.234	0.0157698
729.312	0.0159592
729.390	0.0158527
729.468	0.0157063
729.546	0.0158836
729.624	0.0159280
729.703	0.0158881
729.781	0.0157406
729.859	0.0159200
729.937	0.0157664
730.015	0.0158947
730.093	0.0159016
730.171	0.0159420
730.249	0.0158302
730.328	0.0160209
730.406	0.0159164
730.484	0.0158074
730.562	0.0158404
730.640	0.0159034
730.718	0.0159052
730.796	0.0158052
730.874	0.0158881
730.953	0.0158032
731.031	0.0157553
731.109	0.0158086
731.187	0.0159690
731.265	0.0159180
731.343	0.0157918
731.421	0.0157372
731.499	0.0157758
731.578	0.0158127
731.656	0.0156005
731.734	0.0156840
731.812	0.0158625
731.890	0.0158337
731.968	0.0158851
732.046	0.0157200
732.124	0.0157262
732.203	0.0158892
732.281	0.0159852
732.359	0.0158217
732.437	0.0159184
732.515	0.0159898
732.593	0.0158302
732.671	0.0159805
732.749	0.0158725
732.828	0.0159195
732.906	0.0160503
732.984	0.0160206
733.062	0.0159859
733.140	0.0159153
733.218	0.0159612
733.296	0.0159796
733.374	0.0159785
733.453	0.0159133
733.531	0.0160191
733.609	0.0160954
733.687	0.0160368
733.765	0.0160209
733.843	0.0159805
733.921	0.0159712
733.999	0.0160186
734.078	0.0162054
734.156	0.0160180
734.234	0.0159957
734.312	0.0160484
734.390	0.0160161
734.468	0.0161108
734.546	0.0159966
734.624	0.0160875
734.703	0.0159836
734.781	0.0160839
734.859	0.0159467
734.937	0.0158520
735.015	0.0160283
735.093	0.0159964
735.171	0.0161000
735.249	0.0161239
735.328	0.0160117
735.406	0.0161394
735.484	0.0161821
735.562	0.0159560
735.640	0.0162044
735.718	0.0161558
735.796	0.0159156
735.874	0.0161045
735.953	0.0161315
736.031	0.0159782
736.109	0.0161295
736.187	0.0159747
736.265	0.0159959
736.343	0.0160957
736.421	0.0160132
736.499	0.0159655
736.578	0.0160194
736.656	0.0159515
736.734	0.0160043
736.812	0.0160074
736.890	0.0160998
736.968	0.0161000
737.046	0.0160787
737.124	0.0162376
737.203	0.0159995
737.281	0.0160468
737.359	0.0160912
737.437	0.0160529
737.515	0.0160463
737.593	0.0161554
737.671	0.0160601
737.749	0.0159675
737.828	0.0160803
737.906	0.0159924
737.984	0.0160949
738.062	0.0160157
738.140	0.0161010
738.218	0.0160609
738.296	0.0160285
738.374	0.0160410
738.453	0.0160825
738.531	0.0159566
738.609	0.0160104
738.687	0.0160608
738.765	0.0161292
738.843	0.0158316
738.921	0.0160748
738.999	0.0160577
739.078	0.0160499
739.156	0.0159657
739.234	0.0159296
739.312	0.0159122
739.390	0.0159972
739.468	0.0158031
739.546	0.0159209
739.624	0.0159897
739.703	0.0160334
739.781	0.0160247
739.859	0.0159500
739.937	0.0159860
740.015	0.0160436
740.093	0.0160222
740.171	0.0159621
740.249	0.0159740
740.328	0.0159421
740.406	0.0160593
740.484	0.0159229
740.562	0.0159576
740.640	0.0160413
740.718	0.0160651
740.796	0.0159724
740.874	0.0159779
740.953	0.0160705
741.031	0.0158913
741.109	0.0159727
741.187	0.0161168
741.265	0.0159950
741.343	0.0159789
741.421	0.0159773
741.499	0.0159356
741.578	0.0159469
741.656	0.0161761
741.734	0.0160761
741.812	0.0159429
741.890	0.0160799
741.968	0.0160139
742.046	0.0160565
742.124	0.0160146
742.203	0.0160435
742.281	0.0159705
742.359	0.0159829
742.437	0.0159261
742.515	0.0160197
742.593	0.0160999
742.671	0.0159982
742.749	0.0160852
742.828	0.0161039
742.906	0.0160325
742.984	0.0160281
743.062	0.0160977
743.140	0.0160213
743.218	0.0159745
743.296	0.0160343
743.374	0.0159065
743.453	0.0158813
743.531	0.0160064
743.609	0.0159933
743.687	0.0159940
743.765	0.0160148
743.843	0.0159982
743.921	0.0158425
743.999	0.0158699
744.078	0.0158487
744.156	0.0158691
744.234	0.0158397
744.312	0.0158949
744.390	0.0160691
744.468	0.0160285
744.546	0.0158663
744.624	0.0158532
744.703	0.0160175
744.781	0.0157076
744.859	0.0158822
744.937	0.0160096
745.015	0.0158697
745.093	0.0159047
745.171	0.0159001
745.249	0.0159326
745.328	0.0158331
745.406	0.0158211
745.484	0.0160256
745.562	0.0159454
745.640	0.0158752
745.718	0.0157901
745.796	0.0159671
745.874	0.0159000
745.953	0.0159928
746.031	0.0159464
746.109	0.0158551
746.187	0.0159488
746.265	0.0160085
746.343	0.0160081
746.421	0.0159297
746.499	0.0158019
746.578	0.0158784
746.656	0.0158151
746.734	0.0159092
746.812	0.0159860
746.890	0.0158493
746.968	0.0157976
747.046	0.0158231
747.124	0.0158543
747.203	0.0160194
747.281	0.0159253
747.359	0.0157688
747.437	0.0159315
747.515	0.0157549
747.593	0.0157372
747.671	0.0159406
747.749	0.0157479
747.828	0.0157082
747.906	0.0158151
747.984	0.0160403
748.062	0.0159438
748.140	0.0157722
748.218	0.0157481
748.296	0.0158308
748.374	0.0158418
748.453	0.0157054
748.531	0.0158109
748.609	0.0159429
748.687	0.0159115
748.765	0.0157817
748.843	0.0158820
748.921	0.0159486
748.999	0.0158263
749.078	0.0158263
749.156	0.0157344
749.234	0.0157967
749.312	0.0159992
749.390	0.0158347
749.468	0.0157083
749.546	0.0157680
749.624	0.0157334
749.703	0.0158543
749.781	0.0157855
749.859	0.0156509
749.937	0.0156123
750.015	0.0156715
750.093	0.0157113
750.171	0.0156772
750.249	0.0157307
750.328	0.0157389
750.406	0.0157330
750.484	0.0155508
750.562	0.0157294
750.640	0.0158610
750.718	0.0157210
750.796	0.0156624
750.874	0.0158102
750.953	0.0158044
751.031	0.0157635
751.109	0.0158907
751.187	0.0158684
751.265	0.0157308
751.343	0.0158339
751.421	0.0159868
751.499	0.0159973
751.578	0.0159022
751.656	0.0160474
751.734	0.0158607
751.812	0.0159198
751.890	0.0157745
751.968	0.0158574
752.046	0.0157481
752.124	0.0157918
752.203	0.0157677
752.281	0.0157318
752.359	0.0156978
752.437	0.0158449
752.515	0.0158064
752.593	0.0157708
752.671	0.0157951
752.749	0.0158055
752.828	0.0157370
752.906	0.0158126
752.984	0.0159202
753.062	0.0158189
753.140	0.0158832
753.218	0.0158176
753.296	0.0159245
753.374	0.0158351
753.453	0.0158974
753.531	0.0160454
753.609	0.0158972
753.687	0.0158358
753.765	0.0158913
753.843	0.0159449
753.921	0.0157426
753.999	0.0157468
754.078	0.0158884
754.156	0.0158224
754.234	0.0158920
754.312	0.0159980
754.390	0.0157043
754.468	0.0158043
754.546	0.0159316
754.624	0.0159054
754.703	0.0158899
754.781	0.0158149
754.859	0.0159460
754.937	0.0159428
755.015	0.0157815
755.093	0.0158620
755.171	0.0159307
755.249	0.0158250
755.328	0.0158555
755.406	0.0159548
755.484	0.0159152
755.562	0.0158826
755.640	0.0158122
755.718	0.0158334
755.796	0.0158971
755.874	0.0159114
755.953	0.0158719
756.031	0.0158530
756.109	0.0160033
756.187	0.0160763
756.265	0.0161047
756.343	0.0160942
756.421	0.0159768
756.499	0.0159563
756.578	0.0159418
756.656	0.0158579
756.734	0.0158892
756.812	0.0159719
756.890	0.0158053
756.968	0.0158955
757.046	0.0159434
757.124	0.0158886
757.203	0.0158978
757.281	0.0157502
757.359	0.0157097
757.437	0.0157133
757.515	0.0158731
757.593	0.0157886
757.671	0.0156973
757.749	0.0157201
757.828	0.0158617
757.906	0.0158247
757.984	0.0158067
758.062	0.0159062
758.140	0.0158811
758.218	0.0159534
758.296	0.0159232
758.374	0.0159438
758.453	0.0158880
758.531	0.0159795
758.609	0.0159820
758.687	0.0160763
758.765	0.0160028
758.843	0.0159933
758.921	0.0159811
758.999	0.0160936
759.078	0.0158786
759.156	0.0159483
759.234	0.0160151
759.312	0.0159334
759.390	0.0159565
759.468	0.0159283
759.546	0.0160292
759.624	0.0160165
759.703	0.0159323
759.781	0.0159431
759.859	0.0159373
759.937	0.0160049
760.015	0.0160699
760.093	0.0158970
760.171	0.0159231
760.249	0.0159554
760.328	0.0157579
760.406	0.0158641
760.484	0.0159243
760.562	0.0159015
760.640	0.0159426
760.718	0.0160487
760.796	0.0159884
760.874	0.0159223
760.953	0.0158475
761.031	0.0160017
761.109	0.0160263
761.187	0.0158324
761.265	0.0159116
761.343	0.0160286
761.421	0.0158967
761.499	0.0159721
761.578	0.0158902
761.656	0.0159164
761.734	0.0159774
761.812	0.0159741
761.890	0.0160274
761.968	0.0159879
762.046	0.0158959
762.124	0.0159706
762.203	0.0159948
762.281	0.0159921
762.359	0.0160316
762.437	0.0160359
762.515	0.0159961
762.593	0.0160941
762.671	0.0160702
762.749	0.0161504
762.828	0.0159335
762.906	0.0159950
762.984	0.0160950
763.062	0.0160369
763.140	0.0159664
763.218	0.0161841
763.296	0.0160641
763.374	0.0160423
763.453	0.0161452
763.531	0.0160796
763.609	0.0161465
763.687	0.0161797
763.765	0.0161724
763.843	0.0160935
763.921	0.0161723
763.999	0.0161856
764.078	0.0161823
764.156	0.0162173
764.234	0.0162545
764.312	0.0162827
764.390	0.0161062
764.468	0.0161333
764.546	0.0160718
764.624	0.0160500
764.703	0.0160307
764.781	0.0159358
764.859	0.0159849
764.937	0.0159705
765.015	0.0158675
765.093	0.0159644
765.171	0.0158644
765.249	0.0158453
765.328	0.0158780
765.406	0.0159167
765.484	0.0159321
765.562	0.0159715
765.640	0.0160082
765.718	0.0159306
765.796	0.0160432
765.874	0.0159641
765.953	0.0160310
766.031	0.0160172
766.109	0.0159419
766.187	0.0160178
766.265	0.0159534
766.343	0.0160342
766.421	0.0159511
766.499	0.0158757
766.578	0.0158327
766.656	0.0157865
766.734	0.0157427
766.812	0.0157810
766.890	0.0156050
766.968	0.0156155
767.046	0.0156063
767.124	0.0157861
767.203	0.0158106
767.281	0.0157861
767.359	0.0159394
767.437	0.0158987
767.515	0.0160445
767.593	0.0160387
767.671	0.0159919
767.749	0.0160920
767.828	0.0161300
767.906	0.0161862
767.984	0.0161535
768.062	0.0162685
768.140	0.0162564
768.218	0.0161278
768.296	0.0162067
768.374	0.0161077
768.453	0.0162139
768.531	0.0162014
768.609	0.0162093
768.687	0.0161812
768.765	0.0160365
768.843	0.0160302
768.921	0.0161001
768.999	0.0160023
769.078	0.0160349
769.156	0.0159763
769.234	0.0159972
769.312	0.0159112
769.390	0.0158822
769.468	0.0159051
769.546	0.0158070
769.624	0.0158912
769.703	0.0156586
769.781	0.0157583
769.859	0.0158220
769.937	0.0157903
770.015	0.0157404
770.093	0.0155358
770.171	0.0156162
770.249	0.0155526
770.328	0.0155936
770.406	0.0155407
770.484	0.0157185
770.562	0.0156815
770.640	0.0156699
770.718	0.0157050
770.796	0.0157487
770.874	0.0157246
770.953	0.0156693
771.031	0.0157552
771.109	0.0156920
771.187	0.0158297
771.265	0.0156738
771.343	0.0157146
771.421	0.0158002
771.499	0.0158219
771.578	0.0157298
771.656	0.0159334
771.734	0.0158524
771.812	0.0158825
771.890	0.0159483
771.968	0.0160659
772.046	0.0160557
772.124	0.0160841
772.203	0.0161229
772.281	0.0160873
772.359	0.0160970
772.437	0.0161079
772.515	0.0161539
772.593	0.0159030
772.671	0.0159714
772.749	0.0160106
772.828	0.0159868
772.906	0.0158128
772.984	0.0159057
773.062	0.0160021
773.140	0.0160847
773.218	0.0160706
773.296	0.0159489
773.374	0.0161377
773.453	0.0162239
773.531	0.0159769
773.609	0.0160188
773.687	0.0162286
773.765	0.0159869
773.843	0.0159717
773.921	0.0160241
773.999	0.0160419
774.078	0.0158732
774.156	0.0158469
774.234	0.0159052
774.312	0.0158786
774.390	0.0158344
774.468	0.0159595
774.546	0.0158369
774.624	0.0158753
774.703	0.0158664
774.781	0.0158984
774.859	0.0160440
774.937	0.0160445
775.015	0.0160107
775.093	0.0159439
775.171	0.0160593
775.249	0.0161294
775.328	0.0160666
775.406	0.0161099
775.484	0.0162091
775.562	0.0161154
775.640	0.0160243
775.718	0.0159315
775.796	0.0161202
775.874	0.0159387
775.953	0.0157951
776.031	0.0159618
776.109	0.0160387
776.187	0.0158147
776.265	0.0157378
776.343	0.0157504
776.421	0.0159038
776.499	0.0157468
776.578	0.0158722
776.656	0.0159672
776.734	0.0158474
776.812	0.0158881
776.890	0.0158823
776.968	0.0159652
777.046	0.0158588
777.124	0.0159284
777.203	0.0159553
777.281	0.0159935
777.359	0.0160990
777.437	0.0159798
777.515	0.0161383
777.593	0.0162267
777.671	0.0161941
777.749	0.0162151
777.828	0.0161611
777.906	0.0161691
777.984	0.0163210
778.062	0.0162231
778.140	0.0161950
778.218	0.0162221
778.296	0.0161357
778.374	0.0160595
778.453	0.0160542
778.531	0.0159360
778.609	0.0160302
778.687	0.0161366
778.765	0.0160003
778.843	0.0160115
778.921	0.0160550
778.999	0.0157771
779.078	0.0159226
779.156	0.0159649
779.234	0.0158463
779.312	0.0157310
779.390	0.0158703
779.468	0.0157353
779.546	0.0157140
779.624	0.0156281
779.703	0.0155331
779.781	0.0156495
779.859	0.0155681
779.937	0.0155540
780.015	0.0157207
780.093	0.0156962
780.171	0.0156130
780.249	0.0156307
780.328	0.0158257
780.406	0.0160543
780.484	0.0158483
780.562	0.0159545
780.640	0.0159786
780.718	0.0160137
780.796	0.0159289
780.874	0.0160785
780.953	0.0162345
781.031	0.0162444
781.109	0.0161096
781.187	0.0160414
781.265	0.0162880
781.343	0.0160667
781.421	0.0160176
781.499	0.0160777
781.578	0.0161795
781.656	0.0161671
781.734	0.0159964
781.812	0.0159007
781.890	0.0160117
781.968	0.0159190
782.046	0.0159490
782.124	0.0159563
782.203	0.0160101
782.281	0.0159820
782.359	0.0160658
782.437	0.0159985
782.515	0.0160712
782.593	0.0160473
782.671	0.0160623
782.749	0.0162731
782.828	0.0161156
782.906	0.0159591
782.984	0.0161269
783.062	0.0161433
783.140	0.0161273
783.218	0.0161545
783.296	0.0160250
783.374	0.0161769
783.453	0.0162482
783.531	0.0160801
783.609	0.0159972
783.687	0.0160648
783.765	0.0159591
783.843	0.0159437
783.921	0.0159092
783.999	0.0159113
784.078	0.0158960
784.156	0.0158387
784.234	0.0158636
784.312	0.0158369
784.390	0.0157617
784.468	0.0157610
784.546	0.0158391
784.624	0.0157228
784.703	0.0156157
784.781	0.0158508
784.859	0.0157443
784.937	0.0159571
785.015	0.0158809
785.093	0.0160155
785.171	0.0159390
785.249	0.0159408
785.328	0.0158238
785.406	0.0159441
785.484	0.0161065
785.562	0.0159415
785.640	0.0159454
785.718	0.0160365
785.796	0.0158289
785.874	0.0159907
785.953	0.0160136
786.031	0.0159377
786.109	0.0158789
786.187	0.0159982
786.265	0.0161105
786.343	0.0160310
786.421	0.0160035
786.499	0.0158547
786.578	0.0161204
786.656	0.0161752
786.734	0.0160118
786.812	0.0161615
786.890	0.0162567
786.968	0.0161767
787.046	0.0163084
787.124	0.0160768
787.203	0.0161559
787.281	0.0161720
787.359	0.0161613
787.437	0.0161163
787.515	0.0160770
787.593	0.0161356
787.671	0.0161697
787.749	0.0162048
787.828	0.0160190
787.906	0.0159251
787.984	0.0159550
788.062	0.0158884
788.140	0.0159013
788.218	0.0159780
788.296	0.0158647
788.374	0.0159683
788.453	0.0158943
788.531	0.0158101
788.609	0.0156405
788.687	0.0157442
788.765	0.0156246
788.843	0.0156031
788.921	0.0157510
788.999	0.0156582
789.078	0.0153352
789.156	0.0153535
789.234	0.0155306
789.312	0.0155047
789.390	0.0155019
789.468	0.0153815
789.546	0.0154347
789.624	0.0155567
789.703	0.0155238
789.781	0.0155827
789.859	0.0155650
789.937	0.0155687
790.015	0.0156792
790.093	0.0158233
790.171	0.0158015
790.249	0.0160500
790.328	0.0159232
790.406	0.0160270
790.484	0.0160610
790.562	0.0162356
790.640	0.0162791
790.718	0.0160909
790.796	0.0161955
790.874	0.0162417
790.953	0.0162759
791.031	0.0164487
791.109	0.0165531
791.187	0.0163860
791.265	0.0164629
791.343	0.0163945
791.421	0.0164426
791.499	0.0164085
791.578	0.0163052
791.656	0.0164148
791.734	0.0162924
791.812	0.0161267
791.890	0.0161097
791.968	0.0161629
792.046	0.0160896
792.124	0.0161298
792.203	0.0159360
792.281	0.0159035
792.359	0.0158327
792.437	0.0158054
792.515	0.0157452
792.593	0.0157319
792.671	0.0157115
792.749	0.0157313
792.828	0.0158001
792.906	0.0157099
792.984	0.0157738
793.062	0.0157139
793.140	0.0157556
793.218	0.0156902
793.296	0.0157166
793.374	0.0158348
793.453	0.0158155
793.531	0.0158611
793.609	0.0157339
793.687	0.0157012
793.765	0.0157798
793.843	0.0159061
793.921	0.0157737
793.999	0.0158595
794.078	0.0158322
794.156	0.0157082
794.234	0.0158511
794.312	0.0158957
794.390	0.0158021
794.468	0.0158009
794.546	0.0158710
794.624	0.0157999
794.703	0.0159540
794.781	0.0160368
794.859	0.0160915
794.937	0.0160962
795.015	0.0160871
795.093	0.0160505
795.171	0.0161263
795.249	0.0161195
795.328	0.0162589
795.406	0.0162487
795.484	0.0162482
795.562	0.0160526
795.640	0.0163017
795.718	0.0162601
795.796	0.0163060
795.874	0.0163968
795.953	0.0162758
796.031	0.0161543
796.109	0.0160976
796.187	0.0161964
796.265	0.0162271
796.343	0.0161052
796.421	0.0161044
796.499	0.0161377
796.578	0.0160758
796.656	0.0160097
796.734	0.0159759
796.812	0.0159502
796.890	0.0159592
796.968	0.0158351
797.046	0.0158121
797.124	0.0158833
797.203	0.0158167
797.281	0.0156075
797.359	0.0157590
797.437	0.0158498
797.515	0.0157726
797.593	0.0157981
797.671	0.0158866
797.749	0.0157683
797.828	0.0156785
797.906	0.0158921
797.984	0.0159808
798.062	0.0159286
798.140	0.0156982
798.218	0.0158777
798.296	0.0160348
798.374	0.0159167
798.453	0.0158803
798.531	0.0159571
798.609	0.0161514
798.687	0.0160019
798.765	0.0160239
798.843	0.0158920
798.921	0.0159585
798.999	0.0161340
799.078	0.0161034
799.156	0.0160535
799.234	0.0160452
799.312	0.0161081
799.390	0.0160867
799.468	0.0159476
799.546	0.0160112
799.624	0.0161086
799.703	0.0159843
799.781	0.0161124
799.859	0.0160311
799.937	0.0160952
800.015	0.0160777
800.093	0.0161041
800.171	0.0162180
800.249	0.0161639
800.328	0.0161050
800.406	0.0163092
800.484	0.0161607
800.562	0.0160847
800.640	0.0161059
800.718	0.0162212
800.796	0.0160385
800.874	0.0161573
800.953	0.0162583
801.031	0.0159811
801.109	0.0160849
801.187	0.0161680
801.265	0.0160512
801.343	0.0159989
801.421	0.0158411
801.499	0.0158739
801.578	0.0158012
801.656	0.0157916
801.734	0.0158064
801.812	0.0157900
801.890	0.0157185
801.968	0.0156882
802.046	0.0157043
802.124	0.0156458
802.203	0.0157511
802.281	0.0157328
802.359	0.0157536
802.437	0.0157253
802.515	0.0157954
802.593	0.0159254
802.671	0.0158251
802.749	0.0158322
802.828	0.0157383
802.906	0.0157780
802.984	0.0160482
803.062	0.0158469
803.140	0.0160226
803.218	0.0158348
803.296	0.0160767
803.374	0.0162148
803.453	0.0160327
803.531	0.0162590
803.609	0.0161127
803.687	0.0160866
803.765	0.0160284
803.843	0.0162811
803.921	0.0161881
803.999	0.0161704
804.078	0.0162389
804.156	0.0160612
804.234	0.0160475
804.312	0.0161248
804.390	0.0161860
804.468	0.0162670
804.546	0.0161454
804.624	0.0161291
804.703	0.0161313
804.781	0.0161539
804.859	0.0161593
804.937	0.0162152
805.015	0.0161826
805.093	0.0161324
805.171	0.0161150
805.249	0.0161615
805.328	0.0160237
805.406	0.0159953
805.484	0.0160247
805.562	0.0159842
805.640	0.0159825
805.718	0.0160287
805.796	0.0160255
805.874	0.0159095
805.953	0.0161180
806.031	0.0159440
806.109	0.0159009
806.187	0.0158931
806.265	0.0158104
806.343	0.0157195
806.421	0.0157885
806.499	0.0157399
806.578	0.0157903
806.656	0.0156654
806.734	0.0157453
806.812	0.0157214
806.890	0.0156907
806.968	0.0157316
807.046	0.0158410
807.124	0.0157686
807.203	0.0157757
807.281	0.0159583
807.359	0.0158377
807.437	0.0157554
807.515	0.0158031
807.593	0.0160229
807.671	0.0160081
807.749	0.0158787
807.828	0.0158803
807.906	0.0160229
807.984	0.0159370
808.062	0.0160176
808.140	0.0160127
808.218	0.0160503
808.296	0.0161234
808.374	0.0161441
808.453	0.0162265
808.531	0.0160695
808.609	0.0160938
808.687	0.0162093
808.765	0.0160622
808.843	0.0161746
808.921	0.0160922
808.999	0.0162410
809.078	0.0161771
809.156	0.0162373
809.234	0.0160691
809.312	0.0160648
809.390	0.0160465
809.468	0.0160664
809.546	0.0161098
809.624	0.0158810
809.703	0.0159203
809.781	0.0158921
809.859	0.0157394
809.937	0.0159349
810.015	0.0159589
810.093	0.0157455
810.171	0.0156324
810.249	0.0156474
810.328	0.0157285
810.406	0.0156522
810.484	0.0155620
810.562	0.0157447
810.640	0.0156825
810.718	0.0157045
810.796	0.0157134
810.874	0.0156786
810.953	0.0156510
811.031	0.0156277
811.109	0.0156856
811.187	0.0157039
811.265	0.0157230
811.343	0.0157774
811.421	0.0158147
811.499	0.0159031
811.578	0.0158753
811.656	0.0159423
811.734	0.0159286
811.812	0.0160136
811.890	0.0160179
811.968	0.0160818
812.046	0.0160782
812.124	0.0160748
812.203	0.0160680
812.281	0.0161310
812.359	0.0160275
812.437	0.0160341
812.515	0.0160630
812.593	0.0160262
812.671	0.0161808
812.749	0.0160212
812.828	0.0160286
812.906	0.0160014
812.984	0.0160151
813.062	0.0160809
813.140	0.0160850
813.218	0.0160265
813.296	0.0160962
813.374	0.0159496
813.453	0.0159957
813.531	0.0159502
813.609	0.0159895
813.687	0.0157158
813.765	0.0157854
813.843	0.0157526
813.921	0.0157706
813.999	0.0156622
814.078	0.0157510
814.156	0.0156474
814.234	0.0155563
814.312	0.0155302
814.390	0.0155682
814.468	0.0156065
814.546	0.0155687
814.624	0.0156926
814.703	0.0157084
814.781	0.0156036
814.859	0.0157334
814.937	0.0156895
815.015	0.0157511
815.093	0.0159541
815.171	0.0159937
815.249	0.0159456
815.328	0.0159260
815.406	0.0157876
815.484	0.0159609
815.562	0.0161192
815.640	0.0158760
815.718	0.0159686
815.796	0.0159251
815.874	0.0160114
815.953	0.0159814
816.031	0.0159579
816.109	0.0157531
816.187	0.0158237
816.265	0.0157878
816.343	0.0158472
816.421	0.0158504
816.499	0.0157024
816.578	0.0158261
816.656	0.0158374
816.734	0.0158585
816.812	0.0156907
816.890	0.0159315
816.968	0.0159100
817.046	0.0159121
817.124	0.0158074
817.203	0.0159091
817.281	0.0160807
817.359	0.0161615
817.437	0.0160029
817.515	0.0160283
817.593	0.0160027
817.671	0.0161858
817.749	0.0161231
817.828	0.0160956
817.906	0.0160282
817.984	0.0160509
818.062	0.0160334
818.140	0.0161465
818.218	0.0160520
818.296	0.0161837
818.374	0.0161386
818.453	0.0159896
818.531	0.0160021
818.609	0.0160091
818.687	0.0160686
818.765	0.0159515
818.843	0.0159919
818.921	0.0158426
818.999	0.0158087
819.078	0.0157944
819.156	0.0159190
819.234	0.0157734
819.312	0.0158763
819.390	0.0157420
819.468	0.0157461
819.546	0.0157101
819.624	0.0155733
819.703	0.0157156
819.781	0.0158144
819.859	0.0155405
819.937	0.0156448
820.015	0.0158032
820.093	0.0158896
820.171	0.0157761
820.249	0.0157433
820.328	0.0158806
820.406	0.0158662
820.484	0.0159703
820.562	0.0160137
820.640	0.0158627
820.718	0.0161036
820.796	0.0160816
820.874	0.0160632
820.953	0.0161425
821.031	0.0161861
821.109	0.0161344
821.187	0.0161926
821.265	0.0160400
821.343	0.0160290
821.421	0.0162497
821.499	0.0162507
821.578	0.0162192
821.656	0.0160849
821.734	0.0160209
821.812	0.0161088
821.890	0.0161643
821.968	0.0161570
822.046	0.0161182
822.124	0.0159387
822.203	0.0160460
822.281	0.0160761
822.359	0.0158931
822.437	0.0160514
822.515	0.0158581
822.593	0.0157733
822.671	0.0158986
822.749	0.0158163
822.828	0.0159420
822.906	0.0158070
822.984	0.0157398
823.062	0.0157977
823.140	0.0156977
823.218	0.0158108
823.296	0.0158224
823.374	0.0157090
823.453	0.0157216
823.531	0.0156941
823.609	0.0157089
823.687	0.0157175
823.765	0.0157014
823.843	0.0158183
823.921	0.0158139
823.999	0.0159413
824.078	0.0159222
824.156	0.0158583
824.234	0.0157657
824.312	0.0160417
824.390	0.0159075
824.468	0.0160236
824.546	0.0160264
824.624	0.0161717
824.703	0.0162425
824.781	0.0163179
824.859	0.0161117
824.937	0.0162106
825.015	0.0161551
825.093	0.0161313
825.171	0.0162711
825.249	0.0161976
825.328	0.0161182
825.406	0.0160618
825.484	0.0160601
825.562	0.0161655
825.640	0.0159122
825.718	0.0159829
825.796	0.0159727
825.874	0.0159783
825.953	0.0159425
826.031	0.0159534
826.109	0.0158950
826.187	0.0159615
826.265	0.0159907
826.343	0.0159949
826.421	0.0160846
826.499	0.0160333
826.578	0.0160033
826.656	0.0158384
826.734	0.0158757
826.812	0.0159282
826.890	0.0159253
826.968	0.0156969
827.046	0.0157131
827.124	0.0157774
827.203	0.0156437
827.281	0.0156845
827.359	0.0157506
827.437	0.0158656
827.515	0.0158128
827.593	0.0157777
827.671	0.0157319
827.749	0.0158739
827.828	0.0160184
827.906	0.0159369
827.984	0.0160950
828.062	0.0161345
828.140	0.0162625
828.218	0.0162712
828.296	0.0162448
828.374	0.0163411
828.453	0.0163628
828.531	0.0163715
828.609	0.0163293
828.687	0.0164578
828.765	0.0165128
828.843	0.0163761
828.921	0.0162424
828.999	0.0161987
829.078	0.0162632
829.156	0.0161941
829.234	0.0160149
829.312	0.0160855
829.390	0.0159396
829.468	0.0160352
829.546	0.0158630
829.624	0.0157532
829.703	0.0157010
829.781	0.0156100
829.859	0.0154773
829.937	0.0155580
830.015	0.0155781
830.093	0.0154279
830.171	0.0154786
830.249	0.0155414
830.328	0.0154974
830.406	0.0154797
830.484	0.0155318
830.562	0.0157122
830.640	0.0157434
830.718	0.0157954
830.796	0.0158205
830.874	0.0161168
830.953	0.0160168
831.031	0.0160282
831.109	0.0161195
831.187	0.0161417
831.265	0.0162794
831.343	0.0163007
831.421	0.0162310
831.499	0.0163356
831.578	0.0163774
831.656	0.0163729
831.734	0.0162745
831.812	0.0162708
831.890	0.0163303
831.968	0.0162521
832.046	0.0160589
832.124	0.0161315
832.203	0.0160557
832.281	0.0159817
832.359	0.0159662
832.437	0.0158892
832.515	0.0158211
832.593	0.0158317
832.671	0.0156190
832.749	0.0156744
832.828	0.0156540
832.906	0.0157511
832.984	0.0156689
833.062	0.0156581
833.140	0.0156119
833.218	0.0155614
833.296	0.0155186
833.374	0.0156335
833.453	0.0157156
833.531	0.0157449
833.609	0.0156989
833.687	0.0157142
833.765	0.0156288
833.843	0.0157997
833.921	0.0157805
833.999	0.0158425
834.078	0.0158128
834.156	0.0158659
834.234	0.0159444
834.312	0.0158842
834.390	0.0159639
834.468	0.0160005
834.546	0.0160989
834.624	0.0159818
834.703	0.0160268
834.781	0.0159792
834.859	0.0159647
834.937	0.0159171
835.015	0.0159692
835.093	0.0161104
835.171	0.0159594
835.249	0.0160500
835.328	0.0159322
835.406	0.0158035
835.484	0.0159068
835.562	0.0160925
835.640	0.0160290
835.718	0.0160572
835.796	0.0160258
835.874	0.0159371
835.953	0.0160835
836.031	0.0161881
836.109	0.0159711
836.187	0.0161447
836.265	0.0160912
836.343	0.0160744
836.421	0.0160751
836.499	0.0160117
836.578	0.0159624
836.656	0.0159692
836.734	0.0159073
836.812	0.0158401
836.890	0.0159264
836.968	0.0159530
837.046	0.0158030
837.124	0.0157281
837.203	0.0157545
837.281	0.0157713
837.359	0.0157303
837.437	0.0157970
837.515	0.0159213
837.593	0.0157781
837.671	0.0158224
837.749	0.0158456
837.828	0.0158487
837.906	0.0158701
837.984	0.0160020
838.062	0.0159798
838.140	0.0159608
838.218	0.0159023
838.296	0.0158433
838.374	0.0158519
838.453	0.0159881
838.531	0.0159042
838.609	0.0159444
838.687	0.0159707
838.765	0.0159306
838.843	0.0158967
838.921	0.0159170
838.999	0.0159346
839.078	0.0159115
839.156	0.0158627
839.234	0.0160352
839.312	0.0159928
839.390	0.0160526
839.468	0.0159935
839.546	0.0158974
839.624	0.0159388
839.703	0.0160242
839.781	0.0158760
839.859	0.0159901
839.937	0.0160130
840.015	0.0159534
840.093	0.0158434
840.171	0.0158745
840.249	0.0159043
840.328	0.0157996
840.406	0.0158781
840.484	0.0158755
840.562	0.0160040
840.640	0.0159348
840.718	0.0157732
840.796	0.0158158
840.874	0.0158494
840.953	0.0157494
841.031	0.0159573
841.109	0.0159025
841.187	0.0159136
841.265	0.0160741
841.343	0.0160502
841.421	0.0160272
841.499	0.0161626
841.578	0.0160266
841.656	0.0160499
841.734	0.0160269
841.812	0.0159234
841.890	0.0160552
841.968	0.0160907
842.046	0.0160081
842.124	0.0160310
842.203	0.0162060
842.281	0.0161667
842.359	0.0160602
842.437	0.0161520
842.515	0.0161053
842.593	0.0160960
842.671	0.0162709
842.749	0.0161133
842.828	0.0160777
842.906	0.0160506
842.984	0.0160538
843.062	0.0161520
843.140	0.0160450
843.218	0.0160325
843.296	0.0160435
843.374	0.0160427
843.453	0.0159534
843.531	0.0159975
843.609	0.0159930
843.687	0.0161318
843.765	0.0161040
843.843	0.0161217
843.921	0.0159811
843.999	0.0161298
844.078	0.0160224
844.156	0.0161402
844.234	0.0159435
844.312	0.0160110
844.390	0.0159866
844.468	0.0159241
844.546	0.0158919
844.624	0.0159464
844.703	0.0158858
844.781	0.0157991
844.859	0.0157970
844.937	0.0158173
845.015	0.0158552
845.093	0.0158937
845.171	0.0158018
845.249	0.0159664
845.328	0.0159547
845.406	0.0160020
845.484	0.0160579
845.562	0.0161203
845.640	0.0161594
845.718	0.0161409
845.796	0.0162035
845.874	0.0163078
845.953	0.0162042
846.031	0.0162474
846.109	0.0163454
846.187	0.0161282
846.265	0.0162819
846.343	0.0162409
846.421	0.0163079
846.499	0.0163245
846.578	0.0163999
846.656	0.0162875
846.734	0.0163493
846.812	0.0163124
846.890	0.0162238
846.968	0.0162731
847.046	0.0162246
847.124	0.0161540
847.203	0.0160792
847.281	0.0162137
847.359	0.0159898
847.437	0.0158486
847.515	0.0160890
847.593	0.0159595
847.671	0.0159702
847.749	0.0158038
847.828	0.0159346
847.906	0.0157952
847.984	0.0156967
848.062	0.0155128
848.140	0.0156474
848.218	0.0156756
848.296	0.0157352
848.374	0.0155496
848.453	0.0156257
848.531	0.0157281
848.609	0.0157719
848.687	0.0157475
848.765	0.0156409
848.843	0.0157302
848.921	0.0156884
848.999	0.0159884
849.078	0.0159277
849.156	0.0160243
849.234	0.0159222
849.312	0.0157607
849.390	0.0161783
849.468	0.0160491
849.546	0.0161878
849.624	0.0161932
849.703	0.0161581
849.781	0.0162032
849.859	0.0162350
849.937	0.0162759
850.015	0.0164582
850.093	0.0161395
850.171	0.0162577
850.249	0.0161342
850.328	0.0162171
850.406	0.0161063
850.484	0.0161160
850.562	0.0161861
850.640	0.0160909
850.718	0.0161738
850.796	0.0160712
850.874	0.0161025
850.953	0.0160743
851.031	0.0160151
851.109	0.0161035
851.187	0.0161011
851.265	0.0160291
851.343	0.0160541
851.421	0.0159862
851.499	0.0159791
851.578	0.0159686
851.656	0.0159602
851.734	0.0159259
851.812	0.0159426
851.890	0.0158904
851.968	0.0158470
852.046	0.0156419
852.124	0.0156419
852.203	0.0157110
852.281	0.0156588
852.359	0.0156703
852.437	0.0156202
852.515	0.0157823
852.593	0.0158697
852.671	0.0157740
852.749	0.0157864
852.828	0.0157787
852.906	0.0157116
852.984	0.0158001
853.062	0.0158008
853.140	0.0158520
853.218	0.0159628
853.296	0.0159460
853.374	0.0160288
853.453	0.0158868
853.531	0.0160596
853.609	0.0160674
853.687	0.0160299
853.765	0.0159378
853.843	0.0159628
853.921	0.0161708
853.999	0.0159750
854.078	0.0160538
854.156	0.0160043
854.234	0.0159566
854.312	0.0161086
854.390	0.0159441
854.468	0.0160878
854.546	0.0160410
854.624	0.0160287
854.703	0.0160406
854.781	0.0159090
854.859	0.0160542
854.937	0.0157989
855.015	0.0157224
855.093	0.0157568
855.171	0.0156046
855.249	0.0156643
855.328	0.0157530
855.406	0.0158424
855.484	0.0156448
855.562	0.0156424
855.640	0.0155938
855.718	0.0155640
855.796	0.0157506
855.874	0.0156135
855.953	0.0157262
856.031	0.0156408
856.109	0.0157908
856.187	0.0158592
856.265	0.0158192
856.343	0.0159394
856.421	0.0158187
856.499	0.0157829
856.578	0.0159039
856.656	0.0159085
856.734	0.0159821
856.812	0.0160343
856.890	0.0160143
856.968	0.0159330
857.046	0.0158571
857.124	0.0159718
857.203	0.0159917
857.281	0.0159446
857.359	0.0160158
857.437	0.0158942
857.515	0.0159367
857.593	0.0158513
857.671	0.0157975
857.749	0.0158650
857.828	0.0157607
857.906	0.0158469
857.984	0.0156887
858.062	0.0157287
858.140	0.0157607
858.218	0.0157490
858.296	0.0156194
858.374	0.0158445
858.453	0.0159109
858.531	0.0159454
858.609	0.0159057
858.687	0.0159464
858.765	0.0159075
858.843	0.0160303
858.921	0.0160168
858.999	0.0160610
859.078	0.0160311
859.156	0.0161195
859.234	0.0162814
859.312	0.0160693
859.390	0.0160376
859.468	0.0160674
859.546	0.0161794
859.624	0.0160539
859.703	0.0160737
859.781	0.0161115
859.859	0.0160088
859.937	0.0159027
860.015	0.0159725
860.093	0.0159038
860.171	0.0159894
860.249	0.0159895
860.328	0.0158859
860.406	0.0160389
860.484	0.0159369
860.562	0.0158717
860.640	0.0159539
860.718	0.0160284
860.796	0.0160542
860.874	0.0160316
860.953	0.0161905
861.031	0.0161167
861.109	0.0160028
861.187	0.0159754
861.265	0.0161356
861.343	0.0161219
861.421	0.0160481
861.499	0.0160199
861.578	0.0160829
861.656	0.0159754
861.734	0.0160735
861.812	0.0160554
861.890	0.0159509
861.968	0.0159325
862.046	0.0160223
862.124	0.0160071
862.203	0.0159028
862.281	0.0159035
862.359	0.0158180
862.437	0.0158806
862.515	0.0158629
862.593	0.0159090
862.671	0.0158002
862.749	0.0157908
862.828	0.0157912
862.906	0.0160373
862.984	0.0158719
863.062	0.0159582
863.140	0.0160445
863.218	0.0159657
863.296	0.0160316
863.374	0.0160963
863.453	0.0160925
863.531	0.0159826
863.609	0.0160191
863.687	0.0161568
863.765	0.0160685
863.843	0.0160326
863.921	0.0160564
863.999	0.0160725
864.078	0.0160515
864.156	0.0160921
864.234	0.0160652
864.312	0.0160390
864.390	0.0159952
864.468	0.0160110
864.546	0.0159637
864.624	0.0158542
864.703	0.0160064
864.781	0.0159359
864.859	0.0159383
864.937	0.0159060
865.015	0.0159646
865.093	0.0160848
865.171	0.0157639
865.249	0.0159154
865.328	0.0159842
865.406	0.0160238
865.484	0.0159178
865.562	0.0159779
865.640	0.0160075
865.718	0.0158046
865.796	0.0160189
865.874	0.0161073
865.953	0.0159357
866.031	0.0158970
866.109	0.0158841
866.187	0.0160551
866.265	0.0160489
866.343	0.0159254
866.421	0.0159010
866.499	0.0160848
866.578	0.0161179
866.656	0.0160710
866.734	0.0160837
866.812	0.0159811
866.890	0.0159506
866.968	0.0160035
867.046	0.0160513
867.124	0.0161048
867.203	0.0160872
867.281	0.0159595
867.359	0.0157885
867.437	0.0159229
867.515	0.0159784
867.593	0.0159456
867.671	0.0159270
867.749	0.0159370
867.828	0.0159682
867.906	0.0159683
867.984	0.0159736
868.062	0.0160413
868.140	0.0160423
868.218	0.0159938
868.296	0.0160912
868.374	0.0160255
868.453	0.0160679
868.531	0.0161597
868.609	0.0161034
868.687	0.0161495
868.765	0.0162271
868.843	0.0160377
868.921	0.0160257
868.999	0.0160216
869.078	0.0160499
869.156	0.0160021
869.234	0.0160799
869.312	0.0160161
869.390	0.0160770
869.468	0.0162115
869.546	0.0160937
869.624	0.0160995
869.703	0.0159065
869.781	0.0159628
869.859	0.0160689
869.937	0.0159315
870.015	0.0159630
870.093	0.0160592
870.171	0.0158648
870.249	0.0159898
870.328	0.0160983
870.406	0.0158931
870.484	0.0160446
870.562	0.0159554
870.640	0.0158962
870.718	0.0158775
870.796	0.0159093
870.874	0.0159803
870.953	0.0158781
871.031	0.0158629
871.109	0.0158110
871.187	0.0158824
871.265	0.0159965
871.343	0.0158442
871.421	0.0160616
871.499	0.0160658
871.578	0.0158729
871.656	0.0160125
871.734	0.0159015
871.812	0.0159671
871.890	0.0158607
871.968	0.0158242
872.046	0.0160111
872.124	0.0161640
872.203	0.0160276
872.281	0.0160589
872.359	0.0160387
872.437	0.0159696
872.515	0.0160509
872.593	0.0160008
872.671	0.0160220
872.749	0.0160137
872.828	0.0160744
872.906	0.0161378
872.984	0.0160323
873.062	0.0160333
873.140	0.0160667
873.218	0.0160921
873.296	0.0160474
873.374	0.0160483
873.453	0.0160176
873.531	0.0159518
873.609	0.0160120
873.687	0.0160395
873.765	0.0160750
873.843	0.0161311
873.921	0.0158360
873.999	0.0159839
874.078	0.0160790
874.156	0.0160367
874.234	0.0159182
874.312	0.0159318
874.390	0.0160256
874.468	0.0159534
874.546	0.0159161
874.624	0.0159598
874.703	0.0159347
874.781	0.0160342
874.859	0.0159409
874.937	0.0159409
875.015	0.0159109
875.093	0.0159050
875.171	0.0159664
875.249	0.0158745
875.328	0.0160428
875.406	0.0160748
875.484	0.0160883
875.562	0.0158720
875.640	0.0159964
875.718	0.0161179
875.796	0.0159532
875.874	0.0160722
875.953	0.0160841
876.031	0.0161549
876.109	0.0160313
876.187	0.0160760
876.265	0.0160983
876.343	0.0160900
876.421	0.0162085
876.499	0.0162149
876.578	0.0160567
876.656	0.0162495
876.734	0.0161156
876.812	0.0160928
876.890	0.0160793
876.968	0.0161018
877.046	0.0161482
877.124	0.0162280
877.203	0.0161045
877.281	0.0160308
877.359	0.0160980
877.437	0.0160675
877.515	0.0161039
877.593	0.0161153
877.671	0.0159247
877.749	0.0160548
877.828	0.0158878
877.906	0.0160025
877.984	0.0159276
878.062	0.0160892
878.140	0.0159934
878.218	0.0160052
878.296	0.0158868
878.374	0.0160285
878.453	0.0160413
878.531	0.0159182
878.609	0.0159796
878.687	0.0159946
878.765	0.0159265
878.843	0.0160206
878.921	0.0160135
878.999	0.0158361
879.078	0.0160088
879.156	0.0161515
879.234	0.0160148
879.312	0.0159447
879.390	0.0159032
879.468	0.0160023
879.546	0.0158646
879.624	0.0158523
879.703	0.0159167
879.781	0.0158614
879.859	0.0157537
879.937	0.0157982
880.015	0.0159409
880.093	0.0158044
880.171	0.0159246
880.249	0.0159317
880.328	0.0160089
880.406	0.0157941
880.484	0.0159550
880.562	0.0159354
880.640	0.0160110
880.718	0.0159831
880.796	0.0160072
880.874	0.0159769
880.953	0.0159052
881.031	0.0159319
881.109	0.0158971
881.187	0.0158996
881.265	0.0158313
881.343	0.0158122
881.421	0.0158557
881.499	0.0157718
881.578	0.0157259
881.656	0.0157275
881.734	0.0158327
881.812	0.0158145
881.890	0.0157238
881.968	0.0157799
882.046	0.0158881
882.124	0.0158336
882.203	0.0158375
882.281	0.0156421
882.359	0.0157781
882.437	0.0158392
882.515	0.0157058
882.593	0.0157906
882.671	0.0157424
882.749	0.0157937
882.828	0.0158752
882.906	0.0158311
882.984	0.0157761
883.062	0.0159147
883.140	0.0158733
883.218	0.0158071
883.296	0.0157070
883.374	0.0157001
883.453	0.0157659
883.531	0.0158727
883.609	0.0159315
883.687	0.0158733
883.765	0.0158035
883.843	0.0158168
883.921	0.0159159
883.999	0.0158461
884.078	0.0159393
884.156	0.0159875
884.234	0.0159362
884.312	0.0157879
884.390	0.0159584
884.468	0.0158315
884.546	0.0157886
884.624	0.0158797
884.703	0.0158807
884.781	0.0157724
884.859	0.0158306
884.937	0.0157912
885.015	0.0157348
885.093	0.0158681
885.171	0.0159173
885.249	0.0157541
885.328	0.0156548
885.406	0.0157568
885.484	0.0157868
885.562	0.0157191
885.640	0.0159129
885.718	0.0157990
885.796	0.0157632
885.874	0.0156602
885.953	0.0158108
886.031	0.0159486
886.109	0.0158611
886.187	0.0159013
886.265	0.0158380
886.343	0.0158676
886.421	0.0160028
886.499	0.0160078
886.578	0.0159688
886.656	0.0159691
886.734	0.0159328
886.812	0.0158953
886.890	0.0158663
886.968	0.0160732
887.046	0.0159770
887.124	0.0162103
887.203	0.0160384
887.281	0.0159101
887.359	0.0159727
887.437	0.0160510
887.515	0.0159774
887.593	0.0161619
887.671	0.0161008
887.749	0.0159701
887.828	0.0158924
887.906	0.0159115
887.984	0.0159164
888.062	0.0159687
888.140	0.0160704
888.218	0.0160376
888.296	0.0158723
888.374	0.0157877
888.453	0.0157864
888.531	0.0159673
888.609	0.0159118
888.687	0.0158747
888.765	0.0158905
888.843	0.0158787
888.921	0.0158828
888.999	0.0158809
889.078	0.0158588
889.156	0.0157995
889.234	0.0159360
889.312	0.0160515
889.390	0.0159566
889.468	0.0158495
889.546	0.0159041
889.624	0.0159258
889.703	0.0158610
889.781	0.0158099
889.859	0.0160221
889.937	0.0158790
890.015	0.0158671
890.093	0.0158826
890.171	0.0160493
890.249	0.0160051
890.328	0.0158984
890.406	0.0158974
890.484	0.0158549
890.562	0.0159490
890.640	0.0161094
890.718	0.0159608
890.796	0.0159955
890.874	0.0159914
890.953	0.0160821
891.031	0.0161708
891.109	0.0160127
891.187	0.0159220
891.265	0.0160808
891.343	0.0160171
891.421	0.0160637
891.499	0.0160807
891.578	0.0160631
891.656	0.0160470
891.734	0.0160377
891.812	0.0159726
891.890	0.0159863
891.968	0.0160064
892.046	0.0161384
892.124	0.0160487
892.203	0.0159582
892.281	0.0160573
892.359	0.0160032
892.437	0.0159125
892.515	0.0161180
892.593	0.0160535
892.671	0.0159592
892.749	0.0159562
892.828	0.0160194
892.906	0.0160525
892.984	0.0159019
893.062	0.0158759
893.140	0.0160438
893.218	0.0159807
893.296	0.0160163
893.374	0.0159605
893.453	0.0159686
893.531	0.0160081
893.609	0.0159856
893.687	0.0158613
893.765	0.0158413
893.843	0.0159734
893.921	0.0159704
893.999	0.0158998
894.078	0.0158459
894.156	0.0158743
894.234	0.0161008
894.312	0.0161012
894.390	0.0158772
894.468	0.0158965
894.546	0.0159653
894.624	0.0160098
894.703	0.0159836
894.781	0.0159789
894.859	0.0159187
894.937	0.0160171
895.015	0.0160909
895.093	0.0160873
895.171	0.0160186
895.249	0.0160360
895.328	0.0158665
895.406	0.0160334
895.484	0.0159673
895.562	0.0160498
895.640	0.0160435
895.718	0.0160221
895.796	0.0159898
895.874	0.0161069
895.953	0.0160891
896.031	0.0161575
896.109	0.0159902
896.187	0.0161185
896.265	0.0161915
896.343	0.0160171
896.421	0.0160213
896.499	0.0161299
896.578	0.0159914
896.656	0.0160626
896.734	0.0159708
896.812	0.0159399
896.890	0.0158408
896.968	0.0159915
897.046	0.0159699
897.124	0.0158634
897.203	0.0158355
897.281	0.0160254
897.359	0.0158268
897.437	0.0157544
897.515	0.0158484
897.593	0.0158131
897.671	0.0158151
897.749	0.0158901
897.828	0.0160268
897.906	0.0158891
897.984	0.0158998
898.062	0.0159491
898.140	0.0159190
898.218	0.0158356
898.296	0.0158652
898.374	0.0159888
898.453	0.0159110
898.531	0.0158610
898.609	0.0158507
898.687	0.0158691
898.765	0.0157682
898.843	0.0157786
898.921	0.0159019
898.999	0.0159027
899.078	0.0158652
899.156	0.0158938
899.234	0.0159219
899.312	0.0159763
899.390	0.0160223
899.468	0.0159528
899.546	0.0158977
899.624	0.0160303
899.703	0.0161504
899.781	0.0161397
899.859	0.0160500
899.937	0.0159316
900.015	0.0160037
900.093	0.0160613
900.171	0.0160194
900.249	0.0159804
900.328	0.0160859
900.406	0.0160853
900.484	0.0161610
900.562	0.0160296
900.640	0.0161373
900.718	0.0161306
900.796	0.0160162
900.874	0.0159406
900.953	0.0161172
901.031	0.0159543
901.109	0.0160766
901.187	0.0158629
901.265	0.0159589
901.343	0.0160927
901.421	0.0159917
901.499	0.0160438
901.578	0.0159815
901.656	0.0159288
901.734	0.0161553
901.812	0.0159378
901.890	0.0159640
901.968	0.0160084
902.046	0.0158942
902.124	0.0159638
902.203	0.0159850
902.281	0.0159383
902.359	0.0159073
902.437	0.0159144
902.515	0.0160245
902.593	0.0159562
902.671	0.0159341
902.749	0.0160160
902.828	0.0160181
902.906	0.0160231
902.984	0.0160177
903.062	0.0159681
903.140	0.0159858
903.218	0.0159250
903.296	0.0158141
903.374	0.0159162
903.453	0.0160052
903.531	0.0157545
903.609	0.0158443
903.687	0.0158986
903.765	0.0159279
903.843	0.0159006
903.921	0.0159186
903.999	0.0160339
904.078	0.0160087
904.156	0.0159957
904.234	0.0160149
904.312	0.0159117
904.390	0.0158874
904.468	0.0160320
904.546	0.0160434
904.624	0.0159911
904.703	0.0159628
904.781	0.0159439
904.859	0.0159492
904.937	0.0160467
905.015	0.0159913
905.093	0.0159859
905.171	0.0159803
905.249	0.0158476
905.328	0.0160497
905.406	0.0158716
905.484	0.0160251
905.562	0.0159592
905.640	0.0159772
905.718	0.0158627
905.796	0.0158736
905.874	0.0159999
905.953	0.0158815
906.031	0.0158515
906.109	0.0158685
906.187	0.0159637
906.265	0.0159267
906.343	0.0160088
906.421	0.0159181
906.499	0.0158653
906.578	0.0157063
906.656	0.0158362
906.734	0.0157436
906.812	0.0157764
906.890	0.0157686
906.968	0.0159091
907.046	0.0158838
907.124	0.0159762
907.203	0.0160013
907.281	0.0160751
907.359	0.0158832
907.437	0.0158955
907.515	0.0158513
907.593	0.0158603
907.671	0.0159235
907.749	0.0158685
907.828	0.0157791
907.906	0.0159275
907.984	0.0158594
908.062	0.0158463
908.140	0.0158743
908.218	0.0157911
908.296	0.0158646
908.374	0.0157406
908.453	0.0158029
908.531	0.0158630
908.609	0.0158248
908.687	0.0157858
908.765	0.0158306
908.843	0.0157539
908.921	0.0158292
908.999	0.0159486
909.078	0.0158922
909.156	0.0159328
909.234	0.0158138
909.312	0.0158714
909.390	0.0158495
909.468	0.0159618
909.546	0.0159901
909.624	0.0160190
909.703	0.0158157
909.781	0.0159684
909.859	0.0159485
909.937	0.0160325
910.015	0.0160648
910.093	0.0160309
910.171	0.0159553
910.249	0.0159328
910.328	0.0160562
910.406	0.0159281
910.484	0.0159563
910.562	0.0158171
910.640	0.0158763
910.718	0.0158708
910.796	0.0157484
910.874	0.0158144
910.953	0.0159061
911.031	0.0159883
911.109	0.0157276
911.187	0.0158704
911.265	0.0157998
911.343	0.0157133
911.421	0.0157839
911.499	0.0159109
911.578	0.0157199
911.656	0.0158174
911.734	0.0159200
911.812	0.0157905
911.890	0.0159026
911.968	0.0160181
912.046	0.0159738
912.124	0.0158720
912.203	0.0161951
912.281	0.0161317
912.359	0.0159145
912.437	0.0161073
912.515	0.0161534
912.593	0.0160906
912.671	0.0159886
912.749	0.0160928
912.828	0.0161418
912.906	0.0161030
912.984	0.0162885
913.062	0.0160472
913.140	0.0161189
913.218	0.0161686
913.296	0.0160436
913.374	0.0160323
913.453	0.0159308
913.531	0.0160311
913.609	0.0160559
913.687	0.0160017
913.765	0.0161357
913.843	0.0161397
913.921	0.0159389
913.999	0.0160279
914.078	0.0159040
914.156	0.0159399
914.234	0.0160526
914.312	0.0161334
914.390	0.0159643
914.468	0.0159600
914.546	0.0160327
914.624	0.0160848
914.703	0.0161335
914.781	0.0160077
914.859	0.0161121
914.937	0.0160726
915.015	0.0161376
915.093	0.0160291
915.171	0.0161269
915.249	0.0160958
915.328	0.0160353
915.406	0.0161122
915.484	0.0161315
915.562	0.0162415
915.640	0.0162566
915.718	0.0159902
915.796	0.0161710
915.874	0.0161516
915.953	0.0160097
916.031	0.0159784
916.109	0.0159649
916.187	0.0161321
916.265	0.0160911
916.343	0.0160558
916.421	0.0160036
916.499	0.0158372
916.578	0.0159642
916.656	0.0160489
916.734	0.0159243
916.812	0.0157998
916.890	0.0158903
916.968	0.0159142
917.046	0.0160578
917.124	0.0159669
917.203	0.0159621
917.281	0.0159940
917.359	0.0159763
917.437	0.0158724
917.515	0.0160194
917.593	0.0159372
917.671	0.0159898
917.749	0.0158646
917.828	0.0159059
917.906	0.0159649
917.984	0.0159952
918.062	0.0160753
918.140	0.0160356
918.218	0.0159933
918.296	0.0160137
918.374	0.0160489
918.453	0.0160007
918.531	0.0159008
918.609	0.0159535
918.687	0.0160825
918.765	0.0159380
918.843	0.0160369
918.921	0.0160409
918.999	0.0158063
919.078	0.0159859
919.156	0.0159953
919.234	0.0159807
919.312	0.0159946
919.390	0.0160151
919.468	0.0159381
919.546	0.0160361
919.624	0.0159180
919.703	0.0158755
919.781	0.0159119
919.859	0.0159040
919.937	0.0159372
