06/10/2022	19:04:36	Ver.	4.1	UNKNOWN
Optical Delay	600.015094	Delta X		0.078125	Sweeps	1	Scan Rate	0/0
Coordinates	Axis 1	NaN	Axis 2	NaN	Axis 3	NaN	Axis 4	NaN	Axis 5	NaN	Axis 6	0.000000
TX Power	0.000000	RX Power	0.000000

600.015	0.0156198
600.093	0.0157890
600.171	0.0157833
600.249	0.0157896
600.328	0.0156435
600.406	0.0158115
600.484	0.0157030
600.562	0.0157288
600.640	0.0158044
600.718	0.0156574
600.796	0.0157753
600.874	0.0156513
600.953	0.0158319
601.031	0.0156522
601.109	0.0157645
601.187	0.0158181
601.265	0.0157463
601.343	0.0157629
601.421	0.0158435
601.499	0.0157661
601.578	0.0158266
601.656	0.0158319
601.734	0.0157197
601.812	0.0156821
601.890	0.0158734
601.968	0.0158841
602.046	0.0157705
602.124	0.0156799
602.203	0.0157108
602.281	0.0157999
602.359	0.0159286
602.437	0.0158208
602.515	0.0157220
602.593	0.0159490
602.671	0.0157561
602.749	0.0157811
602.828	0.0159103
602.906	0.0158736
602.984	0.0158165
603.062	0.0157536
603.140	0.0158967
603.218	0.0158092
603.296	0.0158381
603.374	0.0158670
603.453	0.0158581
603.531	0.0157897
603.609	0.0159131
603.687	0.0159570
603.765	0.0157322
603.843	0.0158584
603.921	0.0156237
603.999	0.0158797
604.078	0.0158333
604.156	0.0158818
604.234	0.0157771
604.312	0.0158295
604.390	0.0158054
604.468	0.0156633
604.546	0.0158009
604.624	0.0157908
604.703	0.0156468
604.781	0.0158005
604.859	0.0157768
604.937	0.0157826
605.015	0.0157914
605.093	0.0157740
605.171	0.0156721
605.249	0.0157505
605.328	0.0157605
605.406	0.0157374
605.484	0.0156763
605.562	0.0156680
605.640	0.0155242
605.718	0.0155474
605.796	0.0155939
605.874	0.0155536
605.953	0.0155392
606.031	0.0154687
606.109	0.0155364
606.187	0.0154554
606.265	0.0155664
606.343	0.0154074
606.421	0.0152762
606.499	0.0154643
606.578	0.0154573
606.656	0.0154048
606.734	0.0156136
606.812	0.0155717
606.890	0.0154531
606.968	0.0154067
607.046	0.0154708
607.124	0.0155717
607.203	0.0156245
607.281	0.0155973
607.359	0.0154475
607.437	0.0153865
607.515	0.0153745
607.593	0.0155157
607.671	0.0153341
607.749	0.0153035
607.828	0.0154037
607.906	0.0153230
607.984	0.0153096
608.062	0.0152260
608.140	0.0152363
608.218	0.0153646
608.296	0.0153770
608.374	0.0153424
608.453	0.0154097
608.531	0.0153045
608.609	0.0153543
608.687	0.0153871
608.765	0.0153143
608.843	0.0155397
608.921	0.0155664
608.999	0.0155962
609.078	0.0155952
609.156	0.0153927
609.234	0.0153316
609.312	0.0156818
609.390	0.0154511
609.468	0.0154312
609.546	0.0154920
609.624	0.0154329
609.703	0.0154079
609.781	0.0154179
609.859	0.0155969
609.937	0.0154587
610.015	0.0153232
610.093	0.0154446
610.171	0.0153497
610.249	0.0154661
610.328	0.0154323
610.406	0.0154615
610.484	0.0155074
610.562	0.0153778
610.640	0.0155293
610.718	0.0155338
610.796	0.0154351
610.874	0.0154327
610.953	0.0154251
611.031	0.0153701
611.109	0.0155636
611.187	0.0154333
611.265	0.0155707
611.343	0.0154970
611.421	0.0156059
611.499	0.0155273
611.578	0.0155254
611.656	0.0156036
611.734	0.0156224
611.812	0.0156068
611.890	0.0155917
611.968	0.0155851
612.046	0.0156818
612.124	0.0155097
612.203	0.0156295
612.281	0.0155492
612.359	0.0154746
612.437	0.0156104
612.515	0.0157603
612.593	0.0155867
612.671	0.0156021
612.749	0.0156898
612.828	0.0155837
612.906	0.0155545
612.984	0.0156281
613.062	0.0156725
613.140	0.0154559
613.218	0.0156277
613.296	0.0155727
613.374	0.0156486
613.453	0.0155347
613.531	0.0153475
613.609	0.0155763
613.687	0.0155663
613.765	0.0156908
613.843	0.0154816
613.921	0.0156060
613.999	0.0155190
614.078	0.0156566
614.156	0.0158532
614.234	0.0158135
614.312	0.0157347
614.390	0.0157618
614.468	0.0157439
614.546	0.0158401
614.624	0.0156882
614.703	0.0157961
614.781	0.0157362
614.859	0.0155893
614.937	0.0157310
615.015	0.0157277
615.093	0.0157793
615.171	0.0158346
615.249	0.0156416
615.328	0.0156272
615.406	0.0157047
615.484	0.0157189
615.562	0.0156131
615.640	0.0157646
615.718	0.0156680
615.796	0.0156158
615.874	0.0155763
615.953	0.0156200
616.031	0.0155736
616.109	0.0155437
616.187	0.0155838
616.265	0.0156224
616.343	0.0156187
616.421	0.0156202
616.499	0.0156551
616.578	0.0155518
616.656	0.0155782
616.734	0.0156190
616.812	0.0155479
616.890	0.0155902
616.968	0.0155937
617.046	0.0157122
617.124	0.0155487
617.203	0.0157500
617.281	0.0157725
617.359	0.0157241
617.437	0.0156682
617.515	0.0156526
617.593	0.0156434
617.671	0.0156578
617.749	0.0156793
617.828	0.0157130
617.906	0.0158344
617.984	0.0155939
618.062	0.0156490
618.140	0.0156555
618.218	0.0155622
618.296	0.0158347
618.374	0.0157774
618.453	0.0157358
618.531	0.0156776
618.609	0.0157086
618.687	0.0156759
618.765	0.0156600
618.843	0.0157145
618.921	0.0157492
618.999	0.0156808
619.078	0.0157208
619.156	0.0156711
619.234	0.0157450
619.312	0.0157198
619.390	0.0156267
619.468	0.0157117
619.546	0.0157536
619.624	0.0156133
619.703	0.0156512
619.781	0.0156076
619.859	0.0157392
619.937	0.0155901
620.015	0.0157314
620.093	0.0156372
620.171	0.0157439
620.249	0.0156872
620.328	0.0157353
620.406	0.0156728
620.484	0.0156367
620.562	0.0157996
620.640	0.0156836
620.718	0.0156963
620.796	0.0155915
620.874	0.0156435
620.953	0.0156982
621.031	0.0158363
621.109	0.0156805
621.187	0.0156327
621.265	0.0156740
621.343	0.0154865
621.421	0.0157401
621.499	0.0157056
621.578	0.0155450
621.656	0.0156536
621.734	0.0156203
621.812	0.0156764
621.890	0.0156970
621.968	0.0155941
622.046	0.0155788
622.124	0.0156612
622.203	0.0156606
622.281	0.0154624
622.359	0.0155460
622.437	0.0156487
622.515	0.0156007
622.593	0.0154232
622.671	0.0156063
622.749	0.0155648
622.828	0.0156483
622.906	0.0157001
622.984	0.0157395
623.062	0.0155867
623.140	0.0155276
623.218	0.0156315
623.296	0.0154572
623.374	0.0156623
623.453	0.0154874
623.531	0.0157079
623.609	0.0155895
623.687	0.0156087
623.765	0.0157591
623.843	0.0155116
623.921	0.0156182
623.999	0.0157431
624.078	0.0156842
624.156	0.0156810
624.234	0.0157561
624.312	0.0157732
624.390	0.0156674
624.468	0.0156036
624.546	0.0157207
624.624	0.0157774
624.703	0.0157008
624.781	0.0157189
624.859	0.0157017
624.937	0.0157707
625.015	0.0157782
625.093	0.0157217
625.171	0.0157251
625.249	0.0157146
625.328	0.0156378
625.406	0.0157558
625.484	0.0157816
625.562	0.0157849
625.640	0.0157861
625.718	0.0157979
625.796	0.0158250
625.874	0.0157965
625.953	0.0158525
626.031	0.0156630
626.109	0.0156616
626.187	0.0157952
626.265	0.0157176
626.343	0.0157715
626.421	0.0158588
626.499	0.0156930
626.578	0.0157849
626.656	0.0157684
626.734	0.0156620
626.812	0.0157143
626.890	0.0157671
626.968	0.0157814
627.046	0.0156819
627.124	0.0157046
627.203	0.0156476
627.281	0.0156264
627.359	0.0156421
627.437	0.0156903
627.515	0.0156589
627.593	0.0155029
627.671	0.0157069
627.749	0.0157711
627.828	0.0157809
627.906	0.0156968
627.984	0.0157620
628.062	0.0157439
628.140	0.0156701
628.218	0.0156582
628.296	0.0156259
628.374	0.0156842
628.453	0.0156898
628.531	0.0156162
628.609	0.0156156
628.687	0.0156277
628.765	0.0156503
628.843	0.0156557
628.921	0.0155621
628.999	0.0157172
629.078	0.0156939
629.156	0.0157464
629.234	0.0155978
629.312	0.0156895
629.390	0.0157700
629.468	0.0155975
629.546	0.0156907
629.624	0.0157098
629.703	0.0156826
629.781	0.0156689
629.859	0.0156559
629.937	0.0157066
630.015	0.0157186
630.093	0.0157227
630.171	0.0156419
630.249	0.0157376
630.328	0.0157526
630.406	0.0157305
630.484	0.0155180
630.562	0.0156046
630.640	0.0156698
630.718	0.0156342
630.796	0.0155820
630.874	0.0155582
630.953	0.0155231
631.031	0.0155105
631.109	0.0155347
631.187	0.0154821
631.265	0.0156426
631.343	0.0156318
631.421	0.0155373
631.499	0.0155161
631.578	0.0155618
631.656	0.0155498
631.734	0.0155756
631.812	0.0153542
631.890	0.0155515
631.968	0.0154775
632.046	0.0154794
632.124	0.0155653
632.203	0.0156097
632.281	0.0154766
632.359	0.0153947
632.437	0.0154619
632.515	0.0155185
632.593	0.0154151
632.671	0.0153205
632.749	0.0154189
632.828	0.0155615
632.906	0.0153753
632.984	0.0153432
633.062	0.0153971
633.140	0.0154158
633.218	0.0153226
633.296	0.0154295
633.374	0.0153475
633.453	0.0154283
633.531	0.0153831
633.609	0.0153165
633.687	0.0154326
633.765	0.0154271
633.843	0.0154009
633.921	0.0154287
633.999	0.0153978
634.078	0.0153510
634.156	0.0152988
634.234	0.0153453
634.312	0.0153100
634.390	0.0153313
634.468	0.0153668
634.546	0.0152739
634.624	0.0152166
634.703	0.0154988
634.781	0.0153974
634.859	0.0152811
634.937	0.0154115
635.015	0.0154790
635.093	0.0153571
635.171	0.0153442
635.249	0.0153862
635.328	0.0154529
635.406	0.0153668
635.484	0.0153079
635.562	0.0153908
635.640	0.0154232
635.718	0.0152786
635.796	0.0152991
635.874	0.0154601
635.953	0.0155196
636.031	0.0155586
636.109	0.0155610
636.187	0.0154811
636.265	0.0154900
636.343	0.0155549
636.421	0.0155598
636.499	0.0155235
636.578	0.0155734
636.656	0.0154704
636.734	0.0155874
636.812	0.0154565
636.890	0.0156461
636.968	0.0155717
637.046	0.0155084
637.124	0.0155081
637.203	0.0154613
637.281	0.0155600
637.359	0.0155456
637.437	0.0155310
637.515	0.0155781
637.593	0.0155531
637.671	0.0155529
637.749	0.0154259
637.828	0.0156065
637.906	0.0155439
637.984	0.0155812
638.062	0.0155247
638.140	0.0156155
638.218	0.0156341
638.296	0.0155132
638.374	0.0155420
638.453	0.0156234
638.531	0.0158042
638.609	0.0156201
638.687	0.0156632
638.765	0.0157307
638.843	0.0155933
638.921	0.0156068
638.999	0.0156042
639.078	0.0156375
639.156	0.0156182
639.234	0.0155838
639.312	0.0155967
639.390	0.0156749
639.468	0.0156563
639.546	0.0156895
639.624	0.0156553
639.703	0.0157619
639.781	0.0156802
639.859	0.0157291
639.937	0.0158114
640.015	0.0157552
640.093	0.0157639
640.171	0.0157161
640.249	0.0157207
640.328	0.0157339
640.406	0.0158447
640.484	0.0157636
640.562	0.0157496
640.640	0.0156530
640.718	0.0157104
640.796	0.0156644
640.874	0.0158458
640.953	0.0157926
641.031	0.0158054
641.109	0.0158314
641.187	0.0158083
641.265	0.0156937
641.343	0.0157269
641.421	0.0158260
641.499	0.0158253
641.578	0.0157044
641.656	0.0156935
641.734	0.0157452
641.812	0.0158760
641.890	0.0156696
641.968	0.0157188
642.046	0.0158879
642.124	0.0156773
642.203	0.0157918
642.281	0.0156680
642.359	0.0157046
642.437	0.0156700
642.515	0.0158302
642.593	0.0157932
642.671	0.0157884
642.749	0.0158035
642.828	0.0158701
642.906	0.0157327
642.984	0.0157198
643.062	0.0157887
643.140	0.0156963
643.218	0.0157827
643.296	0.0157372
643.374	0.0157228
643.453	0.0158020
643.531	0.0157697
643.609	0.0157211
643.687	0.0155897
643.765	0.0157784
643.843	0.0157093
643.921	0.0157600
643.999	0.0156139
644.078	0.0155894
644.156	0.0155546
644.234	0.0155734
644.312	0.0156754
644.390	0.0156755
644.468	0.0156106
644.546	0.0156078
644.624	0.0156695
644.703	0.0157855
644.781	0.0156938
644.859	0.0157291
644.937	0.0157066
645.015	0.0156188
645.093	0.0155659
645.171	0.0155985
645.249	0.0156606
645.328	0.0156236
645.406	0.0156355
645.484	0.0157200
645.562	0.0157401
645.640	0.0155764
645.718	0.0156901
645.796	0.0156947
645.874	0.0155984
645.953	0.0156712
646.031	0.0156338
646.109	0.0156094
646.187	0.0157723
646.265	0.0156618
646.343	0.0155997
646.421	0.0156821
646.499	0.0157109
646.578	0.0155979
646.656	0.0157227
646.734	0.0157378
646.812	0.0157038
646.890	0.0155849
646.968	0.0157410
647.046	0.0156380
647.124	0.0158267
647.203	0.0157195
647.281	0.0158337
647.359	0.0157602
647.437	0.0157170
647.515	0.0158446
647.593	0.0156617
647.671	0.0156207
647.749	0.0157333
647.828	0.0156139
647.906	0.0154603
647.984	0.0156579
648.062	0.0157130
648.140	0.0157487
648.218	0.0156060
648.296	0.0157016
648.374	0.0157701
648.453	0.0156590
648.531	0.0155224
648.609	0.0156432
648.687	0.0156574
648.765	0.0156651
648.843	0.0156780
648.921	0.0157381
648.999	0.0157394
649.078	0.0155861
649.156	0.0156817
649.234	0.0156819
649.312	0.0157745
649.390	0.0158273
649.468	0.0157119
649.546	0.0157105
649.624	0.0157766
649.703	0.0155786
649.781	0.0156441
649.859	0.0156820
649.937	0.0157329
650.015	0.0157529
650.093	0.0156504
650.171	0.0157526
650.249	0.0157415
650.328	0.0157499
650.406	0.0156244
650.484	0.0156656
650.562	0.0156696
650.640	0.0157146
650.718	0.0156220
650.796	0.0156596
650.874	0.0157814
650.953	0.0155453
651.031	0.0156471
651.109	0.0157191
651.187	0.0157406
651.265	0.0156141
651.343	0.0155971
651.421	0.0156267
651.499	0.0156116
651.578	0.0156596
651.656	0.0156255
651.734	0.0155260
651.812	0.0156037
651.890	0.0155449
651.968	0.0155898
652.046	0.0156307
652.124	0.0155302
652.203	0.0156403
652.281	0.0155251
652.359	0.0155722
652.437	0.0155419
652.515	0.0154469
652.593	0.0155599
652.671	0.0154382
652.749	0.0155031
652.828	0.0155428
652.906	0.0155457
652.984	0.0154675
653.062	0.0155024
653.140	0.0155344
653.218	0.0155645
653.296	0.0155103
653.374	0.0156323
653.453	0.0155479
653.531	0.0154788
653.609	0.0154382
653.687	0.0156313
653.765	0.0155228
653.843	0.0156059
653.921	0.0154597
653.999	0.0155379
654.078	0.0155531
654.156	0.0155907
654.234	0.0155521
654.312	0.0155783
654.390	0.0154490
654.468	0.0155158
654.546	0.0155421
654.624	0.0155190
654.703	0.0154877
654.781	0.0155116
654.859	0.0153714
654.937	0.0154967
655.015	0.0155702
655.093	0.0155138
655.171	0.0155550
655.249	0.0154982
655.328	0.0154998
655.406	0.0155379
655.484	0.0155865
655.562	0.0155084
655.640	0.0155241
655.718	0.0154449
655.796	0.0153300
655.874	0.0155219
655.953	0.0156053
656.031	0.0155207
656.109	0.0155685
656.187	0.0155734
656.265	0.0155171
656.343	0.0155106
656.421	0.0154930
656.499	0.0156324
656.578	0.0155978
656.656	0.0155016
656.734	0.0154916
656.812	0.0155077
656.890	0.0155138
656.968	0.0153808
657.046	0.0154360
657.124	0.0155581
657.203	0.0154641
657.281	0.0155161
657.359	0.0154007
657.437	0.0154945
657.515	0.0155448
657.593	0.0156323
657.671	0.0154227
657.749	0.0154307
657.828	0.0154452
657.906	0.0156021
657.984	0.0155097
658.062	0.0156135
658.140	0.0156069
658.218	0.0155491
658.296	0.0156440
658.374	0.0156609
658.453	0.0157240
658.531	0.0157215
658.609	0.0156916
658.687	0.0155845
658.765	0.0156617
658.843	0.0157448
658.921	0.0155843
658.999	0.0155955
659.078	0.0157083
659.156	0.0158298
659.234	0.0156769
659.312	0.0155009
659.390	0.0155965
659.468	0.0156991
659.546	0.0156805
659.624	0.0157182
659.703	0.0156804
659.781	0.0157677
659.859	0.0155849
659.937	0.0157106
660.015	0.0158292
660.093	0.0158103
660.171	0.0157950
660.249	0.0157489
660.328	0.0157482
660.406	0.0157053
660.484	0.0157959
660.562	0.0157043
660.640	0.0157126
660.718	0.0158001
660.796	0.0156138
660.874	0.0157121
660.953	0.0158141
661.031	0.0157172
661.109	0.0158543
661.187	0.0158905
661.265	0.0155946
661.343	0.0156921
661.421	0.0157730
661.499	0.0158096
661.578	0.0157112
661.656	0.0157698
661.734	0.0156908
661.812	0.0157472
661.890	0.0157445
661.968	0.0158963
662.046	0.0156869
662.124	0.0156329
662.203	0.0156741
662.281	0.0156023
662.359	0.0156767
662.437	0.0157196
662.515	0.0156911
662.593	0.0156242
662.671	0.0156977
662.749	0.0155479
662.828	0.0155624
662.906	0.0156906
662.984	0.0156390
663.062	0.0155827
663.140	0.0155399
663.218	0.0156496
663.296	0.0156535
663.374	0.0157076
663.453	0.0156789
663.531	0.0156487
663.609	0.0156875
663.687	0.0154375
663.765	0.0156976
663.843	0.0156599
663.921	0.0156548
663.999	0.0157498
664.078	0.0155479
664.156	0.0156245
664.234	0.0156187
664.312	0.0157487
664.390	0.0155897
664.468	0.0156050
664.546	0.0156799
664.624	0.0156467
664.703	0.0155336
664.781	0.0156041
664.859	0.0156474
664.937	0.0156150
665.015	0.0157583
665.093	0.0156621
665.171	0.0156029
665.249	0.0156809
665.328	0.0157364
665.406	0.0155353
665.484	0.0155804
665.562	0.0155442
665.640	0.0154738
665.718	0.0154689
665.796	0.0155862
665.874	0.0157256
665.953	0.0155225
666.031	0.0155777
666.109	0.0153596
666.187	0.0157372
666.265	0.0156240
666.343	0.0154324
666.421	0.0154491
666.499	0.0155259
666.578	0.0157126
666.656	0.0155751
666.734	0.0155633
666.812	0.0157000
666.890	0.0154868
666.968	0.0154053
667.046	0.0155938
667.124	0.0157054
667.203	0.0156225
667.281	0.0155063
667.359	0.0156980
667.437	0.0156820
667.515	0.0155919
667.593	0.0156420
667.671	0.0155990
667.749	0.0157101
667.828	0.0156358
667.906	0.0157653
667.984	0.0156874
668.062	0.0155601
668.140	0.0156602
668.218	0.0157269
668.296	0.0155992
668.374	0.0156568
668.453	0.0156011
668.531	0.0155819
668.609	0.0156096
668.687	0.0156861
668.765	0.0156569
668.843	0.0155392
668.921	0.0157601
668.999	0.0157594
669.078	0.0157180
669.156	0.0157990
669.234	0.0156702
669.312	0.0156405
669.390	0.0156340
669.468	0.0156752
669.546	0.0157101
669.624	0.0156915
669.703	0.0154970
669.781	0.0157351
669.859	0.0157819
669.937	0.0157691
670.015	0.0157236
670.093	0.0156824
670.171	0.0156751
670.249	0.0155679
670.328	0.0158119
670.406	0.0157190
670.484	0.0157456
670.562	0.0157180
670.640	0.0156805
670.718	0.0156406
670.796	0.0156197
670.874	0.0156270
670.953	0.0155820
671.031	0.0156026
671.109	0.0156616
671.187	0.0157590
671.265	0.0158446
671.343	0.0156623
671.421	0.0156158
671.499	0.0156504
671.578	0.0156317
671.656	0.0155910
671.734	0.0156621
671.812	0.0157533
671.890	0.0156602
671.968	0.0156719
672.046	0.0156898
672.124	0.0156355
672.203	0.0157542
672.281	0.0156723
672.359	0.0157933
672.437	0.0157327
672.515	0.0155190
672.593	0.0155720
672.671	0.0156419
672.749	0.0157549
672.828	0.0156819
672.906	0.0157967
672.984	0.0156664
673.062	0.0156100
673.140	0.0156807
673.218	0.0157714
673.296	0.0157121
673.374	0.0158569
673.453	0.0157946
673.531	0.0156614
673.609	0.0156935
673.687	0.0157380
673.765	0.0156046
673.843	0.0157121
673.921	0.0157352
673.999	0.0157148
674.078	0.0158325
674.156	0.0156171
674.234	0.0157556
674.312	0.0156447
674.390	0.0157864
674.468	0.0157552
674.546	0.0156178
674.624	0.0156047
674.703	0.0156264
674.781	0.0157294
674.859	0.0157594
674.937	0.0155607
675.015	0.0155894
675.093	0.0156110
675.171	0.0156540
675.249	0.0155479
675.328	0.0155769
675.406	0.0156499
675.484	0.0155747
675.562	0.0156712
675.640	0.0156348
675.718	0.0156262
675.796	0.0155976
675.874	0.0157457
675.953	0.0155601
676.031	0.0157331
676.109	0.0156100
676.187	0.0156781
676.265	0.0157069
676.343	0.0156476
676.421	0.0157692
676.499	0.0155698
676.578	0.0155877
676.656	0.0156461
676.734	0.0156123
676.812	0.0156525
676.890	0.0156257
676.968	0.0155262
677.046	0.0156195
677.124	0.0154910
677.203	0.0156200
677.281	0.0156951
677.359	0.0156729
677.437	0.0156059
677.515	0.0156271
677.593	0.0156369
677.671	0.0156705
677.749	0.0156187
677.828	0.0155863
677.906	0.0156490
677.984	0.0155006
678.062	0.0155418
678.140	0.0157494
678.218	0.0157765
678.296	0.0156613
678.374	0.0155915
678.453	0.0157224
678.531	0.0155926
678.609	0.0157548
678.687	0.0156609
678.765	0.0155574
678.843	0.0155384
678.921	0.0155479
678.999	0.0156404
679.078	0.0155692
679.156	0.0154765
679.234	0.0155553
679.312	0.0156224
679.390	0.0155540
679.468	0.0155518
679.546	0.0155279
679.624	0.0155441
679.703	0.0156170
679.781	0.0155957
679.859	0.0156480
679.937	0.0157162
680.015	0.0155499
680.093	0.0155875
680.171	0.0154694
680.249	0.0155904
680.328	0.0156534
680.406	0.0156799
680.484	0.0155538
680.562	0.0155433
680.640	0.0155055
680.718	0.0156464
680.796	0.0154778
680.874	0.0155637
680.953	0.0157606
681.031	0.0157018
681.109	0.0156948
681.187	0.0155328
681.265	0.0156364
681.343	0.0156111
681.421	0.0157125
681.499	0.0157637
681.578	0.0156332
681.656	0.0155246
681.734	0.0156528
681.812	0.0156259
681.890	0.0156357
681.968	0.0155873
682.046	0.0156470
682.124	0.0156136
682.203	0.0154996
682.281	0.0155844
682.359	0.0158217
682.437	0.0157310
682.515	0.0155293
682.593	0.0157489
682.671	0.0158009
682.749	0.0155970
682.828	0.0155553
682.906	0.0155701
682.984	0.0156951
683.062	0.0156456
683.140	0.0156525
683.218	0.0156809
683.296	0.0156091
683.374	0.0157821
683.453	0.0156224
683.531	0.0156618
683.609	0.0157903
683.687	0.0155521
683.765	0.0157446
683.843	0.0156446
683.921	0.0156549
683.999	0.0157291
684.078	0.0155916
684.156	0.0155604
684.234	0.0156321
684.312	0.0156918
684.390	0.0156261
684.468	0.0156435
684.546	0.0156430
684.624	0.0155955
684.703	0.0156404
684.781	0.0156828
684.859	0.0156138
684.937	0.0156919
685.015	0.0155383
685.093	0.0156472
685.171	0.0156815
685.249	0.0155432
685.328	0.0156754
685.406	0.0155704
685.484	0.0156331
685.562	0.0156923
685.640	0.0155974
685.718	0.0155717
685.796	0.0154202
685.874	0.0155413
685.953	0.0156893
686.031	0.0155764
686.109	0.0155268
686.187	0.0156580
686.265	0.0155892
686.343	0.0156589
686.421	0.0155054
686.499	0.0156651
686.578	0.0156942
686.656	0.0155247
686.734	0.0156076
686.812	0.0156092
686.890	0.0155483
686.968	0.0155333
687.046	0.0157108
687.124	0.0156501
687.203	0.0156368
687.281	0.0157694
687.359	0.0157016
687.437	0.0156476
687.515	0.0155937
687.593	0.0156345
687.671	0.0156692
687.749	0.0156507
687.828	0.0156139
687.906	0.0155370
687.984	0.0156271
688.062	0.0155545
688.140	0.0156317
688.218	0.0156551
688.296	0.0156581
688.374	0.0157219
688.453	0.0156301
688.531	0.0155557
688.609	0.0156201
688.687	0.0155417
688.765	0.0154990
688.843	0.0155067
688.921	0.0157595
688.999	0.0155453
689.078	0.0156451
689.156	0.0158379
689.234	0.0155548
689.312	0.0156608
689.390	0.0155849
689.468	0.0155432
689.546	0.0156732
689.624	0.0155641
689.703	0.0155975
689.781	0.0156622
689.859	0.0157635
689.937	0.0157585
690.015	0.0156364
690.093	0.0156313
690.171	0.0154604
690.249	0.0155402
690.328	0.0156263
690.406	0.0155888
690.484	0.0156972
690.562	0.0156114
690.640	0.0156110
690.718	0.0156615
690.796	0.0155402
690.874	0.0156242
690.953	0.0155488
691.031	0.0156557
691.109	0.0157016
691.187	0.0156242
691.265	0.0155693
691.343	0.0156249
691.421	0.0156347
691.499	0.0156789
691.578	0.0156732
691.656	0.0156889
691.734	0.0157281
691.812	0.0155746
691.890	0.0156091
691.968	0.0157247
692.046	0.0156010
692.124	0.0156619
692.203	0.0156674
692.281	0.0157182
692.359	0.0156806
692.437	0.0156395
692.515	0.0156983
692.593	0.0157040
692.671	0.0156768
692.749	0.0156188
692.828	0.0156884
692.906	0.0155755
692.984	0.0155623
693.062	0.0158032
693.140	0.0156891
693.218	0.0156598
693.296	0.0155905
693.374	0.0156467
693.453	0.0155826
693.531	0.0155980
693.609	0.0157835
693.687	0.0156626
693.765	0.0156137
693.843	0.0158028
693.921	0.0156669
693.999	0.0156265
694.078	0.0155785
694.156	0.0156432
694.234	0.0156563
694.312	0.0156399
694.390	0.0156036
694.468	0.0155915
694.546	0.0155617
694.624	0.0156677
694.703	0.0156722
694.781	0.0156726
694.859	0.0156681
694.937	0.0156525
695.015	0.0155303
695.093	0.0157269
695.171	0.0157072
695.249	0.0157207
695.328	0.0157764
695.406	0.0156909
695.484	0.0156178
695.562	0.0156164
695.640	0.0155566
695.718	0.0156409
695.796	0.0156092
695.874	0.0155975
695.953	0.0156139
696.031	0.0156399
696.109	0.0156267
696.187	0.0156843
696.265	0.0156348
696.343	0.0155809
696.421	0.0156851
696.499	0.0157440
696.578	0.0156518
696.656	0.0156396
696.734	0.0157055
696.812	0.0156035
696.890	0.0156807
696.968	0.0155798
697.046	0.0157629
697.124	0.0156545
697.203	0.0155608
697.281	0.0157400
697.359	0.0156933
697.437	0.0157009
697.515	0.0157270
697.593	0.0156769
697.671	0.0156197
697.749	0.0157448
697.828	0.0157327
697.906	0.0156527
697.984	0.0158525
698.062	0.0157668
698.140	0.0156071
698.218	0.0155664
698.296	0.0157667
698.374	0.0157379
698.453	0.0155682
698.531	0.0157421
698.609	0.0157566
698.687	0.0157372
698.765	0.0157348
698.843	0.0155056
698.921	0.0156506
698.999	0.0157073
699.078	0.0157788
699.156	0.0156535
699.234	0.0154958
699.312	0.0155781
699.390	0.0157690
699.468	0.0157433
699.546	0.0156931
699.624	0.0155743
699.703	0.0155636
699.781	0.0156602
699.859	0.0156343
699.937	0.0157550
700.015	0.0157619
700.093	0.0156676
700.171	0.0156844
700.249	0.0156475
700.328	0.0156649
700.406	0.0157001
700.484	0.0157283
700.562	0.0157161
700.640	0.0156827
700.718	0.0155546
700.796	0.0157352
700.874	0.0157561
700.953	0.0157789
701.031	0.0157858
701.109	0.0157429
701.187	0.0158569
701.265	0.0156710
701.343	0.0156502
701.421	0.0158067
701.499	0.0157262
701.578	0.0156732
701.656	0.0157094
701.734	0.0157367
701.812	0.0157576
701.890	0.0156742
701.968	0.0156351
702.046	0.0157153
702.124	0.0158096
702.203	0.0157217
702.281	0.0156879
702.359	0.0155783
702.437	0.0156744
702.515	0.0156521
702.593	0.0156326
702.671	0.0155344
702.749	0.0156717
702.828	0.0156555
702.906	0.0156336
702.984	0.0155808
703.062	0.0156218
703.140	0.0155579
703.218	0.0155681
703.296	0.0155169
703.374	0.0155087
703.453	0.0154383
703.531	0.0154461
703.609	0.0156438
703.687	0.0154966
703.765	0.0154964
703.843	0.0154032
703.921	0.0154575
703.999	0.0154742
704.078	0.0155862
704.156	0.0155431
704.234	0.0155872
704.312	0.0155226
704.390	0.0154964
704.468	0.0155441
704.546	0.0153825
704.624	0.0155694
704.703	0.0156062
704.781	0.0155196
704.859	0.0155238
704.937	0.0155011
705.015	0.0156126
705.093	0.0156368
705.171	0.0155190
705.249	0.0155426
705.328	0.0154428
705.406	0.0154884
705.484	0.0155983
705.562	0.0156284
705.640	0.0154984
705.718	0.0154391
705.796	0.0154652
705.874	0.0154899
705.953	0.0155632
706.031	0.0154639
706.109	0.0154722
706.187	0.0154852
706.265	0.0154648
706.343	0.0155325
706.421	0.0153952
706.499	0.0155913
706.578	0.0153861
706.656	0.0154035
706.734	0.0153751
706.812	0.0154406
706.890	0.0155339
706.968	0.0155953
707.046	0.0153918
707.124	0.0154456
707.203	0.0154202
707.281	0.0154306
707.359	0.0154716
707.437	0.0154353
707.515	0.0153770
707.593	0.0154092
707.671	0.0154632
707.749	0.0154180
707.828	0.0153487
707.906	0.0154097
707.984	0.0154778
708.062	0.0153864
708.140	0.0153480
708.218	0.0155304
708.296	0.0154571
708.374	0.0154211
708.453	0.0154675
708.531	0.0154184
708.609	0.0153734
708.687	0.0153086
708.765	0.0153502
708.843	0.0153313
708.921	0.0154038
708.999	0.0155669
709.078	0.0154813
709.156	0.0154247
709.234	0.0154437
709.312	0.0154465
709.390	0.0154441
709.468	0.0154287
709.546	0.0155298
709.624	0.0155049
709.703	0.0155443
709.781	0.0154252
709.859	0.0153183
709.937	0.0154761
710.015	0.0153584
710.093	0.0153540
710.171	0.0154298
710.249	0.0154800
710.328	0.0152441
710.406	0.0154079
710.484	0.0154613
710.562	0.0154171
710.640	0.0153807
710.718	0.0154298
710.796	0.0153969
710.874	0.0154431
710.953	0.0153744
711.031	0.0152828
711.109	0.0153296
711.187	0.0154580
711.265	0.0154501
711.343	0.0154708
711.421	0.0153178
711.499	0.0154413
711.578	0.0155383
711.656	0.0154893
711.734	0.0154188
711.812	0.0155262
711.890	0.0154356
711.968	0.0153952
712.046	0.0155934
712.124	0.0155872
712.203	0.0154443
712.281	0.0153544
712.359	0.0155231
712.437	0.0155618
712.515	0.0155070
712.593	0.0155915
712.671	0.0155109
712.749	0.0153894
712.828	0.0154357
712.906	0.0155393
712.984	0.0154305
713.062	0.0153905
713.140	0.0155128
713.218	0.0154179
713.296	0.0154101
713.374	0.0155239
713.453	0.0154449
713.531	0.0154786
713.609	0.0153632
713.687	0.0154483
713.765	0.0155702
713.843	0.0154736
713.921	0.0154475
713.999	0.0155038
714.078	0.0154465
714.156	0.0155125
714.234	0.0155051
714.312	0.0156108
714.390	0.0154147
714.468	0.0154985
714.546	0.0154984
714.624	0.0155788
714.703	0.0153673
714.781	0.0156148
714.859	0.0154396
714.937	0.0154997
715.015	0.0154762
715.093	0.0154551
715.171	0.0156664
715.249	0.0156109
715.328	0.0156119
715.406	0.0155650
715.484	0.0155513
715.562	0.0155927
715.640	0.0155227
715.718	0.0156319
715.796	0.0156477
715.874	0.0157222
715.953	0.0156303
716.031	0.0155688
716.109	0.0156382
716.187	0.0157061
716.265	0.0155968
716.343	0.0158203
716.421	0.0157013
716.499	0.0157621
716.578	0.0158477
716.656	0.0155565
716.734	0.0158299
716.812	0.0158723
716.890	0.0157314
716.968	0.0157455
717.046	0.0156554
717.124	0.0157158
717.203	0.0157269
717.281	0.0156376
717.359	0.0158034
717.437	0.0156785
717.515	0.0156927
717.593	0.0156803
717.671	0.0157012
717.749	0.0156975
717.828	0.0156497
717.906	0.0156588
717.984	0.0157439
718.062	0.0156741
718.140	0.0156220
718.218	0.0157588
718.296	0.0158333
718.374	0.0157634
718.453	0.0158306
718.531	0.0156103
718.609	0.0156084
718.687	0.0157260
718.765	0.0157453
718.843	0.0157424
718.921	0.0156952
718.999	0.0157436
719.078	0.0156352
719.156	0.0155933
719.234	0.0157314
719.312	0.0157909
719.390	0.0156166
719.468	0.0156832
719.546	0.0157571
719.624	0.0156985
719.703	0.0156530
719.781	0.0157706
719.859	0.0157236
719.937	0.0156597
720.015	0.0158331
720.093	0.0157767
720.171	0.0157438
720.249	0.0158802
720.328	0.0156065
720.406	0.0156570
720.484	0.0157082
720.562	0.0156914
720.640	0.0156368
720.718	0.0156721
720.796	0.0157752
720.874	0.0158464
720.953	0.0156838
721.031	0.0156621
721.109	0.0156810
721.187	0.0157626
721.265	0.0157756
721.343	0.0157157
721.421	0.0156282
721.499	0.0157364
721.578	0.0156512
721.656	0.0156212
721.734	0.0157500
721.812	0.0157248
721.890	0.0157552
721.968	0.0156979
722.046	0.0157720
722.124	0.0157771
722.203	0.0157574
722.281	0.0157852
722.359	0.0158390
722.437	0.0158124
722.515	0.0157774
722.593	0.0158627
722.671	0.0159828
722.749	0.0158306
722.828	0.0156644
722.906	0.0157345
722.984	0.0158047
723.062	0.0157780
723.140	0.0158627
723.218	0.0156328
723.296	0.0155969
723.374	0.0157205
723.453	0.0157687
723.531	0.0156783
723.609	0.0157225
723.687	0.0157387
723.765	0.0156057
723.843	0.0157686
723.921	0.0157323
723.999	0.0156038
724.078	0.0156082
724.156	0.0157351
724.234	0.0157766
724.312	0.0155368
724.390	0.0157281
724.468	0.0157479
724.546	0.0155984
724.624	0.0156669
724.703	0.0156617
724.781	0.0157088
724.859	0.0157603
724.937	0.0155993
725.015	0.0156509
725.093	0.0158562
725.171	0.0156388
725.249	0.0156492
725.328	0.0156358
725.406	0.0156197
725.484	0.0157332
725.562	0.0157687
725.640	0.0156348
725.718	0.0156065
725.796	0.0156049
725.874	0.0155727
725.953	0.0156445
726.031	0.0157370
726.109	0.0157368
726.187	0.0156799
726.265	0.0156203
726.343	0.0156091
726.421	0.0156223
726.499	0.0158459
726.578	0.0156544
726.656	0.0157944
726.734	0.0156544
726.812	0.0157350
726.890	0.0157753
726.968	0.0156684
727.046	0.0156641
727.124	0.0157143
727.203	0.0156699
727.281	0.0157545
727.359	0.0157874
727.437	0.0158298
727.515	0.0156130
727.593	0.0157468
727.671	0.0155164
727.749	0.0156870
727.828	0.0155899
727.906	0.0156947
727.984	0.0156899
728.062	0.0155099
728.140	0.0156603
728.218	0.0155835
728.296	0.0155688
728.374	0.0155972
728.453	0.0155890
728.531	0.0157094
728.609	0.0155988
728.687	0.0156403
728.765	0.0155730
728.843	0.0153671
728.921	0.0154922
728.999	0.0155255
729.078	0.0156217
729.156	0.0155510
729.234	0.0154857
729.312	0.0154533
729.390	0.0153790
729.468	0.0154359
729.546	0.0154491
729.624	0.0154422
729.703	0.0153689
729.781	0.0154415
729.859	0.0154764
729.937	0.0153666
730.015	0.0153217
730.093	0.0153422
730.171	0.0154753
730.249	0.0154027
730.328	0.0154679
730.406	0.0154669
730.484	0.0155119
730.562	0.0153869
730.640	0.0154752
730.718	0.0155907
730.796	0.0154743
730.874	0.0153728
730.953	0.0153738
731.031	0.0154839
731.109	0.0155344
731.187	0.0154697
731.265	0.0154433
731.343	0.0154068
731.421	0.0154815
731.499	0.0154476
731.578	0.0155428
731.656	0.0153671
731.734	0.0154291
731.812	0.0154863
731.890	0.0154283
731.968	0.0154066
732.046	0.0154562
732.124	0.0153909
732.203	0.0153448
732.281	0.0153799
732.359	0.0155135
732.437	0.0154602
732.515	0.0155375
732.593	0.0153947
732.671	0.0154949
732.749	0.0155180
732.828	0.0153298
732.906	0.0154554
732.984	0.0154697
733.062	0.0154351
733.140	0.0154642
733.218	0.0154622
733.296	0.0154969
733.374	0.0155234
733.453	0.0155812
733.531	0.0155074
733.609	0.0154417
733.687	0.0156098
733.765	0.0155350
733.843	0.0156917
733.921	0.0154582
733.999	0.0155434
734.078	0.0156271
734.156	0.0155386
734.234	0.0156125
734.312	0.0155720
734.390	0.0155166
734.468	0.0155241
734.546	0.0155235
734.624	0.0155412
734.703	0.0156885
734.781	0.0156297
734.859	0.0155610
734.937	0.0156606
735.015	0.0155492
735.093	0.0154135
735.171	0.0155986
735.249	0.0156585
735.328	0.0155537
735.406	0.0155337
735.484	0.0155241
735.562	0.0156123
735.640	0.0156059
735.718	0.0156374
735.796	0.0156459
735.874	0.0156410
735.953	0.0155560
736.031	0.0155164
736.109	0.0153984
736.187	0.0156611
736.265	0.0156870
736.343	0.0156448
736.421	0.0156229
736.499	0.0155991
736.578	0.0156553
736.656	0.0158363
736.734	0.0157420
736.812	0.0156670
736.890	0.0157516
736.968	0.0156511
737.046	0.0155135
737.124	0.0156527
737.203	0.0156526
737.281	0.0155401
737.359	0.0157610
737.437	0.0156339
737.515	0.0155044
737.593	0.0155518
737.671	0.0156288
737.749	0.0157072
737.828	0.0155713
737.906	0.0155658
737.984	0.0154854
738.062	0.0155769
738.140	0.0154771
738.218	0.0156551
738.296	0.0155932
738.374	0.0155990
738.453	0.0157667
738.531	0.0155901
738.609	0.0154732
738.687	0.0155358
738.765	0.0155696
738.843	0.0155231
738.921	0.0155923
738.999	0.0155893
739.078	0.0155936
739.156	0.0156474
739.234	0.0155482
739.312	0.0154689
739.390	0.0155788
739.468	0.0155795
739.546	0.0155173
739.624	0.0155815
739.703	0.0156170
739.781	0.0156181
739.859	0.0154987
739.937	0.0155285
740.015	0.0156574
740.093	0.0156548
740.171	0.0157141
740.249	0.0156863
740.328	0.0157385
740.406	0.0155743
740.484	0.0157175
740.562	0.0156238
740.640	0.0156577
740.718	0.0156335
740.796	0.0156382
740.874	0.0156901
740.953	0.0157259
741.031	0.0157484
741.109	0.0156577
741.187	0.0157549
741.265	0.0158025
741.343	0.0158461
741.421	0.0157188
741.499	0.0156944
741.578	0.0156698
741.656	0.0157973
741.734	0.0157232
741.812	0.0156686
741.890	0.0156655
741.968	0.0158730
742.046	0.0158784
742.124	0.0159283
742.203	0.0159125
742.281	0.0158191
742.359	0.0157767
742.437	0.0158763
742.515	0.0157581
742.593	0.0158976
742.671	0.0158273
742.749	0.0157684
742.828	0.0158790
742.906	0.0158370
742.984	0.0157966
743.062	0.0158680
743.140	0.0157654
743.218	0.0157536
743.296	0.0158461
743.374	0.0157811
743.453	0.0159019
743.531	0.0158823
743.609	0.0157191
743.687	0.0158483
743.765	0.0156595
743.843	0.0158051
743.921	0.0159173
743.999	0.0157439
744.078	0.0156647
744.156	0.0157434
744.234	0.0158598
744.312	0.0157446
744.390	0.0158280
744.468	0.0158812
744.546	0.0157904
744.624	0.0158504
744.703	0.0159073
744.781	0.0159721
744.859	0.0158972
744.937	0.0157781
745.015	0.0158176
745.093	0.0158487
745.171	0.0159692
745.249	0.0157352
745.328	0.0157873
745.406	0.0158481
745.484	0.0158351
745.562	0.0159661
745.640	0.0159885
745.718	0.0158756
745.796	0.0159767
745.874	0.0159130
745.953	0.0159214
746.031	0.0159249
746.109	0.0159470
746.187	0.0158461
746.265	0.0159300
746.343	0.0158646
746.421	0.0157673
746.499	0.0159206
746.578	0.0158662
746.656	0.0157999
746.734	0.0156877
746.812	0.0157217
746.890	0.0157442
746.968	0.0156551
747.046	0.0157905
747.124	0.0158086
747.203	0.0157803
747.281	0.0158202
747.359	0.0156454
747.437	0.0156151
747.515	0.0157732
747.593	0.0157287
747.671	0.0158446
747.749	0.0157510
747.828	0.0158046
747.906	0.0159271
747.984	0.0158791
748.062	0.0158277
748.140	0.0158130
748.218	0.0158388
748.296	0.0159022
748.374	0.0157996
748.453	0.0158465
748.531	0.0156710
748.609	0.0156600
748.687	0.0158350
748.765	0.0157893
748.843	0.0158498
748.921	0.0157015
748.999	0.0156364
749.078	0.0157692
749.156	0.0157539
749.234	0.0156241
749.312	0.0157941
749.390	0.0156830
749.468	0.0154684
749.546	0.0156042
749.624	0.0157422
749.703	0.0156496
749.781	0.0156675
749.859	0.0155640
749.937	0.0156483
750.015	0.0156702
750.093	0.0156199
750.171	0.0155302
750.249	0.0155431
750.328	0.0156971
750.406	0.0157149
750.484	0.0155815
750.562	0.0156270
750.640	0.0155967
750.718	0.0154887
750.796	0.0156191
750.874	0.0155659
750.953	0.0155119
751.031	0.0155959
751.109	0.0155849
751.187	0.0155110
751.265	0.0155560
751.343	0.0157005
751.421	0.0156572
751.499	0.0156042
751.578	0.0156154
751.656	0.0155579
751.734	0.0155305
751.812	0.0155349
751.890	0.0155389
751.968	0.0156018
752.046	0.0155801
752.124	0.0156569
752.203	0.0156763
752.281	0.0156154
752.359	0.0157709
752.437	0.0158471
752.515	0.0156873
752.593	0.0157875
752.671	0.0157611
752.749	0.0157967
752.828	0.0155767
752.906	0.0155933
752.984	0.0156615
753.062	0.0156065
753.140	0.0155637
753.218	0.0155415
753.296	0.0154012
753.374	0.0155005
753.453	0.0156764
753.531	0.0155357
753.609	0.0156583
753.687	0.0156261
753.765	0.0155540
753.843	0.0156865
753.921	0.0155956
753.999	0.0156406
754.078	0.0156917
754.156	0.0155518
754.234	0.0155615
754.312	0.0156945
754.390	0.0155087
754.468	0.0155335
754.546	0.0154708
754.624	0.0156023
754.703	0.0155428
754.781	0.0154812
754.859	0.0155199
754.937	0.0154685
755.015	0.0156341
755.093	0.0155367
755.171	0.0156731
755.249	0.0156039
755.328	0.0155665
755.406	0.0154463
755.484	0.0156615
755.562	0.0157275
755.640	0.0156153
755.718	0.0156532
755.796	0.0157279
755.874	0.0156449
755.953	0.0156847
756.031	0.0156882
756.109	0.0155089
756.187	0.0156146
756.265	0.0156602
756.343	0.0157643
756.421	0.0157923
756.499	0.0157700
756.578	0.0157360
756.656	0.0157133
756.734	0.0157391
756.812	0.0157627
756.890	0.0156119
756.968	0.0156730
757.046	0.0158170
757.124	0.0158444
757.203	0.0158963
757.281	0.0158314
757.359	0.0157156
757.437	0.0157407
757.515	0.0157996
757.593	0.0157487
757.671	0.0157867
757.749	0.0156071
757.828	0.0156683
757.906	0.0156258
757.984	0.0156741
758.062	0.0156638
758.140	0.0155601
758.218	0.0155354
758.296	0.0155798
758.374	0.0155142
758.453	0.0155549
758.531	0.0156322
758.609	0.0156242
758.687	0.0155927
758.765	0.0155244
758.843	0.0154166
758.921	0.0156779
758.999	0.0155507
759.078	0.0154845
759.156	0.0155505
759.234	0.0155508
759.312	0.0156145
759.390	0.0157484
759.468	0.0156203
759.546	0.0155601
759.624	0.0153722
759.703	0.0156948
759.781	0.0156929
759.859	0.0154447
759.937	0.0156110
760.015	0.0156846
760.093	0.0155686
760.171	0.0156031
760.249	0.0156080
760.328	0.0157617
760.406	0.0157206
760.484	0.0157047
760.562	0.0157016
760.640	0.0157181
760.718	0.0156962
760.796	0.0157867
760.874	0.0158077
760.953	0.0157109
761.031	0.0159443
761.109	0.0157240
761.187	0.0157293
761.265	0.0155363
761.343	0.0157064
761.421	0.0156771
761.499	0.0156304
761.578	0.0157954
761.656	0.0157922
761.734	0.0156148
761.812	0.0156713
761.890	0.0158034
761.968	0.0157410
762.046	0.0157521
762.124	0.0157619
762.203	0.0157268
762.281	0.0156990
762.359	0.0156570
762.437	0.0158731
762.515	0.0156809
762.593	0.0157891
762.671	0.0157277
762.749	0.0157469
762.828	0.0157298
762.906	0.0157961
762.984	0.0157777
763.062	0.0156348
763.140	0.0156418
763.218	0.0157174
763.296	0.0156589
763.374	0.0157780
763.453	0.0157764
763.531	0.0157047
763.609	0.0157263
763.687	0.0156758
763.765	0.0156779
763.843	0.0157142
763.921	0.0155823
763.999	0.0156445
764.078	0.0158567
764.156	0.0157056
764.234	0.0157646
764.312	0.0157054
764.390	0.0157355
764.468	0.0159515
764.546	0.0157936
764.624	0.0157796
764.703	0.0156754
764.781	0.0158392
764.859	0.0158603
764.937	0.0157212
765.015	0.0158590
765.093	0.0159975
765.171	0.0158664
765.249	0.0157777
765.328	0.0157291
765.406	0.0156994
765.484	0.0157555
765.562	0.0157056
765.640	0.0157111
765.718	0.0158629
765.796	0.0157355
765.874	0.0155975
765.953	0.0156820
766.031	0.0158399
766.109	0.0157304
766.187	0.0157963
766.265	0.0157026
766.343	0.0157581
766.421	0.0157685
766.499	0.0156079
766.578	0.0156353
766.656	0.0156771
766.734	0.0157094
766.812	0.0156738
766.890	0.0158495
766.968	0.0158215
767.046	0.0156256
767.124	0.0158570
767.203	0.0158524
767.281	0.0157574
767.359	0.0157354
767.437	0.0156804
767.515	0.0156940
767.593	0.0157145
767.671	0.0156739
767.749	0.0156690
767.828	0.0156136
767.906	0.0155192
767.984	0.0154863
768.062	0.0154428
768.140	0.0155158
768.218	0.0156495
768.296	0.0155473
768.374	0.0154157
768.453	0.0154939
768.531	0.0153106
768.609	0.0155338
768.687	0.0154517
768.765	0.0154747
768.843	0.0154091
768.921	0.0154250
768.999	0.0155036
769.078	0.0156689
769.156	0.0156416
769.234	0.0156377
769.312	0.0155339
769.390	0.0156664
769.468	0.0157140
769.546	0.0156570
769.624	0.0158041
769.703	0.0157185
769.781	0.0159435
769.859	0.0157180
769.937	0.0158113
770.015	0.0159058
770.093	0.0159721
770.171	0.0159310
770.249	0.0157643
770.328	0.0158253
770.406	0.0157829
770.484	0.0157737
770.562	0.0158309
770.640	0.0158908
770.718	0.0156923
770.796	0.0156895
770.874	0.0156393
770.953	0.0156879
771.031	0.0157589
771.109	0.0154867
771.187	0.0156353
771.265	0.0155639
771.343	0.0153910
771.421	0.0156259
771.499	0.0155414
771.578	0.0155968
771.656	0.0154514
771.734	0.0154883
771.812	0.0154935
771.890	0.0155151
771.968	0.0155736
772.046	0.0153905
772.124	0.0155606
772.203	0.0155006
772.281	0.0153951
772.359	0.0155316
772.437	0.0154124
772.515	0.0153970
772.593	0.0156069
772.671	0.0155676
772.749	0.0154356
772.828	0.0155556
772.906	0.0155794
772.984	0.0155809
773.062	0.0154622
773.140	0.0154866
773.218	0.0155746
773.296	0.0155204
773.374	0.0156390
773.453	0.0155932
773.531	0.0155642
773.609	0.0157597
773.687	0.0155357
773.765	0.0155218
773.843	0.0156552
773.921	0.0156472
773.999	0.0155166
774.078	0.0154829
774.156	0.0156017
774.234	0.0156078
774.312	0.0155326
774.390	0.0154390
774.468	0.0155089
774.546	0.0155894
774.624	0.0154831
774.703	0.0155828
774.781	0.0155891
774.859	0.0155077
774.937	0.0154594
775.015	0.0154238
775.093	0.0154698
775.171	0.0155092
775.249	0.0153629
775.328	0.0154268
775.406	0.0154433
775.484	0.0155412
775.562	0.0155664
775.640	0.0156059
775.718	0.0156375
775.796	0.0155389
775.874	0.0155428
775.953	0.0156023
776.031	0.0156378
776.109	0.0156628
776.187	0.0155038
776.265	0.0155576
776.343	0.0154134
776.421	0.0154100
776.499	0.0155321
776.578	0.0155756
776.656	0.0154782
776.734	0.0155898
776.812	0.0155951
776.890	0.0155408
776.968	0.0156550
777.046	0.0155331
777.124	0.0156597
777.203	0.0157549
777.281	0.0156268
777.359	0.0157976
777.437	0.0157146
777.515	0.0156542
777.593	0.0156899
777.671	0.0155759
777.749	0.0156053
777.828	0.0156221
777.906	0.0155253
777.984	0.0155721
778.062	0.0155126
778.140	0.0155598
778.218	0.0153493
778.296	0.0153604
778.374	0.0155516
778.453	0.0154510
778.531	0.0154224
778.609	0.0154260
778.687	0.0155715
778.765	0.0156036
778.843	0.0155011
778.921	0.0154295
778.999	0.0154250
779.078	0.0155182
779.156	0.0156724
779.234	0.0156583
779.312	0.0156215
779.390	0.0156829
779.468	0.0155757
779.546	0.0157063
779.624	0.0159112
779.703	0.0158681
779.781	0.0157323
779.859	0.0158022
779.937	0.0158054
780.015	0.0159001
780.093	0.0158687
780.171	0.0157144
780.249	0.0157883
780.328	0.0157697
780.406	0.0155944
780.484	0.0157472
780.562	0.0157109
780.640	0.0157182
780.718	0.0156676
780.796	0.0156758
780.874	0.0156528
780.953	0.0156390
781.031	0.0156398
781.109	0.0156137
781.187	0.0157272
781.265	0.0157003
781.343	0.0156123
781.421	0.0156867
781.499	0.0155816
781.578	0.0154562
781.656	0.0155254
781.734	0.0155144
781.812	0.0155168
781.890	0.0157184
781.968	0.0153884
782.046	0.0154984
782.124	0.0153759
782.203	0.0151725
782.281	0.0153432
782.359	0.0152865
782.437	0.0154578
782.515	0.0155547
782.593	0.0157026
782.671	0.0156092
782.749	0.0154465
782.828	0.0156937
782.906	0.0155454
782.984	0.0156382
783.062	0.0157143
783.140	0.0156571
783.218	0.0156090
783.296	0.0157314
783.374	0.0158712
783.453	0.0155669
783.531	0.0154889
783.609	0.0157159
783.687	0.0156654
783.765	0.0157452
783.843	0.0156289
783.921	0.0155815
783.999	0.0157695
784.078	0.0155486
784.156	0.0156332
784.234	0.0156915
784.312	0.0155283
784.390	0.0155552
784.468	0.0157413
784.546	0.0156594
784.624	0.0156216
784.703	0.0156240
784.781	0.0156182
784.859	0.0156575
784.937	0.0156704
785.015	0.0158260
785.093	0.0157360
785.171	0.0157313
785.249	0.0158022
785.328	0.0158073
785.406	0.0158379
785.484	0.0157858
785.562	0.0157732
785.640	0.0155137
785.718	0.0156946
785.796	0.0157818
785.874	0.0157632
785.953	0.0156818
786.031	0.0156229
786.109	0.0156677
786.187	0.0157178
786.265	0.0157050
786.343	0.0156363
786.421	0.0154935
786.499	0.0155977
786.578	0.0155060
786.656	0.0156392
786.734	0.0155608
786.812	0.0155610
786.890	0.0155210
786.968	0.0155953
787.046	0.0155267
787.124	0.0154994
787.203	0.0157231
787.281	0.0155905
787.359	0.0155756
787.437	0.0155169
787.515	0.0155894
787.593	0.0155679
787.671	0.0157566
787.749	0.0155022
787.828	0.0153994
787.906	0.0156264
787.984	0.0155423
788.062	0.0155450
788.140	0.0156643
788.218	0.0154875
788.296	0.0155971
788.374	0.0156144
788.453	0.0155527
788.531	0.0156891
788.609	0.0156025
788.687	0.0154665
788.765	0.0156171
788.843	0.0155534
788.921	0.0156190
788.999	0.0156047
789.078	0.0153909
789.156	0.0155954
789.234	0.0156561
789.312	0.0156208
789.390	0.0156522
789.468	0.0156927
789.546	0.0155949
789.624	0.0157113
789.703	0.0156660
789.781	0.0156293
789.859	0.0156715
789.937	0.0154977
790.015	0.0157175
790.093	0.0157627
790.171	0.0157982
790.249	0.0155839
790.328	0.0156242
790.406	0.0157670
790.484	0.0156533
790.562	0.0157994
790.640	0.0156963
790.718	0.0156660
790.796	0.0155316
790.874	0.0156315
790.953	0.0157907
791.031	0.0154784
791.109	0.0154398
791.187	0.0154321
791.265	0.0153769
791.343	0.0154176
791.421	0.0153828
791.499	0.0153643
791.578	0.0153458
791.656	0.0151551
791.734	0.0152457
791.812	0.0151944
791.890	0.0152614
791.968	0.0153824
792.046	0.0153008
792.124	0.0152295
792.203	0.0152101
792.281	0.0152819
792.359	0.0153131
792.437	0.0153770
792.515	0.0153794
792.593	0.0152377
792.671	0.0153372
792.749	0.0154583
792.828	0.0154453
792.906	0.0155671
792.984	0.0155103
793.062	0.0155316
793.140	0.0155679
793.218	0.0156085
793.296	0.0156240
793.374	0.0157847
793.453	0.0155505
793.531	0.0156502
793.609	0.0155840
793.687	0.0156134
793.765	0.0158138
793.843	0.0158250
793.921	0.0157608
793.999	0.0157603
794.078	0.0156860
794.156	0.0157182
794.234	0.0157690
794.312	0.0157399
794.390	0.0157143
794.468	0.0157293
794.546	0.0156245
794.624	0.0156971
794.703	0.0157552
794.781	0.0157896
794.859	0.0156876
794.937	0.0156208
795.015	0.0157127
795.093	0.0156772
795.171	0.0155299
795.249	0.0155152
795.328	0.0156425
795.406	0.0156589
795.484	0.0155875
795.562	0.0154122
795.640	0.0153751
795.718	0.0153691
795.796	0.0153458
795.874	0.0155437
795.953	0.0155219
796.031	0.0154944
796.109	0.0153996
796.187	0.0153522
796.265	0.0154625
796.343	0.0153613
796.421	0.0153850
796.499	0.0155109
796.578	0.0155469
796.656	0.0153746
796.734	0.0155041
796.812	0.0155331
796.890	0.0155584
796.968	0.0154711
797.046	0.0156641
797.124	0.0155615
797.203	0.0155360
797.281	0.0156004
797.359	0.0156444
797.437	0.0156611
797.515	0.0156676
797.593	0.0157396
797.671	0.0157226
797.749	0.0157117
797.828	0.0157457
797.906	0.0157855
797.984	0.0157344
798.062	0.0156845
798.140	0.0157998
798.218	0.0157477
798.296	0.0156754
798.374	0.0156661
798.453	0.0155673
798.531	0.0158064
798.609	0.0157026
798.687	0.0156486
798.765	0.0156624
798.843	0.0155977
798.921	0.0156931
798.999	0.0156734
799.078	0.0155365
799.156	0.0156304
799.234	0.0156670
799.312	0.0155237
799.390	0.0156380
799.468	0.0157549
799.546	0.0157585
799.624	0.0157355
799.703	0.0156540
799.781	0.0156875
799.859	0.0156580
799.937	0.0156095
800.015	0.0156142
800.093	0.0156747
800.171	0.0156149
800.249	0.0155398
800.328	0.0155669
800.406	0.0156489
800.484	0.0157251
800.562	0.0156828
800.640	0.0156454
800.718	0.0155470
800.796	0.0155302
800.874	0.0155702
800.953	0.0156351
801.031	0.0156501
801.109	0.0155500
801.187	0.0155888
801.265	0.0156198
801.343	0.0156210
801.421	0.0156674
801.499	0.0155994
801.578	0.0156216
801.656	0.0155159
801.734	0.0155418
801.812	0.0154780
801.890	0.0157085
801.968	0.0156274
802.046	0.0155607
802.124	0.0154506
802.203	0.0155574
802.281	0.0155041
802.359	0.0156413
802.437	0.0155830
802.515	0.0154003
802.593	0.0155414
802.671	0.0155468
802.749	0.0155642
802.828	0.0154757
802.906	0.0156381
802.984	0.0156538
803.062	0.0156329
803.140	0.0157409
803.218	0.0156055
803.296	0.0157887
803.374	0.0157061
803.453	0.0156870
803.531	0.0158471
803.609	0.0156395
803.687	0.0157644
803.765	0.0157178
803.843	0.0157072
803.921	0.0157348
803.999	0.0156854
804.078	0.0156946
804.156	0.0157800
804.234	0.0157798
804.312	0.0158185
804.390	0.0158401
804.468	0.0157099
804.546	0.0156979
804.624	0.0158280
804.703	0.0158012
804.781	0.0157509
804.859	0.0156828
804.937	0.0157630
805.015	0.0157475
805.093	0.0157046
805.171	0.0155331
805.249	0.0156390
805.328	0.0157023
805.406	0.0156233
805.484	0.0154002
805.562	0.0156767
805.640	0.0155347
805.718	0.0154345
805.796	0.0154906
805.874	0.0155442
805.953	0.0155363
806.031	0.0154591
806.109	0.0154492
806.187	0.0156017
806.265	0.0155977
806.343	0.0153738
806.421	0.0154663
806.499	0.0154588
806.578	0.0155012
806.656	0.0156361
806.734	0.0156149
806.812	0.0156393
806.890	0.0159151
806.968	0.0157610
807.046	0.0157386
807.124	0.0157590
807.203	0.0158372
807.281	0.0158794
807.359	0.0157357
807.437	0.0158199
807.515	0.0157504
807.593	0.0158113
807.671	0.0157307
807.749	0.0157764
807.828	0.0157977
807.906	0.0157432
807.984	0.0156881
808.062	0.0158225
808.140	0.0158604
808.218	0.0157812
808.296	0.0158094
808.374	0.0159145
808.453	0.0157229
808.531	0.0158035
808.609	0.0157771
808.687	0.0158105
808.765	0.0157845
808.843	0.0157061
808.921	0.0156491
808.999	0.0156969
809.078	0.0157349
809.156	0.0156045
809.234	0.0155363
809.312	0.0156382
809.390	0.0156755
809.468	0.0155862
809.546	0.0155752
809.624	0.0157765
809.703	0.0156171
809.781	0.0156157
809.859	0.0155518
809.937	0.0155787
810.015	0.0155569
810.093	0.0155534
810.171	0.0154549
810.249	0.0155806
810.328	0.0155826
810.406	0.0156367
810.484	0.0154797
810.562	0.0154923
810.640	0.0155580
810.718	0.0155236
810.796	0.0155803
810.874	0.0154595
810.953	0.0154700
811.031	0.0154641
811.109	0.0154610
811.187	0.0156470
811.265	0.0156282
811.343	0.0155643
811.421	0.0154910
811.499	0.0156384
811.578	0.0156865
811.656	0.0157422
811.734	0.0156921
811.812	0.0156377
811.890	0.0155273
811.968	0.0156680
812.046	0.0158391
812.124	0.0156668
812.203	0.0156654
812.281	0.0157549
812.359	0.0158269
812.437	0.0155715
812.515	0.0155846
812.593	0.0155127
812.671	0.0156367
812.749	0.0157515
812.828	0.0155740
812.906	0.0156517
812.984	0.0156087
813.062	0.0156544
813.140	0.0155666
813.218	0.0156378
813.296	0.0155798
813.374	0.0156789
813.453	0.0156131
813.531	0.0155489
813.609	0.0156735
813.687	0.0155795
813.765	0.0157194
813.843	0.0155972
813.921	0.0156437
813.999	0.0156078
814.078	0.0155038
814.156	0.0154449
814.234	0.0155280
814.312	0.0155206
814.390	0.0154792
814.468	0.0156391
814.546	0.0154720
814.624	0.0154551
814.703	0.0154762
814.781	0.0154333
814.859	0.0154671
814.937	0.0155544
815.015	0.0153608
815.093	0.0155062
815.171	0.0154803
815.249	0.0154686
815.328	0.0155244
815.406	0.0154868
815.484	0.0154240
815.562	0.0156123
815.640	0.0155421
815.718	0.0154907
815.796	0.0156139
815.874	0.0156152
815.953	0.0158071
816.031	0.0158495
816.109	0.0157578
816.187	0.0158399
816.265	0.0155569
816.343	0.0158247
816.421	0.0158425
816.499	0.0157983
816.578	0.0157456
816.656	0.0157052
816.734	0.0158723
816.812	0.0158636
816.890	0.0159357
816.968	0.0159768
817.046	0.0158819
817.124	0.0157945
817.203	0.0158630
817.281	0.0157387
817.359	0.0158312
817.437	0.0156758
817.515	0.0155938
817.593	0.0154858
817.671	0.0155620
817.749	0.0154768
817.828	0.0155344
817.906	0.0154718
817.984	0.0153314
818.062	0.0154942
818.140	0.0154259
818.218	0.0154285
818.296	0.0155705
818.374	0.0155461
818.453	0.0156578
818.531	0.0155756
818.609	0.0154948
818.687	0.0155932
818.765	0.0155455
818.843	0.0155489
818.921	0.0156268
818.999	0.0156190
819.078	0.0156573
819.156	0.0158160
819.234	0.0156934
819.312	0.0155350
819.390	0.0157027
819.468	0.0157943
819.546	0.0157986
819.624	0.0156704
819.703	0.0157464
819.781	0.0158515
819.859	0.0157765
819.937	0.0157320
820.015	0.0159773
820.093	0.0159941
820.171	0.0158096
820.249	0.0160077
820.328	0.0160299
820.406	0.0159682
820.484	0.0158287
820.562	0.0158047
820.640	0.0158270
820.718	0.0157116
820.796	0.0156750
820.874	0.0156905
820.953	0.0158667
821.031	0.0157142
821.109	0.0156693
821.187	0.0156312
821.265	0.0158140
821.343	0.0158018
821.421	0.0156982
821.499	0.0157242
821.578	0.0158350
821.656	0.0158093
821.734	0.0157398
821.812	0.0158810
821.890	0.0158963
821.968	0.0157413
822.046	0.0157317
822.124	0.0158672
822.203	0.0157943
822.281	0.0157380
822.359	0.0157236
822.437	0.0156767
822.515	0.0159515
822.593	0.0158289
822.671	0.0158811
822.749	0.0158637
822.828	0.0159216
822.906	0.0160056
822.984	0.0158566
823.062	0.0157984
823.140	0.0157851
823.218	0.0159589
823.296	0.0158135
823.374	0.0157799
823.453	0.0156934
823.531	0.0158548
823.609	0.0158179
823.687	0.0156612
823.765	0.0158374
823.843	0.0158804
823.921	0.0158347
823.999	0.0156772
824.078	0.0158307
824.156	0.0157142
824.234	0.0157576
824.312	0.0156922
824.390	0.0157343
824.468	0.0156041
824.546	0.0155640
824.624	0.0156843
824.703	0.0155489
824.781	0.0156049
824.859	0.0156464
824.937	0.0157189
825.015	0.0154919
825.093	0.0156160
825.171	0.0157352
825.249	0.0157303
825.328	0.0158282
825.406	0.0159512
825.484	0.0159176
825.562	0.0159071
825.640	0.0159077
825.718	0.0159399
825.796	0.0159228
825.874	0.0160108
825.953	0.0160990
826.031	0.0158400
826.109	0.0158942
826.187	0.0158934
826.265	0.0159455
826.343	0.0158572
826.421	0.0158318
826.499	0.0157345
826.578	0.0159167
826.656	0.0158019
826.734	0.0157379
826.812	0.0157874
826.890	0.0158215
826.968	0.0157867
827.046	0.0156699
827.124	0.0157056
827.203	0.0157113
827.281	0.0156113
827.359	0.0156065
827.437	0.0155748
827.515	0.0155412
827.593	0.0154499
827.671	0.0154677
827.749	0.0155507
827.828	0.0154142
827.906	0.0154140
827.984	0.0154173
828.062	0.0155853
828.140	0.0155481
828.218	0.0154868
828.296	0.0154269
828.374	0.0154935
828.453	0.0155949
828.531	0.0156699
828.609	0.0157232
828.687	0.0157040
828.765	0.0157872
828.843	0.0157649
828.921	0.0157606
828.999	0.0156348
829.078	0.0156756
829.156	0.0156835
829.234	0.0156072
829.312	0.0157417
829.390	0.0156115
829.468	0.0156640
829.546	0.0157211
829.624	0.0155591
829.703	0.0155066
829.781	0.0156385
829.859	0.0156164
829.937	0.0154090
830.015	0.0155907
830.093	0.0156554
830.171	0.0155423
830.249	0.0155728
830.328	0.0156599
830.406	0.0155923
830.484	0.0156465
830.562	0.0156049
830.640	0.0157706
830.718	0.0158091
830.796	0.0156411
830.874	0.0156846
830.953	0.0158106
831.031	0.0157884
831.109	0.0157605
831.187	0.0157558
831.265	0.0156219
831.343	0.0157628
831.421	0.0157297
831.499	0.0155952
831.578	0.0153905
831.656	0.0154539
831.734	0.0153977
831.812	0.0153758
831.890	0.0150829
831.968	0.0153779
832.046	0.0152557
832.124	0.0150771
832.203	0.0152668
832.281	0.0152885
832.359	0.0152757
832.437	0.0152290
832.515	0.0153439
832.593	0.0154139
832.671	0.0154180
832.749	0.0154346
832.828	0.0153439
832.906	0.0155323
832.984	0.0154852
833.062	0.0157500
833.140	0.0157749
833.218	0.0158768
833.296	0.0158652
833.374	0.0159391
833.453	0.0160023
833.531	0.0159175
833.609	0.0159723
833.687	0.0159667
833.765	0.0159324
833.843	0.0158979
833.921	0.0158416
833.999	0.0159437
834.078	0.0157168
834.156	0.0156594
834.234	0.0156683
834.312	0.0155716
834.390	0.0153641
834.468	0.0153858
834.546	0.0154209
834.624	0.0152811
834.703	0.0153693
834.781	0.0153374
834.859	0.0152197
834.937	0.0153664
835.015	0.0153318
835.093	0.0152906
835.171	0.0153059
835.249	0.0151656
835.328	0.0152417
835.406	0.0153128
835.484	0.0154240
835.562	0.0154779
835.640	0.0154177
835.718	0.0155344
835.796	0.0155457
835.874	0.0155380
835.953	0.0157664
836.031	0.0158835
836.109	0.0156794
836.187	0.0158848
836.265	0.0158214
836.343	0.0158403
836.421	0.0160018
836.499	0.0160458
836.578	0.0160066
836.656	0.0159727
836.734	0.0160207
836.812	0.0160260
836.890	0.0159372
836.968	0.0159422
837.046	0.0158718
837.124	0.0158090
837.203	0.0157195
837.281	0.0157198
837.359	0.0156474
837.437	0.0156258
837.515	0.0155786
837.593	0.0154386
837.671	0.0154103
837.749	0.0154044
837.828	0.0153541
837.906	0.0155045
837.984	0.0154459
838.062	0.0154400
838.140	0.0154945
838.218	0.0154174
838.296	0.0156403
838.374	0.0155499
838.453	0.0154588
838.531	0.0155952
838.609	0.0158212
838.687	0.0155656
838.765	0.0157298
838.843	0.0158238
838.921	0.0157323
838.999	0.0156915
839.078	0.0158760
839.156	0.0158145
839.234	0.0158474
839.312	0.0159608
839.390	0.0160258
839.468	0.0159760
839.546	0.0158778
839.624	0.0159021
839.703	0.0159128
839.781	0.0158894
839.859	0.0156377
839.937	0.0157055
840.015	0.0158012
840.093	0.0156863
840.171	0.0155331
840.249	0.0155247
840.328	0.0154514
840.406	0.0156298
840.484	0.0155120
840.562	0.0154442
840.640	0.0154681
840.718	0.0155183
840.796	0.0156687
840.874	0.0154488
840.953	0.0156196
841.031	0.0155320
841.109	0.0156010
841.187	0.0156839
841.265	0.0156898
841.343	0.0157041
841.421	0.0156842
841.499	0.0156709
841.578	0.0156974
841.656	0.0157323
841.734	0.0158112
841.812	0.0158293
841.890	0.0155971
841.968	0.0157870
842.046	0.0156495
842.124	0.0156988
842.203	0.0155718
842.281	0.0156321
842.359	0.0155081
842.437	0.0157032
842.515	0.0155507
842.593	0.0155653
842.671	0.0154482
842.749	0.0155412
842.828	0.0155531
842.906	0.0155727
842.984	0.0154923
843.062	0.0156179
843.140	0.0152927
843.218	0.0154303
843.296	0.0155870
843.374	0.0155235
843.453	0.0155770
843.531	0.0156236
843.609	0.0155932
843.687	0.0156139
843.765	0.0156323
843.843	0.0157875
843.921	0.0158793
843.999	0.0156076
844.078	0.0156996
844.156	0.0156826
844.234	0.0158252
844.312	0.0156432
844.390	0.0157552
844.468	0.0157733
844.546	0.0157807
844.624	0.0157578
844.703	0.0157838
844.781	0.0157877
844.859	0.0156081
844.937	0.0155859
845.015	0.0157198
845.093	0.0157016
845.171	0.0155422
845.249	0.0156447
845.328	0.0156776
845.406	0.0155329
845.484	0.0155673
845.562	0.0157027
845.640	0.0155156
845.718	0.0154554
845.796	0.0153474
845.874	0.0155149
845.953	0.0155324
846.031	0.0156577
846.109	0.0156485
846.187	0.0156377
846.265	0.0155189
846.343	0.0157272
846.421	0.0157325
846.499	0.0158337
846.578	0.0157494
846.656	0.0157786
846.734	0.0158332
846.812	0.0156226
846.890	0.0156064
846.968	0.0157405
847.046	0.0157869
847.124	0.0157352
847.203	0.0155952
847.281	0.0155867
847.359	0.0156549
847.437	0.0156273
847.515	0.0156150
847.593	0.0157069
847.671	0.0156110
847.749	0.0156158
847.828	0.0156649
847.906	0.0156911
847.984	0.0155954
848.062	0.0156114
848.140	0.0158364
848.218	0.0155811
848.296	0.0157881
848.374	0.0157700
848.453	0.0156831
848.531	0.0156622
848.609	0.0157993
848.687	0.0156497
848.765	0.0155592
848.843	0.0157138
848.921	0.0157199
848.999	0.0157193
849.078	0.0158543
849.156	0.0156236
849.234	0.0155850
849.312	0.0157923
849.390	0.0157489
849.468	0.0158114
849.546	0.0156627
849.624	0.0158051
849.703	0.0157411
849.781	0.0156551
849.859	0.0157061
849.937	0.0156655
850.015	0.0156806
850.093	0.0157919
850.171	0.0156976
850.249	0.0158038
850.328	0.0156957
850.406	0.0155923
850.484	0.0155738
850.562	0.0155383
850.640	0.0154533
850.718	0.0155966
850.796	0.0154974
850.874	0.0155576
850.953	0.0154559
851.031	0.0154583
851.109	0.0154874
851.187	0.0155038
851.265	0.0154502
851.343	0.0155882
851.421	0.0155537
851.499	0.0154671
851.578	0.0157085
851.656	0.0156370
851.734	0.0156011
851.812	0.0157268
851.890	0.0156296
851.968	0.0157517
852.046	0.0157594
852.124	0.0157182
852.203	0.0158519
852.281	0.0158622
852.359	0.0156943
852.437	0.0158183
852.515	0.0158353
852.593	0.0156054
852.671	0.0157787
852.749	0.0158523
852.828	0.0157559
852.906	0.0156528
852.984	0.0157757
853.062	0.0157088
853.140	0.0157552
853.218	0.0157296
853.296	0.0156271
853.374	0.0156973
853.453	0.0156576
853.531	0.0156593
853.609	0.0155210
853.687	0.0155166
853.765	0.0155251
853.843	0.0153285
853.921	0.0153594
853.999	0.0155096
854.078	0.0154666
854.156	0.0153662
854.234	0.0153613
854.312	0.0153671
854.390	0.0154156
854.468	0.0152287
854.546	0.0153584
854.624	0.0153850
854.703	0.0153511
854.781	0.0153067
854.859	0.0154092
854.937	0.0154321
855.015	0.0154183
855.093	0.0154013
855.171	0.0154282
855.249	0.0154308
855.328	0.0155104
855.406	0.0156897
855.484	0.0154906
855.562	0.0155907
855.640	0.0156634
855.718	0.0155846
855.796	0.0156354
855.874	0.0155834
855.953	0.0157767
856.031	0.0158443
856.109	0.0157578
856.187	0.0156857
856.265	0.0157260
856.343	0.0156927
856.421	0.0157775
856.499	0.0157645
856.578	0.0157471
856.656	0.0158974
856.734	0.0157832
856.812	0.0157368
856.890	0.0157382
856.968	0.0158390
857.046	0.0155351
857.124	0.0157162
857.203	0.0156728
857.281	0.0155856
857.359	0.0154780
857.437	0.0157209
857.515	0.0156432
857.593	0.0156403
857.671	0.0156989
857.749	0.0156728
857.828	0.0155694
857.906	0.0156345
857.984	0.0154533
858.062	0.0155144
858.140	0.0157204
858.218	0.0155055
858.296	0.0155698
858.374	0.0155834
858.453	0.0155221
858.531	0.0155043
858.609	0.0156140
858.687	0.0155503
858.765	0.0155100
858.843	0.0155576
858.921	0.0155675
858.999	0.0154940
859.078	0.0156133
859.156	0.0156931
859.234	0.0154990
859.312	0.0155495
859.390	0.0156571
859.468	0.0157548
859.546	0.0156925
859.624	0.0156527
859.703	0.0156209
859.781	0.0156660
859.859	0.0156061
859.937	0.0157475
860.015	0.0157248
860.093	0.0156954
860.171	0.0158065
860.249	0.0156236
860.328	0.0156081
860.406	0.0157307
860.484	0.0155642
860.562	0.0155575
860.640	0.0156240
860.718	0.0156964
860.796	0.0155580
860.874	0.0156184
860.953	0.0154383
861.031	0.0156595
861.109	0.0155369
861.187	0.0155486
861.265	0.0154020
861.343	0.0154907
861.421	0.0154942
861.499	0.0155540
861.578	0.0153429
861.656	0.0153411
861.734	0.0155359
861.812	0.0155328
861.890	0.0153878
861.968	0.0153304
862.046	0.0155162
862.124	0.0154432
862.203	0.0154421
862.281	0.0155282
862.359	0.0154263
862.437	0.0153394
862.515	0.0153931
862.593	0.0155212
862.671	0.0153855
862.749	0.0154951
862.828	0.0154860
862.906	0.0154605
862.984	0.0157053
863.062	0.0157455
863.140	0.0156288
863.218	0.0155266
863.296	0.0157287
863.374	0.0157706
863.453	0.0157707
863.531	0.0154973
863.609	0.0156403
863.687	0.0156625
863.765	0.0156963
863.843	0.0157481
863.921	0.0157206
863.999	0.0155439
864.078	0.0156546
864.156	0.0156615
864.234	0.0156892
864.312	0.0155457
864.390	0.0156515
864.468	0.0156094
864.546	0.0156019
864.624	0.0154124
864.703	0.0156892
864.781	0.0154953
864.859	0.0154495
864.937	0.0154222
865.015	0.0153754
865.093	0.0154575
865.171	0.0154253
865.249	0.0153761
865.328	0.0154182
865.406	0.0155461
865.484	0.0154929
865.562	0.0154804
865.640	0.0155092
865.718	0.0154850
865.796	0.0155210
865.874	0.0155473
865.953	0.0155748
866.031	0.0157289
866.109	0.0156237
866.187	0.0156020
866.265	0.0156342
866.343	0.0155341
866.421	0.0155054
866.499	0.0156468
866.578	0.0155097
866.656	0.0155044
866.734	0.0155191
866.812	0.0155400
866.890	0.0155454
866.968	0.0155531
867.046	0.0155123
867.124	0.0154643
867.203	0.0155963
867.281	0.0155753
867.359	0.0154856
867.437	0.0155180
867.515	0.0154975
867.593	0.0156536
867.671	0.0156420
867.749	0.0155676
867.828	0.0156023
867.906	0.0155838
867.984	0.0156178
868.062	0.0155120
868.140	0.0156728
868.218	0.0156811
868.296	0.0155907
868.374	0.0154613
868.453	0.0155619
868.531	0.0156791
868.609	0.0155891
868.687	0.0157525
868.765	0.0155116
868.843	0.0155248
868.921	0.0155515
868.999	0.0155762
869.078	0.0154363
869.156	0.0155568
869.234	0.0156239
869.312	0.0154021
869.390	0.0155230
869.468	0.0157578
869.546	0.0156286
869.624	0.0155708
869.703	0.0155170
869.781	0.0156416
869.859	0.0156381
869.937	0.0155241
870.015	0.0156343
870.093	0.0154584
870.171	0.0156429
870.249	0.0156419
870.328	0.0155736
870.406	0.0156541
870.484	0.0156103
870.562	0.0157736
870.640	0.0156478
870.718	0.0155891
870.796	0.0155786
870.874	0.0155444
870.953	0.0156385
871.031	0.0157127
871.109	0.0156760
871.187	0.0156153
871.265	0.0156072
871.343	0.0157337
871.421	0.0156085
871.499	0.0155116
871.578	0.0157355
871.656	0.0157285
871.734	0.0157449
871.812	0.0156726
871.890	0.0156976
871.968	0.0156253
872.046	0.0156111
872.124	0.0156165
872.203	0.0156778
872.281	0.0156665
872.359	0.0155592
872.437	0.0155724
872.515	0.0156357
872.593	0.0155874
872.671	0.0155763
872.749	0.0155096
872.828	0.0155870
872.906	0.0156605
872.984	0.0156923
873.062	0.0155820
873.140	0.0157149
873.218	0.0157954
873.296	0.0156522
873.374	0.0156294
873.453	0.0156699
873.531	0.0156565
873.609	0.0156043
873.687	0.0156436
873.765	0.0156404
873.843	0.0155623
873.921	0.0155669
873.999	0.0157346
874.078	0.0156226
874.156	0.0156152
874.234	0.0155809
874.312	0.0155885
874.390	0.0156095
874.468	0.0154753
874.546	0.0154174
874.624	0.0154276
874.703	0.0155547
874.781	0.0155337
874.859	0.0155238
874.937	0.0154138
875.015	0.0156872
875.093	0.0157269
875.171	0.0155105
875.249	0.0154785
875.328	0.0156149
875.406	0.0157479
875.484	0.0156380
875.562	0.0155640
875.640	0.0155714
875.718	0.0155598
875.796	0.0156629
875.874	0.0154897
875.953	0.0156969
876.031	0.0156532
876.109	0.0155347
876.187	0.0154604
876.265	0.0156264
876.343	0.0154254
876.421	0.0155673
876.499	0.0156036
876.578	0.0156396
876.656	0.0155647
876.734	0.0154839
876.812	0.0155663
876.890	0.0155756
876.968	0.0154521
877.046	0.0154849
877.124	0.0155494
877.203	0.0155761
877.281	0.0156029
877.359	0.0155450
877.437	0.0155758
877.515	0.0155782
877.593	0.0156552
877.671	0.0155113
877.749	0.0154580
877.828	0.0156540
877.906	0.0155917
877.984	0.0155889
878.062	0.0154722
878.140	0.0156387
878.218	0.0156194
878.296	0.0155180
878.374	0.0156100
878.453	0.0155968
878.531	0.0156119
878.609	0.0156583
878.687	0.0156529
878.765	0.0154749
878.843	0.0156761
878.921	0.0156573
878.999	0.0156855
879.078	0.0155669
879.156	0.0155124
879.234	0.0156188
879.312	0.0157935
879.390	0.0155652
879.468	0.0156149
879.546	0.0157780
879.624	0.0156811
879.703	0.0156776
879.781	0.0156437
879.859	0.0158140
879.937	0.0157832
880.015	0.0156844
880.093	0.0157060
880.171	0.0157269
880.249	0.0158138
880.328	0.0158688
880.406	0.0158224
880.484	0.0156953
880.562	0.0156039
880.640	0.0157836
880.718	0.0158825
880.796	0.0157542
880.874	0.0156992
880.953	0.0157950
881.031	0.0158155
881.109	0.0157594
881.187	0.0157269
881.265	0.0157745
881.343	0.0156062
881.421	0.0156681
881.499	0.0156905
881.578	0.0156804
881.656	0.0156702
881.734	0.0155488
881.812	0.0155842
881.890	0.0158273
881.968	0.0157345
882.046	0.0155708
882.124	0.0156695
882.203	0.0156409
882.281	0.0155998
882.359	0.0155569
882.437	0.0154301
882.515	0.0156484
882.593	0.0156824
882.671	0.0156586
882.749	0.0156580
882.828	0.0156591
882.906	0.0157078
882.984	0.0156995
883.062	0.0156114
883.140	0.0157169
883.218	0.0157452
883.296	0.0157545
883.374	0.0158121
883.453	0.0156572
883.531	0.0156693
883.609	0.0156920
883.687	0.0155872
883.765	0.0156071
883.843	0.0156065
883.921	0.0157487
883.999	0.0157337
884.078	0.0156953
884.156	0.0156427
884.234	0.0156963
884.312	0.0156478
884.390	0.0156039
884.468	0.0155848
884.546	0.0155186
884.624	0.0156470
884.703	0.0155936
884.781	0.0154425
884.859	0.0154115
884.937	0.0155396
885.015	0.0154795
885.093	0.0155869
885.171	0.0156509
885.249	0.0155120
885.328	0.0154790
885.406	0.0155240
885.484	0.0155151
885.562	0.0155990
885.640	0.0157479
885.718	0.0156697
885.796	0.0155799
885.874	0.0155750
885.953	0.0156255
886.031	0.0157347
886.109	0.0157791
886.187	0.0156310
886.265	0.0156576
886.343	0.0156252
886.421	0.0155241
886.499	0.0157353
886.578	0.0157686
886.656	0.0156678
886.734	0.0156515
886.812	0.0155846
886.890	0.0157511
886.968	0.0156967
887.046	0.0158252
887.124	0.0156840
887.203	0.0157311
887.281	0.0157184
887.359	0.0155878
887.437	0.0155209
887.515	0.0157236
887.593	0.0156144
887.671	0.0156988
887.749	0.0156899
887.828	0.0156478
887.906	0.0156435
887.984	0.0156400
888.062	0.0156641
888.140	0.0156564
888.218	0.0156245
888.296	0.0156461
888.374	0.0157231
888.453	0.0156105
888.531	0.0156539
888.609	0.0156866
888.687	0.0157492
888.765	0.0157176
888.843	0.0156796
888.921	0.0156642
888.999	0.0156832
889.078	0.0156709
889.156	0.0156512
889.234	0.0156263
889.312	0.0157097
889.390	0.0155161
889.468	0.0156303
889.546	0.0154333
889.624	0.0153207
889.703	0.0155276
889.781	0.0155491
889.859	0.0154422
889.937	0.0155089
890.015	0.0152780
890.093	0.0155479
890.171	0.0155913
890.249	0.0154848
890.328	0.0153416
890.406	0.0155431
890.484	0.0155531
890.562	0.0154233
890.640	0.0154645
890.718	0.0154898
890.796	0.0155555
890.874	0.0153770
890.953	0.0154884
891.031	0.0155582
891.109	0.0154794
891.187	0.0155297
891.265	0.0154174
891.343	0.0155963
891.421	0.0155672
891.499	0.0155078
891.578	0.0156115
891.656	0.0156361
891.734	0.0155608
891.812	0.0155850
891.890	0.0154960
891.968	0.0155563
892.046	0.0156450
892.124	0.0156961
892.203	0.0155946
892.281	0.0155316
892.359	0.0156752
892.437	0.0155025
892.515	0.0155961
892.593	0.0155098
892.671	0.0156377
892.749	0.0155680
892.828	0.0155381
892.906	0.0155301
892.984	0.0154754
893.062	0.0155329
893.140	0.0155213
893.218	0.0153817
893.296	0.0154927
893.374	0.0155650
893.453	0.0155038
893.531	0.0155347
893.609	0.0154757
893.687	0.0156023
893.765	0.0155360
893.843	0.0155758
893.921	0.0156931
893.999	0.0154715
894.078	0.0153652
894.156	0.0154907
894.234	0.0155306
894.312	0.0155754
894.390	0.0154876
894.468	0.0155708
894.546	0.0156371
894.624	0.0155003
894.703	0.0155222
894.781	0.0155567
894.859	0.0155744
894.937	0.0155772
895.015	0.0155574
895.093	0.0156585
895.171	0.0156200
895.249	0.0155333
895.328	0.0157277
895.406	0.0158067
895.484	0.0156250
895.562	0.0157837
895.640	0.0157303
895.718	0.0157656
895.796	0.0157585
895.874	0.0157222
895.953	0.0156457
896.031	0.0156754
896.109	0.0156582
896.187	0.0157749
896.265	0.0158730
896.343	0.0156484
896.421	0.0157247
896.499	0.0157889
896.578	0.0157035
896.656	0.0157426
896.734	0.0157439
896.812	0.0155502
896.890	0.0156583
896.968	0.0156913
897.046	0.0156071
897.124	0.0155738
897.203	0.0155912
897.281	0.0156479
897.359	0.0157274
897.437	0.0157668
897.515	0.0156825
897.593	0.0157061
897.671	0.0156657
897.749	0.0157706
897.828	0.0156734
897.906	0.0156727
897.984	0.0155725
898.062	0.0156686
898.140	0.0156934
898.218	0.0156605
898.296	0.0156454
898.374	0.0156035
898.453	0.0155885
898.531	0.0157624
898.609	0.0157083
898.687	0.0155150
898.765	0.0156749
898.843	0.0156900
898.921	0.0157549
898.999	0.0157250
899.078	0.0155923
899.156	0.0156909
899.234	0.0156238
899.312	0.0154581
899.390	0.0156696
899.468	0.0157259
899.546	0.0156636
899.624	0.0155844
899.703	0.0156946
899.781	0.0155464
899.859	0.0157362
899.937	0.0156308
900.015	0.0156337
900.093	0.0156487
900.171	0.0154589
900.249	0.0155019
900.328	0.0154946
900.406	0.0156169
900.484	0.0155889
900.562	0.0155719
900.640	0.0156642
900.718	0.0157206
900.796	0.0155891
900.874	0.0155560
900.953	0.0155854
901.031	0.0157772
901.109	0.0155711
901.187	0.0156190
901.265	0.0155959
901.343	0.0155160
901.421	0.0156363
901.499	0.0155655
901.578	0.0156430
901.656	0.0156232
901.734	0.0156446
901.812	0.0156825
901.890	0.0156531
901.968	0.0156044
902.046	0.0156677
902.124	0.0155710
902.203	0.0155301
902.281	0.0155914
902.359	0.0155591
902.437	0.0155428
902.515	0.0155958
902.593	0.0155262
902.671	0.0155625
902.749	0.0155987
902.828	0.0156340
902.906	0.0155684
902.984	0.0156907
903.062	0.0155045
903.140	0.0155540
903.218	0.0156732
903.296	0.0156245
903.374	0.0155229
903.453	0.0155307
903.531	0.0156130
903.609	0.0156120
903.687	0.0158338
903.765	0.0157998
903.843	0.0155697
903.921	0.0156843
903.999	0.0155595
904.078	0.0155872
904.156	0.0157461
904.234	0.0156749
904.312	0.0157806
904.390	0.0158302
904.468	0.0158016
904.546	0.0157154
904.624	0.0157899
904.703	0.0158539
904.781	0.0158560
904.859	0.0158005
904.937	0.0158706
905.015	0.0159631
905.093	0.0159444
905.171	0.0159385
905.249	0.0158089
905.328	0.0157349
905.406	0.0157115
905.484	0.0157115
905.562	0.0157430
905.640	0.0157451
905.718	0.0156788
905.796	0.0157013
905.874	0.0155807
905.953	0.0155943
906.031	0.0156036
906.109	0.0155770
906.187	0.0154501
906.265	0.0154739
906.343	0.0155241
906.421	0.0155354
906.499	0.0153673
906.578	0.0155410
906.656	0.0154981
906.734	0.0155170
906.812	0.0155282
906.890	0.0154279
906.968	0.0155907
907.046	0.0155624
907.124	0.0156200
907.203	0.0155622
907.281	0.0155783
907.359	0.0155943
907.437	0.0156672
907.515	0.0155802
907.593	0.0156359
907.671	0.0156776
907.749	0.0155863
907.828	0.0156109
907.906	0.0156369
907.984	0.0155821
908.062	0.0156615
908.140	0.0155759
908.218	0.0156322
908.296	0.0155266
908.374	0.0155436
908.453	0.0155637
908.531	0.0156892
908.609	0.0155920
908.687	0.0156753
908.765	0.0156319
908.843	0.0156388
908.921	0.0156521
908.999	0.0155673
909.078	0.0155793
909.156	0.0156658
909.234	0.0155094
909.312	0.0156020
909.390	0.0155367
909.468	0.0156487
909.546	0.0156217
909.624	0.0155902
909.703	0.0155901
909.781	0.0156444
909.859	0.0155728
909.937	0.0155676
910.015	0.0155668
910.093	0.0155759
910.171	0.0155842
910.249	0.0155672
910.328	0.0154765
910.406	0.0156938
910.484	0.0154597
910.562	0.0154426
910.640	0.0155140
910.718	0.0155527
910.796	0.0154712
910.874	0.0155697
910.953	0.0155955
911.031	0.0156357
911.109	0.0154788
911.187	0.0156470
911.265	0.0155418
911.343	0.0154611
911.421	0.0154267
911.499	0.0154518
911.578	0.0154296
911.656	0.0154716
911.734	0.0154308
911.812	0.0155340
911.890	0.0153543
911.968	0.0153683
912.046	0.0153954
912.124	0.0152554
912.203	0.0154630
912.281	0.0153753
912.359	0.0154340
912.437	0.0154298
912.515	0.0153846
912.593	0.0155034
912.671	0.0154932
912.749	0.0155681
912.828	0.0155701
912.906	0.0156505
912.984	0.0155295
913.062	0.0156056
913.140	0.0155491
913.218	0.0156861
913.296	0.0157086
913.374	0.0155267
913.453	0.0156448
913.531	0.0158179
913.609	0.0158415
913.687	0.0157042
913.765	0.0156449
913.843	0.0156953
913.921	0.0157137
913.999	0.0156706
914.078	0.0158366
914.156	0.0156637
914.234	0.0156778
914.312	0.0157843
914.390	0.0157873
914.468	0.0157499
914.546	0.0157921
914.624	0.0157247
914.703	0.0156408
914.781	0.0156525
914.859	0.0156935
914.937	0.0155721
915.015	0.0155166
915.093	0.0155929
915.171	0.0157391
915.249	0.0155437
915.328	0.0157330
915.406	0.0156640
915.484	0.0156509
915.562	0.0155975
915.640	0.0156516
915.718	0.0158277
915.796	0.0155638
915.874	0.0156129
915.953	0.0155766
916.031	0.0157155
916.109	0.0157160
916.187	0.0158026
916.265	0.0158769
916.343	0.0158400
916.421	0.0156751
916.499	0.0157332
916.578	0.0160021
916.656	0.0157195
916.734	0.0157127
916.812	0.0158353
916.890	0.0158062
916.968	0.0158398
917.046	0.0160140
917.124	0.0158138
917.203	0.0158498
917.281	0.0158087
917.359	0.0158173
917.437	0.0157597
917.515	0.0158619
917.593	0.0158089
917.671	0.0157141
917.749	0.0156246
917.828	0.0157722
917.906	0.0157387
917.984	0.0155227
918.062	0.0156569
918.140	0.0156113
918.218	0.0157237
918.296	0.0155890
918.374	0.0155648
918.453	0.0156396
918.531	0.0156938
918.609	0.0157152
918.687	0.0156647
918.765	0.0156441
918.843	0.0155546
918.921	0.0157302
918.999	0.0158374
919.078	0.0157091
919.156	0.0157753
919.234	0.0158354
919.312	0.0158041
919.390	0.0156503
919.468	0.0157635
919.546	0.0156896
919.624	0.0157256
919.703	0.0158397
919.781	0.0156953
919.859	0.0157913
919.937	0.0156652
