06/10/2022	19:05:41	Ver.	4.1	UNKNOWN
Optical Delay	600.015094	Delta X		0.078125	Sweeps	1	Scan Rate	0/0
Coordinates	Axis 1	NaN	Axis 2	NaN	Axis 3	NaN	Axis 4	NaN	Axis 5	NaN	Axis 6	0.000000
TX Power	0.000000	RX Power	0.000000

600.015	0.0156859
600.093	0.0155772
600.171	0.0157033
600.249	0.0156765
600.328	0.0157352
600.406	0.0156487
600.484	0.0156790
600.562	0.0156566
600.640	0.0157315
600.718	0.0156975
600.796	0.0156849
600.874	0.0156924
600.953	0.0156941
601.031	0.0155485
601.109	0.0158155
601.187	0.0158878
601.265	0.0157385
601.343	0.0157084
601.421	0.0156426
601.499	0.0156646
601.578	0.0157705
601.656	0.0157445
601.734	0.0158201
601.812	0.0157966
601.890	0.0157304
601.968	0.0157143
602.046	0.0158993
602.124	0.0159348
602.203	0.0157800
602.281	0.0157988
602.359	0.0158683
602.437	0.0158761
602.515	0.0158172
602.593	0.0157049
602.671	0.0157098
602.749	0.0160165
602.828	0.0159150
602.906	0.0158772
602.984	0.0158277
603.062	0.0158509
603.140	0.0159014
603.218	0.0157583
603.296	0.0157570
603.374	0.0158427
603.453	0.0157587
603.531	0.0157553
603.609	0.0158476
603.687	0.0156715
603.765	0.0156737
603.843	0.0158376
603.921	0.0157049
603.999	0.0156554
604.078	0.0156615
604.156	0.0158712
604.234	0.0158605
604.312	0.0157672
604.390	0.0156961
604.468	0.0158546
604.546	0.0157949
604.624	0.0159651
604.703	0.0160647
604.781	0.0159573
604.859	0.0159116
604.937	0.0159406
605.015	0.0158806
605.093	0.0158731
605.171	0.0158582
605.249	0.0158969
605.328	0.0159088
605.406	0.0159390
605.484	0.0158678
605.562	0.0157726
605.640	0.0158779
605.718	0.0158710
605.796	0.0159287
605.874	0.0158854
605.953	0.0157410
606.031	0.0158892
606.109	0.0157572
606.187	0.0160545
606.265	0.0159222
606.343	0.0158221
606.421	0.0157751
606.499	0.0158517
606.578	0.0158570
606.656	0.0157368
606.734	0.0156817
606.812	0.0159399
606.890	0.0157731
606.968	0.0158501
607.046	0.0157566
607.124	0.0158073
607.203	0.0158508
607.281	0.0158375
607.359	0.0159429
607.437	0.0160947
607.515	0.0159831
607.593	0.0159903
607.671	0.0159411
607.749	0.0160574
607.828	0.0158808
607.906	0.0159532
607.984	0.0160606
608.062	0.0160350
608.140	0.0161488
608.218	0.0160542
608.296	0.0160736
608.374	0.0161334
608.453	0.0160644
608.531	0.0159688
608.609	0.0161807
608.687	0.0161491
608.765	0.0160619
608.843	0.0161867
608.921	0.0162258
608.999	0.0161710
609.078	0.0161853
609.156	0.0160731
609.234	0.0162318
609.312	0.0161729
609.390	0.0161677
609.468	0.0160466
609.546	0.0160269
609.624	0.0161394
609.703	0.0161526
609.781	0.0160816
609.859	0.0160563
609.937	0.0160616
610.015	0.0160719
610.093	0.0159890
610.171	0.0161426
610.249	0.0161738
610.328	0.0160107
610.406	0.0160426
610.484	0.0161493
610.562	0.0160588
610.640	0.0161021
610.718	0.0160828
610.796	0.0161301
610.874	0.0159744
610.953	0.0160200
611.031	0.0159428
611.109	0.0161095
611.187	0.0160968
611.265	0.0161131
611.343	0.0160332
611.421	0.0160925
611.499	0.0159933
611.578	0.0160664
611.656	0.0160519
611.734	0.0160002
611.812	0.0159657
611.890	0.0160487
611.968	0.0159427
612.046	0.0160715
612.124	0.0160136
612.203	0.0160194
612.281	0.0159946
612.359	0.0160860
612.437	0.0160135
612.515	0.0161135
612.593	0.0160989
612.671	0.0160311
612.749	0.0160084
612.828	0.0159809
612.906	0.0160108
612.984	0.0160513
613.062	0.0159013
613.140	0.0160256
613.218	0.0160608
613.296	0.0158767
613.374	0.0159845
613.453	0.0159200
613.531	0.0159959
613.609	0.0160284
613.687	0.0159588
613.765	0.0157903
613.843	0.0158297
613.921	0.0158985
613.999	0.0159152
614.078	0.0157293
614.156	0.0157074
614.234	0.0158707
614.312	0.0160064
614.390	0.0159234
614.468	0.0157609
614.546	0.0157806
614.624	0.0158376
614.703	0.0158397
614.781	0.0157024
614.859	0.0155824
614.937	0.0156831
615.015	0.0158104
615.093	0.0157054
615.171	0.0157256
615.249	0.0156578
615.328	0.0156770
615.406	0.0156658
615.484	0.0157255
615.562	0.0159082
615.640	0.0158939
615.718	0.0157769
615.796	0.0157008
615.874	0.0158099
615.953	0.0156710
616.031	0.0157643
616.109	0.0159441
616.187	0.0158286
616.265	0.0157433
616.343	0.0158504
616.421	0.0159428
616.499	0.0160492
616.578	0.0159667
616.656	0.0159955
616.734	0.0159557
616.812	0.0160477
616.890	0.0160032
616.968	0.0160250
617.046	0.0162286
617.124	0.0161038
617.203	0.0160902
617.281	0.0161954
617.359	0.0162297
617.437	0.0162080
617.515	0.0162168
617.593	0.0162108
617.671	0.0162502
617.749	0.0161357
617.828	0.0163148
617.906	0.0162262
617.984	0.0162033
618.062	0.0161701
618.140	0.0161958
618.218	0.0160490
618.296	0.0160699
618.374	0.0161021
618.453	0.0160116
618.531	0.0160495
618.609	0.0159739
618.687	0.0160039
618.765	0.0160967
618.843	0.0160600
618.921	0.0160104
618.999	0.0159907
619.078	0.0158904
619.156	0.0159962
619.234	0.0159744
619.312	0.0158817
619.390	0.0159302
619.468	0.0159832
619.546	0.0160155
619.624	0.0158304
619.703	0.0160265
619.781	0.0159827
619.859	0.0158896
619.937	0.0159471
620.015	0.0159781
620.093	0.0159624
620.171	0.0157930
620.249	0.0157948
620.328	0.0159239
620.406	0.0157989
620.484	0.0158895
620.562	0.0159215
620.640	0.0159198
620.718	0.0159087
620.796	0.0159455
620.874	0.0158937
620.953	0.0159051
621.031	0.0159748
621.109	0.0158936
621.187	0.0158218
621.265	0.0158554
621.343	0.0159230
621.421	0.0158301
621.499	0.0157261
621.578	0.0159354
621.656	0.0159628
621.734	0.0158993
621.812	0.0158810
621.890	0.0158690
621.968	0.0158965
622.046	0.0159853
622.124	0.0158926
622.203	0.0159031
622.281	0.0159362
622.359	0.0159322
622.437	0.0157473
622.515	0.0159363
622.593	0.0158626
622.671	0.0157741
622.749	0.0158530
622.828	0.0157320
622.906	0.0157722
622.984	0.0157648
623.062	0.0156641
623.140	0.0156564
623.218	0.0157017
623.296	0.0157915
623.374	0.0156629
623.453	0.0156898
623.531	0.0156021
623.609	0.0155421
623.687	0.0155493
623.765	0.0156683
623.843	0.0156393
623.921	0.0157221
623.999	0.0156667
624.078	0.0154965
624.156	0.0156778
624.234	0.0156596
624.312	0.0156193
624.390	0.0155939
624.468	0.0156430
624.546	0.0155434
624.624	0.0155178
624.703	0.0157478
624.781	0.0155947
624.859	0.0156613
624.937	0.0156873
625.015	0.0155156
625.093	0.0155419
625.171	0.0156247
625.249	0.0156168
625.328	0.0156659
625.406	0.0157423
625.484	0.0155673
625.562	0.0155762
625.640	0.0156355
625.718	0.0155389
625.796	0.0155217
625.874	0.0155392
625.953	0.0155244
626.031	0.0155433
626.109	0.0155499
626.187	0.0155374
626.265	0.0154840
626.343	0.0156159
626.421	0.0155484
626.499	0.0155993
626.578	0.0155714
626.656	0.0156414
626.734	0.0156863
626.812	0.0156193
626.890	0.0155099
626.968	0.0156195
627.046	0.0156359
627.124	0.0156352
627.203	0.0156937
627.281	0.0156917
627.359	0.0156812
627.437	0.0158135
627.515	0.0156835
627.593	0.0158314
627.671	0.0157123
627.749	0.0157224
627.828	0.0158008
627.906	0.0156943
627.984	0.0158266
628.062	0.0156647
628.140	0.0157456
628.218	0.0158595
628.296	0.0157962
628.374	0.0158286
628.453	0.0157532
628.531	0.0158336
628.609	0.0158938
628.687	0.0157941
628.765	0.0157359
628.843	0.0158794
628.921	0.0158228
628.999	0.0158979
629.078	0.0158384
629.156	0.0156897
629.234	0.0159307
629.312	0.0158868
629.390	0.0159538
629.468	0.0158781
629.546	0.0159127
629.624	0.0159385
629.703	0.0159126
629.781	0.0158469
629.859	0.0159612
629.937	0.0158376
630.015	0.0158517
630.093	0.0159826
630.171	0.0159438
630.249	0.0158152
630.328	0.0159583
630.406	0.0160413
630.484	0.0158770
630.562	0.0159439
630.640	0.0160799
630.718	0.0158419
630.796	0.0160524
630.874	0.0159013
630.953	0.0159674
631.031	0.0160059
631.109	0.0159414
631.187	0.0160562
631.265	0.0160501
631.343	0.0160841
631.421	0.0159601
631.499	0.0160276
631.578	0.0161426
631.656	0.0160482
631.734	0.0160542
631.812	0.0160899
631.890	0.0160703
631.968	0.0162445
632.046	0.0162018
632.124	0.0161703
632.203	0.0161575
632.281	0.0162643
632.359	0.0162556
632.437	0.0162068
632.515	0.0163861
632.593	0.0162794
632.671	0.0161131
632.749	0.0163140
632.828	0.0161406
632.906	0.0162422
632.984	0.0162610
633.062	0.0163263
633.140	0.0161359
633.218	0.0162534
633.296	0.0161804
633.374	0.0160475
633.453	0.0161948
633.531	0.0161420
633.609	0.0161422
633.687	0.0159519
633.765	0.0160017
633.843	0.0161983
633.921	0.0160025
633.999	0.0159868
634.078	0.0160356
634.156	0.0160144
634.234	0.0161033
634.312	0.0160530
634.390	0.0160443
634.468	0.0159616
634.546	0.0159492
634.624	0.0158991
634.703	0.0158974
634.781	0.0158728
634.859	0.0160290
634.937	0.0160844
635.015	0.0158712
635.093	0.0159045
635.171	0.0159101
635.249	0.0158965
635.328	0.0160258
635.406	0.0158675
635.484	0.0160817
635.562	0.0159677
635.640	0.0158677
635.718	0.0159776
635.796	0.0159990
635.874	0.0159572
635.953	0.0159264
636.031	0.0159847
636.109	0.0159881
636.187	0.0159248
636.265	0.0159553
636.343	0.0157816
636.421	0.0158207
636.499	0.0158895
636.578	0.0159417
636.656	0.0159270
636.734	0.0159288
636.812	0.0158588
636.890	0.0158961
636.968	0.0158794
637.046	0.0158890
637.124	0.0158598
637.203	0.0157250
637.281	0.0158231
637.359	0.0159756
637.437	0.0159441
637.515	0.0159786
637.593	0.0159171
637.671	0.0157300
637.749	0.0158039
637.828	0.0159432
637.906	0.0160219
637.984	0.0158475
638.062	0.0158784
638.140	0.0159478
638.218	0.0160535
638.296	0.0158902
638.374	0.0158736
638.453	0.0160351
638.531	0.0160143
638.609	0.0158121
638.687	0.0159285
638.765	0.0160622
638.843	0.0159970
638.921	0.0159047
638.999	0.0160201
639.078	0.0159758
639.156	0.0159191
639.234	0.0160114
639.312	0.0159745
639.390	0.0158335
639.468	0.0158958
639.546	0.0158453
639.624	0.0159270
639.703	0.0160211
639.781	0.0160694
639.859	0.0158659
639.937	0.0158747
640.015	0.0160056
640.093	0.0159284
640.171	0.0157512
640.249	0.0159537
640.328	0.0159345
640.406	0.0158833
640.484	0.0158372
640.562	0.0159899
640.640	0.0159596
640.718	0.0158620
640.796	0.0159512
640.874	0.0160839
640.953	0.0160491
641.031	0.0160891
641.109	0.0158602
641.187	0.0158938
641.265	0.0159711
641.343	0.0160213
641.421	0.0157963
641.499	0.0159890
641.578	0.0159484
641.656	0.0160224
641.734	0.0159237
641.812	0.0159640
641.890	0.0157438
641.968	0.0158733
642.046	0.0159399
642.124	0.0157966
642.203	0.0159279
642.281	0.0159079
642.359	0.0157107
642.437	0.0158396
642.515	0.0158815
642.593	0.0158644
642.671	0.0158643
642.749	0.0159574
642.828	0.0159267
642.906	0.0158847
642.984	0.0158673
643.062	0.0157520
643.140	0.0157881
643.218	0.0158044
643.296	0.0158588
643.374	0.0159190
643.453	0.0158592
643.531	0.0156210
643.609	0.0157272
643.687	0.0157459
643.765	0.0158771
643.843	0.0157721
643.921	0.0158836
643.999	0.0157509
644.078	0.0159251
644.156	0.0157991
644.234	0.0157081
644.312	0.0157593
644.390	0.0157939
644.468	0.0159370
644.546	0.0157596
644.624	0.0158286
644.703	0.0158270
644.781	0.0156287
644.859	0.0158796
644.937	0.0158469
645.015	0.0158110
645.093	0.0158368
645.171	0.0157829
645.249	0.0158057
645.328	0.0158311
645.406	0.0158021
645.484	0.0157953
645.562	0.0158631
645.640	0.0158969
645.718	0.0157478
645.796	0.0157996
645.874	0.0156222
645.953	0.0159003
646.031	0.0157495
646.109	0.0157979
646.187	0.0158470
646.265	0.0157602
646.343	0.0157541
646.421	0.0158215
646.499	0.0156933
646.578	0.0158283
646.656	0.0158504
646.734	0.0158745
646.812	0.0157851
646.890	0.0158717
646.968	0.0157587
647.046	0.0156968
647.124	0.0157326
647.203	0.0156949
647.281	0.0157323
647.359	0.0158411
647.437	0.0159870
647.515	0.0156083
647.593	0.0156726
647.671	0.0157783
647.749	0.0157030
647.828	0.0157249
647.906	0.0157703
647.984	0.0157523
648.062	0.0157471
648.140	0.0157204
648.218	0.0157623
648.296	0.0158028
648.374	0.0157140
648.453	0.0157419
648.531	0.0157688
648.609	0.0156122
648.687	0.0156922
648.765	0.0158576
648.843	0.0157446
648.921	0.0156223
648.999	0.0158116
649.078	0.0157614
649.156	0.0157797
649.234	0.0157558
649.312	0.0157723
649.390	0.0158057
649.468	0.0159844
649.546	0.0158042
649.624	0.0157855
649.703	0.0157484
649.781	0.0158111
649.859	0.0158312
649.937	0.0157500
650.015	0.0159743
650.093	0.0158265
650.171	0.0158035
650.249	0.0157832
650.328	0.0159219
650.406	0.0159104
650.484	0.0158781
650.562	0.0160032
650.640	0.0160007
650.718	0.0159732
650.796	0.0159634
650.874	0.0158565
650.953	0.0158762
651.031	0.0159912
651.109	0.0160630
651.187	0.0159885
651.265	0.0159382
651.343	0.0160470
651.421	0.0159467
651.499	0.0159551
651.578	0.0159451
651.656	0.0159143
651.734	0.0161352
651.812	0.0159766
651.890	0.0159327
651.968	0.0160698
652.046	0.0159354
652.124	0.0159583
652.203	0.0161037
652.281	0.0160284
652.359	0.0160852
652.437	0.0160654
652.515	0.0158321
652.593	0.0158833
652.671	0.0160665
652.749	0.0159843
652.828	0.0159351
652.906	0.0160143
652.984	0.0160116
653.062	0.0160040
653.140	0.0160369
653.218	0.0160382
653.296	0.0160149
653.374	0.0159624
653.453	0.0159930
653.531	0.0160844
653.609	0.0159149
653.687	0.0158549
653.765	0.0159003
653.843	0.0160469
653.921	0.0159778
653.999	0.0159705
654.078	0.0159753
654.156	0.0161444
654.234	0.0159625
654.312	0.0157693
654.390	0.0158628
654.468	0.0159416
654.546	0.0157714
654.624	0.0158991
654.703	0.0158507
654.781	0.0159227
654.859	0.0158845
654.937	0.0159885
655.015	0.0158765
655.093	0.0157861
655.171	0.0157675
655.249	0.0159179
655.328	0.0159483
655.406	0.0158350
655.484	0.0158568
655.562	0.0160258
655.640	0.0159644
655.718	0.0158570
655.796	0.0159983
655.874	0.0159481
655.953	0.0160303
656.031	0.0158846
656.109	0.0159891
656.187	0.0159653
656.265	0.0158424
656.343	0.0159624
656.421	0.0159328
656.499	0.0159487
656.578	0.0159918
656.656	0.0159380
656.734	0.0159421
656.812	0.0159906
656.890	0.0159079
656.968	0.0157789
657.046	0.0158913
657.124	0.0157738
657.203	0.0158501
657.281	0.0159309
657.359	0.0159453
657.437	0.0158607
657.515	0.0158109
657.593	0.0158743
657.671	0.0159389
657.749	0.0159312
657.828	0.0158113
657.906	0.0157748
657.984	0.0158559
658.062	0.0159047
658.140	0.0158307
658.218	0.0158880
658.296	0.0158458
658.374	0.0157985
658.453	0.0158317
658.531	0.0158841
658.609	0.0157401
658.687	0.0158628
658.765	0.0157859
658.843	0.0158241
658.921	0.0158341
658.999	0.0158645
659.078	0.0157924
659.156	0.0158342
659.234	0.0158799
659.312	0.0158122
659.390	0.0159648
659.468	0.0158822
659.546	0.0159998
659.624	0.0159737
659.703	0.0159254
659.781	0.0158413
659.859	0.0159412
659.937	0.0159135
660.015	0.0159776
660.093	0.0159268
660.171	0.0160735
660.249	0.0159130
660.328	0.0160035
660.406	0.0159836
660.484	0.0159760
660.562	0.0160493
660.640	0.0159448
660.718	0.0160757
660.796	0.0159311
660.874	0.0161073
660.953	0.0159705
661.031	0.0159787
661.109	0.0159320
661.187	0.0159694
661.265	0.0159865
661.343	0.0160583
661.421	0.0161257
661.499	0.0160677
661.578	0.0159229
661.656	0.0159219
661.734	0.0160753
661.812	0.0160509
661.890	0.0161100
661.968	0.0160486
662.046	0.0159337
662.124	0.0158897
662.203	0.0159198
662.281	0.0160590
662.359	0.0160419
662.437	0.0160457
662.515	0.0158723
662.593	0.0160823
662.671	0.0160484
662.749	0.0160307
662.828	0.0159826
662.906	0.0158244
662.984	0.0159270
663.062	0.0161517
663.140	0.0160545
663.218	0.0160129
663.296	0.0159400
663.374	0.0160067
663.453	0.0160131
663.531	0.0159464
663.609	0.0158237
663.687	0.0157121
663.765	0.0158960
663.843	0.0160367
663.921	0.0158472
663.999	0.0158585
664.078	0.0159597
664.156	0.0160532
664.234	0.0158164
664.312	0.0159180
664.390	0.0159393
664.468	0.0160672
664.546	0.0159973
664.624	0.0158389
664.703	0.0158498
664.781	0.0159614
664.859	0.0159292
664.937	0.0161028
665.015	0.0159472
665.093	0.0159816
665.171	0.0158081
665.249	0.0160058
665.328	0.0159061
665.406	0.0158348
665.484	0.0158893
665.562	0.0159149
665.640	0.0160364
665.718	0.0158579
665.796	0.0159155
665.874	0.0157334
665.953	0.0158830
666.031	0.0159521
666.109	0.0160437
666.187	0.0158457
666.265	0.0158275
666.343	0.0159320
666.421	0.0158697
666.499	0.0158015
666.578	0.0157758
666.656	0.0157335
666.734	0.0159576
666.812	0.0158767
666.890	0.0158500
666.968	0.0157933
667.046	0.0158176
667.124	0.0159409
667.203	0.0158363
667.281	0.0158385
667.359	0.0158704
667.437	0.0156963
667.515	0.0157735
667.593	0.0159291
667.671	0.0158025
667.749	0.0158006
667.828	0.0158130
667.906	0.0157824
667.984	0.0158565
668.062	0.0159717
668.140	0.0157491
668.218	0.0158026
668.296	0.0158389
668.374	0.0158663
668.453	0.0159653
668.531	0.0156953
668.609	0.0157706
668.687	0.0158170
668.765	0.0157613
668.843	0.0158051
668.921	0.0157480
668.999	0.0155725
669.078	0.0159232
669.156	0.0156713
669.234	0.0157212
669.312	0.0157245
669.390	0.0158461
669.468	0.0157108
669.546	0.0158215
669.624	0.0157848
669.703	0.0157566
669.781	0.0156436
669.859	0.0157079
669.937	0.0157908
670.015	0.0157688
670.093	0.0157059
670.171	0.0156671
670.249	0.0157072
670.328	0.0156781
670.406	0.0157173
670.484	0.0156562
670.562	0.0157713
670.640	0.0156700
670.718	0.0158050
670.796	0.0158302
670.874	0.0157439
670.953	0.0157544
671.031	0.0158696
671.109	0.0156258
671.187	0.0158089
671.265	0.0156976
671.343	0.0158691
671.421	0.0158072
671.499	0.0155933
671.578	0.0156486
671.656	0.0159494
671.734	0.0156769
671.812	0.0157051
671.890	0.0157229
671.968	0.0158217
672.046	0.0157893
672.124	0.0156316
672.203	0.0158542
672.281	0.0157862
672.359	0.0158095
672.437	0.0157285
672.515	0.0157443
672.593	0.0157216
672.671	0.0156944
672.749	0.0157006
672.828	0.0157536
672.906	0.0158208
672.984	0.0158618
673.062	0.0158865
673.140	0.0157065
673.218	0.0157761
673.296	0.0157442
673.374	0.0157235
673.453	0.0157713
673.531	0.0158785
673.609	0.0158072
673.687	0.0159364
673.765	0.0158750
673.843	0.0158292
673.921	0.0157309
673.999	0.0157719
674.078	0.0159454
674.156	0.0158018
674.234	0.0157654
674.312	0.0157899
674.390	0.0158572
674.468	0.0158707
674.546	0.0158237
674.624	0.0158839
674.703	0.0158343
674.781	0.0158376
674.859	0.0157679
674.937	0.0158994
675.015	0.0159391
675.093	0.0158931
675.171	0.0160006
675.249	0.0158627
675.328	0.0158002
675.406	0.0157984
675.484	0.0158149
675.562	0.0159419
675.640	0.0158184
675.718	0.0157909
675.796	0.0157990
675.874	0.0158436
675.953	0.0159693
676.031	0.0158589
676.109	0.0157257
676.187	0.0158525
676.265	0.0159692
676.343	0.0159216
676.421	0.0158105
676.499	0.0158951
676.578	0.0160110
676.656	0.0159392
676.734	0.0158298
676.812	0.0159471
676.890	0.0160056
676.968	0.0158923
677.046	0.0158939
677.124	0.0158652
677.203	0.0160348
677.281	0.0160378
677.359	0.0160031
677.437	0.0159467
677.515	0.0160075
677.593	0.0159331
677.671	0.0159901
677.749	0.0160300
677.828	0.0159856
677.906	0.0160374
677.984	0.0159054
678.062	0.0158466
678.140	0.0159486
678.218	0.0159244
678.296	0.0159853
678.374	0.0159587
678.453	0.0159962
678.531	0.0160149
678.609	0.0160141
678.687	0.0159053
678.765	0.0160763
678.843	0.0160792
678.921	0.0160931
678.999	0.0160478
679.078	0.0160196
679.156	0.0158736
679.234	0.0160284
679.312	0.0160397
679.390	0.0161266
679.468	0.0160246
679.546	0.0159730
679.624	0.0159682
679.703	0.0159313
679.781	0.0160293
679.859	0.0161229
679.937	0.0160339
680.015	0.0158782
680.093	0.0159534
680.171	0.0160408
680.249	0.0161724
680.328	0.0160535
680.406	0.0160228
680.484	0.0160235
680.562	0.0160788
680.640	0.0160313
680.718	0.0160523
680.796	0.0159749
680.874	0.0160052
680.953	0.0160431
681.031	0.0162106
681.109	0.0161362
681.187	0.0161564
681.265	0.0160483
681.343	0.0160223
681.421	0.0159966
681.499	0.0159574
681.578	0.0159705
681.656	0.0158864
681.734	0.0159111
681.812	0.0160720
681.890	0.0159324
681.968	0.0159140
682.046	0.0159756
682.124	0.0159473
682.203	0.0159462
682.281	0.0159842
682.359	0.0159988
682.437	0.0160148
682.515	0.0159348
682.593	0.0159053
682.671	0.0159789
682.749	0.0159159
682.828	0.0158921
682.906	0.0160213
682.984	0.0161726
683.062	0.0158410
683.140	0.0159653
683.218	0.0158841
683.296	0.0158811
683.374	0.0158548
683.453	0.0160027
683.531	0.0159594
683.609	0.0158922
683.687	0.0160320
683.765	0.0158651
683.843	0.0159022
683.921	0.0159444
683.999	0.0158143
684.078	0.0158683
684.156	0.0160572
684.234	0.0158479
684.312	0.0157994
684.390	0.0157867
684.468	0.0158297
684.546	0.0159360
684.624	0.0158888
684.703	0.0158398
684.781	0.0158665
684.859	0.0157829
684.937	0.0158849
685.015	0.0160120
685.093	0.0158329
685.171	0.0159304
685.249	0.0158580
685.328	0.0158633
685.406	0.0158971
685.484	0.0158204
685.562	0.0160051
685.640	0.0158961
685.718	0.0158913
685.796	0.0157326
685.874	0.0157757
685.953	0.0159459
686.031	0.0158347
686.109	0.0159176
686.187	0.0159592
686.265	0.0159519
686.343	0.0159953
686.421	0.0159711
686.499	0.0158232
686.578	0.0158460
686.656	0.0158324
686.734	0.0157533
686.812	0.0157307
686.890	0.0157941
686.968	0.0158265
687.046	0.0159164
687.124	0.0159525
687.203	0.0158654
687.281	0.0159038
687.359	0.0158617
687.437	0.0159004
687.515	0.0159135
687.593	0.0158101
687.671	0.0157977
687.749	0.0157055
687.828	0.0158156
687.906	0.0159134
687.984	0.0158059
688.062	0.0159302
688.140	0.0159161
688.218	0.0158260
688.296	0.0157075
688.374	0.0158496
688.453	0.0157510
688.531	0.0158481
688.609	0.0158292
688.687	0.0158528
688.765	0.0158296
688.843	0.0157829
688.921	0.0157067
688.999	0.0157828
689.078	0.0160041
689.156	0.0157553
689.234	0.0157684
689.312	0.0158060
689.390	0.0157274
689.468	0.0158964
689.546	0.0158278
689.624	0.0157693
689.703	0.0158350
689.781	0.0158530
689.859	0.0158967
689.937	0.0157195
690.015	0.0156840
690.093	0.0158781
690.171	0.0159954
690.249	0.0157249
690.328	0.0158999
690.406	0.0159643
690.484	0.0158948
690.562	0.0158020
690.640	0.0157752
690.718	0.0158558
690.796	0.0158899
690.874	0.0159083
690.953	0.0157524
691.031	0.0158476
691.109	0.0158308
691.187	0.0158855
691.265	0.0158114
691.343	0.0159596
691.421	0.0158044
691.499	0.0157365
691.578	0.0156993
691.656	0.0158827
691.734	0.0158820
691.812	0.0157832
691.890	0.0159419
691.968	0.0158202
692.046	0.0157449
692.124	0.0159264
692.203	0.0159738
692.281	0.0159827
692.359	0.0158466
692.437	0.0159189
692.515	0.0158469
692.593	0.0157989
692.671	0.0158898
692.749	0.0157434
692.828	0.0158332
692.906	0.0158355
692.984	0.0158838
693.062	0.0156702
693.140	0.0157355
693.218	0.0158114
693.296	0.0158240
693.374	0.0157546
693.453	0.0159814
693.531	0.0159418
693.609	0.0157413
693.687	0.0157409
693.765	0.0157758
693.843	0.0158364
693.921	0.0157726
693.999	0.0157629
694.078	0.0158161
694.156	0.0158482
694.234	0.0158266
694.312	0.0158553
694.390	0.0158562
694.468	0.0159398
694.546	0.0158400
694.624	0.0158123
694.703	0.0158013
694.781	0.0158958
694.859	0.0159216
694.937	0.0157762
695.015	0.0157650
695.093	0.0156874
695.171	0.0157194
695.249	0.0158144
695.328	0.0157204
695.406	0.0157581
695.484	0.0159261
695.562	0.0158114
695.640	0.0156798
695.718	0.0156701
695.796	0.0156712
695.874	0.0155907
695.953	0.0156371
696.031	0.0158441
696.109	0.0157557
696.187	0.0157690
696.265	0.0156780
696.343	0.0156261
696.421	0.0157740
696.499	0.0157112
696.578	0.0156572
696.656	0.0157668
696.734	0.0157244
696.812	0.0157442
696.890	0.0156704
696.968	0.0157656
697.046	0.0157247
697.124	0.0155835
697.203	0.0156270
697.281	0.0156835
697.359	0.0156265
697.437	0.0157111
697.515	0.0155947
697.593	0.0156726
697.671	0.0156583
697.749	0.0155869
697.828	0.0157012
697.906	0.0156395
697.984	0.0157304
698.062	0.0157433
698.140	0.0157967
698.218	0.0156997
698.296	0.0155804
698.374	0.0156139
698.453	0.0156480
698.531	0.0157745
698.609	0.0158599
698.687	0.0158633
698.765	0.0157954
698.843	0.0156797
698.921	0.0156366
698.999	0.0157501
699.078	0.0156127
699.156	0.0157493
699.234	0.0157294
699.312	0.0157253
699.390	0.0156450
699.468	0.0156515
699.546	0.0157867
699.624	0.0157529
699.703	0.0158720
699.781	0.0157793
699.859	0.0158412
699.937	0.0158117
700.015	0.0156308
700.093	0.0158482
700.171	0.0157664
700.249	0.0157896
700.328	0.0157905
700.406	0.0158510
700.484	0.0157573
700.562	0.0157631
700.640	0.0157723
700.718	0.0157803
700.796	0.0157875
700.874	0.0156892
700.953	0.0158714
701.031	0.0156841
701.109	0.0156433
701.187	0.0157195
701.265	0.0158369
701.343	0.0157311
701.421	0.0158608
701.499	0.0157782
701.578	0.0158311
701.656	0.0157127
701.734	0.0158820
701.812	0.0158237
701.890	0.0159176
701.968	0.0157912
702.046	0.0157379
702.124	0.0158374
702.203	0.0159885
702.281	0.0157723
702.359	0.0157838
702.437	0.0159201
702.515	0.0160265
702.593	0.0158465
702.671	0.0158947
702.749	0.0159048
702.828	0.0158352
702.906	0.0158347
702.984	0.0159425
703.062	0.0157884
703.140	0.0159383
703.218	0.0159580
703.296	0.0158971
703.374	0.0159393
703.453	0.0158715
703.531	0.0159328
703.609	0.0159476
703.687	0.0158482
703.765	0.0159282
703.843	0.0158332
703.921	0.0159014
703.999	0.0159489
704.078	0.0159367
704.156	0.0159644
704.234	0.0159376
704.312	0.0159387
704.390	0.0159644
704.468	0.0158842
704.546	0.0159381
704.624	0.0157913
704.703	0.0159435
704.781	0.0159415
704.859	0.0159409
704.937	0.0159750
705.015	0.0158810
705.093	0.0158868
705.171	0.0157113
705.249	0.0158669
705.328	0.0158875
705.406	0.0159561
705.484	0.0158539
705.562	0.0158347
705.640	0.0158875
705.718	0.0159312
705.796	0.0158945
705.874	0.0158474
705.953	0.0158305
706.031	0.0158788
706.109	0.0159631
706.187	0.0159165
706.265	0.0158675
706.343	0.0158445
706.421	0.0159351
706.499	0.0159882
706.578	0.0159320
706.656	0.0159126
706.734	0.0160449
706.812	0.0160457
706.890	0.0160146
706.968	0.0159280
707.046	0.0160246
707.124	0.0161127
707.203	0.0158521
707.281	0.0158968
707.359	0.0160584
707.437	0.0160359
707.515	0.0160701
707.593	0.0158698
707.671	0.0160120
707.749	0.0159158
707.828	0.0159456
707.906	0.0158739
707.984	0.0160275
708.062	0.0159568
708.140	0.0159982
708.218	0.0161023
708.296	0.0158826
708.374	0.0160153
708.453	0.0161013
708.531	0.0160043
708.609	0.0159326
708.687	0.0160911
708.765	0.0159108
708.843	0.0161018
708.921	0.0161964
708.999	0.0160129
709.078	0.0160214
709.156	0.0159702
709.234	0.0159554
709.312	0.0159487
709.390	0.0160558
709.468	0.0160467
709.546	0.0159845
709.624	0.0160345
709.703	0.0160381
709.781	0.0159645
709.859	0.0158601
709.937	0.0160965
710.015	0.0160143
710.093	0.0158987
710.171	0.0160358
710.249	0.0160210
710.328	0.0159556
710.406	0.0159270
710.484	0.0160631
710.562	0.0160522
710.640	0.0160596
710.718	0.0159690
710.796	0.0160040
710.874	0.0159538
710.953	0.0160873
711.031	0.0159803
711.109	0.0159983
711.187	0.0159842
711.265	0.0160068
711.343	0.0161056
711.421	0.0160633
711.499	0.0160562
711.578	0.0159691
711.656	0.0161166
711.734	0.0160896
711.812	0.0159254
711.890	0.0159243
711.968	0.0159666
712.046	0.0159831
712.124	0.0160293
712.203	0.0160759
712.281	0.0160374
712.359	0.0158504
712.437	0.0158131
712.515	0.0157860
712.593	0.0158341
712.671	0.0159549
712.749	0.0159396
712.828	0.0158839
712.906	0.0159071
712.984	0.0157777
713.062	0.0158076
713.140	0.0158281
713.218	0.0157036
713.296	0.0157237
713.374	0.0156247
713.453	0.0156547
713.531	0.0157269
713.609	0.0158758
713.687	0.0158087
713.765	0.0157380
713.843	0.0158385
713.921	0.0156745
713.999	0.0157969
714.078	0.0156194
714.156	0.0159327
714.234	0.0157398
714.312	0.0160202
714.390	0.0157104
714.468	0.0158689
714.546	0.0159023
714.624	0.0156694
714.703	0.0156492
714.781	0.0158279
714.859	0.0158299
714.937	0.0158874
715.015	0.0158351
715.093	0.0158865
715.171	0.0158439
715.249	0.0158222
715.328	0.0158193
715.406	0.0158219
715.484	0.0159114
715.562	0.0157436
715.640	0.0156387
715.718	0.0158297
715.796	0.0157672
715.874	0.0157230
715.953	0.0158534
716.031	0.0157180
716.109	0.0157233
716.187	0.0158119
716.265	0.0158257
716.343	0.0158851
716.421	0.0158006
716.499	0.0157961
716.578	0.0157701
716.656	0.0157443
716.734	0.0157821
716.812	0.0158897
716.890	0.0158441
716.968	0.0158304
717.046	0.0158302
717.124	0.0158975
717.203	0.0157379
717.281	0.0159062
717.359	0.0159074
717.437	0.0157579
717.515	0.0158532
717.593	0.0158877
717.671	0.0157949
717.749	0.0159384
717.828	0.0156615
717.906	0.0158257
717.984	0.0158835
718.062	0.0157717
718.140	0.0157552
718.218	0.0157536
718.296	0.0158797
718.374	0.0158232
718.453	0.0157540
718.531	0.0158170
718.609	0.0157262
718.687	0.0158833
718.765	0.0157577
718.843	0.0158820
718.921	0.0159846
718.999	0.0159443
719.078	0.0158083
719.156	0.0158255
719.234	0.0158661
719.312	0.0158026
719.390	0.0158806
719.468	0.0157575
719.546	0.0158521
719.624	0.0158379
719.703	0.0159650
719.781	0.0157636
719.859	0.0158777
719.937	0.0158581
720.015	0.0157681
720.093	0.0158017
720.171	0.0158516
720.249	0.0158030
720.328	0.0158380
720.406	0.0156776
720.484	0.0157896
720.562	0.0156630
720.640	0.0156563
720.718	0.0156325
720.796	0.0157884
720.874	0.0157794
720.953	0.0156897
721.031	0.0157339
721.109	0.0157164
721.187	0.0156973
721.265	0.0156618
721.343	0.0156065
721.421	0.0156178
721.499	0.0157330
721.578	0.0157118
721.656	0.0157816
721.734	0.0157240
721.812	0.0156656
721.890	0.0158244
721.968	0.0157736
722.046	0.0158722
722.124	0.0157771
722.203	0.0158199
722.281	0.0158138
722.359	0.0156354
722.437	0.0157823
722.515	0.0157090
722.593	0.0157184
722.671	0.0158311
722.749	0.0159942
722.828	0.0157533
722.906	0.0158421
722.984	0.0157120
723.062	0.0157747
723.140	0.0158413
723.218	0.0157166
723.296	0.0157676
723.374	0.0158224
723.453	0.0158029
723.531	0.0157961
723.609	0.0157278
723.687	0.0158682
723.765	0.0157800
723.843	0.0158357
723.921	0.0159185
723.999	0.0159296
724.078	0.0158321
724.156	0.0160203
724.234	0.0159745
724.312	0.0158637
724.390	0.0158475
724.468	0.0159701
724.546	0.0159642
724.624	0.0160075
724.703	0.0160843
724.781	0.0160202
724.859	0.0160387
724.937	0.0158666
725.015	0.0159380
725.093	0.0159066
725.171	0.0160426
725.249	0.0159772
725.328	0.0159279
725.406	0.0158497
725.484	0.0158981
725.562	0.0159174
725.640	0.0159664
725.718	0.0160906
725.796	0.0160970
725.874	0.0158626
725.953	0.0159920
726.031	0.0159270
726.109	0.0159148
726.187	0.0157877
726.265	0.0159341
726.343	0.0157989
726.421	0.0157384
726.499	0.0158905
726.578	0.0158914
726.656	0.0158589
726.734	0.0158182
726.812	0.0158831
726.890	0.0159865
726.968	0.0159817
727.046	0.0158785
727.124	0.0159298
727.203	0.0159188
727.281	0.0159074
727.359	0.0158474
727.437	0.0157857
727.515	0.0159729
727.593	0.0159580
727.671	0.0159981
727.749	0.0159032
727.828	0.0159026
727.906	0.0159657
727.984	0.0161032
728.062	0.0160061
728.140	0.0159850
728.218	0.0158409
728.296	0.0158810
728.374	0.0160740
728.453	0.0159652
728.531	0.0159848
728.609	0.0160429
728.687	0.0158546
728.765	0.0159194
728.843	0.0159366
728.921	0.0158218
728.999	0.0159580
729.078	0.0159529
729.156	0.0158916
729.234	0.0158942
729.312	0.0158987
729.390	0.0158244
729.468	0.0159593
729.546	0.0159406
729.624	0.0158101
729.703	0.0159290
729.781	0.0158079
729.859	0.0159754
729.937	0.0160072
730.015	0.0158665
730.093	0.0158600
730.171	0.0159811
730.249	0.0158977
730.328	0.0159785
730.406	0.0158729
730.484	0.0158565
730.562	0.0158875
730.640	0.0159153
730.718	0.0159481
730.796	0.0159427
730.874	0.0159634
730.953	0.0159209
731.031	0.0160831
731.109	0.0159209
731.187	0.0158698
731.265	0.0159945
731.343	0.0158038
731.421	0.0158965
731.499	0.0158286
731.578	0.0158463
731.656	0.0159982
731.734	0.0157927
731.812	0.0158212
731.890	0.0158056
731.968	0.0158337
732.046	0.0159516
732.124	0.0158852
732.203	0.0158434
732.281	0.0158802
732.359	0.0159144
732.437	0.0158836
732.515	0.0158936
732.593	0.0158651
732.671	0.0159936
732.749	0.0160506
732.828	0.0158885
732.906	0.0158932
732.984	0.0160416
733.062	0.0158380
733.140	0.0158720
733.218	0.0161137
733.296	0.0158582
733.374	0.0159332
733.453	0.0160100
733.531	0.0158214
733.609	0.0158501
733.687	0.0160072
733.765	0.0158985
733.843	0.0159605
733.921	0.0159328
733.999	0.0159122
734.078	0.0159936
734.156	0.0158646
734.234	0.0159451
734.312	0.0160117
734.390	0.0159702
734.468	0.0158389
734.546	0.0159362
734.624	0.0158237
734.703	0.0159100
734.781	0.0160875
734.859	0.0160233
734.937	0.0159861
735.015	0.0159599
735.093	0.0158241
735.171	0.0158454
735.249	0.0159672
735.328	0.0159114
735.406	0.0159722
735.484	0.0159583
735.562	0.0158376
735.640	0.0159589
735.718	0.0158542
735.796	0.0158192
735.874	0.0160039
735.953	0.0157516
736.031	0.0159199
736.109	0.0159301
736.187	0.0158954
736.265	0.0159837
736.343	0.0158266
736.421	0.0159248
736.499	0.0159731
736.578	0.0159845
736.656	0.0160002
736.734	0.0159344
736.812	0.0160526
736.890	0.0160455
736.968	0.0159448
737.046	0.0159587
737.124	0.0161955
737.203	0.0159435
737.281	0.0160709
737.359	0.0160012
737.437	0.0159576
737.515	0.0159206
737.593	0.0159221
737.671	0.0160416
737.749	0.0160152
737.828	0.0158403
737.906	0.0159325
737.984	0.0158932
738.062	0.0159041
738.140	0.0158800
738.218	0.0159519
738.296	0.0158813
738.374	0.0158805
738.453	0.0160201
738.531	0.0159553
738.609	0.0159686
738.687	0.0159544
738.765	0.0158949
738.843	0.0159208
738.921	0.0160258
738.999	0.0159518
739.078	0.0159403
739.156	0.0159653
739.234	0.0160290
739.312	0.0159654
739.390	0.0159608
739.468	0.0160673
739.546	0.0159375
739.624	0.0158360
739.703	0.0159158
739.781	0.0158948
739.859	0.0159987
739.937	0.0159940
740.015	0.0158981
740.093	0.0159248
740.171	0.0158842
740.249	0.0160571
740.328	0.0160400
740.406	0.0160781
740.484	0.0158936
740.562	0.0160782
740.640	0.0161064
740.718	0.0160103
740.796	0.0159742
740.874	0.0160508
740.953	0.0160372
741.031	0.0159979
741.109	0.0160612
741.187	0.0161481
741.265	0.0158841
741.343	0.0158645
741.421	0.0159441
741.499	0.0158604
741.578	0.0158635
741.656	0.0159278
741.734	0.0159621
741.812	0.0159428
741.890	0.0157973
741.968	0.0159753
742.046	0.0159357
742.124	0.0159087
742.203	0.0160097
742.281	0.0159193
742.359	0.0158841
742.437	0.0159024
742.515	0.0159548
742.593	0.0158951
742.671	0.0159442
742.749	0.0159178
742.828	0.0159975
742.906	0.0159545
742.984	0.0158870
743.062	0.0159685
743.140	0.0159717
743.218	0.0159005
743.296	0.0158524
743.374	0.0159312
743.453	0.0159981
743.531	0.0158738
743.609	0.0158247
743.687	0.0158344
743.765	0.0158412
743.843	0.0159019
743.921	0.0159268
743.999	0.0159198
744.078	0.0159982
744.156	0.0160237
744.234	0.0160700
744.312	0.0159789
744.390	0.0159486
744.468	0.0160941
744.546	0.0160271
744.624	0.0159309
744.703	0.0159355
744.781	0.0158805
744.859	0.0160002
744.937	0.0159666
745.015	0.0159616
745.093	0.0157639
745.171	0.0158584
745.249	0.0158939
745.328	0.0158816
745.406	0.0157190
745.484	0.0157799
745.562	0.0158801
745.640	0.0157674
745.718	0.0157111
745.796	0.0157450
745.874	0.0157706
745.953	0.0156438
746.031	0.0156513
746.109	0.0155869
746.187	0.0156617
746.265	0.0159522
746.343	0.0159273
746.421	0.0156942
746.499	0.0157657
746.578	0.0158405
746.656	0.0159676
746.734	0.0158363
746.812	0.0157922
746.890	0.0158609
746.968	0.0158803
747.046	0.0158181
747.124	0.0157277
747.203	0.0159425
747.281	0.0159361
747.359	0.0158005
747.437	0.0158036
747.515	0.0158182
747.593	0.0158273
747.671	0.0158435
747.749	0.0159169
747.828	0.0160210
747.906	0.0158537
747.984	0.0158243
748.062	0.0158176
748.140	0.0160076
748.218	0.0159288
748.296	0.0159641
748.374	0.0159676
748.453	0.0159695
748.531	0.0159765
748.609	0.0159610
748.687	0.0159122
748.765	0.0157964
748.843	0.0160259
748.921	0.0158864
748.999	0.0159979
749.078	0.0158140
749.156	0.0158895
749.234	0.0160515
749.312	0.0158687
749.390	0.0157693
749.468	0.0157896
749.546	0.0160332
749.624	0.0159917
749.703	0.0159347
749.781	0.0159863
749.859	0.0159167
749.937	0.0158710
750.015	0.0158683
750.093	0.0159994
750.171	0.0158607
750.249	0.0158706
750.328	0.0159031
750.406	0.0158994
750.484	0.0159692
750.562	0.0158104
750.640	0.0159597
750.718	0.0158395
750.796	0.0158288
750.874	0.0158378
750.953	0.0158214
751.031	0.0158845
751.109	0.0158644
751.187	0.0158802
751.265	0.0158399
751.343	0.0158552
751.421	0.0158850
751.499	0.0158617
751.578	0.0159583
751.656	0.0158833
751.734	0.0159624
751.812	0.0159406
751.890	0.0158956
751.968	0.0158353
752.046	0.0157922
752.124	0.0159328
752.203	0.0158464
752.281	0.0159308
752.359	0.0160176
752.437	0.0159258
752.515	0.0160017
752.593	0.0159678
752.671	0.0158299
752.749	0.0158898
752.828	0.0160436
752.906	0.0160268
752.984	0.0160524
753.062	0.0160831
753.140	0.0159859
753.218	0.0159492
753.296	0.0159507
753.374	0.0158940
753.453	0.0159600
753.531	0.0159722
753.609	0.0159705
753.687	0.0159947
753.765	0.0160604
753.843	0.0158392
753.921	0.0160032
753.999	0.0159035
754.078	0.0158579
754.156	0.0158799
754.234	0.0160266
754.312	0.0158929
754.390	0.0159357
754.468	0.0159818
754.546	0.0158720
754.624	0.0159449
754.703	0.0160044
754.781	0.0160116
754.859	0.0160248
754.937	0.0160751
755.015	0.0159278
755.093	0.0162127
755.171	0.0160976
755.249	0.0159509
755.328	0.0159505
755.406	0.0159993
755.484	0.0159731
755.562	0.0159684
755.640	0.0161300
755.718	0.0160801
755.796	0.0160032
755.874	0.0160371
755.953	0.0159949
756.031	0.0160265
756.109	0.0160740
756.187	0.0160742
756.265	0.0160443
756.343	0.0161207
756.421	0.0159462
756.499	0.0160860
756.578	0.0159745
756.656	0.0160114
756.734	0.0159469
756.812	0.0159300
756.890	0.0158897
756.968	0.0158480
757.046	0.0158267
757.124	0.0157539
757.203	0.0158413
757.281	0.0157208
757.359	0.0158903
757.437	0.0157542
757.515	0.0158614
757.593	0.0157458
757.671	0.0157999
757.749	0.0157102
757.828	0.0157938
757.906	0.0157411
757.984	0.0157784
758.062	0.0158025
758.140	0.0159362
758.218	0.0157301
758.296	0.0157257
758.374	0.0158024
758.453	0.0157963
758.531	0.0158105
758.609	0.0157198
758.687	0.0158410
758.765	0.0159199
758.843	0.0158458
758.921	0.0156805
758.999	0.0157067
759.078	0.0157474
759.156	0.0158372
759.234	0.0157100
759.312	0.0157085
759.390	0.0158686
759.468	0.0158897
759.546	0.0158800
759.624	0.0159203
759.703	0.0159444
759.781	0.0158675
759.859	0.0157310
759.937	0.0158086
760.015	0.0158203
760.093	0.0158350
760.171	0.0159204
760.249	0.0157098
760.328	0.0156630
760.406	0.0157802
760.484	0.0157368
760.562	0.0156899
760.640	0.0157658
760.718	0.0157757
760.796	0.0159079
760.874	0.0158223
760.953	0.0158244
761.031	0.0158324
761.109	0.0160096
761.187	0.0159332
761.265	0.0159296
761.343	0.0159518
761.421	0.0158802
761.499	0.0158710
761.578	0.0158366
761.656	0.0158803
761.734	0.0156840
761.812	0.0158718
761.890	0.0157833
761.968	0.0157288
762.046	0.0156988
762.124	0.0158057
762.203	0.0156729
762.281	0.0156383
762.359	0.0158509
762.437	0.0157726
762.515	0.0157614
762.593	0.0156926
762.671	0.0157413
762.749	0.0157069
762.828	0.0158458
762.906	0.0158012
762.984	0.0156697
763.062	0.0158161
763.140	0.0158092
763.218	0.0157210
763.296	0.0158366
763.374	0.0158259
763.453	0.0157394
763.531	0.0157887
763.609	0.0157526
763.687	0.0157786
763.765	0.0158082
763.843	0.0158019
763.921	0.0159027
763.999	0.0157872
764.078	0.0157832
764.156	0.0158455
764.234	0.0157661
764.312	0.0157513
764.390	0.0158546
764.468	0.0156915
764.546	0.0157131
764.624	0.0159122
764.703	0.0159016
764.781	0.0157237
764.859	0.0157883
764.937	0.0158037
765.015	0.0157046
765.093	0.0157510
765.171	0.0158107
765.249	0.0158327
765.328	0.0159477
765.406	0.0158750
765.484	0.0157330
765.562	0.0159319
765.640	0.0159771
765.718	0.0159077
765.796	0.0158268
765.874	0.0160226
765.953	0.0159225
766.031	0.0159344
766.109	0.0158628
766.187	0.0158507
766.265	0.0158862
766.343	0.0158529
766.421	0.0158327
766.499	0.0158222
766.578	0.0158170
766.656	0.0158090
766.734	0.0156683
766.812	0.0155791
766.890	0.0157632
766.968	0.0157522
767.046	0.0156109
767.124	0.0155915
767.203	0.0157010
767.281	0.0155754
767.359	0.0157718
767.437	0.0157029
767.515	0.0155519
767.593	0.0154916
767.671	0.0154872
767.749	0.0156026
767.828	0.0155638
767.906	0.0155956
767.984	0.0156355
768.062	0.0158064
768.140	0.0157884
768.218	0.0157665
768.296	0.0158900
768.374	0.0158523
768.453	0.0158578
768.531	0.0158891
768.609	0.0159443
768.687	0.0159803
768.765	0.0159803
768.843	0.0159574
768.921	0.0157975
768.999	0.0160278
769.078	0.0160085
769.156	0.0158987
769.234	0.0159288
769.312	0.0156820
769.390	0.0157820
769.468	0.0158148
769.546	0.0158647
769.624	0.0158265
769.703	0.0158105
769.781	0.0158100
769.859	0.0157763
769.937	0.0158008
770.015	0.0157124
770.093	0.0157689
770.171	0.0158923
770.249	0.0159560
770.328	0.0158405
770.406	0.0157533
770.484	0.0156191
770.562	0.0158037
770.640	0.0156947
770.718	0.0157211
770.796	0.0157017
770.874	0.0157544
770.953	0.0158052
771.031	0.0157935
771.109	0.0156797
771.187	0.0157761
771.265	0.0157257
771.343	0.0156573
771.421	0.0157405
771.499	0.0158076
771.578	0.0157734
771.656	0.0158678
771.734	0.0158311
771.812	0.0158980
771.890	0.0157314
771.968	0.0159101
772.046	0.0159502
772.124	0.0158146
772.203	0.0158463
772.281	0.0157541
772.359	0.0159546
772.437	0.0157519
772.515	0.0159078
772.593	0.0159599
772.671	0.0159113
772.749	0.0158557
772.828	0.0159795
772.906	0.0159151
772.984	0.0160043
773.062	0.0161266
773.140	0.0159048
773.218	0.0158385
773.296	0.0161556
773.374	0.0159869
773.453	0.0159245
773.531	0.0158933
773.609	0.0159477
773.687	0.0158344
773.765	0.0159309
773.843	0.0159187
773.921	0.0158699
773.999	0.0160133
774.078	0.0159959
774.156	0.0158820
774.234	0.0157925
774.312	0.0158936
774.390	0.0159460
774.468	0.0159062
774.546	0.0159576
774.624	0.0161107
774.703	0.0159418
774.781	0.0158103
774.859	0.0158961
774.937	0.0158942
775.015	0.0159301
775.093	0.0158225
775.171	0.0158157
775.249	0.0158150
775.328	0.0158269
775.406	0.0157720
775.484	0.0155937
775.562	0.0158999
775.640	0.0159275
775.718	0.0159422
775.796	0.0158290
775.874	0.0157801
775.953	0.0158849
776.031	0.0159718
776.109	0.0159231
776.187	0.0161590
776.265	0.0159634
776.343	0.0160655
776.421	0.0159107
776.499	0.0158307
776.578	0.0160847
776.656	0.0160892
776.734	0.0159323
776.812	0.0160104
776.890	0.0158464
776.968	0.0158139
777.046	0.0159316
777.124	0.0158478
777.203	0.0156580
777.281	0.0156750
777.359	0.0157203
777.437	0.0157784
777.515	0.0157091
777.593	0.0157305
777.671	0.0157269
777.749	0.0158073
777.828	0.0157771
777.906	0.0156383
777.984	0.0158604
778.062	0.0156980
778.140	0.0158390
778.218	0.0158747
778.296	0.0159670
778.374	0.0159636
778.453	0.0159180
778.531	0.0159576
778.609	0.0161578
778.687	0.0160360
778.765	0.0160612
778.843	0.0160388
778.921	0.0159816
778.999	0.0161826
779.078	0.0160794
779.156	0.0160387
779.234	0.0159991
779.312	0.0160080
779.390	0.0159520
779.468	0.0159918
779.546	0.0159631
779.624	0.0159586
779.703	0.0160596
779.781	0.0159845
779.859	0.0157377
779.937	0.0157423
780.015	0.0158990
780.093	0.0157574
780.171	0.0158595
780.249	0.0158733
780.328	0.0157233
780.406	0.0158675
780.484	0.0158521
780.562	0.0157185
780.640	0.0158131
780.718	0.0160100
780.796	0.0158547
780.874	0.0157196
780.953	0.0156347
781.031	0.0158383
781.109	0.0157533
781.187	0.0157735
781.265	0.0157163
781.343	0.0158080
781.421	0.0156811
781.499	0.0155824
781.578	0.0156487
781.656	0.0157303
781.734	0.0158097
781.812	0.0155255
781.890	0.0158668
781.968	0.0158302
782.046	0.0158361
782.124	0.0159653
782.203	0.0158478
782.281	0.0158359
782.359	0.0158994
782.437	0.0160492
782.515	0.0161314
782.593	0.0160050
782.671	0.0158788
782.749	0.0158678
782.828	0.0159266
782.906	0.0158414
782.984	0.0157580
783.062	0.0160527
783.140	0.0158195
783.218	0.0158193
783.296	0.0158757
783.374	0.0158107
783.453	0.0158607
783.531	0.0155994
783.609	0.0157452
783.687	0.0158537
783.765	0.0158411
783.843	0.0157255
783.921	0.0158450
783.999	0.0158862
784.078	0.0157312
784.156	0.0158022
784.234	0.0159258
784.312	0.0157098
784.390	0.0157648
784.468	0.0157283
784.546	0.0158128
784.624	0.0157502
784.703	0.0157364
784.781	0.0156905
784.859	0.0156544
784.937	0.0155916
785.015	0.0156753
785.093	0.0156585
785.171	0.0155685
785.249	0.0156216
785.328	0.0155570
785.406	0.0155723
785.484	0.0155815
785.562	0.0155470
785.640	0.0155744
785.718	0.0157893
785.796	0.0156393
785.874	0.0156764
785.953	0.0156100
786.031	0.0157193
786.109	0.0157515
786.187	0.0157226
786.265	0.0157730
786.343	0.0157466
786.421	0.0157704
786.499	0.0158504
786.578	0.0156844
786.656	0.0158710
786.734	0.0158220
786.812	0.0157529
786.890	0.0157281
786.968	0.0157439
787.046	0.0157693
787.124	0.0156854
787.203	0.0157277
787.281	0.0157191
787.359	0.0157533
787.437	0.0158634
787.515	0.0156831
787.593	0.0156721
787.671	0.0155740
787.749	0.0157451
787.828	0.0157362
787.906	0.0156384
787.984	0.0157718
788.062	0.0156841
788.140	0.0158415
788.218	0.0158459
788.296	0.0158281
788.374	0.0157759
788.453	0.0158144
788.531	0.0158109
788.609	0.0158355
788.687	0.0159461
788.765	0.0158936
788.843	0.0159596
788.921	0.0158571
788.999	0.0158678
789.078	0.0160030
789.156	0.0160361
789.234	0.0158458
789.312	0.0160078
789.390	0.0159558
789.468	0.0159132
789.546	0.0158921
789.624	0.0160383
789.703	0.0159425
789.781	0.0160388
789.859	0.0160414
789.937	0.0160553
790.015	0.0159953
790.093	0.0158865
790.171	0.0159929
790.249	0.0159840
790.328	0.0158746
790.406	0.0157705
790.484	0.0158647
790.562	0.0158046
790.640	0.0157738
790.718	0.0158632
790.796	0.0157261
790.874	0.0156811
790.953	0.0158510
791.031	0.0156579
791.109	0.0156680
791.187	0.0156770
791.265	0.0156384
791.343	0.0156165
791.421	0.0156290
791.499	0.0155865
791.578	0.0156398
791.656	0.0156403
791.734	0.0157706
791.812	0.0158421
791.890	0.0156287
791.968	0.0156685
792.046	0.0158912
792.124	0.0157181
792.203	0.0157804
792.281	0.0158147
792.359	0.0158917
792.437	0.0158540
792.515	0.0159676
792.593	0.0159255
792.671	0.0160199
792.749	0.0160470
792.828	0.0160088
792.906	0.0161007
792.984	0.0160719
793.062	0.0159365
793.140	0.0160386
793.218	0.0160922
793.296	0.0159514
793.374	0.0160462
793.453	0.0160662
793.531	0.0158868
793.609	0.0159376
793.687	0.0159352
793.765	0.0159345
793.843	0.0159486
793.921	0.0159066
793.999	0.0159570
794.078	0.0159792
794.156	0.0158690
794.234	0.0160886
794.312	0.0160659
794.390	0.0159586
794.468	0.0158679
794.546	0.0160630
794.624	0.0158928
794.703	0.0159002
794.781	0.0160593
794.859	0.0158767
794.937	0.0158746
795.015	0.0156650
795.093	0.0158309
795.171	0.0160345
795.249	0.0157128
795.328	0.0157422
795.406	0.0159273
795.484	0.0158199
795.562	0.0157983
795.640	0.0157935
795.718	0.0157344
795.796	0.0157183
795.874	0.0157646
795.953	0.0157936
796.031	0.0158183
796.109	0.0157289
796.187	0.0157363
796.265	0.0157738
796.343	0.0157410
796.421	0.0157859
796.499	0.0159153
796.578	0.0157645
796.656	0.0158504
796.734	0.0157255
796.812	0.0159585
796.890	0.0158688
796.968	0.0157868
797.046	0.0159197
797.124	0.0158454
797.203	0.0159630
797.281	0.0158041
797.359	0.0160136
797.437	0.0160369
797.515	0.0159396
797.593	0.0160835
797.671	0.0160509
797.749	0.0159321
797.828	0.0161038
797.906	0.0160934
797.984	0.0160381
798.062	0.0160645
798.140	0.0161118
798.218	0.0159981
798.296	0.0161066
798.374	0.0161087
798.453	0.0159638
798.531	0.0160133
798.609	0.0161250
798.687	0.0159965
798.765	0.0160704
798.843	0.0160754
798.921	0.0160179
798.999	0.0158871
799.078	0.0158372
799.156	0.0160181
799.234	0.0159521
799.312	0.0159235
799.390	0.0159088
799.468	0.0159369
799.546	0.0159226
799.624	0.0158490
799.703	0.0159639
799.781	0.0159377
799.859	0.0160299
799.937	0.0158300
800.015	0.0159274
800.093	0.0159383
800.171	0.0160036
800.249	0.0159143
800.328	0.0158385
800.406	0.0158669
800.484	0.0158983
800.562	0.0158607
800.640	0.0159162
800.718	0.0159186
800.796	0.0158428
800.874	0.0159159
800.953	0.0159377
801.031	0.0158109
801.109	0.0158855
801.187	0.0159189
801.265	0.0159093
801.343	0.0158771
801.421	0.0158669
801.499	0.0158277
801.578	0.0159212
801.656	0.0158089
801.734	0.0157353
801.812	0.0157553
801.890	0.0155907
801.968	0.0157231
802.046	0.0157888
802.124	0.0157986
802.203	0.0157147
802.281	0.0158286
802.359	0.0156940
802.437	0.0157438
802.515	0.0156503
802.593	0.0158623
802.671	0.0158130
802.749	0.0158631
802.828	0.0157137
802.906	0.0159721
802.984	0.0159155
803.062	0.0159679
803.140	0.0159145
803.218	0.0158074
803.296	0.0157913
803.374	0.0159131
803.453	0.0158957
803.531	0.0159532
803.609	0.0158530
803.687	0.0158245
803.765	0.0160258
803.843	0.0158430
803.921	0.0160439
803.999	0.0159322
804.078	0.0158731
804.156	0.0160623
804.234	0.0159176
804.312	0.0159344
804.390	0.0157884
804.468	0.0158662
804.546	0.0160176
804.624	0.0159258
804.703	0.0159328
804.781	0.0158823
804.859	0.0157854
804.937	0.0158999
805.015	0.0159024
805.093	0.0156932
805.171	0.0157487
805.249	0.0158165
805.328	0.0157528
805.406	0.0157475
805.484	0.0157954
805.562	0.0157770
805.640	0.0157714
805.718	0.0155959
805.796	0.0157447
805.874	0.0157841
805.953	0.0158202
806.031	0.0156989
806.109	0.0158532
806.187	0.0158759
806.265	0.0158675
806.343	0.0158018
806.421	0.0159254
806.499	0.0158532
806.578	0.0157851
806.656	0.0158512
806.734	0.0159670
806.812	0.0159864
806.890	0.0158960
806.968	0.0159584
807.046	0.0160635
807.124	0.0160001
807.203	0.0159998
807.281	0.0160818
807.359	0.0160780
807.437	0.0161633
807.515	0.0159895
807.593	0.0160414
807.671	0.0159908
807.749	0.0161128
807.828	0.0161472
807.906	0.0160289
807.984	0.0159447
808.062	0.0159074
808.140	0.0160033
808.218	0.0158775
808.296	0.0159877
808.374	0.0159814
808.453	0.0160445
808.531	0.0160363
808.609	0.0160164
808.687	0.0159645
808.765	0.0159203
808.843	0.0159145
808.921	0.0159779
808.999	0.0157508
809.078	0.0158943
809.156	0.0157395
809.234	0.0157656
809.312	0.0157698
809.390	0.0157439
809.468	0.0156702
809.546	0.0158016
809.624	0.0157339
809.703	0.0155820
809.781	0.0157239
809.859	0.0156491
809.937	0.0158175
810.015	0.0158205
810.093	0.0157446
810.171	0.0158449
810.249	0.0157731
810.328	0.0156300
810.406	0.0158087
810.484	0.0157347
810.562	0.0157899
810.640	0.0158154
810.718	0.0158878
810.796	0.0158858
810.874	0.0158710
810.953	0.0158857
811.031	0.0158876
811.109	0.0159972
811.187	0.0160245
811.265	0.0159024
811.343	0.0159953
811.421	0.0159415
811.499	0.0158824
811.578	0.0159956
811.656	0.0158903
811.734	0.0160687
811.812	0.0158679
811.890	0.0160640
811.968	0.0160399
812.046	0.0159029
812.124	0.0160088
812.203	0.0160761
812.281	0.0159714
812.359	0.0160196
812.437	0.0161953
812.515	0.0160902
812.593	0.0160690
812.671	0.0161250
812.749	0.0161330
812.828	0.0160472
812.906	0.0159753
812.984	0.0160596
813.062	0.0161221
813.140	0.0160756
813.218	0.0159571
813.296	0.0160528
813.374	0.0161571
813.453	0.0160845
813.531	0.0159722
813.609	0.0159983
813.687	0.0160548
813.765	0.0159814
813.843	0.0160044
813.921	0.0159772
813.999	0.0158739
814.078	0.0158995
814.156	0.0158418
814.234	0.0158803
814.312	0.0159134
814.390	0.0159428
814.468	0.0159580
814.546	0.0158110
814.624	0.0157596
814.703	0.0159326
814.781	0.0158060
814.859	0.0156624
814.937	0.0158202
815.015	0.0158516
815.093	0.0158183
815.171	0.0159433
815.249	0.0158202
815.328	0.0159724
815.406	0.0159184
815.484	0.0158698
815.562	0.0160978
815.640	0.0160252
815.718	0.0159025
815.796	0.0160835
815.874	0.0159607
815.953	0.0160218
816.031	0.0159306
816.109	0.0161474
816.187	0.0159892
816.265	0.0160411
816.343	0.0160642
816.421	0.0161673
816.499	0.0159830
816.578	0.0159002
816.656	0.0160132
816.734	0.0160731
816.812	0.0160530
816.890	0.0159170
816.968	0.0159612
817.046	0.0158637
817.124	0.0160085
817.203	0.0158765
817.281	0.0158503
817.359	0.0159731
817.437	0.0157271
817.515	0.0159177
817.593	0.0159945
817.671	0.0158065
817.749	0.0157997
817.828	0.0158476
817.906	0.0158813
817.984	0.0159057
818.062	0.0157390
818.140	0.0158192
818.218	0.0158044
818.296	0.0155786
818.374	0.0157989
818.453	0.0157367
818.531	0.0159826
818.609	0.0157627
818.687	0.0158294
818.765	0.0158135
818.843	0.0158891
818.921	0.0159669
818.999	0.0161386
819.078	0.0159743
819.156	0.0159450
819.234	0.0159495
819.312	0.0159997
819.390	0.0158990
819.468	0.0160600
819.546	0.0159096
819.624	0.0159952
819.703	0.0159162
819.781	0.0159058
819.859	0.0159741
819.937	0.0158546
820.015	0.0158910
820.093	0.0159942
820.171	0.0159095
820.249	0.0157767
820.328	0.0158445
820.406	0.0159733
820.484	0.0160571
820.562	0.0160078
820.640	0.0159899
820.718	0.0160098
820.796	0.0159717
820.874	0.0158696
820.953	0.0158791
821.031	0.0161208
821.109	0.0158611
821.187	0.0158690
821.265	0.0159404
821.343	0.0158297
821.421	0.0158567
821.499	0.0157553
821.578	0.0157661
821.656	0.0157593
821.734	0.0158561
821.812	0.0157294
821.890	0.0159711
821.968	0.0157335
822.046	0.0157734
822.124	0.0158189
822.203	0.0160297
822.281	0.0157616
822.359	0.0159848
822.437	0.0159615
822.515	0.0159075
822.593	0.0159878
822.671	0.0159525
822.749	0.0159395
822.828	0.0159167
822.906	0.0159386
822.984	0.0159480
823.062	0.0158001
823.140	0.0158353
823.218	0.0158588
823.296	0.0158790
823.374	0.0157646
823.453	0.0159165
823.531	0.0158408
823.609	0.0158672
823.687	0.0158848
823.765	0.0158349
823.843	0.0159234
823.921	0.0158676
823.999	0.0159331
824.078	0.0159320
824.156	0.0159494
824.234	0.0158194
824.312	0.0159106
824.390	0.0160104
824.468	0.0159065
824.546	0.0159210
824.624	0.0159460
824.703	0.0159178
824.781	0.0157671
824.859	0.0157660
824.937	0.0157564
825.015	0.0156876
825.093	0.0158553
825.171	0.0156065
825.249	0.0156054
825.328	0.0158078
825.406	0.0156120
825.484	0.0155209
825.562	0.0157792
825.640	0.0156998
825.718	0.0157158
825.796	0.0158616
825.874	0.0157498
825.953	0.0159222
826.031	0.0158844
826.109	0.0159296
826.187	0.0159715
826.265	0.0158847
826.343	0.0159551
826.421	0.0158427
826.499	0.0160284
826.578	0.0160220
826.656	0.0158915
826.734	0.0160110
826.812	0.0159859
826.890	0.0159790
826.968	0.0158627
827.046	0.0159522
827.124	0.0159818
827.203	0.0160119
827.281	0.0159988
827.359	0.0161160
827.437	0.0160167
827.515	0.0159171
827.593	0.0157338
827.671	0.0158179
827.749	0.0158175
827.828	0.0158378
827.906	0.0158711
827.984	0.0157513
828.062	0.0156886
828.140	0.0156387
828.218	0.0156659
828.296	0.0158640
828.374	0.0157133
828.453	0.0156419
828.531	0.0157165
828.609	0.0158132
828.687	0.0157408
828.765	0.0156609
828.843	0.0158723
828.921	0.0158918
828.999	0.0159471
829.078	0.0158218
829.156	0.0159417
829.234	0.0158339
829.312	0.0158882
829.390	0.0160574
829.468	0.0159867
829.546	0.0159979
829.624	0.0159413
829.703	0.0159418
829.781	0.0159735
829.859	0.0160781
829.937	0.0159309
830.015	0.0159458
830.093	0.0159428
830.171	0.0157532
830.249	0.0157754
830.328	0.0158620
830.406	0.0158539
830.484	0.0159135
830.562	0.0158720
830.640	0.0158267
830.718	0.0157602
830.796	0.0158395
830.874	0.0158144
830.953	0.0157440
831.031	0.0159431
831.109	0.0159402
831.187	0.0158736
831.265	0.0158954
831.343	0.0158510
831.421	0.0158510
831.499	0.0160172
831.578	0.0159936
831.656	0.0159929
831.734	0.0158183
831.812	0.0159851
831.890	0.0158936
831.968	0.0157842
832.046	0.0157568
832.124	0.0158040
832.203	0.0158201
832.281	0.0159000
832.359	0.0156400
832.437	0.0155146
832.515	0.0155687
832.593	0.0156956
832.671	0.0155387
832.749	0.0155941
832.828	0.0156210
832.906	0.0157113
832.984	0.0155286
833.062	0.0155663
833.140	0.0154855
833.218	0.0156041
833.296	0.0156663
833.374	0.0156940
833.453	0.0158078
833.531	0.0157238
833.609	0.0156154
833.687	0.0157704
833.765	0.0159154
833.843	0.0159465
833.921	0.0159873
833.999	0.0161244
834.078	0.0160380
834.156	0.0160918
834.234	0.0159916
834.312	0.0161890
834.390	0.0161840
834.468	0.0160620
834.546	0.0159332
834.624	0.0159161
834.703	0.0159805
834.781	0.0158585
834.859	0.0156447
834.937	0.0158137
835.015	0.0158154
835.093	0.0155960
835.171	0.0156422
835.249	0.0156593
835.328	0.0154863
835.406	0.0156393
835.484	0.0156111
835.562	0.0155097
835.640	0.0155590
835.718	0.0152982
835.796	0.0154971
835.874	0.0156939
835.953	0.0156946
836.031	0.0156379
836.109	0.0156245
836.187	0.0155910
836.265	0.0158480
836.343	0.0158278
836.421	0.0158865
836.499	0.0159813
836.578	0.0159820
836.656	0.0161434
836.734	0.0161887
836.812	0.0161294
836.890	0.0163235
836.968	0.0161316
837.046	0.0162503
837.124	0.0163274
837.203	0.0162415
837.281	0.0162651
837.359	0.0162468
837.437	0.0161295
837.515	0.0160812
837.593	0.0160222
837.671	0.0159593
837.749	0.0159749
837.828	0.0159321
837.906	0.0157761
837.984	0.0157566
838.062	0.0158575
838.140	0.0156982
838.218	0.0156278
838.296	0.0155780
838.374	0.0156778
838.453	0.0156107
838.531	0.0155465
838.609	0.0155731
838.687	0.0158625
838.765	0.0158159
838.843	0.0156634
838.921	0.0158790
838.999	0.0158990
839.078	0.0157401
839.156	0.0157862
839.234	0.0159432
839.312	0.0158183
839.390	0.0161002
839.468	0.0161065
839.546	0.0160800
839.624	0.0161836
839.703	0.0161504
839.781	0.0162260
839.859	0.0160683
839.937	0.0162708
840.015	0.0161886
840.093	0.0161958
840.171	0.0161578
840.249	0.0162139
840.328	0.0162440
840.406	0.0161597
840.484	0.0161506
840.562	0.0161159
840.640	0.0160002
840.718	0.0161372
840.796	0.0162405
840.874	0.0161200
840.953	0.0160073
841.031	0.0159399
841.109	0.0158624
841.187	0.0158748
841.265	0.0158445
841.343	0.0156921
841.421	0.0159334
841.499	0.0159467
841.578	0.0157832
841.656	0.0158928
841.734	0.0158215
841.812	0.0158676
841.890	0.0159331
841.968	0.0159272
842.046	0.0159517
842.124	0.0159284
842.203	0.0160239
842.281	0.0158817
842.359	0.0161125
842.437	0.0161057
842.515	0.0159258
842.593	0.0159359
842.671	0.0160521
842.749	0.0158639
842.828	0.0160303
842.906	0.0159750
842.984	0.0158807
843.062	0.0160091
843.140	0.0158192
843.218	0.0156977
843.296	0.0159333
843.374	0.0158738
843.453	0.0157953
843.531	0.0158547
843.609	0.0158333
843.687	0.0158800
843.765	0.0157542
843.843	0.0158728
843.921	0.0157706
843.999	0.0157369
844.078	0.0158567
844.156	0.0156508
844.234	0.0156517
844.312	0.0158208
844.390	0.0157632
844.468	0.0156865
844.546	0.0157384
844.624	0.0156695
844.703	0.0157357
844.781	0.0159825
844.859	0.0158382
844.937	0.0157780
845.015	0.0157202
845.093	0.0157458
845.171	0.0157454
845.249	0.0159537
845.328	0.0159283
845.406	0.0157722
845.484	0.0157972
845.562	0.0157387
845.640	0.0157152
845.718	0.0157944
845.796	0.0157481
845.874	0.0156523
845.953	0.0157761
846.031	0.0156931
846.109	0.0157822
846.187	0.0158933
846.265	0.0157816
846.343	0.0157278
846.421	0.0157000
846.499	0.0158233
846.578	0.0158951
846.656	0.0158235
846.734	0.0159346
846.812	0.0158761
846.890	0.0158070
846.968	0.0158688
847.046	0.0157878
847.124	0.0158408
847.203	0.0157994
847.281	0.0156271
847.359	0.0158307
847.437	0.0158575
847.515	0.0159013
847.593	0.0158936
847.671	0.0158842
847.749	0.0159008
847.828	0.0157637
847.906	0.0158551
847.984	0.0159373
848.062	0.0158603
848.140	0.0158057
848.218	0.0159101
848.296	0.0159026
848.374	0.0158762
848.453	0.0159647
848.531	0.0158372
848.609	0.0157974
848.687	0.0157410
848.765	0.0158125
848.843	0.0158897
848.921	0.0160028
848.999	0.0159204
849.078	0.0159500
849.156	0.0158845
849.234	0.0159054
849.312	0.0158909
849.390	0.0159947
849.468	0.0158953
849.546	0.0160432
849.624	0.0160344
849.703	0.0161149
849.781	0.0160298
849.859	0.0161120
849.937	0.0160824
850.015	0.0160326
850.093	0.0160667
850.171	0.0159367
850.249	0.0159790
850.328	0.0159988
850.406	0.0159578
850.484	0.0160230
850.562	0.0161456
850.640	0.0159361
850.718	0.0158971
850.796	0.0158894
850.874	0.0158801
850.953	0.0158888
851.031	0.0156501
851.109	0.0157945
851.187	0.0157938
851.265	0.0158114
851.343	0.0157988
851.421	0.0158260
851.499	0.0156987
851.578	0.0157899
851.656	0.0158358
851.734	0.0158160
851.812	0.0157346
851.890	0.0157864
851.968	0.0159402
852.046	0.0159177
852.124	0.0158389
852.203	0.0158653
852.281	0.0158629
852.359	0.0159454
852.437	0.0158463
852.515	0.0158139
852.593	0.0158035
852.671	0.0158264
852.749	0.0158884
852.828	0.0158035
852.906	0.0158041
852.984	0.0158131
853.062	0.0159449
853.140	0.0158441
853.218	0.0158613
853.296	0.0160036
853.374	0.0158983
853.453	0.0158079
853.531	0.0159784
853.609	0.0158883
853.687	0.0158115
853.765	0.0158836
853.843	0.0157810
853.921	0.0157617
853.999	0.0158778
854.078	0.0158160
854.156	0.0156734
854.234	0.0158192
854.312	0.0156522
854.390	0.0157809
854.468	0.0156344
854.546	0.0156999
854.624	0.0156284
854.703	0.0155224
854.781	0.0156318
854.859	0.0156253
854.937	0.0156384
855.015	0.0156125
855.093	0.0155189
855.171	0.0155871
855.249	0.0155690
855.328	0.0157226
855.406	0.0155962
855.484	0.0155486
855.562	0.0156641
855.640	0.0156766
855.718	0.0156282
855.796	0.0155402
855.874	0.0156893
855.953	0.0156811
856.031	0.0157336
856.109	0.0156222
856.187	0.0157930
856.265	0.0157864
856.343	0.0155921
856.421	0.0158350
856.499	0.0158888
856.578	0.0158810
856.656	0.0158362
856.734	0.0158137
856.812	0.0158759
856.890	0.0159341
856.968	0.0158247
857.046	0.0160073
857.124	0.0158546
857.203	0.0159693
857.281	0.0160867
857.359	0.0160178
857.437	0.0159553
857.515	0.0159910
857.593	0.0158656
857.671	0.0159772
857.749	0.0160855
857.828	0.0159094
857.906	0.0158971
857.984	0.0157503
858.062	0.0159999
858.140	0.0159054
858.218	0.0158260
858.296	0.0158564
858.374	0.0158716
858.453	0.0158666
858.531	0.0156860
858.609	0.0156927
858.687	0.0158595
858.765	0.0159164
858.843	0.0157690
858.921	0.0157279
858.999	0.0158244
859.078	0.0157308
859.156	0.0158235
859.234	0.0157787
859.312	0.0158272
859.390	0.0157542
859.468	0.0157741
859.546	0.0158263
859.624	0.0158292
859.703	0.0158108
859.781	0.0157341
859.859	0.0158054
859.937	0.0158376
860.015	0.0157727
860.093	0.0158777
860.171	0.0158121
860.249	0.0159686
860.328	0.0158188
860.406	0.0157774
860.484	0.0159482
860.562	0.0158277
860.640	0.0160852
860.718	0.0160415
860.796	0.0159971
860.874	0.0160198
860.953	0.0160419
861.031	0.0161388
861.109	0.0160545
861.187	0.0161023
861.265	0.0161814
861.343	0.0160576
861.421	0.0161777
861.499	0.0159760
861.578	0.0160343
861.656	0.0161446
861.734	0.0160381
861.812	0.0159306
861.890	0.0159776
861.968	0.0158785
862.046	0.0157543
862.124	0.0159245
862.203	0.0158382
862.281	0.0157101
862.359	0.0156988
862.437	0.0155800
862.515	0.0157776
862.593	0.0157511
862.671	0.0156498
862.749	0.0156750
862.828	0.0157268
862.906	0.0156426
862.984	0.0158285
863.062	0.0158125
863.140	0.0158456
863.218	0.0158057
863.296	0.0158004
863.374	0.0158494
863.453	0.0159661
863.531	0.0159183
863.609	0.0158984
863.687	0.0157752
863.765	0.0160358
863.843	0.0159666
863.921	0.0157938
863.999	0.0158704
864.078	0.0157389
864.156	0.0157568
864.234	0.0158622
864.312	0.0159507
864.390	0.0158176
864.468	0.0159248
864.546	0.0159995
864.624	0.0160107
864.703	0.0160025
864.781	0.0158228
864.859	0.0160070
864.937	0.0159238
865.015	0.0158505
865.093	0.0158431
865.171	0.0158584
865.249	0.0157879
865.328	0.0157052
865.406	0.0157719
865.484	0.0157924
865.562	0.0159034
865.640	0.0156367
865.718	0.0155776
865.796	0.0157697
865.874	0.0158191
865.953	0.0158146
866.031	0.0157944
866.109	0.0157745
866.187	0.0157822
866.265	0.0157528
866.343	0.0156713
866.421	0.0157426
866.499	0.0159856
866.578	0.0158043
866.656	0.0158801
866.734	0.0159598
866.812	0.0158618
866.890	0.0157081
866.968	0.0156842
867.046	0.0157545
867.124	0.0157166
867.203	0.0157642
867.281	0.0158513
867.359	0.0157809
867.437	0.0158310
867.515	0.0160830
867.593	0.0157711
867.671	0.0160310
867.749	0.0159016
867.828	0.0159749
867.906	0.0161142
867.984	0.0159177
868.062	0.0159766
868.140	0.0160275
868.218	0.0158491
868.296	0.0158535
868.374	0.0158973
868.453	0.0159068
868.531	0.0157265
868.609	0.0158190
868.687	0.0159187
868.765	0.0158031
868.843	0.0159289
868.921	0.0157480
868.999	0.0159637
869.078	0.0158241
869.156	0.0159004
869.234	0.0158942
869.312	0.0158512
869.390	0.0159926
869.468	0.0158117
869.546	0.0158891
869.624	0.0159267
869.703	0.0158982
869.781	0.0158591
869.859	0.0158025
869.937	0.0157767
870.015	0.0158094
870.093	0.0158157
870.171	0.0158887
870.249	0.0159110
870.328	0.0159711
870.406	0.0158887
870.484	0.0158989
870.562	0.0158740
870.640	0.0159321
870.718	0.0159434
870.796	0.0159190
870.874	0.0158765
870.953	0.0159824
871.031	0.0159716
871.109	0.0159716
871.187	0.0160340
871.265	0.0161225
871.343	0.0158818
871.421	0.0160771
871.499	0.0158938
871.578	0.0161056
871.656	0.0159710
871.734	0.0161349
871.812	0.0160497
871.890	0.0159779
871.968	0.0159856
872.046	0.0159978
872.124	0.0160834
872.203	0.0160425
872.281	0.0159210
872.359	0.0158680
872.437	0.0161444
872.515	0.0160249
872.593	0.0159174
872.671	0.0159630
872.749	0.0158410
872.828	0.0159898
872.906	0.0160616
872.984	0.0159714
873.062	0.0159857
873.140	0.0159411
873.218	0.0159885
873.296	0.0159985
873.374	0.0159495
873.453	0.0159848
873.531	0.0158061
873.609	0.0159293
873.687	0.0159937
873.765	0.0159273
873.843	0.0158389
873.921	0.0159747
873.999	0.0159414
874.078	0.0158679
874.156	0.0158398
874.234	0.0158411
874.312	0.0159178
874.390	0.0157845
874.468	0.0158946
874.546	0.0157772
874.624	0.0158413
874.703	0.0158035
874.781	0.0158248
874.859	0.0157565
874.937	0.0157545
875.015	0.0156777
875.093	0.0158427
875.171	0.0158375
875.249	0.0158734
875.328	0.0158112
875.406	0.0157424
875.484	0.0159287
875.562	0.0159541
875.640	0.0160822
875.718	0.0160351
875.796	0.0160574
875.874	0.0159521
875.953	0.0161672
876.031	0.0159389
876.109	0.0160332
876.187	0.0159972
876.265	0.0160793
876.343	0.0160480
876.421	0.0159522
876.499	0.0159596
876.578	0.0159544
876.656	0.0160131
876.734	0.0160526
876.812	0.0160094
876.890	0.0160605
876.968	0.0160533
877.046	0.0159235
877.124	0.0159791
877.203	0.0159896
877.281	0.0159677
877.359	0.0158554
877.437	0.0160124
877.515	0.0158640
877.593	0.0158070
877.671	0.0159066
877.749	0.0157298
877.828	0.0158144
877.906	0.0157552
877.984	0.0159005
878.062	0.0157536
878.140	0.0157349
878.218	0.0157847
878.296	0.0157640
878.374	0.0157488
878.453	0.0157718
878.531	0.0157822
878.609	0.0158057
878.687	0.0157638
878.765	0.0157405
878.843	0.0158922
878.921	0.0158685
878.999	0.0158083
879.078	0.0158788
879.156	0.0160613
879.234	0.0159222
879.312	0.0159531
879.390	0.0158851
879.468	0.0158965
879.546	0.0158719
879.624	0.0158607
879.703	0.0158523
879.781	0.0158424
879.859	0.0160254
879.937	0.0158925
880.015	0.0159534
880.093	0.0159021
880.171	0.0158688
880.249	0.0159595
880.328	0.0159438
880.406	0.0156890
880.484	0.0159003
880.562	0.0159402
880.640	0.0158374
880.718	0.0160130
880.796	0.0160033
880.874	0.0160071
880.953	0.0159814
881.031	0.0160162
881.109	0.0160900
881.187	0.0160342
881.265	0.0160950
881.343	0.0161427
881.421	0.0160937
881.499	0.0160347
881.578	0.0159771
881.656	0.0160164
881.734	0.0159666
881.812	0.0161320
881.890	0.0160648
881.968	0.0159474
882.046	0.0159094
882.124	0.0158846
882.203	0.0158947
882.281	0.0160329
882.359	0.0158602
882.437	0.0158992
882.515	0.0159209
882.593	0.0159443
882.671	0.0158986
882.749	0.0158251
882.828	0.0156680
882.906	0.0158335
882.984	0.0159990
883.062	0.0158237
883.140	0.0157410
883.218	0.0157830
883.296	0.0159080
883.374	0.0158380
883.453	0.0159151
883.531	0.0159144
883.609	0.0156969
883.687	0.0158247
883.765	0.0159223
883.843	0.0159350
883.921	0.0158825
883.999	0.0158012
884.078	0.0157298
884.156	0.0158875
884.234	0.0159569
884.312	0.0160275
884.390	0.0159171
884.468	0.0158618
884.546	0.0158908
884.624	0.0160552
884.703	0.0159594
884.781	0.0158591
884.859	0.0159789
884.937	0.0159771
885.015	0.0158794
885.093	0.0158027
885.171	0.0159212
885.249	0.0158231
885.328	0.0158190
885.406	0.0157603
885.484	0.0158968
885.562	0.0157962
885.640	0.0159278
885.718	0.0157922
885.796	0.0157761
885.874	0.0159238
885.953	0.0158621
886.031	0.0158385
886.109	0.0159232
886.187	0.0158362
886.265	0.0157874
886.343	0.0159374
886.421	0.0158829
886.499	0.0159621
886.578	0.0159427
886.656	0.0158226
886.734	0.0159811
886.812	0.0159278
886.890	0.0158401
886.968	0.0159223
887.046	0.0158083
887.124	0.0158205
887.203	0.0158897
887.281	0.0158185
887.359	0.0160060
887.437	0.0159756
887.515	0.0157902
887.593	0.0158887
887.671	0.0159769
887.749	0.0159164
887.828	0.0159830
887.906	0.0158586
887.984	0.0159697
888.062	0.0159537
888.140	0.0158757
888.218	0.0159136
888.296	0.0159661
888.374	0.0160115
888.453	0.0158710
888.531	0.0159125
888.609	0.0159539
888.687	0.0158849
888.765	0.0159763
888.843	0.0159648
888.921	0.0160056
888.999	0.0161033
889.078	0.0159523
889.156	0.0159827
889.234	0.0159721
889.312	0.0158949
889.390	0.0159268
889.468	0.0159674
889.546	0.0159885
889.624	0.0157858
889.703	0.0158762
889.781	0.0157236
889.859	0.0158982
889.937	0.0158382
890.015	0.0158815
890.093	0.0159415
890.171	0.0157800
890.249	0.0157859
890.328	0.0158289
890.406	0.0159399
890.484	0.0159079
890.562	0.0159346
890.640	0.0159727
890.718	0.0158640
890.796	0.0159027
890.874	0.0159762
890.953	0.0159098
891.031	0.0159975
891.109	0.0159490
891.187	0.0157396
891.265	0.0157546
891.343	0.0161248
891.421	0.0160004
891.499	0.0159332
891.578	0.0159592
891.656	0.0159573
891.734	0.0158540
891.812	0.0157655
891.890	0.0158034
891.968	0.0157700
892.046	0.0158712
892.124	0.0158054
892.203	0.0157825
892.281	0.0157355
892.359	0.0157253
892.437	0.0157240
892.515	0.0155911
892.593	0.0157355
892.671	0.0157821
892.749	0.0156403
892.828	0.0157440
892.906	0.0157584
892.984	0.0157384
893.062	0.0156228
893.140	0.0155528
893.218	0.0156672
893.296	0.0158457
893.374	0.0156837
893.453	0.0158250
893.531	0.0156711
893.609	0.0157122
893.687	0.0157490
893.765	0.0157526
893.843	0.0156598
893.921	0.0157664
893.999	0.0157375
894.078	0.0158870
894.156	0.0158604
894.234	0.0159194
894.312	0.0159014
894.390	0.0158061
894.468	0.0157072
894.546	0.0157852
894.624	0.0157704
894.703	0.0158922
894.781	0.0158118
894.859	0.0157573
894.937	0.0158504
895.015	0.0157480
895.093	0.0157815
895.171	0.0155821
895.249	0.0158150
895.328	0.0158446
895.406	0.0158133
895.484	0.0157339
895.562	0.0158263
895.640	0.0158389
895.718	0.0158077
895.796	0.0157652
895.874	0.0159139
895.953	0.0159573
896.031	0.0157744
896.109	0.0160093
896.187	0.0159877
896.265	0.0159605
896.343	0.0157942
896.421	0.0159075
896.499	0.0159594
896.578	0.0160807
896.656	0.0160203
896.734	0.0160172
896.812	0.0159490
896.890	0.0158943
896.968	0.0160583
897.046	0.0159994
897.124	0.0159354
897.203	0.0160812
897.281	0.0159722
897.359	0.0159972
897.437	0.0160207
897.515	0.0160146
897.593	0.0160513
897.671	0.0161135
897.749	0.0158071
897.828	0.0160392
897.906	0.0159656
897.984	0.0161755
898.062	0.0159712
898.140	0.0160597
898.218	0.0159334
898.296	0.0159406
898.374	0.0160223
898.453	0.0160050
898.531	0.0159387
898.609	0.0158646
898.687	0.0159547
898.765	0.0157974
898.843	0.0158761
898.921	0.0157835
898.999	0.0158285
899.078	0.0158439
899.156	0.0158302
899.234	0.0158086
899.312	0.0158578
899.390	0.0159091
899.468	0.0158804
899.546	0.0158297
899.624	0.0158010
899.703	0.0159520
899.781	0.0158371
899.859	0.0158994
899.937	0.0158528
900.015	0.0159713
900.093	0.0158664
900.171	0.0158564
900.249	0.0159137
900.328	0.0159619
900.406	0.0159248
900.484	0.0158309
900.562	0.0158972
900.640	0.0158316
900.718	0.0158600
900.796	0.0159468
900.874	0.0158907
900.953	0.0159476
901.031	0.0158907
901.109	0.0158096
901.187	0.0157317
901.265	0.0158340
901.343	0.0157800
901.421	0.0157633
901.499	0.0158761
901.578	0.0157844
901.656	0.0158624
901.734	0.0159538
901.812	0.0157590
901.890	0.0157309
901.968	0.0158546
902.046	0.0158018
902.124	0.0157327
902.203	0.0158264
902.281	0.0157210
902.359	0.0157288
902.437	0.0156451
902.515	0.0157020
902.593	0.0157467
902.671	0.0157966
902.749	0.0159336
902.828	0.0157379
902.906	0.0157517
902.984	0.0157832
903.062	0.0158677
903.140	0.0157150
903.218	0.0156596
903.296	0.0158028
903.374	0.0157481
903.453	0.0157700
903.531	0.0157342
903.609	0.0158480
903.687	0.0157520
903.765	0.0155331
903.843	0.0158064
903.921	0.0156438
903.999	0.0158146
904.078	0.0158123
904.156	0.0157578
904.234	0.0158039
904.312	0.0157882
904.390	0.0157980
904.468	0.0159019
904.546	0.0159641
904.624	0.0158531
904.703	0.0159864
904.781	0.0159729
904.859	0.0159642
904.937	0.0159518
905.015	0.0159827
905.093	0.0159345
905.171	0.0160752
905.249	0.0157907
905.328	0.0160990
905.406	0.0159298
905.484	0.0159429
905.562	0.0159406
905.640	0.0161209
905.718	0.0159756
905.796	0.0160758
905.874	0.0160896
905.953	0.0159769
906.031	0.0160074
906.109	0.0159724
906.187	0.0158683
906.265	0.0159016
906.343	0.0159885
906.421	0.0160328
906.499	0.0160040
906.578	0.0159924
906.656	0.0160175
906.734	0.0160144
906.812	0.0160292
906.890	0.0160023
906.968	0.0159729
907.046	0.0160645
907.124	0.0159685
907.203	0.0160023
907.281	0.0161290
907.359	0.0160201
907.437	0.0159713
907.515	0.0159815
907.593	0.0159178
907.671	0.0159925
907.749	0.0159439
907.828	0.0160117
907.906	0.0158897
907.984	0.0159861
908.062	0.0157948
908.140	0.0160664
908.218	0.0159652
908.296	0.0159359
908.374	0.0159128
908.453	0.0158924
908.531	0.0159187
908.609	0.0160094
908.687	0.0159829
908.765	0.0159704
908.843	0.0159231
908.921	0.0158485
908.999	0.0158540
909.078	0.0158669
909.156	0.0157285
909.234	0.0158594
909.312	0.0158670
909.390	0.0159680
909.468	0.0159353
909.546	0.0159133
909.624	0.0159634
909.703	0.0158199
909.781	0.0158298
909.859	0.0158856
909.937	0.0159119
910.015	0.0158974
910.093	0.0160341
910.171	0.0159557
910.249	0.0158994
910.328	0.0159551
910.406	0.0160489
910.484	0.0160567
910.562	0.0160630
910.640	0.0159573
910.718	0.0159599
910.796	0.0160506
910.874	0.0159763
910.953	0.0159664
911.031	0.0159663
911.109	0.0158729
911.187	0.0158537
911.265	0.0159728
911.343	0.0158809
911.421	0.0158183
911.499	0.0158067
911.578	0.0157260
911.656	0.0157851
911.734	0.0158396
911.812	0.0158269
911.890	0.0159424
911.968	0.0157476
912.046	0.0158244
912.124	0.0157438
912.203	0.0159436
912.281	0.0158732
912.359	0.0158398
912.437	0.0159579
912.515	0.0158432
912.593	0.0159451
912.671	0.0160053
912.749	0.0158067
912.828	0.0160370
912.906	0.0160770
912.984	0.0160041
913.062	0.0160852
913.140	0.0159941
913.218	0.0160440
913.296	0.0160940
913.374	0.0160786
913.453	0.0160439
913.531	0.0160889
913.609	0.0160999
913.687	0.0159511
913.765	0.0159200
913.843	0.0160529
913.921	0.0159455
913.999	0.0160104
914.078	0.0158321
914.156	0.0159255
914.234	0.0159127
914.312	0.0158316
914.390	0.0158145
914.468	0.0158767
914.546	0.0158781
914.624	0.0158811
914.703	0.0158952
914.781	0.0159578
914.859	0.0158755
914.937	0.0160110
915.015	0.0157870
915.093	0.0158981
915.171	0.0159612
915.249	0.0158755
915.328	0.0158017
915.406	0.0159747
915.484	0.0158805
915.562	0.0158269
915.640	0.0158973
915.718	0.0158847
915.796	0.0158972
915.874	0.0157900
915.953	0.0157843
916.031	0.0158769
916.109	0.0159010
916.187	0.0159386
916.265	0.0157395
916.343	0.0158930
916.421	0.0159090
916.499	0.0159272
916.578	0.0158504
916.656	0.0158593
916.734	0.0159895
916.812	0.0159202
916.890	0.0157827
916.968	0.0159315
917.046	0.0160545
917.124	0.0158368
917.203	0.0159499
917.281	0.0160088
917.359	0.0158955
917.437	0.0157809
917.515	0.0159179
917.593	0.0158091
917.671	0.0159021
917.749	0.0159204
917.828	0.0158910
917.906	0.0157993
917.984	0.0157984
918.062	0.0159632
918.140	0.0157539
918.218	0.0157973
918.296	0.0158316
918.374	0.0158425
918.453	0.0157787
918.531	0.0160179
918.609	0.0159379
918.687	0.0158678
918.765	0.0158551
918.843	0.0158835
918.921	0.0159727
918.999	0.0159312
919.078	0.0159720
919.156	0.0158754
919.234	0.0159003
919.312	0.0159788
919.390	0.0159290
919.468	0.0160316
919.546	0.0160012
919.624	0.0160376
919.703	0.0159514
919.781	0.0158125
919.859	0.0159177
919.937	0.0159341
