06/10/2022	18:27:39	Ver.	4.1	UNKNOWN
Optical Delay	600.015094	Delta X		0.078125	Sweeps	1	Scan Rate	0/0
Coordinates	Axis 1	NaN	Axis 2	NaN	Axis 3	NaN	Axis 4	NaN	Axis 5	NaN	Axis 6	0.000000
TX Power	0.000000	RX Power	0.000000

600.015	0.0156199
600.093	0.0156550
600.171	0.0157413
600.249	0.0155556
600.328	0.0156551
600.406	0.0157829
600.484	0.0157391
600.562	0.0154826
600.640	0.0154993
600.718	0.0155739
600.796	0.0155630
600.874	0.0155845
600.953	0.0157478
601.031	0.0156611
601.109	0.0155764
601.187	0.0154955
601.265	0.0156689
601.343	0.0156361
601.421	0.0155447
601.499	0.0156051
601.578	0.0155695
601.656	0.0156660
601.734	0.0157349
601.812	0.0156424
601.890	0.0156641
601.968	0.0156974
602.046	0.0157281
602.124	0.0156832
602.203	0.0156535
602.281	0.0157297
602.359	0.0156704
602.437	0.0155933
602.515	0.0156755
602.593	0.0157859
602.671	0.0156970
602.749	0.0156751
602.828	0.0155740
602.906	0.0157107
602.984	0.0156441
603.062	0.0156362
603.140	0.0156797
603.218	0.0155767
603.296	0.0156393
603.374	0.0155836
603.453	0.0156268
603.531	0.0155896
603.609	0.0157975
603.687	0.0156025
603.765	0.0156202
603.843	0.0157030
603.921	0.0156021
603.999	0.0155869
604.078	0.0156814
604.156	0.0156935
604.234	0.0156252
604.312	0.0156607
604.390	0.0155874
604.468	0.0157111
604.546	0.0157931
604.624	0.0156829
604.703	0.0155910
604.781	0.0155906
604.859	0.0156839
604.937	0.0156632
605.015	0.0157316
605.093	0.0156416
605.171	0.0156656
605.249	0.0156479
605.328	0.0156628
605.406	0.0155683
605.484	0.0158134
605.562	0.0157157
605.640	0.0155882
605.718	0.0156506
605.796	0.0156091
605.874	0.0155631
605.953	0.0156758
606.031	0.0156534
606.109	0.0156544
606.187	0.0156032
606.265	0.0157695
606.343	0.0156178
606.421	0.0156268
606.499	0.0156125
606.578	0.0155984
606.656	0.0156240
606.734	0.0155386
606.812	0.0156686
606.890	0.0157611
606.968	0.0155563
607.046	0.0156132
607.124	0.0156782
607.203	0.0155526
607.281	0.0156379
607.359	0.0156516
607.437	0.0155460
607.515	0.0156007
607.593	0.0156114
607.671	0.0155457
607.749	0.0156528
607.828	0.0157680
607.906	0.0155840
607.984	0.0155278
608.062	0.0156508
608.140	0.0157282
608.218	0.0157550
608.296	0.0155753
608.374	0.0155250
608.453	0.0156097
608.531	0.0156673
608.609	0.0155859
608.687	0.0155882
608.765	0.0156711
608.843	0.0155405
608.921	0.0156489
608.999	0.0157062
609.078	0.0155929
609.156	0.0155743
609.234	0.0156487
609.312	0.0155572
609.390	0.0156770
609.468	0.0156337
609.546	0.0155247
609.624	0.0156371
609.703	0.0156419
609.781	0.0156099
609.859	0.0156094
609.937	0.0154498
610.015	0.0156019
610.093	0.0157477
610.171	0.0156444
610.249	0.0155937
610.328	0.0156172
610.406	0.0156435
610.484	0.0156021
610.562	0.0157150
610.640	0.0156322
610.718	0.0155859
610.796	0.0156813
610.874	0.0156343
610.953	0.0156139
611.031	0.0156480
611.109	0.0155703
611.187	0.0156696
611.265	0.0156258
611.343	0.0156252
611.421	0.0157984
611.499	0.0157114
611.578	0.0156535
611.656	0.0157087
611.734	0.0157249
611.812	0.0158015
611.890	0.0156288
611.968	0.0155968
612.046	0.0156830
612.124	0.0156300
612.203	0.0157794
612.281	0.0157648
612.359	0.0157036
612.437	0.0157148
612.515	0.0156733
612.593	0.0155997
612.671	0.0156656
612.749	0.0157229
612.828	0.0156555
612.906	0.0156596
612.984	0.0155752
613.062	0.0155669
613.140	0.0157919
613.218	0.0155772
613.296	0.0156684
613.374	0.0156097
613.453	0.0157233
613.531	0.0155352
613.609	0.0154993
613.687	0.0156586
613.765	0.0156445
613.843	0.0155954
613.921	0.0157282
613.999	0.0156673
614.078	0.0157500
614.156	0.0156700
614.234	0.0158195
614.312	0.0156821
614.390	0.0155990
614.468	0.0157300
614.546	0.0157474
614.624	0.0156234
614.703	0.0156586
614.781	0.0156628
614.859	0.0156685
614.937	0.0155961
615.015	0.0156082
615.093	0.0156360
615.171	0.0156521
615.249	0.0156837
615.328	0.0156361
615.406	0.0155065
615.484	0.0155441
615.562	0.0156370
615.640	0.0158104
615.718	0.0155701
615.796	0.0155383
615.874	0.0156179
615.953	0.0156559
616.031	0.0155567
616.109	0.0156884
616.187	0.0157093
616.265	0.0156171
616.343	0.0155878
616.421	0.0157092
616.499	0.0155946
616.578	0.0156512
616.656	0.0156314
616.734	0.0156492
616.812	0.0156638
616.890	0.0156238
616.968	0.0156005
617.046	0.0157244
617.124	0.0155919
617.203	0.0155614
617.281	0.0156622
617.359	0.0156847
617.437	0.0156667
617.515	0.0155984
617.593	0.0156540
617.671	0.0157661
617.749	0.0156701
617.828	0.0156654
617.906	0.0155704
617.984	0.0157198
618.062	0.0156468
618.140	0.0155196
618.218	0.0156931
618.296	0.0155797
618.374	0.0157415
618.453	0.0156118
618.531	0.0156323
618.609	0.0156152
618.687	0.0156187
618.765	0.0155572
618.843	0.0154846
618.921	0.0155198
618.999	0.0156685
619.078	0.0156808
619.156	0.0156496
619.234	0.0156117
619.312	0.0156924
619.390	0.0155772
619.468	0.0156732
619.546	0.0156261
619.624	0.0156164
619.703	0.0156448
619.781	0.0157184
619.859	0.0156429
619.937	0.0156010
620.015	0.0156429
620.093	0.0155809
620.171	0.0154530
620.249	0.0157114
620.328	0.0156909
620.406	0.0156344
620.484	0.0155140
620.562	0.0156065
620.640	0.0155173
620.718	0.0155350
620.796	0.0156788
620.874	0.0156027
620.953	0.0156884
621.031	0.0156566
621.109	0.0156048
621.187	0.0157495
621.265	0.0155991
621.343	0.0155303
621.421	0.0156622
621.499	0.0157434
621.578	0.0158213
621.656	0.0155103
621.734	0.0155732
621.812	0.0157524
621.890	0.0157873
621.968	0.0156049
622.046	0.0157330
622.124	0.0156962
622.203	0.0156678
622.281	0.0157237
622.359	0.0156297
622.437	0.0156281
622.515	0.0156101
622.593	0.0155964
622.671	0.0154061
622.749	0.0155717
622.828	0.0158254
622.906	0.0155483
622.984	0.0154808
623.062	0.0155643
623.140	0.0155538
623.218	0.0157151
623.296	0.0156702
623.374	0.0156802
623.453	0.0156627
623.531	0.0156841
623.609	0.0156054
623.687	0.0157050
623.765	0.0156160
623.843	0.0155155
623.921	0.0157623
623.999	0.0155855
624.078	0.0156769
624.156	0.0155774
624.234	0.0156971
624.312	0.0156191
624.390	0.0154541
624.468	0.0157116
624.546	0.0155992
624.624	0.0156747
624.703	0.0156751
624.781	0.0155532
624.859	0.0155232
624.937	0.0156082
625.015	0.0155944
625.093	0.0156387
625.171	0.0155940
625.249	0.0157255
625.328	0.0156858
625.406	0.0157053
625.484	0.0155882
625.562	0.0155452
625.640	0.0156225
625.718	0.0156602
625.796	0.0155968
625.874	0.0155577
625.953	0.0156116
626.031	0.0155524
626.109	0.0157082
626.187	0.0156127
626.265	0.0155441
626.343	0.0156836
626.421	0.0156130
626.499	0.0155287
626.578	0.0155659
626.656	0.0157085
626.734	0.0156319
626.812	0.0157477
626.890	0.0156158
626.968	0.0155215
627.046	0.0155044
627.124	0.0157026
627.203	0.0156169
627.281	0.0156281
627.359	0.0157174
627.437	0.0155637
627.515	0.0155979
627.593	0.0156657
627.671	0.0155547
627.749	0.0156046
627.828	0.0155447
627.906	0.0156190
627.984	0.0154931
628.062	0.0155131
628.140	0.0157276
628.218	0.0157069
628.296	0.0157886
628.374	0.0158461
628.453	0.0155332
628.531	0.0155611
628.609	0.0154774
628.687	0.0155329
628.765	0.0156363
628.843	0.0154884
628.921	0.0155551
628.999	0.0155719
629.078	0.0156943
629.156	0.0156433
629.234	0.0155733
629.312	0.0155986
629.390	0.0156449
629.468	0.0156625
629.546	0.0155772
629.624	0.0155672
629.703	0.0155537
629.781	0.0156435
629.859	0.0156868
629.937	0.0155622
630.015	0.0155484
630.093	0.0156432
630.171	0.0156434
630.249	0.0156853
630.328	0.0156514
630.406	0.0155350
630.484	0.0155529
630.562	0.0155452
630.640	0.0155853
630.718	0.0155993
630.796	0.0155717
630.874	0.0157157
630.953	0.0155978
631.031	0.0155978
631.109	0.0157198
631.187	0.0155989
631.265	0.0155434
631.343	0.0155891
631.421	0.0156223
631.499	0.0156372
631.578	0.0155970
631.656	0.0156304
631.734	0.0155618
631.812	0.0157547
631.890	0.0156435
631.968	0.0155560
632.046	0.0156507
632.124	0.0156017
632.203	0.0156703
632.281	0.0156377
632.359	0.0156386
632.437	0.0159299
632.515	0.0156007
632.593	0.0156083
632.671	0.0155518
632.749	0.0156352
632.828	0.0155999
632.906	0.0155982
632.984	0.0157543
633.062	0.0155235
633.140	0.0157539
633.218	0.0157861
633.296	0.0156448
633.374	0.0155877
633.453	0.0155607
633.531	0.0156413
633.609	0.0156381
633.687	0.0157215
633.765	0.0156394
633.843	0.0156994
633.921	0.0156672
633.999	0.0155188
634.078	0.0156974
634.156	0.0156509
634.234	0.0156615
634.312	0.0156384
634.390	0.0155602
634.468	0.0154883
634.546	0.0156582
634.624	0.0156123
634.703	0.0156014
634.781	0.0155945
634.859	0.0156866
634.937	0.0157175
635.015	0.0155730
635.093	0.0156220
635.171	0.0158126
635.249	0.0156559
635.328	0.0155133
635.406	0.0156133
635.484	0.0156403
635.562	0.0156071
635.640	0.0156702
635.718	0.0156307
635.796	0.0156628
635.874	0.0155555
635.953	0.0156063
636.031	0.0158423
636.109	0.0156880
636.187	0.0157037
636.265	0.0155431
636.343	0.0157043
636.421	0.0155857
636.499	0.0156532
636.578	0.0156604
636.656	0.0155630
636.734	0.0155360
636.812	0.0155681
636.890	0.0157549
636.968	0.0156271
637.046	0.0157400
637.124	0.0156641
637.203	0.0155721
637.281	0.0157187
637.359	0.0155913
637.437	0.0156356
637.515	0.0156145
637.593	0.0156278
637.671	0.0156789
637.749	0.0156320
637.828	0.0155511
637.906	0.0155467
637.984	0.0157030
638.062	0.0155711
638.140	0.0155672
638.218	0.0155533
638.296	0.0156445
638.374	0.0155344
638.453	0.0155376
638.531	0.0158009
638.609	0.0156806
638.687	0.0155541
638.765	0.0154960
638.843	0.0155095
638.921	0.0155095
638.999	0.0155448
639.078	0.0156593
639.156	0.0156386
639.234	0.0155723
639.312	0.0156938
639.390	0.0156011
639.468	0.0156052
639.546	0.0155816
639.624	0.0157726
639.703	0.0156002
639.781	0.0155386
639.859	0.0156104
639.937	0.0155852
640.015	0.0155539
640.093	0.0156383
640.171	0.0154880
640.249	0.0155747
640.328	0.0157140
640.406	0.0156637
640.484	0.0155054
640.562	0.0155860
640.640	0.0156035
640.718	0.0156686
640.796	0.0156245
640.874	0.0155116
640.953	0.0156907
641.031	0.0156694
641.109	0.0156695
641.187	0.0155629
641.265	0.0155322
641.343	0.0156178
641.421	0.0155974
641.499	0.0157305
641.578	0.0156017
641.656	0.0156415
641.734	0.0155521
641.812	0.0155199
641.890	0.0156137
641.968	0.0156303
642.046	0.0157123
642.124	0.0156316
642.203	0.0156055
642.281	0.0155475
642.359	0.0156219
642.437	0.0157008
642.515	0.0155794
642.593	0.0156432
642.671	0.0156437
642.749	0.0156790
642.828	0.0156404
642.906	0.0156798
642.984	0.0156066
643.062	0.0155424
643.140	0.0155772
643.218	0.0155814
643.296	0.0156831
643.374	0.0156503
643.453	0.0155367
643.531	0.0155663
643.609	0.0156274
643.687	0.0156741
643.765	0.0155418
643.843	0.0155576
643.921	0.0154860
643.999	0.0155700
644.078	0.0155885
644.156	0.0155460
644.234	0.0157211
644.312	0.0156273
644.390	0.0156745
644.468	0.0155714
644.546	0.0154701
644.624	0.0155452
644.703	0.0157001
644.781	0.0157278
644.859	0.0155856
644.937	0.0154308
645.015	0.0155633
645.093	0.0156329
645.171	0.0156593
645.249	0.0155023
645.328	0.0156694
645.406	0.0156540
645.484	0.0157614
645.562	0.0155812
645.640	0.0155787
645.718	0.0156541
645.796	0.0155878
645.874	0.0155508
645.953	0.0155888
646.031	0.0156304
646.109	0.0154796
646.187	0.0155575
646.265	0.0156502
646.343	0.0157207
646.421	0.0156622
646.499	0.0156361
646.578	0.0155680
646.656	0.0155127
646.734	0.0155495
646.812	0.0156165
646.890	0.0156709
646.968	0.0156114
647.046	0.0155250
647.124	0.0156243
647.203	0.0155444
647.281	0.0156127
647.359	0.0155940
647.437	0.0156725
647.515	0.0157384
647.593	0.0153694
647.671	0.0155659
647.749	0.0156222
647.828	0.0157384
647.906	0.0156625
647.984	0.0155804
648.062	0.0156467
648.140	0.0155967
648.218	0.0157107
648.296	0.0155389
648.374	0.0156879
648.453	0.0157925
648.531	0.0156728
648.609	0.0155502
648.687	0.0155490
648.765	0.0157092
648.843	0.0156915
648.921	0.0156128
648.999	0.0157559
649.078	0.0155487
649.156	0.0156194
649.234	0.0156399
649.312	0.0158147
649.390	0.0156993
649.468	0.0157372
649.546	0.0157284
649.624	0.0155531
649.703	0.0155471
649.781	0.0156832
649.859	0.0156359
649.937	0.0156557
650.015	0.0155961
650.093	0.0157534
650.171	0.0157537
650.249	0.0156226
650.328	0.0155392
650.406	0.0156944
650.484	0.0155991
650.562	0.0157452
650.640	0.0157871
650.718	0.0157308
650.796	0.0156366
650.874	0.0155875
650.953	0.0156742
651.031	0.0158177
651.109	0.0155974
651.187	0.0155910
651.265	0.0157587
651.343	0.0156205
651.421	0.0156863
651.499	0.0157278
651.578	0.0157861
651.656	0.0155474
651.734	0.0155122
651.812	0.0155468
651.890	0.0156508
651.968	0.0156647
652.046	0.0156831
652.124	0.0156790
652.203	0.0156443
652.281	0.0157230
652.359	0.0156588
652.437	0.0155161
652.515	0.0154325
652.593	0.0156204
652.671	0.0156671
652.749	0.0155783
652.828	0.0155701
652.906	0.0157095
652.984	0.0155396
653.062	0.0156564
653.140	0.0156161
653.218	0.0155780
653.296	0.0155325
653.374	0.0157350
653.453	0.0155994
653.531	0.0157103
653.609	0.0157442
653.687	0.0156663
653.765	0.0156956
653.843	0.0156434
653.921	0.0156171
653.999	0.0156107
654.078	0.0156169
654.156	0.0156747
654.234	0.0156270
654.312	0.0155694
654.390	0.0155634
654.468	0.0157601
654.546	0.0156491
654.624	0.0156394
654.703	0.0156210
654.781	0.0156802
654.859	0.0155767
654.937	0.0156552
655.015	0.0156101
655.093	0.0155743
655.171	0.0157117
655.249	0.0155813
655.328	0.0156574
655.406	0.0156076
655.484	0.0156542
655.562	0.0156581
655.640	0.0157222
655.718	0.0156192
655.796	0.0156170
655.874	0.0157161
655.953	0.0155649
656.031	0.0155715
656.109	0.0156098
656.187	0.0156937
656.265	0.0156393
656.343	0.0155721
656.421	0.0154936
656.499	0.0156345
656.578	0.0156934
656.656	0.0154977
656.734	0.0157072
656.812	0.0157121
656.890	0.0155980
656.968	0.0157755
657.046	0.0157032
657.124	0.0157458
657.203	0.0156620
657.281	0.0157337
657.359	0.0156660
657.437	0.0156293
657.515	0.0156233
657.593	0.0156310
657.671	0.0155580
657.749	0.0156213
657.828	0.0155000
657.906	0.0157062
657.984	0.0156352
658.062	0.0156070
658.140	0.0157230
658.218	0.0156057
658.296	0.0154897
658.374	0.0156088
658.453	0.0156785
658.531	0.0156541
658.609	0.0156675
658.687	0.0155862
658.765	0.0157135
658.843	0.0157604
658.921	0.0156536
658.999	0.0156165
659.078	0.0156570
659.156	0.0156201
659.234	0.0155436
659.312	0.0155856
659.390	0.0156570
659.468	0.0156737
659.546	0.0156682
659.624	0.0155907
659.703	0.0156499
659.781	0.0156621
659.859	0.0157552
659.937	0.0156507
660.015	0.0156454
660.093	0.0157494
660.171	0.0156020
660.249	0.0156442
660.328	0.0156981
660.406	0.0154910
660.484	0.0155882
660.562	0.0155756
660.640	0.0155898
660.718	0.0157198
660.796	0.0156312
660.874	0.0156965
660.953	0.0155948
661.031	0.0156439
661.109	0.0155794
661.187	0.0156310
661.265	0.0155379
661.343	0.0154906
661.421	0.0154922
661.499	0.0156945
661.578	0.0156019
661.656	0.0155950
661.734	0.0156013
661.812	0.0156423
661.890	0.0157147
661.968	0.0156325
662.046	0.0156561
662.124	0.0156342
662.203	0.0157475
662.281	0.0156376
662.359	0.0156168
662.437	0.0156837
662.515	0.0156242
662.593	0.0156361
662.671	0.0156441
662.749	0.0156634
662.828	0.0156807
662.906	0.0157006
662.984	0.0155971
663.062	0.0155085
663.140	0.0155758
663.218	0.0156034
663.296	0.0156030
663.374	0.0156084
663.453	0.0156500
663.531	0.0154752
663.609	0.0156564
663.687	0.0156371
663.765	0.0155364
663.843	0.0155952
663.921	0.0157011
663.999	0.0155544
664.078	0.0156130
664.156	0.0156467
664.234	0.0156135
664.312	0.0155782
664.390	0.0155270
664.468	0.0156647
664.546	0.0155613
664.624	0.0156235
664.703	0.0156858
664.781	0.0156729
664.859	0.0156853
664.937	0.0156011
665.015	0.0156422
665.093	0.0157461
665.171	0.0155663
665.249	0.0155869
665.328	0.0155545
665.406	0.0155637
665.484	0.0157638
665.562	0.0155948
665.640	0.0155684
665.718	0.0156266
665.796	0.0155904
665.874	0.0155729
665.953	0.0157065
666.031	0.0155383
666.109	0.0155726
666.187	0.0155119
666.265	0.0156284
666.343	0.0157026
666.421	0.0156060
666.499	0.0156139
666.578	0.0156597
666.656	0.0155798
666.734	0.0156725
666.812	0.0156906
666.890	0.0156653
666.968	0.0155864
667.046	0.0156834
667.124	0.0155753
667.203	0.0155589
667.281	0.0156128
667.359	0.0156222
667.437	0.0154570
667.515	0.0154839
667.593	0.0155865
667.671	0.0156481
667.749	0.0156940
667.828	0.0155173
667.906	0.0155798
667.984	0.0156176
668.062	0.0156165
668.140	0.0157241
668.218	0.0156265
668.296	0.0156019
668.374	0.0155707
668.453	0.0156204
668.531	0.0155975
668.609	0.0154938
668.687	0.0154795
668.765	0.0157568
668.843	0.0156374
668.921	0.0154907
668.999	0.0156570
669.078	0.0155235
669.156	0.0155994
669.234	0.0157140
669.312	0.0156142
669.390	0.0155167
669.468	0.0156612
669.546	0.0156354
669.624	0.0155634
669.703	0.0156757
669.781	0.0156738
669.859	0.0156557
669.937	0.0156865
670.015	0.0155688
670.093	0.0156966
670.171	0.0155775
670.249	0.0155462
670.328	0.0157226
670.406	0.0154402
670.484	0.0156364
670.562	0.0156910
670.640	0.0155280
670.718	0.0155589
670.796	0.0155655
670.874	0.0156460
670.953	0.0156210
671.031	0.0156327
671.109	0.0156499
671.187	0.0155425
671.265	0.0155093
671.343	0.0156437
671.421	0.0156316
671.499	0.0156319
671.578	0.0155468
671.656	0.0155377
671.734	0.0155013
671.812	0.0156019
671.890	0.0155282
671.968	0.0157168
672.046	0.0156986
672.124	0.0156936
672.203	0.0155785
672.281	0.0156474
672.359	0.0155323
672.437	0.0157112
672.515	0.0156339
672.593	0.0155756
672.671	0.0156327
672.749	0.0154993
672.828	0.0156059
672.906	0.0155394
672.984	0.0155897
673.062	0.0156998
673.140	0.0156797
673.218	0.0155824
673.296	0.0154705
673.374	0.0154259
673.453	0.0154856
673.531	0.0156773
673.609	0.0157425
673.687	0.0155668
673.765	0.0155269
673.843	0.0157042
673.921	0.0156911
673.999	0.0156030
674.078	0.0155771
674.156	0.0157416
674.234	0.0156853
674.312	0.0154898
674.390	0.0155435
674.468	0.0156236
674.546	0.0157764
674.624	0.0156465
674.703	0.0155466
674.781	0.0155473
674.859	0.0156229
674.937	0.0154674
675.015	0.0156203
675.093	0.0156207
675.171	0.0154494
675.249	0.0155940
675.328	0.0155749
675.406	0.0155666
675.484	0.0153643
675.562	0.0156055
675.640	0.0156938
675.718	0.0157714
675.796	0.0158304
675.874	0.0156019
675.953	0.0154940
676.031	0.0156998
676.109	0.0155028
676.187	0.0155895
676.265	0.0155398
676.343	0.0156217
676.421	0.0155286
676.499	0.0156426
676.578	0.0156622
676.656	0.0156101
676.734	0.0156953
676.812	0.0156683
676.890	0.0156062
676.968	0.0155839
677.046	0.0155402
677.124	0.0157490
677.203	0.0155584
677.281	0.0155460
677.359	0.0157944
677.437	0.0154852
677.515	0.0155079
677.593	0.0157135
677.671	0.0155719
677.749	0.0156297
677.828	0.0155825
677.906	0.0155338
677.984	0.0156985
678.062	0.0156234
678.140	0.0156619
678.218	0.0156508
678.296	0.0156859
678.374	0.0156117
678.453	0.0156923
678.531	0.0155685
678.609	0.0155589
678.687	0.0156657
678.765	0.0154742
678.843	0.0156895
678.921	0.0156877
678.999	0.0155800
679.078	0.0155605
679.156	0.0155212
679.234	0.0156208
679.312	0.0155983
679.390	0.0157119
679.468	0.0156054
679.546	0.0155095
679.624	0.0155989
679.703	0.0154385
679.781	0.0156748
679.859	0.0156926
679.937	0.0156264
680.015	0.0156446
680.093	0.0156294
680.171	0.0156033
680.249	0.0155748
680.328	0.0156015
680.406	0.0156529
680.484	0.0156967
680.562	0.0157179
680.640	0.0155975
680.718	0.0156191
680.796	0.0157421
680.874	0.0156550
680.953	0.0155267
681.031	0.0155608
681.109	0.0156027
681.187	0.0155807
681.265	0.0156213
681.343	0.0155897
681.421	0.0155647
681.499	0.0156571
681.578	0.0156729
681.656	0.0156363
681.734	0.0156641
681.812	0.0156617
681.890	0.0156700
681.968	0.0157085
682.046	0.0156567
682.124	0.0155159
682.203	0.0156369
682.281	0.0155989
682.359	0.0156334
682.437	0.0157361
682.515	0.0157000
682.593	0.0155628
682.671	0.0156767
682.749	0.0156725
682.828	0.0156376
682.906	0.0155666
682.984	0.0155819
683.062	0.0155450
683.140	0.0155726
683.218	0.0156655
683.296	0.0156835
683.374	0.0156928
683.453	0.0155026
683.531	0.0156455
683.609	0.0156173
683.687	0.0155579
683.765	0.0156033
683.843	0.0155248
683.921	0.0156171
683.999	0.0156076
684.078	0.0156165
684.156	0.0156702
684.234	0.0156114
684.312	0.0155636
684.390	0.0156099
684.468	0.0156749
684.546	0.0155185
684.624	0.0155648
684.703	0.0156204
684.781	0.0156364
684.859	0.0156737
684.937	0.0155172
685.015	0.0155748
685.093	0.0156185
685.171	0.0156496
685.249	0.0156461
685.328	0.0157439
685.406	0.0155725
685.484	0.0157764
685.562	0.0156740
685.640	0.0156839
685.718	0.0155164
685.796	0.0155889
685.874	0.0155488
685.953	0.0156152
686.031	0.0157714
686.109	0.0156602
686.187	0.0156726
686.265	0.0155476
686.343	0.0156846
686.421	0.0156946
686.499	0.0157819
686.578	0.0156924
686.656	0.0155800
686.734	0.0156381
686.812	0.0156181
686.890	0.0156784
686.968	0.0156252
687.046	0.0157651
687.124	0.0155834
687.203	0.0156082
687.281	0.0157194
687.359	0.0156887
687.437	0.0156310
687.515	0.0156341
687.593	0.0156124
687.671	0.0156326
687.749	0.0156712
687.828	0.0157032
687.906	0.0156945
687.984	0.0156249
688.062	0.0156287
688.140	0.0156279
688.218	0.0156789
688.296	0.0155334
688.374	0.0157088
688.453	0.0156280
688.531	0.0155654
688.609	0.0154839
688.687	0.0155880
688.765	0.0157960
688.843	0.0155527
688.921	0.0157169
688.999	0.0156587
689.078	0.0155816
689.156	0.0156704
689.234	0.0156718
689.312	0.0156477
689.390	0.0155434
689.468	0.0156451
689.546	0.0155301
689.624	0.0155977
689.703	0.0156660
689.781	0.0155667
689.859	0.0157417
689.937	0.0157040
690.015	0.0155721
690.093	0.0156110
690.171	0.0155774
690.249	0.0156249
690.328	0.0156383
690.406	0.0157167
690.484	0.0157252
690.562	0.0156448
690.640	0.0156042
690.718	0.0156119
690.796	0.0156786
690.874	0.0156793
690.953	0.0156149
691.031	0.0156474
691.109	0.0156341
691.187	0.0156496
691.265	0.0155585
691.343	0.0156141
691.421	0.0156139
691.499	0.0155688
691.578	0.0155362
691.656	0.0157281
691.734	0.0156956
691.812	0.0156763
691.890	0.0155962
691.968	0.0156091
692.046	0.0157735
692.124	0.0156595
692.203	0.0157069
692.281	0.0156410
692.359	0.0156853
692.437	0.0156400
692.515	0.0157517
692.593	0.0156709
692.671	0.0157113
692.749	0.0156973
692.828	0.0156264
692.906	0.0155782
692.984	0.0155392
693.062	0.0156084
693.140	0.0157426
693.218	0.0156177
693.296	0.0155740
693.374	0.0156140
693.453	0.0157475
693.531	0.0157201
693.609	0.0156857
693.687	0.0156634
693.765	0.0156715
693.843	0.0156695
693.921	0.0157043
693.999	0.0157773
694.078	0.0155125
694.156	0.0155690
694.234	0.0155956
694.312	0.0156487
694.390	0.0156491
694.468	0.0157091
694.546	0.0156940
694.624	0.0157186
694.703	0.0157099
694.781	0.0156381
694.859	0.0157656
694.937	0.0156036
695.015	0.0157329
695.093	0.0156246
695.171	0.0154852
695.249	0.0157128
695.328	0.0158318
695.406	0.0156078
695.484	0.0155257
695.562	0.0156785
695.640	0.0156139
695.718	0.0157164
695.796	0.0156409
695.874	0.0156345
695.953	0.0156384
696.031	0.0156116
696.109	0.0157272
696.187	0.0155495
696.265	0.0157012
696.343	0.0156329
696.421	0.0157856
696.499	0.0156779
696.578	0.0156875
696.656	0.0155055
696.734	0.0155704
696.812	0.0154884
696.890	0.0155951
696.968	0.0157853
697.046	0.0156535
697.124	0.0157109
697.203	0.0156678
697.281	0.0155753
697.359	0.0156052
697.437	0.0156660
697.515	0.0157170
697.593	0.0157433
697.671	0.0157465
697.749	0.0156564
697.828	0.0156157
697.906	0.0156125
697.984	0.0157439
698.062	0.0157807
698.140	0.0155458
698.218	0.0155173
698.296	0.0157626
698.374	0.0155212
698.453	0.0155878
698.531	0.0155856
698.609	0.0156302
698.687	0.0156319
698.765	0.0156097
698.843	0.0155730
698.921	0.0156192
698.999	0.0157069
699.078	0.0157372
699.156	0.0156071
699.234	0.0156505
699.312	0.0156725
699.390	0.0157066
699.468	0.0156218
699.546	0.0156371
699.624	0.0156316
699.703	0.0156843
699.781	0.0157173
699.859	0.0156765
699.937	0.0155803
700.015	0.0156808
700.093	0.0156500
700.171	0.0155704
700.249	0.0157767
700.328	0.0155373
700.406	0.0156907
700.484	0.0157032
700.562	0.0156696
700.640	0.0156911
700.718	0.0157292
700.796	0.0155708
700.874	0.0156573
700.953	0.0157591
701.031	0.0157246
701.109	0.0156850
701.187	0.0157049
701.265	0.0156085
701.343	0.0155785
701.421	0.0156791
701.499	0.0157442
701.578	0.0155702
701.656	0.0156350
701.734	0.0157529
701.812	0.0156071
701.890	0.0157442
701.968	0.0158337
702.046	0.0155654
702.124	0.0155749
702.203	0.0156420
702.281	0.0156388
702.359	0.0156591
702.437	0.0156282
702.515	0.0155937
702.593	0.0155415
702.671	0.0155331
702.749	0.0156224
702.828	0.0156316
702.906	0.0157090
702.984	0.0157722
703.062	0.0156319
703.140	0.0156024
703.218	0.0155843
703.296	0.0156371
703.374	0.0156286
703.453	0.0156351
703.531	0.0156726
703.609	0.0156627
703.687	0.0156384
703.765	0.0156356
703.843	0.0156702
703.921	0.0156355
703.999	0.0156652
704.078	0.0156193
704.156	0.0155958
704.234	0.0156231
704.312	0.0155524
704.390	0.0156046
704.468	0.0156541
704.546	0.0157018
704.624	0.0155377
704.703	0.0156085
704.781	0.0155743
704.859	0.0157100
704.937	0.0157407
705.015	0.0156085
705.093	0.0155870
705.171	0.0156663
705.249	0.0157460
705.328	0.0155692
705.406	0.0157016
705.484	0.0157076
705.562	0.0155898
705.640	0.0156672
705.718	0.0154911
705.796	0.0156525
705.874	0.0157037
705.953	0.0156207
706.031	0.0156211
706.109	0.0156642
706.187	0.0157611
706.265	0.0156361
706.343	0.0156839
706.421	0.0155662
706.499	0.0156035
706.578	0.0155554
706.656	0.0156536
706.734	0.0155138
706.812	0.0156540
706.890	0.0157481
706.968	0.0156577
707.046	0.0156361
707.124	0.0155917
707.203	0.0155014
707.281	0.0156816
707.359	0.0157107
707.437	0.0156041
707.515	0.0156501
707.593	0.0156207
707.671	0.0155998
707.749	0.0156435
707.828	0.0156993
707.906	0.0156163
707.984	0.0155759
708.062	0.0156738
708.140	0.0156404
708.218	0.0156750
708.296	0.0155559
708.374	0.0156380
708.453	0.0156208
708.531	0.0155247
708.609	0.0155152
708.687	0.0156686
708.765	0.0156649
708.843	0.0156994
708.921	0.0156197
708.999	0.0156440
709.078	0.0155553
709.156	0.0157952
709.234	0.0155828
709.312	0.0154742
709.390	0.0155827
709.468	0.0155482
709.546	0.0157504
709.624	0.0156126
709.703	0.0155663
709.781	0.0156995
709.859	0.0156468
709.937	0.0157120
710.015	0.0157763
710.093	0.0155723
710.171	0.0157262
710.249	0.0156451
710.328	0.0155161
710.406	0.0155437
710.484	0.0157375
710.562	0.0157379
710.640	0.0156461
710.718	0.0156465
710.796	0.0156460
710.874	0.0156311
710.953	0.0156832
711.031	0.0155746
711.109	0.0156435
711.187	0.0156857
711.265	0.0156951
711.343	0.0156274
711.421	0.0156474
711.499	0.0156680
711.578	0.0156919
711.656	0.0156084
711.734	0.0157029
711.812	0.0156402
711.890	0.0155778
711.968	0.0156377
712.046	0.0155881
712.124	0.0155970
712.203	0.0156392
712.281	0.0155404
712.359	0.0157158
712.437	0.0155589
712.515	0.0157075
712.593	0.0155991
712.671	0.0157268
712.749	0.0156792
712.828	0.0156261
712.906	0.0157316
712.984	0.0156055
713.062	0.0155164
713.140	0.0157037
713.218	0.0157491
713.296	0.0157999
713.374	0.0156416
713.453	0.0156030
713.531	0.0156570
713.609	0.0156508
713.687	0.0156586
713.765	0.0156473
713.843	0.0156232
713.921	0.0155958
713.999	0.0156177
714.078	0.0156108
714.156	0.0156715
714.234	0.0156884
714.312	0.0156097
714.390	0.0156158
714.468	0.0155674
714.546	0.0155540
714.624	0.0154464
714.703	0.0155423
714.781	0.0156663
714.859	0.0155643
714.937	0.0156244
715.015	0.0156745
715.093	0.0157029
715.171	0.0156794
715.249	0.0155415
715.328	0.0154946
715.406	0.0155818
715.484	0.0155745
715.562	0.0155296
715.640	0.0156298
715.718	0.0156917
715.796	0.0156062
715.874	0.0155795
715.953	0.0155991
716.031	0.0156348
716.109	0.0155431
716.187	0.0156870
716.265	0.0156387
716.343	0.0154883
716.421	0.0155449
716.499	0.0155767
716.578	0.0156829
716.656	0.0155608
716.734	0.0154856
716.812	0.0156123
716.890	0.0155852
716.968	0.0155880
717.046	0.0155210
717.124	0.0155524
717.203	0.0156585
717.281	0.0157367
717.359	0.0156205
717.437	0.0155101
717.515	0.0154329
717.593	0.0155114
717.671	0.0156526
717.749	0.0155560
717.828	0.0155565
717.906	0.0156745
717.984	0.0156069
718.062	0.0154859
718.140	0.0156757
718.218	0.0156114
718.296	0.0156369
718.374	0.0155922
718.453	0.0154893
718.531	0.0157096
718.609	0.0155531
718.687	0.0157136
718.765	0.0156872
718.843	0.0155376
718.921	0.0155824
718.999	0.0156041
719.078	0.0154926
719.156	0.0156732
719.234	0.0154189
719.312	0.0156087
719.390	0.0156062
719.468	0.0155889
719.546	0.0155725
719.624	0.0156206
719.703	0.0155951
719.781	0.0157055
719.859	0.0154742
719.937	0.0156409
720.015	0.0155788
720.093	0.0156636
720.171	0.0155163
720.249	0.0155564
720.328	0.0155692
720.406	0.0155972
720.484	0.0156424
720.562	0.0157891
720.640	0.0155254
720.718	0.0155198
720.796	0.0156593
720.874	0.0157114
720.953	0.0157839
721.031	0.0155457
721.109	0.0156728
721.187	0.0156277
721.265	0.0156087
721.343	0.0156310
721.421	0.0155840
721.499	0.0156422
721.578	0.0157376
721.656	0.0156799
721.734	0.0156969
721.812	0.0156060
721.890	0.0156093
721.968	0.0155151
722.046	0.0156767
722.124	0.0155817
722.203	0.0156710
722.281	0.0156113
722.359	0.0156269
722.437	0.0155824
722.515	0.0156007
722.593	0.0157061
722.671	0.0157737
722.749	0.0156467
722.828	0.0156931
722.906	0.0157039
722.984	0.0156106
723.062	0.0156126
723.140	0.0157854
723.218	0.0155483
723.296	0.0155930
723.374	0.0155772
723.453	0.0157117
723.531	0.0156047
723.609	0.0156871
723.687	0.0157108
723.765	0.0155534
723.843	0.0155473
723.921	0.0156240
723.999	0.0158175
724.078	0.0156533
724.156	0.0155686
724.234	0.0156113
724.312	0.0157248
724.390	0.0157018
724.468	0.0156997
724.546	0.0156090
724.624	0.0156635
724.703	0.0157838
724.781	0.0157165
724.859	0.0157836
724.937	0.0158073
725.015	0.0157808
725.093	0.0157217
725.171	0.0156805
725.249	0.0156577
725.328	0.0157006
725.406	0.0157271
725.484	0.0157406
725.562	0.0158830
725.640	0.0157078
725.718	0.0156742
725.796	0.0157124
725.874	0.0157709
725.953	0.0158088
726.031	0.0157207
726.109	0.0156432
726.187	0.0156543
726.265	0.0157442
726.343	0.0157899
726.421	0.0157166
726.499	0.0157497
726.578	0.0158450
726.656	0.0157219
726.734	0.0157313
726.812	0.0157131
726.890	0.0155990
726.968	0.0156985
727.046	0.0158791
727.124	0.0157446
727.203	0.0157587
727.281	0.0157117
727.359	0.0155734
727.437	0.0156904
727.515	0.0156959
727.593	0.0156645
727.671	0.0155882
727.749	0.0156597
727.828	0.0157750
727.906	0.0158705
727.984	0.0156426
728.062	0.0155647
728.140	0.0156120
728.218	0.0157064
728.296	0.0157292
728.374	0.0157131
728.453	0.0156152
728.531	0.0156127
728.609	0.0157524
728.687	0.0154945
728.765	0.0156359
728.843	0.0155229
728.921	0.0155033
728.999	0.0157281
729.078	0.0157012
729.156	0.0156982
729.234	0.0157129
729.312	0.0156917
729.390	0.0155753
729.468	0.0156599
729.546	0.0157828
729.624	0.0156589
729.703	0.0156278
729.781	0.0156944
729.859	0.0156470
729.937	0.0155756
730.015	0.0155733
730.093	0.0157693
730.171	0.0155488
730.249	0.0154729
730.328	0.0156310
730.406	0.0156145
730.484	0.0155331
730.562	0.0157051
730.640	0.0155472
730.718	0.0155753
730.796	0.0155660
730.874	0.0154986
730.953	0.0157279
731.031	0.0156574
731.109	0.0156388
731.187	0.0154447
731.265	0.0154812
731.343	0.0156505
731.421	0.0156645
731.499	0.0155508
731.578	0.0156760
731.656	0.0156203
731.734	0.0155830
731.812	0.0156789
731.890	0.0156198
731.968	0.0157430
732.046	0.0155672
732.124	0.0154911
732.203	0.0155956
732.281	0.0153657
732.359	0.0154772
732.437	0.0156538
732.515	0.0156081
732.593	0.0156152
732.671	0.0156087
732.749	0.0156059
732.828	0.0155008
732.906	0.0155759
732.984	0.0155283
733.062	0.0155612
733.140	0.0156474
733.218	0.0155688
733.296	0.0155399
733.374	0.0155369
733.453	0.0156108
733.531	0.0155869
733.609	0.0155262
733.687	0.0154778
733.765	0.0156300
733.843	0.0156300
733.921	0.0156286
733.999	0.0156599
734.078	0.0157410
734.156	0.0156584
734.234	0.0155236
734.312	0.0154825
734.390	0.0154900
734.468	0.0156175
734.546	0.0156995
734.624	0.0156219
734.703	0.0156811
734.781	0.0155650
734.859	0.0156569
734.937	0.0155291
735.015	0.0156606
735.093	0.0155824
735.171	0.0156824
735.249	0.0155746
735.328	0.0155412
735.406	0.0155385
735.484	0.0156454
735.562	0.0157323
735.640	0.0157365
735.718	0.0157792
735.796	0.0155676
735.874	0.0155956
735.953	0.0154864
736.031	0.0155736
736.109	0.0156631
736.187	0.0156090
736.265	0.0156571
736.343	0.0155391
736.421	0.0156539
736.499	0.0156053
736.578	0.0156574
736.656	0.0156187
736.734	0.0155005
736.812	0.0155142
736.890	0.0156392
736.968	0.0154037
737.046	0.0153890
737.124	0.0154816
737.203	0.0156114
737.281	0.0155737
737.359	0.0156088
737.437	0.0156408
737.515	0.0155257
737.593	0.0157072
737.671	0.0158253
737.749	0.0159126
737.828	0.0157923
737.906	0.0157391
737.984	0.0158654
738.062	0.0156937
738.140	0.0158083
738.218	0.0157251
738.296	0.0157060
738.374	0.0156469
738.453	0.0156600
738.531	0.0154369
738.609	0.0152126
738.687	0.0151823
738.765	0.0151842
738.843	0.0151218
738.921	0.0150872
738.999	0.0150782
739.078	0.0152473
739.156	0.0154437
739.234	0.0154725
739.312	0.0157180
739.390	0.0159338
739.468	0.0164008
739.546	0.0166049
739.624	0.0168059
739.703	0.0169759
739.781	0.0172514
739.859	0.0173592
739.937	0.0173256
740.015	0.0173057
740.093	0.0169893
740.171	0.0164904
740.249	0.0159703
740.328	0.0155125
740.406	0.0147929
740.484	0.0143085
740.562	0.0137840
740.640	0.0133746
740.718	0.0131043
740.796	0.0131503
740.874	0.0131693
740.953	0.0135416
741.031	0.0140739
741.109	0.0144992
741.187	0.0149081
741.265	0.0156739
741.343	0.0163488
741.421	0.0169074
741.499	0.0175097
741.578	0.0178933
741.656	0.0183605
741.734	0.0187167
741.812	0.0188895
741.890	0.0186787
741.968	0.0184393
742.046	0.0178472
742.124	0.0170994
742.203	0.0159573
742.281	0.0149406
742.359	0.0138554
742.437	0.0128132
742.515	0.0119331
742.593	0.0114814
742.671	0.0111007
742.749	0.0113017
742.828	0.0117644
742.906	0.0124837
742.984	0.0132755
743.062	0.0140095
743.140	0.0148901
743.218	0.0157837
743.296	0.0166618
743.374	0.0174421
743.453	0.0180653
743.531	0.0186210
743.609	0.0194255
743.687	0.0198172
743.765	0.0200018
743.843	0.0200955
743.921	0.0201402
743.999	0.0194654
744.078	0.0188058
744.156	0.0179484
744.234	0.0169508
744.312	0.0156139
744.390	0.0146841
744.468	0.0138141
744.546	0.0131751
744.624	0.0127040
744.703	0.0123141
744.781	0.0122683
744.859	0.0123789
744.937	0.0125372
745.015	0.0128291
745.093	0.0130569
745.171	0.0135933
745.249	0.0141481
745.328	0.0148489
745.406	0.0153905
745.484	0.0161515
745.562	0.0166962
745.640	0.0173942
745.718	0.0179203
745.796	0.0182172
745.874	0.0183858
745.953	0.0182609
746.031	0.0179999
746.109	0.0175381
746.187	0.0167516
746.265	0.0159948
746.343	0.0150842
746.421	0.0142377
746.499	0.0134950
746.578	0.0129047
746.656	0.0122848
746.734	0.0120721
746.812	0.0121261
746.890	0.0121299
746.968	0.0123009
747.046	0.0129443
747.124	0.0132427
747.203	0.0137091
747.281	0.0144730
747.359	0.0150449
747.437	0.0156155
747.515	0.0165313
747.593	0.0173537
747.671	0.0180350
747.749	0.0187320
747.828	0.0192607
747.906	0.0198996
747.984	0.0204173
748.062	0.0206016
748.140	0.0207056
748.218	0.0206097
748.296	0.0203043
748.374	0.0199454
748.453	0.0194199
748.531	0.0186898
748.609	0.0180752
748.687	0.0171725
748.765	0.0163023
748.843	0.0154565
748.921	0.0148001
748.999	0.0141618
749.078	0.0134982
749.156	0.0130773
749.234	0.0128389
749.312	0.0125036
749.390	0.0124356
749.468	0.0124045
749.546	0.0125507
749.624	0.0126805
749.703	0.0127969
749.781	0.0131726
749.859	0.0132795
749.937	0.0134595
750.015	0.0137421
750.093	0.0138223
750.171	0.0138057
750.249	0.0137413
750.328	0.0137598
750.406	0.0136559
750.484	0.0136749
750.562	0.0137602
750.640	0.0139107
750.718	0.0140759
750.796	0.0143555
750.874	0.0145884
750.953	0.0150737
751.031	0.0155944
751.109	0.0160320
751.187	0.0166227
751.265	0.0172553
751.343	0.0179507
751.421	0.0186820
751.499	0.0190804
751.578	0.0196368
751.656	0.0200356
751.734	0.0200775
751.812	0.0200041
751.890	0.0197919
751.968	0.0194086
752.046	0.0188538
752.124	0.0184269
752.203	0.0176408
752.281	0.0171204
752.359	0.0164487
752.437	0.0159194
752.515	0.0153358
752.593	0.0149725
752.671	0.0145505
752.749	0.0142323
752.828	0.0138298
752.906	0.0138184
752.984	0.0136042
753.062	0.0137552
753.140	0.0139894
753.218	0.0142010
753.296	0.0145150
753.374	0.0148772
753.453	0.0150632
753.531	0.0154834
753.609	0.0157848
753.687	0.0158852
753.765	0.0160422
753.843	0.0163203
753.921	0.0161810
753.999	0.0162128
754.078	0.0164121
754.156	0.0162152
754.234	0.0161385
754.312	0.0160229
754.390	0.0158033
754.468	0.0158194
754.546	0.0155945
754.624	0.0151648
754.703	0.0149067
754.781	0.0146105
754.859	0.0145507
754.937	0.0142246
755.015	0.0140054
755.093	0.0140332
755.171	0.0140029
755.249	0.0140803
755.328	0.0141737
755.406	0.0141463
755.484	0.0143075
755.562	0.0143424
755.640	0.0146056
755.718	0.0145493
755.796	0.0147830
755.874	0.0149586
755.953	0.0151483
756.031	0.0155341
756.109	0.0158386
756.187	0.0161532
756.265	0.0165220
756.343	0.0169113
756.421	0.0171796
756.499	0.0174657
756.578	0.0177248
756.656	0.0179012
756.734	0.0179163
756.812	0.0180576
756.890	0.0180168
756.968	0.0179550
757.046	0.0177704
757.124	0.0177489
757.203	0.0172080
757.281	0.0169238
757.359	0.0166483
757.437	0.0163281
757.515	0.0159092
757.593	0.0156966
757.671	0.0154243
757.749	0.0151379
757.828	0.0150661
757.906	0.0148500
757.984	0.0147167
758.062	0.0147221
758.140	0.0147852
758.218	0.0148798
758.296	0.0150887
758.374	0.0150834
758.453	0.0152280
758.531	0.0154753
758.609	0.0155939
758.687	0.0156976
758.765	0.0157434
758.843	0.0159064
758.921	0.0156489
758.999	0.0155311
759.078	0.0154344
759.156	0.0151045
759.234	0.0148379
759.312	0.0147475
759.390	0.0143165
759.468	0.0141784
759.546	0.0140005
759.624	0.0140484
759.703	0.0140036
759.781	0.0139570
759.859	0.0139307
759.937	0.0141160
760.015	0.0143810
760.093	0.0145832
760.171	0.0148840
760.249	0.0149302
760.328	0.0153429
760.406	0.0156395
760.484	0.0158576
760.562	0.0160875
760.640	0.0161319
760.718	0.0161723
760.796	0.0162234
760.874	0.0160212
760.953	0.0158958
761.031	0.0158395
761.109	0.0158466
761.187	0.0156649
761.265	0.0158522
761.343	0.0160648
761.421	0.0162673
761.499	0.0166380
761.578	0.0166940
761.656	0.0169338
761.734	0.0172325
761.812	0.0171441
761.890	0.0173928
761.968	0.0174487
762.046	0.0173913
762.124	0.0174391
762.203	0.0173035
762.281	0.0171323
762.359	0.0169872
762.437	0.0169113
762.515	0.0168243
762.593	0.0166140
762.671	0.0161983
762.749	0.0158783
762.828	0.0157010
762.906	0.0153965
762.984	0.0150430
763.062	0.0148415
763.140	0.0147054
763.218	0.0146209
763.296	0.0144947
763.374	0.0143562
763.453	0.0143000
763.531	0.0145272
763.609	0.0146638
763.687	0.0146863
763.765	0.0146790
763.843	0.0148043
763.921	0.0148396
763.999	0.0147657
764.078	0.0148420
764.156	0.0150542
764.234	0.0151204
764.312	0.0150661
764.390	0.0150952
764.468	0.0154074
764.546	0.0153190
764.624	0.0153394
764.703	0.0154801
764.781	0.0156150
764.859	0.0156425
764.937	0.0156784
765.015	0.0157314
765.093	0.0158082
765.171	0.0157930
765.249	0.0157231
765.328	0.0158361
765.406	0.0156819
765.484	0.0156111
765.562	0.0156991
765.640	0.0157793
765.718	0.0156940
765.796	0.0157929
765.874	0.0157242
765.953	0.0158635
766.031	0.0157510
766.109	0.0157040
766.187	0.0157241
766.265	0.0159808
766.343	0.0160691
766.421	0.0161378
766.499	0.0161824
766.578	0.0163688
766.656	0.0163290
766.734	0.0163210
766.812	0.0163660
766.890	0.0164115
766.968	0.0164537
767.046	0.0163348
767.124	0.0162720
767.203	0.0162173
767.281	0.0161643
767.359	0.0160534
767.437	0.0160221
767.515	0.0159848
767.593	0.0159832
767.671	0.0159481
767.749	0.0159888
767.828	0.0159512
767.906	0.0159971
767.984	0.0160503
768.062	0.0157901
768.140	0.0158933
768.218	0.0157807
768.296	0.0158024
768.374	0.0155761
768.453	0.0155858
768.531	0.0151916
768.609	0.0150909
768.687	0.0149511
768.765	0.0149005
768.843	0.0147378
768.921	0.0145589
768.999	0.0146703
769.078	0.0147952
769.156	0.0147441
769.234	0.0147032
769.312	0.0146442
769.390	0.0148522
769.468	0.0148107
769.546	0.0150587
769.624	0.0152453
769.703	0.0152178
769.781	0.0155418
769.859	0.0154935
769.937	0.0155148
770.015	0.0155125
770.093	0.0155443
770.171	0.0154380
770.249	0.0153893
770.328	0.0153348
770.406	0.0154544
770.484	0.0153223
770.562	0.0152364
770.640	0.0153210
770.718	0.0154961
770.796	0.0154349
770.874	0.0154218
770.953	0.0155289
771.031	0.0155314
771.109	0.0155484
771.187	0.0157607
771.265	0.0161281
771.343	0.0162047
771.421	0.0163158
771.499	0.0165470
771.578	0.0166660
771.656	0.0168993
771.734	0.0169983
771.812	0.0168749
771.890	0.0169576
771.968	0.0168311
772.046	0.0168996
772.124	0.0168040
772.203	0.0166037
772.281	0.0165731
772.359	0.0161801
772.437	0.0159990
772.515	0.0158405
772.593	0.0157499
772.671	0.0157387
772.749	0.0157163
772.828	0.0154483
772.906	0.0152902
772.984	0.0153264
773.062	0.0152509
773.140	0.0152783
773.218	0.0151920
773.296	0.0153755
773.374	0.0154272
773.453	0.0154242
773.531	0.0153402
773.609	0.0154988
773.687	0.0155522
773.765	0.0154838
773.843	0.0153854
773.921	0.0153879
773.999	0.0154018
774.078	0.0153500
774.156	0.0151899
774.234	0.0151727
774.312	0.0150645
774.390	0.0151192
774.468	0.0150290
774.546	0.0150434
774.624	0.0150664
774.703	0.0151028
774.781	0.0152759
774.859	0.0152097
774.937	0.0151025
775.015	0.0154392
775.093	0.0153689
775.171	0.0155614
775.249	0.0156315
775.328	0.0156054
775.406	0.0158790
775.484	0.0160583
775.562	0.0159049
775.640	0.0159680
775.718	0.0159637
775.796	0.0161009
775.874	0.0161365
775.953	0.0161182
776.031	0.0163046
776.109	0.0159303
776.187	0.0160089
776.265	0.0161932
776.343	0.0160044
776.421	0.0160352
776.499	0.0158862
776.578	0.0159711
776.656	0.0160978
776.734	0.0160565
776.812	0.0161896
776.890	0.0161558
776.968	0.0160648
777.046	0.0161365
777.124	0.0161959
777.203	0.0160864
777.281	0.0159619
777.359	0.0160992
777.437	0.0159449
777.515	0.0158055
777.593	0.0158091
777.671	0.0157255
777.749	0.0155561
777.828	0.0156733
777.906	0.0156217
777.984	0.0155940
778.062	0.0155499
778.140	0.0157439
778.218	0.0157780
778.296	0.0156562
778.374	0.0157018
778.453	0.0155618
778.531	0.0156689
778.609	0.0155559
778.687	0.0154160
778.765	0.0154159
778.843	0.0152673
778.921	0.0153412
778.999	0.0153660
779.078	0.0152116
779.156	0.0152473
779.234	0.0152830
779.312	0.0153666
779.390	0.0152945
779.468	0.0152536
779.546	0.0153781
779.624	0.0154066
779.703	0.0155382
779.781	0.0155379
779.859	0.0154627
779.937	0.0156140
780.015	0.0156718
780.093	0.0156100
780.171	0.0156180
780.249	0.0156139
780.328	0.0155762
780.406	0.0156628
780.484	0.0156822
780.562	0.0157213
780.640	0.0156932
780.718	0.0156023
780.796	0.0156683
780.874	0.0158210
780.953	0.0156368
781.031	0.0158159
781.109	0.0157874
781.187	0.0158331
781.265	0.0160002
781.343	0.0160954
781.421	0.0160413
781.499	0.0160233
781.578	0.0161327
781.656	0.0161685
781.734	0.0162019
781.812	0.0162009
781.890	0.0162762
781.968	0.0163486
782.046	0.0160883
782.124	0.0162846
782.203	0.0162238
782.281	0.0161371
782.359	0.0160864
782.437	0.0160015
782.515	0.0158221
782.593	0.0157812
782.671	0.0156385
782.749	0.0153680
782.828	0.0153896
782.906	0.0153236
782.984	0.0151939
783.062	0.0150423
783.140	0.0149641
783.218	0.0149780
783.296	0.0149877
783.374	0.0149213
783.453	0.0150195
783.531	0.0149819
783.609	0.0151138
783.687	0.0151659
783.765	0.0150996
783.843	0.0150446
783.921	0.0150831
783.999	0.0151961
784.078	0.0154151
784.156	0.0152861
784.234	0.0153799
784.312	0.0153288
784.390	0.0153004
784.468	0.0154482
784.546	0.0157119
784.624	0.0160470
784.703	0.0159818
784.781	0.0160535
784.859	0.0161456
784.937	0.0163553
785.015	0.0163089
785.093	0.0165591
785.171	0.0166357
785.249	0.0166277
785.328	0.0167378
785.406	0.0168150
785.484	0.0167343
785.562	0.0166869
785.640	0.0167048
785.718	0.0165469
785.796	0.0163992
785.874	0.0162003
785.953	0.0161471
786.031	0.0159224
786.109	0.0157237
786.187	0.0154607
786.265	0.0154253
786.343	0.0153867
786.421	0.0151794
786.499	0.0150314
786.578	0.0148408
786.656	0.0148616
786.734	0.0146728
786.812	0.0146838
786.890	0.0147484
786.968	0.0147123
787.046	0.0149014
787.124	0.0148912
787.203	0.0150269
787.281	0.0151492
787.359	0.0151877
787.437	0.0153714
787.515	0.0153210
787.593	0.0154211
787.671	0.0155123
787.749	0.0155212
787.828	0.0157581
787.906	0.0155357
787.984	0.0157503
788.062	0.0158806
788.140	0.0156919
788.218	0.0158312
788.296	0.0157628
788.374	0.0157971
788.453	0.0159149
788.531	0.0158404
788.609	0.0158353
788.687	0.0159283
788.765	0.0158106
788.843	0.0157897
788.921	0.0157990
788.999	0.0157831
789.078	0.0158346
789.156	0.0158455
789.234	0.0157968
789.312	0.0156194
789.390	0.0158452
789.468	0.0158941
789.546	0.0157607
789.624	0.0158728
789.703	0.0159736
789.781	0.0158148
789.859	0.0160564
789.937	0.0160754
790.015	0.0159801
790.093	0.0159412
790.171	0.0158928
790.249	0.0157485
790.328	0.0158486
790.406	0.0158289
790.484	0.0157857
790.562	0.0157115
790.640	0.0156493
790.718	0.0157930
790.796	0.0156579
790.874	0.0157461
790.953	0.0158440
791.031	0.0156466
791.109	0.0157005
791.187	0.0157183
791.265	0.0156741
791.343	0.0156078
791.421	0.0156599
791.499	0.0156203
791.578	0.0155619
791.656	0.0154893
791.734	0.0155941
791.812	0.0156290
791.890	0.0155027
791.968	0.0154672
792.046	0.0155778
792.124	0.0154015
792.203	0.0154613
792.281	0.0153909
792.359	0.0154295
792.437	0.0153310
792.515	0.0154278
792.593	0.0154165
792.671	0.0155232
792.749	0.0155945
792.828	0.0157096
792.906	0.0156370
792.984	0.0157219
793.062	0.0157103
793.140	0.0156768
793.218	0.0158421
793.296	0.0156409
793.374	0.0157378
793.453	0.0158656
793.531	0.0158584
793.609	0.0157860
793.687	0.0157846
793.765	0.0157841
793.843	0.0158381
793.921	0.0155717
793.999	0.0155618
794.078	0.0156823
794.156	0.0156948
794.234	0.0156190
794.312	0.0155019
794.390	0.0155582
794.468	0.0156290
794.546	0.0156099
794.624	0.0155962
794.703	0.0156393
794.781	0.0156282
794.859	0.0156615
794.937	0.0155869
795.015	0.0156622
795.093	0.0156816
795.171	0.0157423
795.249	0.0158611
795.328	0.0158819
795.406	0.0158270
795.484	0.0159182
795.562	0.0159212
795.640	0.0160239
795.718	0.0158999
795.796	0.0157927
795.874	0.0157711
795.953	0.0158215
796.031	0.0158272
796.109	0.0158063
796.187	0.0157284
796.265	0.0156600
796.343	0.0155675
796.421	0.0154610
796.499	0.0153895
796.578	0.0153870
796.656	0.0153879
796.734	0.0153887
796.812	0.0153036
796.890	0.0154179
796.968	0.0154075
797.046	0.0153349
797.124	0.0155232
797.203	0.0153835
797.281	0.0153471
797.359	0.0153551
797.437	0.0153748
797.515	0.0154514
797.593	0.0154119
797.671	0.0154658
797.749	0.0155202
797.828	0.0155586
797.906	0.0155429
797.984	0.0155755
798.062	0.0154705
798.140	0.0155857
798.218	0.0157357
798.296	0.0156783
798.374	0.0154537
798.453	0.0155216
798.531	0.0156581
798.609	0.0155322
798.687	0.0155854
798.765	0.0155907
798.843	0.0157034
798.921	0.0155056
798.999	0.0155033
799.078	0.0154532
799.156	0.0154243
799.234	0.0154383
799.312	0.0155869
799.390	0.0155662
799.468	0.0155239
799.546	0.0155347
799.624	0.0156195
799.703	0.0156745
799.781	0.0156165
799.859	0.0155279
799.937	0.0157623
800.015	0.0157587
800.093	0.0157106
800.171	0.0156767
800.249	0.0158417
800.328	0.0157309
800.406	0.0159345
800.484	0.0158346
800.562	0.0157041
800.640	0.0158526
800.718	0.0158338
800.796	0.0158521
800.874	0.0158893
800.953	0.0158971
801.031	0.0159067
801.109	0.0158036
801.187	0.0159010
801.265	0.0159830
801.343	0.0157600
801.421	0.0157170
801.499	0.0158964
801.578	0.0159219
801.656	0.0158935
801.734	0.0158170
801.812	0.0159306
801.890	0.0158236
801.968	0.0159547
802.046	0.0159883
802.124	0.0157911
802.203	0.0158371
802.281	0.0157782
802.359	0.0157533
802.437	0.0157330
802.515	0.0156479
802.593	0.0156136
802.671	0.0155764
802.749	0.0154855
802.828	0.0154980
802.906	0.0153471
802.984	0.0154556
803.062	0.0153497
803.140	0.0152671
803.218	0.0152499
803.296	0.0152949
803.374	0.0153626
803.453	0.0152599
803.531	0.0152174
803.609	0.0152160
803.687	0.0152963
803.765	0.0152503
803.843	0.0151819
803.921	0.0153818
803.999	0.0154161
804.078	0.0154325
804.156	0.0155200
804.234	0.0154796
804.312	0.0155132
804.390	0.0156042
804.468	0.0156127
804.546	0.0156932
804.624	0.0157936
804.703	0.0159451
804.781	0.0159093
804.859	0.0158649
804.937	0.0159500
805.015	0.0160760
805.093	0.0159843
805.171	0.0161412
805.249	0.0160785
805.328	0.0161418
805.406	0.0160393
805.484	0.0161346
805.562	0.0160854
805.640	0.0159244
805.718	0.0159283
805.796	0.0158798
805.874	0.0159319
805.953	0.0157988
806.031	0.0157406
806.109	0.0156963
806.187	0.0156342
806.265	0.0156091
806.343	0.0155952
806.421	0.0155492
806.499	0.0153728
806.578	0.0153985
806.656	0.0153337
806.734	0.0153595
806.812	0.0154092
806.890	0.0153143
806.968	0.0153501
807.046	0.0153476
807.124	0.0153341
807.203	0.0154367
807.281	0.0154463
807.359	0.0154951
807.437	0.0156142
807.515	0.0155030
807.593	0.0155532
807.671	0.0155107
807.749	0.0155713
807.828	0.0156210
807.906	0.0155975
807.984	0.0156924
808.062	0.0157836
808.140	0.0157363
808.218	0.0158022
808.296	0.0156571
808.374	0.0157420
808.453	0.0157051
808.531	0.0158848
808.609	0.0157672
808.687	0.0157211
808.765	0.0157777
808.843	0.0157426
808.921	0.0158048
808.999	0.0157658
809.078	0.0156434
809.156	0.0156853
809.234	0.0157230
809.312	0.0157787
809.390	0.0158510
809.468	0.0156186
809.546	0.0155376
809.624	0.0156071
809.703	0.0156474
809.781	0.0153793
809.859	0.0155946
809.937	0.0155218
810.015	0.0155435
810.093	0.0156754
810.171	0.0156249
810.249	0.0155079
810.328	0.0154547
810.406	0.0157010
810.484	0.0157114
810.562	0.0156418
810.640	0.0157106
810.718	0.0158019
810.796	0.0158246
810.874	0.0157149
810.953	0.0156493
811.031	0.0158971
811.109	0.0159247
811.187	0.0157791
811.265	0.0158472
811.343	0.0157657
811.421	0.0157405
811.499	0.0156957
811.578	0.0158009
811.656	0.0156633
811.734	0.0158524
811.812	0.0158241
811.890	0.0156769
811.968	0.0155788
812.046	0.0156395
812.124	0.0154614
812.203	0.0155605
812.281	0.0154642
812.359	0.0154306
812.437	0.0154922
812.515	0.0155441
812.593	0.0154797
812.671	0.0153504
812.749	0.0154573
812.828	0.0153848
812.906	0.0154385
812.984	0.0154517
813.062	0.0154401
813.140	0.0155301
813.218	0.0155014
813.296	0.0155952
813.374	0.0155669
813.453	0.0155759
813.531	0.0156992
813.609	0.0156306
813.687	0.0155820
813.765	0.0157520
813.843	0.0156122
813.921	0.0156236
813.999	0.0158563
814.078	0.0157674
814.156	0.0156098
814.234	0.0155613
814.312	0.0156419
814.390	0.0156941
814.468	0.0155999
814.546	0.0156712
814.624	0.0157117
814.703	0.0154623
814.781	0.0157361
814.859	0.0156481
814.937	0.0156874
815.015	0.0156496
815.093	0.0155542
815.171	0.0158662
815.249	0.0159377
815.328	0.0158463
815.406	0.0159144
815.484	0.0158453
815.562	0.0157385
815.640	0.0158895
815.718	0.0158652
815.796	0.0158813
815.874	0.0158185
815.953	0.0159698
816.031	0.0157623
816.109	0.0158458
816.187	0.0158911
816.265	0.0159687
816.343	0.0158210
816.421	0.0158562
816.499	0.0157512
816.578	0.0156995
816.656	0.0158389
816.734	0.0157894
816.812	0.0157511
816.890	0.0155724
816.968	0.0157237
817.046	0.0156023
817.124	0.0155167
817.203	0.0156876
817.281	0.0155131
817.359	0.0154042
817.437	0.0154227
817.515	0.0154230
817.593	0.0154810
817.671	0.0154128
817.749	0.0153275
817.828	0.0155066
817.906	0.0155782
817.984	0.0155091
818.062	0.0154951
818.140	0.0154381
818.218	0.0154585
818.296	0.0155080
818.374	0.0155266
818.453	0.0156509
818.531	0.0157809
818.609	0.0157244
818.687	0.0156911
818.765	0.0156332
818.843	0.0156128
818.921	0.0155300
818.999	0.0157628
819.078	0.0157919
819.156	0.0155788
819.234	0.0156833
819.312	0.0157258
819.390	0.0158172
819.468	0.0156994
819.546	0.0156826
819.624	0.0156506
819.703	0.0157421
819.781	0.0157621
819.859	0.0156226
819.937	0.0155968
820.015	0.0157551
820.093	0.0156547
820.171	0.0156908
820.249	0.0157085
820.328	0.0157417
820.406	0.0155753
820.484	0.0156442
820.562	0.0156554
820.640	0.0156561
820.718	0.0156656
820.796	0.0157310
820.874	0.0157721
820.953	0.0155688
821.031	0.0154454
821.109	0.0157251
821.187	0.0156700
821.265	0.0157303
821.343	0.0156070
821.421	0.0155696
821.499	0.0155723
821.578	0.0156175
821.656	0.0156728
821.734	0.0156923
821.812	0.0156024
821.890	0.0155965
821.968	0.0156757
822.046	0.0157876
822.124	0.0156065
822.203	0.0156067
822.281	0.0155817
822.359	0.0157191
822.437	0.0156077
822.515	0.0156148
822.593	0.0155856
822.671	0.0155793
822.749	0.0154692
822.828	0.0155898
822.906	0.0154508
822.984	0.0154755
823.062	0.0155499
823.140	0.0155160
823.218	0.0153929
823.296	0.0154764
823.374	0.0155904
823.453	0.0153886
823.531	0.0155030
823.609	0.0154318
823.687	0.0155327
823.765	0.0155935
823.843	0.0156393
823.921	0.0156036
823.999	0.0156664
824.078	0.0156452
824.156	0.0157315
824.234	0.0157275
824.312	0.0158237
824.390	0.0157828
824.468	0.0158082
824.546	0.0157672
824.624	0.0156756
824.703	0.0158810
824.781	0.0157600
824.859	0.0156979
824.937	0.0157158
825.015	0.0156531
825.093	0.0155579
825.171	0.0156771
825.249	0.0156417
825.328	0.0156655
825.406	0.0156222
825.484	0.0156106
825.562	0.0156077
825.640	0.0155630
825.718	0.0154652
825.796	0.0156408
825.874	0.0155947
825.953	0.0155808
826.031	0.0156937
826.109	0.0156804
826.187	0.0157279
826.265	0.0157621
826.343	0.0156708
826.421	0.0156427
826.499	0.0157563
826.578	0.0158969
826.656	0.0157166
826.734	0.0156818
826.812	0.0157380
826.890	0.0159570
826.968	0.0158826
827.046	0.0157655
827.124	0.0157136
827.203	0.0157298
827.281	0.0157774
827.359	0.0157072
827.437	0.0157178
827.515	0.0157454
827.593	0.0155723
827.671	0.0156258
827.749	0.0155554
827.828	0.0155826
827.906	0.0155598
827.984	0.0155989
828.062	0.0155109
828.140	0.0154309
828.218	0.0155947
828.296	0.0155335
828.374	0.0154992
828.453	0.0155435
828.531	0.0155820
828.609	0.0155904
828.687	0.0156303
828.765	0.0155025
828.843	0.0155626
828.921	0.0157529
828.999	0.0155990
829.078	0.0157546
829.156	0.0157412
829.234	0.0156272
829.312	0.0157715
829.390	0.0157117
829.468	0.0157006
829.546	0.0158128
829.624	0.0157130
829.703	0.0157824
829.781	0.0158282
829.859	0.0157005
829.937	0.0154892
830.015	0.0157784
830.093	0.0156831
830.171	0.0157305
830.249	0.0156345
830.328	0.0158697
830.406	0.0158841
830.484	0.0156232
830.562	0.0158251
830.640	0.0158277
830.718	0.0158201
830.796	0.0157404
830.874	0.0159053
830.953	0.0158270
831.031	0.0159286
831.109	0.0158209
831.187	0.0158099
831.265	0.0157761
831.343	0.0158688
831.421	0.0158440
831.499	0.0158334
831.578	0.0157531
831.656	0.0156886
831.734	0.0156227
831.812	0.0156546
831.890	0.0156915
831.968	0.0155656
832.046	0.0155532
832.124	0.0154854
832.203	0.0155383
832.281	0.0156747
832.359	0.0156538
832.437	0.0155785
832.515	0.0154423
832.593	0.0155785
832.671	0.0155499
832.749	0.0156265
832.828	0.0157423
832.906	0.0157065
832.984	0.0156268
833.062	0.0157235
833.140	0.0157327
833.218	0.0157625
833.296	0.0156593
833.374	0.0156194
833.453	0.0157497
833.531	0.0157993
833.609	0.0156515
833.687	0.0156850
833.765	0.0155675
833.843	0.0156084
833.921	0.0155041
833.999	0.0154841
834.078	0.0154990
834.156	0.0156495
834.234	0.0154838
834.312	0.0156011
834.390	0.0156448
834.468	0.0155241
834.546	0.0155482
834.624	0.0156314
834.703	0.0156345
834.781	0.0155857
834.859	0.0157406
834.937	0.0156779
835.015	0.0155351
835.093	0.0158354
835.171	0.0157677
835.249	0.0156429
835.328	0.0157400
835.406	0.0157616
835.484	0.0157534
835.562	0.0158585
835.640	0.0156604
835.718	0.0157474
835.796	0.0157782
835.874	0.0155981
835.953	0.0156814
836.031	0.0157760
836.109	0.0156804
836.187	0.0157479
836.265	0.0156629
836.343	0.0156979
836.421	0.0158569
836.499	0.0158318
836.578	0.0157189
836.656	0.0157834
836.734	0.0159554
836.812	0.0158772
836.890	0.0157781
836.968	0.0158083
837.046	0.0156631
837.124	0.0157443
837.203	0.0157562
837.281	0.0156380
837.359	0.0155634
837.437	0.0156108
837.515	0.0155299
837.593	0.0155668
837.671	0.0153872
837.749	0.0155094
837.828	0.0155209
837.906	0.0152881
837.984	0.0153230
838.062	0.0156004
838.140	0.0156966
838.218	0.0156841
838.296	0.0158291
838.374	0.0156721
838.453	0.0157621
838.531	0.0158720
838.609	0.0157520
838.687	0.0158287
838.765	0.0157335
838.843	0.0158158
838.921	0.0159015
838.999	0.0157591
839.078	0.0157944
839.156	0.0157014
839.234	0.0158255
839.312	0.0156595
839.390	0.0155812
839.468	0.0156508
839.546	0.0155459
839.624	0.0155096
839.703	0.0154722
839.781	0.0153483
839.859	0.0153820
839.937	0.0154009
840.015	0.0156158
840.093	0.0155177
840.171	0.0153692
840.249	0.0155506
840.328	0.0156631
840.406	0.0156343
840.484	0.0158031
840.562	0.0156653
840.640	0.0156979
840.718	0.0155549
840.796	0.0156757
840.874	0.0156953
840.953	0.0156947
841.031	0.0158044
841.109	0.0158643
841.187	0.0157949
841.265	0.0158739
841.343	0.0158688
841.421	0.0156717
841.499	0.0158419
841.578	0.0157817
841.656	0.0156690
841.734	0.0157518
841.812	0.0156033
841.890	0.0155649
841.968	0.0156006
842.046	0.0156943
842.124	0.0156288
842.203	0.0155873
842.281	0.0155810
842.359	0.0156799
842.437	0.0155211
842.515	0.0155835
842.593	0.0156261
842.671	0.0156242
842.749	0.0155103
842.828	0.0156030
842.906	0.0156462
842.984	0.0155315
843.062	0.0156485
843.140	0.0156105
843.218	0.0155970
843.296	0.0155484
843.374	0.0155692
843.453	0.0156847
843.531	0.0156100
843.609	0.0155875
843.687	0.0156195
843.765	0.0155067
843.843	0.0154647
843.921	0.0156723
843.999	0.0154765
844.078	0.0155830
844.156	0.0156386
844.234	0.0155844
844.312	0.0155141
844.390	0.0155144
844.468	0.0156382
844.546	0.0155989
844.624	0.0156817
844.703	0.0157922
844.781	0.0159240
844.859	0.0159493
844.937	0.0158015
845.015	0.0160243
845.093	0.0160619
845.171	0.0159998
845.249	0.0160216
845.328	0.0160629
845.406	0.0159161
845.484	0.0160741
845.562	0.0160549
845.640	0.0159569
845.718	0.0158913
845.796	0.0158193
845.874	0.0158314
845.953	0.0157141
846.031	0.0157957
846.109	0.0156680
846.187	0.0155361
846.265	0.0154578
846.343	0.0154620
846.421	0.0153532
846.499	0.0152346
846.578	0.0152435
846.656	0.0152848
846.734	0.0151908
846.812	0.0152760
846.890	0.0152592
846.968	0.0152645
847.046	0.0152804
847.124	0.0153127
847.203	0.0152436
847.281	0.0155138
847.359	0.0154694
847.437	0.0154051
847.515	0.0154438
847.593	0.0156298
847.671	0.0156520
847.749	0.0156541
847.828	0.0158210
847.906	0.0157391
847.984	0.0158427
848.062	0.0157337
848.140	0.0158079
848.218	0.0158405
848.296	0.0158004
848.374	0.0158306
848.453	0.0157619
848.531	0.0158279
848.609	0.0157996
848.687	0.0156832
848.765	0.0157769
848.843	0.0158620
848.921	0.0158733
848.999	0.0158603
849.078	0.0158247
849.156	0.0160201
849.234	0.0159749
849.312	0.0159753
849.390	0.0160516
849.468	0.0159406
849.546	0.0160358
849.624	0.0159681
849.703	0.0159932
849.781	0.0159252
849.859	0.0159106
849.937	0.0158109
850.015	0.0158321
850.093	0.0156625
850.171	0.0154029
850.249	0.0154517
850.328	0.0154299
850.406	0.0153878
850.484	0.0152948
850.562	0.0152486
850.640	0.0152121
850.718	0.0150707
850.796	0.0150509
850.874	0.0151675
850.953	0.0151369
851.031	0.0151991
851.109	0.0152090
851.187	0.0152298
851.265	0.0153379
851.343	0.0153577
851.421	0.0153598
851.499	0.0154260
851.578	0.0156015
851.656	0.0155935
851.734	0.0157136
851.812	0.0156784
851.890	0.0155332
851.968	0.0156594
852.046	0.0157118
852.124	0.0158620
852.203	0.0158839
852.281	0.0157501
852.359	0.0157002
852.437	0.0156918
852.515	0.0157993
852.593	0.0158849
852.671	0.0157122
852.749	0.0158029
852.828	0.0156345
852.906	0.0156888
852.984	0.0157223
853.062	0.0157115
853.140	0.0155894
853.218	0.0155207
853.296	0.0157972
853.374	0.0156610
853.453	0.0156095
853.531	0.0157304
853.609	0.0156390
853.687	0.0156540
853.765	0.0157922
853.843	0.0157030
853.921	0.0158450
853.999	0.0158704
854.078	0.0158135
854.156	0.0158451
854.234	0.0158514
854.312	0.0158275
854.390	0.0159389
854.468	0.0159641
854.546	0.0159443
854.624	0.0159409
854.703	0.0158580
854.781	0.0158706
854.859	0.0158951
854.937	0.0158148
855.015	0.0157258
855.093	0.0157442
855.171	0.0155913
855.249	0.0156152
855.328	0.0154942
855.406	0.0155009
855.484	0.0154611
855.562	0.0154070
855.640	0.0152798
855.718	0.0152564
855.796	0.0152237
855.874	0.0154559
855.953	0.0155573
856.031	0.0152169
856.109	0.0154488
856.187	0.0154085
856.265	0.0153643
856.343	0.0154146
856.421	0.0155527
856.499	0.0154545
856.578	0.0156023
856.656	0.0157408
856.734	0.0156490
856.812	0.0157487
856.890	0.0156485
856.968	0.0157300
857.046	0.0156075
857.124	0.0156894
857.203	0.0157275
857.281	0.0158196
857.359	0.0158408
857.437	0.0157341
857.515	0.0157047
857.593	0.0157557
857.671	0.0158215
857.749	0.0157734
857.828	0.0158740
857.906	0.0157742
857.984	0.0158687
858.062	0.0158887
858.140	0.0157092
858.218	0.0156664
858.296	0.0157481
858.374	0.0156055
858.453	0.0156987
858.531	0.0157811
858.609	0.0157391
858.687	0.0157874
858.765	0.0156429
858.843	0.0157405
858.921	0.0158311
858.999	0.0157648
859.078	0.0157932
859.156	0.0157506
859.234	0.0157117
859.312	0.0156835
859.390	0.0157124
859.468	0.0156703
859.546	0.0156198
859.624	0.0155386
859.703	0.0157016
859.781	0.0156952
859.859	0.0156431
859.937	0.0155955
860.015	0.0156075
860.093	0.0157423
860.171	0.0156524
860.249	0.0157218
860.328	0.0156558
860.406	0.0155090
860.484	0.0155413
860.562	0.0155660
860.640	0.0157552
860.718	0.0156422
860.796	0.0156945
860.874	0.0155184
860.953	0.0154673
861.031	0.0155918
861.109	0.0156554
861.187	0.0156432
861.265	0.0155746
861.343	0.0154943
861.421	0.0154241
861.499	0.0156222
861.578	0.0156385
861.656	0.0156183
861.734	0.0157789
861.812	0.0155872
861.890	0.0156110
861.968	0.0157758
862.046	0.0155890
862.124	0.0157967
862.203	0.0157771
862.281	0.0156924
862.359	0.0157919
862.437	0.0158160
862.515	0.0157749
862.593	0.0158657
862.671	0.0157967
862.749	0.0156921
862.828	0.0157489
862.906	0.0156952
862.984	0.0156570
863.062	0.0156616
863.140	0.0157154
863.218	0.0156895
863.296	0.0156260
863.374	0.0155787
863.453	0.0156229
863.531	0.0156329
863.609	0.0156247
863.687	0.0157120
863.765	0.0156679
863.843	0.0156227
863.921	0.0157600
863.999	0.0157516
864.078	0.0157789
864.156	0.0156833
864.234	0.0157136
864.312	0.0155957
864.390	0.0156439
864.468	0.0158875
864.546	0.0157803
864.624	0.0156438
864.703	0.0156904
864.781	0.0158056
864.859	0.0157316
864.937	0.0157357
865.015	0.0157115
865.093	0.0157717
865.171	0.0157693
865.249	0.0155865
865.328	0.0156911
865.406	0.0155740
865.484	0.0157862
865.562	0.0155863
865.640	0.0154265
865.718	0.0154999
865.796	0.0155341
865.874	0.0155928
865.953	0.0154027
866.031	0.0154947
866.109	0.0154556
866.187	0.0155370
866.265	0.0153075
866.343	0.0154631
866.421	0.0154939
866.499	0.0154591
866.578	0.0156122
866.656	0.0156408
866.734	0.0157621
866.812	0.0155171
866.890	0.0155116
866.968	0.0155267
867.046	0.0156734
867.124	0.0157160
867.203	0.0156429
867.281	0.0156668
867.359	0.0156313
867.437	0.0156384
867.515	0.0156396
867.593	0.0155374
867.671	0.0156683
867.749	0.0154398
867.828	0.0155711
867.906	0.0154775
867.984	0.0155343
868.062	0.0156046
868.140	0.0155814
868.218	0.0156484
868.296	0.0157359
868.374	0.0158002
868.453	0.0158663
868.531	0.0158012
868.609	0.0159641
868.687	0.0159947
868.765	0.0159327
868.843	0.0159141
868.921	0.0159058
868.999	0.0159573
869.078	0.0158783
869.156	0.0158427
869.234	0.0158449
869.312	0.0157850
869.390	0.0157585
869.468	0.0157838
869.546	0.0157320
869.624	0.0156737
869.703	0.0155272
869.781	0.0157085
869.859	0.0155455
869.937	0.0155310
870.015	0.0154935
870.093	0.0154693
870.171	0.0153050
870.249	0.0154441
870.328	0.0153998
870.406	0.0155202
870.484	0.0155434
870.562	0.0154304
870.640	0.0154738
870.718	0.0155421
870.796	0.0153431
870.874	0.0155552
870.953	0.0155003
871.031	0.0154832
871.109	0.0154214
871.187	0.0155947
871.265	0.0154784
871.343	0.0155455
871.421	0.0153934
871.499	0.0154830
871.578	0.0154408
871.656	0.0153179
871.734	0.0154066
871.812	0.0155530
871.890	0.0155611
871.968	0.0156625
872.046	0.0157793
872.124	0.0156770
872.203	0.0156208
872.281	0.0157113
872.359	0.0158455
872.437	0.0157323
872.515	0.0158684
872.593	0.0158868
872.671	0.0157410
872.749	0.0158532
872.828	0.0159444
872.906	0.0159886
872.984	0.0156867
873.062	0.0157883
873.140	0.0157858
873.218	0.0157954
873.296	0.0157774
873.374	0.0156400
873.453	0.0158129
873.531	0.0157236
873.609	0.0157882
873.687	0.0157224
873.765	0.0157018
873.843	0.0156304
873.921	0.0158103
873.999	0.0156759
874.078	0.0156083
874.156	0.0155804
874.234	0.0155049
874.312	0.0155815
874.390	0.0156402
874.468	0.0155933
874.546	0.0156080
874.624	0.0154752
874.703	0.0156226
874.781	0.0156955
874.859	0.0155254
874.937	0.0155865
875.015	0.0156322
875.093	0.0157107
875.171	0.0156015
875.249	0.0154555
875.328	0.0155312
875.406	0.0155675
875.484	0.0154726
875.562	0.0154095
875.640	0.0155845
875.718	0.0156013
875.796	0.0156824
875.874	0.0156199
875.953	0.0155606
876.031	0.0155788
876.109	0.0155484
876.187	0.0156490
876.265	0.0156383
876.343	0.0156219
876.421	0.0155563
876.499	0.0155069
876.578	0.0154803
876.656	0.0154726
876.734	0.0157239
876.812	0.0157017
876.890	0.0156100
876.968	0.0156335
877.046	0.0157885
877.124	0.0156414
877.203	0.0156547
877.281	0.0157634
877.359	0.0157656
877.437	0.0157721
877.515	0.0155458
877.593	0.0155824
877.671	0.0156803
877.749	0.0156077
877.828	0.0155334
877.906	0.0156035
877.984	0.0156514
878.062	0.0157105
878.140	0.0155978
878.218	0.0157098
878.296	0.0155958
878.374	0.0155475
878.453	0.0156708
878.531	0.0155477
878.609	0.0156477
878.687	0.0158009
878.765	0.0158798
878.843	0.0156496
878.921	0.0155233
878.999	0.0157903
879.078	0.0157775
879.156	0.0158319
879.234	0.0157249
879.312	0.0157867
879.390	0.0158192
879.468	0.0156439
879.546	0.0157056
879.624	0.0156937
879.703	0.0157100
879.781	0.0156779
879.859	0.0156397
879.937	0.0156316
880.015	0.0157295
880.093	0.0156258
880.171	0.0157156
880.249	0.0156363
880.328	0.0156442
880.406	0.0157209
880.484	0.0158810
880.562	0.0157895
880.640	0.0157834
880.718	0.0158229
880.796	0.0159183
880.874	0.0158166
880.953	0.0158813
881.031	0.0158630
881.109	0.0158405
881.187	0.0156940
881.265	0.0157374
881.343	0.0157734
881.421	0.0157265
881.499	0.0157529
881.578	0.0156608
881.656	0.0156423
881.734	0.0156668
881.812	0.0156812
881.890	0.0155810
881.968	0.0155874
882.046	0.0155295
882.124	0.0156955
882.203	0.0155803
882.281	0.0156969
882.359	0.0155811
882.437	0.0154781
882.515	0.0156418
882.593	0.0154846
882.671	0.0155427
882.749	0.0156087
882.828	0.0154398
882.906	0.0154241
882.984	0.0154890
883.062	0.0154273
883.140	0.0152766
883.218	0.0154648
883.296	0.0154092
883.374	0.0155215
883.453	0.0155293
883.531	0.0154496
883.609	0.0155064
883.687	0.0155128
883.765	0.0156284
883.843	0.0156149
883.921	0.0154154
883.999	0.0155482
884.078	0.0157052
884.156	0.0157771
884.234	0.0157201
884.312	0.0155831
884.390	0.0157965
884.468	0.0156969
884.546	0.0158066
884.624	0.0158736
884.703	0.0158708
884.781	0.0159054
884.859	0.0158580
884.937	0.0160445
885.015	0.0159103
885.093	0.0158231
885.171	0.0159367
885.249	0.0157934
885.328	0.0158305
885.406	0.0159072
885.484	0.0158102
885.562	0.0158075
885.640	0.0156547
885.718	0.0156395
885.796	0.0157522
885.874	0.0158234
885.953	0.0158190
886.031	0.0157808
886.109	0.0158226
886.187	0.0157009
886.265	0.0156158
886.343	0.0155736
886.421	0.0155914
886.499	0.0154921
886.578	0.0155499
886.656	0.0156526
886.734	0.0155637
886.812	0.0155065
886.890	0.0155626
886.968	0.0157133
887.046	0.0157205
887.124	0.0156306
887.203	0.0156461
887.281	0.0157575
887.359	0.0158286
887.437	0.0157101
887.515	0.0158199
887.593	0.0157113
887.671	0.0156808
887.749	0.0156396
887.828	0.0156081
887.906	0.0157233
887.984	0.0156754
888.062	0.0154806
888.140	0.0154209
888.218	0.0155842
888.296	0.0154183
888.374	0.0154528
888.453	0.0155180
888.531	0.0153186
888.609	0.0154692
888.687	0.0153271
888.765	0.0154919
888.843	0.0155299
888.921	0.0154797
888.999	0.0154790
889.078	0.0155746
889.156	0.0154737
889.234	0.0155538
889.312	0.0154903
889.390	0.0154870
889.468	0.0157541
889.546	0.0156297
889.624	0.0155316
889.703	0.0156081
889.781	0.0155804
889.859	0.0157393
889.937	0.0157153
890.015	0.0157681
890.093	0.0156110
890.171	0.0156370
890.249	0.0157616
890.328	0.0157924
890.406	0.0156879
890.484	0.0157210
890.562	0.0156996
890.640	0.0156139
890.718	0.0156734
890.796	0.0156596
890.874	0.0156413
890.953	0.0158306
891.031	0.0156660
891.109	0.0157043
891.187	0.0155354
891.265	0.0156380
891.343	0.0156905
891.421	0.0154848
891.499	0.0155038
891.578	0.0154558
891.656	0.0155878
891.734	0.0155929
891.812	0.0156140
891.890	0.0156423
891.968	0.0155387
892.046	0.0155471
892.124	0.0155378
892.203	0.0155216
892.281	0.0156693
892.359	0.0156263
892.437	0.0156102
892.515	0.0156306
892.593	0.0156206
892.671	0.0155165
892.749	0.0156183
892.828	0.0155362
892.906	0.0154840
892.984	0.0156597
893.062	0.0156377
893.140	0.0155491
893.218	0.0154581
893.296	0.0154309
893.374	0.0153759
893.453	0.0154259
893.531	0.0154262
893.609	0.0155157
893.687	0.0153336
893.765	0.0153742
893.843	0.0154022
893.921	0.0152816
893.999	0.0153978
894.078	0.0155001
894.156	0.0153355
894.234	0.0154359
894.312	0.0154971
894.390	0.0153984
894.468	0.0153519
894.546	0.0155732
894.624	0.0155236
894.703	0.0155243
894.781	0.0155518
894.859	0.0155917
894.937	0.0155763
895.015	0.0157355
895.093	0.0157607
895.171	0.0158856
895.249	0.0157777
895.328	0.0155800
895.406	0.0157085
895.484	0.0159129
895.562	0.0158092
895.640	0.0156627
895.718	0.0157056
895.796	0.0157016
895.874	0.0157144
895.953	0.0155988
896.031	0.0157335
896.109	0.0157192
896.187	0.0156554
896.265	0.0157497
896.343	0.0157378
896.421	0.0157953
896.499	0.0156671
896.578	0.0155571
896.656	0.0156679
896.734	0.0157496
896.812	0.0155843
896.890	0.0155385
896.968	0.0156702
897.046	0.0156934
897.124	0.0157254
897.203	0.0157381
897.281	0.0156824
897.359	0.0155701
897.437	0.0156764
897.515	0.0156575
897.593	0.0156821
897.671	0.0155930
897.749	0.0155814
897.828	0.0155003
897.906	0.0155246
897.984	0.0155643
898.062	0.0155630
898.140	0.0157222
898.218	0.0156255
898.296	0.0155062
898.374	0.0156373
898.453	0.0156345
898.531	0.0156339
898.609	0.0156128
898.687	0.0157611
898.765	0.0156477
898.843	0.0158236
898.921	0.0158519
898.999	0.0158698
899.078	0.0157054
899.156	0.0155558
899.234	0.0155752
899.312	0.0155147
899.390	0.0156686
899.468	0.0155982
899.546	0.0155746
899.624	0.0154922
899.703	0.0156093
899.781	0.0155923
899.859	0.0155215
899.937	0.0156287
900.015	0.0153654
900.093	0.0156211
900.171	0.0155122
900.249	0.0156380
900.328	0.0156876
900.406	0.0155982
900.484	0.0156033
900.562	0.0157944
900.640	0.0156538
900.718	0.0157298
900.796	0.0156728
900.874	0.0157273
900.953	0.0158107
901.031	0.0158295
901.109	0.0158364
901.187	0.0158031
901.265	0.0156303
901.343	0.0157117
901.421	0.0157025
901.499	0.0158150
901.578	0.0156983
901.656	0.0155869
901.734	0.0157077
901.812	0.0156246
901.890	0.0155907
901.968	0.0156245
902.046	0.0156165
902.124	0.0156438
902.203	0.0156003
902.281	0.0156197
902.359	0.0154654
902.437	0.0155613
902.515	0.0155433
902.593	0.0155283
902.671	0.0156245
902.749	0.0154734
902.828	0.0156183
902.906	0.0156049
902.984	0.0156817
903.062	0.0155807
903.140	0.0157791
903.218	0.0157234
903.296	0.0157410
903.374	0.0157318
903.453	0.0156099
903.531	0.0157183
903.609	0.0156516
903.687	0.0155672
903.765	0.0157462
903.843	0.0155925
903.921	0.0155941
903.999	0.0155865
904.078	0.0155592
904.156	0.0154525
904.234	0.0154917
904.312	0.0155086
904.390	0.0155731
904.468	0.0154961
904.546	0.0155595
904.624	0.0155137
904.703	0.0156157
904.781	0.0156267
904.859	0.0155982
904.937	0.0158614
905.015	0.0156541
905.093	0.0156175
905.171	0.0156353
905.249	0.0156952
905.328	0.0158365
905.406	0.0157289
905.484	0.0156403
905.562	0.0156815
905.640	0.0157405
905.718	0.0156221
905.796	0.0155329
905.874	0.0155785
905.953	0.0156095
906.031	0.0157696
906.109	0.0155881
906.187	0.0154172
906.265	0.0155576
906.343	0.0155115
906.421	0.0155129
906.499	0.0155951
906.578	0.0155692
906.656	0.0154979
906.734	0.0155748
906.812	0.0156351
906.890	0.0156604
906.968	0.0156648
907.046	0.0156712
907.124	0.0157149
907.203	0.0158559
907.281	0.0156742
907.359	0.0158508
907.437	0.0159161
907.515	0.0159008
907.593	0.0158184
907.671	0.0158020
907.749	0.0157681
907.828	0.0158745
907.906	0.0157988
907.984	0.0157115
908.062	0.0156657
908.140	0.0157401
908.218	0.0157003
908.296	0.0156162
908.374	0.0156857
908.453	0.0154936
908.531	0.0154108
908.609	0.0154942
908.687	0.0154742
908.765	0.0154651
908.843	0.0154794
908.921	0.0155505
908.999	0.0155915
909.078	0.0156905
909.156	0.0155716
909.234	0.0156502
909.312	0.0155955
909.390	0.0156231
909.468	0.0156832
909.546	0.0157453
909.624	0.0157059
909.703	0.0158208
909.781	0.0158507
909.859	0.0157422
909.937	0.0157237
910.015	0.0156512
910.093	0.0156369
910.171	0.0156795
910.249	0.0156861
910.328	0.0156632
910.406	0.0156029
910.484	0.0155344
910.562	0.0154903
910.640	0.0155024
910.718	0.0154812
910.796	0.0155001
910.874	0.0155354
910.953	0.0154512
911.031	0.0153383
911.109	0.0155925
911.187	0.0155354
911.265	0.0155350
911.343	0.0157122
911.421	0.0157460
911.499	0.0157456
911.578	0.0157694
911.656	0.0158338
911.734	0.0158694
911.812	0.0158282
911.890	0.0159964
911.968	0.0158626
912.046	0.0157757
912.124	0.0158667
912.203	0.0157915
912.281	0.0158443
912.359	0.0157100
912.437	0.0156188
912.515	0.0155978
912.593	0.0156424
912.671	0.0155645
912.749	0.0154419
912.828	0.0153587
912.906	0.0154217
912.984	0.0154967
913.062	0.0154035
913.140	0.0153276
913.218	0.0153619
913.296	0.0154959
913.374	0.0154778
913.453	0.0154693
913.531	0.0155832
913.609	0.0155526
913.687	0.0155149
913.765	0.0155524
913.843	0.0155618
913.921	0.0156287
913.999	0.0156026
914.078	0.0156499
914.156	0.0157322
914.234	0.0157518
914.312	0.0155209
914.390	0.0156634
914.468	0.0157449
914.546	0.0157762
914.624	0.0156676
914.703	0.0157053
914.781	0.0158275
914.859	0.0156100
914.937	0.0156254
915.015	0.0156713
915.093	0.0156335
915.171	0.0156789
915.249	0.0156461
915.328	0.0155968
915.406	0.0155693
915.484	0.0155790
915.562	0.0155757
915.640	0.0154496
915.718	0.0155024
915.796	0.0156168
915.874	0.0156248
915.953	0.0157067
916.031	0.0157211
916.109	0.0156114
916.187	0.0157588
916.265	0.0157458
916.343	0.0156280
916.421	0.0156063
916.499	0.0156686
916.578	0.0156654
916.656	0.0157168
916.734	0.0156154
916.812	0.0156110
916.890	0.0156065
916.968	0.0156260
917.046	0.0157139
917.124	0.0156991
917.203	0.0155366
917.281	0.0155186
917.359	0.0155766
917.437	0.0155675
917.515	0.0154996
917.593	0.0156136
917.671	0.0155428
917.749	0.0155273
917.828	0.0155914
917.906	0.0154272
917.984	0.0155705
918.062	0.0156529
918.140	0.0156866
918.218	0.0155873
918.296	0.0155404
918.374	0.0155742
918.453	0.0155521
918.531	0.0156922
918.609	0.0157134
918.687	0.0155849
918.765	0.0157066
918.843	0.0155789
918.921	0.0155102
918.999	0.0155852
919.078	0.0156924
919.156	0.0155600
919.234	0.0155811
919.312	0.0155166
919.390	0.0156081
919.468	0.0154424
919.546	0.0157221
919.624	0.0156507
919.703	0.0156485
919.781	0.0156960
919.859	0.0156109
919.937	0.0155168
