06/10/2022	19:08:06	Ver.	4.1	UNKNOWN
Optical Delay	600.015094	Delta X		0.078125	Sweeps	1	Scan Rate	0/0
Coordinates	Axis 1	NaN	Axis 2	NaN	Axis 3	NaN	Axis 4	NaN	Axis 5	NaN	Axis 6	0.000000
TX Power	0.000000	RX Power	0.000000

600.015	0.0162416
600.093	0.0164214
600.171	0.0164677
600.249	0.0163694
600.328	0.0164175
600.406	0.0163798
600.484	0.0164323
600.562	0.0163988
600.640	0.0163039
600.718	0.0165309
600.796	0.0164295
600.874	0.0163000
600.953	0.0163847
601.031	0.0163879
601.109	0.0164568
601.187	0.0164746
601.265	0.0164199
601.343	0.0164641
601.421	0.0163550
601.499	0.0162949
601.578	0.0163073
601.656	0.0164912
601.734	0.0162730
601.812	0.0163068
601.890	0.0162625
601.968	0.0163071
602.046	0.0162284
602.124	0.0162464
602.203	0.0161962
602.281	0.0162741
602.359	0.0163168
602.437	0.0162741
602.515	0.0161320
602.593	0.0161363
602.671	0.0161224
602.749	0.0161399
602.828	0.0161053
602.906	0.0159543
602.984	0.0160297
603.062	0.0160002
603.140	0.0161111
603.218	0.0159377
603.296	0.0159548
603.374	0.0158981
603.453	0.0159164
603.531	0.0158957
603.609	0.0160032
603.687	0.0159491
603.765	0.0160136
603.843	0.0158938
603.921	0.0157809
603.999	0.0159324
604.078	0.0159235
604.156	0.0158202
604.234	0.0159872
604.312	0.0159552
604.390	0.0159853
604.468	0.0159175
604.546	0.0157904
604.624	0.0156910
604.703	0.0158733
604.781	0.0158614
604.859	0.0158511
604.937	0.0158780
605.015	0.0158885
605.093	0.0157813
605.171	0.0157018
605.249	0.0157595
605.328	0.0156068
605.406	0.0154935
605.484	0.0156261
605.562	0.0155772
605.640	0.0157150
605.718	0.0153699
605.796	0.0155125
605.874	0.0155238
605.953	0.0155722
606.031	0.0153607
606.109	0.0154156
606.187	0.0155347
606.265	0.0155209
606.343	0.0155214
606.421	0.0154099
606.499	0.0156139
606.578	0.0156728
606.656	0.0155936
606.734	0.0154853
606.812	0.0156817
606.890	0.0158221
606.968	0.0157130
607.046	0.0158439
607.124	0.0158366
607.203	0.0160847
607.281	0.0159392
607.359	0.0159907
607.437	0.0161088
607.515	0.0161517
607.593	0.0160967
607.671	0.0162267
607.749	0.0161588
607.828	0.0162150
607.906	0.0161922
607.984	0.0162212
608.062	0.0165041
608.140	0.0164450
608.218	0.0163639
608.296	0.0164583
608.374	0.0164128
608.453	0.0165475
608.531	0.0166326
608.609	0.0166171
608.687	0.0166187
608.765	0.0164764
608.843	0.0164869
608.921	0.0166242
608.999	0.0165725
609.078	0.0164966
609.156	0.0164587
609.234	0.0164160
609.312	0.0164771
609.390	0.0163850
609.468	0.0163696
609.546	0.0162981
609.624	0.0163064
609.703	0.0162940
609.781	0.0161578
609.859	0.0161372
609.937	0.0162360
610.015	0.0162870
610.093	0.0160619
610.171	0.0161917
610.249	0.0162233
610.328	0.0160237
610.406	0.0160332
610.484	0.0162234
610.562	0.0162251
610.640	0.0160355
610.718	0.0162558
610.796	0.0162066
610.874	0.0161340
610.953	0.0162630
611.031	0.0163232
611.109	0.0163183
611.187	0.0162150
611.265	0.0161460
611.343	0.0161548
611.421	0.0162499
611.499	0.0165136
611.578	0.0163496
611.656	0.0162040
611.734	0.0162345
611.812	0.0163165
611.890	0.0163131
611.968	0.0163042
612.046	0.0162802
612.124	0.0163310
612.203	0.0162731
612.281	0.0163229
612.359	0.0164165
612.437	0.0163889
612.515	0.0163230
612.593	0.0163239
612.671	0.0163549
612.749	0.0163793
612.828	0.0163958
612.906	0.0164429
612.984	0.0163905
613.062	0.0164198
613.140	0.0164926
613.218	0.0164976
613.296	0.0165011
613.374	0.0164309
613.453	0.0164481
613.531	0.0165738
613.609	0.0163079
613.687	0.0162762
613.765	0.0164339
613.843	0.0162746
613.921	0.0162667
613.999	0.0162247
614.078	0.0161449
614.156	0.0163203
614.234	0.0161410
614.312	0.0161864
614.390	0.0161871
614.468	0.0160829
614.546	0.0161904
614.624	0.0161848
614.703	0.0161633
614.781	0.0161294
614.859	0.0161706
614.937	0.0161324
615.015	0.0161427
615.093	0.0162151
615.171	0.0163059
615.249	0.0162630
615.328	0.0162746
615.406	0.0162788
615.484	0.0163083
615.562	0.0163470
615.640	0.0163213
615.718	0.0163862
615.796	0.0163332
615.874	0.0163213
615.953	0.0163467
616.031	0.0163358
616.109	0.0163444
616.187	0.0163983
616.265	0.0164069
616.343	0.0162946
616.421	0.0162824
616.499	0.0163243
616.578	0.0162313
616.656	0.0163260
616.734	0.0163953
616.812	0.0163516
616.890	0.0162374
616.968	0.0161956
617.046	0.0162019
617.124	0.0162349
617.203	0.0163998
617.281	0.0163644
617.359	0.0162170
617.437	0.0161207
617.515	0.0161534
617.593	0.0162529
617.671	0.0161265
617.749	0.0161977
617.828	0.0162569
617.906	0.0160452
617.984	0.0160159
618.062	0.0160447
618.140	0.0161752
618.218	0.0160455
618.296	0.0163381
618.374	0.0161473
618.453	0.0161935
618.531	0.0163448
618.609	0.0162441
618.687	0.0161911
618.765	0.0161805
618.843	0.0162541
618.921	0.0162566
618.999	0.0162938
619.078	0.0162879
619.156	0.0162627
619.234	0.0163850
619.312	0.0163346
619.390	0.0162259
619.468	0.0161830
619.546	0.0162397
619.624	0.0161652
619.703	0.0159942
619.781	0.0160967
619.859	0.0161355
619.937	0.0162409
620.015	0.0161044
620.093	0.0160672
620.171	0.0161407
620.249	0.0161097
620.328	0.0160187
620.406	0.0161349
620.484	0.0159676
620.562	0.0160265
620.640	0.0159632
620.718	0.0160746
620.796	0.0159179
620.874	0.0158768
620.953	0.0158708
621.031	0.0159637
621.109	0.0159954
621.187	0.0158952
621.265	0.0158643
621.343	0.0159209
621.421	0.0158788
621.499	0.0158947
621.578	0.0159088
621.656	0.0159167
621.734	0.0157923
621.812	0.0158783
621.890	0.0159803
621.968	0.0158463
622.046	0.0159242
622.124	0.0159428
622.203	0.0157678
622.281	0.0158085
622.359	0.0157119
622.437	0.0157021
622.515	0.0157626
622.593	0.0158189
622.671	0.0158038
622.749	0.0158086
622.828	0.0158090
622.906	0.0158444
622.984	0.0157755
623.062	0.0158897
623.140	0.0158862
623.218	0.0158978
623.296	0.0159119
623.374	0.0158743
623.453	0.0158144
623.531	0.0159599
623.609	0.0160401
623.687	0.0159753
623.765	0.0161719
623.843	0.0161138
623.921	0.0158493
623.999	0.0159663
624.078	0.0161555
624.156	0.0160276
624.234	0.0160966
624.312	0.0161840
624.390	0.0161945
624.468	0.0160880
624.546	0.0162183
624.624	0.0161174
624.703	0.0161047
624.781	0.0162123
624.859	0.0161293
624.937	0.0158987
625.015	0.0161537
625.093	0.0163239
625.171	0.0162327
625.249	0.0162294
625.328	0.0160712
625.406	0.0160991
625.484	0.0161198
625.562	0.0161463
625.640	0.0162626
625.718	0.0162183
625.796	0.0161222
625.874	0.0163202
625.953	0.0163080
626.031	0.0161989
626.109	0.0161535
626.187	0.0163068
626.265	0.0162491
626.343	0.0162775
626.421	0.0162792
626.499	0.0162397
626.578	0.0162835
626.656	0.0163396
626.734	0.0162671
626.812	0.0162495
626.890	0.0163221
626.968	0.0161636
627.046	0.0162577
627.124	0.0162834
627.203	0.0161544
627.281	0.0162333
627.359	0.0163560
627.437	0.0162323
627.515	0.0161559
627.593	0.0160889
627.671	0.0161499
627.749	0.0161543
627.828	0.0161287
627.906	0.0159988
627.984	0.0160339
628.062	0.0160509
628.140	0.0160516
628.218	0.0161012
628.296	0.0161127
628.374	0.0159567
628.453	0.0161936
628.531	0.0159739
628.609	0.0159514
628.687	0.0159971
628.765	0.0160046
628.843	0.0162382
628.921	0.0159326
628.999	0.0159610
629.078	0.0160644
629.156	0.0159984
629.234	0.0159234
629.312	0.0160268
629.390	0.0160040
629.468	0.0160751
629.546	0.0160661
629.624	0.0160766
629.703	0.0160563
629.781	0.0160248
629.859	0.0160400
629.937	0.0161741
630.015	0.0161435
630.093	0.0161181
630.171	0.0162098
630.249	0.0162095
630.328	0.0162089
630.406	0.0163799
630.484	0.0161883
630.562	0.0161961
630.640	0.0161094
630.718	0.0162428
630.796	0.0161507
630.874	0.0161732
630.953	0.0159811
631.031	0.0159430
631.109	0.0160454
631.187	0.0160004
631.265	0.0159923
631.343	0.0161061
631.421	0.0160300
631.499	0.0158793
631.578	0.0159069
631.656	0.0159048
631.734	0.0160645
631.812	0.0159962
631.890	0.0160275
631.968	0.0160520
632.046	0.0159263
632.124	0.0161206
632.203	0.0160958
632.281	0.0160562
632.359	0.0161310
632.437	0.0159280
632.515	0.0158614
632.593	0.0160775
632.671	0.0162772
632.749	0.0161903
632.828	0.0160961
632.906	0.0160909
632.984	0.0162135
633.062	0.0161898
633.140	0.0161812
633.218	0.0161630
633.296	0.0163428
633.374	0.0162729
633.453	0.0163036
633.531	0.0162077
633.609	0.0160703
633.687	0.0161131
633.765	0.0163484
633.843	0.0161772
633.921	0.0162098
633.999	0.0162448
634.078	0.0162954
634.156	0.0162823
634.234	0.0162854
634.312	0.0163410
634.390	0.0161502
634.468	0.0162193
634.546	0.0163200
634.624	0.0163406
634.703	0.0162134
634.781	0.0163188
634.859	0.0163201
634.937	0.0162201
635.015	0.0163714
635.093	0.0163863
635.171	0.0162471
635.249	0.0162531
635.328	0.0163119
635.406	0.0163780
635.484	0.0163219
635.562	0.0162917
635.640	0.0163330
635.718	0.0162792
635.796	0.0161824
635.874	0.0163849
635.953	0.0163792
636.031	0.0164589
636.109	0.0163235
636.187	0.0162170
636.265	0.0164207
636.343	0.0163895
636.421	0.0163281
636.499	0.0164165
636.578	0.0163383
636.656	0.0164264
636.734	0.0162916
636.812	0.0163204
636.890	0.0162379
636.968	0.0163306
637.046	0.0163580
637.124	0.0163296
637.203	0.0162627
637.281	0.0162188
637.359	0.0161985
637.437	0.0161993
637.515	0.0162574
637.593	0.0161683
637.671	0.0161836
637.749	0.0161369
637.828	0.0163174
637.906	0.0163000
637.984	0.0162265
638.062	0.0161443
638.140	0.0161729
638.218	0.0162619
638.296	0.0160878
638.374	0.0161335
638.453	0.0162171
638.531	0.0161811
638.609	0.0162247
638.687	0.0162140
638.765	0.0161334
638.843	0.0161989
638.921	0.0162148
638.999	0.0161052
639.078	0.0162582
639.156	0.0161336
639.234	0.0160900
639.312	0.0161124
639.390	0.0162016
639.468	0.0160638
639.546	0.0161678
639.624	0.0160736
639.703	0.0160360
639.781	0.0161108
639.859	0.0161529
639.937	0.0161139
640.015	0.0161271
640.093	0.0160943
640.171	0.0161150
640.249	0.0162170
640.328	0.0161572
640.406	0.0160975
640.484	0.0161778
640.562	0.0161550
640.640	0.0160472
640.718	0.0161395
640.796	0.0161528
640.874	0.0162193
640.953	0.0162457
641.031	0.0163501
641.109	0.0161702
641.187	0.0160963
641.265	0.0162659
641.343	0.0160991
641.421	0.0161657
641.499	0.0161824
641.578	0.0162976
641.656	0.0162318
641.734	0.0163034
641.812	0.0161889
641.890	0.0161976
641.968	0.0162686
642.046	0.0161330
642.124	0.0161179
642.203	0.0161529
642.281	0.0160748
642.359	0.0160963
642.437	0.0160974
642.515	0.0161173
642.593	0.0162391
642.671	0.0161314
642.749	0.0159989
642.828	0.0161301
642.906	0.0161044
642.984	0.0161682
643.062	0.0160345
643.140	0.0161468
643.218	0.0160408
643.296	0.0159730
643.374	0.0160089
643.453	0.0160430
643.531	0.0161179
643.609	0.0160527
643.687	0.0161006
643.765	0.0160439
643.843	0.0161474
643.921	0.0160080
643.999	0.0161205
644.078	0.0161060
644.156	0.0160592
644.234	0.0160390
644.312	0.0160539
644.390	0.0161743
644.468	0.0160728
644.546	0.0161012
644.624	0.0160898
644.703	0.0160855
644.781	0.0161086
644.859	0.0161632
644.937	0.0159383
645.015	0.0160374
645.093	0.0160826
645.171	0.0161453
645.249	0.0161327
645.328	0.0160521
645.406	0.0160155
645.484	0.0159633
645.562	0.0160048
645.640	0.0160451
645.718	0.0159648
645.796	0.0160494
645.874	0.0160268
645.953	0.0160798
646.031	0.0159669
646.109	0.0159348
646.187	0.0161327
646.265	0.0161247
646.343	0.0159313
646.421	0.0158932
646.499	0.0161372
646.578	0.0161120
646.656	0.0160630
646.734	0.0160539
646.812	0.0160331
646.890	0.0159631
646.968	0.0160833
647.046	0.0160011
647.124	0.0161447
647.203	0.0160449
647.281	0.0161436
647.359	0.0162430
647.437	0.0162091
647.515	0.0162311
647.593	0.0161903
647.671	0.0161267
647.749	0.0163100
647.828	0.0162293
647.906	0.0162167
647.984	0.0162637
648.062	0.0162460
648.140	0.0161858
648.218	0.0163285
648.296	0.0162872
648.374	0.0162286
648.453	0.0163096
648.531	0.0162226
648.609	0.0163249
648.687	0.0163344
648.765	0.0163329
648.843	0.0163020
648.921	0.0164008
648.999	0.0162930
649.078	0.0162223
649.156	0.0163655
649.234	0.0163742
649.312	0.0162849
649.390	0.0164239
649.468	0.0165116
649.546	0.0163712
649.624	0.0165273
649.703	0.0165464
649.781	0.0163991
649.859	0.0163128
649.937	0.0165185
650.015	0.0164093
650.093	0.0164856
650.171	0.0164265
650.249	0.0164784
650.328	0.0164433
650.406	0.0164893
650.484	0.0164328
650.562	0.0163715
650.640	0.0165451
650.718	0.0164296
650.796	0.0163518
650.874	0.0163394
650.953	0.0162762
651.031	0.0164259
651.109	0.0163029
651.187	0.0162399
651.265	0.0162428
651.343	0.0164112
651.421	0.0162768
651.499	0.0161904
651.578	0.0161941
651.656	0.0161168
651.734	0.0162962
651.812	0.0161916
651.890	0.0162077
651.968	0.0161377
652.046	0.0161948
652.124	0.0162019
652.203	0.0160680
652.281	0.0160759
652.359	0.0162374
652.437	0.0160930
652.515	0.0161283
652.593	0.0161691
652.671	0.0161040
652.749	0.0160727
652.828	0.0160715
652.906	0.0161926
652.984	0.0160320
653.062	0.0158470
653.140	0.0160349
653.218	0.0160194
653.296	0.0160493
653.374	0.0160915
653.453	0.0160970
653.531	0.0159447
653.609	0.0159890
653.687	0.0159873
653.765	0.0159471
653.843	0.0158964
653.921	0.0160045
653.999	0.0159222
654.078	0.0159463
654.156	0.0158515
654.234	0.0159236
654.312	0.0160588
654.390	0.0160939
654.468	0.0160732
654.546	0.0160146
654.624	0.0160404
654.703	0.0160865
654.781	0.0160353
654.859	0.0161443
654.937	0.0160914
655.015	0.0160810
655.093	0.0161575
655.171	0.0159690
655.249	0.0160303
655.328	0.0160742
655.406	0.0160682
655.484	0.0160933
655.562	0.0160710
655.640	0.0159791
655.718	0.0160770
655.796	0.0161460
655.874	0.0160619
655.953	0.0160761
656.031	0.0160397
656.109	0.0160954
656.187	0.0161119
656.265	0.0160502
656.343	0.0160835
656.421	0.0161063
656.499	0.0160726
656.578	0.0162021
656.656	0.0160329
656.734	0.0161497
656.812	0.0161031
656.890	0.0161823
656.968	0.0161407
657.046	0.0160637
657.124	0.0161946
657.203	0.0161099
657.281	0.0160397
657.359	0.0161099
657.437	0.0162101
657.515	0.0161193
657.593	0.0159940
657.671	0.0160900
657.749	0.0162711
657.828	0.0161965
657.906	0.0161637
657.984	0.0161149
658.062	0.0161627
658.140	0.0163105
658.218	0.0160863
658.296	0.0161590
658.374	0.0161451
658.453	0.0162733
658.531	0.0161616
658.609	0.0163831
658.687	0.0161890
658.765	0.0163309
658.843	0.0161800
658.921	0.0162592
658.999	0.0163243
659.078	0.0162121
659.156	0.0163182
659.234	0.0163210
659.312	0.0164005
659.390	0.0163890
659.468	0.0163560
659.546	0.0164177
659.624	0.0164630
659.703	0.0163177
659.781	0.0163661
659.859	0.0163876
659.937	0.0163417
660.015	0.0163146
660.093	0.0164331
660.171	0.0163512
660.249	0.0164505
660.328	0.0164043
660.406	0.0163021
660.484	0.0162452
660.562	0.0165063
660.640	0.0164722
660.718	0.0164182
660.796	0.0163416
660.874	0.0163419
660.953	0.0164120
661.031	0.0163564
661.109	0.0162788
661.187	0.0163708
661.265	0.0163197
661.343	0.0162381
661.421	0.0162334
661.499	0.0161945
661.578	0.0163230
661.656	0.0163611
661.734	0.0161972
661.812	0.0160573
661.890	0.0162388
661.968	0.0162789
662.046	0.0160968
662.124	0.0161488
662.203	0.0161399
662.281	0.0160842
662.359	0.0161726
662.437	0.0161706
662.515	0.0160414
662.593	0.0162578
662.671	0.0161790
662.749	0.0162067
662.828	0.0161217
662.906	0.0159246
662.984	0.0159143
663.062	0.0161330
663.140	0.0161749
663.218	0.0159894
663.296	0.0160619
663.374	0.0161732
663.453	0.0161966
663.531	0.0160608
663.609	0.0160545
663.687	0.0161409
663.765	0.0161021
663.843	0.0159206
663.921	0.0158440
663.999	0.0159604
664.078	0.0159892
664.156	0.0160954
664.234	0.0159595
664.312	0.0159250
664.390	0.0159237
664.468	0.0160506
664.546	0.0159219
664.624	0.0158479
664.703	0.0158961
664.781	0.0159797
664.859	0.0160323
664.937	0.0159325
665.015	0.0158197
665.093	0.0160942
665.171	0.0159742
665.249	0.0159428
665.328	0.0159644
665.406	0.0159999
665.484	0.0160077
665.562	0.0158927
665.640	0.0161311
665.718	0.0161491
665.796	0.0161028
665.874	0.0159760
665.953	0.0160698
666.031	0.0161693
666.109	0.0160562
666.187	0.0162699
666.265	0.0161043
666.343	0.0161159
666.421	0.0162623
666.499	0.0161111
666.578	0.0161161
666.656	0.0162221
666.734	0.0161815
666.812	0.0162502
666.890	0.0161303
666.968	0.0161275
667.046	0.0162347
667.124	0.0161675
667.203	0.0162093
667.281	0.0161587
667.359	0.0162595
667.437	0.0162041
667.515	0.0161642
667.593	0.0162321
667.671	0.0161906
667.749	0.0163163
667.828	0.0162471
667.906	0.0163580
667.984	0.0162191
668.062	0.0161020
668.140	0.0163821
668.218	0.0163224
668.296	0.0161033
668.374	0.0162144
668.453	0.0162460
668.531	0.0162019
668.609	0.0161423
668.687	0.0162099
668.765	0.0162547
668.843	0.0162833
668.921	0.0161273
668.999	0.0161294
669.078	0.0161383
669.156	0.0162587
669.234	0.0162045
669.312	0.0161776
669.390	0.0162701
669.468	0.0162907
669.546	0.0162800
669.624	0.0162852
669.703	0.0161919
669.781	0.0163332
669.859	0.0163322
669.937	0.0163530
670.015	0.0161708
670.093	0.0162256
670.171	0.0163711
670.249	0.0163464
670.328	0.0162621
670.406	0.0163642
670.484	0.0163151
670.562	0.0162831
670.640	0.0164699
670.718	0.0164375
670.796	0.0163503
670.874	0.0163258
670.953	0.0162947
671.031	0.0162380
671.109	0.0163631
671.187	0.0163253
671.265	0.0163043
671.343	0.0162492
671.421	0.0163072
671.499	0.0162701
671.578	0.0162399
671.656	0.0162712
671.734	0.0163113
671.812	0.0162646
671.890	0.0162959
671.968	0.0163852
672.046	0.0162255
672.124	0.0161597
672.203	0.0162360
672.281	0.0162056
672.359	0.0162325
672.437	0.0162055
672.515	0.0162240
672.593	0.0162544
672.671	0.0161997
672.749	0.0161207
672.828	0.0162280
672.906	0.0161794
672.984	0.0162828
673.062	0.0162050
673.140	0.0162363
673.218	0.0161935
673.296	0.0162925
673.374	0.0161371
673.453	0.0161951
673.531	0.0162334
673.609	0.0164452
673.687	0.0163934
673.765	0.0162538
673.843	0.0162507
673.921	0.0162724
673.999	0.0163770
674.078	0.0163012
674.156	0.0163203
674.234	0.0160487
674.312	0.0160829
674.390	0.0162722
674.468	0.0161634
674.546	0.0162165
674.624	0.0161742
674.703	0.0161494
674.781	0.0161347
674.859	0.0162040
674.937	0.0160593
675.015	0.0160716
675.093	0.0160501
675.171	0.0159958
675.249	0.0159721
675.328	0.0161677
675.406	0.0159791
675.484	0.0160315
675.562	0.0160860
675.640	0.0158797
675.718	0.0158858
675.796	0.0159468
675.874	0.0159441
675.953	0.0159501
676.031	0.0158670
676.109	0.0159379
676.187	0.0160641
676.265	0.0160565
676.343	0.0159315
676.421	0.0158675
676.499	0.0159447
676.578	0.0160831
676.656	0.0160977
676.734	0.0160309
676.812	0.0158651
676.890	0.0159164
676.968	0.0159444
677.046	0.0160628
677.124	0.0161105
677.203	0.0160439
677.281	0.0160356
677.359	0.0159909
677.437	0.0159975
677.515	0.0161124
677.593	0.0159758
677.671	0.0160136
677.749	0.0160969
677.828	0.0160264
677.906	0.0160124
677.984	0.0160777
678.062	0.0161723
678.140	0.0161069
678.218	0.0159808
678.296	0.0161627
678.374	0.0161276
678.453	0.0160448
678.531	0.0159413
678.609	0.0160015
678.687	0.0161349
678.765	0.0160642
678.843	0.0160159
678.921	0.0160335
678.999	0.0159913
679.078	0.0159161
679.156	0.0160144
679.234	0.0159763
679.312	0.0159655
679.390	0.0159406
679.468	0.0160068
679.546	0.0160265
679.624	0.0159517
679.703	0.0160386
679.781	0.0159267
679.859	0.0157852
679.937	0.0158875
680.015	0.0161031
680.093	0.0159998
680.171	0.0159538
680.249	0.0160256
680.328	0.0160033
680.406	0.0159354
680.484	0.0160046
680.562	0.0159647
680.640	0.0160378
680.718	0.0159602
680.796	0.0161330
680.874	0.0161151
680.953	0.0160833
681.031	0.0161347
681.109	0.0159896
681.187	0.0159935
681.265	0.0160075
681.343	0.0159454
681.421	0.0160149
681.499	0.0160496
681.578	0.0159397
681.656	0.0161024
681.734	0.0160645
681.812	0.0160085
681.890	0.0160168
681.968	0.0161995
682.046	0.0160954
682.124	0.0161156
682.203	0.0159464
682.281	0.0160072
682.359	0.0160432
682.437	0.0158763
682.515	0.0161470
682.593	0.0160516
682.671	0.0159824
682.749	0.0160503
682.828	0.0162687
682.906	0.0162528
682.984	0.0160104
683.062	0.0160670
683.140	0.0160142
683.218	0.0161115
683.296	0.0160781
683.374	0.0159932
683.453	0.0160938
683.531	0.0160915
683.609	0.0160346
683.687	0.0161698
683.765	0.0160603
683.843	0.0160864
683.921	0.0160900
683.999	0.0161089
684.078	0.0161929
684.156	0.0160566
684.234	0.0159883
684.312	0.0162332
684.390	0.0161714
684.468	0.0161097
684.546	0.0161878
684.624	0.0162907
684.703	0.0162415
684.781	0.0161494
684.859	0.0162302
684.937	0.0162928
685.015	0.0162276
685.093	0.0162220
685.171	0.0162648
685.249	0.0163813
685.328	0.0162892
685.406	0.0162634
685.484	0.0162939
685.562	0.0161897
685.640	0.0162176
685.718	0.0163136
685.796	0.0162457
685.874	0.0163891
685.953	0.0161946
686.031	0.0163711
686.109	0.0164616
686.187	0.0162288
686.265	0.0162905
686.343	0.0164154
686.421	0.0163740
686.499	0.0163593
686.578	0.0164195
686.656	0.0164075
686.734	0.0163857
686.812	0.0163457
686.890	0.0165518
686.968	0.0162486
687.046	0.0163441
687.124	0.0164105
687.203	0.0163752
687.281	0.0164481
687.359	0.0162839
687.437	0.0161953
687.515	0.0164187
687.593	0.0163672
687.671	0.0163116
687.749	0.0162592
687.828	0.0163568
687.906	0.0162894
687.984	0.0163867
688.062	0.0163834
688.140	0.0163285
688.218	0.0163372
688.296	0.0163515
688.374	0.0163488
688.453	0.0164551
688.531	0.0164335
688.609	0.0162574
688.687	0.0164364
688.765	0.0162975
688.843	0.0162690
688.921	0.0163468
688.999	0.0164066
689.078	0.0164424
689.156	0.0164594
689.234	0.0164581
689.312	0.0164495
689.390	0.0165409
689.468	0.0161846
689.546	0.0163139
689.624	0.0163773
689.703	0.0163922
689.781	0.0163418
689.859	0.0162825
689.937	0.0163844
690.015	0.0164288
690.093	0.0163700
690.171	0.0164487
690.249	0.0164291
690.328	0.0163399
690.406	0.0163081
690.484	0.0163241
690.562	0.0163991
690.640	0.0163288
690.718	0.0161930
690.796	0.0163814
690.874	0.0163320
690.953	0.0162167
691.031	0.0162019
691.109	0.0161638
691.187	0.0162115
691.265	0.0162419
691.343	0.0162646
691.421	0.0163466
691.499	0.0161237
691.578	0.0162955
691.656	0.0163235
691.734	0.0162530
691.812	0.0164227
691.890	0.0162794
691.968	0.0163103
692.046	0.0163720
692.124	0.0162833
692.203	0.0163834
692.281	0.0164732
692.359	0.0163606
692.437	0.0162148
692.515	0.0162659
692.593	0.0163544
692.671	0.0163048
692.749	0.0163231
692.828	0.0163210
692.906	0.0164616
692.984	0.0164476
693.062	0.0163929
693.140	0.0162843
693.218	0.0163837
693.296	0.0163634
693.374	0.0163206
693.453	0.0163156
693.531	0.0163095
693.609	0.0163026
693.687	0.0163806
693.765	0.0163436
693.843	0.0162686
693.921	0.0161791
693.999	0.0161893
694.078	0.0162315
694.156	0.0161938
694.234	0.0163037
694.312	0.0160641
694.390	0.0161324
694.468	0.0161005
694.546	0.0161586
694.624	0.0160077
694.703	0.0162886
694.781	0.0160828
694.859	0.0161620
694.937	0.0161477
695.015	0.0161963
695.093	0.0161713
695.171	0.0161446
695.249	0.0160023
695.328	0.0160957
695.406	0.0160934
695.484	0.0161466
695.562	0.0161739
695.640	0.0161290
695.718	0.0161021
695.796	0.0162028
695.874	0.0160452
695.953	0.0161204
696.031	0.0161629
696.109	0.0161762
696.187	0.0161592
696.265	0.0161539
696.343	0.0160375
696.421	0.0161875
696.499	0.0162792
696.578	0.0161378
696.656	0.0162142
696.734	0.0159956
696.812	0.0160427
696.890	0.0160090
696.968	0.0161498
697.046	0.0160329
697.124	0.0161443
697.203	0.0161411
697.281	0.0160854
697.359	0.0161143
697.437	0.0159167
697.515	0.0159406
697.593	0.0160409
697.671	0.0160957
697.749	0.0159782
697.828	0.0159834
697.906	0.0161794
697.984	0.0159846
698.062	0.0159032
698.140	0.0158234
698.218	0.0159305
698.296	0.0160208
698.374	0.0161220
698.453	0.0159365
698.531	0.0160495
698.609	0.0159568
698.687	0.0158871
698.765	0.0158735
698.843	0.0160152
698.921	0.0160789
698.999	0.0160031
699.078	0.0159637
699.156	0.0160622
699.234	0.0160543
699.312	0.0159418
699.390	0.0158652
699.468	0.0159300
699.546	0.0161533
699.624	0.0161405
699.703	0.0160893
699.781	0.0160867
699.859	0.0160513
699.937	0.0159875
700.015	0.0159970
700.093	0.0159957
700.171	0.0160709
700.249	0.0161713
700.328	0.0160909
700.406	0.0160042
700.484	0.0161353
700.562	0.0161591
700.640	0.0160378
700.718	0.0160911
700.796	0.0161013
700.874	0.0160280
700.953	0.0161387
701.031	0.0162157
701.109	0.0162151
701.187	0.0162479
701.265	0.0162479
701.343	0.0162627
701.421	0.0162470
701.499	0.0162380
701.578	0.0161195
701.656	0.0161950
701.734	0.0163057
701.812	0.0160529
701.890	0.0162079
701.968	0.0161385
702.046	0.0162429
702.124	0.0161146
702.203	0.0158704
702.281	0.0160532
702.359	0.0162723
702.437	0.0160661
702.515	0.0160979
702.593	0.0161805
702.671	0.0160857
702.749	0.0160695
702.828	0.0160311
702.906	0.0160150
702.984	0.0158960
703.062	0.0159971
703.140	0.0159904
703.218	0.0160412
703.296	0.0160200
703.374	0.0159988
703.453	0.0159911
703.531	0.0159053
703.609	0.0159766
703.687	0.0160231
703.765	0.0159680
703.843	0.0160455
703.921	0.0159676
703.999	0.0160768
704.078	0.0158989
704.156	0.0159692
704.234	0.0160050
704.312	0.0159932
704.390	0.0158675
704.468	0.0159634
704.546	0.0159518
704.624	0.0159682
704.703	0.0158768
704.781	0.0159198
704.859	0.0160045
704.937	0.0159340
705.015	0.0159754
705.093	0.0159492
705.171	0.0161118
705.249	0.0160578
705.328	0.0159549
705.406	0.0160866
705.484	0.0161558
705.562	0.0160546
705.640	0.0160866
705.718	0.0160913
705.796	0.0161470
705.874	0.0161938
705.953	0.0161766
706.031	0.0161188
706.109	0.0161348
706.187	0.0160865
706.265	0.0161312
706.343	0.0162006
706.421	0.0160704
706.499	0.0160019
706.578	0.0160319
706.656	0.0161370
706.734	0.0161835
706.812	0.0161685
706.890	0.0161116
706.968	0.0160198
707.046	0.0161050
707.124	0.0160213
707.203	0.0160239
707.281	0.0159516
707.359	0.0161224
707.437	0.0160996
707.515	0.0160825
707.593	0.0161755
707.671	0.0159654
707.749	0.0159662
707.828	0.0161478
707.906	0.0160211
707.984	0.0161306
708.062	0.0159189
708.140	0.0161438
708.218	0.0160722
708.296	0.0161514
708.374	0.0161127
708.453	0.0162099
708.531	0.0162215
708.609	0.0161737
708.687	0.0163888
708.765	0.0162922
708.843	0.0161731
708.921	0.0162449
708.999	0.0162579
709.078	0.0163047
709.156	0.0162318
709.234	0.0161684
709.312	0.0162808
709.390	0.0162331
709.468	0.0161948
709.546	0.0161964
709.624	0.0162711
709.703	0.0162280
709.781	0.0164481
709.859	0.0163502
709.937	0.0161827
710.015	0.0163459
710.093	0.0163826
710.171	0.0164243
710.249	0.0162708
710.328	0.0163531
710.406	0.0164680
710.484	0.0164845
710.562	0.0163645
710.640	0.0164114
710.718	0.0163226
710.796	0.0164647
710.874	0.0164027
710.953	0.0163686
711.031	0.0164455
711.109	0.0165929
711.187	0.0165041
711.265	0.0164754
711.343	0.0164435
711.421	0.0163956
711.499	0.0165222
711.578	0.0164802
711.656	0.0162639
711.734	0.0163149
711.812	0.0163677
711.890	0.0163573
711.968	0.0161831
712.046	0.0163857
712.124	0.0163928
712.203	0.0164161
712.281	0.0163904
712.359	0.0163290
712.437	0.0161852
712.515	0.0163479
712.593	0.0163302
712.671	0.0163792
712.749	0.0162624
712.828	0.0164194
712.906	0.0163133
712.984	0.0163110
713.062	0.0164442
713.140	0.0164160
713.218	0.0163931
713.296	0.0163392
713.374	0.0163204
713.453	0.0165009
713.531	0.0163285
713.609	0.0163073
713.687	0.0162427
713.765	0.0163820
713.843	0.0163561
713.921	0.0163655
713.999	0.0164347
714.078	0.0163971
714.156	0.0164401
714.234	0.0162926
714.312	0.0163197
714.390	0.0163966
714.468	0.0162669
714.546	0.0163815
714.624	0.0164590
714.703	0.0162214
714.781	0.0162550
714.859	0.0163263
714.937	0.0163038
715.015	0.0162976
715.093	0.0162862
715.171	0.0163953
715.249	0.0162639
715.328	0.0161880
715.406	0.0161787
715.484	0.0163904
715.562	0.0163632
715.640	0.0162487
715.718	0.0162413
715.796	0.0162867
715.874	0.0161982
715.953	0.0161279
716.031	0.0163820
716.109	0.0162675
716.187	0.0162628
716.265	0.0162989
716.343	0.0163298
716.421	0.0165171
716.499	0.0162777
716.578	0.0162763
716.656	0.0163901
716.734	0.0163155
716.812	0.0163502
716.890	0.0163330
716.968	0.0164117
717.046	0.0163418
717.124	0.0163241
717.203	0.0163936
717.281	0.0163214
717.359	0.0162848
717.437	0.0164521
717.515	0.0164353
717.593	0.0163508
717.671	0.0162790
717.749	0.0163617
717.828	0.0163322
717.906	0.0162475
717.984	0.0162481
718.062	0.0162068
718.140	0.0161188
718.218	0.0162904
718.296	0.0162583
718.374	0.0163219
718.453	0.0162336
718.531	0.0162860
718.609	0.0161543
718.687	0.0162231
718.765	0.0162630
718.843	0.0162498
718.921	0.0162964
718.999	0.0161554
719.078	0.0162561
719.156	0.0161907
719.234	0.0162233
719.312	0.0163232
719.390	0.0162231
719.468	0.0161890
719.546	0.0163182
719.624	0.0162411
719.703	0.0161530
719.781	0.0162286
719.859	0.0162965
719.937	0.0159617
720.015	0.0161530
720.093	0.0162128
720.171	0.0161810
720.249	0.0160440
720.328	0.0162115
720.406	0.0162446
720.484	0.0161802
720.562	0.0162145
720.640	0.0161668
720.718	0.0161632
720.796	0.0162299
720.874	0.0161366
720.953	0.0161172
721.031	0.0161973
721.109	0.0162331
721.187	0.0162663
721.265	0.0160882
721.343	0.0161007
721.421	0.0162259
721.499	0.0160716
721.578	0.0159853
721.656	0.0161941
721.734	0.0161661
721.812	0.0162181
721.890	0.0161880
721.968	0.0161095
722.046	0.0161169
722.124	0.0162186
722.203	0.0159017
722.281	0.0162150
722.359	0.0161127
722.437	0.0160257
722.515	0.0161341
722.593	0.0160825
722.671	0.0162576
722.749	0.0162680
722.828	0.0162178
722.906	0.0160954
722.984	0.0160275
723.062	0.0162129
723.140	0.0162014
723.218	0.0163618
723.296	0.0162067
723.374	0.0161890
723.453	0.0161661
723.531	0.0161292
723.609	0.0162062
723.687	0.0162133
723.765	0.0161030
723.843	0.0161388
723.921	0.0162035
723.999	0.0163290
724.078	0.0161119
724.156	0.0162310
724.234	0.0162461
724.312	0.0162804
724.390	0.0163532
724.468	0.0161774
724.546	0.0161768
724.624	0.0163605
724.703	0.0163180
724.781	0.0164931
724.859	0.0163583
724.937	0.0162077
725.015	0.0163136
725.093	0.0163140
725.171	0.0162770
725.249	0.0162208
725.328	0.0161674
725.406	0.0161615
725.484	0.0162410
725.562	0.0162539
725.640	0.0161137
725.718	0.0161237
725.796	0.0161277
725.874	0.0160946
725.953	0.0160854
726.031	0.0160429
726.109	0.0160126
726.187	0.0160142
726.265	0.0160163
726.343	0.0159570
726.421	0.0159930
726.499	0.0158306
726.578	0.0158733
726.656	0.0160556
726.734	0.0159020
726.812	0.0159676
726.890	0.0160232
726.968	0.0159580
727.046	0.0159825
727.124	0.0159750
727.203	0.0160703
727.281	0.0159412
727.359	0.0160609
727.437	0.0159158
727.515	0.0160168
727.593	0.0159073
727.671	0.0159852
727.749	0.0159846
727.828	0.0160264
727.906	0.0160510
727.984	0.0160500
728.062	0.0160179
728.140	0.0159532
728.218	0.0160462
728.296	0.0159815
728.374	0.0159653
728.453	0.0160028
728.531	0.0160329
728.609	0.0159311
728.687	0.0159725
728.765	0.0158491
728.843	0.0158081
728.921	0.0160203
728.999	0.0159193
729.078	0.0159214
729.156	0.0160057
729.234	0.0160424
729.312	0.0160157
729.390	0.0158523
729.468	0.0160124
729.546	0.0161656
729.624	0.0162025
729.703	0.0160120
729.781	0.0159877
729.859	0.0161097
729.937	0.0161043
730.015	0.0161588
730.093	0.0161357
730.171	0.0161369
730.249	0.0161197
730.328	0.0161774
730.406	0.0162051
730.484	0.0162842
730.562	0.0160495
730.640	0.0161533
730.718	0.0162189
730.796	0.0162569
730.874	0.0161913
730.953	0.0161910
731.031	0.0163350
731.109	0.0163806
731.187	0.0162479
731.265	0.0160841
731.343	0.0162840
731.421	0.0163786
731.499	0.0161964
731.578	0.0163542
731.656	0.0163325
731.734	0.0163453
731.812	0.0161736
731.890	0.0163455
731.968	0.0162115
732.046	0.0161841
732.124	0.0162713
732.203	0.0163029
732.281	0.0162296
732.359	0.0161211
732.437	0.0162590
732.515	0.0162438
732.593	0.0162472
732.671	0.0161281
732.749	0.0162157
732.828	0.0160668
732.906	0.0161594
732.984	0.0161867
733.062	0.0161305
733.140	0.0161765
733.218	0.0161827
733.296	0.0161092
733.374	0.0163312
733.453	0.0162510
733.531	0.0161457
733.609	0.0160292
733.687	0.0161819
733.765	0.0161934
733.843	0.0162354
733.921	0.0162005
733.999	0.0160732
734.078	0.0162302
734.156	0.0162193
734.234	0.0162174
734.312	0.0162640
734.390	0.0161176
734.468	0.0161938
734.546	0.0163402
734.624	0.0162562
734.703	0.0161812
734.781	0.0162962
734.859	0.0162339
734.937	0.0163009
735.015	0.0163233
735.093	0.0163054
735.171	0.0161607
735.249	0.0162754
735.328	0.0161971
735.406	0.0161868
735.484	0.0162309
735.562	0.0162842
735.640	0.0163174
735.718	0.0161909
735.796	0.0164427
735.874	0.0163425
735.953	0.0161630
736.031	0.0161583
736.109	0.0163924
736.187	0.0161129
736.265	0.0162053
736.343	0.0162204
736.421	0.0160912
736.499	0.0161704
736.578	0.0160851
736.656	0.0161104
736.734	0.0162666
736.812	0.0162603
736.890	0.0161717
736.968	0.0161769
737.046	0.0161176
737.124	0.0161330
737.203	0.0161705
737.281	0.0160872
737.359	0.0161662
737.437	0.0163354
737.515	0.0161784
737.593	0.0160997
737.671	0.0161597
737.749	0.0162724
737.828	0.0161711
737.906	0.0162959
737.984	0.0161382
738.062	0.0160763
738.140	0.0162717
738.218	0.0160741
738.296	0.0161409
738.374	0.0163016
738.453	0.0162177
738.531	0.0162392
738.609	0.0162206
738.687	0.0161657
738.765	0.0161980
738.843	0.0160487
738.921	0.0161301
738.999	0.0162950
739.078	0.0162263
739.156	0.0161339
739.234	0.0161131
739.312	0.0161741
739.390	0.0160801
739.468	0.0163584
739.546	0.0160915
739.624	0.0160928
739.703	0.0161745
739.781	0.0161130
739.859	0.0160373
739.937	0.0161179
740.015	0.0161014
740.093	0.0162051
740.171	0.0160759
740.249	0.0160396
740.328	0.0160172
740.406	0.0160361
740.484	0.0160367
740.562	0.0159801
740.640	0.0159956
740.718	0.0161649
740.796	0.0160880
740.874	0.0159801
740.953	0.0160706
741.031	0.0161674
741.109	0.0158751
741.187	0.0159927
741.265	0.0159451
741.343	0.0159510
741.421	0.0160906
741.499	0.0159726
741.578	0.0160649
741.656	0.0161379
741.734	0.0162300
741.812	0.0162065
741.890	0.0160244
741.968	0.0160744
742.046	0.0161024
742.124	0.0160274
742.203	0.0161624
742.281	0.0160085
742.359	0.0161104
742.437	0.0161800
742.515	0.0161263
742.593	0.0163279
742.671	0.0162062
742.749	0.0161521
742.828	0.0161185
742.906	0.0162037
742.984	0.0162395
743.062	0.0161491
743.140	0.0161688
743.218	0.0161371
743.296	0.0159576
743.374	0.0160453
743.453	0.0161185
743.531	0.0161411
743.609	0.0161398
743.687	0.0160196
743.765	0.0158907
743.843	0.0161900
743.921	0.0162386
743.999	0.0161550
744.078	0.0160970
744.156	0.0161955
744.234	0.0162943
744.312	0.0160645
744.390	0.0161236
744.468	0.0161933
744.546	0.0161720
744.624	0.0161696
744.703	0.0160802
744.781	0.0160597
744.859	0.0158566
744.937	0.0161038
745.015	0.0160755
745.093	0.0160461
745.171	0.0162275
745.249	0.0161562
745.328	0.0161735
745.406	0.0160767
745.484	0.0161329
745.562	0.0160696
745.640	0.0161232
745.718	0.0161043
745.796	0.0161631
745.874	0.0162642
745.953	0.0161979
746.031	0.0160451
746.109	0.0163056
746.187	0.0161536
746.265	0.0161659
746.343	0.0159659
746.421	0.0160213
746.499	0.0160934
746.578	0.0161060
746.656	0.0161048
746.734	0.0160191
746.812	0.0161320
746.890	0.0163237
746.968	0.0162119
747.046	0.0161338
747.124	0.0160069
747.203	0.0160883
747.281	0.0159962
747.359	0.0161520
747.437	0.0161343
747.515	0.0161006
747.593	0.0161117
747.671	0.0159519
747.749	0.0160809
747.828	0.0160955
747.906	0.0159730
747.984	0.0160291
748.062	0.0160517
748.140	0.0159856
748.218	0.0160172
748.296	0.0159614
748.374	0.0159500
748.453	0.0159622
748.531	0.0159278
748.609	0.0160034
748.687	0.0159451
748.765	0.0159740
748.843	0.0160036
748.921	0.0160126
748.999	0.0160069
749.078	0.0159758
749.156	0.0159637
749.234	0.0160637
749.312	0.0159243
749.390	0.0159480
749.468	0.0160503
749.546	0.0160229
749.624	0.0161248
749.703	0.0160617
749.781	0.0159476
749.859	0.0161754
749.937	0.0161850
750.015	0.0160877
750.093	0.0160300
750.171	0.0161769
750.249	0.0160933
750.328	0.0162472
750.406	0.0161327
750.484	0.0161270
750.562	0.0161774
750.640	0.0161390
750.718	0.0161029
750.796	0.0160902
750.874	0.0161543
750.953	0.0161143
751.031	0.0160875
751.109	0.0160934
751.187	0.0162070
751.265	0.0161987
751.343	0.0161323
751.421	0.0162893
751.499	0.0163117
751.578	0.0161579
751.656	0.0161721
751.734	0.0162221
751.812	0.0163448
751.890	0.0162529
751.968	0.0161777
752.046	0.0163221
752.124	0.0162926
752.203	0.0161292
752.281	0.0162493
752.359	0.0163221
752.437	0.0162627
752.515	0.0161252
752.593	0.0160854
752.671	0.0161275
752.749	0.0162083
752.828	0.0161623
752.906	0.0161432
752.984	0.0162285
753.062	0.0162119
753.140	0.0161834
753.218	0.0162402
753.296	0.0161165
753.374	0.0160751
753.453	0.0160987
753.531	0.0162116
753.609	0.0160113
753.687	0.0161022
753.765	0.0161218
753.843	0.0162598
753.921	0.0160059
753.999	0.0160960
754.078	0.0160816
754.156	0.0161768
754.234	0.0162204
754.312	0.0161507
754.390	0.0160441
754.468	0.0161110
754.546	0.0161122
754.624	0.0161426
754.703	0.0160883
754.781	0.0161243
754.859	0.0162470
754.937	0.0161713
755.015	0.0162332
755.093	0.0161465
755.171	0.0162681
755.249	0.0161537
755.328	0.0161421
755.406	0.0162778
755.484	0.0164149
755.562	0.0162403
755.640	0.0161646
755.718	0.0163106
755.796	0.0162965
755.874	0.0162895
755.953	0.0162525
756.031	0.0162069
756.109	0.0162682
756.187	0.0163539
756.265	0.0163124
756.343	0.0161837
756.421	0.0161891
756.499	0.0162212
756.578	0.0161364
756.656	0.0162395
756.734	0.0161446
756.812	0.0161253
756.890	0.0162112
756.968	0.0160678
757.046	0.0161010
757.124	0.0160897
757.203	0.0161141
757.281	0.0163278
757.359	0.0161238
757.437	0.0160570
757.515	0.0161114
757.593	0.0162266
757.671	0.0161893
757.749	0.0161431
757.828	0.0161250
757.906	0.0160635
757.984	0.0161736
758.062	0.0160197
758.140	0.0161141
758.218	0.0159127
758.296	0.0160852
758.374	0.0162421
758.453	0.0160496
758.531	0.0159928
758.609	0.0161704
758.687	0.0161647
758.765	0.0160598
758.843	0.0159879
758.921	0.0161724
758.999	0.0161782
759.078	0.0160699
759.156	0.0160360
759.234	0.0160043
759.312	0.0161272
759.390	0.0161193
759.468	0.0161028
759.546	0.0161110
759.624	0.0159975
759.703	0.0160732
759.781	0.0161251
759.859	0.0161876
759.937	0.0161032
760.015	0.0160537
760.093	0.0162307
760.171	0.0161294
760.249	0.0159407
760.328	0.0161890
760.406	0.0159975
760.484	0.0160283
760.562	0.0162247
760.640	0.0161304
760.718	0.0161239
760.796	0.0163042
760.874	0.0161949
760.953	0.0162371
761.031	0.0161558
761.109	0.0163065
761.187	0.0161529
761.265	0.0164078
761.343	0.0162353
761.421	0.0160480
761.499	0.0160323
761.578	0.0163448
761.656	0.0162164
761.734	0.0161105
761.812	0.0161797
761.890	0.0161368
761.968	0.0162645
762.046	0.0163630
762.124	0.0163431
762.203	0.0162421
762.281	0.0160594
762.359	0.0161312
762.437	0.0162699
762.515	0.0162075
762.593	0.0160777
762.671	0.0160675
762.749	0.0162992
762.828	0.0162568
762.906	0.0162070
762.984	0.0161488
763.062	0.0162782
763.140	0.0160472
763.218	0.0163500
763.296	0.0162122
763.374	0.0161984
763.453	0.0160143
763.531	0.0160701
763.609	0.0160823
763.687	0.0161053
763.765	0.0161497
763.843	0.0161425
763.921	0.0160728
763.999	0.0161816
764.078	0.0162875
764.156	0.0162729
764.234	0.0163112
764.312	0.0161739
764.390	0.0161716
764.468	0.0159832
764.546	0.0160609
764.624	0.0162675
764.703	0.0162021
764.781	0.0163160
764.859	0.0159402
764.937	0.0160598
765.015	0.0160729
765.093	0.0159814
765.171	0.0161392
765.249	0.0161047
765.328	0.0161491
765.406	0.0160879
765.484	0.0162020
765.562	0.0160677
765.640	0.0159412
765.718	0.0161520
765.796	0.0161076
765.874	0.0159686
765.953	0.0161457
766.031	0.0161180
766.109	0.0160509
766.187	0.0160484
766.265	0.0160725
766.343	0.0160744
766.421	0.0160452
766.499	0.0160497
766.578	0.0161005
766.656	0.0160082
766.734	0.0159985
766.812	0.0160679
766.890	0.0160966
766.968	0.0159739
767.046	0.0160009
767.124	0.0160405
767.203	0.0160963
767.281	0.0161527
767.359	0.0160280
767.437	0.0160497
767.515	0.0160844
767.593	0.0159897
767.671	0.0159613
767.749	0.0159427
767.828	0.0159378
767.906	0.0160279
767.984	0.0159396
768.062	0.0159030
768.140	0.0159719
768.218	0.0158167
768.296	0.0159480
768.374	0.0160034
768.453	0.0158645
768.531	0.0160328
768.609	0.0159290
768.687	0.0159311
768.765	0.0160590
768.843	0.0158411
768.921	0.0160614
768.999	0.0160523
769.078	0.0159465
769.156	0.0160352
769.234	0.0161543
769.312	0.0160775
769.390	0.0159825
769.468	0.0161120
769.546	0.0161457
769.624	0.0161678
769.703	0.0161277
769.781	0.0161513
769.859	0.0160892
769.937	0.0161689
770.015	0.0161036
770.093	0.0162335
770.171	0.0161655
770.249	0.0161994
770.328	0.0161878
770.406	0.0159750
770.484	0.0160914
770.562	0.0161646
770.640	0.0161261
770.718	0.0160687
770.796	0.0161943
770.874	0.0161606
770.953	0.0162454
771.031	0.0162151
771.109	0.0162836
771.187	0.0162691
771.265	0.0160706
771.343	0.0161572
771.421	0.0161655
771.499	0.0162497
771.578	0.0161111
771.656	0.0163258
771.734	0.0161510
771.812	0.0161407
771.890	0.0161269
771.968	0.0160343
772.046	0.0162032
772.124	0.0161966
772.203	0.0162029
772.281	0.0160274
772.359	0.0161346
772.437	0.0162125
772.515	0.0161935
772.593	0.0160743
772.671	0.0160871
772.749	0.0162003
772.828	0.0162672
772.906	0.0162170
772.984	0.0162479
773.062	0.0164610
773.140	0.0163243
773.218	0.0163744
773.296	0.0164629
773.374	0.0164056
773.453	0.0163388
773.531	0.0164894
773.609	0.0164766
773.687	0.0163891
773.765	0.0163857
773.843	0.0164259
773.921	0.0162242
773.999	0.0164062
774.078	0.0164465
774.156	0.0162732
774.234	0.0161974
774.312	0.0161779
774.390	0.0161115
774.468	0.0160855
774.546	0.0161393
774.624	0.0162795
774.703	0.0161987
774.781	0.0161114
774.859	0.0162431
774.937	0.0161944
775.015	0.0161922
775.093	0.0161519
775.171	0.0163766
775.249	0.0162318
775.328	0.0161165
775.406	0.0161284
775.484	0.0161740
775.562	0.0164091
775.640	0.0162502
775.718	0.0162594
775.796	0.0161559
775.874	0.0161308
775.953	0.0162375
776.031	0.0161777
776.109	0.0162032
776.187	0.0161599
776.265	0.0161646
776.343	0.0161159
776.421	0.0161090
776.499	0.0159763
776.578	0.0160078
776.656	0.0161437
776.734	0.0161031
776.812	0.0160687
776.890	0.0158809
776.968	0.0159841
777.046	0.0160885
777.124	0.0160897
777.203	0.0160453
777.281	0.0159576
777.359	0.0160297
777.437	0.0160482
777.515	0.0160337
777.593	0.0160147
777.671	0.0160571
777.749	0.0160329
777.828	0.0161060
777.906	0.0160352
777.984	0.0160045
778.062	0.0160947
778.140	0.0160722
778.218	0.0159695
778.296	0.0159176
778.374	0.0160417
778.453	0.0161236
778.531	0.0160691
778.609	0.0160449
778.687	0.0159428
778.765	0.0159821
778.843	0.0161614
778.921	0.0160143
778.999	0.0161174
779.078	0.0160484
779.156	0.0160468
779.234	0.0162038
779.312	0.0162614
779.390	0.0161952
779.468	0.0162091
779.546	0.0162205
779.624	0.0162679
779.703	0.0162101
779.781	0.0163525
779.859	0.0163719
779.937	0.0164439
780.015	0.0163110
780.093	0.0162376
780.171	0.0163828
780.249	0.0163355
780.328	0.0163120
780.406	0.0163490
780.484	0.0162938
780.562	0.0163716
780.640	0.0164462
780.718	0.0163600
780.796	0.0163744
780.874	0.0164813
780.953	0.0164055
781.031	0.0163455
781.109	0.0163303
781.187	0.0165485
781.265	0.0163773
781.343	0.0163120
781.421	0.0163026
781.499	0.0162689
781.578	0.0164737
781.656	0.0164108
781.734	0.0163290
781.812	0.0163652
781.890	0.0162965
781.968	0.0162765
782.046	0.0161364
782.124	0.0163875
782.203	0.0162182
782.281	0.0162607
782.359	0.0163670
782.437	0.0163058
782.515	0.0162682
782.593	0.0163409
782.671	0.0163093
782.749	0.0161356
782.828	0.0163551
782.906	0.0164190
782.984	0.0163371
783.062	0.0164444
783.140	0.0163425
783.218	0.0163725
783.296	0.0164127
783.374	0.0164246
783.453	0.0163049
783.531	0.0165144
783.609	0.0165337
783.687	0.0164325
783.765	0.0164581
783.843	0.0164928
783.921	0.0164162
783.999	0.0163544
784.078	0.0163663
784.156	0.0165042
784.234	0.0164610
784.312	0.0164307
784.390	0.0165421
784.468	0.0165302
784.546	0.0163010
784.624	0.0164200
784.703	0.0165262
784.781	0.0163671
784.859	0.0163031
784.937	0.0164304
785.015	0.0163226
785.093	0.0163925
785.171	0.0165200
785.249	0.0164475
785.328	0.0164120
785.406	0.0164851
785.484	0.0163819
785.562	0.0164347
785.640	0.0165443
785.718	0.0164295
785.796	0.0163805
785.874	0.0163900
785.953	0.0164471
786.031	0.0162881
786.109	0.0162935
786.187	0.0164059
786.265	0.0162914
786.343	0.0162270
786.421	0.0162217
786.499	0.0161249
786.578	0.0162891
786.656	0.0161732
786.734	0.0160917
786.812	0.0161461
786.890	0.0162379
786.968	0.0161192
787.046	0.0161221
787.124	0.0160949
787.203	0.0162247
787.281	0.0162741
787.359	0.0162643
787.437	0.0162180
787.515	0.0162038
787.593	0.0162687
787.671	0.0162251
787.749	0.0162322
787.828	0.0164647
787.906	0.0163107
787.984	0.0161315
788.062	0.0162041
788.140	0.0162494
788.218	0.0162333
788.296	0.0160948
788.374	0.0160860
788.453	0.0161291
788.531	0.0162062
788.609	0.0161669
788.687	0.0161108
788.765	0.0160090
788.843	0.0160252
788.921	0.0160951
788.999	0.0160941
789.078	0.0160790
789.156	0.0161662
789.234	0.0160760
789.312	0.0160254
789.390	0.0161003
789.468	0.0161278
789.546	0.0161263
789.624	0.0161581
789.703	0.0161092
789.781	0.0162995
789.859	0.0161196
789.937	0.0161810
790.015	0.0162296
790.093	0.0162399
790.171	0.0161868
790.249	0.0161098
790.328	0.0161079
790.406	0.0162344
790.484	0.0161472
790.562	0.0160210
790.640	0.0159956
790.718	0.0161715
790.796	0.0160548
790.874	0.0158965
790.953	0.0160317
791.031	0.0160010
791.109	0.0160367
791.187	0.0160249
791.265	0.0161766
791.343	0.0161219
791.421	0.0161763
791.499	0.0161276
791.578	0.0160741
791.656	0.0161546
791.734	0.0162555
791.812	0.0162281
791.890	0.0162553
791.968	0.0162035
792.046	0.0161831
792.124	0.0160155
792.203	0.0162191
792.281	0.0160445
792.359	0.0161087
792.437	0.0160629
792.515	0.0161748
792.593	0.0161499
792.671	0.0159978
792.749	0.0162062
792.828	0.0159727
792.906	0.0160934
792.984	0.0160979
793.062	0.0161781
793.140	0.0161860
793.218	0.0161700
793.296	0.0162436
793.374	0.0162804
793.453	0.0162966
793.531	0.0164160
793.609	0.0163473
793.687	0.0163396
793.765	0.0162122
793.843	0.0162774
793.921	0.0164884
793.999	0.0164810
794.078	0.0163766
794.156	0.0163362
794.234	0.0163803
794.312	0.0164314
794.390	0.0163722
794.468	0.0164268
794.546	0.0161761
794.624	0.0164015
794.703	0.0163763
794.781	0.0162704
794.859	0.0164535
794.937	0.0164301
795.015	0.0164884
795.093	0.0164024
795.171	0.0162302
795.249	0.0163883
795.328	0.0163445
795.406	0.0164758
795.484	0.0164171
795.562	0.0163512
795.640	0.0164323
795.718	0.0164622
795.796	0.0163111
795.874	0.0164655
795.953	0.0164435
796.031	0.0164466
796.109	0.0163830
796.187	0.0163708
796.265	0.0163770
796.343	0.0164043
796.421	0.0164005
796.499	0.0163506
796.578	0.0163847
796.656	0.0163081
796.734	0.0162989
796.812	0.0162307
796.890	0.0162945
796.968	0.0162882
797.046	0.0163519
797.124	0.0162705
797.203	0.0160441
797.281	0.0161935
797.359	0.0162162
797.437	0.0162627
797.515	0.0160616
797.593	0.0162565
797.671	0.0164051
797.749	0.0162556
797.828	0.0162048
797.906	0.0162459
797.984	0.0161746
798.062	0.0162010
798.140	0.0161298
798.218	0.0161676
798.296	0.0161662
798.374	0.0161207
798.453	0.0160876
798.531	0.0161424
798.609	0.0160828
798.687	0.0160983
798.765	0.0160699
798.843	0.0162621
798.921	0.0161951
798.999	0.0161029
799.078	0.0161521
799.156	0.0161727
799.234	0.0161847
799.312	0.0161993
799.390	0.0163342
799.468	0.0161507
799.546	0.0161134
799.624	0.0161469
799.703	0.0161639
799.781	0.0161852
799.859	0.0162241
799.937	0.0161929
800.015	0.0160604
800.093	0.0162171
800.171	0.0162430
800.249	0.0161407
800.328	0.0161314
800.406	0.0161185
800.484	0.0160966
800.562	0.0160291
800.640	0.0161552
800.718	0.0160400
800.796	0.0161403
800.874	0.0161549
800.953	0.0163390
801.031	0.0161866
801.109	0.0162396
801.187	0.0161829
801.265	0.0163215
801.343	0.0162896
801.421	0.0163174
801.499	0.0162852
801.578	0.0163139
801.656	0.0162220
801.734	0.0161846
801.812	0.0162057
801.890	0.0162242
801.968	0.0162917
802.046	0.0161404
802.124	0.0163320
802.203	0.0163378
802.281	0.0162766
802.359	0.0163338
802.437	0.0161162
802.515	0.0162132
802.593	0.0163290
802.671	0.0164141
802.749	0.0161868
802.828	0.0163545
802.906	0.0163306
802.984	0.0162848
803.062	0.0162739
803.140	0.0161417
803.218	0.0161913
803.296	0.0164007
803.374	0.0162093
803.453	0.0162718
803.531	0.0161607
803.609	0.0163265
803.687	0.0162312
803.765	0.0162486
803.843	0.0163321
803.921	0.0162689
803.999	0.0163274
804.078	0.0163380
804.156	0.0162994
804.234	0.0163549
804.312	0.0162978
804.390	0.0162796
804.468	0.0163875
804.546	0.0163096
804.624	0.0162115
804.703	0.0163047
804.781	0.0163465
804.859	0.0163746
804.937	0.0163143
805.015	0.0164217
805.093	0.0162966
805.171	0.0162354
805.249	0.0164925
805.328	0.0163170
805.406	0.0161777
805.484	0.0162939
805.562	0.0161948
805.640	0.0161749
805.718	0.0162332
805.796	0.0162059
805.874	0.0163960
805.953	0.0162785
806.031	0.0163173
806.109	0.0163295
806.187	0.0163639
806.265	0.0163299
806.343	0.0163268
806.421	0.0162922
806.499	0.0163507
806.578	0.0163498
806.656	0.0164048
806.734	0.0164373
806.812	0.0163177
806.890	0.0162824
806.968	0.0163766
807.046	0.0161756
807.124	0.0161192
807.203	0.0162091
807.281	0.0161653
807.359	0.0160423
807.437	0.0160392
807.515	0.0161224
807.593	0.0162046
807.671	0.0161468
807.749	0.0161719
807.828	0.0161246
807.906	0.0161173
807.984	0.0162535
808.062	0.0163447
808.140	0.0162830
808.218	0.0161888
808.296	0.0162655
808.374	0.0161913
808.453	0.0160606
808.531	0.0162480
808.609	0.0160742
808.687	0.0161806
808.765	0.0161116
808.843	0.0162042
808.921	0.0161203
808.999	0.0161083
809.078	0.0161742
809.156	0.0162250
809.234	0.0161440
809.312	0.0160509
809.390	0.0161977
809.468	0.0162482
809.546	0.0161702
809.624	0.0161028
809.703	0.0162760
809.781	0.0161092
809.859	0.0161510
809.937	0.0162103
810.015	0.0160345
810.093	0.0160710
810.171	0.0163332
810.249	0.0162573
810.328	0.0161048
810.406	0.0160797
810.484	0.0162165
810.562	0.0160764
810.640	0.0162066
810.718	0.0161791
810.796	0.0161118
810.874	0.0161961
810.953	0.0160608
811.031	0.0161077
811.109	0.0161766
811.187	0.0160823
811.265	0.0161299
811.343	0.0160478
811.421	0.0161371
811.499	0.0160439
811.578	0.0161404
811.656	0.0161057
811.734	0.0161166
811.812	0.0160789
811.890	0.0160384
811.968	0.0160138
812.046	0.0160270
812.124	0.0160496
812.203	0.0159632
812.281	0.0159867
812.359	0.0160815
812.437	0.0159414
812.515	0.0159842
812.593	0.0160036
812.671	0.0160526
812.749	0.0161403
812.828	0.0161634
812.906	0.0160669
812.984	0.0160352
813.062	0.0160730
813.140	0.0160886
813.218	0.0160400
813.296	0.0159888
813.374	0.0160155
813.453	0.0159047
813.531	0.0160826
813.609	0.0160583
813.687	0.0160262
813.765	0.0160216
813.843	0.0159797
813.921	0.0159799
813.999	0.0159342
814.078	0.0160043
814.156	0.0161475
814.234	0.0159822
814.312	0.0161227
814.390	0.0162613
814.468	0.0160292
814.546	0.0161280
814.624	0.0160677
814.703	0.0159713
814.781	0.0161196
814.859	0.0162079
814.937	0.0160464
815.015	0.0160578
815.093	0.0161587
815.171	0.0162336
815.249	0.0163357
815.328	0.0161008
815.406	0.0163509
815.484	0.0163531
815.562	0.0162222
815.640	0.0163651
815.718	0.0163824
815.796	0.0163030
815.874	0.0162756
815.953	0.0161872
816.031	0.0162933
816.109	0.0162547
816.187	0.0161173
816.265	0.0161993
816.343	0.0162299
816.421	0.0162225
816.499	0.0161406
816.578	0.0161797
816.656	0.0162078
816.734	0.0160748
816.812	0.0160783
816.890	0.0161761
816.968	0.0161430
817.046	0.0161230
817.124	0.0161198
817.203	0.0161469
817.281	0.0160878
817.359	0.0160664
817.437	0.0160313
817.515	0.0161231
817.593	0.0161777
817.671	0.0162440
817.749	0.0162904
817.828	0.0161480
817.906	0.0159798
817.984	0.0163599
818.062	0.0162673
818.140	0.0162771
818.218	0.0162330
818.296	0.0162282
818.374	0.0162033
818.453	0.0162657
818.531	0.0163489
818.609	0.0163430
818.687	0.0162855
818.765	0.0161732
818.843	0.0162051
818.921	0.0164494
818.999	0.0164451
819.078	0.0162506
819.156	0.0162703
819.234	0.0163467
819.312	0.0163180
819.390	0.0163071
819.468	0.0163806
819.546	0.0162435
819.624	0.0161482
819.703	0.0163614
819.781	0.0162063
819.859	0.0160851
819.937	0.0161190
820.015	0.0161819
820.093	0.0162661
820.171	0.0162409
820.249	0.0162707
820.328	0.0163248
820.406	0.0160109
820.484	0.0160530
820.562	0.0161638
820.640	0.0162992
820.718	0.0162845
820.796	0.0162337
820.874	0.0161506
820.953	0.0162695
821.031	0.0161969
821.109	0.0163002
821.187	0.0161269
821.265	0.0161465
821.343	0.0161436
821.421	0.0161208
821.499	0.0159863
821.578	0.0159850
821.656	0.0160322
821.734	0.0161076
821.812	0.0161544
821.890	0.0161561
821.968	0.0160793
822.046	0.0160429
822.124	0.0160126
822.203	0.0160802
822.281	0.0160139
822.359	0.0162314
822.437	0.0161601
822.515	0.0160454
822.593	0.0160218
822.671	0.0160783
822.749	0.0160992
822.828	0.0162275
822.906	0.0161782
822.984	0.0161713
823.062	0.0161872
823.140	0.0160229
823.218	0.0161438
823.296	0.0161467
823.374	0.0161655
823.453	0.0160288
823.531	0.0161578
823.609	0.0161994
823.687	0.0161424
823.765	0.0160826
823.843	0.0161140
823.921	0.0160964
823.999	0.0162789
824.078	0.0162305
824.156	0.0160956
824.234	0.0161584
824.312	0.0162222
824.390	0.0162207
824.468	0.0161688
824.546	0.0163236
824.624	0.0162361
824.703	0.0160741
824.781	0.0160751
824.859	0.0160609
824.937	0.0162400
825.015	0.0160480
825.093	0.0161553
825.171	0.0161481
825.249	0.0162258
825.328	0.0160794
825.406	0.0161514
825.484	0.0161596
825.562	0.0160957
825.640	0.0161619
825.718	0.0161934
825.796	0.0162720
825.874	0.0161648
825.953	0.0162874
826.031	0.0162758
826.109	0.0163737
826.187	0.0162250
826.265	0.0161993
826.343	0.0163251
826.421	0.0163328
826.499	0.0162991
826.578	0.0163254
826.656	0.0161531
826.734	0.0161731
826.812	0.0161617
826.890	0.0160683
826.968	0.0162422
827.046	0.0160303
827.124	0.0160526
827.203	0.0159298
827.281	0.0160569
827.359	0.0159943
827.437	0.0159541
827.515	0.0160899
827.593	0.0160607
827.671	0.0159581
827.749	0.0159722
827.828	0.0160213
827.906	0.0160943
827.984	0.0159681
828.062	0.0159203
828.140	0.0159354
828.218	0.0159921
828.296	0.0160359
828.374	0.0160842
828.453	0.0159560
828.531	0.0161324
828.609	0.0160909
828.687	0.0161494
828.765	0.0161024
828.843	0.0162082
828.921	0.0162305
828.999	0.0163774
829.078	0.0162650
829.156	0.0161932
829.234	0.0162380
829.312	0.0164091
829.390	0.0162733
829.468	0.0162949
829.546	0.0162380
829.624	0.0162480
829.703	0.0162796
829.781	0.0164320
829.859	0.0164205
829.937	0.0163417
830.015	0.0162983
830.093	0.0162798
830.171	0.0162236
830.249	0.0162077
830.328	0.0162909
830.406	0.0160814
830.484	0.0161401
830.562	0.0161306
830.640	0.0161215
830.718	0.0161514
830.796	0.0159336
830.874	0.0159458
830.953	0.0160214
831.031	0.0160249
831.109	0.0160822
831.187	0.0160791
831.265	0.0161062
831.343	0.0159998
831.421	0.0160769
831.499	0.0160329
831.578	0.0160266
831.656	0.0160396
831.734	0.0160578
831.812	0.0161291
831.890	0.0160574
831.968	0.0162231
832.046	0.0160951
832.124	0.0160625
832.203	0.0162099
832.281	0.0161070
832.359	0.0161182
832.437	0.0161227
832.515	0.0160389
832.593	0.0159846
832.671	0.0160721
832.749	0.0158578
832.828	0.0160328
832.906	0.0158836
832.984	0.0161211
833.062	0.0159852
833.140	0.0159182
833.218	0.0161024
833.296	0.0158614
833.374	0.0160186
833.453	0.0160999
833.531	0.0160828
833.609	0.0160275
833.687	0.0160523
833.765	0.0161175
833.843	0.0161539
833.921	0.0161434
833.999	0.0160339
834.078	0.0161423
834.156	0.0161757
834.234	0.0161770
834.312	0.0161574
834.390	0.0160723
834.468	0.0162532
834.546	0.0160549
834.624	0.0160791
834.703	0.0160130
834.781	0.0158907
834.859	0.0161578
834.937	0.0160206
835.015	0.0159063
835.093	0.0160364
835.171	0.0160136
835.249	0.0159371
835.328	0.0159207
835.406	0.0158361
835.484	0.0158735
835.562	0.0157790
835.640	0.0157978
835.718	0.0158007
835.796	0.0160641
835.874	0.0158891
835.953	0.0159435
836.031	0.0158845
836.109	0.0160625
836.187	0.0159550
836.265	0.0160197
836.343	0.0159661
836.421	0.0160728
836.499	0.0159976
836.578	0.0159945
836.656	0.0160305
836.734	0.0160069
836.812	0.0161277
836.890	0.0162006
836.968	0.0161344
837.046	0.0162518
837.124	0.0163063
837.203	0.0162564
837.281	0.0161094
837.359	0.0160651
837.437	0.0161382
837.515	0.0161212
837.593	0.0162233
837.671	0.0162272
837.749	0.0161091
837.828	0.0160555
837.906	0.0160265
837.984	0.0159532
838.062	0.0162241
838.140	0.0159612
838.218	0.0159938
838.296	0.0160706
838.374	0.0160491
838.453	0.0161329
838.531	0.0161235
838.609	0.0161260
838.687	0.0162052
838.765	0.0161422
838.843	0.0161446
838.921	0.0162136
838.999	0.0162430
839.078	0.0161002
839.156	0.0161326
839.234	0.0162498
839.312	0.0161311
839.390	0.0162740
839.468	0.0162046
839.546	0.0162634
839.624	0.0161853
839.703	0.0162498
839.781	0.0163141
839.859	0.0161389
839.937	0.0162284
840.015	0.0163630
840.093	0.0162488
840.171	0.0162077
840.249	0.0162888
840.328	0.0161671
840.406	0.0161328
840.484	0.0163477
840.562	0.0161288
840.640	0.0159934
840.718	0.0160454
840.796	0.0160840
840.874	0.0160240
840.953	0.0160662
841.031	0.0160898
841.109	0.0160846
841.187	0.0160523
841.265	0.0159556
841.343	0.0160722
841.421	0.0159097
841.499	0.0161337
841.578	0.0159148
841.656	0.0159615
841.734	0.0159555
841.812	0.0159882
841.890	0.0159630
841.968	0.0160172
842.046	0.0159550
842.124	0.0160291
842.203	0.0160696
842.281	0.0161111
842.359	0.0160752
842.437	0.0162570
842.515	0.0162859
842.593	0.0161240
842.671	0.0160967
842.749	0.0161465
842.828	0.0160876
842.906	0.0162048
842.984	0.0160849
843.062	0.0159563
843.140	0.0161455
843.218	0.0160885
843.296	0.0161069
843.374	0.0159946
843.453	0.0160143
843.531	0.0160751
843.609	0.0160385
843.687	0.0159915
843.765	0.0160215
843.843	0.0160243
843.921	0.0161293
843.999	0.0160937
844.078	0.0161130
844.156	0.0161623
844.234	0.0160628
844.312	0.0158877
844.390	0.0160127
844.468	0.0160436
844.546	0.0160211
844.624	0.0159867
844.703	0.0159875
844.781	0.0159210
844.859	0.0160059
844.937	0.0160781
845.015	0.0160957
845.093	0.0160720
845.171	0.0160353
845.249	0.0160582
845.328	0.0160774
845.406	0.0161427
845.484	0.0160581
845.562	0.0160939
845.640	0.0161211
845.718	0.0162917
845.796	0.0160682
845.874	0.0160839
845.953	0.0162080
846.031	0.0162038
846.109	0.0161182
846.187	0.0162965
846.265	0.0160217
846.343	0.0161348
846.421	0.0160251
846.499	0.0161768
846.578	0.0161222
846.656	0.0161366
846.734	0.0163648
846.812	0.0162283
846.890	0.0161513
846.968	0.0161172
847.046	0.0161485
847.124	0.0162194
847.203	0.0161674
847.281	0.0161777
847.359	0.0161390
847.437	0.0161108
847.515	0.0161942
847.593	0.0160834
847.671	0.0161443
847.749	0.0161996
847.828	0.0162178
847.906	0.0161649
847.984	0.0161618
848.062	0.0160604
848.140	0.0161484
848.218	0.0161028
848.296	0.0161004
848.374	0.0161140
848.453	0.0162289
848.531	0.0161508
848.609	0.0162096
848.687	0.0161183
848.765	0.0162019
848.843	0.0161626
848.921	0.0161415
848.999	0.0161671
849.078	0.0161761
849.156	0.0161707
849.234	0.0161677
849.312	0.0161031
849.390	0.0161878
849.468	0.0163455
849.546	0.0163094
849.624	0.0160752
849.703	0.0162415
849.781	0.0162024
849.859	0.0161324
849.937	0.0164127
850.015	0.0162454
850.093	0.0163238
850.171	0.0163387
850.249	0.0162132
850.328	0.0161311
850.406	0.0161884
850.484	0.0162111
850.562	0.0161968
850.640	0.0161797
850.718	0.0162782
850.796	0.0162216
850.874	0.0162032
850.953	0.0161292
851.031	0.0159290
851.109	0.0160297
851.187	0.0161336
851.265	0.0161416
851.343	0.0161783
851.421	0.0161414
851.499	0.0160956
851.578	0.0162109
851.656	0.0161858
851.734	0.0162320
851.812	0.0162199
851.890	0.0161234
851.968	0.0161907
852.046	0.0162318
852.124	0.0162406
852.203	0.0161036
852.281	0.0162791
852.359	0.0162054
852.437	0.0160948
852.515	0.0163283
852.593	0.0162366
852.671	0.0161909
852.749	0.0163400
852.828	0.0164092
852.906	0.0162901
852.984	0.0163341
853.062	0.0162770
853.140	0.0163213
853.218	0.0164523
853.296	0.0163778
853.374	0.0163762
853.453	0.0161827
853.531	0.0161863
853.609	0.0163345
853.687	0.0164014
853.765	0.0163787
853.843	0.0162118
853.921	0.0163162
853.999	0.0163492
854.078	0.0163902
854.156	0.0164074
854.234	0.0162148
854.312	0.0162595
854.390	0.0163409
854.468	0.0163684
854.546	0.0162500
854.624	0.0163717
854.703	0.0163790
854.781	0.0163106
854.859	0.0162569
854.937	0.0161210
855.015	0.0162544
855.093	0.0162315
855.171	0.0163137
855.249	0.0162167
855.328	0.0161230
855.406	0.0163429
855.484	0.0162440
855.562	0.0162074
855.640	0.0163988
855.718	0.0163467
855.796	0.0162125
855.874	0.0162679
855.953	0.0164547
856.031	0.0163309
856.109	0.0162453
856.187	0.0161559
856.265	0.0163261
856.343	0.0161607
856.421	0.0161951
856.499	0.0162360
856.578	0.0162600
856.656	0.0162273
856.734	0.0162302
856.812	0.0161649
856.890	0.0161500
856.968	0.0161892
857.046	0.0162461
857.124	0.0162520
857.203	0.0161722
857.281	0.0160632
857.359	0.0161964
857.437	0.0162586
857.515	0.0162922
857.593	0.0163457
857.671	0.0162182
857.749	0.0162616
857.828	0.0163107
857.906	0.0162531
857.984	0.0163242
858.062	0.0163131
858.140	0.0164432
858.218	0.0162769
858.296	0.0162023
858.374	0.0163967
858.453	0.0164294
858.531	0.0163134
858.609	0.0162823
858.687	0.0162405
858.765	0.0164012
858.843	0.0164455
858.921	0.0163235
858.999	0.0163135
859.078	0.0161728
859.156	0.0164157
859.234	0.0162743
859.312	0.0160366
859.390	0.0161333
859.468	0.0162453
859.546	0.0161825
859.624	0.0160991
859.703	0.0160587
859.781	0.0160783
859.859	0.0160517
859.937	0.0159676
860.015	0.0160267
860.093	0.0160894
860.171	0.0161021
860.249	0.0159734
860.328	0.0158657
860.406	0.0161788
860.484	0.0160960
860.562	0.0160682
860.640	0.0162144
860.718	0.0162165
860.796	0.0162399
860.874	0.0161499
860.953	0.0161945
861.031	0.0161715
861.109	0.0162968
861.187	0.0162643
861.265	0.0162166
861.343	0.0162595
861.421	0.0163379
861.499	0.0162635
861.578	0.0162327
861.656	0.0163362
861.734	0.0162673
861.812	0.0162191
861.890	0.0161975
861.968	0.0162964
862.046	0.0161954
862.124	0.0161459
862.203	0.0162178
862.281	0.0159243
862.359	0.0160251
862.437	0.0161208
862.515	0.0159686
862.593	0.0161052
862.671	0.0162088
862.749	0.0160978
862.828	0.0160561
862.906	0.0160639
862.984	0.0160767
863.062	0.0159850
863.140	0.0161143
863.218	0.0159386
863.296	0.0159932
863.374	0.0159795
863.453	0.0158278
863.531	0.0158577
863.609	0.0158918
863.687	0.0160360
863.765	0.0159419
863.843	0.0159814
863.921	0.0160826
863.999	0.0158806
864.078	0.0158012
864.156	0.0160034
864.234	0.0159901
864.312	0.0159200
864.390	0.0159918
864.468	0.0159651
864.546	0.0160143
864.624	0.0159614
864.703	0.0160782
864.781	0.0159841
864.859	0.0160741
864.937	0.0159793
865.015	0.0159139
865.093	0.0159248
865.171	0.0159971
865.249	0.0160251
865.328	0.0159851
865.406	0.0159978
865.484	0.0159841
865.562	0.0158187
865.640	0.0159579
865.718	0.0159512
865.796	0.0159278
865.874	0.0158987
865.953	0.0159068
866.031	0.0158720
866.109	0.0159307
866.187	0.0157688
866.265	0.0157501
866.343	0.0157037
866.421	0.0158501
866.499	0.0158218
866.578	0.0156445
866.656	0.0156962
866.734	0.0160110
866.812	0.0159383
866.890	0.0157960
866.968	0.0159344
867.046	0.0159242
867.124	0.0160826
867.203	0.0159470
867.281	0.0160507
867.359	0.0161338
867.437	0.0159666
867.515	0.0161153
867.593	0.0161911
867.671	0.0161485
867.749	0.0161784
867.828	0.0161478
867.906	0.0162081
867.984	0.0161619
868.062	0.0161646
868.140	0.0161794
868.218	0.0161681
868.296	0.0162647
868.374	0.0162002
868.453	0.0162379
868.531	0.0161021
868.609	0.0162550
868.687	0.0163165
868.765	0.0161176
868.843	0.0161067
868.921	0.0161813
868.999	0.0161103
869.078	0.0160786
869.156	0.0161676
869.234	0.0162244
869.312	0.0160716
869.390	0.0161055
869.468	0.0161498
869.546	0.0162693
869.624	0.0161516
869.703	0.0160692
869.781	0.0159761
869.859	0.0160378
869.937	0.0159637
870.015	0.0159983
870.093	0.0161588
870.171	0.0158835
870.249	0.0159554
870.328	0.0160403
870.406	0.0160926
870.484	0.0161159
870.562	0.0161391
870.640	0.0161103
870.718	0.0161629
870.796	0.0161690
870.874	0.0160589
870.953	0.0161134
871.031	0.0162219
871.109	0.0161393
871.187	0.0162281
871.265	0.0162855
871.343	0.0161875
871.421	0.0162005
871.499	0.0162635
871.578	0.0161655
871.656	0.0162488
871.734	0.0161629
871.812	0.0161129
871.890	0.0162990
871.968	0.0163316
872.046	0.0162604
872.124	0.0161020
872.203	0.0161156
872.281	0.0161538
872.359	0.0160863
872.437	0.0162866
872.515	0.0161963
872.593	0.0162723
872.671	0.0162951
872.749	0.0161078
872.828	0.0161404
872.906	0.0162316
872.984	0.0161913
873.062	0.0161796
873.140	0.0160615
873.218	0.0160919
873.296	0.0162349
873.374	0.0161601
873.453	0.0159412
873.531	0.0160469
873.609	0.0161248
873.687	0.0161663
873.765	0.0161660
873.843	0.0161236
873.921	0.0160837
873.999	0.0160509
874.078	0.0161433
874.156	0.0161851
874.234	0.0162203
874.312	0.0163002
874.390	0.0162852
874.468	0.0162666
874.546	0.0162844
874.624	0.0162297
874.703	0.0163505
874.781	0.0162890
874.859	0.0163676
874.937	0.0163735
875.015	0.0162164
875.093	0.0162212
875.171	0.0162728
875.249	0.0163694
875.328	0.0162811
875.406	0.0162177
875.484	0.0161784
875.562	0.0162193
875.640	0.0163107
875.718	0.0162151
875.796	0.0163284
875.874	0.0162577
875.953	0.0163130
876.031	0.0162096
876.109	0.0163166
876.187	0.0161819
876.265	0.0162136
876.343	0.0162830
876.421	0.0162960
876.499	0.0162102
876.578	0.0162778
876.656	0.0163442
876.734	0.0163092
876.812	0.0162350
876.890	0.0162260
876.968	0.0163003
877.046	0.0162761
877.124	0.0162074
877.203	0.0162505
877.281	0.0163962
877.359	0.0164014
877.437	0.0163485
877.515	0.0163673
877.593	0.0164821
877.671	0.0164005
877.749	0.0163878
877.828	0.0163912
877.906	0.0163894
877.984	0.0164223
878.062	0.0164356
878.140	0.0164164
878.218	0.0161848
878.296	0.0162770
878.374	0.0163913
878.453	0.0162678
878.531	0.0163034
878.609	0.0163566
878.687	0.0162077
878.765	0.0162575
878.843	0.0163003
878.921	0.0162628
878.999	0.0161840
879.078	0.0162751
879.156	0.0162290
879.234	0.0163144
879.312	0.0162494
879.390	0.0162922
879.468	0.0162100
879.546	0.0161533
879.624	0.0161864
879.703	0.0161582
879.781	0.0161240
879.859	0.0161325
879.937	0.0160107
880.015	0.0160881
880.093	0.0161304
880.171	0.0160570
880.249	0.0161398
880.328	0.0161423
880.406	0.0162450
880.484	0.0160191
880.562	0.0160413
880.640	0.0160336
880.718	0.0159556
880.796	0.0159831
880.874	0.0160962
880.953	0.0161034
881.031	0.0161432
881.109	0.0160804
881.187	0.0160371
881.265	0.0160501
881.343	0.0161749
881.421	0.0161745
881.499	0.0162373
881.578	0.0162322
881.656	0.0160625
881.734	0.0160951
881.812	0.0161909
881.890	0.0161552
881.968	0.0161874
882.046	0.0161172
882.124	0.0161977
882.203	0.0162134
882.281	0.0160879
882.359	0.0161467
882.437	0.0162914
882.515	0.0161623
882.593	0.0159605
882.671	0.0160931
882.749	0.0161593
882.828	0.0162562
882.906	0.0160920
882.984	0.0160970
883.062	0.0160871
883.140	0.0161173
883.218	0.0161194
883.296	0.0160767
883.374	0.0160457
883.453	0.0159872
883.531	0.0159359
883.609	0.0159387
883.687	0.0159547
883.765	0.0160100
883.843	0.0159438
883.921	0.0160940
883.999	0.0158727
884.078	0.0160046
884.156	0.0160760
884.234	0.0158366
884.312	0.0159219
884.390	0.0160659
884.468	0.0161384
884.546	0.0159823
884.624	0.0160489
884.703	0.0160494
884.781	0.0161317
884.859	0.0160256
884.937	0.0159558
885.015	0.0160591
885.093	0.0159386
885.171	0.0159844
885.249	0.0160419
885.328	0.0160951
885.406	0.0159917
885.484	0.0160730
885.562	0.0159895
885.640	0.0160096
885.718	0.0159275
885.796	0.0160471
885.874	0.0160567
885.953	0.0159463
886.031	0.0159471
886.109	0.0161819
886.187	0.0160358
886.265	0.0161392
886.343	0.0161093
886.421	0.0161104
886.499	0.0160625
886.578	0.0161346
886.656	0.0161108
886.734	0.0162021
886.812	0.0161645
886.890	0.0161842
886.968	0.0161328
887.046	0.0161203
887.124	0.0162832
887.203	0.0162730
887.281	0.0161407
887.359	0.0162487
887.437	0.0161631
887.515	0.0159999
887.593	0.0161794
887.671	0.0161676
887.749	0.0161610
887.828	0.0160544
887.906	0.0160676
887.984	0.0159836
888.062	0.0160831
888.140	0.0160680
888.218	0.0161179
888.296	0.0160799
888.374	0.0160966
888.453	0.0160082
888.531	0.0159647
888.609	0.0158846
888.687	0.0158685
888.765	0.0158384
888.843	0.0160805
888.921	0.0159927
888.999	0.0159555
889.078	0.0159058
889.156	0.0159453
889.234	0.0157757
889.312	0.0158509
889.390	0.0159342
889.468	0.0159432
889.546	0.0158724
889.624	0.0159496
889.703	0.0159080
889.781	0.0160232
889.859	0.0161405
889.937	0.0159962
890.015	0.0160349
890.093	0.0159257
890.171	0.0159806
890.249	0.0161034
890.328	0.0161319
890.406	0.0159543
890.484	0.0160658
890.562	0.0161144
890.640	0.0160211
890.718	0.0161065
890.796	0.0160256
890.874	0.0162183
890.953	0.0162348
891.031	0.0161575
891.109	0.0162962
891.187	0.0161967
891.265	0.0160852
891.343	0.0162870
891.421	0.0162359
891.499	0.0162598
891.578	0.0163496
891.656	0.0162400
891.734	0.0163941
891.812	0.0162576
891.890	0.0163065
891.968	0.0163011
892.046	0.0162094
892.124	0.0162321
892.203	0.0162886
892.281	0.0161991
892.359	0.0161572
892.437	0.0163075
892.515	0.0163176
892.593	0.0162463
892.671	0.0164194
892.749	0.0161564
892.828	0.0162663
892.906	0.0162624
892.984	0.0161260
893.062	0.0162626
893.140	0.0161166
893.218	0.0161712
893.296	0.0162596
893.374	0.0162270
893.453	0.0161494
893.531	0.0162457
893.609	0.0160838
893.687	0.0160441
893.765	0.0161623
893.843	0.0162500
893.921	0.0163667
893.999	0.0163128
894.078	0.0164581
894.156	0.0163492
894.234	0.0162527
894.312	0.0164115
894.390	0.0164619
894.468	0.0163758
894.546	0.0163905
894.624	0.0164507
894.703	0.0164705
894.781	0.0165301
894.859	0.0163254
894.937	0.0162981
895.015	0.0162958
895.093	0.0164169
895.171	0.0163384
895.249	0.0163710
895.328	0.0162956
895.406	0.0162437
895.484	0.0162135
895.562	0.0162110
895.640	0.0161711
895.718	0.0161832
895.796	0.0162862
895.874	0.0161279
895.953	0.0162726
896.031	0.0160793
896.109	0.0163183
896.187	0.0161362
896.265	0.0162758
896.343	0.0162231
896.421	0.0162645
896.499	0.0161469
896.578	0.0162895
896.656	0.0163381
896.734	0.0162691
896.812	0.0162962
896.890	0.0163290
896.968	0.0164032
897.046	0.0164950
897.124	0.0164045
897.203	0.0163567
897.281	0.0164024
897.359	0.0164469
897.437	0.0163438
897.515	0.0164423
897.593	0.0163784
897.671	0.0163550
897.749	0.0164097
897.828	0.0165184
897.906	0.0163625
897.984	0.0163736
898.062	0.0164193
898.140	0.0163930
898.218	0.0162695
898.296	0.0164747
898.374	0.0165099
898.453	0.0163591
898.531	0.0163500
898.609	0.0161826
898.687	0.0162660
898.765	0.0162945
898.843	0.0162645
898.921	0.0162327
898.999	0.0161559
899.078	0.0163436
899.156	0.0161381
899.234	0.0161900
899.312	0.0162217
899.390	0.0163081
899.468	0.0162473
899.546	0.0163009
899.624	0.0161919
899.703	0.0162937
899.781	0.0163352
899.859	0.0162199
899.937	0.0162720
900.015	0.0160890
900.093	0.0162573
900.171	0.0161690
900.249	0.0161663
900.328	0.0161955
900.406	0.0162603
900.484	0.0163071
900.562	0.0161718
900.640	0.0161886
900.718	0.0161219
900.796	0.0160162
900.874	0.0160150
900.953	0.0158317
901.031	0.0158955
901.109	0.0159855
901.187	0.0160024
901.265	0.0160543
901.343	0.0159998
901.421	0.0160396
901.499	0.0160219
901.578	0.0159094
901.656	0.0160868
901.734	0.0161043
901.812	0.0159328
901.890	0.0158978
901.968	0.0160863
902.046	0.0160595
902.124	0.0160729
902.203	0.0160588
902.281	0.0162753
902.359	0.0162097
902.437	0.0161763
902.515	0.0161406
902.593	0.0160931
902.671	0.0163213
902.749	0.0161204
902.828	0.0161214
902.906	0.0162971
902.984	0.0162557
903.062	0.0162511
903.140	0.0163454
903.218	0.0162320
903.296	0.0161729
903.374	0.0162689
903.453	0.0163025
903.531	0.0162643
903.609	0.0161744
903.687	0.0163299
903.765	0.0162263
903.843	0.0162315
903.921	0.0162193
903.999	0.0162843
904.078	0.0162380
904.156	0.0163535
904.234	0.0162315
904.312	0.0162080
904.390	0.0162550
904.468	0.0162416
904.546	0.0162394
904.624	0.0161115
904.703	0.0161489
904.781	0.0160170
904.859	0.0162771
904.937	0.0161406
905.015	0.0161424
905.093	0.0158462
905.171	0.0159896
905.249	0.0162057
905.328	0.0161519
905.406	0.0160906
905.484	0.0160703
905.562	0.0161107
905.640	0.0160642
905.718	0.0162452
905.796	0.0162076
905.874	0.0161085
905.953	0.0161391
906.031	0.0161105
906.109	0.0161051
906.187	0.0159838
906.265	0.0160487
906.343	0.0160000
906.421	0.0159436
906.499	0.0160225
906.578	0.0160275
906.656	0.0160559
906.734	0.0160551
906.812	0.0161449
906.890	0.0160712
906.968	0.0158989
907.046	0.0158762
907.124	0.0158414
907.203	0.0158077
907.281	0.0159055
907.359	0.0159501
907.437	0.0159686
907.515	0.0159922
907.593	0.0160313
907.671	0.0158629
907.749	0.0160525
907.828	0.0160519
907.906	0.0161613
907.984	0.0159674
908.062	0.0159998
908.140	0.0160069
908.218	0.0160538
908.296	0.0160635
908.374	0.0160811
908.453	0.0159579
908.531	0.0160610
908.609	0.0160799
908.687	0.0160851
908.765	0.0160281
908.843	0.0159172
908.921	0.0158006
908.999	0.0160396
909.078	0.0161352
909.156	0.0159617
909.234	0.0157928
909.312	0.0159808
909.390	0.0160149
909.468	0.0158883
909.546	0.0159311
909.624	0.0160787
909.703	0.0160896
909.781	0.0159539
909.859	0.0160564
909.937	0.0160148
910.015	0.0160188
910.093	0.0160172
910.171	0.0160402
910.249	0.0159079
910.328	0.0160071
910.406	0.0159388
910.484	0.0160316
910.562	0.0160574
910.640	0.0160847
910.718	0.0160918
910.796	0.0160145
910.874	0.0160491
910.953	0.0160769
911.031	0.0159870
911.109	0.0159483
911.187	0.0161149
911.265	0.0160391
911.343	0.0160941
911.421	0.0160297
911.499	0.0159117
911.578	0.0160566
911.656	0.0160284
911.734	0.0158984
911.812	0.0159860
911.890	0.0159917
911.968	0.0161452
912.046	0.0161212
912.124	0.0159811
912.203	0.0159402
912.281	0.0159454
912.359	0.0159425
912.437	0.0160187
912.515	0.0161874
912.593	0.0159847
912.671	0.0160717
912.749	0.0159685
912.828	0.0160606
912.906	0.0161065
912.984	0.0161444
913.062	0.0160815
913.140	0.0159772
913.218	0.0159696
913.296	0.0163163
913.374	0.0162285
913.453	0.0161162
913.531	0.0162424
913.609	0.0161959
913.687	0.0163512
913.765	0.0162838
913.843	0.0161589
913.921	0.0163203
913.999	0.0162714
914.078	0.0162184
914.156	0.0162503
914.234	0.0161782
914.312	0.0161485
914.390	0.0163000
914.468	0.0163061
914.546	0.0161614
914.624	0.0163885
914.703	0.0162278
914.781	0.0164183
914.859	0.0163443
914.937	0.0161749
915.015	0.0162226
915.093	0.0163332
915.171	0.0162552
915.249	0.0162717
915.328	0.0162806
915.406	0.0162600
915.484	0.0162963
915.562	0.0162675
915.640	0.0163714
915.718	0.0163734
915.796	0.0163342
915.874	0.0162489
915.953	0.0163100
916.031	0.0163171
916.109	0.0163441
916.187	0.0163396
916.265	0.0163917
916.343	0.0165237
916.421	0.0163475
916.499	0.0164349
916.578	0.0165096
916.656	0.0163649
916.734	0.0165165
916.812	0.0164036
916.890	0.0162729
916.968	0.0163804
917.046	0.0163623
917.124	0.0162930
917.203	0.0163799
917.281	0.0164548
917.359	0.0162271
917.437	0.0161894
917.515	0.0163004
917.593	0.0162965
917.671	0.0163711
917.749	0.0162539
917.828	0.0163042
917.906	0.0163520
917.984	0.0162775
918.062	0.0163776
918.140	0.0162876
918.218	0.0164725
918.296	0.0163686
918.374	0.0163671
918.453	0.0164002
918.531	0.0163408
918.609	0.0163428
918.687	0.0163310
918.765	0.0165057
918.843	0.0163855
918.921	0.0164176
918.999	0.0164310
919.078	0.0163658
919.156	0.0164545
919.234	0.0163580
919.312	0.0164167
919.390	0.0164159
919.468	0.0164225
919.546	0.0163938
919.624	0.0164783
919.703	0.0164817
919.781	0.0164785
919.859	0.0164550
919.937	0.0163893
