06/10/2022	19:08:36	Ver.	4.1	UNKNOWN
Optical Delay	600.015094	Delta X		0.078125	Sweeps	1	Scan Rate	0/0
Coordinates	Axis 1	NaN	Axis 2	NaN	Axis 3	NaN	Axis 4	NaN	Axis 5	NaN	Axis 6	0.000000
TX Power	0.000000	RX Power	0.000000

600.015	0.0161343
600.093	0.0157033
600.171	0.0157296
600.249	0.0157174
600.328	0.0155367
600.406	0.0155500
600.484	0.0156390
600.562	0.0155624
600.640	0.0156845
600.718	0.0153928
600.796	0.0154899
600.874	0.0152799
600.953	0.0152899
601.031	0.0153036
601.109	0.0153078
601.187	0.0152696
601.265	0.0151783
601.343	0.0152817
601.421	0.0153759
601.499	0.0151984
601.578	0.0152520
601.656	0.0152055
601.734	0.0152029
601.812	0.0152956
601.890	0.0151849
601.968	0.0151408
602.046	0.0150668
602.124	0.0151757
602.203	0.0151488
602.281	0.0151079
602.359	0.0151952
602.437	0.0151814
602.515	0.0152679
602.593	0.0152805
602.671	0.0153029
602.749	0.0153918
602.828	0.0154504
602.906	0.0155318
602.984	0.0156049
603.062	0.0156205
603.140	0.0157129
603.218	0.0156298
603.296	0.0157568
603.374	0.0159763
603.453	0.0157504
603.531	0.0158698
603.609	0.0159794
603.687	0.0159533
603.765	0.0158893
603.843	0.0160882
603.921	0.0161208
603.999	0.0161307
604.078	0.0161433
604.156	0.0161453
604.234	0.0161491
604.312	0.0160744
604.390	0.0161375
604.468	0.0162634
604.546	0.0162321
604.624	0.0161407
604.703	0.0162330
604.781	0.0159794
604.859	0.0161445
604.937	0.0160454
605.015	0.0160935
605.093	0.0160056
605.171	0.0159286
605.249	0.0159343
605.328	0.0161617
605.406	0.0160000
605.484	0.0161287
605.562	0.0159602
605.640	0.0160262
605.718	0.0160159
605.796	0.0161202
605.874	0.0160243
605.953	0.0160023
606.031	0.0159860
606.109	0.0159926
606.187	0.0161108
606.265	0.0160403
606.343	0.0160539
606.421	0.0159885
606.499	0.0161264
606.578	0.0160989
606.656	0.0159228
606.734	0.0160539
606.812	0.0161098
606.890	0.0160321
606.968	0.0159985
607.046	0.0161406
607.124	0.0160221
607.203	0.0160845
607.281	0.0160780
607.359	0.0159788
607.437	0.0161482
607.515	0.0160925
607.593	0.0159090
607.671	0.0159244
607.749	0.0160097
607.828	0.0160474
607.906	0.0160416
607.984	0.0160113
608.062	0.0159691
608.140	0.0160493
608.218	0.0160239
608.296	0.0158504
608.374	0.0160134
608.453	0.0159575
608.531	0.0160473
608.609	0.0161473
608.687	0.0161061
608.765	0.0160402
608.843	0.0161755
608.921	0.0161859
608.999	0.0161763
609.078	0.0161987
609.156	0.0162606
609.234	0.0161446
609.312	0.0162698
609.390	0.0162552
609.468	0.0161948
609.546	0.0162048
609.624	0.0161700
609.703	0.0161245
609.781	0.0161044
609.859	0.0161116
609.937	0.0160605
610.015	0.0159275
610.093	0.0158971
610.171	0.0159256
610.249	0.0160048
610.328	0.0158895
610.406	0.0159922
610.484	0.0159792
610.562	0.0159478
610.640	0.0157893
610.718	0.0160087
610.796	0.0160239
610.874	0.0160715
610.953	0.0159606
611.031	0.0160593
611.109	0.0160364
611.187	0.0159791
611.265	0.0159635
611.343	0.0160968
611.421	0.0160069
611.499	0.0158926
611.578	0.0159577
611.656	0.0161643
611.734	0.0160970
611.812	0.0160806
611.890	0.0161725
611.968	0.0160581
612.046	0.0160551
612.124	0.0161156
612.203	0.0161344
612.281	0.0161493
612.359	0.0160493
612.437	0.0161623
612.515	0.0162225
612.593	0.0161665
612.671	0.0164061
612.749	0.0162558
612.828	0.0161668
612.906	0.0161461
612.984	0.0161933
613.062	0.0163342
613.140	0.0162772
613.218	0.0162801
613.296	0.0162455
613.374	0.0163312
613.453	0.0162675
613.531	0.0161854
613.609	0.0162934
613.687	0.0161622
613.765	0.0160738
613.843	0.0162011
613.921	0.0162244
613.999	0.0161478
614.078	0.0162096
614.156	0.0161890
614.234	0.0162386
614.312	0.0161640
614.390	0.0159969
614.468	0.0161121
614.546	0.0160786
614.624	0.0160396
614.703	0.0160661
614.781	0.0161385
614.859	0.0161477
614.937	0.0160952
615.015	0.0160690
615.093	0.0162165
615.171	0.0161448
615.249	0.0162440
615.328	0.0161328
615.406	0.0161056
615.484	0.0160597
615.562	0.0161108
615.640	0.0161466
615.718	0.0160839
615.796	0.0161461
615.874	0.0161268
615.953	0.0160970
616.031	0.0162025
616.109	0.0161021
616.187	0.0161246
616.265	0.0160397
616.343	0.0160458
616.421	0.0160168
616.499	0.0159662
616.578	0.0159226
616.656	0.0159673
616.734	0.0159581
616.812	0.0157865
616.890	0.0158476
616.968	0.0157941
617.046	0.0157872
617.124	0.0159305
617.203	0.0159459
617.281	0.0158443
617.359	0.0158212
617.437	0.0159070
617.515	0.0158951
617.593	0.0157794
617.671	0.0158868
617.749	0.0157735
617.828	0.0156945
617.906	0.0157979
617.984	0.0157226
618.062	0.0157323
618.140	0.0157412
618.218	0.0156139
618.296	0.0156300
618.374	0.0156776
618.453	0.0157634
618.531	0.0155917
618.609	0.0156264
618.687	0.0154993
618.765	0.0155652
618.843	0.0156592
618.921	0.0156428
618.999	0.0155289
619.078	0.0155690
619.156	0.0155892
619.234	0.0156948
619.312	0.0155518
619.390	0.0157337
619.468	0.0156483
619.546	0.0157781
619.624	0.0157120
619.703	0.0156535
619.781	0.0158134
619.859	0.0157419
619.937	0.0158627
620.015	0.0158763
620.093	0.0157919
620.171	0.0159441
620.249	0.0160027
620.328	0.0159008
620.406	0.0159857
620.484	0.0160722
620.562	0.0161964
620.640	0.0161089
620.718	0.0159789
620.796	0.0160674
620.874	0.0160309
620.953	0.0161179
621.031	0.0161073
621.109	0.0162019
621.187	0.0162853
621.265	0.0160926
621.343	0.0161181
621.421	0.0161040
621.499	0.0161251
621.578	0.0161143
621.656	0.0162009
621.734	0.0161414
621.812	0.0159315
621.890	0.0161391
621.968	0.0161232
622.046	0.0161197
622.124	0.0160518
622.203	0.0160872
622.281	0.0160546
622.359	0.0161017
622.437	0.0158717
622.515	0.0160678
622.593	0.0161046
622.671	0.0160440
622.749	0.0159729
622.828	0.0160295
622.906	0.0159920
622.984	0.0159663
623.062	0.0159928
623.140	0.0161322
623.218	0.0159939
623.296	0.0159490
623.374	0.0159307
623.453	0.0159751
623.531	0.0159465
623.609	0.0159741
623.687	0.0159646
623.765	0.0158705
623.843	0.0157906
623.921	0.0157444
623.999	0.0157236
624.078	0.0157156
624.156	0.0157625
624.234	0.0156155
624.312	0.0156541
624.390	0.0156588
624.468	0.0156192
624.546	0.0157882
624.624	0.0156274
624.703	0.0155186
624.781	0.0156036
624.859	0.0155129
624.937	0.0155558
625.015	0.0156970
625.093	0.0154688
625.171	0.0155744
625.249	0.0157028
625.328	0.0157615
625.406	0.0156223
625.484	0.0156531
625.562	0.0157568
625.640	0.0157806
625.718	0.0156441
625.796	0.0158399
625.874	0.0156982
625.953	0.0158183
626.031	0.0158386
626.109	0.0157271
626.187	0.0158718
626.265	0.0157966
626.343	0.0159409
626.421	0.0157999
626.499	0.0157174
626.578	0.0156898
626.656	0.0157975
626.734	0.0157729
626.812	0.0156821
626.890	0.0157343
626.968	0.0158211
627.046	0.0158684
627.124	0.0157485
627.203	0.0158348
627.281	0.0156038
627.359	0.0157609
627.437	0.0157671
627.515	0.0158012
627.593	0.0157084
627.671	0.0157915
627.749	0.0158202
627.828	0.0157701
627.906	0.0156966
627.984	0.0157339
628.062	0.0159129
628.140	0.0158424
628.218	0.0158497
628.296	0.0158482
628.374	0.0158266
628.453	0.0158442
628.531	0.0158154
628.609	0.0158604
628.687	0.0158926
628.765	0.0158365
628.843	0.0159659
628.921	0.0158173
628.999	0.0160472
629.078	0.0159140
629.156	0.0158070
629.234	0.0159314
629.312	0.0159048
629.390	0.0159531
629.468	0.0158826
629.546	0.0158633
629.624	0.0158518
629.703	0.0157667
629.781	0.0159039
629.859	0.0160707
629.937	0.0159392
630.015	0.0158364
630.093	0.0160144
630.171	0.0159310
630.249	0.0159508
630.328	0.0159998
630.406	0.0158690
630.484	0.0157118
630.562	0.0160299
630.640	0.0161282
630.718	0.0160173
630.796	0.0159991
630.874	0.0159784
630.953	0.0161354
631.031	0.0161780
631.109	0.0161607
631.187	0.0160567
631.265	0.0161263
631.343	0.0162464
631.421	0.0162657
631.499	0.0163077
631.578	0.0163161
631.656	0.0162706
631.734	0.0163857
631.812	0.0163939
631.890	0.0164686
631.968	0.0163696
632.046	0.0163125
632.124	0.0163829
632.203	0.0165198
632.281	0.0163165
632.359	0.0161986
632.437	0.0164743
632.515	0.0164711
632.593	0.0162543
632.671	0.0162877
632.749	0.0164210
632.828	0.0162739
632.906	0.0162418
632.984	0.0163065
633.062	0.0162440
633.140	0.0163387
633.218	0.0161137
633.296	0.0161755
633.374	0.0162537
633.453	0.0162006
633.531	0.0161756
633.609	0.0161758
633.687	0.0161776
633.765	0.0161190
633.843	0.0162521
633.921	0.0162444
633.999	0.0160496
634.078	0.0160728
634.156	0.0162240
634.234	0.0161359
634.312	0.0162299
634.390	0.0160817
634.468	0.0161678
634.546	0.0158709
634.624	0.0161384
634.703	0.0161444
634.781	0.0161514
634.859	0.0161210
634.937	0.0160020
635.015	0.0159815
635.093	0.0161129
635.171	0.0161510
635.249	0.0161561
635.328	0.0159145
635.406	0.0160602
635.484	0.0161010
635.562	0.0161359
635.640	0.0160800
635.718	0.0160191
635.796	0.0161042
635.874	0.0161433
635.953	0.0161817
636.031	0.0161388
636.109	0.0160052
636.187	0.0161871
636.265	0.0160533
636.343	0.0159772
636.421	0.0159037
636.499	0.0161298
636.578	0.0160673
636.656	0.0160971
636.734	0.0159544
636.812	0.0159715
636.890	0.0162051
636.968	0.0158934
637.046	0.0159315
637.124	0.0160138
637.203	0.0159187
637.281	0.0159473
637.359	0.0158939
637.437	0.0158597
637.515	0.0158859
637.593	0.0159846
637.671	0.0159776
637.749	0.0159376
637.828	0.0159332
637.906	0.0159338
637.984	0.0159355
638.062	0.0159649
638.140	0.0159347
638.218	0.0158514
638.296	0.0160619
638.374	0.0160500
638.453	0.0160120
638.531	0.0159280
638.609	0.0160704
638.687	0.0160209
638.765	0.0159908
638.843	0.0159696
638.921	0.0159571
638.999	0.0159978
639.078	0.0161085
639.156	0.0160122
639.234	0.0159978
639.312	0.0159769
639.390	0.0159441
639.468	0.0159357
639.546	0.0160118
639.624	0.0159934
639.703	0.0160035
639.781	0.0160074
639.859	0.0160432
639.937	0.0160202
640.015	0.0160657
640.093	0.0159466
640.171	0.0160155
640.249	0.0159201
640.328	0.0157346
640.406	0.0157947
640.484	0.0157631
640.562	0.0158487
640.640	0.0159780
640.718	0.0158416
640.796	0.0156432
640.874	0.0157951
640.953	0.0158230
641.031	0.0157644
641.109	0.0156614
641.187	0.0156512
641.265	0.0158482
641.343	0.0158648
641.421	0.0158186
641.499	0.0158188
641.578	0.0158051
641.656	0.0157066
641.734	0.0156685
641.812	0.0157671
641.890	0.0158985
641.968	0.0157894
642.046	0.0157232
642.124	0.0158279
642.203	0.0157683
642.281	0.0157619
642.359	0.0157645
642.437	0.0158058
642.515	0.0158583
642.593	0.0156266
642.671	0.0158699
642.749	0.0159941
642.828	0.0159473
642.906	0.0157985
642.984	0.0157552
643.062	0.0158598
643.140	0.0158079
643.218	0.0158923
643.296	0.0159714
643.374	0.0157896
643.453	0.0159549
643.531	0.0159923
643.609	0.0158286
643.687	0.0159547
643.765	0.0160123
643.843	0.0158754
643.921	0.0158370
643.999	0.0159198
644.078	0.0160356
644.156	0.0160576
644.234	0.0159869
644.312	0.0160033
644.390	0.0159976
644.468	0.0159226
644.546	0.0158993
644.624	0.0160732
644.703	0.0161144
644.781	0.0160626
644.859	0.0159885
644.937	0.0160936
645.015	0.0159614
645.093	0.0161241
645.171	0.0160229
645.249	0.0158739
645.328	0.0160149
645.406	0.0159602
645.484	0.0160208
645.562	0.0160011
645.640	0.0160724
645.718	0.0159974
645.796	0.0158930
645.874	0.0160419
645.953	0.0162012
646.031	0.0159483
646.109	0.0159970
646.187	0.0161482
646.265	0.0159440
646.343	0.0161334
646.421	0.0161002
646.499	0.0160323
646.578	0.0161203
646.656	0.0161375
646.734	0.0161985
646.812	0.0160820
646.890	0.0160350
646.968	0.0161771
647.046	0.0163408
647.124	0.0161289
647.203	0.0161252
647.281	0.0160897
647.359	0.0161227
647.437	0.0162141
647.515	0.0162514
647.593	0.0160876
647.671	0.0161024
647.749	0.0160521
647.828	0.0160717
647.906	0.0160217
647.984	0.0160938
648.062	0.0160635
648.140	0.0158833
648.218	0.0160931
648.296	0.0161923
648.374	0.0159669
648.453	0.0160735
648.531	0.0160104
648.609	0.0158240
648.687	0.0159772
648.765	0.0160878
648.843	0.0159441
648.921	0.0159643
648.999	0.0158720
649.078	0.0157794
649.156	0.0159592
649.234	0.0160538
649.312	0.0158689
649.390	0.0158490
649.468	0.0159057
649.546	0.0157983
649.624	0.0159033
649.703	0.0158745
649.781	0.0158043
649.859	0.0158856
649.937	0.0159755
650.015	0.0159654
650.093	0.0160822
650.171	0.0159164
650.249	0.0158424
650.328	0.0159904
650.406	0.0158138
650.484	0.0159132
650.562	0.0158840
650.640	0.0160575
650.718	0.0159097
650.796	0.0158800
650.874	0.0157305
650.953	0.0157730
651.031	0.0158327
651.109	0.0159409
651.187	0.0158138
651.265	0.0158594
651.343	0.0159167
651.421	0.0157664
651.499	0.0158189
651.578	0.0158952
651.656	0.0159032
651.734	0.0157998
651.812	0.0158736
651.890	0.0159709
651.968	0.0158428
652.046	0.0158595
652.124	0.0158971
652.203	0.0158924
652.281	0.0158249
652.359	0.0158539
652.437	0.0160063
652.515	0.0158220
652.593	0.0158775
652.671	0.0159457
652.749	0.0159433
652.828	0.0159703
652.906	0.0159132
652.984	0.0159377
653.062	0.0159419
653.140	0.0159608
653.218	0.0158737
653.296	0.0158022
653.374	0.0159402
653.453	0.0158334
653.531	0.0160719
653.609	0.0159012
653.687	0.0159367
653.765	0.0159357
653.843	0.0160194
653.921	0.0160514
653.999	0.0160532
654.078	0.0159607
654.156	0.0160595
654.234	0.0161298
654.312	0.0161625
654.390	0.0161150
654.468	0.0161874
654.546	0.0161729
654.624	0.0160398
654.703	0.0161005
654.781	0.0162245
654.859	0.0162097
654.937	0.0161652
655.015	0.0161997
655.093	0.0162986
655.171	0.0161523
655.249	0.0160711
655.328	0.0162175
655.406	0.0162664
655.484	0.0161750
655.562	0.0161579
655.640	0.0162108
655.718	0.0163824
655.796	0.0162579
655.874	0.0161105
655.953	0.0162569
656.031	0.0161356
656.109	0.0163644
656.187	0.0162990
656.265	0.0163414
656.343	0.0161975
656.421	0.0162111
656.499	0.0162408
656.578	0.0162299
656.656	0.0162681
656.734	0.0162893
656.812	0.0161374
656.890	0.0161207
656.968	0.0162602
657.046	0.0162705
657.124	0.0163219
657.203	0.0163373
657.281	0.0162682
657.359	0.0163299
657.437	0.0162232
657.515	0.0162321
657.593	0.0162807
657.671	0.0161897
657.749	0.0163201
657.828	0.0161556
657.906	0.0163274
657.984	0.0163566
658.062	0.0163055
658.140	0.0162925
658.218	0.0161438
658.296	0.0162179
658.374	0.0161234
658.453	0.0161679
658.531	0.0160059
658.609	0.0161144
658.687	0.0161495
658.765	0.0161003
658.843	0.0161022
658.921	0.0161687
658.999	0.0160903
659.078	0.0161741
659.156	0.0160684
659.234	0.0160703
659.312	0.0160038
659.390	0.0159279
659.468	0.0160605
659.546	0.0160955
659.624	0.0160625
659.703	0.0159593
659.781	0.0160103
659.859	0.0160158
659.937	0.0160904
660.015	0.0159224
660.093	0.0158999
660.171	0.0159634
660.249	0.0159653
660.328	0.0158246
660.406	0.0159076
660.484	0.0159299
660.562	0.0158461
660.640	0.0158699
660.718	0.0158782
660.796	0.0158789
660.874	0.0158482
660.953	0.0156476
661.031	0.0158244
661.109	0.0155984
661.187	0.0157663
661.265	0.0159070
661.343	0.0157368
661.421	0.0158163
661.499	0.0158383
661.578	0.0158154
661.656	0.0157913
661.734	0.0158604
661.812	0.0159653
661.890	0.0158125
661.968	0.0156720
662.046	0.0157554
662.124	0.0158738
662.203	0.0158971
662.281	0.0158884
662.359	0.0158324
662.437	0.0158331
662.515	0.0158432
662.593	0.0157809
662.671	0.0159010
662.749	0.0158548
662.828	0.0159064
662.906	0.0159462
662.984	0.0158984
663.062	0.0159208
663.140	0.0159438
663.218	0.0158841
663.296	0.0159084
663.374	0.0158215
663.453	0.0159531
663.531	0.0158568
663.609	0.0159532
663.687	0.0159355
663.765	0.0159299
663.843	0.0159827
663.921	0.0158660
663.999	0.0158492
664.078	0.0159343
664.156	0.0159113
664.234	0.0158115
664.312	0.0159399
664.390	0.0158237
664.468	0.0159282
664.546	0.0160098
664.624	0.0160701
664.703	0.0159450
664.781	0.0158880
664.859	0.0160575
664.937	0.0160154
665.015	0.0159718
665.093	0.0160849
665.171	0.0160463
665.249	0.0160622
665.328	0.0160120
665.406	0.0160696
665.484	0.0160497
665.562	0.0160816
665.640	0.0161127
665.718	0.0160839
665.796	0.0160002
665.874	0.0160066
665.953	0.0160567
666.031	0.0161774
666.109	0.0161624
666.187	0.0160011
666.265	0.0161007
666.343	0.0160941
666.421	0.0160521
666.499	0.0159769
666.578	0.0160167
666.656	0.0160776
666.734	0.0160058
666.812	0.0159103
666.890	0.0161954
666.968	0.0159485
667.046	0.0159755
667.124	0.0159906
667.203	0.0160464
667.281	0.0159583
667.359	0.0160891
667.437	0.0160556
667.515	0.0161038
667.593	0.0161237
667.671	0.0160827
667.749	0.0158485
667.828	0.0159602
667.906	0.0160532
667.984	0.0159618
668.062	0.0159532
668.140	0.0159743
668.218	0.0160357
668.296	0.0160397
668.374	0.0160416
668.453	0.0159519
668.531	0.0160201
668.609	0.0160528
668.687	0.0160464
668.765	0.0159609
668.843	0.0159804
668.921	0.0161084
668.999	0.0159759
669.078	0.0158598
669.156	0.0160310
669.234	0.0161145
669.312	0.0159162
669.390	0.0158547
669.468	0.0158360
669.546	0.0159370
669.624	0.0159574
669.703	0.0159074
669.781	0.0158557
669.859	0.0160012
669.937	0.0159335
670.015	0.0159081
670.093	0.0159424
670.171	0.0158765
670.249	0.0159639
670.328	0.0159225
670.406	0.0158392
670.484	0.0159456
670.562	0.0158614
670.640	0.0158328
670.718	0.0158544
670.796	0.0159313
670.874	0.0158139
670.953	0.0159236
671.031	0.0159537
671.109	0.0158476
671.187	0.0157960
671.265	0.0159616
671.343	0.0158602
671.421	0.0157890
671.499	0.0159562
671.578	0.0158521
671.656	0.0157937
671.734	0.0159132
671.812	0.0158195
671.890	0.0157395
671.968	0.0158350
672.046	0.0158794
672.124	0.0157380
672.203	0.0157621
672.281	0.0157091
672.359	0.0158162
672.437	0.0157330
672.515	0.0157680
672.593	0.0158391
672.671	0.0158944
672.749	0.0160535
672.828	0.0158127
672.906	0.0159426
672.984	0.0158133
673.062	0.0158255
673.140	0.0158056
673.218	0.0158471
673.296	0.0158886
673.374	0.0159735
673.453	0.0158853
673.531	0.0159788
673.609	0.0159524
673.687	0.0158311
673.765	0.0160066
673.843	0.0158571
673.921	0.0157819
673.999	0.0160552
674.078	0.0160205
674.156	0.0160171
674.234	0.0158810
674.312	0.0160182
674.390	0.0157904
674.468	0.0159396
674.546	0.0159685
674.624	0.0159557
674.703	0.0159810
674.781	0.0158585
674.859	0.0159641
674.937	0.0160097
675.015	0.0158109
675.093	0.0159975
675.171	0.0158958
675.249	0.0159127
675.328	0.0158530
675.406	0.0159570
675.484	0.0159249
675.562	0.0159834
675.640	0.0159586
675.718	0.0157866
675.796	0.0159080
675.874	0.0159051
675.953	0.0159437
676.031	0.0158002
676.109	0.0158337
676.187	0.0158801
676.265	0.0159533
676.343	0.0158957
676.421	0.0159481
676.499	0.0159416
676.578	0.0159238
676.656	0.0158584
676.734	0.0158672
676.812	0.0160194
676.890	0.0160300
676.968	0.0160877
677.046	0.0160124
677.124	0.0159300
677.203	0.0160282
677.281	0.0158856
677.359	0.0159167
677.437	0.0159282
677.515	0.0160407
677.593	0.0159709
677.671	0.0159515
677.749	0.0158809
677.828	0.0160207
677.906	0.0159750
677.984	0.0159384
678.062	0.0159506
678.140	0.0161005
678.218	0.0160106
678.296	0.0159258
678.374	0.0159532
678.453	0.0161242
678.531	0.0159934
678.609	0.0159613
678.687	0.0161153
678.765	0.0160976
678.843	0.0160597
678.921	0.0160628
678.999	0.0160474
679.078	0.0161085
679.156	0.0160615
679.234	0.0159703
679.312	0.0160481
679.390	0.0160841
679.468	0.0161726
679.546	0.0160681
679.624	0.0161274
679.703	0.0159914
679.781	0.0161627
679.859	0.0162577
679.937	0.0161119
680.015	0.0160368
680.093	0.0160979
680.171	0.0160100
680.249	0.0160709
680.328	0.0161196
680.406	0.0160654
680.484	0.0161298
680.562	0.0161751
680.640	0.0160964
680.718	0.0161106
680.796	0.0160981
680.874	0.0159791
680.953	0.0161407
681.031	0.0161391
681.109	0.0161277
681.187	0.0160419
681.265	0.0161943
681.343	0.0161125
681.421	0.0161173
681.499	0.0162057
681.578	0.0161838
681.656	0.0162070
681.734	0.0162868
681.812	0.0161277
681.890	0.0162177
681.968	0.0161246
682.046	0.0160854
682.124	0.0161260
682.203	0.0161601
682.281	0.0162522
682.359	0.0160759
682.437	0.0160470
682.515	0.0161502
682.593	0.0160271
682.671	0.0160616
682.749	0.0159444
682.828	0.0159818
682.906	0.0160822
682.984	0.0160602
683.062	0.0160164
683.140	0.0160429
683.218	0.0158624
683.296	0.0159330
683.374	0.0160046
683.453	0.0159637
683.531	0.0160486
683.609	0.0159448
683.687	0.0159802
683.765	0.0161216
683.843	0.0160036
683.921	0.0160511
683.999	0.0160616
684.078	0.0160094
684.156	0.0160259
684.234	0.0161059
684.312	0.0161029
684.390	0.0161421
684.468	0.0160760
684.546	0.0160704
684.624	0.0161527
684.703	0.0159680
684.781	0.0159111
684.859	0.0161159
684.937	0.0159909
685.015	0.0161680
685.093	0.0160148
685.171	0.0159306
685.249	0.0159901
685.328	0.0158408
685.406	0.0160039
685.484	0.0157935
685.562	0.0158426
685.640	0.0158691
685.718	0.0157815
685.796	0.0158501
685.874	0.0158436
685.953	0.0158701
686.031	0.0158143
686.109	0.0157905
686.187	0.0158520
686.265	0.0158987
686.343	0.0158978
686.421	0.0156578
686.499	0.0157478
686.578	0.0157731
686.656	0.0156951
686.734	0.0159142
686.812	0.0158175
686.890	0.0158392
686.968	0.0159306
687.046	0.0157864
687.124	0.0157908
687.203	0.0157420
687.281	0.0157352
687.359	0.0157836
687.437	0.0157530
687.515	0.0158054
687.593	0.0159166
687.671	0.0157843
687.749	0.0158220
687.828	0.0159055
687.906	0.0159197
687.984	0.0160373
688.062	0.0159981
688.140	0.0158789
688.218	0.0159032
688.296	0.0160328
688.374	0.0159910
688.453	0.0159918
688.531	0.0160303
688.609	0.0160983
688.687	0.0160433
688.765	0.0159414
688.843	0.0159866
688.921	0.0160870
688.999	0.0160542
689.078	0.0161984
689.156	0.0161580
689.234	0.0161718
689.312	0.0161435
689.390	0.0160785
689.468	0.0160340
689.546	0.0160292
689.624	0.0159792
689.703	0.0162373
689.781	0.0160577
689.859	0.0160150
689.937	0.0160663
690.015	0.0160160
690.093	0.0160077
690.171	0.0159792
690.249	0.0161028
690.328	0.0160346
690.406	0.0160686
690.484	0.0161537
690.562	0.0161246
690.640	0.0161256
690.718	0.0159590
690.796	0.0159884
690.874	0.0160815
690.953	0.0160336
691.031	0.0161448
691.109	0.0160876
691.187	0.0160919
691.265	0.0161072
691.343	0.0159587
691.421	0.0161006
691.499	0.0162540
691.578	0.0159910
691.656	0.0160190
691.734	0.0160631
691.812	0.0160906
691.890	0.0159857
691.968	0.0161145
692.046	0.0159722
692.124	0.0159160
692.203	0.0159415
692.281	0.0161033
692.359	0.0159412
692.437	0.0159651
692.515	0.0160858
692.593	0.0159946
692.671	0.0161561
692.749	0.0160147
692.828	0.0159898
692.906	0.0160353
692.984	0.0158677
693.062	0.0160464
693.140	0.0161552
693.218	0.0160715
693.296	0.0159039
693.374	0.0159423
693.453	0.0159576
693.531	0.0157760
693.609	0.0158447
693.687	0.0158518
693.765	0.0159035
693.843	0.0160134
693.921	0.0158758
693.999	0.0159048
694.078	0.0160009
694.156	0.0158665
694.234	0.0158050
694.312	0.0158199
694.390	0.0158009
694.468	0.0159583
694.546	0.0160807
694.624	0.0160551
694.703	0.0158418
694.781	0.0158388
694.859	0.0158704
694.937	0.0158913
695.015	0.0160012
695.093	0.0160116
695.171	0.0159653
695.249	0.0160001
695.328	0.0160552
695.406	0.0159718
695.484	0.0159509
695.562	0.0158646
695.640	0.0159626
695.718	0.0159761
695.796	0.0159515
695.874	0.0160327
695.953	0.0160994
696.031	0.0160224
696.109	0.0160854
696.187	0.0159312
696.265	0.0160283
696.343	0.0160001
696.421	0.0160056
696.499	0.0158949
696.578	0.0159911
696.656	0.0160071
696.734	0.0160345
696.812	0.0160371
696.890	0.0159241
696.968	0.0158778
697.046	0.0158279
697.124	0.0159500
697.203	0.0159714
697.281	0.0159207
697.359	0.0160123
697.437	0.0159417
697.515	0.0159420
697.593	0.0160125
697.671	0.0159830
697.749	0.0158501
697.828	0.0160079
697.906	0.0159739
697.984	0.0159876
698.062	0.0159808
698.140	0.0159201
698.218	0.0161186
698.296	0.0161309
698.374	0.0159940
698.453	0.0159506
698.531	0.0159189
698.609	0.0160254
698.687	0.0158986
698.765	0.0159025
698.843	0.0159288
698.921	0.0159408
698.999	0.0159782
699.078	0.0159946
699.156	0.0159244
699.234	0.0158547
699.312	0.0158937
699.390	0.0158966
699.468	0.0158474
699.546	0.0158705
699.624	0.0159377
699.703	0.0159312
699.781	0.0157839
699.859	0.0158396
699.937	0.0158207
700.015	0.0158349
700.093	0.0159531
700.171	0.0159629
700.249	0.0158295
700.328	0.0158067
700.406	0.0157948
700.484	0.0159103
700.562	0.0158006
700.640	0.0158447
700.718	0.0158744
700.796	0.0159081
700.874	0.0157677
700.953	0.0159675
701.031	0.0157958
701.109	0.0158363
701.187	0.0160219
701.265	0.0158730
701.343	0.0158517
701.421	0.0158550
701.499	0.0160040
701.578	0.0158921
701.656	0.0159921
701.734	0.0159743
701.812	0.0159163
701.890	0.0159636
701.968	0.0159946
702.046	0.0159303
702.124	0.0159641
702.203	0.0159328
702.281	0.0159836
702.359	0.0160506
702.437	0.0159636
702.515	0.0159361
702.593	0.0159105
702.671	0.0159174
702.749	0.0161063
702.828	0.0158070
702.906	0.0159066
702.984	0.0158757
703.062	0.0159229
703.140	0.0159163
703.218	0.0159074
703.296	0.0158545
703.374	0.0158674
703.453	0.0159791
703.531	0.0158805
703.609	0.0159407
703.687	0.0158921
703.765	0.0159208
703.843	0.0160279
703.921	0.0159117
703.999	0.0157608
704.078	0.0159026
704.156	0.0158700
704.234	0.0159863
704.312	0.0159965
704.390	0.0158884
704.468	0.0160233
704.546	0.0161327
704.624	0.0160222
704.703	0.0159578
704.781	0.0160517
704.859	0.0160012
704.937	0.0160810
705.015	0.0161080
705.093	0.0160620
705.171	0.0160873
705.249	0.0159729
705.328	0.0161049
705.406	0.0160644
705.484	0.0160152
705.562	0.0160259
705.640	0.0161220
705.718	0.0161826
705.796	0.0160986
705.874	0.0160861
705.953	0.0160881
706.031	0.0162215
706.109	0.0161743
706.187	0.0161683
706.265	0.0160701
706.343	0.0160472
706.421	0.0161970
706.499	0.0161993
706.578	0.0161781
706.656	0.0161906
706.734	0.0160904
706.812	0.0161983
706.890	0.0161069
706.968	0.0161993
707.046	0.0161221
707.124	0.0161378
707.203	0.0161153
707.281	0.0160479
707.359	0.0161909
707.437	0.0160789
707.515	0.0161298
707.593	0.0160482
707.671	0.0160793
707.749	0.0159380
707.828	0.0159735
707.906	0.0161211
707.984	0.0160210
708.062	0.0160638
708.140	0.0160540
708.218	0.0160496
708.296	0.0158716
708.374	0.0159296
708.453	0.0160541
708.531	0.0160390
708.609	0.0160236
708.687	0.0159792
708.765	0.0161079
708.843	0.0159769
708.921	0.0160142
708.999	0.0161716
709.078	0.0160881
709.156	0.0158575
709.234	0.0159918
709.312	0.0161442
709.390	0.0161393
709.468	0.0160451
709.546	0.0161456
709.624	0.0160223
709.703	0.0160910
709.781	0.0160302
709.859	0.0160970
709.937	0.0161197
710.015	0.0160499
710.093	0.0161559
710.171	0.0160609
710.249	0.0161768
710.328	0.0159708
710.406	0.0159856
710.484	0.0159796
710.562	0.0161196
710.640	0.0160579
710.718	0.0159648
710.796	0.0160069
710.874	0.0160966
710.953	0.0161189
711.031	0.0159335
711.109	0.0161070
711.187	0.0158625
711.265	0.0159774
711.343	0.0160530
711.421	0.0162059
711.499	0.0159458
711.578	0.0160886
711.656	0.0160029
711.734	0.0160950
711.812	0.0159618
711.890	0.0160797
711.968	0.0160665
712.046	0.0160259
712.124	0.0159206
712.203	0.0161156
712.281	0.0160404
712.359	0.0160118
712.437	0.0161335
712.515	0.0161935
712.593	0.0162875
712.671	0.0162910
712.749	0.0162713
712.828	0.0162608
712.906	0.0161906
712.984	0.0161716
713.062	0.0162370
713.140	0.0162278
713.218	0.0160860
713.296	0.0162788
713.374	0.0162511
713.453	0.0162820
713.531	0.0162222
713.609	0.0162601
713.687	0.0161746
713.765	0.0162462
713.843	0.0162428
713.921	0.0161595
713.999	0.0162421
714.078	0.0160645
714.156	0.0161780
714.234	0.0163584
714.312	0.0162248
714.390	0.0162081
714.468	0.0162202
714.546	0.0161040
714.624	0.0160354
714.703	0.0162293
714.781	0.0162214
714.859	0.0160831
714.937	0.0160469
715.015	0.0160705
715.093	0.0160534
715.171	0.0160583
715.249	0.0161217
715.328	0.0161799
715.406	0.0161003
715.484	0.0159608
715.562	0.0158677
715.640	0.0160095
715.718	0.0160085
715.796	0.0160645
715.874	0.0160364
715.953	0.0158747
716.031	0.0159385
716.109	0.0158444
716.187	0.0160062
716.265	0.0159472
716.343	0.0160005
716.421	0.0159576
716.499	0.0158981
716.578	0.0158795
716.656	0.0158842
716.734	0.0159610
716.812	0.0158418
716.890	0.0158933
716.968	0.0158801
717.046	0.0157230
717.124	0.0158852
717.203	0.0159109
717.281	0.0159787
717.359	0.0157465
717.437	0.0156181
717.515	0.0157719
717.593	0.0158846
717.671	0.0157991
717.749	0.0157848
717.828	0.0159064
717.906	0.0157365
717.984	0.0158060
718.062	0.0158255
718.140	0.0158205
718.218	0.0157494
718.296	0.0158044
718.374	0.0157370
718.453	0.0157631
718.531	0.0157500
718.609	0.0157388
718.687	0.0158662
718.765	0.0157903
718.843	0.0156676
718.921	0.0157762
718.999	0.0158878
719.078	0.0158099
719.156	0.0158297
719.234	0.0157716
719.312	0.0157581
719.390	0.0158289
719.468	0.0157780
719.546	0.0158410
719.624	0.0159057
719.703	0.0157683
719.781	0.0158334
719.859	0.0157233
719.937	0.0158872
720.015	0.0159642
720.093	0.0159280
720.171	0.0159284
720.249	0.0158846
720.328	0.0158675
720.406	0.0160075
720.484	0.0159721
720.562	0.0161010
720.640	0.0158951
720.718	0.0160285
720.796	0.0161282
720.874	0.0161138
720.953	0.0161102
721.031	0.0160220
721.109	0.0160727
721.187	0.0161432
721.265	0.0161767
721.343	0.0160242
721.421	0.0160198
721.499	0.0161150
721.578	0.0159299
721.656	0.0159508
721.734	0.0158539
721.812	0.0161153
721.890	0.0158103
721.968	0.0159187
722.046	0.0158281
722.124	0.0159798
722.203	0.0157902
722.281	0.0157475
722.359	0.0158058
722.437	0.0158092
722.515	0.0156506
722.593	0.0158360
722.671	0.0157674
722.749	0.0158164
722.828	0.0157433
722.906	0.0157561
722.984	0.0157411
723.062	0.0159005
723.140	0.0157133
723.218	0.0158044
723.296	0.0157755
723.374	0.0158646
723.453	0.0157941
723.531	0.0159256
723.609	0.0159103
723.687	0.0159759
723.765	0.0159786
723.843	0.0159346
723.921	0.0160122
723.999	0.0160170
724.078	0.0160336
724.156	0.0158837
724.234	0.0159908
724.312	0.0159554
724.390	0.0160880
724.468	0.0160185
724.546	0.0159673
724.624	0.0158624
724.703	0.0160529
724.781	0.0158148
724.859	0.0159071
724.937	0.0159068
725.015	0.0159895
725.093	0.0160175
725.171	0.0158647
725.249	0.0158686
725.328	0.0159972
725.406	0.0157831
725.484	0.0158443
725.562	0.0159426
725.640	0.0158986
725.718	0.0158662
725.796	0.0159435
725.874	0.0159540
725.953	0.0159032
726.031	0.0158395
726.109	0.0158241
726.187	0.0159422
726.265	0.0158261
726.343	0.0158910
726.421	0.0159470
726.499	0.0159074
726.578	0.0158298
726.656	0.0159843
726.734	0.0160199
726.812	0.0159437
726.890	0.0158012
726.968	0.0158159
727.046	0.0161221
727.124	0.0158559
727.203	0.0159534
727.281	0.0159966
727.359	0.0161325
727.437	0.0161874
727.515	0.0161435
727.593	0.0161526
727.671	0.0160806
727.749	0.0159921
727.828	0.0160601
727.906	0.0162219
727.984	0.0160259
728.062	0.0160709
728.140	0.0160892
728.218	0.0159746
728.296	0.0161526
728.374	0.0161699
728.453	0.0162140
728.531	0.0161938
728.609	0.0161545
728.687	0.0161227
728.765	0.0158629
728.843	0.0159691
728.921	0.0162794
728.999	0.0161416
729.078	0.0160531
729.156	0.0159914
729.234	0.0160696
729.312	0.0159618
729.390	0.0161311
729.468	0.0160745
729.546	0.0159539
729.624	0.0161239
729.703	0.0160496
729.781	0.0160850
729.859	0.0160406
729.937	0.0159789
730.015	0.0161214
730.093	0.0162064
730.171	0.0161791
730.249	0.0160140
730.328	0.0160860
730.406	0.0160995
730.484	0.0161491
730.562	0.0161059
730.640	0.0161153
730.718	0.0159986
730.796	0.0159206
730.874	0.0160198
730.953	0.0161356
731.031	0.0160851
731.109	0.0161292
731.187	0.0161640
731.265	0.0162007
731.343	0.0160517
731.421	0.0159946
731.499	0.0161652
731.578	0.0160722
731.656	0.0160857
731.734	0.0159714
731.812	0.0159591
731.890	0.0159579
731.968	0.0161351
732.046	0.0160675
732.124	0.0159853
732.203	0.0160218
732.281	0.0161446
732.359	0.0160919
732.437	0.0159489
732.515	0.0160947
732.593	0.0160775
732.671	0.0160347
732.749	0.0159901
732.828	0.0159190
732.906	0.0158645
732.984	0.0159420
733.062	0.0159956
733.140	0.0160587
733.218	0.0159212
733.296	0.0159438
733.374	0.0159773
733.453	0.0160590
733.531	0.0159106
733.609	0.0158646
733.687	0.0159502
733.765	0.0159360
733.843	0.0157528
733.921	0.0161695
733.999	0.0158810
734.078	0.0159650
734.156	0.0159337
734.234	0.0158808
734.312	0.0158660
734.390	0.0158944
734.468	0.0158927
734.546	0.0157624
734.624	0.0158910
734.703	0.0159560
734.781	0.0158453
734.859	0.0159418
734.937	0.0158352
735.015	0.0158529
735.093	0.0158063
735.171	0.0159020
735.249	0.0159377
735.328	0.0158753
735.406	0.0159821
735.484	0.0158799
735.562	0.0159737
735.640	0.0158628
735.718	0.0158777
735.796	0.0159796
735.874	0.0160706
735.953	0.0159987
736.031	0.0159188
736.109	0.0157985
736.187	0.0158149
736.265	0.0159708
736.343	0.0159197
736.421	0.0161082
736.499	0.0159804
736.578	0.0157989
736.656	0.0158167
736.734	0.0159081
736.812	0.0159358
736.890	0.0159501
736.968	0.0158229
737.046	0.0158714
737.124	0.0160121
737.203	0.0158020
737.281	0.0159325
737.359	0.0157967
737.437	0.0158797
737.515	0.0158920
737.593	0.0158755
737.671	0.0158457
737.749	0.0158845
737.828	0.0157797
737.906	0.0159350
737.984	0.0159430
738.062	0.0159235
738.140	0.0157841
738.218	0.0157919
738.296	0.0160162
738.374	0.0159283
738.453	0.0157185
738.531	0.0159347
738.609	0.0159750
738.687	0.0160210
738.765	0.0160837
738.843	0.0159197
738.921	0.0159684
738.999	0.0159957
739.078	0.0158408
739.156	0.0159016
739.234	0.0158459
739.312	0.0160028
739.390	0.0159721
739.468	0.0159870
739.546	0.0159799
739.624	0.0159069
739.703	0.0160015
739.781	0.0159337
739.859	0.0158833
739.937	0.0158541
740.015	0.0158642
740.093	0.0158599
740.171	0.0158669
740.249	0.0159079
740.328	0.0158233
740.406	0.0158607
740.484	0.0157564
740.562	0.0157607
740.640	0.0158414
740.718	0.0159238
740.796	0.0158308
740.874	0.0158888
740.953	0.0158584
741.031	0.0159029
741.109	0.0159622
741.187	0.0158923
741.265	0.0160019
741.343	0.0158533
741.421	0.0158985
741.499	0.0159402
741.578	0.0160476
741.656	0.0160220
741.734	0.0159007
741.812	0.0158279
741.890	0.0160335
741.968	0.0158662
742.046	0.0158829
742.124	0.0159078
742.203	0.0160583
742.281	0.0159650
742.359	0.0160325
742.437	0.0157623
742.515	0.0158630
742.593	0.0158901
742.671	0.0158873
742.749	0.0159049
742.828	0.0157837
742.906	0.0157581
742.984	0.0157333
743.062	0.0158143
743.140	0.0159209
743.218	0.0157913
743.296	0.0158195
743.374	0.0157498
743.453	0.0157784
743.531	0.0158937
743.609	0.0158979
743.687	0.0158219
743.765	0.0157685
743.843	0.0157964
743.921	0.0157053
743.999	0.0157490
744.078	0.0158955
744.156	0.0157844
744.234	0.0157735
744.312	0.0157144
744.390	0.0158058
744.468	0.0158269
744.546	0.0158894
744.624	0.0157995
744.703	0.0158004
744.781	0.0157804
744.859	0.0159223
744.937	0.0159257
745.015	0.0157802
745.093	0.0158440
745.171	0.0157788
745.249	0.0158679
745.328	0.0158847
745.406	0.0158794
745.484	0.0159196
745.562	0.0158909
745.640	0.0158795
745.718	0.0159862
745.796	0.0160986
745.874	0.0160237
745.953	0.0158780
746.031	0.0158657
746.109	0.0159272
746.187	0.0159689
746.265	0.0160053
746.343	0.0160680
746.421	0.0160388
746.499	0.0159331
746.578	0.0160379
746.656	0.0160090
746.734	0.0159991
746.812	0.0159866
746.890	0.0160310
746.968	0.0158945
747.046	0.0159902
747.124	0.0160998
747.203	0.0159177
747.281	0.0159624
747.359	0.0158605
747.437	0.0159418
747.515	0.0159943
747.593	0.0159306
747.671	0.0158646
747.749	0.0158386
747.828	0.0160205
747.906	0.0160239
747.984	0.0160123
748.062	0.0158889
748.140	0.0159927
748.218	0.0159226
748.296	0.0159399
748.374	0.0159731
748.453	0.0159591
748.531	0.0158460
748.609	0.0159590
748.687	0.0160186
748.765	0.0160231
748.843	0.0159239
748.921	0.0159145
748.999	0.0161302
749.078	0.0160255
749.156	0.0161390
749.234	0.0158713
749.312	0.0160236
749.390	0.0160852
749.468	0.0160589
749.546	0.0160635
749.624	0.0160515
749.703	0.0160857
749.781	0.0159690
749.859	0.0160285
749.937	0.0160674
750.015	0.0160229
750.093	0.0159590
750.171	0.0159687
750.249	0.0161307
750.328	0.0159633
750.406	0.0158984
750.484	0.0159280
750.562	0.0159522
750.640	0.0161233
750.718	0.0159444
750.796	0.0161179
750.874	0.0160464
750.953	0.0161006
751.031	0.0161259
751.109	0.0160041
751.187	0.0160036
751.265	0.0159561
751.343	0.0161276
751.421	0.0161374
751.499	0.0160421
751.578	0.0160793
751.656	0.0161272
751.734	0.0160543
751.812	0.0161803
751.890	0.0160214
751.968	0.0159503
752.046	0.0159813
752.124	0.0159840
752.203	0.0159903
752.281	0.0159575
752.359	0.0160017
752.437	0.0160757
752.515	0.0160715
752.593	0.0160357
752.671	0.0160224
752.749	0.0160295
752.828	0.0160892
752.906	0.0161197
752.984	0.0159943
753.062	0.0160164
753.140	0.0158715
753.218	0.0162029
753.296	0.0159409
753.374	0.0158915
753.453	0.0160419
753.531	0.0159327
753.609	0.0160590
753.687	0.0160738
753.765	0.0159094
753.843	0.0159721
753.921	0.0158817
753.999	0.0160812
754.078	0.0160110
754.156	0.0160037
754.234	0.0159485
754.312	0.0161495
754.390	0.0161097
754.468	0.0160616
754.546	0.0159682
754.624	0.0158527
754.703	0.0160049
754.781	0.0160323
754.859	0.0157987
754.937	0.0159306
755.015	0.0160501
755.093	0.0159579
755.171	0.0160021
755.249	0.0159893
755.328	0.0159839
755.406	0.0160008
755.484	0.0160680
755.562	0.0160065
755.640	0.0160093
755.718	0.0160384
755.796	0.0158986
755.874	0.0160710
755.953	0.0160211
756.031	0.0159121
756.109	0.0159090
756.187	0.0158122
756.265	0.0159771
756.343	0.0159974
756.421	0.0158958
756.499	0.0160010
756.578	0.0159711
756.656	0.0158127
756.734	0.0160069
756.812	0.0159169
756.890	0.0159837
756.968	0.0159668
757.046	0.0159029
757.124	0.0159277
757.203	0.0159029
757.281	0.0160740
757.359	0.0160542
757.437	0.0160512
757.515	0.0159879
757.593	0.0159293
757.671	0.0158813
757.749	0.0159657
757.828	0.0160538
757.906	0.0160157
757.984	0.0160012
758.062	0.0160594
758.140	0.0160000
758.218	0.0158924
758.296	0.0159470
758.374	0.0160738
758.453	0.0159605
758.531	0.0158964
758.609	0.0159255
758.687	0.0159229
758.765	0.0159606
758.843	0.0159386
758.921	0.0160037
758.999	0.0159964
759.078	0.0161240
759.156	0.0159533
759.234	0.0158995
759.312	0.0157925
759.390	0.0160344
759.468	0.0160361
759.546	0.0158665
759.624	0.0158482
759.703	0.0160096
759.781	0.0158630
759.859	0.0160481
759.937	0.0161096
760.015	0.0160068
760.093	0.0159622
760.171	0.0159351
760.249	0.0157647
760.328	0.0158382
760.406	0.0157596
760.484	0.0158109
760.562	0.0158871
760.640	0.0158543
760.718	0.0156139
760.796	0.0156979
760.874	0.0157656
760.953	0.0157172
761.031	0.0158208
761.109	0.0157742
761.187	0.0159620
761.265	0.0158454
761.343	0.0157554
761.421	0.0158175
761.499	0.0157925
761.578	0.0158023
761.656	0.0157452
761.734	0.0158351
761.812	0.0157526
761.890	0.0157562
761.968	0.0158971
762.046	0.0158305
762.124	0.0158361
762.203	0.0157970
762.281	0.0158246
762.359	0.0158779
762.437	0.0159415
762.515	0.0158652
762.593	0.0159229
762.671	0.0159154
762.749	0.0159438
762.828	0.0159251
762.906	0.0158960
762.984	0.0158769
763.062	0.0159666
763.140	0.0158381
763.218	0.0159360
763.296	0.0159705
763.374	0.0160194
763.453	0.0158246
763.531	0.0160174
763.609	0.0159774
763.687	0.0160239
763.765	0.0160021
763.843	0.0160245
763.921	0.0159126
763.999	0.0158552
764.078	0.0160272
764.156	0.0160936
764.234	0.0160432
764.312	0.0159212
764.390	0.0160138
764.468	0.0159142
764.546	0.0159400
764.624	0.0159687
764.703	0.0160121
764.781	0.0159199
764.859	0.0158701
764.937	0.0158814
765.015	0.0158051
765.093	0.0159713
765.171	0.0158499
765.249	0.0158085
765.328	0.0158941
765.406	0.0158437
765.484	0.0157517
765.562	0.0157657
765.640	0.0157750
765.718	0.0158116
765.796	0.0158286
765.874	0.0157990
765.953	0.0157519
766.031	0.0158526
766.109	0.0158741
766.187	0.0158500
766.265	0.0157123
766.343	0.0158416
766.421	0.0158647
766.499	0.0158675
766.578	0.0158694
766.656	0.0158567
766.734	0.0158913
766.812	0.0157728
766.890	0.0158743
766.968	0.0158890
767.046	0.0159339
767.124	0.0158297
767.203	0.0158148
767.281	0.0158268
767.359	0.0158807
767.437	0.0159606
767.515	0.0158247
767.593	0.0158658
767.671	0.0159544
767.749	0.0159259
767.828	0.0160201
767.906	0.0159350
767.984	0.0159814
768.062	0.0161017
768.140	0.0160890
768.218	0.0160308
768.296	0.0161244
768.374	0.0160623
768.453	0.0162097
768.531	0.0163209
768.609	0.0161136
768.687	0.0162905
768.765	0.0161399
768.843	0.0162337
768.921	0.0160792
768.999	0.0161115
769.078	0.0161470
769.156	0.0161118
769.234	0.0161768
769.312	0.0161395
769.390	0.0161562
769.468	0.0162853
769.546	0.0162087
769.624	0.0162377
769.703	0.0162736
769.781	0.0161865
769.859	0.0162489
769.937	0.0163413
770.015	0.0163218
770.093	0.0161455
770.171	0.0162839
770.249	0.0161752
770.328	0.0161890
770.406	0.0163354
770.484	0.0162012
770.562	0.0161995
770.640	0.0162292
770.718	0.0162863
770.796	0.0160298
770.874	0.0161717
770.953	0.0159988
771.031	0.0160767
771.109	0.0159734
771.187	0.0159268
771.265	0.0159325
771.343	0.0159718
771.421	0.0159545
771.499	0.0158867
771.578	0.0157661
771.656	0.0159312
771.734	0.0157876
771.812	0.0159658
771.890	0.0157807
771.968	0.0158228
772.046	0.0159245
772.124	0.0158453
772.203	0.0159963
772.281	0.0159914
772.359	0.0159338
772.437	0.0160606
772.515	0.0160947
772.593	0.0160839
772.671	0.0160609
772.749	0.0160704
772.828	0.0159587
772.906	0.0161061
772.984	0.0159556
773.062	0.0159927
773.140	0.0159821
773.218	0.0160020
773.296	0.0160006
773.374	0.0159442
773.453	0.0159474
773.531	0.0159886
773.609	0.0159512
773.687	0.0159412
773.765	0.0159789
773.843	0.0159638
773.921	0.0158586
773.999	0.0160600
774.078	0.0160120
774.156	0.0159373
774.234	0.0159840
774.312	0.0159457
774.390	0.0160380
774.468	0.0159943
774.546	0.0159458
774.624	0.0158585
774.703	0.0160435
774.781	0.0160941
774.859	0.0161420
774.937	0.0161671
775.015	0.0160239
775.093	0.0161333
775.171	0.0160036
775.249	0.0161565
775.328	0.0159956
775.406	0.0161648
775.484	0.0160758
775.562	0.0160980
775.640	0.0161099
775.718	0.0161942
775.796	0.0160838
775.874	0.0160312
775.953	0.0161188
776.031	0.0161912
776.109	0.0161596
776.187	0.0162610
776.265	0.0162897
776.343	0.0161850
776.421	0.0161828
776.499	0.0162887
776.578	0.0162070
776.656	0.0162521
776.734	0.0162537
776.812	0.0161481
776.890	0.0162362
776.968	0.0162486
777.046	0.0161391
777.124	0.0161449
777.203	0.0162231
777.281	0.0162881
777.359	0.0161614
777.437	0.0159992
777.515	0.0161955
777.593	0.0162569
777.671	0.0163596
777.749	0.0162383
777.828	0.0160421
777.906	0.0162502
777.984	0.0161878
778.062	0.0161723
778.140	0.0161117
778.218	0.0162505
778.296	0.0162688
778.374	0.0161502
778.453	0.0161440
778.531	0.0163354
778.609	0.0161157
778.687	0.0162835
778.765	0.0163187
778.843	0.0162024
778.921	0.0161864
778.999	0.0162197
779.078	0.0160886
779.156	0.0162120
779.234	0.0162689
779.312	0.0161012
779.390	0.0161192
779.468	0.0163161
779.546	0.0162332
779.624	0.0162005
779.703	0.0161794
779.781	0.0160098
779.859	0.0162080
779.937	0.0162633
780.015	0.0161562
780.093	0.0160725
780.171	0.0161555
780.249	0.0161356
780.328	0.0161291
780.406	0.0161383
780.484	0.0162339
780.562	0.0161031
780.640	0.0161385
780.718	0.0160764
780.796	0.0160470
780.874	0.0161835
780.953	0.0161226
781.031	0.0161092
781.109	0.0161208
781.187	0.0160469
781.265	0.0159836
781.343	0.0160439
781.421	0.0159212
781.499	0.0159267
781.578	0.0160313
781.656	0.0158066
781.734	0.0158344
781.812	0.0158479
781.890	0.0157316
781.968	0.0158636
782.046	0.0157668
782.124	0.0159116
782.203	0.0158613
782.281	0.0158817
782.359	0.0158935
782.437	0.0159827
782.515	0.0160143
782.593	0.0158026
782.671	0.0158484
782.749	0.0160073
782.828	0.0158187
782.906	0.0159401
782.984	0.0160123
783.062	0.0159678
783.140	0.0160063
783.218	0.0158848
783.296	0.0160094
783.374	0.0160287
783.453	0.0160846
783.531	0.0159299
783.609	0.0158659
783.687	0.0160646
783.765	0.0159427
783.843	0.0160516
783.921	0.0159409
783.999	0.0158770
784.078	0.0160843
784.156	0.0160976
784.234	0.0160236
784.312	0.0160886
784.390	0.0161268
784.468	0.0160640
784.546	0.0160030
784.624	0.0160583
784.703	0.0160632
784.781	0.0161769
784.859	0.0159368
784.937	0.0161196
785.015	0.0160500
785.093	0.0160424
785.171	0.0160399
785.249	0.0159621
785.328	0.0159801
785.406	0.0159727
785.484	0.0157849
785.562	0.0157646
785.640	0.0158901
785.718	0.0159031
785.796	0.0158884
785.874	0.0156484
785.953	0.0158705
786.031	0.0160233
786.109	0.0157845
786.187	0.0157899
786.265	0.0158794
786.343	0.0157341
786.421	0.0157668
786.499	0.0157833
786.578	0.0157442
786.656	0.0157108
786.734	0.0160341
786.812	0.0159461
786.890	0.0157775
786.968	0.0157256
787.046	0.0159091
787.124	0.0157746
787.203	0.0158164
787.281	0.0159750
787.359	0.0158073
787.437	0.0159406
787.515	0.0157989
787.593	0.0158484
787.671	0.0159422
787.749	0.0158614
787.828	0.0159016
787.906	0.0158833
787.984	0.0159544
788.062	0.0157927
788.140	0.0158259
788.218	0.0158545
788.296	0.0158987
788.374	0.0158730
788.453	0.0160519
788.531	0.0160280
788.609	0.0159422
788.687	0.0159243
788.765	0.0159544
788.843	0.0160372
788.921	0.0160331
788.999	0.0160172
789.078	0.0161484
789.156	0.0161402
789.234	0.0161306
789.312	0.0162395
789.390	0.0161880
789.468	0.0162728
789.546	0.0161843
789.624	0.0160470
789.703	0.0161005
789.781	0.0162665
789.859	0.0162520
789.937	0.0160666
790.015	0.0160679
790.093	0.0161839
790.171	0.0160165
790.249	0.0162432
790.328	0.0161839
790.406	0.0162183
790.484	0.0160952
790.562	0.0161702
790.640	0.0161727
790.718	0.0162903
790.796	0.0162553
790.874	0.0162610
790.953	0.0161570
791.031	0.0162393
791.109	0.0161250
791.187	0.0161609
791.265	0.0161111
791.343	0.0159482
791.421	0.0161121
791.499	0.0161426
791.578	0.0160450
791.656	0.0161318
791.734	0.0161298
791.812	0.0161172
791.890	0.0160132
791.968	0.0161626
792.046	0.0159373
792.124	0.0160380
792.203	0.0160722
792.281	0.0161469
792.359	0.0160376
792.437	0.0160835
792.515	0.0160474
792.593	0.0160776
792.671	0.0160878
792.749	0.0162139
792.828	0.0162392
792.906	0.0161058
792.984	0.0162180
793.062	0.0162295
793.140	0.0162448
793.218	0.0162158
793.296	0.0161993
793.374	0.0160615
793.453	0.0162961
793.531	0.0161999
793.609	0.0162085
793.687	0.0161803
793.765	0.0162753
793.843	0.0161475
793.921	0.0160339
793.999	0.0161754
794.078	0.0163046
794.156	0.0163124
794.234	0.0161404
794.312	0.0160741
794.390	0.0162306
794.468	0.0160741
794.546	0.0161320
794.624	0.0161301
794.703	0.0161348
794.781	0.0160963
794.859	0.0160973
794.937	0.0160674
795.015	0.0161616
795.093	0.0161605
795.171	0.0159752
795.249	0.0161489
795.328	0.0161301
795.406	0.0161950
795.484	0.0160424
795.562	0.0161565
795.640	0.0160352
795.718	0.0159296
795.796	0.0160567
795.874	0.0159335
795.953	0.0159389
796.031	0.0160632
796.109	0.0161062
796.187	0.0157938
796.265	0.0159395
796.343	0.0158716
796.421	0.0157565
796.499	0.0157607
796.578	0.0158528
796.656	0.0157625
796.734	0.0158722
796.812	0.0159040
796.890	0.0157330
796.968	0.0158545
797.046	0.0158064
797.124	0.0157828
797.203	0.0158427
797.281	0.0159853
797.359	0.0160351
797.437	0.0159034
797.515	0.0160606
797.593	0.0158135
797.671	0.0160265
797.749	0.0160172
797.828	0.0160900
797.906	0.0159452
797.984	0.0160364
798.062	0.0159454
798.140	0.0160589
798.218	0.0159230
798.296	0.0158618
798.374	0.0160127
798.453	0.0160313
798.531	0.0159486
798.609	0.0160181
798.687	0.0160903
798.765	0.0160772
798.843	0.0160269
798.921	0.0159737
798.999	0.0160749
799.078	0.0161707
799.156	0.0161743
799.234	0.0161415
799.312	0.0161027
799.390	0.0161483
799.468	0.0160299
799.546	0.0161369
799.624	0.0160516
799.703	0.0159830
799.781	0.0160526
799.859	0.0161362
799.937	0.0160336
800.015	0.0160252
800.093	0.0161577
800.171	0.0159745
800.249	0.0161497
800.328	0.0160565
800.406	0.0158684
800.484	0.0160773
800.562	0.0160803
800.640	0.0161499
800.718	0.0160798
800.796	0.0161832
800.874	0.0162040
800.953	0.0160303
801.031	0.0160686
801.109	0.0161508
801.187	0.0160797
801.265	0.0161385
801.343	0.0159598
801.421	0.0160404
801.499	0.0161223
801.578	0.0160566
801.656	0.0158343
801.734	0.0158978
801.812	0.0160336
801.890	0.0161276
801.968	0.0159445
802.046	0.0160265
802.124	0.0160032
802.203	0.0160358
802.281	0.0160870
802.359	0.0161132
802.437	0.0161062
802.515	0.0160800
802.593	0.0160003
802.671	0.0160392
802.749	0.0160365
802.828	0.0159728
802.906	0.0159949
802.984	0.0160831
803.062	0.0159702
803.140	0.0159051
803.218	0.0159799
803.296	0.0160247
803.374	0.0160645
803.453	0.0160177
803.531	0.0159521
803.609	0.0160863
803.687	0.0159972
803.765	0.0159545
803.843	0.0160198
803.921	0.0159272
803.999	0.0160390
804.078	0.0161004
804.156	0.0161815
804.234	0.0160328
804.312	0.0159759
804.390	0.0160847
804.468	0.0161257
804.546	0.0160319
804.624	0.0161150
804.703	0.0161391
804.781	0.0159351
804.859	0.0161433
804.937	0.0160538
805.015	0.0160863
805.093	0.0160874
805.171	0.0161322
805.249	0.0161028
805.328	0.0160640
805.406	0.0160347
805.484	0.0160334
805.562	0.0160303
805.640	0.0159846
805.718	0.0160062
805.796	0.0159921
805.874	0.0160279
805.953	0.0160551
806.031	0.0157896
806.109	0.0158369
806.187	0.0158097
806.265	0.0158838
806.343	0.0159086
806.421	0.0158966
806.499	0.0157928
806.578	0.0156106
806.656	0.0157663
806.734	0.0156461
806.812	0.0157287
806.890	0.0157518
806.968	0.0157638
807.046	0.0156692
807.124	0.0156897
807.203	0.0156261
807.281	0.0156851
807.359	0.0157624
807.437	0.0156784
807.515	0.0157127
807.593	0.0157103
807.671	0.0156756
807.749	0.0156452
807.828	0.0157067
807.906	0.0156509
807.984	0.0156686
808.062	0.0158282
808.140	0.0156805
808.218	0.0157718
808.296	0.0157354
808.374	0.0157064
808.453	0.0159823
808.531	0.0157458
808.609	0.0159097
808.687	0.0157750
808.765	0.0156995
808.843	0.0158572
808.921	0.0159946
808.999	0.0159624
809.078	0.0159701
809.156	0.0159749
809.234	0.0157763
809.312	0.0158112
809.390	0.0157249
809.468	0.0158528
809.546	0.0159161
809.624	0.0157498
809.703	0.0158170
809.781	0.0158388
809.859	0.0157224
809.937	0.0159760
810.015	0.0158304
810.093	0.0156930
810.171	0.0159331
810.249	0.0160331
810.328	0.0159117
810.406	0.0157622
810.484	0.0158355
810.562	0.0158282
810.640	0.0157458
810.718	0.0158704
810.796	0.0158536
810.874	0.0159569
810.953	0.0159215
811.031	0.0160200
811.109	0.0158876
811.187	0.0160027
811.265	0.0160262
811.343	0.0160786
811.421	0.0160943
811.499	0.0159830
811.578	0.0160005
811.656	0.0160717
811.734	0.0160982
811.812	0.0160471
811.890	0.0159853
811.968	0.0159575
812.046	0.0159614
812.124	0.0158807
812.203	0.0159534
812.281	0.0161169
812.359	0.0159766
812.437	0.0160101
812.515	0.0158975
812.593	0.0158987
812.671	0.0159074
812.749	0.0158875
812.828	0.0159566
812.906	0.0161108
812.984	0.0159670
813.062	0.0160374
813.140	0.0160040
813.218	0.0158722
813.296	0.0160465
813.374	0.0162192
813.453	0.0161522
813.531	0.0160947
813.609	0.0161041
813.687	0.0161101
813.765	0.0161103
813.843	0.0161236
813.921	0.0159523
813.999	0.0160194
814.078	0.0160939
814.156	0.0160721
814.234	0.0159344
814.312	0.0159492
814.390	0.0160172
814.468	0.0160380
814.546	0.0161739
814.624	0.0161212
814.703	0.0161140
814.781	0.0162443
814.859	0.0162391
814.937	0.0160513
815.015	0.0162034
815.093	0.0162259
815.171	0.0161319
815.249	0.0162191
815.328	0.0161148
815.406	0.0160521
815.484	0.0160739
815.562	0.0161050
815.640	0.0162115
815.718	0.0161409
815.796	0.0162144
815.874	0.0160629
815.953	0.0159667
816.031	0.0160510
816.109	0.0160247
816.187	0.0159869
816.265	0.0161453
816.343	0.0159999
816.421	0.0160192
816.499	0.0159987
816.578	0.0158966
816.656	0.0158717
816.734	0.0158740
816.812	0.0159524
816.890	0.0160747
816.968	0.0158965
817.046	0.0159698
817.124	0.0159830
817.203	0.0158781
817.281	0.0158366
817.359	0.0160146
817.437	0.0160172
817.515	0.0158995
817.593	0.0160291
817.671	0.0159987
817.749	0.0160187
817.828	0.0158257
817.906	0.0160902
817.984	0.0161391
818.062	0.0159309
818.140	0.0159052
818.218	0.0160551
818.296	0.0160088
818.374	0.0159055
818.453	0.0160542
818.531	0.0160812
818.609	0.0160299
818.687	0.0160220
818.765	0.0159924
818.843	0.0160041
818.921	0.0160281
818.999	0.0158704
819.078	0.0158952
819.156	0.0160542
819.234	0.0159619
819.312	0.0156809
819.390	0.0159098
819.468	0.0159310
819.546	0.0157973
819.624	0.0159480
819.703	0.0158172
819.781	0.0159118
819.859	0.0158253
819.937	0.0158975
820.015	0.0160095
820.093	0.0159447
820.171	0.0158501
820.249	0.0159292
820.328	0.0158687
820.406	0.0159753
820.484	0.0161073
820.562	0.0160177
820.640	0.0158967
820.718	0.0160142
820.796	0.0160326
820.874	0.0160385
820.953	0.0160036
821.031	0.0160206
821.109	0.0160633
821.187	0.0160450
821.265	0.0160387
821.343	0.0161028
821.421	0.0160497
821.499	0.0160165
821.578	0.0159437
821.656	0.0161321
821.734	0.0159757
821.812	0.0161811
821.890	0.0162461
821.968	0.0161248
822.046	0.0161903
822.124	0.0160831
822.203	0.0160255
822.281	0.0162101
822.359	0.0162077
822.437	0.0162345
822.515	0.0161237
822.593	0.0161811
822.671	0.0161281
822.749	0.0159483
822.828	0.0160817
822.906	0.0160254
822.984	0.0161778
823.062	0.0160752
823.140	0.0160848
823.218	0.0159554
823.296	0.0161540
823.374	0.0161378
823.453	0.0159689
823.531	0.0160344
823.609	0.0160212
823.687	0.0159908
823.765	0.0161085
823.843	0.0160759
823.921	0.0160555
823.999	0.0159643
824.078	0.0159510
824.156	0.0160168
824.234	0.0160611
824.312	0.0159497
824.390	0.0158379
824.468	0.0158167
824.546	0.0159502
824.624	0.0159184
824.703	0.0159116
824.781	0.0158376
824.859	0.0158659
824.937	0.0158938
825.015	0.0158909
825.093	0.0158522
825.171	0.0159141
825.249	0.0160330
825.328	0.0159184
825.406	0.0160569
825.484	0.0160931
825.562	0.0161031
825.640	0.0160738
825.718	0.0159940
825.796	0.0162476
825.874	0.0161513
825.953	0.0161491
826.031	0.0160774
826.109	0.0161432
826.187	0.0161154
826.265	0.0161443
826.343	0.0160991
826.421	0.0160783
826.499	0.0162255
826.578	0.0159311
826.656	0.0159235
826.734	0.0161333
826.812	0.0159769
826.890	0.0159412
826.968	0.0158954
827.046	0.0157875
827.124	0.0158627
827.203	0.0158037
827.281	0.0158328
827.359	0.0157578
827.437	0.0158823
827.515	0.0158527
827.593	0.0158186
827.671	0.0157747
827.749	0.0156916
827.828	0.0157959
827.906	0.0155979
827.984	0.0156693
828.062	0.0158294
828.140	0.0157285
828.218	0.0158173
828.296	0.0158618
828.374	0.0159470
828.453	0.0158031
828.531	0.0157855
828.609	0.0158175
828.687	0.0158336
828.765	0.0158875
828.843	0.0158042
828.921	0.0158707
828.999	0.0159428
829.078	0.0159145
829.156	0.0158385
829.234	0.0158671
829.312	0.0158282
829.390	0.0157480
829.468	0.0158720
829.546	0.0158314
829.624	0.0158289
829.703	0.0157978
829.781	0.0158644
829.859	0.0159228
829.937	0.0159128
830.015	0.0159587
830.093	0.0157354
830.171	0.0159325
830.249	0.0158894
830.328	0.0157279
830.406	0.0158647
830.484	0.0158334
830.562	0.0157445
830.640	0.0155697
830.718	0.0158323
830.796	0.0156134
830.874	0.0157098
830.953	0.0155918
831.031	0.0157507
831.109	0.0157066
831.187	0.0157208
831.265	0.0155840
831.343	0.0156017
831.421	0.0158550
831.499	0.0158132
831.578	0.0158105
831.656	0.0158700
831.734	0.0158197
831.812	0.0159235
831.890	0.0158746
831.968	0.0158765
832.046	0.0159863
832.124	0.0158293
832.203	0.0157919
832.281	0.0158550
832.359	0.0156455
832.437	0.0158781
832.515	0.0158076
832.593	0.0157381
832.671	0.0157861
832.749	0.0157921
832.828	0.0158714
832.906	0.0158698
832.984	0.0159411
833.062	0.0159378
833.140	0.0157839
833.218	0.0159290
833.296	0.0158627
833.374	0.0156831
833.453	0.0159468
833.531	0.0159733
833.609	0.0160168
833.687	0.0159789
833.765	0.0161005
833.843	0.0160762
833.921	0.0160050
833.999	0.0160889
834.078	0.0160329
834.156	0.0159431
834.234	0.0160295
834.312	0.0159883
834.390	0.0160593
834.468	0.0160291
834.546	0.0159884
834.624	0.0159452
834.703	0.0158571
834.781	0.0158676
834.859	0.0160165
834.937	0.0158243
835.015	0.0158134
835.093	0.0156461
835.171	0.0158418
835.249	0.0157827
835.328	0.0158183
835.406	0.0157941
835.484	0.0157133
835.562	0.0157464
835.640	0.0158054
835.718	0.0156078
835.796	0.0157240
835.874	0.0157964
835.953	0.0158951
836.031	0.0158323
836.109	0.0158075
836.187	0.0158401
836.265	0.0158160
836.343	0.0158726
836.421	0.0159404
836.499	0.0160264
836.578	0.0160092
836.656	0.0161224
836.734	0.0161654
836.812	0.0160728
836.890	0.0161034
836.968	0.0161535
837.046	0.0161580
837.124	0.0161427
837.203	0.0161000
837.281	0.0161922
837.359	0.0161693
837.437	0.0161109
837.515	0.0161425
837.593	0.0161237
837.671	0.0159771
837.749	0.0160375
837.828	0.0159707
837.906	0.0159942
837.984	0.0158634
838.062	0.0158987
838.140	0.0160129
838.218	0.0160803
838.296	0.0160396
838.374	0.0160631
838.453	0.0158952
838.531	0.0159615
838.609	0.0159393
838.687	0.0160509
838.765	0.0160325
838.843	0.0159457
838.921	0.0159456
838.999	0.0157991
839.078	0.0158066
839.156	0.0159353
839.234	0.0158990
839.312	0.0158511
839.390	0.0159416
839.468	0.0158730
839.546	0.0159389
839.624	0.0159082
839.703	0.0158871
839.781	0.0158960
839.859	0.0159331
839.937	0.0159709
840.015	0.0160801
840.093	0.0161282
840.171	0.0159582
840.249	0.0159176
840.328	0.0158907
840.406	0.0160053
840.484	0.0159580
840.562	0.0159089
840.640	0.0159052
840.718	0.0159897
840.796	0.0160132
840.874	0.0159950
840.953	0.0158788
841.031	0.0160416
841.109	0.0158272
841.187	0.0159641
841.265	0.0159092
841.343	0.0158476
841.421	0.0159914
841.499	0.0159903
841.578	0.0159151
841.656	0.0158891
841.734	0.0158299
841.812	0.0158971
841.890	0.0160700
841.968	0.0159756
842.046	0.0161504
842.124	0.0159753
842.203	0.0160186
842.281	0.0160378
842.359	0.0159471
842.437	0.0159924
842.515	0.0159835
842.593	0.0160138
842.671	0.0161068
842.749	0.0159930
842.828	0.0158192
842.906	0.0159627
842.984	0.0160366
843.062	0.0158612
843.140	0.0159200
843.218	0.0160091
843.296	0.0161346
843.374	0.0161512
843.453	0.0160984
843.531	0.0161107
843.609	0.0161098
843.687	0.0161170
843.765	0.0161137
843.843	0.0161371
843.921	0.0161158
843.999	0.0161349
844.078	0.0160312
844.156	0.0160358
844.234	0.0160776
844.312	0.0160860
844.390	0.0161059
844.468	0.0161354
844.546	0.0161481
844.624	0.0161594
844.703	0.0159975
844.781	0.0161020
844.859	0.0161347
844.937	0.0162337
845.015	0.0160229
845.093	0.0160225
845.171	0.0162627
845.249	0.0161400
845.328	0.0161689
845.406	0.0160615
845.484	0.0161529
845.562	0.0163368
845.640	0.0162395
845.718	0.0161938
845.796	0.0161028
845.874	0.0161338
845.953	0.0162643
846.031	0.0161040
846.109	0.0161424
846.187	0.0160933
846.265	0.0161507
846.343	0.0161205
846.421	0.0161249
846.499	0.0161375
846.578	0.0163297
846.656	0.0160997
846.734	0.0160738
846.812	0.0160558
846.890	0.0160635
846.968	0.0161398
847.046	0.0160518
847.124	0.0160296
847.203	0.0159018
847.281	0.0159920
847.359	0.0160262
847.437	0.0159945
847.515	0.0160332
847.593	0.0160846
847.671	0.0159056
847.749	0.0161624
847.828	0.0159661
847.906	0.0159096
847.984	0.0160468
848.062	0.0160929
848.140	0.0161887
848.218	0.0161245
848.296	0.0160840
848.374	0.0160640
848.453	0.0159737
848.531	0.0160475
848.609	0.0160961
848.687	0.0161193
848.765	0.0161076
848.843	0.0159771
848.921	0.0160327
848.999	0.0160841
849.078	0.0160068
849.156	0.0159495
849.234	0.0160403
849.312	0.0159947
849.390	0.0160648
849.468	0.0161149
849.546	0.0160760
849.624	0.0161435
849.703	0.0160770
849.781	0.0160384
849.859	0.0160177
849.937	0.0160063
850.015	0.0158840
850.093	0.0160171
850.171	0.0158668
850.249	0.0158958
850.328	0.0159119
850.406	0.0159546
850.484	0.0159625
850.562	0.0160498
850.640	0.0159565
850.718	0.0158465
850.796	0.0160179
850.874	0.0159917
850.953	0.0158323
851.031	0.0158746
851.109	0.0158718
851.187	0.0160333
851.265	0.0158790
851.343	0.0160246
851.421	0.0159570
851.499	0.0159702
851.578	0.0158790
851.656	0.0159855
851.734	0.0158446
851.812	0.0159419
851.890	0.0159409
851.968	0.0161141
852.046	0.0159535
852.124	0.0161629
852.203	0.0160600
852.281	0.0159672
852.359	0.0160355
852.437	0.0160987
852.515	0.0160904
852.593	0.0160632
852.671	0.0160632
852.749	0.0160397
852.828	0.0161325
852.906	0.0162083
852.984	0.0162043
853.062	0.0161504
853.140	0.0160637
853.218	0.0161264
853.296	0.0161593
853.374	0.0161392
853.453	0.0161984
853.531	0.0161189
853.609	0.0161512
853.687	0.0161044
853.765	0.0162273
853.843	0.0161096
853.921	0.0162228
853.999	0.0161237
854.078	0.0160851
854.156	0.0160146
854.234	0.0160403
854.312	0.0159170
854.390	0.0160088
854.468	0.0160509
854.546	0.0160649
854.624	0.0161470
854.703	0.0161411
854.781	0.0161066
854.859	0.0161547
854.937	0.0161028
855.015	0.0160365
855.093	0.0159781
855.171	0.0161012
855.249	0.0160623
855.328	0.0160918
855.406	0.0161350
855.484	0.0161376
855.562	0.0161506
855.640	0.0161182
855.718	0.0161890
855.796	0.0160845
855.874	0.0160027
855.953	0.0159637
856.031	0.0159811
856.109	0.0159569
856.187	0.0159936
856.265	0.0159489
856.343	0.0160885
856.421	0.0160110
856.499	0.0158469
856.578	0.0159819
856.656	0.0159277
856.734	0.0157540
856.812	0.0159259
856.890	0.0159308
856.968	0.0160080
857.046	0.0158136
857.124	0.0158903
857.203	0.0160881
857.281	0.0160020
857.359	0.0159892
857.437	0.0159573
857.515	0.0159550
857.593	0.0159137
857.671	0.0159633
857.749	0.0159757
857.828	0.0159814
857.906	0.0160184
857.984	0.0158766
858.062	0.0159840
858.140	0.0160616
858.218	0.0160026
858.296	0.0159143
858.374	0.0158943
858.453	0.0157667
858.531	0.0159519
858.609	0.0160265
858.687	0.0159158
858.765	0.0158637
858.843	0.0157819
858.921	0.0159102
858.999	0.0157362
859.078	0.0159193
859.156	0.0159510
859.234	0.0157683
859.312	0.0159177
859.390	0.0159617
859.468	0.0156898
859.546	0.0155714
859.624	0.0157446
859.703	0.0158237
859.781	0.0157938
859.859	0.0156964
859.937	0.0158201
860.015	0.0156524
860.093	0.0157381
860.171	0.0156889
860.249	0.0158247
860.328	0.0156987
860.406	0.0158509
860.484	0.0157081
860.562	0.0156521
860.640	0.0158002
860.718	0.0157982
860.796	0.0157991
860.874	0.0157594
860.953	0.0158241
861.031	0.0158953
861.109	0.0160019
861.187	0.0158965
861.265	0.0160094
861.343	0.0158829
861.421	0.0158504
861.499	0.0159002
861.578	0.0159776
861.656	0.0159451
861.734	0.0159002
861.812	0.0159626
861.890	0.0159070
861.968	0.0159513
862.046	0.0159507
862.124	0.0159010
862.203	0.0158307
862.281	0.0159145
862.359	0.0158170
862.437	0.0158229
862.515	0.0157825
862.593	0.0160229
862.671	0.0158691
862.749	0.0158463
862.828	0.0158714
862.906	0.0160533
862.984	0.0159818
863.062	0.0159431
863.140	0.0158909
863.218	0.0160175
863.296	0.0159919
863.374	0.0159303
863.453	0.0159148
863.531	0.0158990
863.609	0.0158713
863.687	0.0159647
863.765	0.0158315
863.843	0.0159466
863.921	0.0158986
863.999	0.0159027
864.078	0.0159451
864.156	0.0160804
864.234	0.0159200
864.312	0.0159505
864.390	0.0161174
864.468	0.0160779
864.546	0.0161190
864.624	0.0161491
864.703	0.0160188
864.781	0.0161042
864.859	0.0160362
864.937	0.0161705
865.015	0.0162373
865.093	0.0161282
865.171	0.0161771
865.249	0.0160055
865.328	0.0160963
865.406	0.0160478
865.484	0.0161855
865.562	0.0161203
865.640	0.0161682
865.718	0.0160668
865.796	0.0160421
865.874	0.0161578
865.953	0.0160806
866.031	0.0161337
866.109	0.0160260
866.187	0.0161713
866.265	0.0160952
866.343	0.0160477
866.421	0.0161624
866.499	0.0160422
866.578	0.0158690
866.656	0.0159541
866.734	0.0159013
866.812	0.0159872
866.890	0.0158219
866.968	0.0159309
867.046	0.0158649
867.124	0.0159545
867.203	0.0160200
867.281	0.0160403
867.359	0.0159136
867.437	0.0159750
867.515	0.0158549
867.593	0.0160320
867.671	0.0160152
867.749	0.0160578
867.828	0.0160287
867.906	0.0160233
867.984	0.0158616
868.062	0.0160606
868.140	0.0160098
868.218	0.0159998
868.296	0.0160636
868.374	0.0160403
868.453	0.0161192
868.531	0.0161040
868.609	0.0160432
868.687	0.0161021
868.765	0.0159749
868.843	0.0160925
868.921	0.0160060
868.999	0.0160048
869.078	0.0160398
869.156	0.0161148
869.234	0.0160062
869.312	0.0161387
869.390	0.0159538
869.468	0.0159363
869.546	0.0161230
869.624	0.0159193
869.703	0.0160918
869.781	0.0160547
869.859	0.0160094
869.937	0.0158910
870.015	0.0160078
870.093	0.0160496
870.171	0.0160434
870.249	0.0160590
870.328	0.0160906
870.406	0.0159805
870.484	0.0161060
870.562	0.0161631
870.640	0.0160435
870.718	0.0161494
870.796	0.0162250
870.874	0.0162397
870.953	0.0161340
871.031	0.0163655
871.109	0.0162931
871.187	0.0162309
871.265	0.0161636
871.343	0.0160261
871.421	0.0161861
871.499	0.0163305
871.578	0.0162637
871.656	0.0161916
871.734	0.0161671
871.812	0.0161846
871.890	0.0161557
871.968	0.0160861
872.046	0.0160568
872.124	0.0162436
872.203	0.0161580
872.281	0.0161513
872.359	0.0161934
872.437	0.0162433
872.515	0.0161833
872.593	0.0160188
872.671	0.0160873
872.749	0.0162059
872.828	0.0160053
872.906	0.0160341
872.984	0.0161324
873.062	0.0159880
873.140	0.0160085
873.218	0.0159612
873.296	0.0159999
873.374	0.0161137
873.453	0.0160128
873.531	0.0159634
873.609	0.0159689
873.687	0.0160284
873.765	0.0161123
873.843	0.0159220
873.921	0.0160531
873.999	0.0160208
874.078	0.0159556
874.156	0.0158804
874.234	0.0159555
874.312	0.0160980
874.390	0.0158921
874.468	0.0160294
874.546	0.0159930
874.624	0.0160610
874.703	0.0159004
874.781	0.0158878
874.859	0.0159658
874.937	0.0160294
875.015	0.0160364
875.093	0.0159673
875.171	0.0159294
875.249	0.0159462
875.328	0.0159652
875.406	0.0159795
875.484	0.0159041
875.562	0.0160442
875.640	0.0158412
875.718	0.0159501
875.796	0.0157787
875.874	0.0157413
875.953	0.0159470
876.031	0.0158047
876.109	0.0158176
876.187	0.0158142
876.265	0.0158054
876.343	0.0156314
876.421	0.0156534
876.499	0.0157887
876.578	0.0157953
876.656	0.0158806
876.734	0.0160149
876.812	0.0158935
876.890	0.0159509
876.968	0.0159054
877.046	0.0159980
877.124	0.0158967
877.203	0.0158716
877.281	0.0159942
877.359	0.0160167
877.437	0.0159887
877.515	0.0160447
877.593	0.0159930
877.671	0.0159398
877.749	0.0159484
877.828	0.0159518
877.906	0.0160604
877.984	0.0161283
878.062	0.0160887
878.140	0.0160449
878.218	0.0160535
878.296	0.0160474
878.374	0.0159094
878.453	0.0160529
878.531	0.0160508
878.609	0.0159832
878.687	0.0158771
878.765	0.0159399
878.843	0.0159357
878.921	0.0158622
878.999	0.0160090
879.078	0.0159081
879.156	0.0159502
879.234	0.0159250
879.312	0.0159078
879.390	0.0158286
879.468	0.0156824
879.546	0.0159564
879.624	0.0160180
879.703	0.0158798
879.781	0.0157127
879.859	0.0158691
879.937	0.0157822
880.015	0.0157983
880.093	0.0158705
880.171	0.0158450
880.249	0.0158327
880.328	0.0158365
880.406	0.0160123
880.484	0.0159700
880.562	0.0158835
880.640	0.0158466
880.718	0.0159718
880.796	0.0158767
880.874	0.0158538
880.953	0.0159442
881.031	0.0158738
881.109	0.0158533
881.187	0.0159235
881.265	0.0158930
881.343	0.0158021
881.421	0.0159028
881.499	0.0158929
881.578	0.0158627
881.656	0.0158101
881.734	0.0159155
881.812	0.0159826
881.890	0.0160335
881.968	0.0158278
882.046	0.0159404
882.124	0.0161163
882.203	0.0160172
882.281	0.0158729
882.359	0.0160737
882.437	0.0160187
882.515	0.0159428
882.593	0.0161446
882.671	0.0160752
882.749	0.0159115
882.828	0.0159464
882.906	0.0160902
882.984	0.0160374
883.062	0.0159586
883.140	0.0158631
883.218	0.0159306
883.296	0.0159024
883.374	0.0157263
883.453	0.0158360
883.531	0.0160131
883.609	0.0159169
883.687	0.0158820
883.765	0.0157489
883.843	0.0159284
883.921	0.0158148
883.999	0.0158735
884.078	0.0158556
884.156	0.0158801
884.234	0.0158372
884.312	0.0158311
884.390	0.0158051
884.468	0.0158620
884.546	0.0159345
884.624	0.0159471
884.703	0.0158121
884.781	0.0158782
884.859	0.0157990
884.937	0.0159173
885.015	0.0158633
885.093	0.0159772
885.171	0.0158086
885.249	0.0157724
885.328	0.0159497
885.406	0.0160029
885.484	0.0158687
885.562	0.0158591
885.640	0.0159057
885.718	0.0159108
885.796	0.0159511
885.874	0.0160124
885.953	0.0158952
886.031	0.0159065
886.109	0.0160918
886.187	0.0159560
886.265	0.0159753
886.343	0.0160329
886.421	0.0159721
886.499	0.0159438
886.578	0.0159339
886.656	0.0159288
886.734	0.0161398
886.812	0.0160394
886.890	0.0160690
886.968	0.0160174
887.046	0.0159614
887.124	0.0161198
887.203	0.0161015
887.281	0.0160390
887.359	0.0160858
887.437	0.0160944
887.515	0.0159653
887.593	0.0161066
887.671	0.0161021
887.749	0.0159022
887.828	0.0159811
887.906	0.0161752
887.984	0.0161790
888.062	0.0160784
888.140	0.0160088
888.218	0.0159716
888.296	0.0162122
888.374	0.0159661
888.453	0.0160681
888.531	0.0161388
888.609	0.0160014
888.687	0.0160369
888.765	0.0159027
888.843	0.0161006
888.921	0.0161536
888.999	0.0161505
889.078	0.0162810
889.156	0.0161296
889.234	0.0159447
889.312	0.0160668
889.390	0.0160211
889.468	0.0161156
889.546	0.0160657
889.624	0.0159411
889.703	0.0160403
889.781	0.0159949
889.859	0.0160026
889.937	0.0160764
890.015	0.0161025
890.093	0.0159875
890.171	0.0161968
890.249	0.0160824
890.328	0.0160236
890.406	0.0161401
890.484	0.0160859
890.562	0.0162055
890.640	0.0160184
890.718	0.0160689
890.796	0.0161043
890.874	0.0161507
890.953	0.0161344
891.031	0.0161124
891.109	0.0160069
891.187	0.0160477
891.265	0.0159600
891.343	0.0159969
891.421	0.0160477
891.499	0.0159447
891.578	0.0160618
891.656	0.0159360
891.734	0.0158858
891.812	0.0159866
891.890	0.0159584
891.968	0.0159641
892.046	0.0159173
892.124	0.0158822
892.203	0.0159624
892.281	0.0159235
892.359	0.0160320
892.437	0.0161298
892.515	0.0160090
892.593	0.0160089
892.671	0.0159207
892.749	0.0159748
892.828	0.0160381
892.906	0.0160712
892.984	0.0159595
893.062	0.0159679
893.140	0.0160579
893.218	0.0160830
893.296	0.0159780
893.374	0.0159165
893.453	0.0160538
893.531	0.0162766
893.609	0.0161861
893.687	0.0162782
893.765	0.0161514
893.843	0.0160873
893.921	0.0161337
893.999	0.0163795
894.078	0.0162425
894.156	0.0162132
894.234	0.0161899
894.312	0.0162740
894.390	0.0160954
894.468	0.0162554
894.546	0.0163457
894.624	0.0161860
894.703	0.0162656
894.781	0.0162086
894.859	0.0162142
894.937	0.0160880
895.015	0.0161581
895.093	0.0163303
895.171	0.0162126
895.249	0.0162370
895.328	0.0161442
895.406	0.0160983
895.484	0.0162057
895.562	0.0161848
895.640	0.0159799
895.718	0.0159773
895.796	0.0161028
895.874	0.0160393
895.953	0.0160611
896.031	0.0158901
896.109	0.0159616
896.187	0.0159591
896.265	0.0158321
896.343	0.0159142
896.421	0.0158249
896.499	0.0158429
896.578	0.0159039
896.656	0.0159885
896.734	0.0159641
896.812	0.0159848
896.890	0.0160108
896.968	0.0159157
897.046	0.0158414
897.124	0.0160583
897.203	0.0160585
897.281	0.0159927
897.359	0.0160214
897.437	0.0159698
897.515	0.0159802
897.593	0.0161849
897.671	0.0161176
897.749	0.0159820
897.828	0.0159187
897.906	0.0160843
897.984	0.0159014
898.062	0.0160490
898.140	0.0161121
898.218	0.0160535
898.296	0.0159956
898.374	0.0159555
898.453	0.0158585
898.531	0.0161040
898.609	0.0159586
898.687	0.0158562
898.765	0.0161230
898.843	0.0158770
898.921	0.0160728
898.999	0.0159794
899.078	0.0159795
899.156	0.0158787
899.234	0.0158564
899.312	0.0158829
899.390	0.0160464
899.468	0.0159249
899.546	0.0159731
899.624	0.0159028
899.703	0.0159418
899.781	0.0158780
899.859	0.0157915
899.937	0.0160223
900.015	0.0160170
900.093	0.0159322
900.171	0.0160540
900.249	0.0160357
900.328	0.0160677
900.406	0.0160027
900.484	0.0161760
900.562	0.0159276
900.640	0.0159862
900.718	0.0160104
900.796	0.0160094
900.874	0.0160760
900.953	0.0160343
901.031	0.0160313
901.109	0.0159002
901.187	0.0158756
901.265	0.0160104
901.343	0.0158699
901.421	0.0158054
901.499	0.0160056
901.578	0.0158087
901.656	0.0158418
901.734	0.0158316
901.812	0.0158337
901.890	0.0158834
901.968	0.0159202
902.046	0.0158710
902.124	0.0159492
902.203	0.0158524
902.281	0.0158498
902.359	0.0159089
902.437	0.0158232
902.515	0.0157941
902.593	0.0157924
902.671	0.0158743
902.749	0.0157165
902.828	0.0158271
902.906	0.0159129
902.984	0.0158635
903.062	0.0159738
903.140	0.0159252
903.218	0.0158053
903.296	0.0157467
903.374	0.0158348
903.453	0.0157343
903.531	0.0160047
903.609	0.0159477
903.687	0.0159080
903.765	0.0157702
903.843	0.0159163
903.921	0.0158714
903.999	0.0159184
904.078	0.0158360
904.156	0.0158789
904.234	0.0159341
904.312	0.0160023
904.390	0.0158999
904.468	0.0158044
904.546	0.0160457
904.624	0.0160545
904.703	0.0159155
904.781	0.0159415
904.859	0.0158363
904.937	0.0159673
905.015	0.0157854
905.093	0.0157856
905.171	0.0158836
905.249	0.0158016
905.328	0.0158331
905.406	0.0157903
905.484	0.0158638
905.562	0.0157906
905.640	0.0159360
905.718	0.0159564
905.796	0.0159281
905.874	0.0159071
905.953	0.0158970
906.031	0.0159925
906.109	0.0160788
906.187	0.0160132
906.265	0.0159327
906.343	0.0159965
906.421	0.0160024
906.499	0.0158616
906.578	0.0158439
906.656	0.0159473
906.734	0.0159619
906.812	0.0159236
906.890	0.0159211
906.968	0.0159219
907.046	0.0158887
907.124	0.0159669
907.203	0.0158425
907.281	0.0158654
907.359	0.0158497
907.437	0.0157757
907.515	0.0159031
907.593	0.0160001
907.671	0.0159003
907.749	0.0157738
907.828	0.0159338
907.906	0.0158894
907.984	0.0158704
908.062	0.0159570
908.140	0.0160258
908.218	0.0157043
908.296	0.0158591
908.374	0.0156111
908.453	0.0158961
908.531	0.0159727
908.609	0.0159978
908.687	0.0159049
908.765	0.0158510
908.843	0.0158380
908.921	0.0158782
908.999	0.0158677
909.078	0.0158379
909.156	0.0160026
909.234	0.0158536
909.312	0.0159106
909.390	0.0160380
909.468	0.0160724
909.546	0.0158868
909.624	0.0158489
909.703	0.0160174
909.781	0.0160880
909.859	0.0162162
909.937	0.0161254
910.015	0.0161683
910.093	0.0161523
910.171	0.0160820
910.249	0.0160491
910.328	0.0160600
910.406	0.0161329
910.484	0.0160575
910.562	0.0160986
910.640	0.0160448
910.718	0.0161877
910.796	0.0160838
910.874	0.0161095
910.953	0.0159632
911.031	0.0160709
911.109	0.0160542
911.187	0.0160941
911.265	0.0161093
911.343	0.0160067
911.421	0.0158699
911.499	0.0160362
911.578	0.0160886
911.656	0.0160426
911.734	0.0160682
911.812	0.0160532
911.890	0.0160254
911.968	0.0160332
912.046	0.0160787
912.124	0.0162827
912.203	0.0160606
912.281	0.0160754
912.359	0.0161139
912.437	0.0160838
912.515	0.0161397
912.593	0.0161696
912.671	0.0161026
912.749	0.0161356
912.828	0.0161030
912.906	0.0159365
912.984	0.0160913
913.062	0.0159789
913.140	0.0159042
913.218	0.0159786
913.296	0.0159965
913.374	0.0159969
913.453	0.0159716
913.531	0.0159790
913.609	0.0159320
913.687	0.0159975
913.765	0.0160520
913.843	0.0160167
913.921	0.0159901
913.999	0.0161513
914.078	0.0162206
914.156	0.0161576
914.234	0.0161837
914.312	0.0160282
914.390	0.0160919
914.468	0.0161826
914.546	0.0162238
914.624	0.0162326
914.703	0.0162229
914.781	0.0162449
914.859	0.0163465
914.937	0.0162841
915.015	0.0161029
915.093	0.0161411
915.171	0.0160736
915.249	0.0161772
915.328	0.0162813
915.406	0.0162693
915.484	0.0161591
915.562	0.0162697
915.640	0.0161734
915.718	0.0161005
915.796	0.0162267
915.874	0.0161717
915.953	0.0162203
916.031	0.0163340
916.109	0.0162098
916.187	0.0159966
916.265	0.0160065
916.343	0.0162291
916.421	0.0163335
916.499	0.0161387
916.578	0.0162337
916.656	0.0162476
916.734	0.0162962
916.812	0.0161669
916.890	0.0162164
916.968	0.0163754
917.046	0.0161868
917.124	0.0161934
917.203	0.0163432
917.281	0.0161530
917.359	0.0161007
917.437	0.0161391
917.515	0.0161940
917.593	0.0163371
917.671	0.0162977
917.749	0.0162011
917.828	0.0162311
917.906	0.0162181
917.984	0.0161938
918.062	0.0161776
918.140	0.0161950
918.218	0.0162848
918.296	0.0162052
918.374	0.0160970
918.453	0.0162726
918.531	0.0162373
918.609	0.0162738
918.687	0.0161084
918.765	0.0162262
918.843	0.0161345
918.921	0.0160665
918.999	0.0161656
919.078	0.0161457
919.156	0.0160517
919.234	0.0161777
919.312	0.0160977
919.390	0.0162028
919.468	0.0162043
919.546	0.0160751
919.624	0.0159944
919.703	0.0159121
919.781	0.0160339
919.859	0.0161900
919.937	0.0160752
