06/10/2022	19:08:51	Ver.	4.1	UNKNOWN
Optical Delay	600.015094	Delta X		0.078125	Sweeps	1	Scan Rate	0/0
Coordinates	Axis 1	NaN	Axis 2	NaN	Axis 3	NaN	Axis 4	NaN	Axis 5	NaN	Axis 6	0.000000
TX Power	0.000000	RX Power	0.000000

600.015	0.0160378
600.093	0.0156777
600.171	0.0156400
600.249	0.0157910
600.328	0.0157428
600.406	0.0159466
600.484	0.0158167
600.562	0.0160651
600.640	0.0160145
600.718	0.0160220
600.796	0.0161171
600.874	0.0161984
600.953	0.0161847
601.031	0.0162737
601.109	0.0161629
601.187	0.0161816
601.265	0.0162708
601.343	0.0163171
601.421	0.0164945
601.499	0.0165134
601.578	0.0162734
601.656	0.0164706
601.734	0.0166853
601.812	0.0165456
601.890	0.0166757
601.968	0.0165855
602.046	0.0166679
602.124	0.0165826
602.203	0.0166151
602.281	0.0167205
602.359	0.0166331
602.437	0.0166975
602.515	0.0166046
602.593	0.0166755
602.671	0.0166822
602.749	0.0166329
602.828	0.0165548
602.906	0.0164573
602.984	0.0166553
603.062	0.0166321
603.140	0.0165138
603.218	0.0164899
603.296	0.0163894
603.374	0.0164463
603.453	0.0164285
603.531	0.0165512
603.609	0.0166846
603.687	0.0165862
603.765	0.0166337
603.843	0.0165777
603.921	0.0166309
603.999	0.0167375
604.078	0.0165304
604.156	0.0165985
604.234	0.0164536
604.312	0.0167301
604.390	0.0166975
604.468	0.0167365
604.546	0.0167667
604.624	0.0166566
604.703	0.0167314
604.781	0.0166048
604.859	0.0166182
604.937	0.0168446
605.015	0.0166514
605.093	0.0165124
605.171	0.0166238
605.249	0.0166805
605.328	0.0167656
605.406	0.0167329
605.484	0.0165310
605.562	0.0165147
605.640	0.0165683
605.718	0.0165388
605.796	0.0165618
605.874	0.0164188
605.953	0.0166239
606.031	0.0165535
606.109	0.0163263
606.187	0.0164935
606.265	0.0164049
606.343	0.0164756
606.421	0.0163054
606.499	0.0163646
606.578	0.0164991
606.656	0.0166033
606.734	0.0165935
606.812	0.0164894
606.890	0.0164992
606.968	0.0166977
607.046	0.0166669
607.124	0.0165926
607.203	0.0166914
607.281	0.0165394
607.359	0.0166376
607.437	0.0166892
607.515	0.0166431
607.593	0.0165299
607.671	0.0166706
607.749	0.0165599
607.828	0.0165212
607.906	0.0166780
607.984	0.0165177
608.062	0.0164761
608.140	0.0165122
608.218	0.0164871
608.296	0.0165126
608.374	0.0165372
608.453	0.0163937
608.531	0.0165598
608.609	0.0164624
608.687	0.0164927
608.765	0.0164880
608.843	0.0164455
608.921	0.0165491
608.999	0.0166441
609.078	0.0164905
609.156	0.0165862
609.234	0.0165900
609.312	0.0165210
609.390	0.0166763
609.468	0.0166766
609.546	0.0165976
609.624	0.0166345
609.703	0.0165795
609.781	0.0167130
609.859	0.0167949
609.937	0.0167528
610.015	0.0166432
610.093	0.0167177
610.171	0.0168646
610.249	0.0168002
610.328	0.0166501
610.406	0.0167522
610.484	0.0167540
610.562	0.0168479
610.640	0.0168854
610.718	0.0169407
610.796	0.0167876
610.874	0.0168670
610.953	0.0167314
611.031	0.0170526
611.109	0.0170027
611.187	0.0170351
611.265	0.0168941
611.343	0.0168978
611.421	0.0169693
611.499	0.0169687
611.578	0.0170041
611.656	0.0169827
611.734	0.0169932
611.812	0.0169106
611.890	0.0168957
611.968	0.0168797
612.046	0.0168773
612.124	0.0168584
612.203	0.0167828
612.281	0.0167732
612.359	0.0168145
612.437	0.0167130
612.515	0.0167929
612.593	0.0166542
612.671	0.0166594
612.749	0.0167117
612.828	0.0166595
612.906	0.0166441
612.984	0.0166840
613.062	0.0166479
613.140	0.0165611
613.218	0.0165717
613.296	0.0166325
613.374	0.0167085
613.453	0.0167796
613.531	0.0165916
613.609	0.0166341
613.687	0.0166539
613.765	0.0166575
613.843	0.0166065
613.921	0.0167125
613.999	0.0167963
614.078	0.0166181
614.156	0.0167217
614.234	0.0166387
614.312	0.0166461
614.390	0.0167384
614.468	0.0165959
614.546	0.0165264
614.624	0.0166222
614.703	0.0166869
614.781	0.0165502
614.859	0.0165775
614.937	0.0165807
615.015	0.0165025
615.093	0.0165189
615.171	0.0164089
615.249	0.0165549
615.328	0.0165471
615.406	0.0164126
615.484	0.0164004
615.562	0.0165132
615.640	0.0165277
615.718	0.0163222
615.796	0.0162846
615.874	0.0162953
615.953	0.0163335
616.031	0.0163609
616.109	0.0161909
616.187	0.0162199
616.265	0.0163318
616.343	0.0162722
616.421	0.0161797
616.499	0.0161717
616.578	0.0161633
616.656	0.0160705
616.734	0.0160597
616.812	0.0160532
616.890	0.0161632
616.968	0.0159116
617.046	0.0159834
617.124	0.0160656
617.203	0.0159648
617.281	0.0159829
617.359	0.0159577
617.437	0.0159888
617.515	0.0160963
617.593	0.0160637
617.671	0.0160804
617.749	0.0160519
617.828	0.0160887
617.906	0.0161295
617.984	0.0161079
618.062	0.0162067
618.140	0.0163248
618.218	0.0161310
618.296	0.0163070
618.374	0.0163657
618.453	0.0163446
618.531	0.0163015
618.609	0.0163364
618.687	0.0164752
618.765	0.0164661
618.843	0.0164928
618.921	0.0164944
618.999	0.0164360
619.078	0.0165034
619.156	0.0163778
619.234	0.0165505
619.312	0.0166299
619.390	0.0165176
619.468	0.0165455
619.546	0.0167111
619.624	0.0166274
619.703	0.0165404
619.781	0.0165780
619.859	0.0165443
619.937	0.0164985
620.015	0.0165628
620.093	0.0164935
620.171	0.0164877
620.249	0.0165946
620.328	0.0165813
620.406	0.0166004
620.484	0.0164963
620.562	0.0166313
620.640	0.0165048
620.718	0.0163966
620.796	0.0163689
620.874	0.0163292
620.953	0.0164645
621.031	0.0165546
621.109	0.0163766
621.187	0.0163084
621.265	0.0163899
621.343	0.0163197
621.421	0.0163763
621.499	0.0163811
621.578	0.0163241
621.656	0.0162613
621.734	0.0161913
621.812	0.0162906
621.890	0.0162816
621.968	0.0160812
622.046	0.0162332
622.124	0.0162018
622.203	0.0162723
622.281	0.0162657
622.359	0.0161325
622.437	0.0162212
622.515	0.0161918
622.593	0.0161520
622.671	0.0161195
622.749	0.0160702
622.828	0.0160758
622.906	0.0159648
622.984	0.0161943
623.062	0.0162130
623.140	0.0162401
623.218	0.0161414
623.296	0.0161757
623.374	0.0162272
623.453	0.0161784
623.531	0.0162723
623.609	0.0162923
623.687	0.0163298
623.765	0.0163435
623.843	0.0161900
623.921	0.0162644
623.999	0.0164043
624.078	0.0163803
624.156	0.0163217
624.234	0.0162653
624.312	0.0164001
624.390	0.0163680
624.468	0.0162491
624.546	0.0163213
624.624	0.0163377
624.703	0.0163004
624.781	0.0163150
624.859	0.0162491
624.937	0.0162328
625.015	0.0162305
625.093	0.0162955
625.171	0.0164258
625.249	0.0164016
625.328	0.0162979
625.406	0.0162432
625.484	0.0161979
625.562	0.0163031
625.640	0.0164179
625.718	0.0161952
625.796	0.0163577
625.874	0.0164172
625.953	0.0163001
626.031	0.0164261
626.109	0.0163515
626.187	0.0162576
626.265	0.0164623
626.343	0.0165025
626.421	0.0163988
626.499	0.0164897
626.578	0.0165915
626.656	0.0165582
626.734	0.0164421
626.812	0.0165503
626.890	0.0165885
626.968	0.0166290
627.046	0.0167771
627.124	0.0165321
627.203	0.0165321
627.281	0.0165593
627.359	0.0164957
627.437	0.0166469
627.515	0.0166192
627.593	0.0165690
627.671	0.0165130
627.749	0.0166308
627.828	0.0166903
627.906	0.0165707
627.984	0.0166075
628.062	0.0165684
628.140	0.0165434
628.218	0.0166161
628.296	0.0167570
628.374	0.0165389
628.453	0.0165179
628.531	0.0166728
628.609	0.0167058
628.687	0.0167361
628.765	0.0167084
628.843	0.0167381
628.921	0.0166409
628.999	0.0166200
629.078	0.0167529
629.156	0.0167257
629.234	0.0167976
629.312	0.0167368
629.390	0.0167315
629.468	0.0167924
629.546	0.0168898
629.624	0.0169712
629.703	0.0168415
629.781	0.0169283
629.859	0.0169083
629.937	0.0169620
630.015	0.0169248
630.093	0.0169803
630.171	0.0170737
630.249	0.0171155
630.328	0.0171212
630.406	0.0170954
630.484	0.0169140
630.562	0.0171658
630.640	0.0169004
630.718	0.0169338
630.796	0.0170547
630.874	0.0170697
630.953	0.0169363
631.031	0.0169404
631.109	0.0169701
631.187	0.0167933
631.265	0.0170226
631.343	0.0168806
631.421	0.0168405
631.499	0.0168362
631.578	0.0168378
631.656	0.0166674
631.734	0.0168131
631.812	0.0168453
631.890	0.0166705
631.968	0.0168285
632.046	0.0167680
632.124	0.0166956
632.203	0.0168378
632.281	0.0166376
632.359	0.0166882
632.437	0.0168081
632.515	0.0166711
632.593	0.0165340
632.671	0.0167039
632.749	0.0166840
632.828	0.0167242
632.906	0.0168556
632.984	0.0166573
633.062	0.0166039
633.140	0.0166190
633.218	0.0166618
633.296	0.0167882
633.374	0.0166969
633.453	0.0168226
633.531	0.0167261
633.609	0.0167393
633.687	0.0168237
633.765	0.0166083
633.843	0.0167379
633.921	0.0167372
633.999	0.0168021
634.078	0.0166045
634.156	0.0165591
634.234	0.0166435
634.312	0.0166902
634.390	0.0167446
634.468	0.0167501
634.546	0.0166756
634.624	0.0166761
634.703	0.0166251
634.781	0.0166111
634.859	0.0167020
634.937	0.0166905
635.015	0.0166473
635.093	0.0166888
635.171	0.0166376
635.249	0.0165567
635.328	0.0166427
635.406	0.0166654
635.484	0.0164185
635.562	0.0165841
635.640	0.0165904
635.718	0.0165014
635.796	0.0165495
635.874	0.0166491
635.953	0.0165244
636.031	0.0164886
636.109	0.0165282
636.187	0.0164929
636.265	0.0166801
636.343	0.0164732
636.421	0.0165762
636.499	0.0165397
636.578	0.0165398
636.656	0.0166407
636.734	0.0166264
636.812	0.0165716
636.890	0.0165910
636.968	0.0166276
637.046	0.0166538
637.124	0.0165240
637.203	0.0164524
637.281	0.0165785
637.359	0.0166158
637.437	0.0166219
637.515	0.0165349
637.593	0.0164275
637.671	0.0165517
637.749	0.0165401
637.828	0.0165784
637.906	0.0165140
637.984	0.0165787
638.062	0.0164268
638.140	0.0164323
638.218	0.0163490
638.296	0.0162736
638.374	0.0162915
638.453	0.0163332
638.531	0.0164069
638.609	0.0162695
638.687	0.0163930
638.765	0.0163628
638.843	0.0162909
638.921	0.0164243
638.999	0.0163017
639.078	0.0163004
639.156	0.0164151
639.234	0.0164234
639.312	0.0163160
639.390	0.0162675
639.468	0.0163281
639.546	0.0162915
639.624	0.0162221
639.703	0.0162657
639.781	0.0163605
639.859	0.0162935
639.937	0.0163595
640.015	0.0164229
640.093	0.0162571
640.171	0.0163651
640.249	0.0162712
640.328	0.0163900
640.406	0.0162833
640.484	0.0162675
640.562	0.0162836
640.640	0.0163445
640.718	0.0163926
640.796	0.0163930
640.874	0.0162935
640.953	0.0163329
641.031	0.0163354
641.109	0.0164162
641.187	0.0163648
641.265	0.0163457
641.343	0.0163412
641.421	0.0163866
641.499	0.0163740
641.578	0.0163538
641.656	0.0165745
641.734	0.0165309
641.812	0.0164879
641.890	0.0163802
641.968	0.0163857
642.046	0.0166323
642.124	0.0166002
642.203	0.0165682
642.281	0.0165626
642.359	0.0163934
642.437	0.0165704
642.515	0.0165518
642.593	0.0165266
642.671	0.0164781
642.749	0.0166045
642.828	0.0164146
642.906	0.0164893
642.984	0.0164408
643.062	0.0163551
643.140	0.0164760
643.218	0.0164580
643.296	0.0165829
643.374	0.0165225
643.453	0.0163921
643.531	0.0165245
643.609	0.0165680
643.687	0.0165141
643.765	0.0165929
643.843	0.0166257
643.921	0.0166328
643.999	0.0167072
644.078	0.0167222
644.156	0.0165984
644.234	0.0166073
644.312	0.0167932
644.390	0.0167282
644.468	0.0166811
644.546	0.0166690
644.624	0.0167684
644.703	0.0168198
644.781	0.0167138
644.859	0.0168864
644.937	0.0168669
645.015	0.0168793
645.093	0.0170187
645.171	0.0168011
645.249	0.0168485
645.328	0.0167548
645.406	0.0167408
645.484	0.0167947
645.562	0.0168124
645.640	0.0168352
645.718	0.0167881
645.796	0.0166698
645.874	0.0166489
645.953	0.0167587
646.031	0.0166795
646.109	0.0166788
646.187	0.0165069
646.265	0.0166534
646.343	0.0166181
646.421	0.0165530
646.499	0.0166254
646.578	0.0166663
646.656	0.0165228
646.734	0.0165343
646.812	0.0166748
646.890	0.0166200
646.968	0.0163410
647.046	0.0164751
647.124	0.0166077
647.203	0.0164260
647.281	0.0163505
647.359	0.0164923
647.437	0.0165079
647.515	0.0164785
647.593	0.0163469
647.671	0.0164584
647.749	0.0165047
647.828	0.0163557
647.906	0.0162920
647.984	0.0164580
648.062	0.0164265
648.140	0.0162047
648.218	0.0163360
648.296	0.0164595
648.374	0.0163804
648.453	0.0164480
648.531	0.0164771
648.609	0.0164932
648.687	0.0163736
648.765	0.0164201
648.843	0.0164013
648.921	0.0163727
648.999	0.0164120
649.078	0.0165329
649.156	0.0164048
649.234	0.0163725
649.312	0.0164662
649.390	0.0163341
649.468	0.0165060
649.546	0.0164029
649.624	0.0164548
649.703	0.0163868
649.781	0.0164007
649.859	0.0163632
649.937	0.0164311
650.015	0.0164182
650.093	0.0165523
650.171	0.0164016
650.249	0.0165816
650.328	0.0164351
650.406	0.0163594
650.484	0.0164272
650.562	0.0166312
650.640	0.0164697
650.718	0.0166235
650.796	0.0165735
650.874	0.0165238
650.953	0.0166830
651.031	0.0165086
651.109	0.0164890
651.187	0.0164630
651.265	0.0165783
651.343	0.0166042
651.421	0.0165735
651.499	0.0164568
651.578	0.0164020
651.656	0.0166325
651.734	0.0165684
651.812	0.0166718
651.890	0.0166261
651.968	0.0166084
652.046	0.0165082
652.124	0.0165456
652.203	0.0166320
652.281	0.0167810
652.359	0.0167046
652.437	0.0165978
652.515	0.0167593
652.593	0.0167587
652.671	0.0166531
652.749	0.0166814
652.828	0.0167459
652.906	0.0167936
652.984	0.0168228
653.062	0.0169820
653.140	0.0167348
653.218	0.0166570
653.296	0.0167171
653.374	0.0168566
653.453	0.0166644
653.531	0.0167426
653.609	0.0167823
653.687	0.0167954
653.765	0.0168563
653.843	0.0166509
653.921	0.0167832
653.999	0.0168315
654.078	0.0168014
654.156	0.0166614
654.234	0.0168251
654.312	0.0168198
654.390	0.0168835
654.468	0.0169165
654.546	0.0168963
654.624	0.0167332
654.703	0.0168235
654.781	0.0168472
654.859	0.0169904
654.937	0.0169244
655.015	0.0169402
655.093	0.0169648
655.171	0.0169984
655.249	0.0168311
655.328	0.0171738
655.406	0.0171374
655.484	0.0170452
655.562	0.0170248
655.640	0.0170164
655.718	0.0169752
655.796	0.0169382
655.874	0.0169519
655.953	0.0169704
656.031	0.0169849
656.109	0.0169718
656.187	0.0169124
656.265	0.0169833
656.343	0.0170139
656.421	0.0169204
656.499	0.0168339
656.578	0.0168935
656.656	0.0168621
656.734	0.0167889
656.812	0.0167564
656.890	0.0168537
656.968	0.0167350
657.046	0.0165945
657.124	0.0166468
657.203	0.0166666
657.281	0.0166505
657.359	0.0166277
657.437	0.0165719
657.515	0.0164979
657.593	0.0164562
657.671	0.0163572
657.749	0.0163605
657.828	0.0165891
657.906	0.0165614
657.984	0.0164202
658.062	0.0165147
658.140	0.0164407
658.218	0.0163736
658.296	0.0164841
658.374	0.0163737
658.453	0.0162025
658.531	0.0163541
658.609	0.0162952
658.687	0.0161626
658.765	0.0162932
658.843	0.0163532
658.921	0.0162528
658.999	0.0162573
659.078	0.0163161
659.156	0.0162749
659.234	0.0162543
659.312	0.0163201
659.390	0.0163514
659.468	0.0163310
659.546	0.0162843
659.624	0.0163190
659.703	0.0163361
659.781	0.0162872
659.859	0.0162283
659.937	0.0163066
660.015	0.0163293
660.093	0.0163564
660.171	0.0163220
660.249	0.0163674
660.328	0.0163973
660.406	0.0162900
660.484	0.0163941
660.562	0.0164148
660.640	0.0164831
660.718	0.0164658
660.796	0.0164142
660.874	0.0163312
660.953	0.0163804
661.031	0.0164160
661.109	0.0164728
661.187	0.0163280
661.265	0.0163377
661.343	0.0162790
661.421	0.0163148
661.499	0.0162996
661.578	0.0164576
661.656	0.0164400
661.734	0.0165144
661.812	0.0164030
661.890	0.0163736
661.968	0.0164860
662.046	0.0163212
662.124	0.0164291
662.203	0.0164246
662.281	0.0165220
662.359	0.0163298
662.437	0.0163288
662.515	0.0164634
662.593	0.0163103
662.671	0.0163354
662.749	0.0165882
662.828	0.0164426
662.906	0.0163792
662.984	0.0163535
663.062	0.0164867
663.140	0.0163721
663.218	0.0164804
663.296	0.0165552
663.374	0.0164561
663.453	0.0163182
663.531	0.0164320
663.609	0.0164268
663.687	0.0165273
663.765	0.0165224
663.843	0.0163863
663.921	0.0166026
663.999	0.0163773
664.078	0.0164081
664.156	0.0163097
664.234	0.0164055
664.312	0.0165187
664.390	0.0165181
664.468	0.0164881
664.546	0.0164147
664.624	0.0166027
664.703	0.0165455
664.781	0.0165974
664.859	0.0166351
664.937	0.0166599
665.015	0.0165626
665.093	0.0165922
665.171	0.0165164
665.249	0.0165314
665.328	0.0165789
665.406	0.0166250
665.484	0.0167896
665.562	0.0166228
665.640	0.0166446
665.718	0.0165990
665.796	0.0166006
665.874	0.0165978
665.953	0.0166619
666.031	0.0167912
666.109	0.0168021
666.187	0.0167782
666.265	0.0166151
666.343	0.0166852
666.421	0.0167696
666.499	0.0166582
666.578	0.0165274
666.656	0.0166409
666.734	0.0166242
666.812	0.0165719
666.890	0.0165691
666.968	0.0165060
667.046	0.0165177
667.124	0.0165583
667.203	0.0166013
667.281	0.0163388
667.359	0.0165440
667.437	0.0166329
667.515	0.0164859
667.593	0.0165694
667.671	0.0164115
667.749	0.0164984
667.828	0.0165246
667.906	0.0165304
667.984	0.0166988
668.062	0.0165707
668.140	0.0164873
668.218	0.0165936
668.296	0.0164959
668.374	0.0163966
668.453	0.0164690
668.531	0.0165008
668.609	0.0164706
668.687	0.0165336
668.765	0.0165150
668.843	0.0165292
668.921	0.0164806
668.999	0.0164196
669.078	0.0164392
669.156	0.0165250
669.234	0.0164458
669.312	0.0163387
669.390	0.0164242
669.468	0.0164038
669.546	0.0164640
669.624	0.0163574
669.703	0.0163908
669.781	0.0163873
669.859	0.0164382
669.937	0.0164062
670.015	0.0166140
670.093	0.0165071
670.171	0.0163602
670.249	0.0163858
670.328	0.0164539
670.406	0.0164732
670.484	0.0163248
670.562	0.0163918
670.640	0.0164375
670.718	0.0165994
670.796	0.0164998
670.874	0.0165847
670.953	0.0164422
671.031	0.0163828
671.109	0.0165073
671.187	0.0164091
671.265	0.0163245
671.343	0.0164363
671.421	0.0165196
671.499	0.0165710
671.578	0.0164729
671.656	0.0163985
671.734	0.0164239
671.812	0.0163857
671.890	0.0164668
671.968	0.0165814
672.046	0.0164539
672.124	0.0163118
672.203	0.0164920
672.281	0.0163934
672.359	0.0164361
672.437	0.0163628
672.515	0.0165131
672.593	0.0165247
672.671	0.0166267
672.749	0.0166521
672.828	0.0165909
672.906	0.0164366
672.984	0.0165718
673.062	0.0165897
673.140	0.0166427
673.218	0.0166525
673.296	0.0165139
673.374	0.0165656
673.453	0.0165866
673.531	0.0165771
673.609	0.0165351
673.687	0.0167602
673.765	0.0165532
673.843	0.0165627
673.921	0.0166784
673.999	0.0164488
674.078	0.0164662
674.156	0.0165283
674.234	0.0165218
674.312	0.0164980
674.390	0.0165279
674.468	0.0166386
674.546	0.0166066
674.624	0.0165462
674.703	0.0165276
674.781	0.0164669
674.859	0.0164814
674.937	0.0164761
675.015	0.0165385
675.093	0.0164927
675.171	0.0166121
675.249	0.0165079
675.328	0.0166547
675.406	0.0165244
675.484	0.0165555
675.562	0.0166234
675.640	0.0166115
675.718	0.0166068
675.796	0.0166184
675.874	0.0165426
675.953	0.0166254
676.031	0.0166998
676.109	0.0165312
676.187	0.0166492
676.265	0.0165437
676.343	0.0165077
676.421	0.0166677
676.499	0.0165570
676.578	0.0166464
676.656	0.0167051
676.734	0.0165641
676.812	0.0165608
676.890	0.0166279
676.968	0.0164714
677.046	0.0166852
677.124	0.0165472
677.203	0.0166072
677.281	0.0166853
677.359	0.0165202
677.437	0.0165777
677.515	0.0166435
677.593	0.0166060
677.671	0.0164655
677.749	0.0165239
677.828	0.0166855
677.906	0.0166292
677.984	0.0167635
678.062	0.0165977
678.140	0.0166180
678.218	0.0165504
678.296	0.0165511
678.374	0.0166095
678.453	0.0166536
678.531	0.0166540
678.609	0.0167504
678.687	0.0166079
678.765	0.0166165
678.843	0.0166298
678.921	0.0165281
678.999	0.0166272
679.078	0.0167679
679.156	0.0165584
679.234	0.0167649
679.312	0.0166602
679.390	0.0167198
679.468	0.0166078
679.546	0.0166286
679.624	0.0166112
679.703	0.0166547
679.781	0.0165980
679.859	0.0166059
679.937	0.0165872
680.015	0.0166592
680.093	0.0165733
680.171	0.0166256
680.249	0.0165716
680.328	0.0165622
680.406	0.0166240
680.484	0.0166683
680.562	0.0166081
680.640	0.0165341
680.718	0.0167863
680.796	0.0167056
680.874	0.0165717
680.953	0.0165736
681.031	0.0165569
681.109	0.0165741
681.187	0.0164930
681.265	0.0164950
681.343	0.0165858
681.421	0.0165932
681.499	0.0166196
681.578	0.0166040
681.656	0.0165401
681.734	0.0167506
681.812	0.0166138
681.890	0.0165762
681.968	0.0165924
682.046	0.0164669
682.124	0.0165022
682.203	0.0165869
682.281	0.0165608
682.359	0.0164603
682.437	0.0166316
682.515	0.0165007
682.593	0.0164484
682.671	0.0165495
682.749	0.0164383
682.828	0.0164379
682.906	0.0163891
682.984	0.0165774
683.062	0.0163963
683.140	0.0163640
683.218	0.0164121
683.296	0.0164182
683.374	0.0165452
683.453	0.0164850
683.531	0.0163035
683.609	0.0163779
683.687	0.0165192
683.765	0.0162872
683.843	0.0164066
683.921	0.0164311
683.999	0.0164825
684.078	0.0164627
684.156	0.0164639
684.234	0.0162417
684.312	0.0164600
684.390	0.0164190
684.468	0.0163792
684.546	0.0164146
684.624	0.0164726
684.703	0.0164583
684.781	0.0163828
684.859	0.0163838
684.937	0.0163560
685.015	0.0164833
685.093	0.0164263
685.171	0.0163507
685.249	0.0162964
685.328	0.0164848
685.406	0.0164606
685.484	0.0164361
685.562	0.0163502
685.640	0.0164902
685.718	0.0164526
685.796	0.0162101
685.874	0.0165225
685.953	0.0163953
686.031	0.0164619
686.109	0.0163834
686.187	0.0164339
686.265	0.0165637
686.343	0.0163828
686.421	0.0164353
686.499	0.0163898
686.578	0.0165328
686.656	0.0164555
686.734	0.0165195
686.812	0.0165969
686.890	0.0166324
686.968	0.0164717
687.046	0.0164869
687.124	0.0165058
687.203	0.0167406
687.281	0.0166487
687.359	0.0166154
687.437	0.0167532
687.515	0.0165677
687.593	0.0166039
687.671	0.0166403
687.749	0.0167831
687.828	0.0166357
687.906	0.0166082
687.984	0.0165507
688.062	0.0167673
688.140	0.0167068
688.218	0.0166205
688.296	0.0167269
688.374	0.0167545
688.453	0.0166747
688.531	0.0166666
688.609	0.0166859
688.687	0.0167268
688.765	0.0168690
688.843	0.0167142
688.921	0.0167326
688.999	0.0166216
689.078	0.0166541
689.156	0.0167031
689.234	0.0165110
689.312	0.0166658
689.390	0.0165925
689.468	0.0165372
689.546	0.0166401
689.624	0.0166486
689.703	0.0165736
689.781	0.0166853
689.859	0.0166689
689.937	0.0164512
690.015	0.0165720
690.093	0.0167577
690.171	0.0165525
690.249	0.0165360
690.328	0.0165330
690.406	0.0165893
690.484	0.0165697
690.562	0.0165488
690.640	0.0165990
690.718	0.0165927
690.796	0.0165441
690.874	0.0165311
690.953	0.0165480
691.031	0.0164497
691.109	0.0165526
691.187	0.0164532
691.265	0.0164452
691.343	0.0164890
691.421	0.0163323
691.499	0.0165435
691.578	0.0164789
691.656	0.0165214
691.734	0.0165265
691.812	0.0163587
691.890	0.0164189
691.968	0.0165440
692.046	0.0164808
692.124	0.0165587
692.203	0.0166354
692.281	0.0164791
692.359	0.0166127
692.437	0.0165211
692.515	0.0166084
692.593	0.0165630
692.671	0.0166993
692.749	0.0167066
692.828	0.0164849
692.906	0.0165656
692.984	0.0165516
693.062	0.0165675
693.140	0.0165739
693.218	0.0167294
693.296	0.0165534
693.374	0.0165162
693.453	0.0165968
693.531	0.0164373
693.609	0.0164887
693.687	0.0164709
693.765	0.0163894
693.843	0.0164417
693.921	0.0164893
693.999	0.0165896
694.078	0.0164721
694.156	0.0163345
694.234	0.0164188
694.312	0.0162303
694.390	0.0165286
694.468	0.0165495
694.546	0.0165427
694.624	0.0164146
694.703	0.0164129
694.781	0.0164709
694.859	0.0164775
694.937	0.0163557
695.015	0.0163718
695.093	0.0164806
695.171	0.0166002
695.249	0.0165012
695.328	0.0164091
695.406	0.0164581
695.484	0.0164986
695.562	0.0163876
695.640	0.0164513
695.718	0.0165345
695.796	0.0164764
695.874	0.0163572
695.953	0.0165751
696.031	0.0164859
696.109	0.0164908
696.187	0.0164963
696.265	0.0163986
696.343	0.0165718
696.421	0.0165522
696.499	0.0163183
696.578	0.0164183
696.656	0.0163113
696.734	0.0163866
696.812	0.0162966
696.890	0.0163565
696.968	0.0164276
697.046	0.0162843
697.124	0.0164610
697.203	0.0162946
697.281	0.0163360
697.359	0.0163444
697.437	0.0163566
697.515	0.0163663
697.593	0.0164466
697.671	0.0162476
697.749	0.0163152
697.828	0.0163661
697.906	0.0162946
697.984	0.0161772
698.062	0.0162362
698.140	0.0161754
698.218	0.0163167
698.296	0.0163696
698.374	0.0162974
698.453	0.0163234
698.531	0.0164041
698.609	0.0163276
698.687	0.0164337
698.765	0.0163040
698.843	0.0165359
698.921	0.0164488
698.999	0.0163869
699.078	0.0163844
699.156	0.0166146
699.234	0.0163863
699.312	0.0165044
699.390	0.0165810
699.468	0.0164817
699.546	0.0164141
699.624	0.0165874
699.703	0.0164581
699.781	0.0163697
699.859	0.0164860
699.937	0.0166195
700.015	0.0164031
700.093	0.0164353
700.171	0.0165294
700.249	0.0165066
700.328	0.0163591
700.406	0.0165091
700.484	0.0164817
700.562	0.0164507
700.640	0.0164532
700.718	0.0164622
700.796	0.0165140
700.874	0.0166344
700.953	0.0164329
701.031	0.0165255
701.109	0.0166116
701.187	0.0165678
701.265	0.0165384
701.343	0.0164267
701.421	0.0164683
701.499	0.0164323
701.578	0.0165421
701.656	0.0164558
701.734	0.0164439
701.812	0.0165619
701.890	0.0165562
701.968	0.0164185
702.046	0.0165021
702.124	0.0165965
702.203	0.0165657
702.281	0.0165910
702.359	0.0166454
702.437	0.0167192
702.515	0.0166518
702.593	0.0166501
702.671	0.0166535
702.749	0.0166093
702.828	0.0167165
702.906	0.0165630
702.984	0.0167305
703.062	0.0166892
703.140	0.0165566
703.218	0.0167070
703.296	0.0167045
703.374	0.0166776
703.453	0.0166198
703.531	0.0166444
703.609	0.0165936
703.687	0.0165589
703.765	0.0165631
703.843	0.0166240
703.921	0.0166637
703.999	0.0168050
704.078	0.0167043
704.156	0.0166503
704.234	0.0166727
704.312	0.0166129
704.390	0.0168446
704.468	0.0166699
704.546	0.0168018
704.624	0.0168028
704.703	0.0168929
704.781	0.0169006
704.859	0.0167106
704.937	0.0167306
705.015	0.0169018
705.093	0.0167863
705.171	0.0167244
705.249	0.0167005
705.328	0.0167567
705.406	0.0166555
705.484	0.0166647
705.562	0.0167433
705.640	0.0165545
705.718	0.0166974
705.796	0.0165797
705.874	0.0164980
705.953	0.0166434
706.031	0.0166292
706.109	0.0165457
706.187	0.0165752
706.265	0.0167329
706.343	0.0165947
706.421	0.0165186
706.499	0.0166834
706.578	0.0165616
706.656	0.0165679
706.734	0.0165067
706.812	0.0165490
706.890	0.0166765
706.968	0.0164259
707.046	0.0165923
707.124	0.0166605
707.203	0.0166524
707.281	0.0165967
707.359	0.0165222
707.437	0.0167435
707.515	0.0165859
707.593	0.0167565
707.671	0.0166041
707.749	0.0165776
707.828	0.0165915
707.906	0.0168409
707.984	0.0165816
708.062	0.0166218
708.140	0.0167033
708.218	0.0166843
708.296	0.0165149
708.374	0.0166849
708.453	0.0167478
708.531	0.0166390
708.609	0.0167139
708.687	0.0166495
708.765	0.0165343
708.843	0.0166050
708.921	0.0164815
708.999	0.0165952
709.078	0.0167182
709.156	0.0166766
709.234	0.0164541
709.312	0.0165664
709.390	0.0166172
709.468	0.0164417
709.546	0.0166524
709.624	0.0166341
709.703	0.0165269
709.781	0.0164417
709.859	0.0165281
709.937	0.0166799
710.015	0.0165510
710.093	0.0166769
710.171	0.0166138
710.249	0.0166409
710.328	0.0165908
710.406	0.0166383
710.484	0.0167016
710.562	0.0167812
710.640	0.0167241
710.718	0.0165198
710.796	0.0168233
710.874	0.0168182
710.953	0.0168249
711.031	0.0168022
711.109	0.0168799
711.187	0.0169202
711.265	0.0167908
711.343	0.0167590
711.421	0.0167228
711.499	0.0167457
711.578	0.0167055
711.656	0.0168162
711.734	0.0168453
711.812	0.0167934
711.890	0.0167627
711.968	0.0165963
712.046	0.0166501
712.124	0.0167848
712.203	0.0166564
712.281	0.0166255
712.359	0.0166695
712.437	0.0167064
712.515	0.0167374
712.593	0.0166470
712.671	0.0166968
712.749	0.0166432
712.828	0.0166107
712.906	0.0165345
712.984	0.0167867
713.062	0.0166510
713.140	0.0167355
713.218	0.0166397
713.296	0.0166245
713.374	0.0165486
713.453	0.0165588
713.531	0.0167110
713.609	0.0166687
713.687	0.0164938
713.765	0.0163770
713.843	0.0164051
713.921	0.0165409
713.999	0.0164468
714.078	0.0165452
714.156	0.0165479
714.234	0.0162569
714.312	0.0164877
714.390	0.0165059
714.468	0.0163406
714.546	0.0165929
714.624	0.0165439
714.703	0.0164043
714.781	0.0164152
714.859	0.0164890
714.937	0.0164379
715.015	0.0165369
715.093	0.0164988
715.171	0.0164653
715.249	0.0163727
715.328	0.0164131
715.406	0.0164405
715.484	0.0163946
715.562	0.0163578
715.640	0.0164922
715.718	0.0164398
715.796	0.0164555
715.874	0.0164386
715.953	0.0163679
716.031	0.0162525
716.109	0.0164347
716.187	0.0164345
716.265	0.0163785
716.343	0.0162605
716.421	0.0164867
716.499	0.0163543
716.578	0.0163992
716.656	0.0164043
716.734	0.0163772
716.812	0.0164013
716.890	0.0163243
716.968	0.0162295
717.046	0.0163820
717.124	0.0163627
717.203	0.0164010
717.281	0.0163184
717.359	0.0164958
717.437	0.0164352
717.515	0.0165016
717.593	0.0164535
717.671	0.0163848
717.749	0.0164563
717.828	0.0165379
717.906	0.0164799
717.984	0.0165105
718.062	0.0164991
718.140	0.0166308
718.218	0.0164921
718.296	0.0165633
718.374	0.0166279
718.453	0.0165512
718.531	0.0165079
718.609	0.0166361
718.687	0.0166416
718.765	0.0167419
718.843	0.0167797
718.921	0.0166053
718.999	0.0166969
719.078	0.0166839
719.156	0.0165549
719.234	0.0167867
719.312	0.0166560
719.390	0.0166910
719.468	0.0165927
719.546	0.0164143
719.624	0.0164898
719.703	0.0166364
719.781	0.0165096
719.859	0.0164986
719.937	0.0163787
720.015	0.0163399
720.093	0.0165241
720.171	0.0164435
720.249	0.0163020
720.328	0.0162820
720.406	0.0163836
720.484	0.0163917
720.562	0.0162479
720.640	0.0163490
720.718	0.0163715
720.796	0.0164017
720.874	0.0163368
720.953	0.0163358
721.031	0.0161849
721.109	0.0163297
721.187	0.0163579
721.265	0.0163651
721.343	0.0162978
721.421	0.0163444
721.499	0.0164071
721.578	0.0163728
721.656	0.0163748
721.734	0.0164160
721.812	0.0163954
721.890	0.0163228
721.968	0.0164110
722.046	0.0165417
722.124	0.0165414
722.203	0.0164323
722.281	0.0164061
722.359	0.0165476
722.437	0.0165630
722.515	0.0163705
722.593	0.0164700
722.671	0.0165044
722.749	0.0162760
722.828	0.0165322
722.906	0.0164297
722.984	0.0163864
723.062	0.0163861
723.140	0.0163703
723.218	0.0163699
723.296	0.0162957
723.374	0.0164143
723.453	0.0163207
723.531	0.0165099
723.609	0.0163064
723.687	0.0162982
723.765	0.0164077
723.843	0.0163834
723.921	0.0165657
723.999	0.0164180
724.078	0.0161689
724.156	0.0164186
724.234	0.0163416
724.312	0.0165709
724.390	0.0165090
724.468	0.0163833
724.546	0.0163116
724.624	0.0164381
724.703	0.0164809
724.781	0.0163424
724.859	0.0164830
724.937	0.0164758
725.015	0.0165069
725.093	0.0165077
725.171	0.0164925
725.249	0.0165446
725.328	0.0165092
725.406	0.0166461
725.484	0.0165483
725.562	0.0166322
725.640	0.0165525
725.718	0.0166148
725.796	0.0166937
725.874	0.0165759
725.953	0.0166370
726.031	0.0165625
726.109	0.0166180
726.187	0.0165688
726.265	0.0167673
726.343	0.0166898
726.421	0.0166584
726.499	0.0167407
726.578	0.0166570
726.656	0.0167595
726.734	0.0166775
726.812	0.0166785
726.890	0.0166778
726.968	0.0167123
727.046	0.0166917
727.124	0.0166824
727.203	0.0166001
727.281	0.0166253
727.359	0.0166293
727.437	0.0166393
727.515	0.0166720
727.593	0.0167849
727.671	0.0166569
727.749	0.0167624
727.828	0.0167275
727.906	0.0166437
727.984	0.0166434
728.062	0.0167965
728.140	0.0165870
728.218	0.0165876
728.296	0.0168150
728.374	0.0166943
728.453	0.0167065
728.531	0.0167552
728.609	0.0167123
728.687	0.0167069
728.765	0.0165965
728.843	0.0165569
728.921	0.0164325
728.999	0.0166264
729.078	0.0167240
729.156	0.0164400
729.234	0.0168072
729.312	0.0167448
729.390	0.0165862
729.468	0.0166219
729.546	0.0166801
729.624	0.0165215
729.703	0.0164853
729.781	0.0165166
729.859	0.0165794
729.937	0.0165455
730.015	0.0166476
730.093	0.0166131
730.171	0.0166318
730.249	0.0166347
730.328	0.0166210
730.406	0.0165841
730.484	0.0166189
730.562	0.0166338
730.640	0.0165306
730.718	0.0165733
730.796	0.0165944
730.874	0.0165642
730.953	0.0164244
731.031	0.0164063
731.109	0.0164917
731.187	0.0164309
731.265	0.0163654
731.343	0.0163625
731.421	0.0164722
731.499	0.0164898
731.578	0.0163882
731.656	0.0164099
731.734	0.0164051
731.812	0.0162437
731.890	0.0162496
731.968	0.0162554
732.046	0.0162365
732.124	0.0163341
732.203	0.0162636
732.281	0.0161974
732.359	0.0164420
732.437	0.0164714
732.515	0.0162057
732.593	0.0163446
732.671	0.0163234
732.749	0.0162240
732.828	0.0164065
732.906	0.0162975
732.984	0.0162650
733.062	0.0162656
733.140	0.0164215
733.218	0.0164598
733.296	0.0163636
733.374	0.0164676
733.453	0.0164136
733.531	0.0164352
733.609	0.0164610
733.687	0.0164759
733.765	0.0163108
733.843	0.0163667
733.921	0.0165540
733.999	0.0166087
734.078	0.0163641
734.156	0.0162979
734.234	0.0165649
734.312	0.0167063
734.390	0.0165588
734.468	0.0165623
734.546	0.0165484
734.624	0.0165300
734.703	0.0163982
734.781	0.0164181
734.859	0.0166010
734.937	0.0166177
735.015	0.0163957
735.093	0.0164246
735.171	0.0165417
735.249	0.0164603
735.328	0.0164899
735.406	0.0166061
735.484	0.0165003
735.562	0.0165739
735.640	0.0163787
735.718	0.0163941
735.796	0.0166060
735.874	0.0164237
735.953	0.0164398
736.031	0.0163976
736.109	0.0165144
736.187	0.0164141
736.265	0.0166296
736.343	0.0164915
736.421	0.0164314
736.499	0.0164355
736.578	0.0164111
736.656	0.0165178
736.734	0.0164867
736.812	0.0165034
736.890	0.0165122
736.968	0.0164352
737.046	0.0165028
737.124	0.0164850
737.203	0.0165577
737.281	0.0165340
737.359	0.0164936
737.437	0.0164900
737.515	0.0163677
737.593	0.0165029
737.671	0.0165598
737.749	0.0165324
737.828	0.0164095
737.906	0.0164911
737.984	0.0165566
738.062	0.0163307
738.140	0.0164034
738.218	0.0165018
738.296	0.0165338
738.374	0.0165498
738.453	0.0163910
738.531	0.0164400
738.609	0.0164191
738.687	0.0163935
738.765	0.0164090
738.843	0.0165118
738.921	0.0164479
738.999	0.0163310
739.078	0.0164351
739.156	0.0163086
739.234	0.0163923
739.312	0.0165209
739.390	0.0165720
739.468	0.0164445
739.546	0.0163979
739.624	0.0163155
739.703	0.0164507
739.781	0.0164462
739.859	0.0164002
739.937	0.0163949
740.015	0.0163698
740.093	0.0164058
740.171	0.0165026
740.249	0.0163547
740.328	0.0163737
740.406	0.0164506
740.484	0.0163508
740.562	0.0163574
740.640	0.0163647
740.718	0.0163609
740.796	0.0162937
740.874	0.0162323
740.953	0.0164584
741.031	0.0164213
741.109	0.0163359
741.187	0.0164537
741.265	0.0163019
741.343	0.0162473
741.421	0.0162595
741.499	0.0164359
741.578	0.0163779
741.656	0.0164050
741.734	0.0163755
741.812	0.0162269
741.890	0.0162268
741.968	0.0164072
742.046	0.0163416
742.124	0.0162961
742.203	0.0162307
742.281	0.0161800
742.359	0.0164215
742.437	0.0162715
742.515	0.0163306
742.593	0.0162519
742.671	0.0163345
742.749	0.0163241
742.828	0.0162611
742.906	0.0163043
742.984	0.0163019
743.062	0.0163194
743.140	0.0162988
743.218	0.0163868
743.296	0.0163316
743.374	0.0162708
743.453	0.0164080
743.531	0.0165092
743.609	0.0164749
743.687	0.0164041
743.765	0.0163100
743.843	0.0163831
743.921	0.0164765
743.999	0.0165203
744.078	0.0165730
744.156	0.0164552
744.234	0.0164873
744.312	0.0165096
744.390	0.0165970
744.468	0.0165112
744.546	0.0166129
744.624	0.0165404
744.703	0.0166463
744.781	0.0166818
744.859	0.0166173
744.937	0.0165778
745.015	0.0167057
745.093	0.0166553
745.171	0.0166460
745.249	0.0166296
745.328	0.0166637
745.406	0.0167357
745.484	0.0166323
745.562	0.0165688
745.640	0.0166936
745.718	0.0167002
745.796	0.0165182
745.874	0.0166335
745.953	0.0165693
746.031	0.0166780
746.109	0.0165211
746.187	0.0163092
746.265	0.0165070
746.343	0.0166825
746.421	0.0166225
746.499	0.0164928
746.578	0.0166737
746.656	0.0165314
746.734	0.0163769
746.812	0.0164352
746.890	0.0165236
746.968	0.0166018
747.046	0.0164234
747.124	0.0165641
747.203	0.0165463
747.281	0.0166313
747.359	0.0165773
747.437	0.0165233
747.515	0.0164388
747.593	0.0165793
747.671	0.0166506
747.749	0.0164387
747.828	0.0165150
747.906	0.0166762
747.984	0.0165590
748.062	0.0163892
748.140	0.0164716
748.218	0.0166214
748.296	0.0165383
748.374	0.0164660
748.453	0.0165215
748.531	0.0166117
748.609	0.0165049
748.687	0.0166117
748.765	0.0164104
748.843	0.0164386
748.921	0.0164252
748.999	0.0164145
749.078	0.0164115
749.156	0.0164540
749.234	0.0164732
749.312	0.0164219
749.390	0.0164376
749.468	0.0166502
749.546	0.0165173
749.624	0.0164639
749.703	0.0165916
749.781	0.0165257
749.859	0.0165871
749.937	0.0166008
750.015	0.0166640
750.093	0.0165639
750.171	0.0164973
750.249	0.0167268
750.328	0.0166708
750.406	0.0166428
750.484	0.0166962
750.562	0.0167286
750.640	0.0166950
750.718	0.0166094
750.796	0.0165837
750.874	0.0166677
750.953	0.0165497
751.031	0.0166519
751.109	0.0165620
751.187	0.0166502
751.265	0.0166999
751.343	0.0166598
751.421	0.0165887
751.499	0.0165249
751.578	0.0164491
751.656	0.0165415
751.734	0.0164330
751.812	0.0164901
751.890	0.0165782
751.968	0.0164290
752.046	0.0165425
752.124	0.0164693
752.203	0.0165198
752.281	0.0164911
752.359	0.0165400
752.437	0.0164979
752.515	0.0164589
752.593	0.0163818
752.671	0.0166667
752.749	0.0164713
752.828	0.0164954
752.906	0.0166804
752.984	0.0165031
753.062	0.0165335
753.140	0.0165060
753.218	0.0164851
753.296	0.0165108
753.374	0.0166662
753.453	0.0166375
753.531	0.0166475
753.609	0.0164700
753.687	0.0165911
753.765	0.0165693
753.843	0.0165073
753.921	0.0164421
753.999	0.0164350
754.078	0.0164768
754.156	0.0164937
754.234	0.0166059
754.312	0.0164921
754.390	0.0164431
754.468	0.0164208
754.546	0.0164736
754.624	0.0164819
754.703	0.0164066
754.781	0.0163712
754.859	0.0165575
754.937	0.0163544
755.015	0.0164343
755.093	0.0164326
755.171	0.0164629
755.249	0.0164754
755.328	0.0165154
755.406	0.0164045
755.484	0.0164354
755.562	0.0164241
755.640	0.0164027
755.718	0.0163925
755.796	0.0164632
755.874	0.0166073
755.953	0.0165187
756.031	0.0164747
756.109	0.0164936
756.187	0.0165026
756.265	0.0164754
756.343	0.0165980
756.421	0.0166226
756.499	0.0165719
756.578	0.0164172
756.656	0.0165063
756.734	0.0165185
756.812	0.0164589
756.890	0.0164049
756.968	0.0166104
757.046	0.0165806
757.124	0.0165830
757.203	0.0163311
757.281	0.0165701
757.359	0.0165677
757.437	0.0163888
757.515	0.0165280
757.593	0.0164781
757.671	0.0164165
757.749	0.0163818
757.828	0.0164541
757.906	0.0164349
757.984	0.0163393
758.062	0.0164284
758.140	0.0163851
758.218	0.0164758
758.296	0.0163940
758.374	0.0164435
758.453	0.0163722
758.531	0.0163602
758.609	0.0164190
758.687	0.0163805
758.765	0.0164665
758.843	0.0165276
758.921	0.0163058
758.999	0.0163078
759.078	0.0163358
759.156	0.0164186
759.234	0.0163477
759.312	0.0162659
759.390	0.0163549
759.468	0.0164919
759.546	0.0163964
759.624	0.0163970
759.703	0.0161340
759.781	0.0162175
759.859	0.0164095
759.937	0.0163470
760.015	0.0163316
760.093	0.0161604
760.171	0.0161108
760.249	0.0162404
760.328	0.0162624
760.406	0.0162180
760.484	0.0162056
760.562	0.0163423
760.640	0.0163143
760.718	0.0164204
760.796	0.0165341
760.874	0.0163360
760.953	0.0165021
761.031	0.0165058
761.109	0.0165397
761.187	0.0164330
761.265	0.0164128
761.343	0.0163948
761.421	0.0164037
761.499	0.0164222
761.578	0.0164749
761.656	0.0164372
761.734	0.0165522
761.812	0.0165619
761.890	0.0164422
761.968	0.0165042
762.046	0.0163918
762.124	0.0162949
762.203	0.0164469
762.281	0.0163609
762.359	0.0163711
762.437	0.0163187
762.515	0.0163543
762.593	0.0162932
762.671	0.0164987
762.749	0.0165118
762.828	0.0163357
762.906	0.0163338
762.984	0.0162689
763.062	0.0163059
763.140	0.0163914
763.218	0.0163036
763.296	0.0163988
763.374	0.0164053
763.453	0.0162782
763.531	0.0163377
763.609	0.0163979
763.687	0.0163061
763.765	0.0164521
763.843	0.0163201
763.921	0.0163486
763.999	0.0162563
764.078	0.0164251
764.156	0.0164938
764.234	0.0163551
764.312	0.0162297
764.390	0.0163062
764.468	0.0163391
764.546	0.0164503
764.624	0.0164123
764.703	0.0162329
764.781	0.0163512
764.859	0.0163086
764.937	0.0164204
765.015	0.0164360
765.093	0.0164650
765.171	0.0164484
765.249	0.0165995
765.328	0.0163770
765.406	0.0164269
765.484	0.0165082
765.562	0.0163830
765.640	0.0165530
765.718	0.0165536
765.796	0.0165297
765.874	0.0166763
765.953	0.0165494
766.031	0.0164497
766.109	0.0166212
766.187	0.0165080
766.265	0.0163818
766.343	0.0164743
766.421	0.0164150
766.499	0.0165165
766.578	0.0164996
766.656	0.0165103
766.734	0.0165295
766.812	0.0166711
766.890	0.0166490
766.968	0.0166127
767.046	0.0166386
767.124	0.0166763
767.203	0.0166499
767.281	0.0166128
767.359	0.0166043
767.437	0.0167262
767.515	0.0167531
767.593	0.0167636
767.671	0.0167230
767.749	0.0169350
767.828	0.0169211
767.906	0.0168528
767.984	0.0167474
768.062	0.0168644
768.140	0.0168252
768.218	0.0167744
768.296	0.0168709
768.374	0.0167714
768.453	0.0166980
768.531	0.0169341
768.609	0.0168870
768.687	0.0167503
768.765	0.0166609
768.843	0.0165779
768.921	0.0167128
768.999	0.0167526
769.078	0.0165374
769.156	0.0166721
769.234	0.0166126
769.312	0.0165836
769.390	0.0166319
769.468	0.0165363
769.546	0.0165403
769.624	0.0164983
769.703	0.0165711
769.781	0.0164073
769.859	0.0164726
769.937	0.0165368
770.015	0.0166602
770.093	0.0164600
770.171	0.0164645
770.249	0.0165779
770.328	0.0164044
770.406	0.0164727
770.484	0.0164851
770.562	0.0164536
770.640	0.0164100
770.718	0.0164017
770.796	0.0163760
770.874	0.0164251
770.953	0.0163032
771.031	0.0164854
771.109	0.0163666
771.187	0.0162843
771.265	0.0161698
771.343	0.0163988
771.421	0.0164866
771.499	0.0164735
771.578	0.0162891
771.656	0.0165157
771.734	0.0165332
771.812	0.0165212
771.890	0.0165047
771.968	0.0165638
772.046	0.0164802
772.124	0.0166257
772.203	0.0164828
772.281	0.0165842
772.359	0.0166982
772.437	0.0166203
772.515	0.0166099
772.593	0.0165270
772.671	0.0163808
772.749	0.0166761
772.828	0.0166433
772.906	0.0166998
772.984	0.0164245
773.062	0.0163924
773.140	0.0164391
773.218	0.0165088
773.296	0.0166119
773.374	0.0164021
773.453	0.0165078
773.531	0.0164751
773.609	0.0164811
773.687	0.0165372
773.765	0.0165845
773.843	0.0165361
773.921	0.0166349
773.999	0.0166056
774.078	0.0165217
774.156	0.0165168
774.234	0.0166096
774.312	0.0166071
774.390	0.0164594
774.468	0.0165939
774.546	0.0165339
774.624	0.0167036
774.703	0.0166850
774.781	0.0165292
774.859	0.0165730
774.937	0.0167004
775.015	0.0166940
775.093	0.0166581
775.171	0.0165146
775.249	0.0165949
775.328	0.0165612
775.406	0.0166886
775.484	0.0165824
775.562	0.0165946
775.640	0.0168423
775.718	0.0167169
775.796	0.0165549
775.874	0.0166522
775.953	0.0166807
776.031	0.0166607
776.109	0.0167352
776.187	0.0168307
776.265	0.0166338
776.343	0.0166875
776.421	0.0165812
776.499	0.0166470
776.578	0.0167010
776.656	0.0166262
776.734	0.0166833
776.812	0.0166406
776.890	0.0167101
776.968	0.0167184
777.046	0.0165047
777.124	0.0167358
777.203	0.0167457
777.281	0.0165597
777.359	0.0166491
777.437	0.0166161
777.515	0.0166999
777.593	0.0164232
777.671	0.0166805
777.749	0.0166776
777.828	0.0166632
777.906	0.0166711
777.984	0.0165862
778.062	0.0166810
778.140	0.0167348
778.218	0.0166387
778.296	0.0165940
778.374	0.0166257
778.453	0.0167982
778.531	0.0167201
778.609	0.0166522
778.687	0.0168333
778.765	0.0168006
778.843	0.0166223
778.921	0.0167187
778.999	0.0167328
779.078	0.0167525
779.156	0.0167568
779.234	0.0166409
779.312	0.0167075
779.390	0.0166562
779.468	0.0167110
779.546	0.0166104
779.624	0.0166979
779.703	0.0165816
779.781	0.0166083
779.859	0.0166363
779.937	0.0165201
780.015	0.0165073
780.093	0.0165286
780.171	0.0167073
780.249	0.0164996
780.328	0.0165268
780.406	0.0165186
780.484	0.0165529
780.562	0.0165695
780.640	0.0167374
780.718	0.0164036
780.796	0.0165948
780.874	0.0164374
780.953	0.0163245
781.031	0.0164404
781.109	0.0165771
781.187	0.0163873
781.265	0.0164049
781.343	0.0163701
781.421	0.0163629
781.499	0.0165093
781.578	0.0163660
781.656	0.0165088
781.734	0.0165137
781.812	0.0165540
781.890	0.0164280
781.968	0.0165094
782.046	0.0165495
782.124	0.0164697
782.203	0.0165150
782.281	0.0166661
782.359	0.0165587
782.437	0.0165054
782.515	0.0165943
782.593	0.0165627
782.671	0.0164383
782.749	0.0165463
782.828	0.0166756
782.906	0.0164875
782.984	0.0165533
783.062	0.0164264
783.140	0.0163765
783.218	0.0164825
783.296	0.0165492
783.374	0.0164737
783.453	0.0164053
783.531	0.0165310
783.609	0.0165370
783.687	0.0164126
783.765	0.0163280
783.843	0.0165073
783.921	0.0163865
783.999	0.0164547
784.078	0.0162862
784.156	0.0164040
784.234	0.0163620
784.312	0.0164292
784.390	0.0164471
784.468	0.0163548
784.546	0.0164595
784.624	0.0163622
784.703	0.0163445
784.781	0.0161939
784.859	0.0163365
784.937	0.0163512
785.015	0.0162465
785.093	0.0163521
785.171	0.0163321
785.249	0.0162911
785.328	0.0162047
785.406	0.0163543
785.484	0.0164034
785.562	0.0163672
785.640	0.0162758
785.718	0.0164838
785.796	0.0164436
785.874	0.0164839
785.953	0.0163728
786.031	0.0164337
786.109	0.0165471
786.187	0.0165186
786.265	0.0165261
786.343	0.0165437
786.421	0.0166411
786.499	0.0165549
786.578	0.0164866
786.656	0.0166317
786.734	0.0165151
786.812	0.0165461
786.890	0.0166266
786.968	0.0165921
787.046	0.0166625
787.124	0.0166618
787.203	0.0166034
787.281	0.0165424
787.359	0.0165650
787.437	0.0165840
787.515	0.0165507
787.593	0.0166518
787.671	0.0165424
787.749	0.0165816
787.828	0.0166314
787.906	0.0167401
787.984	0.0166642
788.062	0.0165499
788.140	0.0165677
788.218	0.0166206
788.296	0.0167147
788.374	0.0166069
788.453	0.0167178
788.531	0.0166846
788.609	0.0168132
788.687	0.0167677
788.765	0.0166985
788.843	0.0168748
788.921	0.0168464
788.999	0.0168268
789.078	0.0166343
789.156	0.0168437
789.234	0.0167362
789.312	0.0165855
789.390	0.0167040
789.468	0.0168034
789.546	0.0167419
789.624	0.0166061
789.703	0.0167253
789.781	0.0167048
789.859	0.0167388
789.937	0.0166409
790.015	0.0167078
790.093	0.0167898
790.171	0.0166702
790.249	0.0168787
790.328	0.0167046
790.406	0.0168114
790.484	0.0167849
790.562	0.0168700
790.640	0.0169183
790.718	0.0168530
790.796	0.0166922
790.874	0.0168585
790.953	0.0167428
791.031	0.0166122
791.109	0.0167564
791.187	0.0166893
791.265	0.0166278
791.343	0.0164965
791.421	0.0167032
791.499	0.0167200
791.578	0.0164727
791.656	0.0164881
791.734	0.0165778
791.812	0.0167050
791.890	0.0165447
791.968	0.0165506
792.046	0.0165491
792.124	0.0164486
792.203	0.0165423
792.281	0.0165618
792.359	0.0166193
792.437	0.0165368
792.515	0.0165462
792.593	0.0165537
792.671	0.0166296
792.749	0.0164259
792.828	0.0165980
792.906	0.0166101
792.984	0.0165331
793.062	0.0166112
793.140	0.0165919
793.218	0.0165720
793.296	0.0166371
793.374	0.0165662
793.453	0.0165161
793.531	0.0164729
793.609	0.0163689
793.687	0.0166512
793.765	0.0165435
793.843	0.0164735
793.921	0.0164714
793.999	0.0164516
794.078	0.0164345
794.156	0.0165430
794.234	0.0164141
794.312	0.0164108
794.390	0.0163905
794.468	0.0164117
794.546	0.0166488
794.624	0.0164711
794.703	0.0163990
794.781	0.0164794
794.859	0.0165962
794.937	0.0165015
795.015	0.0164972
795.093	0.0165319
795.171	0.0164909
795.249	0.0165457
795.328	0.0165832
795.406	0.0165181
795.484	0.0165411
795.562	0.0164905
795.640	0.0164779
795.718	0.0164436
795.796	0.0163892
795.874	0.0163071
795.953	0.0164582
796.031	0.0165593
796.109	0.0165675
796.187	0.0163769
796.265	0.0163407
796.343	0.0163618
796.421	0.0163364
796.499	0.0163923
796.578	0.0164748
796.656	0.0164841
796.734	0.0165069
796.812	0.0164955
796.890	0.0163839
796.968	0.0165177
797.046	0.0165481
797.124	0.0164439
797.203	0.0165966
797.281	0.0166070
797.359	0.0164523
797.437	0.0164954
797.515	0.0165075
797.593	0.0164493
797.671	0.0164190
797.749	0.0163499
797.828	0.0164935
797.906	0.0163592
797.984	0.0165156
798.062	0.0164761
798.140	0.0164685
798.218	0.0165192
798.296	0.0165508
798.374	0.0166206
798.453	0.0166114
798.531	0.0166886
798.609	0.0166570
798.687	0.0166884
798.765	0.0166676
798.843	0.0166114
798.921	0.0168505
798.999	0.0167020
799.078	0.0167004
799.156	0.0167004
799.234	0.0167316
799.312	0.0167204
799.390	0.0167941
799.468	0.0168393
799.546	0.0167139
799.624	0.0165511
799.703	0.0166913
799.781	0.0168417
799.859	0.0167460
799.937	0.0167043
800.015	0.0165851
800.093	0.0166750
800.171	0.0168745
800.249	0.0167204
800.328	0.0166329
800.406	0.0165211
800.484	0.0165849
800.562	0.0165805
800.640	0.0166197
800.718	0.0164342
800.796	0.0165567
800.874	0.0165687
800.953	0.0164712
801.031	0.0165490
801.109	0.0164909
801.187	0.0164334
801.265	0.0166052
801.343	0.0165422
801.421	0.0164673
801.499	0.0164970
801.578	0.0164565
801.656	0.0163728
801.734	0.0164860
801.812	0.0165191
801.890	0.0164481
801.968	0.0165856
802.046	0.0164413
802.124	0.0165823
802.203	0.0164666
802.281	0.0164928
802.359	0.0165485
802.437	0.0166364
802.515	0.0165667
802.593	0.0166438
802.671	0.0166209
802.749	0.0165642
802.828	0.0165802
802.906	0.0165481
802.984	0.0165579
803.062	0.0165951
803.140	0.0164339
803.218	0.0164108
803.296	0.0165509
803.374	0.0165195
803.453	0.0165862
803.531	0.0165895
803.609	0.0163234
803.687	0.0164356
803.765	0.0164211
803.843	0.0163511
803.921	0.0164220
803.999	0.0164176
804.078	0.0164061
804.156	0.0162495
804.234	0.0162693
804.312	0.0163975
804.390	0.0162666
804.468	0.0164452
804.546	0.0163243
804.624	0.0163344
804.703	0.0163658
804.781	0.0163606
804.859	0.0162449
804.937	0.0162229
805.015	0.0162572
805.093	0.0163041
805.171	0.0162163
805.249	0.0162698
805.328	0.0163047
805.406	0.0163797
805.484	0.0161979
805.562	0.0162872
805.640	0.0163730
805.718	0.0162652
805.796	0.0162992
805.874	0.0162978
805.953	0.0162683
806.031	0.0161909
806.109	0.0162617
806.187	0.0162577
806.265	0.0162548
806.343	0.0164081
806.421	0.0162025
806.499	0.0161734
806.578	0.0162788
806.656	0.0162529
806.734	0.0162635
806.812	0.0162574
806.890	0.0164736
806.968	0.0163203
807.046	0.0162102
807.124	0.0163553
807.203	0.0163439
807.281	0.0163404
807.359	0.0164285
807.437	0.0163642
807.515	0.0161478
807.593	0.0161916
807.671	0.0162486
807.749	0.0163480
807.828	0.0162809
807.906	0.0162528
807.984	0.0162754
808.062	0.0163071
808.140	0.0161546
808.218	0.0162082
808.296	0.0162859
808.374	0.0164283
808.453	0.0163520
808.531	0.0162759
808.609	0.0163448
808.687	0.0163988
808.765	0.0165036
808.843	0.0164435
808.921	0.0164779
808.999	0.0165787
809.078	0.0164191
809.156	0.0165781
809.234	0.0166203
809.312	0.0166361
809.390	0.0167480
809.468	0.0167023
809.546	0.0166761
809.624	0.0165750
809.703	0.0167173
809.781	0.0168126
809.859	0.0168492
809.937	0.0167062
810.015	0.0168359
810.093	0.0168091
810.171	0.0168431
810.249	0.0167124
810.328	0.0167266
810.406	0.0167313
810.484	0.0165427
810.562	0.0168303
810.640	0.0168182
810.718	0.0166114
810.796	0.0166702
810.874	0.0166735
810.953	0.0166064
811.031	0.0167318
811.109	0.0165977
811.187	0.0166470
811.265	0.0166212
811.343	0.0165998
811.421	0.0166280
811.499	0.0165500
811.578	0.0167307
811.656	0.0166062
811.734	0.0165621
811.812	0.0166148
811.890	0.0166553
811.968	0.0166217
812.046	0.0166751
812.124	0.0165141
812.203	0.0164191
812.281	0.0164645
812.359	0.0165070
812.437	0.0166167
812.515	0.0165746
812.593	0.0164115
812.671	0.0165774
812.749	0.0164874
812.828	0.0165448
812.906	0.0166330
812.984	0.0166029
813.062	0.0166351
813.140	0.0166512
813.218	0.0166576
813.296	0.0165889
813.374	0.0166623
813.453	0.0165182
813.531	0.0166409
813.609	0.0166051
813.687	0.0165558
813.765	0.0165473
813.843	0.0166222
813.921	0.0164829
813.999	0.0164491
814.078	0.0164871
814.156	0.0164582
814.234	0.0166855
814.312	0.0166091
814.390	0.0166061
814.468	0.0166570
814.546	0.0166861
814.624	0.0166525
814.703	0.0166546
814.781	0.0166885
814.859	0.0166279
814.937	0.0165228
815.015	0.0166244
815.093	0.0166114
815.171	0.0164730
815.249	0.0165063
815.328	0.0164862
815.406	0.0164322
815.484	0.0165427
815.562	0.0164224
815.640	0.0164967
815.718	0.0164322
815.796	0.0164689
815.874	0.0163843
815.953	0.0165055
816.031	0.0163280
816.109	0.0165019
816.187	0.0165575
816.265	0.0164886
816.343	0.0164780
816.421	0.0163349
816.499	0.0165777
816.578	0.0164076
816.656	0.0164375
816.734	0.0162923
816.812	0.0162891
816.890	0.0164426
816.968	0.0164798
817.046	0.0164378
817.124	0.0163467
817.203	0.0162984
817.281	0.0164935
817.359	0.0164140
817.437	0.0164165
817.515	0.0164791
817.593	0.0164571
817.671	0.0164097
817.749	0.0163550
817.828	0.0165139
817.906	0.0163645
817.984	0.0164957
818.062	0.0166370
818.140	0.0164505
818.218	0.0164532
818.296	0.0166576
818.374	0.0166529
818.453	0.0165170
818.531	0.0165636
818.609	0.0167245
818.687	0.0165308
818.765	0.0165454
818.843	0.0165637
818.921	0.0167078
818.999	0.0166945
819.078	0.0168135
819.156	0.0165823
819.234	0.0165096
819.312	0.0167611
819.390	0.0165466
819.468	0.0166777
819.546	0.0167695
819.624	0.0166981
819.703	0.0167691
819.781	0.0167637
819.859	0.0168084
819.937	0.0166486
820.015	0.0168127
820.093	0.0168508
820.171	0.0167617
820.249	0.0167037
820.328	0.0166815
820.406	0.0166248
820.484	0.0166571
820.562	0.0166685
820.640	0.0166100
820.718	0.0166068
820.796	0.0165824
820.874	0.0166557
820.953	0.0165622
821.031	0.0165725
821.109	0.0165952
821.187	0.0165988
821.265	0.0166316
821.343	0.0165774
821.421	0.0164819
821.499	0.0166207
821.578	0.0167051
821.656	0.0166207
821.734	0.0166165
821.812	0.0165903
821.890	0.0166219
821.968	0.0165232
822.046	0.0165397
822.124	0.0164502
822.203	0.0165427
822.281	0.0164812
822.359	0.0163357
822.437	0.0164344
822.515	0.0163818
822.593	0.0163496
822.671	0.0163293
822.749	0.0164110
822.828	0.0164478
822.906	0.0164930
822.984	0.0164264
823.062	0.0164708
823.140	0.0164355
823.218	0.0164394
823.296	0.0164424
823.374	0.0165269
823.453	0.0165381
823.531	0.0165714
823.609	0.0166945
823.687	0.0164685
823.765	0.0166197
823.843	0.0165267
823.921	0.0166018
823.999	0.0165593
824.078	0.0163331
824.156	0.0164568
824.234	0.0165618
824.312	0.0164542
824.390	0.0166187
824.468	0.0164942
824.546	0.0165501
824.624	0.0162717
824.703	0.0164861
824.781	0.0164584
824.859	0.0164681
824.937	0.0162442
825.015	0.0163247
825.093	0.0164368
825.171	0.0163956
825.249	0.0163867
825.328	0.0164175
825.406	0.0163804
825.484	0.0164101
825.562	0.0164712
825.640	0.0163383
825.718	0.0163654
825.796	0.0163804
825.874	0.0162291
825.953	0.0163861
826.031	0.0162482
826.109	0.0161327
826.187	0.0162988
826.265	0.0163022
826.343	0.0162099
826.421	0.0162152
826.499	0.0161562
826.578	0.0161611
826.656	0.0162590
826.734	0.0161935
826.812	0.0161319
826.890	0.0162347
826.968	0.0161955
827.046	0.0161579
827.124	0.0162003
827.203	0.0163134
827.281	0.0160732
827.359	0.0162080
827.437	0.0162682
827.515	0.0162496
827.593	0.0162321
827.671	0.0162553
827.749	0.0164149
827.828	0.0164382
827.906	0.0164265
827.984	0.0163870
828.062	0.0165627
828.140	0.0164031
828.218	0.0164530
828.296	0.0163825
828.374	0.0163649
828.453	0.0164423
828.531	0.0164740
828.609	0.0164658
828.687	0.0164666
828.765	0.0163749
828.843	0.0162987
828.921	0.0163496
828.999	0.0163997
829.078	0.0162609
829.156	0.0162991
829.234	0.0164223
829.312	0.0163228
829.390	0.0162903
829.468	0.0163448
829.546	0.0162457
829.624	0.0163783
829.703	0.0163015
829.781	0.0161826
829.859	0.0162971
829.937	0.0162748
830.015	0.0162715
830.093	0.0163122
830.171	0.0161908
830.249	0.0162669
830.328	0.0163798
830.406	0.0164568
830.484	0.0164070
830.562	0.0164773
830.640	0.0163668
830.718	0.0162944
830.796	0.0163017
830.874	0.0164096
830.953	0.0162903
831.031	0.0163578
831.109	0.0165237
831.187	0.0164825
831.265	0.0164474
831.343	0.0163084
831.421	0.0164884
831.499	0.0164861
831.578	0.0163474
831.656	0.0163699
831.734	0.0163605
831.812	0.0164921
831.890	0.0166156
831.968	0.0163672
832.046	0.0163439
832.124	0.0164069
832.203	0.0163700
832.281	0.0162360
832.359	0.0163033
832.437	0.0164127
832.515	0.0163040
832.593	0.0162296
832.671	0.0163094
832.749	0.0163400
832.828	0.0165204
832.906	0.0164489
832.984	0.0164672
833.062	0.0164268
833.140	0.0165234
833.218	0.0164211
833.296	0.0164915
833.374	0.0164513
833.453	0.0166144
833.531	0.0165095
833.609	0.0166222
833.687	0.0165326
833.765	0.0165516
833.843	0.0166788
833.921	0.0167147
833.999	0.0165988
834.078	0.0166074
834.156	0.0165664
834.234	0.0165083
834.312	0.0164748
834.390	0.0166272
834.468	0.0166879
834.546	0.0165659
834.624	0.0166000
834.703	0.0163165
834.781	0.0166300
834.859	0.0166354
834.937	0.0164814
835.015	0.0163593
835.093	0.0165411
835.171	0.0165144
835.249	0.0164720
835.328	0.0166251
835.406	0.0166517
835.484	0.0166054
835.562	0.0164868
835.640	0.0165666
835.718	0.0165378
835.796	0.0165885
835.874	0.0164761
835.953	0.0165365
836.031	0.0165308
836.109	0.0163911
836.187	0.0165962
836.265	0.0166867
836.343	0.0165978
836.421	0.0166424
836.499	0.0167184
836.578	0.0167193
836.656	0.0165739
836.734	0.0166212
836.812	0.0165939
836.890	0.0165044
836.968	0.0164736
837.046	0.0164698
837.124	0.0164281
837.203	0.0164070
837.281	0.0163158
837.359	0.0164236
837.437	0.0164578
837.515	0.0164937
837.593	0.0164127
837.671	0.0163445
837.749	0.0164762
837.828	0.0163954
837.906	0.0165627
837.984	0.0165696
838.062	0.0164778
838.140	0.0165737
838.218	0.0165340
838.296	0.0165537
838.374	0.0165680
838.453	0.0164719
838.531	0.0163771
838.609	0.0164547
838.687	0.0165542
838.765	0.0163779
838.843	0.0164870
838.921	0.0165343
838.999	0.0164530
839.078	0.0163840
839.156	0.0165879
839.234	0.0165540
839.312	0.0165192
839.390	0.0164354
839.468	0.0167358
839.546	0.0167380
839.624	0.0166287
839.703	0.0164172
839.781	0.0165729
839.859	0.0164714
839.937	0.0165980
840.015	0.0165404
840.093	0.0165331
840.171	0.0166048
840.249	0.0165530
840.328	0.0165298
840.406	0.0165633
840.484	0.0167259
840.562	0.0166884
840.640	0.0165391
840.718	0.0164605
840.796	0.0165952
840.874	0.0166607
840.953	0.0165724
841.031	0.0165285
841.109	0.0165372
841.187	0.0166019
841.265	0.0165474
841.343	0.0165754
841.421	0.0166333
841.499	0.0167297
841.578	0.0166220
841.656	0.0167072
841.734	0.0167024
841.812	0.0165672
841.890	0.0167828
841.968	0.0169423
842.046	0.0167647
842.124	0.0166974
842.203	0.0167314
842.281	0.0168184
842.359	0.0167504
842.437	0.0166564
842.515	0.0167519
842.593	0.0167083
842.671	0.0165392
842.749	0.0166158
842.828	0.0166737
842.906	0.0166444
842.984	0.0165867
843.062	0.0167093
843.140	0.0164891
843.218	0.0167372
843.296	0.0166712
843.374	0.0166346
843.453	0.0165676
843.531	0.0167342
843.609	0.0166324
843.687	0.0165929
843.765	0.0166720
843.843	0.0166500
843.921	0.0166587
843.999	0.0165743
844.078	0.0165362
844.156	0.0166647
844.234	0.0165486
844.312	0.0165411
844.390	0.0165709
844.468	0.0165562
844.546	0.0167007
844.624	0.0163116
844.703	0.0164689
844.781	0.0165632
844.859	0.0165401
844.937	0.0164621
845.015	0.0164961
845.093	0.0165102
845.171	0.0165125
845.249	0.0167609
845.328	0.0166207
845.406	0.0166657
845.484	0.0165222
845.562	0.0166930
845.640	0.0166898
845.718	0.0166656
845.796	0.0166701
845.874	0.0166084
845.953	0.0167352
846.031	0.0166839
846.109	0.0166495
846.187	0.0166462
846.265	0.0164868
846.343	0.0167336
846.421	0.0166299
846.499	0.0165340
846.578	0.0165428
846.656	0.0164768
846.734	0.0166164
846.812	0.0164961
846.890	0.0165054
846.968	0.0166231
847.046	0.0165311
847.124	0.0165570
847.203	0.0164783
847.281	0.0164911
847.359	0.0164143
847.437	0.0165333
847.515	0.0163090
847.593	0.0165236
847.671	0.0164401
847.749	0.0163618
847.828	0.0164220
847.906	0.0164641
847.984	0.0163007
848.062	0.0163342
848.140	0.0164712
848.218	0.0163847
848.296	0.0162520
848.374	0.0164349
848.453	0.0164401
848.531	0.0162519
848.609	0.0163986
848.687	0.0163705
848.765	0.0162724
848.843	0.0163476
848.921	0.0163720
848.999	0.0164298
849.078	0.0163750
849.156	0.0165591
849.234	0.0164477
849.312	0.0163646
849.390	0.0164684
849.468	0.0164330
849.546	0.0165189
849.624	0.0165538
849.703	0.0165926
849.781	0.0164918
849.859	0.0164883
849.937	0.0164406
850.015	0.0166203
850.093	0.0166112
850.171	0.0166004
850.249	0.0165208
850.328	0.0166406
850.406	0.0165907
850.484	0.0164845
850.562	0.0166142
850.640	0.0166649
850.718	0.0167492
850.796	0.0165098
850.874	0.0166929
850.953	0.0166742
851.031	0.0167133
851.109	0.0166949
851.187	0.0164883
851.265	0.0166467
851.343	0.0166573
851.421	0.0166805
851.499	0.0166428
851.578	0.0166705
851.656	0.0167542
851.734	0.0166086
851.812	0.0165735
851.890	0.0166090
851.968	0.0165849
852.046	0.0166146
852.124	0.0166390
852.203	0.0166052
852.281	0.0164935
852.359	0.0165398
852.437	0.0167240
852.515	0.0165730
852.593	0.0165061
852.671	0.0164040
852.749	0.0164524
852.828	0.0164632
852.906	0.0164668
852.984	0.0165908
853.062	0.0165080
853.140	0.0165899
853.218	0.0165470
853.296	0.0164224
853.374	0.0164826
853.453	0.0165829
853.531	0.0165794
853.609	0.0165348
853.687	0.0165129
853.765	0.0165167
853.843	0.0164715
853.921	0.0164404
853.999	0.0163793
854.078	0.0164640
854.156	0.0165470
854.234	0.0163833
854.312	0.0164030
854.390	0.0165809
854.468	0.0163788
854.546	0.0165861
854.624	0.0165202
854.703	0.0164253
854.781	0.0163953
854.859	0.0165717
854.937	0.0166020
855.015	0.0164833
855.093	0.0166074
855.171	0.0166108
855.249	0.0166148
855.328	0.0165186
855.406	0.0164721
855.484	0.0164631
855.562	0.0163857
855.640	0.0164124
855.718	0.0164677
855.796	0.0165084
855.874	0.0164881
855.953	0.0163160
856.031	0.0163571
856.109	0.0163297
856.187	0.0161948
856.265	0.0161711
856.343	0.0163029
856.421	0.0162786
856.499	0.0163251
856.578	0.0164338
856.656	0.0163559
856.734	0.0161716
856.812	0.0163881
856.890	0.0164206
856.968	0.0162951
857.046	0.0163039
857.124	0.0162985
857.203	0.0163251
857.281	0.0164292
857.359	0.0163622
857.437	0.0164791
857.515	0.0164716
857.593	0.0163441
857.671	0.0163569
857.749	0.0165079
857.828	0.0165404
857.906	0.0165271
857.984	0.0165849
858.062	0.0164374
858.140	0.0164486
858.218	0.0164476
858.296	0.0166099
858.374	0.0166772
858.453	0.0166148
858.531	0.0165437
858.609	0.0165348
858.687	0.0164936
858.765	0.0165009
858.843	0.0164559
858.921	0.0165822
858.999	0.0165804
859.078	0.0164622
859.156	0.0164264
859.234	0.0164050
859.312	0.0163407
859.390	0.0163933
859.468	0.0164657
859.546	0.0163172
859.624	0.0164015
859.703	0.0163587
859.781	0.0162566
859.859	0.0163417
859.937	0.0163921
860.015	0.0164326
860.093	0.0164085
860.171	0.0164053
860.249	0.0164277
860.328	0.0161674
860.406	0.0163911
860.484	0.0164869
860.562	0.0164946
860.640	0.0163214
860.718	0.0164460
860.796	0.0163964
860.874	0.0163643
860.953	0.0165224
861.031	0.0167126
861.109	0.0166240
861.187	0.0166051
861.265	0.0165723
861.343	0.0167007
861.421	0.0165021
861.499	0.0165614
861.578	0.0166825
861.656	0.0166829
861.734	0.0166160
861.812	0.0167419
861.890	0.0166949
861.968	0.0166172
862.046	0.0166447
862.124	0.0166327
862.203	0.0165981
862.281	0.0166315
862.359	0.0167093
862.437	0.0165911
862.515	0.0167832
862.593	0.0165313
862.671	0.0166132
862.749	0.0165954
862.828	0.0166268
862.906	0.0165282
862.984	0.0166469
863.062	0.0165489
863.140	0.0167654
863.218	0.0165154
863.296	0.0166363
863.374	0.0165604
863.453	0.0163728
863.531	0.0164958
863.609	0.0165600
863.687	0.0165801
863.765	0.0164439
863.843	0.0165527
863.921	0.0166207
863.999	0.0166136
864.078	0.0165529
864.156	0.0166190
864.234	0.0166614
864.312	0.0166391
864.390	0.0165756
864.468	0.0166570
864.546	0.0166346
864.624	0.0167268
864.703	0.0166020
864.781	0.0166165
864.859	0.0165301
864.937	0.0166261
865.015	0.0167317
865.093	0.0166849
865.171	0.0164484
865.249	0.0164957
865.328	0.0165930
865.406	0.0165107
865.484	0.0165841
865.562	0.0166764
865.640	0.0164899
865.718	0.0165479
865.796	0.0165654
865.874	0.0165713
865.953	0.0165298
866.031	0.0165240
866.109	0.0164687
866.187	0.0163867
866.265	0.0164553
866.343	0.0165460
866.421	0.0165765
866.499	0.0164000
866.578	0.0165047
866.656	0.0165131
866.734	0.0163545
866.812	0.0164003
866.890	0.0163184
866.968	0.0162426
867.046	0.0165788
867.124	0.0163675
867.203	0.0164535
867.281	0.0164463
867.359	0.0165661
867.437	0.0163036
867.515	0.0164230
867.593	0.0164135
867.671	0.0165852
867.749	0.0165414
867.828	0.0164823
867.906	0.0164207
867.984	0.0163754
868.062	0.0164896
868.140	0.0165549
868.218	0.0165453
868.296	0.0165471
868.374	0.0165407
868.453	0.0164677
868.531	0.0164936
868.609	0.0166721
868.687	0.0166903
868.765	0.0165502
868.843	0.0165832
868.921	0.0165438
868.999	0.0165239
869.078	0.0166895
869.156	0.0166441
869.234	0.0167446
869.312	0.0167323
869.390	0.0168135
869.468	0.0166772
869.546	0.0166695
869.624	0.0166350
869.703	0.0166888
869.781	0.0166743
869.859	0.0165646
869.937	0.0165703
870.015	0.0166901
870.093	0.0166056
870.171	0.0165208
870.249	0.0165937
870.328	0.0166561
870.406	0.0165030
870.484	0.0166916
870.562	0.0166146
870.640	0.0166266
870.718	0.0164993
870.796	0.0165936
870.874	0.0165659
870.953	0.0166316
871.031	0.0166835
871.109	0.0166438
871.187	0.0166239
871.265	0.0168526
871.343	0.0165392
871.421	0.0164470
871.499	0.0165868
871.578	0.0166608
871.656	0.0166743
871.734	0.0165316
871.812	0.0166178
871.890	0.0165523
871.968	0.0165178
872.046	0.0165485
872.124	0.0165221
872.203	0.0165018
872.281	0.0164584
872.359	0.0164075
872.437	0.0165170
872.515	0.0166006
872.593	0.0164930
872.671	0.0164954
872.749	0.0164658
872.828	0.0164154
872.906	0.0166122
872.984	0.0165802
873.062	0.0165753
873.140	0.0164761
873.218	0.0165037
873.296	0.0163646
873.374	0.0164732
873.453	0.0165405
873.531	0.0162762
873.609	0.0165038
873.687	0.0164003
873.765	0.0165380
873.843	0.0164971
873.921	0.0164437
873.999	0.0164444
874.078	0.0164084
874.156	0.0164761
874.234	0.0164771
874.312	0.0164523
874.390	0.0165270
874.468	0.0164690
874.546	0.0164901
874.624	0.0163968
874.703	0.0165032
874.781	0.0165283
874.859	0.0166306
874.937	0.0164873
875.015	0.0165002
875.093	0.0165891
875.171	0.0164645
875.249	0.0164598
875.328	0.0165231
875.406	0.0164498
875.484	0.0164330
875.562	0.0165804
875.640	0.0164450
875.718	0.0165304
875.796	0.0165379
875.874	0.0165331
875.953	0.0165472
876.031	0.0165199
876.109	0.0165011
876.187	0.0165792
876.265	0.0164789
876.343	0.0164580
876.421	0.0164420
876.499	0.0164332
876.578	0.0167624
876.656	0.0165675
876.734	0.0163374
876.812	0.0166931
876.890	0.0165067
876.968	0.0164763
877.046	0.0164445
877.124	0.0165485
877.203	0.0166154
877.281	0.0166735
877.359	0.0165484
877.437	0.0165656
877.515	0.0166367
877.593	0.0166344
877.671	0.0165238
877.749	0.0166423
877.828	0.0165813
877.906	0.0165549
877.984	0.0165700
878.062	0.0166013
878.140	0.0164925
878.218	0.0164866
878.296	0.0165797
878.374	0.0164594
878.453	0.0164813
878.531	0.0165358
878.609	0.0166434
878.687	0.0164307
878.765	0.0164752
878.843	0.0164307
878.921	0.0164753
878.999	0.0164995
879.078	0.0165158
879.156	0.0162955
879.234	0.0162820
879.312	0.0163552
879.390	0.0162684
879.468	0.0164480
879.546	0.0164657
879.624	0.0164178
879.703	0.0162471
879.781	0.0162893
879.859	0.0163935
879.937	0.0164001
880.015	0.0164294
880.093	0.0164638
880.171	0.0164786
880.249	0.0164315
880.328	0.0162975
880.406	0.0164274
880.484	0.0164731
880.562	0.0163848
880.640	0.0165268
880.718	0.0163677
880.796	0.0164685
880.874	0.0165339
880.953	0.0164556
881.031	0.0164411
881.109	0.0165582
881.187	0.0164207
881.265	0.0165099
881.343	0.0165480
881.421	0.0164606
881.499	0.0165427
881.578	0.0163334
881.656	0.0164265
881.734	0.0165325
881.812	0.0165486
881.890	0.0166255
881.968	0.0164619
882.046	0.0164909
882.124	0.0165240
882.203	0.0165441
882.281	0.0166193
882.359	0.0165668
882.437	0.0165189
882.515	0.0165303
882.593	0.0165849
882.671	0.0164672
882.749	0.0165492
882.828	0.0165461
882.906	0.0165434
882.984	0.0165236
883.062	0.0164933
883.140	0.0164769
883.218	0.0163174
883.296	0.0163541
883.374	0.0164089
883.453	0.0163490
883.531	0.0164512
883.609	0.0164860
883.687	0.0163854
883.765	0.0163452
883.843	0.0163907
883.921	0.0162373
883.999	0.0163143
884.078	0.0163229
884.156	0.0163872
884.234	0.0163280
884.312	0.0162815
884.390	0.0164345
884.468	0.0165196
884.546	0.0164419
884.624	0.0163651
884.703	0.0165572
884.781	0.0165789
884.859	0.0164194
884.937	0.0164535
885.015	0.0164622
885.093	0.0163633
885.171	0.0165874
885.249	0.0165619
885.328	0.0165104
885.406	0.0163954
885.484	0.0165494
885.562	0.0165395
885.640	0.0165061
885.718	0.0165434
885.796	0.0166240
885.874	0.0165300
885.953	0.0166163
886.031	0.0166422
886.109	0.0164005
886.187	0.0165996
886.265	0.0168345
886.343	0.0168178
886.421	0.0167492
886.499	0.0166570
886.578	0.0165925
886.656	0.0166574
886.734	0.0165841
886.812	0.0167474
886.890	0.0165974
886.968	0.0167004
887.046	0.0166562
887.124	0.0167436
887.203	0.0167517
887.281	0.0165140
887.359	0.0166238
887.437	0.0166788
887.515	0.0167123
887.593	0.0166200
887.671	0.0167130
887.749	0.0165427
887.828	0.0166605
887.906	0.0165169
887.984	0.0167438
888.062	0.0166425
888.140	0.0166677
888.218	0.0165478
888.296	0.0168069
888.374	0.0166928
888.453	0.0166676
888.531	0.0165175
888.609	0.0165656
888.687	0.0164478
888.765	0.0164371
888.843	0.0165782
888.921	0.0165831
888.999	0.0165646
889.078	0.0164915
889.156	0.0164689
889.234	0.0164649
889.312	0.0165511
889.390	0.0165390
889.468	0.0164294
889.546	0.0165316
889.624	0.0164165
889.703	0.0164409
889.781	0.0164367
889.859	0.0164964
889.937	0.0164503
890.015	0.0164868
890.093	0.0164964
890.171	0.0165504
890.249	0.0165205
890.328	0.0165188
890.406	0.0166409
890.484	0.0166486
890.562	0.0167423
890.640	0.0166528
890.718	0.0166378
890.796	0.0167236
890.874	0.0166989
890.953	0.0168162
891.031	0.0167215
891.109	0.0167182
891.187	0.0166788
891.265	0.0168991
891.343	0.0168360
891.421	0.0167466
891.499	0.0168266
891.578	0.0169062
891.656	0.0168926
891.734	0.0167113
891.812	0.0168039
891.890	0.0168884
891.968	0.0167954
892.046	0.0168474
892.124	0.0168188
892.203	0.0167829
892.281	0.0165800
892.359	0.0168123
892.437	0.0167002
892.515	0.0167236
892.593	0.0166867
892.671	0.0166852
892.749	0.0167648
892.828	0.0166418
892.906	0.0167278
892.984	0.0166221
893.062	0.0167975
893.140	0.0166013
893.218	0.0167770
893.296	0.0167129
893.374	0.0166544
893.453	0.0167013
893.531	0.0166171
893.609	0.0165044
893.687	0.0166807
893.765	0.0165827
893.843	0.0165858
893.921	0.0164888
893.999	0.0166507
894.078	0.0165549
894.156	0.0164976
894.234	0.0165511
894.312	0.0165863
894.390	0.0164678
894.468	0.0164831
894.546	0.0165124
894.624	0.0165822
894.703	0.0164357
894.781	0.0164965
894.859	0.0164268
894.937	0.0164671
895.015	0.0163795
895.093	0.0164374
895.171	0.0163741
895.249	0.0165135
895.328	0.0164639
895.406	0.0164642
895.484	0.0164459
895.562	0.0163786
895.640	0.0164286
895.718	0.0164269
895.796	0.0165144
895.874	0.0165956
895.953	0.0164581
896.031	0.0163848
896.109	0.0163850
896.187	0.0165228
896.265	0.0165031
896.343	0.0165062
896.421	0.0165251
896.499	0.0164251
896.578	0.0164542
896.656	0.0166055
896.734	0.0165955
896.812	0.0164697
896.890	0.0165206
896.968	0.0164486
897.046	0.0165162
897.124	0.0164840
897.203	0.0164844
897.281	0.0164329
897.359	0.0163775
897.437	0.0165907
897.515	0.0164912
897.593	0.0164771
897.671	0.0163890
897.749	0.0165810
897.828	0.0165358
897.906	0.0166755
897.984	0.0165148
898.062	0.0164398
898.140	0.0165154
898.218	0.0164938
898.296	0.0165017
898.374	0.0165712
898.453	0.0163979
898.531	0.0165324
898.609	0.0164568
898.687	0.0165026
898.765	0.0165573
898.843	0.0164866
898.921	0.0166046
898.999	0.0164659
899.078	0.0164488
899.156	0.0164375
899.234	0.0163218
899.312	0.0165835
899.390	0.0165391
899.468	0.0164846
899.546	0.0165313
899.624	0.0163595
899.703	0.0165093
899.781	0.0164090
899.859	0.0165362
899.937	0.0164890
900.015	0.0163633
900.093	0.0163824
900.171	0.0164149
900.249	0.0166000
900.328	0.0165334
900.406	0.0165225
900.484	0.0166177
900.562	0.0164265
900.640	0.0166353
900.718	0.0167423
900.796	0.0165887
900.874	0.0165199
900.953	0.0164773
901.031	0.0165166
901.109	0.0165160
901.187	0.0165843
901.265	0.0164484
901.343	0.0164276
901.421	0.0165233
901.499	0.0164509
901.578	0.0164212
901.656	0.0164131
901.734	0.0163892
901.812	0.0164590
901.890	0.0165399
901.968	0.0164023
902.046	0.0164504
902.124	0.0165616
902.203	0.0163583
902.281	0.0163827
902.359	0.0164102
902.437	0.0164272
902.515	0.0165057
902.593	0.0162633
902.671	0.0163340
902.749	0.0164191
902.828	0.0165659
902.906	0.0165542
902.984	0.0165719
903.062	0.0165064
903.140	0.0163982
903.218	0.0163036
903.296	0.0164286
903.374	0.0164710
903.453	0.0165714
903.531	0.0164671
903.609	0.0164561
903.687	0.0164700
903.765	0.0164321
903.843	0.0165105
903.921	0.0164442
903.999	0.0165073
904.078	0.0164725
904.156	0.0164776
904.234	0.0164707
904.312	0.0164227
904.390	0.0165029
904.468	0.0165863
904.546	0.0165037
904.624	0.0165809
904.703	0.0163927
904.781	0.0164088
904.859	0.0163663
904.937	0.0164440
905.015	0.0163293
905.093	0.0162521
905.171	0.0164523
905.249	0.0163727
905.328	0.0163107
905.406	0.0161986
905.484	0.0162720
905.562	0.0162219
905.640	0.0161334
905.718	0.0161381
905.796	0.0161514
905.874	0.0161851
905.953	0.0163573
906.031	0.0162077
906.109	0.0161687
906.187	0.0162682
906.265	0.0162199
906.343	0.0162482
906.421	0.0162006
906.499	0.0162734
906.578	0.0163554
906.656	0.0162535
906.734	0.0163040
906.812	0.0163617
906.890	0.0164310
906.968	0.0164287
907.046	0.0164645
907.124	0.0165098
907.203	0.0165143
907.281	0.0165001
907.359	0.0164588
907.437	0.0166162
907.515	0.0166641
907.593	0.0164928
907.671	0.0166212
907.749	0.0165094
907.828	0.0166386
907.906	0.0167878
907.984	0.0166364
908.062	0.0165073
908.140	0.0166878
908.218	0.0165256
908.296	0.0165942
908.374	0.0166514
908.453	0.0165762
908.531	0.0166224
908.609	0.0166029
908.687	0.0164699
908.765	0.0165639
908.843	0.0165981
908.921	0.0165680
908.999	0.0165360
909.078	0.0164950
909.156	0.0165014
909.234	0.0165940
909.312	0.0165682
909.390	0.0166764
909.468	0.0165787
909.546	0.0166244
909.624	0.0164642
909.703	0.0166120
909.781	0.0166006
909.859	0.0166377
909.937	0.0166086
910.015	0.0166605
910.093	0.0166267
910.171	0.0166636
910.249	0.0166943
910.328	0.0166780
910.406	0.0166776
910.484	0.0164858
910.562	0.0165799
910.640	0.0167382
910.718	0.0166695
910.796	0.0165852
910.874	0.0167708
910.953	0.0164400
911.031	0.0164460
911.109	0.0164358
911.187	0.0165224
911.265	0.0166290
911.343	0.0165649
911.421	0.0166763
911.499	0.0165842
911.578	0.0164786
911.656	0.0166264
911.734	0.0165762
911.812	0.0164761
911.890	0.0167363
911.968	0.0165445
912.046	0.0164154
912.124	0.0165575
912.203	0.0165842
912.281	0.0166020
912.359	0.0166857
912.437	0.0166496
912.515	0.0166866
912.593	0.0166117
912.671	0.0168306
912.749	0.0167426
912.828	0.0167014
912.906	0.0169281
912.984	0.0166923
913.062	0.0166946
913.140	0.0167858
913.218	0.0166804
913.296	0.0168242
913.374	0.0166601
913.453	0.0166431
913.531	0.0168477
913.609	0.0168989
913.687	0.0169493
913.765	0.0167662
913.843	0.0167711
913.921	0.0168293
913.999	0.0168944
914.078	0.0167751
914.156	0.0167426
914.234	0.0168298
914.312	0.0169355
914.390	0.0168657
914.468	0.0168153
914.546	0.0168668
914.624	0.0168352
914.703	0.0168463
914.781	0.0167284
914.859	0.0168957
914.937	0.0168286
915.015	0.0167390
915.093	0.0165913
915.171	0.0168598
915.249	0.0169022
915.328	0.0166158
915.406	0.0165253
915.484	0.0168409
915.562	0.0167482
915.640	0.0167177
915.718	0.0166821
915.796	0.0167004
915.874	0.0168784
915.953	0.0165825
916.031	0.0167183
916.109	0.0167039
916.187	0.0166373
916.265	0.0166183
916.343	0.0165444
916.421	0.0165769
916.499	0.0167598
916.578	0.0166465
916.656	0.0166393
916.734	0.0167269
916.812	0.0167563
916.890	0.0167246
916.968	0.0167120
917.046	0.0166312
917.124	0.0167110
917.203	0.0167079
917.281	0.0167308
917.359	0.0165977
917.437	0.0166985
917.515	0.0166786
917.593	0.0166019
917.671	0.0167300
917.749	0.0166165
917.828	0.0164469
917.906	0.0165971
917.984	0.0165553
918.062	0.0166051
918.140	0.0166474
918.218	0.0165950
918.296	0.0165235
918.374	0.0166454
918.453	0.0165976
918.531	0.0165062
918.609	0.0165826
918.687	0.0165901
918.765	0.0165646
918.843	0.0165543
918.921	0.0164307
918.999	0.0165769
919.078	0.0164967
919.156	0.0165444
919.234	0.0163935
919.312	0.0164634
919.390	0.0164232
919.468	0.0164131
919.546	0.0164747
919.624	0.0165549
919.703	0.0164089
919.781	0.0164287
919.859	0.0166172
919.937	0.0163842
