06/10/2022	18:28:04	Ver.	4.1	UNKNOWN
Optical Delay	600.015094	Delta X		0.078125	Sweeps	1	Scan Rate	0/0
Coordinates	Axis 1	NaN	Axis 2	NaN	Axis 3	NaN	Axis 4	NaN	Axis 5	NaN	Axis 6	0.000000
TX Power	0.000000	RX Power	0.000000

600.015	0.0162798
600.093	0.0162236
600.171	0.0162415
600.249	0.0162338
600.328	0.0163078
600.406	0.0162775
600.484	0.0162864
600.562	0.0163376
600.640	0.0163375
600.718	0.0162569
600.796	0.0162996
600.874	0.0163396
600.953	0.0162595
601.031	0.0163978
601.109	0.0163318
601.187	0.0162177
601.265	0.0162580
601.343	0.0163479
601.421	0.0163634
601.499	0.0163139
601.578	0.0163605
601.656	0.0164902
601.734	0.0163504
601.812	0.0163192
601.890	0.0162679
601.968	0.0162546
602.046	0.0162318
602.124	0.0163002
602.203	0.0162473
602.281	0.0162492
602.359	0.0164059
602.437	0.0162773
602.515	0.0163554
602.593	0.0162685
602.671	0.0161761
602.749	0.0162878
602.828	0.0163128
602.906	0.0164291
602.984	0.0162893
603.062	0.0162373
603.140	0.0165102
603.218	0.0162965
603.296	0.0161788
603.374	0.0162505
603.453	0.0163310
603.531	0.0162632
603.609	0.0163004
603.687	0.0163017
603.765	0.0163098
603.843	0.0163873
603.921	0.0163676
603.999	0.0163366
604.078	0.0163021
604.156	0.0162476
604.234	0.0162456
604.312	0.0163019
604.390	0.0163100
604.468	0.0163998
604.546	0.0163740
604.624	0.0163058
604.703	0.0163630
604.781	0.0163309
604.859	0.0162070
604.937	0.0162304
605.015	0.0161791
605.093	0.0164650
605.171	0.0162147
605.249	0.0162298
605.328	0.0162773
605.406	0.0163534
605.484	0.0162236
605.562	0.0163956
605.640	0.0163346
605.718	0.0162306
605.796	0.0163660
605.874	0.0163173
605.953	0.0162828
606.031	0.0163226
606.109	0.0163049
606.187	0.0162398
606.265	0.0162838
606.343	0.0163638
606.421	0.0163824
606.499	0.0163237
606.578	0.0163701
606.656	0.0163689
606.734	0.0163138
606.812	0.0162276
606.890	0.0162417
606.968	0.0163433
607.046	0.0163466
607.124	0.0163862
607.203	0.0162327
607.281	0.0163528
607.359	0.0163465
607.437	0.0163145
607.515	0.0163184
607.593	0.0161961
607.671	0.0161411
607.749	0.0163673
607.828	0.0163799
607.906	0.0162639
607.984	0.0162617
608.062	0.0162766
608.140	0.0164953
608.218	0.0163085
608.296	0.0161403
608.374	0.0160963
608.453	0.0161980
608.531	0.0162833
608.609	0.0162271
608.687	0.0162862
608.765	0.0162859
608.843	0.0162424
608.921	0.0162989
608.999	0.0162688
609.078	0.0163909
609.156	0.0162302
609.234	0.0163980
609.312	0.0163763
609.390	0.0162857
609.468	0.0163028
609.546	0.0162620
609.624	0.0164193
609.703	0.0163946
609.781	0.0163967
609.859	0.0161622
609.937	0.0163082
610.015	0.0163038
610.093	0.0162664
610.171	0.0162837
610.249	0.0163642
610.328	0.0162086
610.406	0.0162064
610.484	0.0163117
610.562	0.0162231
610.640	0.0162711
610.718	0.0163267
610.796	0.0161136
610.874	0.0163029
610.953	0.0163744
611.031	0.0163213
611.109	0.0164278
611.187	0.0161660
611.265	0.0162963
611.343	0.0162617
611.421	0.0163185
611.499	0.0162760
611.578	0.0162857
611.656	0.0163646
611.734	0.0164627
611.812	0.0163509
611.890	0.0164446
611.968	0.0163439
612.046	0.0162655
612.124	0.0163586
612.203	0.0163055
612.281	0.0161501
612.359	0.0162389
612.437	0.0162936
612.515	0.0162310
612.593	0.0162250
612.671	0.0162276
612.749	0.0162814
612.828	0.0163484
612.906	0.0162305
612.984	0.0161248
613.062	0.0163070
613.140	0.0162723
613.218	0.0162837
613.296	0.0162195
613.374	0.0161489
613.453	0.0162004
613.531	0.0162595
613.609	0.0163476
613.687	0.0163487
613.765	0.0161719
613.843	0.0160684
613.921	0.0163786
613.999	0.0163825
614.078	0.0162936
614.156	0.0162076
614.234	0.0163114
614.312	0.0163203
614.390	0.0161645
614.468	0.0162396
614.546	0.0162015
614.624	0.0163499
614.703	0.0163691
614.781	0.0163276
614.859	0.0163094
614.937	0.0162357
615.015	0.0163080
615.093	0.0163061
615.171	0.0163308
615.249	0.0163246
615.328	0.0162392
615.406	0.0163316
615.484	0.0162884
615.562	0.0161092
615.640	0.0161139
615.718	0.0162259
615.796	0.0162630
615.874	0.0162301
615.953	0.0162605
616.031	0.0163995
616.109	0.0164351
616.187	0.0163525
616.265	0.0162572
616.343	0.0162414
616.421	0.0162215
616.499	0.0162996
616.578	0.0162383
616.656	0.0163199
616.734	0.0164345
616.812	0.0162462
616.890	0.0161947
616.968	0.0161903
617.046	0.0161403
617.124	0.0163229
617.203	0.0162600
617.281	0.0162558
617.359	0.0162843
617.437	0.0161163
617.515	0.0163049
617.593	0.0162473
617.671	0.0162059
617.749	0.0163555
617.828	0.0163482
617.906	0.0162798
617.984	0.0162046
618.062	0.0162395
618.140	0.0162870
618.218	0.0162959
618.296	0.0161857
618.374	0.0163162
618.453	0.0163654
618.531	0.0163039
618.609	0.0163216
618.687	0.0161972
618.765	0.0163175
618.843	0.0163136
618.921	0.0162179
618.999	0.0161285
619.078	0.0163193
619.156	0.0163986
619.234	0.0163680
619.312	0.0163205
619.390	0.0162633
619.468	0.0163040
619.546	0.0163567
619.624	0.0164170
619.703	0.0161665
619.781	0.0161549
619.859	0.0162923
619.937	0.0163668
620.015	0.0163656
620.093	0.0163367
620.171	0.0162215
620.249	0.0162021
620.328	0.0163084
620.406	0.0163864
620.484	0.0162377
620.562	0.0162263
620.640	0.0163172
620.718	0.0163320
620.796	0.0163030
620.874	0.0163447
620.953	0.0163416
621.031	0.0162060
621.109	0.0161842
621.187	0.0163084
621.265	0.0162009
621.343	0.0161879
621.421	0.0162671
621.499	0.0163358
621.578	0.0161699
621.656	0.0162354
621.734	0.0162927
621.812	0.0163280
621.890	0.0162128
621.968	0.0161217
622.046	0.0162267
622.124	0.0162341
622.203	0.0162292
622.281	0.0162504
622.359	0.0161691
622.437	0.0164409
622.515	0.0163350
622.593	0.0162694
622.671	0.0162399
622.749	0.0162562
622.828	0.0162790
622.906	0.0162551
622.984	0.0162709
623.062	0.0162938
623.140	0.0161649
623.218	0.0162984
623.296	0.0163319
623.374	0.0162747
623.453	0.0163999
623.531	0.0164616
623.609	0.0161631
623.687	0.0162074
623.765	0.0162637
623.843	0.0162168
623.921	0.0162793
623.999	0.0163522
624.078	0.0163510
624.156	0.0161249
624.234	0.0161982
624.312	0.0162767
624.390	0.0162984
624.468	0.0163955
624.546	0.0162108
624.624	0.0163267
624.703	0.0162799
624.781	0.0162234
624.859	0.0164133
624.937	0.0163506
625.015	0.0163955
625.093	0.0163425
625.171	0.0162183
625.249	0.0163107
625.328	0.0162039
625.406	0.0162994
625.484	0.0163126
625.562	0.0161967
625.640	0.0164774
625.718	0.0162455
625.796	0.0161765
625.874	0.0163596
625.953	0.0162138
626.031	0.0163397
626.109	0.0161272
626.187	0.0162723
626.265	0.0164399
626.343	0.0162252
626.421	0.0161478
626.499	0.0162618
626.578	0.0163164
626.656	0.0162782
626.734	0.0163100
626.812	0.0163257
626.890	0.0162962
626.968	0.0163809
627.046	0.0161806
627.124	0.0162336
627.203	0.0162436
627.281	0.0163674
627.359	0.0163236
627.437	0.0162011
627.515	0.0163810
627.593	0.0163248
627.671	0.0163658
627.749	0.0161608
627.828	0.0162995
627.906	0.0160860
627.984	0.0161031
628.062	0.0161888
628.140	0.0163752
628.218	0.0162546
628.296	0.0162550
628.374	0.0162597
628.453	0.0163405
628.531	0.0163461
628.609	0.0163146
628.687	0.0163641
628.765	0.0163786
628.843	0.0163152
628.921	0.0161848
628.999	0.0162357
629.078	0.0162791
629.156	0.0163032
629.234	0.0162392
629.312	0.0162160
629.390	0.0164180
629.468	0.0162743
629.546	0.0164394
629.624	0.0164308
629.703	0.0162123
629.781	0.0162154
629.859	0.0162498
629.937	0.0164022
630.015	0.0162081
630.093	0.0163601
630.171	0.0163012
630.249	0.0162033
630.328	0.0162287
630.406	0.0162740
630.484	0.0163490
630.562	0.0161438
630.640	0.0161543
630.718	0.0161357
630.796	0.0163074
630.874	0.0164462
630.953	0.0163242
631.031	0.0163039
631.109	0.0163273
631.187	0.0163992
631.265	0.0162045
631.343	0.0162536
631.421	0.0163603
631.499	0.0163326
631.578	0.0161932
631.656	0.0161385
631.734	0.0161721
631.812	0.0163133
631.890	0.0163233
631.968	0.0162691
632.046	0.0162490
632.124	0.0163485
632.203	0.0164226
632.281	0.0163681
632.359	0.0163248
632.437	0.0162266
632.515	0.0162847
632.593	0.0163145
632.671	0.0164181
632.749	0.0162844
632.828	0.0162457
632.906	0.0164222
632.984	0.0163422
633.062	0.0163026
633.140	0.0163319
633.218	0.0162881
633.296	0.0163692
633.374	0.0162981
633.453	0.0162222
633.531	0.0162302
633.609	0.0163079
633.687	0.0162588
633.765	0.0163203
633.843	0.0162831
633.921	0.0162954
633.999	0.0162955
634.078	0.0163616
634.156	0.0163838
634.234	0.0162064
634.312	0.0162663
634.390	0.0162804
634.468	0.0162355
634.546	0.0164053
634.624	0.0164517
634.703	0.0163419
634.781	0.0163062
634.859	0.0163643
634.937	0.0163271
635.015	0.0162730
635.093	0.0163194
635.171	0.0162241
635.249	0.0162040
635.328	0.0163618
635.406	0.0163281
635.484	0.0163457
635.562	0.0162412
635.640	0.0163560
635.718	0.0162933
635.796	0.0163847
635.874	0.0162889
635.953	0.0163054
636.031	0.0163110
636.109	0.0163471
636.187	0.0161797
636.265	0.0164284
636.343	0.0162976
636.421	0.0162282
636.499	0.0163477
636.578	0.0163503
636.656	0.0161442
636.734	0.0161607
636.812	0.0164017
636.890	0.0163478
636.968	0.0163830
637.046	0.0163364
637.124	0.0163011
637.203	0.0163502
637.281	0.0163263
637.359	0.0162383
637.437	0.0162621
637.515	0.0162840
637.593	0.0162764
637.671	0.0161854
637.749	0.0162576
637.828	0.0161359
637.906	0.0161975
637.984	0.0164410
638.062	0.0163279
638.140	0.0163529
638.218	0.0163735
638.296	0.0162273
638.374	0.0163484
638.453	0.0162727
638.531	0.0163046
638.609	0.0163338
638.687	0.0162285
638.765	0.0163239
638.843	0.0162777
638.921	0.0163611
638.999	0.0163648
639.078	0.0163362
639.156	0.0162981
639.234	0.0163754
639.312	0.0162603
639.390	0.0163902
639.468	0.0164156
639.546	0.0164120
639.624	0.0163414
639.703	0.0163313
639.781	0.0164082
639.859	0.0163218
639.937	0.0162963
640.015	0.0162293
640.093	0.0162668
640.171	0.0163461
640.249	0.0163393
640.328	0.0164008
640.406	0.0162933
640.484	0.0162560
640.562	0.0164645
640.640	0.0163136
640.718	0.0162489
640.796	0.0163303
640.874	0.0164172
640.953	0.0162846
641.031	0.0162675
641.109	0.0162778
641.187	0.0164538
641.265	0.0161523
641.343	0.0163489
641.421	0.0164018
641.499	0.0162752
641.578	0.0162434
641.656	0.0164918
641.734	0.0163954
641.812	0.0163003
641.890	0.0163723
641.968	0.0161567
642.046	0.0161663
642.124	0.0162666
642.203	0.0163934
642.281	0.0162508
642.359	0.0161651
642.437	0.0161294
642.515	0.0161893
642.593	0.0162733
642.671	0.0162534
642.749	0.0162441
642.828	0.0162132
642.906	0.0163507
642.984	0.0163838
643.062	0.0162971
643.140	0.0162463
643.218	0.0164295
643.296	0.0163381
643.374	0.0163374
643.453	0.0163052
643.531	0.0163982
643.609	0.0162856
643.687	0.0162259
643.765	0.0163137
643.843	0.0165064
643.921	0.0162837
643.999	0.0162729
644.078	0.0162822
644.156	0.0163424
644.234	0.0162650
644.312	0.0163579
644.390	0.0162788
644.468	0.0163297
644.546	0.0163123
644.624	0.0163609
644.703	0.0163035
644.781	0.0163343
644.859	0.0162311
644.937	0.0162381
645.015	0.0164008
645.093	0.0164242
645.171	0.0162160
645.249	0.0162335
645.328	0.0163443
645.406	0.0163969
645.484	0.0163255
645.562	0.0163836
645.640	0.0161726
645.718	0.0163057
645.796	0.0163482
645.874	0.0164198
645.953	0.0163190
646.031	0.0164249
646.109	0.0164688
646.187	0.0163503
646.265	0.0163275
646.343	0.0162962
646.421	0.0163190
646.499	0.0164498
646.578	0.0161887
646.656	0.0165017
646.734	0.0162691
646.812	0.0164123
646.890	0.0163404
646.968	0.0163301
647.046	0.0164264
647.124	0.0163356
647.203	0.0162684
647.281	0.0163887
647.359	0.0162749
647.437	0.0162582
647.515	0.0162640
647.593	0.0162117
647.671	0.0163244
647.749	0.0164193
647.828	0.0163367
647.906	0.0163331
647.984	0.0162492
648.062	0.0162625
648.140	0.0163786
648.218	0.0163463
648.296	0.0161693
648.374	0.0162964
648.453	0.0164391
648.531	0.0162475
648.609	0.0162278
648.687	0.0162968
648.765	0.0163332
648.843	0.0164217
648.921	0.0162683
648.999	0.0163281
649.078	0.0162805
649.156	0.0162586
649.234	0.0162033
649.312	0.0163304
649.390	0.0163490
649.468	0.0163425
649.546	0.0163132
649.624	0.0163136
649.703	0.0163834
649.781	0.0164169
649.859	0.0164060
649.937	0.0165278
650.015	0.0163850
650.093	0.0163416
650.171	0.0163789
650.249	0.0162876
650.328	0.0162937
650.406	0.0162405
650.484	0.0163621
650.562	0.0163703
650.640	0.0163554
650.718	0.0162605
650.796	0.0163121
650.874	0.0163568
650.953	0.0162395
651.031	0.0162948
651.109	0.0163167
651.187	0.0163336
651.265	0.0163099
651.343	0.0161358
651.421	0.0162472
651.499	0.0162520
651.578	0.0163350
651.656	0.0163779
651.734	0.0163097
651.812	0.0163319
651.890	0.0163049
651.968	0.0163298
652.046	0.0163008
652.124	0.0163183
652.203	0.0163298
652.281	0.0162917
652.359	0.0162744
652.437	0.0162930
652.515	0.0163844
652.593	0.0164097
652.671	0.0162868
652.749	0.0162989
652.828	0.0162750
652.906	0.0162518
652.984	0.0163437
653.062	0.0163584
653.140	0.0163198
653.218	0.0163609
653.296	0.0163783
653.374	0.0163806
653.453	0.0163233
653.531	0.0162247
653.609	0.0161709
653.687	0.0162160
653.765	0.0162443
653.843	0.0163001
653.921	0.0163304
653.999	0.0162135
654.078	0.0163538
654.156	0.0163520
654.234	0.0162956
654.312	0.0163021
654.390	0.0163515
654.468	0.0161739
654.546	0.0162883
654.624	0.0163762
654.703	0.0162056
654.781	0.0162197
654.859	0.0162675
654.937	0.0163306
655.015	0.0161919
655.093	0.0163309
655.171	0.0163168
655.249	0.0162795
655.328	0.0162934
655.406	0.0162732
655.484	0.0162899
655.562	0.0163048
655.640	0.0162004
655.718	0.0163250
655.796	0.0163018
655.874	0.0162601
655.953	0.0163084
656.031	0.0162392
656.109	0.0162985
656.187	0.0162537
656.265	0.0164368
656.343	0.0162882
656.421	0.0163120
656.499	0.0162730
656.578	0.0162734
656.656	0.0162305
656.734	0.0162610
656.812	0.0162062
656.890	0.0161345
656.968	0.0162652
657.046	0.0163991
657.124	0.0163065
657.203	0.0162174
657.281	0.0161591
657.359	0.0162148
657.437	0.0162463
657.515	0.0162066
657.593	0.0163080
657.671	0.0163310
657.749	0.0162526
657.828	0.0161798
657.906	0.0162759
657.984	0.0163261
658.062	0.0162698
658.140	0.0161771
658.218	0.0162686
658.296	0.0163152
658.374	0.0163945
658.453	0.0163787
658.531	0.0162914
658.609	0.0163271
658.687	0.0163023
658.765	0.0162354
658.843	0.0163616
658.921	0.0164026
658.999	0.0162762
659.078	0.0162578
659.156	0.0161866
659.234	0.0163570
659.312	0.0163210
659.390	0.0162293
659.468	0.0163868
659.546	0.0161761
659.624	0.0163864
659.703	0.0163836
659.781	0.0162385
659.859	0.0164072
659.937	0.0163284
660.015	0.0163630
660.093	0.0163436
660.171	0.0161333
660.249	0.0163966
660.328	0.0162447
660.406	0.0162823
660.484	0.0161721
660.562	0.0163519
660.640	0.0163402
660.718	0.0162539
660.796	0.0164057
660.874	0.0163792
660.953	0.0162926
661.031	0.0162239
661.109	0.0163663
661.187	0.0163190
661.265	0.0162608
661.343	0.0161565
661.421	0.0162618
661.499	0.0163462
661.578	0.0163184
661.656	0.0163335
661.734	0.0162537
661.812	0.0162818
661.890	0.0162943
661.968	0.0162172
662.046	0.0162505
662.124	0.0163178
662.203	0.0161758
662.281	0.0161990
662.359	0.0163776
662.437	0.0162173
662.515	0.0162696
662.593	0.0163214
662.671	0.0163197
662.749	0.0163943
662.828	0.0161759
662.906	0.0162598
662.984	0.0162893
663.062	0.0163851
663.140	0.0164383
663.218	0.0163141
663.296	0.0162835
663.374	0.0163851
663.453	0.0162268
663.531	0.0162364
663.609	0.0161498
663.687	0.0162283
663.765	0.0162426
663.843	0.0162965
663.921	0.0163009
663.999	0.0161946
664.078	0.0162833
664.156	0.0162704
664.234	0.0160426
664.312	0.0161456
664.390	0.0163183
664.468	0.0161348
664.546	0.0162992
664.624	0.0163318
664.703	0.0162338
664.781	0.0163519
664.859	0.0163323
664.937	0.0162156
665.015	0.0162622
665.093	0.0164074
665.171	0.0163062
665.249	0.0162181
665.328	0.0162075
665.406	0.0161567
665.484	0.0162589
665.562	0.0162052
665.640	0.0163050
665.718	0.0162424
665.796	0.0161878
665.874	0.0160980
665.953	0.0161771
666.031	0.0163148
666.109	0.0162964
666.187	0.0163548
666.265	0.0161411
666.343	0.0162624
666.421	0.0162072
666.499	0.0162183
666.578	0.0162054
666.656	0.0162586
666.734	0.0163892
666.812	0.0163792
666.890	0.0162144
666.968	0.0162675
667.046	0.0162157
667.124	0.0162950
667.203	0.0163002
667.281	0.0161947
667.359	0.0162614
667.437	0.0162755
667.515	0.0162479
667.593	0.0163673
667.671	0.0164058
667.749	0.0162489
667.828	0.0163178
667.906	0.0163098
667.984	0.0163206
668.062	0.0161256
668.140	0.0161333
668.218	0.0162929
668.296	0.0161823
668.374	0.0161658
668.453	0.0162775
668.531	0.0162466
668.609	0.0162944
668.687	0.0162910
668.765	0.0163435
668.843	0.0164355
668.921	0.0163331
668.999	0.0160703
669.078	0.0162090
669.156	0.0164366
669.234	0.0161979
669.312	0.0160335
669.390	0.0163364
669.468	0.0162888
669.546	0.0162286
669.624	0.0161870
669.703	0.0162316
669.781	0.0162851
669.859	0.0160456
669.937	0.0162117
670.015	0.0162002
670.093	0.0163612
670.171	0.0163155
670.249	0.0161954
670.328	0.0161929
670.406	0.0162333
670.484	0.0162482
670.562	0.0163480
670.640	0.0162683
670.718	0.0161963
670.796	0.0163416
670.874	0.0162492
670.953	0.0161563
671.031	0.0161588
671.109	0.0162871
671.187	0.0161780
671.265	0.0163113
671.343	0.0162479
671.421	0.0163123
671.499	0.0162494
671.578	0.0162125
671.656	0.0163194
671.734	0.0164387
671.812	0.0161805
671.890	0.0161275
671.968	0.0162192
672.046	0.0161990
672.124	0.0162160
672.203	0.0162070
672.281	0.0162926
672.359	0.0163070
672.437	0.0161706
672.515	0.0163179
672.593	0.0162314
672.671	0.0163787
672.749	0.0163378
672.828	0.0160780
672.906	0.0163178
672.984	0.0163122
673.062	0.0163507
673.140	0.0162116
673.218	0.0161562
673.296	0.0163730
673.374	0.0161343
673.453	0.0162924
673.531	0.0163660
673.609	0.0162644
673.687	0.0160588
673.765	0.0162090
673.843	0.0163860
673.921	0.0162425
673.999	0.0161895
674.078	0.0161019
674.156	0.0162511
674.234	0.0163744
674.312	0.0162551
674.390	0.0163312
674.468	0.0162173
674.546	0.0163547
674.624	0.0162450
674.703	0.0161845
674.781	0.0162835
674.859	0.0162487
674.937	0.0163129
675.015	0.0162811
675.093	0.0161258
675.171	0.0162251
675.249	0.0160909
675.328	0.0163297
675.406	0.0162491
675.484	0.0161384
675.562	0.0162453
675.640	0.0162485
675.718	0.0162740
675.796	0.0163470
675.874	0.0163754
675.953	0.0162979
676.031	0.0163304
676.109	0.0162839
676.187	0.0162687
676.265	0.0162579
676.343	0.0163266
676.421	0.0163431
676.499	0.0163055
676.578	0.0162020
676.656	0.0162788
676.734	0.0163291
676.812	0.0163110
676.890	0.0162156
676.968	0.0162357
677.046	0.0162567
677.124	0.0163940
677.203	0.0162327
677.281	0.0162610
677.359	0.0162091
677.437	0.0162012
677.515	0.0162641
677.593	0.0163889
677.671	0.0162614
677.749	0.0163157
677.828	0.0162543
677.906	0.0162079
677.984	0.0162385
678.062	0.0163078
678.140	0.0162613
678.218	0.0162998
678.296	0.0163461
678.374	0.0162763
678.453	0.0163603
678.531	0.0162566
678.609	0.0162836
678.687	0.0162954
678.765	0.0162201
678.843	0.0161943
678.921	0.0162715
678.999	0.0164400
679.078	0.0162377
679.156	0.0163205
679.234	0.0163112
679.312	0.0163253
679.390	0.0161990
679.468	0.0162216
679.546	0.0162940
679.624	0.0163244
679.703	0.0162277
679.781	0.0162363
679.859	0.0163203
679.937	0.0162347
680.015	0.0161389
680.093	0.0161330
680.171	0.0162814
680.249	0.0163557
680.328	0.0161882
680.406	0.0161852
680.484	0.0163605
680.562	0.0162343
680.640	0.0161379
680.718	0.0162397
680.796	0.0160480
680.874	0.0162628
680.953	0.0163926
681.031	0.0163317
681.109	0.0162384
681.187	0.0163029
681.265	0.0162519
681.343	0.0163378
681.421	0.0163290
681.499	0.0162409
681.578	0.0162011
681.656	0.0162428
681.734	0.0163402
681.812	0.0163385
681.890	0.0162095
681.968	0.0163409
682.046	0.0162852
682.124	0.0162522
682.203	0.0160597
682.281	0.0162180
682.359	0.0162807
682.437	0.0162799
682.515	0.0164073
682.593	0.0162142
682.671	0.0163181
682.749	0.0163607
682.828	0.0160916
682.906	0.0162967
682.984	0.0162716
683.062	0.0162141
683.140	0.0162710
683.218	0.0161794
683.296	0.0163140
683.374	0.0163613
683.453	0.0163512
683.531	0.0162254
683.609	0.0161638
683.687	0.0163104
683.765	0.0162183
683.843	0.0162556
683.921	0.0162505
683.999	0.0163552
684.078	0.0162930
684.156	0.0161926
684.234	0.0162487
684.312	0.0163187
684.390	0.0162962
684.468	0.0161158
684.546	0.0162685
684.624	0.0163471
684.703	0.0162009
684.781	0.0162920
684.859	0.0162338
684.937	0.0162062
685.015	0.0162939
685.093	0.0161990
685.171	0.0164589
685.249	0.0162462
685.328	0.0160724
685.406	0.0162368
685.484	0.0160925
685.562	0.0162830
685.640	0.0163470
685.718	0.0162984
685.796	0.0161980
685.874	0.0161662
685.953	0.0162438
686.031	0.0162732
686.109	0.0162267
686.187	0.0162952
686.265	0.0164031
686.343	0.0163050
686.421	0.0162523
686.499	0.0161743
686.578	0.0164213
686.656	0.0162888
686.734	0.0162566
686.812	0.0162970
686.890	0.0162562
686.968	0.0162946
687.046	0.0163168
687.124	0.0162627
687.203	0.0162396
687.281	0.0164545
687.359	0.0163419
687.437	0.0163409
687.515	0.0163538
687.593	0.0163331
687.671	0.0162767
687.749	0.0161259
687.828	0.0162912
687.906	0.0163567
687.984	0.0162773
688.062	0.0162864
688.140	0.0162767
688.218	0.0163546
688.296	0.0163012
688.374	0.0161880
688.453	0.0162753
688.531	0.0162600
688.609	0.0161973
688.687	0.0162785
688.765	0.0163254
688.843	0.0164167
688.921	0.0162781
688.999	0.0162768
689.078	0.0163396
689.156	0.0162568
689.234	0.0162553
689.312	0.0162260
689.390	0.0162891
689.468	0.0163879
689.546	0.0162520
689.624	0.0162608
689.703	0.0162245
689.781	0.0161549
689.859	0.0160935
689.937	0.0162745
690.015	0.0162952
690.093	0.0163706
690.171	0.0162328
690.249	0.0163190
690.328	0.0163315
690.406	0.0162077
690.484	0.0162309
690.562	0.0163713
690.640	0.0162875
690.718	0.0163177
690.796	0.0163290
690.874	0.0162665
690.953	0.0162627
691.031	0.0161705
691.109	0.0162840
691.187	0.0162478
691.265	0.0162495
691.343	0.0163221
691.421	0.0162190
691.499	0.0162577
691.578	0.0162153
691.656	0.0162032
691.734	0.0163488
691.812	0.0164360
691.890	0.0162435
691.968	0.0163735
692.046	0.0162530
692.124	0.0163035
692.203	0.0162903
692.281	0.0161402
692.359	0.0163241
692.437	0.0162791
692.515	0.0162917
692.593	0.0161549
692.671	0.0163262
692.749	0.0163160
692.828	0.0161929
692.906	0.0161948
692.984	0.0162757
693.062	0.0163351
693.140	0.0163535
693.218	0.0161729
693.296	0.0162669
693.374	0.0162993
693.453	0.0162199
693.531	0.0162450
693.609	0.0163056
693.687	0.0162422
693.765	0.0161752
693.843	0.0163412
693.921	0.0162341
693.999	0.0162457
694.078	0.0162690
694.156	0.0162730
694.234	0.0163370
694.312	0.0162746
694.390	0.0163030
694.468	0.0163528
694.546	0.0163313
694.624	0.0163052
694.703	0.0163788
694.781	0.0165322
694.859	0.0162532
694.937	0.0160668
695.015	0.0162508
695.093	0.0163014
695.171	0.0162971
695.249	0.0163030
695.328	0.0163931
695.406	0.0162767
695.484	0.0162857
695.562	0.0163274
695.640	0.0162840
695.718	0.0163622
695.796	0.0162212
695.874	0.0162035
695.953	0.0163363
696.031	0.0163172
696.109	0.0163844
696.187	0.0163273
696.265	0.0162781
696.343	0.0161838
696.421	0.0162808
696.499	0.0163864
696.578	0.0162643
696.656	0.0163053
696.734	0.0164264
696.812	0.0163011
696.890	0.0163155
696.968	0.0161843
697.046	0.0163199
697.124	0.0162632
697.203	0.0161983
697.281	0.0161935
697.359	0.0162592
697.437	0.0161872
697.515	0.0162616
697.593	0.0163644
697.671	0.0162781
697.749	0.0162626
697.828	0.0163233
697.906	0.0162098
697.984	0.0160902
698.062	0.0162679
698.140	0.0164403
698.218	0.0163233
698.296	0.0162477
698.374	0.0163459
698.453	0.0164207
698.531	0.0163017
698.609	0.0163766
698.687	0.0164343
698.765	0.0162965
698.843	0.0163205
698.921	0.0162687
698.999	0.0163638
699.078	0.0162987
699.156	0.0162987
699.234	0.0162884
699.312	0.0163941
699.390	0.0163597
699.468	0.0162258
699.546	0.0163337
699.624	0.0162577
699.703	0.0163474
699.781	0.0163477
699.859	0.0163491
699.937	0.0162283
700.015	0.0163783
700.093	0.0163464
700.171	0.0162999
700.249	0.0163403
700.328	0.0162977
700.406	0.0162660
700.484	0.0160995
700.562	0.0163020
700.640	0.0162867
700.718	0.0162086
700.796	0.0163073
700.874	0.0163444
700.953	0.0163278
701.031	0.0163401
701.109	0.0162667
701.187	0.0162537
701.265	0.0163426
701.343	0.0162830
701.421	0.0161494
701.499	0.0162707
701.578	0.0161356
701.656	0.0162238
701.734	0.0161637
701.812	0.0162492
701.890	0.0161665
701.968	0.0162897
702.046	0.0163155
702.124	0.0163843
702.203	0.0162323
702.281	0.0163660
702.359	0.0162708
702.437	0.0162482
702.515	0.0163021
702.593	0.0162563
702.671	0.0162912
702.749	0.0162470
702.828	0.0163897
702.906	0.0162419
702.984	0.0162373
703.062	0.0163371
703.140	0.0163595
703.218	0.0162224
703.296	0.0162703
703.374	0.0162624
703.453	0.0163084
703.531	0.0163569
703.609	0.0161839
703.687	0.0163219
703.765	0.0161798
703.843	0.0163119
703.921	0.0163438
703.999	0.0162677
704.078	0.0161883
704.156	0.0161785
704.234	0.0162644
704.312	0.0163599
704.390	0.0162460
704.468	0.0162964
704.546	0.0162861
704.624	0.0163941
704.703	0.0161443
704.781	0.0162702
704.859	0.0162948
704.937	0.0162983
705.015	0.0163269
705.093	0.0162517
705.171	0.0159812
705.249	0.0161497
705.328	0.0164268
705.406	0.0163118
705.484	0.0162185
705.562	0.0163300
705.640	0.0163065
705.718	0.0161999
705.796	0.0163087
705.874	0.0162182
705.953	0.0162849
706.031	0.0162978
706.109	0.0162002
706.187	0.0163120
706.265	0.0162788
706.343	0.0161605
706.421	0.0163795
706.499	0.0163601
706.578	0.0162543
706.656	0.0162347
706.734	0.0162919
706.812	0.0162953
706.890	0.0162267
706.968	0.0162626
707.046	0.0160699
707.124	0.0161099
707.203	0.0163000
707.281	0.0161632
707.359	0.0162209
707.437	0.0161840
707.515	0.0163584
707.593	0.0163155
707.671	0.0163552
707.749	0.0162911
707.828	0.0162655
707.906	0.0162634
707.984	0.0162935
708.062	0.0161487
708.140	0.0163078
708.218	0.0161587
708.296	0.0163155
708.374	0.0161719
708.453	0.0162101
708.531	0.0162762
708.609	0.0162899
708.687	0.0162055
708.765	0.0162718
708.843	0.0162740
708.921	0.0162801
708.999	0.0161914
709.078	0.0163119
709.156	0.0161716
709.234	0.0162439
709.312	0.0161995
709.390	0.0162664
709.468	0.0163770
709.546	0.0162833
709.624	0.0163670
709.703	0.0163616
709.781	0.0163022
709.859	0.0162074
709.937	0.0161947
710.015	0.0161930
710.093	0.0162466
710.171	0.0163448
710.249	0.0163614
710.328	0.0161961
710.406	0.0163633
710.484	0.0163762
710.562	0.0162141
710.640	0.0163899
710.718	0.0162516
710.796	0.0162866
710.874	0.0163444
710.953	0.0161484
711.031	0.0161757
711.109	0.0163583
711.187	0.0163223
711.265	0.0162520
711.343	0.0164065
711.421	0.0163444
711.499	0.0163297
711.578	0.0162263
711.656	0.0162081
711.734	0.0163203
711.812	0.0163105
711.890	0.0164021
711.968	0.0162885
712.046	0.0162321
712.124	0.0161796
712.203	0.0163226
712.281	0.0162585
712.359	0.0162460
712.437	0.0163026
712.515	0.0163776
712.593	0.0163205
712.671	0.0162350
712.749	0.0164115
712.828	0.0163303
712.906	0.0162669
712.984	0.0161545
713.062	0.0163020
713.140	0.0161681
713.218	0.0162296
713.296	0.0162595
713.374	0.0162991
713.453	0.0162869
713.531	0.0163536
713.609	0.0162392
713.687	0.0162074
713.765	0.0162461
713.843	0.0162884
713.921	0.0162862
713.999	0.0163775
714.078	0.0162337
714.156	0.0161909
714.234	0.0162634
714.312	0.0163351
714.390	0.0162889
714.468	0.0161676
714.546	0.0163010
714.624	0.0161594
714.703	0.0162859
714.781	0.0162350
714.859	0.0161529
714.937	0.0162135
715.015	0.0161294
715.093	0.0163436
715.171	0.0163857
715.249	0.0161840
715.328	0.0163259
715.406	0.0163528
715.484	0.0161616
715.562	0.0162373
715.640	0.0163528
715.718	0.0162867
715.796	0.0162817
715.874	0.0162665
715.953	0.0162195
716.031	0.0163029
716.109	0.0163114
716.187	0.0163249
716.265	0.0163490
716.343	0.0161687
716.421	0.0162639
716.499	0.0163352
716.578	0.0162503
716.656	0.0162190
716.734	0.0163373
716.812	0.0162279
716.890	0.0161503
716.968	0.0163648
717.046	0.0163386
717.124	0.0162601
717.203	0.0162331
717.281	0.0163312
717.359	0.0162618
717.437	0.0162985
717.515	0.0163160
717.593	0.0161797
717.671	0.0164281
717.749	0.0162759
717.828	0.0161884
717.906	0.0163456
717.984	0.0161980
718.062	0.0163585
718.140	0.0162788
718.218	0.0162086
718.296	0.0161865
718.374	0.0162413
718.453	0.0163158
718.531	0.0163711
718.609	0.0162589
718.687	0.0162550
718.765	0.0163284
718.843	0.0163176
718.921	0.0163354
718.999	0.0162450
719.078	0.0162988
719.156	0.0161839
719.234	0.0162332
719.312	0.0162098
719.390	0.0163942
719.468	0.0162746
719.546	0.0162087
719.624	0.0162294
719.703	0.0162586
719.781	0.0162328
719.859	0.0164605
719.937	0.0162915
720.015	0.0162333
720.093	0.0162221
720.171	0.0162215
720.249	0.0162226
720.328	0.0161966
720.406	0.0162676
720.484	0.0162280
720.562	0.0161825
720.640	0.0163212
720.718	0.0162868
720.796	0.0161749
720.874	0.0162067
720.953	0.0162149
721.031	0.0161995
721.109	0.0162112
721.187	0.0162962
721.265	0.0162579
721.343	0.0162427
721.421	0.0162588
721.499	0.0162057
721.578	0.0163790
721.656	0.0163141
721.734	0.0162383
721.812	0.0162444
721.890	0.0162521
721.968	0.0161687
722.046	0.0162930
722.124	0.0162429
722.203	0.0161641
722.281	0.0163915
722.359	0.0163320
722.437	0.0162051
722.515	0.0161809
722.593	0.0162053
722.671	0.0163558
722.749	0.0162603
722.828	0.0163936
722.906	0.0163189
722.984	0.0163249
723.062	0.0162556
723.140	0.0163436
723.218	0.0163438
723.296	0.0162327
723.374	0.0162076
723.453	0.0163693
723.531	0.0162969
723.609	0.0164492
723.687	0.0163593
723.765	0.0163564
723.843	0.0163265
723.921	0.0163563
723.999	0.0164214
724.078	0.0163028
724.156	0.0163044
724.234	0.0163493
724.312	0.0163855
724.390	0.0162511
724.468	0.0163825
724.546	0.0163337
724.624	0.0163065
724.703	0.0163910
724.781	0.0163541
724.859	0.0163031
724.937	0.0164303
725.015	0.0163418
725.093	0.0162421
725.171	0.0163197
725.249	0.0163640
725.328	0.0162493
725.406	0.0164057
725.484	0.0164312
725.562	0.0164003
725.640	0.0164844
725.718	0.0164240
725.796	0.0162794
725.874	0.0163919
725.953	0.0163971
726.031	0.0164238
726.109	0.0164294
726.187	0.0164227
726.265	0.0164969
726.343	0.0163599
726.421	0.0164146
726.499	0.0164787
726.578	0.0164201
726.656	0.0164143
726.734	0.0164685
726.812	0.0164532
726.890	0.0163985
726.968	0.0163204
727.046	0.0163010
727.124	0.0163858
727.203	0.0163089
727.281	0.0163713
727.359	0.0163300
727.437	0.0164103
727.515	0.0163770
727.593	0.0161355
727.671	0.0162862
727.749	0.0162568
727.828	0.0163274
727.906	0.0164096
727.984	0.0162214
728.062	0.0163943
728.140	0.0164110
728.218	0.0163195
728.296	0.0163589
728.374	0.0164225
728.453	0.0162807
728.531	0.0163651
728.609	0.0163647
728.687	0.0163062
728.765	0.0164115
728.843	0.0162798
728.921	0.0161675
728.999	0.0162487
729.078	0.0163091
729.156	0.0162536
729.234	0.0162248
729.312	0.0162627
729.390	0.0161964
729.468	0.0162978
729.546	0.0162823
729.624	0.0162157
729.703	0.0161517
729.781	0.0161625
729.859	0.0162320
729.937	0.0162168
730.015	0.0163149
730.093	0.0163046
730.171	0.0160693
730.249	0.0162103
730.328	0.0164249
730.406	0.0162622
730.484	0.0162473
730.562	0.0163692
730.640	0.0162534
730.718	0.0161361
730.796	0.0162681
730.874	0.0161527
730.953	0.0161904
731.031	0.0160233
731.109	0.0161558
731.187	0.0162444
731.265	0.0162564
731.343	0.0161725
731.421	0.0163320
731.499	0.0162763
731.578	0.0162821
731.656	0.0163189
731.734	0.0161536
731.812	0.0164160
731.890	0.0162210
731.968	0.0161800
732.046	0.0161139
732.124	0.0161700
732.203	0.0162837
732.281	0.0161935
732.359	0.0163363
732.437	0.0161938
732.515	0.0162175
732.593	0.0162828
732.671	0.0163056
732.749	0.0162236
732.828	0.0161730
732.906	0.0162119
732.984	0.0162943
733.062	0.0161987
733.140	0.0161641
733.218	0.0161799
733.296	0.0162396
733.374	0.0161504
733.453	0.0161796
733.531	0.0161969
733.609	0.0162937
733.687	0.0161869
733.765	0.0161203
733.843	0.0162536
733.921	0.0163777
733.999	0.0162225
734.078	0.0161802
734.156	0.0161747
734.234	0.0162790
734.312	0.0162761
734.390	0.0161491
734.468	0.0163912
734.546	0.0162784
734.624	0.0162158
734.703	0.0161702
734.781	0.0162051
734.859	0.0162581
734.937	0.0162495
735.015	0.0162048
735.093	0.0162723
735.171	0.0162968
735.249	0.0162656
735.328	0.0163098
735.406	0.0162247
735.484	0.0162414
735.562	0.0163429
735.640	0.0162415
735.718	0.0161530
735.796	0.0162777
735.874	0.0161611
735.953	0.0162038
736.031	0.0162328
736.109	0.0163081
736.187	0.0161883
736.265	0.0161507
736.343	0.0161913
736.421	0.0163911
736.499	0.0160832
736.578	0.0162270
736.656	0.0163083
736.734	0.0161237
736.812	0.0162659
736.890	0.0163034
736.968	0.0162327
737.046	0.0161776
737.124	0.0161014
737.203	0.0161465
737.281	0.0161301
737.359	0.0161134
737.437	0.0162028
737.515	0.0162383
737.593	0.0162621
737.671	0.0161829
737.749	0.0160584
737.828	0.0161539
737.906	0.0162952
737.984	0.0165702
738.062	0.0164155
738.140	0.0163808
738.218	0.0164545
738.296	0.0164687
738.374	0.0163425
738.453	0.0164904
738.531	0.0162122
738.609	0.0162402
738.687	0.0163741
738.765	0.0162376
738.843	0.0159975
738.921	0.0160444
738.999	0.0158789
739.078	0.0157470
739.156	0.0158224
739.234	0.0157265
739.312	0.0158495
739.390	0.0158855
739.468	0.0160356
739.546	0.0161639
739.624	0.0164394
739.703	0.0166676
739.781	0.0167929
739.859	0.0171112
739.937	0.0174281
740.015	0.0176156
740.093	0.0177147
740.171	0.0178216
740.249	0.0179231
740.328	0.0178461
740.406	0.0176915
740.484	0.0173151
740.562	0.0169079
740.640	0.0165018
740.718	0.0158753
740.796	0.0154604
740.874	0.0147180
740.953	0.0141351
741.031	0.0137774
741.109	0.0135504
741.187	0.0134682
741.265	0.0135592
741.343	0.0138481
741.421	0.0141648
741.499	0.0146145
741.578	0.0150237
741.656	0.0158035
741.734	0.0164665
741.812	0.0172113
741.890	0.0177480
741.968	0.0184452
742.046	0.0191464
742.124	0.0195326
742.203	0.0198734
742.281	0.0199087
742.359	0.0197877
742.437	0.0195013
742.515	0.0188032
742.593	0.0177319
742.671	0.0166111
742.749	0.0152969
742.828	0.0141473
742.906	0.0130386
742.984	0.0121597
743.062	0.0117503
743.140	0.0116319
743.218	0.0117749
743.296	0.0122855
743.374	0.0129623
743.453	0.0137222
743.531	0.0147067
743.609	0.0156434
743.687	0.0163818
743.765	0.0172903
743.843	0.0180928
743.921	0.0188834
743.999	0.0196299
744.078	0.0203941
744.156	0.0209875
744.234	0.0213109
744.312	0.0214210
744.390	0.0213350
744.468	0.0210323
744.546	0.0201773
744.624	0.0193268
744.703	0.0180579
744.781	0.0165479
744.859	0.0155061
744.937	0.0140931
745.015	0.0132050
745.093	0.0124419
745.171	0.0121646
745.249	0.0117281
745.328	0.0117381
745.406	0.0119897
745.484	0.0120042
745.562	0.0126355
745.640	0.0129157
745.718	0.0132037
745.796	0.0135923
745.874	0.0141645
745.953	0.0148985
746.031	0.0152861
746.109	0.0161203
746.187	0.0169485
746.265	0.0175982
746.343	0.0183487
746.421	0.0188710
746.499	0.0193220
746.578	0.0196455
746.656	0.0195203
746.734	0.0194759
746.812	0.0190578
746.890	0.0185693
746.968	0.0180981
747.046	0.0175642
747.124	0.0168055
747.203	0.0161983
747.281	0.0158642
747.359	0.0153421
747.437	0.0148579
747.515	0.0142935
747.593	0.0143655
747.671	0.0141764
747.749	0.0139986
747.828	0.0142497
747.906	0.0144639
747.984	0.0150596
748.062	0.0155214
748.140	0.0161293
748.218	0.0168510
748.296	0.0177311
748.374	0.0184489
748.453	0.0191516
748.531	0.0196556
748.609	0.0201533
748.687	0.0204011
748.765	0.0205296
748.843	0.0202293
748.921	0.0201200
748.999	0.0197180
749.078	0.0192085
749.156	0.0183407
749.234	0.0174525
749.312	0.0166663
749.390	0.0157909
749.468	0.0149979
749.546	0.0141533
749.624	0.0137016
749.703	0.0130872
749.781	0.0127731
749.859	0.0124783
749.937	0.0122559
750.015	0.0121016
750.093	0.0120982
750.171	0.0122330
750.249	0.0122477
750.328	0.0124041
750.406	0.0124998
750.484	0.0127481
750.562	0.0126828
750.640	0.0130378
750.718	0.0135685
750.796	0.0140627
750.874	0.0146179
750.953	0.0152612
751.031	0.0158599
751.109	0.0167978
751.187	0.0175392
751.265	0.0184048
751.343	0.0191364
751.421	0.0197478
751.499	0.0204774
751.578	0.0208975
751.656	0.0211243
751.734	0.0213602
751.812	0.0213843
751.890	0.0212346
751.968	0.0209661
752.046	0.0205624
752.124	0.0198317
752.203	0.0192142
752.281	0.0182575
752.359	0.0174072
752.437	0.0167381
752.515	0.0159440
752.593	0.0150363
752.671	0.0147673
752.749	0.0141673
752.828	0.0140216
752.906	0.0139275
752.984	0.0138946
753.062	0.0143317
753.140	0.0142479
753.218	0.0144077
753.296	0.0148518
753.374	0.0151012
753.453	0.0155096
753.531	0.0158143
753.609	0.0161184
753.687	0.0164652
753.765	0.0166584
753.843	0.0166718
753.921	0.0169515
753.999	0.0169837
754.078	0.0169287
754.156	0.0166539
754.234	0.0164727
754.312	0.0162856
754.390	0.0163139
754.468	0.0159204
754.546	0.0157070
754.624	0.0156345
754.703	0.0155329
754.781	0.0154494
754.859	0.0153775
754.937	0.0154626
755.015	0.0153481
755.093	0.0152837
755.171	0.0154016
755.249	0.0151650
755.328	0.0152348
755.406	0.0151518
755.484	0.0152634
755.562	0.0151825
755.640	0.0152651
755.718	0.0153506
755.796	0.0156705
755.874	0.0158263
755.953	0.0159387
756.031	0.0160980
756.109	0.0164091
756.187	0.0166440
756.265	0.0169012
756.343	0.0168831
756.421	0.0170231
756.499	0.0174512
756.578	0.0175986
756.656	0.0176465
756.734	0.0179398
756.812	0.0178443
756.890	0.0179725
756.968	0.0178812
757.046	0.0178161
757.124	0.0178726
757.203	0.0176829
757.281	0.0172324
757.359	0.0172673
757.437	0.0172031
757.515	0.0170589
757.593	0.0168764
757.671	0.0167737
757.749	0.0166690
757.828	0.0165546
757.906	0.0163461
757.984	0.0163085
758.062	0.0163127
758.140	0.0162119
758.218	0.0161900
758.296	0.0162417
758.374	0.0161804
758.453	0.0161860
758.531	0.0161026
758.609	0.0161072
758.687	0.0161387
758.765	0.0161198
758.843	0.0160129
758.921	0.0158463
758.999	0.0157559
759.078	0.0156561
759.156	0.0155742
759.234	0.0153709
759.312	0.0153361
759.390	0.0151643
759.468	0.0148441
759.546	0.0147977
759.624	0.0146235
759.703	0.0143999
759.781	0.0143716
759.859	0.0143806
759.937	0.0143076
760.015	0.0143719
760.093	0.0145782
760.171	0.0148582
760.249	0.0148698
760.328	0.0153222
760.406	0.0155675
760.484	0.0157648
760.562	0.0161636
760.640	0.0162900
760.718	0.0166003
760.796	0.0167684
760.874	0.0170008
760.953	0.0171903
761.031	0.0174662
761.109	0.0176392
761.187	0.0177746
761.265	0.0178164
761.343	0.0178048
761.421	0.0178252
761.499	0.0177741
761.578	0.0175996
761.656	0.0176533
761.734	0.0177292
761.812	0.0175802
761.890	0.0174759
761.968	0.0172964
762.046	0.0171004
762.124	0.0170773
762.203	0.0170275
762.281	0.0168162
762.359	0.0167451
762.437	0.0165568
762.515	0.0165717
762.593	0.0164663
762.671	0.0162894
762.749	0.0164656
762.828	0.0163075
762.906	0.0164267
762.984	0.0165672
763.062	0.0164466
763.140	0.0164015
763.218	0.0163891
763.296	0.0160979
763.374	0.0160094
763.453	0.0159589
763.531	0.0157755
763.609	0.0157967
763.687	0.0155967
763.765	0.0156927
763.843	0.0155182
763.921	0.0155074
763.999	0.0153680
764.078	0.0152465
764.156	0.0151997
764.234	0.0153439
764.312	0.0151831
764.390	0.0152271
764.468	0.0152434
764.546	0.0151780
764.624	0.0155933
764.703	0.0156309
764.781	0.0156989
764.859	0.0159314
764.937	0.0160924
765.015	0.0162411
765.093	0.0162077
765.171	0.0163914
765.249	0.0165166
765.328	0.0166096
765.406	0.0165747
765.484	0.0165499
765.562	0.0166942
765.640	0.0166073
765.718	0.0165440
765.796	0.0167772
765.874	0.0164870
765.953	0.0163540
766.031	0.0165707
766.109	0.0164780
766.187	0.0164596
766.265	0.0165476
766.343	0.0166776
766.421	0.0167866
766.499	0.0168166
766.578	0.0168977
766.656	0.0170126
766.734	0.0171346
766.812	0.0170159
766.890	0.0170513
766.968	0.0170710
767.046	0.0170115
767.124	0.0168217
767.203	0.0166888
767.281	0.0166036
767.359	0.0164356
767.437	0.0164166
767.515	0.0162463
767.593	0.0162615
767.671	0.0160931
767.749	0.0162037
767.828	0.0162534
767.906	0.0162027
767.984	0.0162315
768.062	0.0165388
768.140	0.0162568
768.218	0.0164770
768.296	0.0163867
768.374	0.0164841
768.453	0.0163969
768.531	0.0162669
768.609	0.0162587
768.687	0.0160207
768.765	0.0158199
768.843	0.0158282
768.921	0.0157795
768.999	0.0154990
769.078	0.0153248
769.156	0.0153204
769.234	0.0154916
769.312	0.0152209
769.390	0.0153235
769.468	0.0152923
769.546	0.0155204
769.624	0.0154633
769.703	0.0156154
769.781	0.0157082
769.859	0.0158929
769.937	0.0159511
770.015	0.0161683
770.093	0.0162902
770.171	0.0163897
770.249	0.0163960
770.328	0.0164351
770.406	0.0166031
770.484	0.0164832
770.562	0.0164398
770.640	0.0163897
770.718	0.0162109
770.796	0.0160941
770.874	0.0160517
770.953	0.0158598
771.031	0.0157519
771.109	0.0159134
771.187	0.0161251
771.265	0.0159618
771.343	0.0160502
771.421	0.0161279
771.499	0.0162318
771.578	0.0165455
771.656	0.0166604
771.734	0.0167289
771.812	0.0170325
771.890	0.0172566
771.968	0.0173223
772.046	0.0172787
772.124	0.0173788
772.203	0.0173065
772.281	0.0173397
772.359	0.0173052
772.437	0.0170887
772.515	0.0170271
772.593	0.0168816
772.671	0.0166461
772.749	0.0163906
772.828	0.0165590
772.906	0.0164282
772.984	0.0162836
773.062	0.0163157
773.140	0.0161337
773.218	0.0161805
773.296	0.0162166
773.374	0.0160076
773.453	0.0159458
773.531	0.0160011
773.609	0.0160191
773.687	0.0159789
773.765	0.0161510
773.843	0.0159724
773.921	0.0161985
773.999	0.0159997
774.078	0.0161130
774.156	0.0162740
774.234	0.0160226
774.312	0.0161372
774.390	0.0160329
774.468	0.0161165
774.546	0.0160595
774.624	0.0159116
774.703	0.0157779
774.781	0.0158098
774.859	0.0158730
774.937	0.0156885
775.015	0.0155730
775.093	0.0156572
775.171	0.0156789
775.249	0.0157621
775.328	0.0159481
775.406	0.0158382
775.484	0.0157760
775.562	0.0158787
775.640	0.0160294
775.718	0.0161456
775.796	0.0159904
775.874	0.0160588
775.953	0.0162303
776.031	0.0161649
776.109	0.0163987
776.187	0.0163240
776.265	0.0162977
776.343	0.0163818
776.421	0.0164674
776.499	0.0164314
776.578	0.0165969
776.656	0.0166430
776.734	0.0167811
776.812	0.0169320
776.890	0.0170799
776.968	0.0169833
777.046	0.0171057
777.124	0.0173229
777.203	0.0173806
777.281	0.0172478
777.359	0.0172640
777.437	0.0171271
777.515	0.0171505
777.593	0.0170910
777.671	0.0171218
777.749	0.0167163
777.828	0.0167526
777.906	0.0167812
777.984	0.0167725
778.062	0.0164028
778.140	0.0164771
778.218	0.0163551
778.296	0.0162621
778.374	0.0161122
778.453	0.0159447
778.531	0.0160479
778.609	0.0158627
778.687	0.0158713
778.765	0.0156982
778.843	0.0156622
778.921	0.0155478
778.999	0.0154370
779.078	0.0153426
779.156	0.0153529
779.234	0.0153837
779.312	0.0153300
779.390	0.0153545
779.468	0.0155817
779.546	0.0157569
779.624	0.0158556
779.703	0.0158494
779.781	0.0159445
779.859	0.0160145
779.937	0.0161874
780.015	0.0163425
780.093	0.0162666
780.171	0.0164787
780.249	0.0166122
780.328	0.0166838
780.406	0.0166192
780.484	0.0166481
780.562	0.0166708
780.640	0.0165160
780.718	0.0166024
780.796	0.0164624
780.874	0.0163947
780.953	0.0164739
781.031	0.0164171
781.109	0.0163157
781.187	0.0164368
781.265	0.0162184
781.343	0.0162626
781.421	0.0163248
781.499	0.0165072
781.578	0.0163487
781.656	0.0165089
781.734	0.0166260
781.812	0.0166775
781.890	0.0167316
781.968	0.0168405
782.046	0.0168890
782.124	0.0168587
782.203	0.0167776
782.281	0.0168151
782.359	0.0168289
782.437	0.0167112
782.515	0.0166712
782.593	0.0166434
782.671	0.0164243
782.749	0.0163232
782.828	0.0160970
782.906	0.0160937
782.984	0.0159577
783.062	0.0159973
783.140	0.0159457
783.218	0.0157764
783.296	0.0157205
783.374	0.0157586
783.453	0.0156235
783.531	0.0156139
783.609	0.0156056
783.687	0.0156473
783.765	0.0154649
783.843	0.0154912
783.921	0.0155916
783.999	0.0156461
784.078	0.0157270
784.156	0.0156032
784.234	0.0158120
784.312	0.0158507
784.390	0.0157072
784.468	0.0158932
784.546	0.0159630
784.624	0.0161428
784.703	0.0161646
784.781	0.0165648
784.859	0.0165538
784.937	0.0166362
785.015	0.0166778
785.093	0.0169979
785.171	0.0170177
785.249	0.0171487
785.328	0.0173317
785.406	0.0173499
785.484	0.0173433
785.562	0.0176070
785.640	0.0175571
785.718	0.0174990
785.796	0.0174251
785.874	0.0174683
785.953	0.0172817
786.031	0.0173129
786.109	0.0169798
786.187	0.0170541
786.265	0.0167641
786.343	0.0165131
786.421	0.0164023
786.499	0.0161254
786.578	0.0158521
786.656	0.0158099
786.734	0.0154861
786.812	0.0154271
786.890	0.0154089
786.968	0.0152342
787.046	0.0152346
787.124	0.0150305
787.203	0.0151395
787.281	0.0153217
787.359	0.0153010
787.437	0.0154031
787.515	0.0153296
787.593	0.0156865
787.671	0.0155949
787.749	0.0156468
787.828	0.0156838
787.906	0.0159624
787.984	0.0160860
788.062	0.0161937
788.140	0.0162217
788.218	0.0163216
788.296	0.0165058
788.374	0.0164034
788.453	0.0164573
788.531	0.0165764
788.609	0.0167119
788.687	0.0166125
788.765	0.0165761
788.843	0.0166043
788.921	0.0165575
788.999	0.0165733
789.078	0.0165279
789.156	0.0165036
789.234	0.0165495
789.312	0.0165002
789.390	0.0165749
789.468	0.0164085
789.546	0.0165997
789.624	0.0167718
789.703	0.0165479
789.781	0.0165782
789.859	0.0164536
789.937	0.0165524
790.015	0.0165047
790.093	0.0165353
790.171	0.0164838
790.249	0.0165926
790.328	0.0165395
790.406	0.0164103
790.484	0.0162526
790.562	0.0163332
790.640	0.0161000
790.718	0.0160765
790.796	0.0160267
790.874	0.0160620
790.953	0.0160613
791.031	0.0160107
791.109	0.0160225
791.187	0.0158619
791.265	0.0160370
791.343	0.0162246
791.421	0.0161120
791.499	0.0161278
791.578	0.0162762
791.656	0.0164175
791.734	0.0162411
791.812	0.0162716
791.890	0.0163493
791.968	0.0163086
792.046	0.0164166
792.124	0.0163661
792.203	0.0163116
792.281	0.0163652
792.359	0.0162819
792.437	0.0164684
792.515	0.0164036
792.593	0.0163525
792.671	0.0162218
792.749	0.0162886
792.828	0.0161865
792.906	0.0160974
792.984	0.0162266
793.062	0.0161823
793.140	0.0162128
793.218	0.0161808
793.296	0.0162234
793.374	0.0163665
793.453	0.0163951
793.531	0.0164231
793.609	0.0162961
793.687	0.0162326
793.765	0.0162503
793.843	0.0164297
793.921	0.0162029
793.999	0.0161060
794.078	0.0160974
794.156	0.0162317
794.234	0.0162062
794.312	0.0161192
794.390	0.0160580
794.468	0.0160812
794.546	0.0161712
794.624	0.0160899
794.703	0.0161120
794.781	0.0161811
794.859	0.0162199
794.937	0.0162318
795.015	0.0162451
795.093	0.0164687
795.171	0.0164842
795.249	0.0164978
795.328	0.0164297
795.406	0.0165327
795.484	0.0163880
795.562	0.0165038
795.640	0.0165701
795.718	0.0164464
795.796	0.0164445
795.874	0.0165983
795.953	0.0165104
796.031	0.0165977
796.109	0.0164424
796.187	0.0164988
796.265	0.0163904
796.343	0.0163656
796.421	0.0164373
796.499	0.0162650
796.578	0.0162934
796.656	0.0162148
796.734	0.0161676
796.812	0.0161704
796.890	0.0160881
796.968	0.0158965
797.046	0.0159843
797.124	0.0160103
797.203	0.0160262
797.281	0.0159207
797.359	0.0159950
797.437	0.0160870
797.515	0.0159731
797.593	0.0161727
797.671	0.0161988
797.749	0.0161712
797.828	0.0160788
797.906	0.0161061
797.984	0.0160822
798.062	0.0159731
798.140	0.0160013
798.218	0.0161294
798.296	0.0160406
798.374	0.0159884
798.453	0.0160328
798.531	0.0160204
798.609	0.0160860
798.687	0.0160163
798.765	0.0159315
798.843	0.0160274
798.921	0.0159801
798.999	0.0160011
799.078	0.0160238
799.156	0.0160217
799.234	0.0160490
799.312	0.0162348
799.390	0.0161573
799.468	0.0161827
799.546	0.0162061
799.624	0.0163928
799.703	0.0163853
799.781	0.0163860
799.859	0.0162971
799.937	0.0165489
800.015	0.0165821
800.093	0.0165620
800.171	0.0165423
800.249	0.0166136
800.328	0.0166573
800.406	0.0166924
800.484	0.0167740
800.562	0.0166749
800.640	0.0167082
800.718	0.0165773
800.796	0.0167754
800.874	0.0166015
800.953	0.0164151
801.031	0.0164436
801.109	0.0163742
801.187	0.0163188
801.265	0.0162233
801.343	0.0162466
801.421	0.0163293
801.499	0.0161727
801.578	0.0161549
801.656	0.0162206
801.734	0.0163194
801.812	0.0163112
801.890	0.0160609
801.968	0.0161694
802.046	0.0162974
802.124	0.0162891
802.203	0.0162653
802.281	0.0164034
802.359	0.0163486
802.437	0.0165709
802.515	0.0164906
802.593	0.0163295
802.671	0.0165096
802.749	0.0163386
802.828	0.0164853
802.906	0.0164516
802.984	0.0163630
803.062	0.0161531
803.140	0.0161806
803.218	0.0162124
803.296	0.0162132
803.374	0.0160152
803.453	0.0159993
803.531	0.0159908
803.609	0.0159571
803.687	0.0160706
803.765	0.0158262
803.843	0.0158469
803.921	0.0160626
803.999	0.0160664
804.078	0.0160506
804.156	0.0160058
804.234	0.0160681
804.312	0.0160928
804.390	0.0162389
804.468	0.0161421
804.546	0.0162856
804.624	0.0162691
804.703	0.0164124
804.781	0.0164395
804.859	0.0164462
804.937	0.0164407
805.015	0.0164423
805.093	0.0166125
805.171	0.0166599
805.249	0.0165911
805.328	0.0165902
805.406	0.0165642
805.484	0.0166529
805.562	0.0164883
805.640	0.0167017
805.718	0.0167961
805.796	0.0166304
805.874	0.0165672
805.953	0.0164900
806.031	0.0165857
806.109	0.0164460
806.187	0.0163816
806.265	0.0163471
806.343	0.0162786
806.421	0.0161642
806.499	0.0161656
806.578	0.0159663
806.656	0.0160788
806.734	0.0161187
806.812	0.0159177
806.890	0.0160548
806.968	0.0158177
807.046	0.0158196
807.124	0.0157745
807.203	0.0159079
807.281	0.0159492
807.359	0.0158843
807.437	0.0158823
807.515	0.0161034
807.593	0.0159927
807.671	0.0160255
807.749	0.0160893
807.828	0.0163073
807.906	0.0162817
807.984	0.0163516
808.062	0.0163107
808.140	0.0163481
808.218	0.0162694
808.296	0.0162713
808.374	0.0163487
808.453	0.0163366
808.531	0.0163866
808.609	0.0163262
808.687	0.0163097
808.765	0.0164864
808.843	0.0164819
808.921	0.0164297
808.999	0.0163255
809.078	0.0163329
809.156	0.0164001
809.234	0.0163650
809.312	0.0164892
809.390	0.0165563
809.468	0.0164733
809.546	0.0165205
809.624	0.0164849
809.703	0.0164574
809.781	0.0164447
809.859	0.0164958
809.937	0.0164575
810.015	0.0163573
810.093	0.0163614
810.171	0.0163061
810.249	0.0161015
810.328	0.0163200
810.406	0.0162316
810.484	0.0161816
810.562	0.0161236
810.640	0.0160547
810.718	0.0161420
810.796	0.0162231
810.874	0.0162245
810.953	0.0160472
811.031	0.0163242
811.109	0.0164120
811.187	0.0164020
811.265	0.0164016
811.343	0.0163094
811.421	0.0164540
811.499	0.0163945
811.578	0.0164863
811.656	0.0163929
811.734	0.0163964
811.812	0.0165108
811.890	0.0164295
811.968	0.0164145
812.046	0.0162801
812.124	0.0162791
812.203	0.0162630
812.281	0.0161900
812.359	0.0161559
812.437	0.0162077
812.515	0.0161260
812.593	0.0162308
812.671	0.0161469
812.749	0.0162311
812.828	0.0160904
812.906	0.0161593
812.984	0.0161378
813.062	0.0160984
813.140	0.0160675
813.218	0.0160149
813.296	0.0161592
813.374	0.0159668
813.453	0.0159923
813.531	0.0162820
813.609	0.0160448
813.687	0.0160549
813.765	0.0161314
813.843	0.0161907
813.921	0.0161162
813.999	0.0162293
814.078	0.0162894
814.156	0.0162234
814.234	0.0161383
814.312	0.0163093
814.390	0.0163435
814.468	0.0162928
814.546	0.0163145
814.624	0.0163877
814.703	0.0163493
814.781	0.0163492
814.859	0.0164696
814.937	0.0164098
815.015	0.0164050
815.093	0.0164364
815.171	0.0163531
815.249	0.0164922
815.328	0.0163537
815.406	0.0163827
815.484	0.0164746
815.562	0.0164178
815.640	0.0164251
815.718	0.0164896
815.796	0.0163970
815.874	0.0164195
815.953	0.0165643
816.031	0.0164712
816.109	0.0163722
816.187	0.0164079
816.265	0.0164425
816.343	0.0165232
816.421	0.0163615
816.499	0.0164098
816.578	0.0164906
816.656	0.0164375
816.734	0.0161536
816.812	0.0162475
816.890	0.0160607
816.968	0.0162109
817.046	0.0162139
817.124	0.0160268
817.203	0.0160394
817.281	0.0160438
817.359	0.0161508
817.437	0.0160659
817.515	0.0159145
817.593	0.0159295
817.671	0.0160845
817.749	0.0160128
817.828	0.0158997
817.906	0.0159798
817.984	0.0160796
818.062	0.0161042
818.140	0.0160031
818.218	0.0160580
818.296	0.0160725
818.374	0.0160699
818.453	0.0161438
818.531	0.0162690
818.609	0.0161920
818.687	0.0162074
818.765	0.0162100
818.843	0.0162074
818.921	0.0162971
818.999	0.0163386
819.078	0.0164727
819.156	0.0162579
819.234	0.0163339
819.312	0.0163324
819.390	0.0162682
819.468	0.0163296
819.546	0.0164948
819.624	0.0163908
819.703	0.0163568
819.781	0.0163207
819.859	0.0163734
819.937	0.0164467
820.015	0.0163000
820.093	0.0164013
820.171	0.0164035
820.249	0.0162983
820.328	0.0162421
820.406	0.0162321
820.484	0.0162242
820.562	0.0163176
820.640	0.0163101
820.718	0.0162636
820.796	0.0161694
820.874	0.0162842
820.953	0.0163551
821.031	0.0161521
821.109	0.0161188
821.187	0.0161849
821.265	0.0162331
821.343	0.0161567
821.421	0.0160469
821.499	0.0160518
821.578	0.0159939
821.656	0.0160522
821.734	0.0162038
821.812	0.0162412
821.890	0.0161293
821.968	0.0161127
822.046	0.0160690
822.124	0.0161528
822.203	0.0161060
822.281	0.0161248
822.359	0.0160523
822.437	0.0161177
822.515	0.0161314
822.593	0.0162413
822.671	0.0162567
822.749	0.0160966
822.828	0.0160584
822.906	0.0159486
822.984	0.0162642
823.062	0.0163202
823.140	0.0161098
823.218	0.0161856
823.296	0.0161176
823.374	0.0160931
823.453	0.0161609
823.531	0.0161739
823.609	0.0162996
823.687	0.0161459
823.765	0.0160932
823.843	0.0161176
823.921	0.0161926
823.999	0.0161967
824.078	0.0162765
824.156	0.0161777
824.234	0.0162290
824.312	0.0162146
824.390	0.0162777
824.468	0.0162495
824.546	0.0163229
824.624	0.0162540
824.703	0.0162293
824.781	0.0163335
824.859	0.0162967
824.937	0.0164894
825.015	0.0163510
825.093	0.0162383
825.171	0.0162664
825.249	0.0162975
825.328	0.0162920
825.406	0.0162415
825.484	0.0162901
825.562	0.0161836
825.640	0.0162377
825.718	0.0161891
825.796	0.0161420
825.874	0.0161130
825.953	0.0162685
826.031	0.0161426
826.109	0.0162337
826.187	0.0162680
826.265	0.0162441
826.343	0.0161498
826.421	0.0161756
826.499	0.0163139
826.578	0.0163136
826.656	0.0163427
826.734	0.0163212
826.812	0.0164108
826.890	0.0163414
826.968	0.0165129
827.046	0.0163788
827.124	0.0165050
827.203	0.0164836
827.281	0.0163669
827.359	0.0163163
827.437	0.0164358
827.515	0.0163132
827.593	0.0164132
827.671	0.0162943
827.749	0.0162229
827.828	0.0162697
827.906	0.0162025
827.984	0.0161880
828.062	0.0162312
828.140	0.0162009
828.218	0.0162720
828.296	0.0163201
828.374	0.0161880
828.453	0.0161102
828.531	0.0161156
828.609	0.0160903
828.687	0.0162279
828.765	0.0161761
828.843	0.0161467
828.921	0.0161402
828.999	0.0162101
829.078	0.0161105
829.156	0.0161938
829.234	0.0162270
829.312	0.0161880
829.390	0.0162179
829.468	0.0162020
829.546	0.0164627
829.624	0.0162551
829.703	0.0163443
829.781	0.0163003
829.859	0.0162165
829.937	0.0165376
830.015	0.0162959
830.093	0.0164542
830.171	0.0165349
830.249	0.0163882
830.328	0.0162475
830.406	0.0163445
830.484	0.0163266
830.562	0.0162576
830.640	0.0164626
830.718	0.0162816
830.796	0.0163573
830.874	0.0164278
830.953	0.0163672
831.031	0.0164219
831.109	0.0164793
831.187	0.0165263
831.265	0.0164200
831.343	0.0164750
831.421	0.0163692
831.499	0.0164873
831.578	0.0164675
831.656	0.0164737
831.734	0.0163461
831.812	0.0163354
831.890	0.0163792
831.968	0.0163219
832.046	0.0163124
832.124	0.0163096
832.203	0.0163120
832.281	0.0162258
832.359	0.0159962
832.437	0.0160864
832.515	0.0162055
832.593	0.0160110
832.671	0.0161996
832.749	0.0161966
832.828	0.0161687
832.906	0.0162012
832.984	0.0161343
833.062	0.0160659
833.140	0.0162325
833.218	0.0163667
833.296	0.0161518
833.374	0.0162434
833.453	0.0163068
833.531	0.0162752
833.609	0.0163383
833.687	0.0163503
833.765	0.0162990
833.843	0.0161585
833.921	0.0162511
833.999	0.0163235
834.078	0.0162291
834.156	0.0162246
834.234	0.0163931
834.312	0.0161813
834.390	0.0162312
834.468	0.0161901
834.546	0.0163425
834.624	0.0160960
834.703	0.0161181
834.781	0.0161537
834.859	0.0162903
834.937	0.0161962
835.015	0.0161190
835.093	0.0162347
835.171	0.0161516
835.249	0.0161511
835.328	0.0162631
835.406	0.0163264
835.484	0.0162591
835.562	0.0163025
835.640	0.0161919
835.718	0.0162099
835.796	0.0160839
835.874	0.0162316
835.953	0.0161974
836.031	0.0162004
836.109	0.0162278
836.187	0.0160960
836.265	0.0161058
836.343	0.0162976
836.421	0.0162987
836.499	0.0162878
836.578	0.0162536
836.656	0.0161894
836.734	0.0164591
836.812	0.0163875
836.890	0.0163605
836.968	0.0165929
837.046	0.0164291
837.124	0.0164202
837.203	0.0164003
837.281	0.0164185
837.359	0.0163563
837.437	0.0162100
837.515	0.0162663
837.593	0.0163624
837.671	0.0162534
837.749	0.0162135
837.828	0.0160841
837.906	0.0160030
837.984	0.0160126
838.062	0.0162264
838.140	0.0162845
838.218	0.0160667
838.296	0.0160693
838.374	0.0162185
838.453	0.0162739
838.531	0.0162621
838.609	0.0162538
838.687	0.0162382
838.765	0.0164217
838.843	0.0165725
838.921	0.0165512
838.999	0.0164925
839.078	0.0163757
839.156	0.0165824
839.234	0.0165919
839.312	0.0165143
839.390	0.0164110
839.468	0.0164552
839.546	0.0163705
839.624	0.0163203
839.703	0.0161812
839.781	0.0163026
839.859	0.0162053
839.937	0.0160906
840.015	0.0158984
840.093	0.0160379
840.171	0.0160268
840.249	0.0158619
840.328	0.0159833
840.406	0.0159470
840.484	0.0161060
840.562	0.0160125
840.640	0.0160768
840.718	0.0163121
840.796	0.0163858
840.874	0.0162016
840.953	0.0164811
841.031	0.0163782
841.109	0.0163660
841.187	0.0165381
841.265	0.0164658
841.343	0.0163228
841.421	0.0162336
841.499	0.0165414
841.578	0.0166190
841.656	0.0164739
841.734	0.0165787
841.812	0.0166129
841.890	0.0164098
841.968	0.0162786
842.046	0.0163927
842.124	0.0163412
842.203	0.0162224
842.281	0.0160598
842.359	0.0160983
842.437	0.0159046
842.515	0.0160636
842.593	0.0160582
842.671	0.0161015
842.749	0.0159182
842.828	0.0159058
842.906	0.0161770
842.984	0.0160555
843.062	0.0160191
843.140	0.0161441
843.218	0.0161714
843.296	0.0161651
843.374	0.0162183
843.453	0.0163054
843.531	0.0163447
843.609	0.0163961
843.687	0.0164185
843.765	0.0165116
843.843	0.0164429
843.921	0.0166375
843.999	0.0165783
844.078	0.0165892
844.156	0.0163837
844.234	0.0163649
844.312	0.0165103
844.390	0.0163514
844.468	0.0163055
844.546	0.0163248
844.624	0.0162222
844.703	0.0162376
844.781	0.0164698
844.859	0.0163358
844.937	0.0162784
845.015	0.0162445
845.093	0.0164052
845.171	0.0164700
845.249	0.0163893
845.328	0.0164400
845.406	0.0165368
845.484	0.0164310
845.562	0.0164976
845.640	0.0166029
845.718	0.0165556
845.796	0.0166052
845.874	0.0165969
845.953	0.0165754
846.031	0.0165248
846.109	0.0163210
846.187	0.0163165
846.265	0.0163532
846.343	0.0162841
846.421	0.0164017
846.499	0.0161504
846.578	0.0162043
846.656	0.0159657
846.734	0.0161330
846.812	0.0159480
846.890	0.0159877
846.968	0.0158832
847.046	0.0158922
847.124	0.0159563
847.203	0.0159735
847.281	0.0159317
847.359	0.0159189
847.437	0.0160021
847.515	0.0161362
847.593	0.0162831
847.671	0.0160664
847.749	0.0162154
847.828	0.0163619
847.906	0.0163375
847.984	0.0162331
848.062	0.0162052
848.140	0.0164544
848.218	0.0165540
848.296	0.0163580
848.374	0.0164458
848.453	0.0165453
848.531	0.0164129
848.609	0.0163468
848.687	0.0162977
848.765	0.0165536
848.843	0.0164464
848.921	0.0166340
848.999	0.0166159
849.078	0.0165868
849.156	0.0165956
849.234	0.0166173
849.312	0.0164871
849.390	0.0164828
849.468	0.0166665
849.546	0.0167541
849.624	0.0165917
849.703	0.0167052
849.781	0.0167984
849.859	0.0165854
849.937	0.0164545
850.015	0.0164836
850.093	0.0163112
850.171	0.0162360
850.249	0.0162931
850.328	0.0161790
850.406	0.0160659
850.484	0.0159787
850.562	0.0159543
850.640	0.0159385
850.718	0.0158318
850.796	0.0158874
850.874	0.0158582
850.953	0.0156209
851.031	0.0157242
851.109	0.0157854
851.187	0.0157763
851.265	0.0158643
851.343	0.0160342
851.421	0.0160361
851.499	0.0160274
851.578	0.0160190
851.656	0.0160216
851.734	0.0161608
851.812	0.0161901
851.890	0.0162878
851.968	0.0163203
852.046	0.0162728
852.124	0.0162537
852.203	0.0164276
852.281	0.0163078
852.359	0.0163687
852.437	0.0164537
852.515	0.0163835
852.593	0.0165037
852.671	0.0163511
852.749	0.0165881
852.828	0.0163510
852.906	0.0162476
852.984	0.0163779
853.062	0.0163240
853.140	0.0163038
853.218	0.0164482
853.296	0.0163333
853.374	0.0163084
853.453	0.0163206
853.531	0.0163564
853.609	0.0163454
853.687	0.0163864
853.765	0.0163591
853.843	0.0162951
853.921	0.0164242
853.999	0.0164514
854.078	0.0165273
854.156	0.0164508
854.234	0.0164705
854.312	0.0165161
854.390	0.0165225
854.468	0.0164321
854.546	0.0164386
854.624	0.0164127
854.703	0.0164060
854.781	0.0165102
854.859	0.0163168
854.937	0.0163622
855.015	0.0164570
855.093	0.0163544
855.171	0.0163304
855.249	0.0162864
855.328	0.0162492
855.406	0.0161133
855.484	0.0161766
855.562	0.0161132
855.640	0.0160402
855.718	0.0161063
855.796	0.0161012
855.874	0.0161302
855.953	0.0161023
856.031	0.0161517
856.109	0.0159722
856.187	0.0159753
856.265	0.0162457
856.343	0.0161028
856.421	0.0162129
856.499	0.0160445
856.578	0.0161543
856.656	0.0162280
856.734	0.0161623
856.812	0.0161622
856.890	0.0163221
856.968	0.0161353
857.046	0.0161108
857.124	0.0162687
857.203	0.0163534
857.281	0.0162800
857.359	0.0163649
857.437	0.0163773
857.515	0.0163305
857.593	0.0163743
857.671	0.0163571
857.749	0.0163641
857.828	0.0163827
857.906	0.0165614
857.984	0.0164699
858.062	0.0164526
858.140	0.0163633
858.218	0.0165219
858.296	0.0165688
858.374	0.0165050
858.453	0.0163145
858.531	0.0163886
858.609	0.0164516
858.687	0.0164603
858.765	0.0164587
858.843	0.0164454
858.921	0.0163956
858.999	0.0162866
859.078	0.0162034
859.156	0.0162856
859.234	0.0163728
859.312	0.0163477
859.390	0.0162631
859.468	0.0163879
859.546	0.0162211
859.624	0.0161501
859.703	0.0162965
859.781	0.0162093
859.859	0.0163092
859.937	0.0161864
860.015	0.0162146
860.093	0.0163187
860.171	0.0163407
860.249	0.0161379
860.328	0.0161220
860.406	0.0163785
860.484	0.0163953
860.562	0.0162709
860.640	0.0162998
860.718	0.0164268
860.796	0.0163621
860.874	0.0163894
860.953	0.0164593
861.031	0.0163953
861.109	0.0163791
861.187	0.0164346
861.265	0.0163953
861.343	0.0163377
861.421	0.0163909
861.499	0.0163359
861.578	0.0162916
861.656	0.0162141
861.734	0.0162480
861.812	0.0162697
861.890	0.0162028
861.968	0.0161893
862.046	0.0161266
862.124	0.0162477
862.203	0.0160842
862.281	0.0162289
862.359	0.0162331
862.437	0.0162890
862.515	0.0163437
862.593	0.0163121
862.671	0.0163612
862.749	0.0166027
862.828	0.0164605
862.906	0.0163549
862.984	0.0165147
863.062	0.0165965
863.140	0.0163604
863.218	0.0163844
863.296	0.0164304
863.374	0.0163785
863.453	0.0163661
863.531	0.0163362
863.609	0.0163596
863.687	0.0162569
863.765	0.0163146
863.843	0.0163078
863.921	0.0162145
863.999	0.0163477
864.078	0.0162945
864.156	0.0162706
864.234	0.0163062
864.312	0.0163490
864.390	0.0162753
864.468	0.0163118
864.546	0.0163907
864.624	0.0163650
864.703	0.0164158
864.781	0.0164742
864.859	0.0164539
864.937	0.0163783
865.015	0.0165092
865.093	0.0165027
865.171	0.0164981
865.249	0.0164340
865.328	0.0164055
865.406	0.0165732
865.484	0.0165275
865.562	0.0163505
865.640	0.0164365
865.718	0.0164534
865.796	0.0163849
865.874	0.0162626
865.953	0.0162744
866.031	0.0161844
866.109	0.0160056
866.187	0.0160114
866.265	0.0159256
866.343	0.0160230
866.421	0.0160316
866.499	0.0159346
866.578	0.0160134
866.656	0.0161238
866.734	0.0159942
866.812	0.0160686
866.890	0.0161154
866.968	0.0162054
867.046	0.0162227
867.124	0.0164077
867.203	0.0162704
867.281	0.0164017
867.359	0.0164639
867.437	0.0164225
867.515	0.0163058
867.593	0.0164468
867.671	0.0163341
867.749	0.0162971
867.828	0.0163459
867.906	0.0161074
867.984	0.0162746
868.062	0.0162909
868.140	0.0162588
868.218	0.0161954
868.296	0.0162923
868.374	0.0161709
868.453	0.0163094
868.531	0.0164153
868.609	0.0164438
868.687	0.0163696
868.765	0.0163325
868.843	0.0165462
868.921	0.0164403
868.999	0.0165984
869.078	0.0165137
869.156	0.0163297
869.234	0.0165022
869.312	0.0164603
869.390	0.0164352
869.468	0.0164261
869.546	0.0163756
869.624	0.0163847
869.703	0.0164148
869.781	0.0162788
869.859	0.0162648
869.937	0.0163739
870.015	0.0161379
870.093	0.0162112
870.171	0.0162774
870.249	0.0161764
870.328	0.0161417
870.406	0.0161305
870.484	0.0161369
870.562	0.0162946
870.640	0.0161767
870.718	0.0160269
870.796	0.0161098
870.874	0.0162057
870.953	0.0161748
871.031	0.0161477
871.109	0.0160487
871.187	0.0161132
871.265	0.0160829
871.343	0.0159669
871.421	0.0161236
871.499	0.0162563
871.578	0.0160435
871.656	0.0161143
871.734	0.0160642
871.812	0.0160854
871.890	0.0161932
871.968	0.0161356
872.046	0.0161817
872.124	0.0162318
872.203	0.0161827
872.281	0.0161945
872.359	0.0162428
872.437	0.0163274
872.515	0.0164400
872.593	0.0164095
872.671	0.0163267
872.749	0.0164408
872.828	0.0166191
872.906	0.0164107
872.984	0.0163775
873.062	0.0164207
873.140	0.0166068
873.218	0.0166827
873.296	0.0164417
873.374	0.0164761
873.453	0.0164266
873.531	0.0162912
873.609	0.0162298
873.687	0.0162800
873.765	0.0163757
873.843	0.0163743
873.921	0.0163879
873.999	0.0161824
874.078	0.0163351
874.156	0.0162159
874.234	0.0162007
874.312	0.0162004
874.390	0.0162047
874.468	0.0162504
874.546	0.0162325
874.624	0.0163251
874.703	0.0164660
874.781	0.0163055
874.859	0.0160438
874.937	0.0162643
875.015	0.0164929
875.093	0.0163734
875.171	0.0162487
875.249	0.0164391
875.328	0.0163065
875.406	0.0164163
875.484	0.0162733
875.562	0.0163027
875.640	0.0162608
875.718	0.0162596
875.796	0.0163568
875.874	0.0161572
875.953	0.0161791
876.031	0.0161188
876.109	0.0159738
876.187	0.0161616
876.265	0.0161700
876.343	0.0161204
876.421	0.0161684
876.499	0.0160875
876.578	0.0160993
876.656	0.0160654
876.734	0.0162323
876.812	0.0162411
876.890	0.0163121
876.968	0.0161921
877.046	0.0161865
877.124	0.0163523
877.203	0.0163910
877.281	0.0161280
877.359	0.0163193
877.437	0.0163767
877.515	0.0163441
877.593	0.0164204
877.671	0.0163200
877.749	0.0162034
877.828	0.0162347
877.906	0.0162455
877.984	0.0161642
878.062	0.0162743
878.140	0.0162072
878.218	0.0163158
878.296	0.0162682
878.374	0.0162926
878.453	0.0162679
878.531	0.0163735
878.609	0.0163313
878.687	0.0164040
878.765	0.0163477
878.843	0.0163110
878.921	0.0163812
878.999	0.0164451
879.078	0.0164833
879.156	0.0164680
879.234	0.0164740
879.312	0.0163829
879.390	0.0164056
879.468	0.0164211
879.546	0.0164345
879.624	0.0164423
879.703	0.0162658
879.781	0.0163229
879.859	0.0164252
879.937	0.0164857
880.015	0.0163336
880.093	0.0163724
880.171	0.0163676
880.249	0.0162865
880.328	0.0163624
880.406	0.0163795
880.484	0.0163753
880.562	0.0162808
880.640	0.0163560
880.718	0.0162093
880.796	0.0163546
880.874	0.0163634
880.953	0.0164081
881.031	0.0163430
881.109	0.0162280
881.187	0.0161617
881.265	0.0163431
881.343	0.0163581
881.421	0.0162594
881.499	0.0163341
881.578	0.0163310
881.656	0.0161887
881.734	0.0163059
881.812	0.0163580
881.890	0.0161787
881.968	0.0162268
882.046	0.0163610
882.124	0.0163016
882.203	0.0163627
882.281	0.0162410
882.359	0.0164624
882.437	0.0163089
882.515	0.0162636
882.593	0.0162479
882.671	0.0163016
882.749	0.0163430
882.828	0.0162256
882.906	0.0163306
882.984	0.0162341
883.062	0.0162362
883.140	0.0161533
883.218	0.0161981
883.296	0.0161102
883.374	0.0161417
883.453	0.0160838
883.531	0.0161372
883.609	0.0160970
883.687	0.0161420
883.765	0.0160970
883.843	0.0160604
883.921	0.0160574
883.999	0.0160953
884.078	0.0163120
884.156	0.0160941
884.234	0.0163054
884.312	0.0162400
884.390	0.0163135
884.468	0.0162062
884.546	0.0161888
884.624	0.0161693
884.703	0.0163743
884.781	0.0163780
884.859	0.0163879
884.937	0.0164761
885.015	0.0164008
885.093	0.0164069
885.171	0.0164563
885.249	0.0163463
885.328	0.0164173
885.406	0.0165041
885.484	0.0165511
885.562	0.0165102
885.640	0.0165481
885.718	0.0165605
885.796	0.0165302
885.874	0.0165010
885.953	0.0165015
886.031	0.0164359
886.109	0.0163424
886.187	0.0162878
886.265	0.0164584
886.343	0.0164642
886.421	0.0163616
886.499	0.0163377
886.578	0.0163477
886.656	0.0162990
886.734	0.0162764
886.812	0.0162942
886.890	0.0163282
886.968	0.0162287
887.046	0.0163048
887.124	0.0161855
887.203	0.0163986
887.281	0.0163200
887.359	0.0163959
887.437	0.0162257
887.515	0.0162334
887.593	0.0163290
887.671	0.0163454
887.749	0.0161853
887.828	0.0161775
887.906	0.0162966
887.984	0.0164052
888.062	0.0163342
888.140	0.0161604
888.218	0.0163555
888.296	0.0162659
888.374	0.0162920
888.453	0.0163137
888.531	0.0163239
888.609	0.0162454
888.687	0.0162114
888.765	0.0161086
888.843	0.0162317
888.921	0.0162328
888.999	0.0161361
889.078	0.0163097
889.156	0.0161291
889.234	0.0161163
889.312	0.0161288
889.390	0.0162174
889.468	0.0161958
889.546	0.0161826
889.624	0.0161753
889.703	0.0160921
889.781	0.0161668
889.859	0.0162216
889.937	0.0162763
890.015	0.0162428
890.093	0.0161447
890.171	0.0164422
890.249	0.0165468
890.328	0.0163793
890.406	0.0163732
890.484	0.0164064
890.562	0.0165016
890.640	0.0164814
890.718	0.0163788
890.796	0.0163535
890.874	0.0164119
890.953	0.0163333
891.031	0.0163445
891.109	0.0164096
891.187	0.0163852
891.265	0.0163406
891.343	0.0161866
891.421	0.0162360
891.499	0.0162897
891.578	0.0162542
891.656	0.0163352
891.734	0.0162392
891.812	0.0159536
891.890	0.0161514
891.968	0.0162488
892.046	0.0161291
892.124	0.0160480
892.203	0.0162380
892.281	0.0160898
892.359	0.0162368
892.437	0.0162077
892.515	0.0161785
892.593	0.0162143
892.671	0.0161630
892.749	0.0160897
892.828	0.0161012
892.906	0.0161584
892.984	0.0160822
893.062	0.0161446
893.140	0.0161605
893.218	0.0161456
893.296	0.0160874
893.374	0.0161232
893.453	0.0160105
893.531	0.0162005
893.609	0.0160772
893.687	0.0162154
893.765	0.0161021
893.843	0.0161594
893.921	0.0161015
893.999	0.0161720
894.078	0.0162070
894.156	0.0162578
894.234	0.0161745
894.312	0.0163657
894.390	0.0162260
894.468	0.0163292
894.546	0.0163921
894.624	0.0163050
894.703	0.0161277
894.781	0.0163484
894.859	0.0163087
894.937	0.0162601
895.015	0.0163640
895.093	0.0163333
895.171	0.0163114
895.249	0.0163699
895.328	0.0162766
895.406	0.0163000
895.484	0.0163911
895.562	0.0163498
895.640	0.0164378
895.718	0.0163354
895.796	0.0163425
895.874	0.0163251
895.953	0.0162444
896.031	0.0163441
896.109	0.0162107
896.187	0.0163383
896.265	0.0164465
896.343	0.0163681
896.421	0.0162658
896.499	0.0163166
896.578	0.0162525
896.656	0.0161371
896.734	0.0163946
896.812	0.0163851
896.890	0.0163316
896.968	0.0163959
897.046	0.0163039
897.124	0.0165016
897.203	0.0164449
897.281	0.0163336
897.359	0.0162914
897.437	0.0162247
897.515	0.0163648
897.593	0.0162452
897.671	0.0162617
897.749	0.0163900
897.828	0.0164764
897.906	0.0162517
897.984	0.0162527
898.062	0.0161767
898.140	0.0162127
898.218	0.0162329
898.296	0.0162502
898.374	0.0161565
898.453	0.0162209
898.531	0.0162743
898.609	0.0162585
898.687	0.0163385
898.765	0.0163058
898.843	0.0163008
898.921	0.0162079
898.999	0.0162296
899.078	0.0164082
899.156	0.0163595
899.234	0.0163691
899.312	0.0163776
899.390	0.0162624
899.468	0.0161810
899.546	0.0162936
899.624	0.0162810
899.703	0.0163656
899.781	0.0163186
899.859	0.0161566
899.937	0.0161996
900.015	0.0161108
900.093	0.0162675
900.171	0.0160480
900.249	0.0159976
900.328	0.0162912
900.406	0.0161398
900.484	0.0160790
900.562	0.0161223
900.640	0.0160790
900.718	0.0161983
900.796	0.0162024
900.874	0.0161694
900.953	0.0161591
901.031	0.0162569
901.109	0.0162284
901.187	0.0163447
901.265	0.0162908
901.343	0.0163779
901.421	0.0162162
901.499	0.0162818
901.578	0.0163409
901.656	0.0164767
901.734	0.0163212
901.812	0.0162286
901.890	0.0163613
901.968	0.0163421
902.046	0.0163835
902.124	0.0162969
902.203	0.0161385
902.281	0.0162788
902.359	0.0162406
902.437	0.0163058
902.515	0.0162585
902.593	0.0160570
902.671	0.0160181
902.749	0.0161299
902.828	0.0162100
902.906	0.0160961
902.984	0.0161013
903.062	0.0160500
903.140	0.0161367
903.218	0.0161649
903.296	0.0160653
903.374	0.0159415
903.453	0.0159848
903.531	0.0161974
903.609	0.0162876
903.687	0.0161680
903.765	0.0160894
903.843	0.0161618
903.921	0.0161085
903.999	0.0163974
904.078	0.0163109
904.156	0.0163136
904.234	0.0162971
904.312	0.0162402
904.390	0.0163754
904.468	0.0163401
904.546	0.0164442
904.624	0.0163031
904.703	0.0163011
904.781	0.0163038
904.859	0.0162892
904.937	0.0161806
905.015	0.0162502
905.093	0.0164056
905.171	0.0162894
905.249	0.0164351
905.328	0.0162499
905.406	0.0163423
905.484	0.0163351
905.562	0.0165093
905.640	0.0164864
905.718	0.0162975
905.796	0.0163149
905.874	0.0163537
905.953	0.0162674
906.031	0.0161957
906.109	0.0162264
906.187	0.0163230
906.265	0.0162572
906.343	0.0162457
906.421	0.0161881
906.499	0.0162862
906.578	0.0162106
906.656	0.0161758
906.734	0.0160891
906.812	0.0161506
906.890	0.0162436
906.968	0.0162036
907.046	0.0162224
907.124	0.0162206
907.203	0.0161250
907.281	0.0163483
907.359	0.0161758
907.437	0.0161805
907.515	0.0163039
907.593	0.0162843
907.671	0.0162775
907.749	0.0163074
907.828	0.0163306
907.906	0.0163362
907.984	0.0161810
908.062	0.0163377
908.140	0.0162891
908.218	0.0163538
908.296	0.0162221
908.374	0.0162291
908.453	0.0163077
908.531	0.0161710
908.609	0.0162144
908.687	0.0161391
908.765	0.0162971
908.843	0.0163033
908.921	0.0162036
908.999	0.0162209
909.078	0.0160545
909.156	0.0162346
909.234	0.0162931
909.312	0.0163459
909.390	0.0162159
909.468	0.0162685
909.546	0.0162417
909.624	0.0162114
909.703	0.0163010
909.781	0.0163232
909.859	0.0165005
909.937	0.0163426
910.015	0.0163780
910.093	0.0163212
910.171	0.0162675
910.249	0.0163795
910.328	0.0164137
910.406	0.0162319
910.484	0.0162700
910.562	0.0162442
910.640	0.0163785
910.718	0.0162770
910.796	0.0162337
910.874	0.0160202
910.953	0.0162247
911.031	0.0162705
911.109	0.0162091
911.187	0.0160247
911.265	0.0161311
911.343	0.0162568
911.421	0.0161552
911.499	0.0161686
911.578	0.0161887
911.656	0.0160852
911.734	0.0162479
911.812	0.0162049
911.890	0.0162691
911.968	0.0163528
912.046	0.0164034
912.124	0.0163384
912.203	0.0164886
912.281	0.0163634
912.359	0.0164264
912.437	0.0165378
912.515	0.0164290
912.593	0.0162766
912.671	0.0163262
912.749	0.0163721
912.828	0.0164358
912.906	0.0162495
912.984	0.0162384
913.062	0.0162452
913.140	0.0162552
913.218	0.0162229
913.296	0.0160863
913.374	0.0161127
913.453	0.0160838
913.531	0.0160295
913.609	0.0161051
913.687	0.0161264
913.765	0.0160098
913.843	0.0160960
913.921	0.0160580
913.999	0.0161684
914.078	0.0161624
914.156	0.0161386
914.234	0.0162300
914.312	0.0162719
914.390	0.0161900
914.468	0.0161818
914.546	0.0162688
914.624	0.0163681
914.703	0.0162085
914.781	0.0162512
914.859	0.0164157
914.937	0.0163923
915.015	0.0161926
915.093	0.0163844
915.171	0.0164511
915.249	0.0163830
915.328	0.0163332
915.406	0.0163400
915.484	0.0163924
915.562	0.0163226
915.640	0.0163441
915.718	0.0162241
915.796	0.0163024
915.874	0.0163862
915.953	0.0162241
916.031	0.0161682
916.109	0.0161558
916.187	0.0161324
916.265	0.0161189
916.343	0.0163683
916.421	0.0162894
916.499	0.0161687
916.578	0.0161494
916.656	0.0163667
916.734	0.0162827
916.812	0.0162129
916.890	0.0163489
916.968	0.0163893
917.046	0.0162514
917.124	0.0162376
917.203	0.0162630
917.281	0.0162533
917.359	0.0163928
917.437	0.0161992
917.515	0.0161283
917.593	0.0161364
917.671	0.0161910
917.749	0.0161646
917.828	0.0161118
917.906	0.0162189
917.984	0.0161830
918.062	0.0162785
918.140	0.0162061
918.218	0.0161594
918.296	0.0161564
918.374	0.0161311
918.453	0.0162548
918.531	0.0162964
918.609	0.0161826
918.687	0.0162289
918.765	0.0162704
918.843	0.0161433
918.921	0.0162268
918.999	0.0162239
919.078	0.0162121
919.156	0.0162428
919.234	0.0163158
919.312	0.0163136
919.390	0.0162394
919.468	0.0162230
919.546	0.0162574
919.624	0.0161976
919.703	0.0161878
919.781	0.0162887
919.859	0.0161528
919.937	0.0163737
