06/10/2022	19:09:06	Ver.	4.1	UNKNOWN
Optical Delay	600.015094	Delta X		0.078125	Sweeps	1	Scan Rate	0/0
Coordinates	Axis 1	NaN	Axis 2	NaN	Axis 3	NaN	Axis 4	NaN	Axis 5	NaN	Axis 6	0.000000
TX Power	0.000000	RX Power	0.000000

600.015	0.0156101
600.093	0.0161003
600.171	0.0162508
600.249	0.0162376
600.328	0.0161746
600.406	0.0161361
600.484	0.0162056
600.562	0.0161980
600.640	0.0162491
600.718	0.0160815
600.796	0.0160265
600.874	0.0162875
600.953	0.0161924
601.031	0.0160978
601.109	0.0161485
601.187	0.0159704
601.265	0.0161558
601.343	0.0160491
601.421	0.0161404
601.499	0.0161005
601.578	0.0159186
601.656	0.0160922
601.734	0.0159669
601.812	0.0159107
601.890	0.0160535
601.968	0.0160657
602.046	0.0160512
602.124	0.0160973
602.203	0.0160668
602.281	0.0160825
602.359	0.0160541
602.437	0.0162684
602.515	0.0161138
602.593	0.0160989
602.671	0.0160670
602.749	0.0163424
602.828	0.0163252
602.906	0.0163099
602.984	0.0163090
603.062	0.0163195
603.140	0.0162849
603.218	0.0164474
603.296	0.0163887
603.374	0.0163790
603.453	0.0163596
603.531	0.0164449
603.609	0.0164680
603.687	0.0165646
603.765	0.0164014
603.843	0.0165547
603.921	0.0163912
603.999	0.0162051
604.078	0.0162294
604.156	0.0163050
604.234	0.0163091
604.312	0.0161698
604.390	0.0162158
604.468	0.0162260
604.546	0.0160282
604.624	0.0161949
604.703	0.0160802
604.781	0.0161591
604.859	0.0161788
604.937	0.0161749
605.015	0.0161854
605.093	0.0163034
605.171	0.0163046
605.249	0.0162459
605.328	0.0163763
605.406	0.0163013
605.484	0.0163033
605.562	0.0162149
605.640	0.0162786
605.718	0.0163018
605.796	0.0162047
605.874	0.0162976
605.953	0.0163420
606.031	0.0162364
606.109	0.0162856
606.187	0.0161964
606.265	0.0162537
606.343	0.0161216
606.421	0.0162488
606.499	0.0163033
606.578	0.0162331
606.656	0.0161432
606.734	0.0162234
606.812	0.0162511
606.890	0.0162067
606.968	0.0161324
607.046	0.0161017
607.124	0.0162321
607.203	0.0164307
607.281	0.0162396
607.359	0.0162208
607.437	0.0163410
607.515	0.0163272
607.593	0.0163160
607.671	0.0163754
607.749	0.0164674
607.828	0.0164323
607.906	0.0162871
607.984	0.0164307
608.062	0.0164642
608.140	0.0163960
608.218	0.0163472
608.296	0.0162996
608.374	0.0163657
608.453	0.0163678
608.531	0.0163975
608.609	0.0162747
608.687	0.0163800
608.765	0.0162150
608.843	0.0163164
608.921	0.0163918
608.999	0.0165138
609.078	0.0164325
609.156	0.0162773
609.234	0.0164699
609.312	0.0163734
609.390	0.0163136
609.468	0.0163739
609.546	0.0166896
609.624	0.0165148
609.703	0.0165646
609.781	0.0165591
609.859	0.0165353
609.937	0.0165307
610.015	0.0165974
610.093	0.0166940
610.171	0.0166269
610.249	0.0167467
610.328	0.0167648
610.406	0.0167513
610.484	0.0167911
610.562	0.0167274
610.640	0.0166785
610.718	0.0167403
610.796	0.0165943
610.874	0.0165511
610.953	0.0165498
611.031	0.0164059
611.109	0.0164566
611.187	0.0164627
611.265	0.0164571
611.343	0.0163413
611.421	0.0162469
611.499	0.0163854
611.578	0.0164591
611.656	0.0162963
611.734	0.0162569
611.812	0.0162701
611.890	0.0162114
611.968	0.0162871
612.046	0.0162064
612.124	0.0161842
612.203	0.0162178
612.281	0.0162385
612.359	0.0163184
612.437	0.0163022
612.515	0.0162259
612.593	0.0161089
612.671	0.0162868
612.749	0.0163117
612.828	0.0162536
612.906	0.0162143
612.984	0.0161309
613.062	0.0163177
613.140	0.0163052
613.218	0.0162289
613.296	0.0163564
613.374	0.0162167
613.453	0.0163546
613.531	0.0162666
613.609	0.0163481
613.687	0.0163888
613.765	0.0162097
613.843	0.0161021
613.921	0.0160604
613.999	0.0161630
614.078	0.0160905
614.156	0.0159719
614.234	0.0159582
614.312	0.0158801
614.390	0.0160570
614.468	0.0159350
614.546	0.0159953
614.624	0.0159873
614.703	0.0157687
614.781	0.0158952
614.859	0.0157356
614.937	0.0157428
615.015	0.0158150
615.093	0.0157628
615.171	0.0156924
615.249	0.0156821
615.328	0.0156107
615.406	0.0156979
615.484	0.0154710
615.562	0.0155896
615.640	0.0156680
615.718	0.0155756
615.796	0.0156027
615.874	0.0155488
615.953	0.0155111
616.031	0.0153638
616.109	0.0154395
616.187	0.0155985
616.265	0.0154631
616.343	0.0155544
616.421	0.0156438
616.499	0.0156784
616.578	0.0157902
616.656	0.0156493
616.734	0.0157465
616.812	0.0158653
616.890	0.0158126
616.968	0.0157200
617.046	0.0159854
617.124	0.0158824
617.203	0.0159041
617.281	0.0160404
617.359	0.0160293
617.437	0.0160322
617.515	0.0160185
617.593	0.0160776
617.671	0.0160066
617.749	0.0160851
617.828	0.0161144
617.906	0.0160474
617.984	0.0161689
618.062	0.0160819
618.140	0.0161447
618.218	0.0162863
618.296	0.0162506
618.374	0.0161301
618.453	0.0162098
618.531	0.0162249
618.609	0.0160992
618.687	0.0160867
618.765	0.0161310
618.843	0.0161024
618.921	0.0161805
618.999	0.0160895
619.078	0.0159851
619.156	0.0160638
619.234	0.0160287
619.312	0.0159885
619.390	0.0159557
619.468	0.0161303
619.546	0.0159991
619.624	0.0159118
619.703	0.0158787
619.781	0.0158717
619.859	0.0159344
619.937	0.0157829
620.015	0.0159324
620.093	0.0158141
620.171	0.0159331
620.249	0.0158189
620.328	0.0157773
620.406	0.0158984
620.484	0.0158813
620.562	0.0158954
620.640	0.0160095
620.718	0.0157838
620.796	0.0157272
620.874	0.0158335
620.953	0.0158822
621.031	0.0157663
621.109	0.0158528
621.187	0.0158279
621.265	0.0157932
621.343	0.0158389
621.421	0.0158518
621.499	0.0158472
621.578	0.0158215
621.656	0.0158396
621.734	0.0159413
621.812	0.0159950
621.890	0.0159360
621.968	0.0160509
622.046	0.0161013
622.124	0.0158906
622.203	0.0158472
622.281	0.0159348
622.359	0.0158375
622.437	0.0159489
622.515	0.0158640
622.593	0.0159480
622.671	0.0159622
622.749	0.0159525
622.828	0.0159805
622.906	0.0158435
622.984	0.0160027
623.062	0.0159434
623.140	0.0159217
623.218	0.0160830
623.296	0.0160193
623.374	0.0160415
623.453	0.0160884
623.531	0.0160056
623.609	0.0161143
623.687	0.0160683
623.765	0.0159555
623.843	0.0160836
623.921	0.0159928
623.999	0.0159981
624.078	0.0161433
624.156	0.0161179
624.234	0.0160386
624.312	0.0159573
624.390	0.0161559
624.468	0.0160836
624.546	0.0160849
624.624	0.0162866
624.703	0.0160784
624.781	0.0161745
624.859	0.0162222
624.937	0.0161620
625.015	0.0163148
625.093	0.0162323
625.171	0.0162007
625.249	0.0162317
625.328	0.0162824
625.406	0.0163879
625.484	0.0163586
625.562	0.0163098
625.640	0.0164059
625.718	0.0163139
625.796	0.0162111
625.874	0.0162121
625.953	0.0162497
626.031	0.0162154
626.109	0.0163236
626.187	0.0162587
626.265	0.0162685
626.343	0.0161512
626.421	0.0160653
626.499	0.0161877
626.578	0.0161707
626.656	0.0162521
626.734	0.0161023
626.812	0.0161861
626.890	0.0161902
626.968	0.0162213
627.046	0.0160255
627.124	0.0163186
627.203	0.0162675
627.281	0.0163555
627.359	0.0162848
627.437	0.0162869
627.515	0.0162740
627.593	0.0163281
627.671	0.0163954
627.749	0.0163225
627.828	0.0162858
627.906	0.0163828
627.984	0.0163652
628.062	0.0165290
628.140	0.0164558
628.218	0.0165321
628.296	0.0165400
628.374	0.0165855
628.453	0.0166448
628.531	0.0166518
628.609	0.0167399
628.687	0.0168140
628.765	0.0168959
628.843	0.0168602
628.921	0.0167406
628.999	0.0168840
629.078	0.0168446
629.156	0.0167425
629.234	0.0167772
629.312	0.0167322
629.390	0.0166628
629.468	0.0167484
629.546	0.0167843
629.624	0.0167633
629.703	0.0165829
629.781	0.0165306
629.859	0.0165851
629.937	0.0163050
630.015	0.0165260
630.093	0.0164910
630.171	0.0164616
630.249	0.0164455
630.328	0.0162880
630.406	0.0162667
630.484	0.0162830
630.562	0.0163635
630.640	0.0165793
630.718	0.0162684
630.796	0.0163454
630.874	0.0163918
630.953	0.0163547
631.031	0.0163982
631.109	0.0163106
631.187	0.0163844
631.265	0.0163317
631.343	0.0162317
631.421	0.0163288
631.499	0.0164793
631.578	0.0163850
631.656	0.0163502
631.734	0.0163647
631.812	0.0163354
631.890	0.0162535
631.968	0.0162747
632.046	0.0163593
632.124	0.0163460
632.203	0.0162877
632.281	0.0164311
632.359	0.0163669
632.437	0.0163511
632.515	0.0163457
632.593	0.0163722
632.671	0.0163888
632.749	0.0164521
632.828	0.0163361
632.906	0.0162489
632.984	0.0164108
633.062	0.0163927
633.140	0.0163499
633.218	0.0163811
633.296	0.0162489
633.374	0.0162405
633.453	0.0163311
633.531	0.0164101
633.609	0.0161927
633.687	0.0162680
633.765	0.0162297
633.843	0.0161769
633.921	0.0161570
633.999	0.0163985
634.078	0.0161436
634.156	0.0162134
634.234	0.0161770
634.312	0.0162665
634.390	0.0162578
634.468	0.0162376
634.546	0.0161837
634.624	0.0161392
634.703	0.0161842
634.781	0.0163100
634.859	0.0163167
634.937	0.0162502
635.015	0.0161961
635.093	0.0162245
635.171	0.0162486
635.249	0.0161989
635.328	0.0162650
635.406	0.0163411
635.484	0.0163435
635.562	0.0162814
635.640	0.0161977
635.718	0.0162583
635.796	0.0163731
635.874	0.0163432
635.953	0.0162599
636.031	0.0162302
636.109	0.0162683
636.187	0.0163442
636.265	0.0162138
636.343	0.0162781
636.421	0.0161491
636.499	0.0161609
636.578	0.0160795
636.656	0.0159888
636.734	0.0160095
636.812	0.0159862
636.890	0.0159653
636.968	0.0158942
637.046	0.0157069
637.124	0.0159119
637.203	0.0159633
637.281	0.0157572
637.359	0.0158495
637.437	0.0156839
637.515	0.0158131
637.593	0.0158103
637.671	0.0158865
637.749	0.0157706
637.828	0.0158396
637.906	0.0156744
637.984	0.0156503
638.062	0.0158405
638.140	0.0159379
638.218	0.0159563
638.296	0.0158231
638.374	0.0157841
638.453	0.0159130
638.531	0.0158393
638.609	0.0159177
638.687	0.0159388
638.765	0.0159057
638.843	0.0159521
638.921	0.0158760
638.999	0.0158322
639.078	0.0159800
639.156	0.0159248
639.234	0.0160188
639.312	0.0159224
639.390	0.0159235
639.468	0.0159356
639.546	0.0160051
639.624	0.0160365
639.703	0.0160322
639.781	0.0158521
639.859	0.0160963
639.937	0.0160293
640.015	0.0161141
640.093	0.0160550
640.171	0.0160372
640.249	0.0159792
640.328	0.0161448
640.406	0.0160070
640.484	0.0159046
640.562	0.0160184
640.640	0.0159900
640.718	0.0160112
640.796	0.0161177
640.874	0.0160737
640.953	0.0161556
641.031	0.0161143
641.109	0.0161928
641.187	0.0161615
641.265	0.0161032
641.343	0.0161192
641.421	0.0160821
641.499	0.0162563
641.578	0.0163453
641.656	0.0162282
641.734	0.0162027
641.812	0.0162621
641.890	0.0162453
641.968	0.0161971
642.046	0.0161932
642.124	0.0161595
642.203	0.0163100
642.281	0.0162845
642.359	0.0161770
642.437	0.0162550
642.515	0.0162682
642.593	0.0162499
642.671	0.0161714
642.749	0.0163091
642.828	0.0162631
642.906	0.0163814
642.984	0.0162329
643.062	0.0161980
643.140	0.0161979
643.218	0.0164302
643.296	0.0163454
643.374	0.0161732
643.453	0.0162061
643.531	0.0164215
643.609	0.0164088
643.687	0.0164024
643.765	0.0163506
643.843	0.0163908
643.921	0.0162968
643.999	0.0163401
644.078	0.0164059
644.156	0.0162241
644.234	0.0163551
644.312	0.0163680
644.390	0.0162905
644.468	0.0162092
644.546	0.0162981
644.624	0.0162794
644.703	0.0163334
644.781	0.0161214
644.859	0.0161156
644.937	0.0162663
645.015	0.0162819
645.093	0.0162247
645.171	0.0161560
645.249	0.0161583
645.328	0.0161449
645.406	0.0160769
645.484	0.0159831
645.562	0.0161979
645.640	0.0160531
645.718	0.0161298
645.796	0.0160870
645.874	0.0161370
645.953	0.0160673
646.031	0.0161433
646.109	0.0161339
646.187	0.0160590
646.265	0.0160294
646.343	0.0161464
646.421	0.0160751
646.499	0.0161630
646.578	0.0162230
646.656	0.0162114
646.734	0.0160653
646.812	0.0161065
646.890	0.0161459
646.968	0.0161418
647.046	0.0161004
647.124	0.0159896
647.203	0.0162054
647.281	0.0160831
647.359	0.0160760
647.437	0.0160580
647.515	0.0161343
647.593	0.0161337
647.671	0.0160455
647.749	0.0158888
647.828	0.0160204
647.906	0.0159938
647.984	0.0159898
648.062	0.0162016
648.140	0.0161003
648.218	0.0159985
648.296	0.0161388
648.374	0.0163091
648.453	0.0161142
648.531	0.0161635
648.609	0.0159733
648.687	0.0160329
648.765	0.0160557
648.843	0.0159966
648.921	0.0161812
648.999	0.0160812
649.078	0.0162106
649.156	0.0162420
649.234	0.0160925
649.312	0.0162318
649.390	0.0160512
649.468	0.0161464
649.546	0.0161373
649.624	0.0161354
649.703	0.0161574
649.781	0.0162468
649.859	0.0160859
649.937	0.0160717
650.015	0.0163331
650.093	0.0161588
650.171	0.0161716
650.249	0.0161498
650.328	0.0163409
650.406	0.0161823
650.484	0.0162482
650.562	0.0162514
650.640	0.0163194
650.718	0.0162517
650.796	0.0161740
650.874	0.0163317
650.953	0.0162953
651.031	0.0164204
651.109	0.0164825
651.187	0.0164233
651.265	0.0163194
651.343	0.0164673
651.421	0.0164661
651.499	0.0164825
651.578	0.0163869
651.656	0.0164139
651.734	0.0163628
651.812	0.0164757
651.890	0.0164270
651.968	0.0164905
652.046	0.0164705
652.124	0.0165297
652.203	0.0165144
652.281	0.0165034
652.359	0.0164792
652.437	0.0165312
652.515	0.0164557
652.593	0.0165237
652.671	0.0166281
652.749	0.0165337
652.828	0.0166688
652.906	0.0166270
652.984	0.0166938
653.062	0.0165566
653.140	0.0165755
653.218	0.0165863
653.296	0.0166519
653.374	0.0165458
653.453	0.0166197
653.531	0.0167108
653.609	0.0167532
653.687	0.0166383
653.765	0.0166151
653.843	0.0166656
653.921	0.0166142
653.999	0.0167731
654.078	0.0166655
654.156	0.0165811
654.234	0.0166555
654.312	0.0166868
654.390	0.0165703
654.468	0.0166376
654.546	0.0168211
654.624	0.0165665
654.703	0.0166405
654.781	0.0166174
654.859	0.0164225
654.937	0.0165922
655.015	0.0165213
655.093	0.0164174
655.171	0.0164974
655.249	0.0164182
655.328	0.0165863
655.406	0.0163232
655.484	0.0162213
655.562	0.0163055
655.640	0.0162724
655.718	0.0163538
655.796	0.0161469
655.874	0.0161409
655.953	0.0161041
656.031	0.0161389
656.109	0.0160282
656.187	0.0160062
656.265	0.0160935
656.343	0.0160499
656.421	0.0160218
656.499	0.0160596
656.578	0.0159900
656.656	0.0160386
656.734	0.0159393
656.812	0.0159255
656.890	0.0159245
656.968	0.0160085
657.046	0.0159428
657.124	0.0159179
657.203	0.0159580
657.281	0.0159972
657.359	0.0160262
657.437	0.0158600
657.515	0.0159420
657.593	0.0160012
657.671	0.0158755
657.749	0.0158611
657.828	0.0159240
657.906	0.0159499
657.984	0.0159425
658.062	0.0158568
658.140	0.0158530
658.218	0.0159184
658.296	0.0159608
658.374	0.0161645
658.453	0.0160623
658.531	0.0161811
658.609	0.0162169
658.687	0.0161566
658.765	0.0159911
658.843	0.0158397
658.921	0.0161403
658.999	0.0160844
659.078	0.0160505
659.156	0.0159978
659.234	0.0160211
659.312	0.0159837
659.390	0.0160898
659.468	0.0160351
659.546	0.0160846
659.624	0.0159613
659.703	0.0158733
659.781	0.0159000
659.859	0.0159498
659.937	0.0159663
660.015	0.0160320
660.093	0.0160315
660.171	0.0160390
660.249	0.0159822
660.328	0.0160551
660.406	0.0159695
660.484	0.0159106
660.562	0.0160638
660.640	0.0161153
660.718	0.0161686
660.796	0.0159344
660.874	0.0159164
660.953	0.0159801
661.031	0.0159006
661.109	0.0160359
661.187	0.0159228
661.265	0.0160084
661.343	0.0159933
661.421	0.0160207
661.499	0.0160773
661.578	0.0161066
661.656	0.0160040
661.734	0.0160216
661.812	0.0160687
661.890	0.0160352
661.968	0.0160508
662.046	0.0161572
662.124	0.0159673
662.203	0.0160419
662.281	0.0161336
662.359	0.0161388
662.437	0.0160838
662.515	0.0161954
662.593	0.0161624
662.671	0.0160957
662.749	0.0161938
662.828	0.0162933
662.906	0.0161269
662.984	0.0160529
663.062	0.0162463
663.140	0.0161717
663.218	0.0162343
663.296	0.0161967
663.374	0.0162215
663.453	0.0162393
663.531	0.0163178
663.609	0.0163188
663.687	0.0162962
663.765	0.0164065
663.843	0.0162389
663.921	0.0162807
663.999	0.0162862
664.078	0.0163611
664.156	0.0164687
664.234	0.0161761
664.312	0.0163284
664.390	0.0162875
664.468	0.0164607
664.546	0.0162804
664.624	0.0163010
664.703	0.0163499
664.781	0.0163936
664.859	0.0162634
664.937	0.0161356
665.015	0.0163385
665.093	0.0161897
665.171	0.0160909
665.249	0.0162804
665.328	0.0161780
665.406	0.0162763
665.484	0.0161392
665.562	0.0160703
665.640	0.0160455
665.718	0.0160714
665.796	0.0161639
665.874	0.0159708
665.953	0.0160848
666.031	0.0160659
666.109	0.0161060
666.187	0.0162260
666.265	0.0163158
666.343	0.0162467
666.421	0.0161434
666.499	0.0159720
666.578	0.0161473
666.656	0.0158894
666.734	0.0160805
666.812	0.0162077
666.890	0.0159976
666.968	0.0160143
667.046	0.0159343
667.124	0.0159762
667.203	0.0159865
667.281	0.0158694
667.359	0.0161042
667.437	0.0160525
667.515	0.0162320
667.593	0.0160910
667.671	0.0160663
667.749	0.0159884
667.828	0.0159226
667.906	0.0161181
667.984	0.0161560
668.062	0.0160803
668.140	0.0159762
668.218	0.0160238
668.296	0.0162522
668.374	0.0160197
668.453	0.0160414
668.531	0.0160433
668.609	0.0160340
668.687	0.0159853
668.765	0.0159557
668.843	0.0162217
668.921	0.0161890
668.999	0.0161954
669.078	0.0161184
669.156	0.0161050
669.234	0.0161098
669.312	0.0161849
669.390	0.0162830
669.468	0.0161266
669.546	0.0160226
669.624	0.0161561
669.703	0.0160660
669.781	0.0161788
669.859	0.0161668
669.937	0.0162462
670.015	0.0162315
670.093	0.0161838
670.171	0.0161813
670.249	0.0161454
670.328	0.0161196
670.406	0.0161220
670.484	0.0161436
670.562	0.0160077
670.640	0.0161756
670.718	0.0160359
670.796	0.0161719
670.874	0.0162057
670.953	0.0162656
671.031	0.0161966
671.109	0.0161439
671.187	0.0161340
671.265	0.0161973
671.343	0.0162573
671.421	0.0163113
671.499	0.0162736
671.578	0.0161626
671.656	0.0162625
671.734	0.0162968
671.812	0.0162170
671.890	0.0161397
671.968	0.0163431
672.046	0.0163135
672.124	0.0162182
672.203	0.0163660
672.281	0.0162174
672.359	0.0162172
672.437	0.0163095
672.515	0.0161735
672.593	0.0161684
672.671	0.0162991
672.749	0.0162664
672.828	0.0161782
672.906	0.0163317
672.984	0.0161530
673.062	0.0161816
673.140	0.0161324
673.218	0.0162157
673.296	0.0160818
673.374	0.0163467
673.453	0.0161777
673.531	0.0161817
673.609	0.0162757
673.687	0.0161726
673.765	0.0163416
673.843	0.0162453
673.921	0.0159991
673.999	0.0162446
674.078	0.0162888
674.156	0.0161271
674.234	0.0161427
674.312	0.0161977
674.390	0.0162098
674.468	0.0161557
674.546	0.0161299
674.624	0.0161716
674.703	0.0161406
674.781	0.0161508
674.859	0.0160931
674.937	0.0161184
675.015	0.0159645
675.093	0.0161306
675.171	0.0161146
675.249	0.0162050
675.328	0.0161618
675.406	0.0161481
675.484	0.0161859
675.562	0.0162113
675.640	0.0162795
675.718	0.0161795
675.796	0.0162132
675.874	0.0161350
675.953	0.0162533
676.031	0.0162629
676.109	0.0161212
676.187	0.0162798
676.265	0.0162395
676.343	0.0162080
676.421	0.0162558
676.499	0.0162259
676.578	0.0162201
676.656	0.0162742
676.734	0.0164152
676.812	0.0163927
676.890	0.0163503
676.968	0.0162903
677.046	0.0162527
677.124	0.0163598
677.203	0.0163583
677.281	0.0163604
677.359	0.0162971
677.437	0.0162498
677.515	0.0163064
677.593	0.0162212
677.671	0.0162370
677.749	0.0162721
677.828	0.0162546
677.906	0.0162774
677.984	0.0163766
678.062	0.0163857
678.140	0.0162644
678.218	0.0161919
678.296	0.0162524
678.374	0.0161806
678.453	0.0161672
678.531	0.0162189
678.609	0.0161987
678.687	0.0162252
678.765	0.0161939
678.843	0.0163140
678.921	0.0162347
678.999	0.0161450
679.078	0.0163445
679.156	0.0162651
679.234	0.0162009
679.312	0.0162075
679.390	0.0162783
679.468	0.0162238
679.546	0.0161118
679.624	0.0161532
679.703	0.0161551
679.781	0.0162854
679.859	0.0161884
679.937	0.0163229
680.015	0.0161597
680.093	0.0161581
680.171	0.0162267
680.249	0.0161401
680.328	0.0162379
680.406	0.0162634
680.484	0.0163025
680.562	0.0161013
680.640	0.0160950
680.718	0.0162865
680.796	0.0161108
680.874	0.0161272
680.953	0.0161035
681.031	0.0160668
681.109	0.0162566
681.187	0.0162598
681.265	0.0160990
681.343	0.0162579
681.421	0.0161122
681.499	0.0161176
681.578	0.0161755
681.656	0.0161540
681.734	0.0161346
681.812	0.0161754
681.890	0.0160085
681.968	0.0160028
682.046	0.0161064
682.124	0.0161360
682.203	0.0160617
682.281	0.0160174
682.359	0.0161389
682.437	0.0160037
682.515	0.0161466
682.593	0.0159951
682.671	0.0160495
682.749	0.0161383
682.828	0.0160087
682.906	0.0159808
682.984	0.0160423
683.062	0.0159843
683.140	0.0160523
683.218	0.0160085
683.296	0.0160001
683.374	0.0159282
683.453	0.0160668
683.531	0.0160110
683.609	0.0158923
683.687	0.0159417
683.765	0.0159721
683.843	0.0160391
683.921	0.0160241
683.999	0.0161562
684.078	0.0161152
684.156	0.0158408
684.234	0.0159746
684.312	0.0160896
684.390	0.0159913
684.468	0.0161615
684.546	0.0161334
684.624	0.0161169
684.703	0.0160210
684.781	0.0160040
684.859	0.0160945
684.937	0.0161189
685.015	0.0160898
685.093	0.0161787
685.171	0.0162536
685.249	0.0162888
685.328	0.0162904
685.406	0.0161023
685.484	0.0161559
685.562	0.0160863
685.640	0.0161030
685.718	0.0162070
685.796	0.0162550
685.874	0.0162805
685.953	0.0162453
686.031	0.0162041
686.109	0.0161976
686.187	0.0161907
686.265	0.0162481
686.343	0.0161275
686.421	0.0162173
686.499	0.0163864
686.578	0.0164161
686.656	0.0164169
686.734	0.0165102
686.812	0.0162610
686.890	0.0163379
686.968	0.0163187
687.046	0.0163759
687.124	0.0164182
687.203	0.0163478
687.281	0.0164456
687.359	0.0164037
687.437	0.0162579
687.515	0.0163947
687.593	0.0164286
687.671	0.0163956
687.749	0.0164484
687.828	0.0163544
687.906	0.0162943
687.984	0.0163868
688.062	0.0163425
688.140	0.0163372
688.218	0.0162875
688.296	0.0162869
688.374	0.0162872
688.453	0.0164902
688.531	0.0163792
688.609	0.0162121
688.687	0.0161679
688.765	0.0163543
688.843	0.0162885
688.921	0.0162221
688.999	0.0162397
689.078	0.0161938
689.156	0.0162614
689.234	0.0162677
689.312	0.0163045
689.390	0.0161880
689.468	0.0162496
689.546	0.0161565
689.624	0.0161972
689.703	0.0162671
689.781	0.0162351
689.859	0.0161796
689.937	0.0160784
690.015	0.0161404
690.093	0.0162421
690.171	0.0161480
690.249	0.0162310
690.328	0.0160994
690.406	0.0161623
690.484	0.0162416
690.562	0.0161147
690.640	0.0160822
690.718	0.0162595
690.796	0.0162201
690.874	0.0161293
690.953	0.0161839
691.031	0.0162486
691.109	0.0161837
691.187	0.0161797
691.265	0.0161134
691.343	0.0161708
691.421	0.0161399
691.499	0.0161242
691.578	0.0162133
691.656	0.0162260
691.734	0.0160796
691.812	0.0161871
691.890	0.0159787
691.968	0.0160000
692.046	0.0161493
692.124	0.0159521
692.203	0.0160585
692.281	0.0161548
692.359	0.0160441
692.437	0.0160316
692.515	0.0160684
692.593	0.0161062
692.671	0.0158978
692.749	0.0160488
692.828	0.0161537
692.906	0.0161217
692.984	0.0161131
693.062	0.0160554
693.140	0.0159983
693.218	0.0160799
693.296	0.0161890
693.374	0.0161901
693.453	0.0160406
693.531	0.0160894
693.609	0.0160787
693.687	0.0160179
693.765	0.0161106
693.843	0.0160410
693.921	0.0160876
693.999	0.0162251
694.078	0.0160958
694.156	0.0160825
694.234	0.0161369
694.312	0.0160019
694.390	0.0160858
694.468	0.0160842
694.546	0.0162168
694.624	0.0161009
694.703	0.0160562
694.781	0.0161217
694.859	0.0160558
694.937	0.0160738
695.015	0.0160809
695.093	0.0160724
695.171	0.0160695
695.249	0.0160905
695.328	0.0161195
695.406	0.0161927
695.484	0.0161538
695.562	0.0160685
695.640	0.0161176
695.718	0.0159984
695.796	0.0162001
695.874	0.0161095
695.953	0.0159716
696.031	0.0160549
696.109	0.0161234
696.187	0.0161028
696.265	0.0160289
696.343	0.0160655
696.421	0.0160854
696.499	0.0161365
696.578	0.0161019
696.656	0.0159635
696.734	0.0161336
696.812	0.0161230
696.890	0.0161663
696.968	0.0160520
697.046	0.0161283
697.124	0.0160009
697.203	0.0159399
697.281	0.0162121
697.359	0.0160509
697.437	0.0161301
697.515	0.0161366
697.593	0.0161370
697.671	0.0161019
697.749	0.0161388
697.828	0.0161817
697.906	0.0161462
697.984	0.0161546
698.062	0.0161916
698.140	0.0162338
698.218	0.0161088
698.296	0.0162315
698.374	0.0162401
698.453	0.0161145
698.531	0.0161024
698.609	0.0162937
698.687	0.0161508
698.765	0.0161124
698.843	0.0162902
698.921	0.0162743
698.999	0.0161691
699.078	0.0162765
699.156	0.0161844
699.234	0.0159642
699.312	0.0161289
699.390	0.0162984
699.468	0.0161855
699.546	0.0162080
699.624	0.0162540
699.703	0.0162206
699.781	0.0161139
699.859	0.0161062
699.937	0.0162840
700.015	0.0163411
700.093	0.0162794
700.171	0.0161372
700.249	0.0162495
700.328	0.0163631
700.406	0.0162432
700.484	0.0161763
700.562	0.0161680
700.640	0.0162613
700.718	0.0162413
700.796	0.0164157
700.874	0.0164074
700.953	0.0163675
701.031	0.0162925
701.109	0.0163221
701.187	0.0163123
701.265	0.0163272
701.343	0.0163337
701.421	0.0162951
701.499	0.0163280
701.578	0.0163092
701.656	0.0163315
701.734	0.0162457
701.812	0.0162271
701.890	0.0162997
701.968	0.0163335
702.046	0.0163298
702.124	0.0163454
702.203	0.0162585
702.281	0.0164114
702.359	0.0163039
702.437	0.0163631
702.515	0.0164178
702.593	0.0162704
702.671	0.0164397
702.749	0.0164172
702.828	0.0163662
702.906	0.0163553
702.984	0.0164359
703.062	0.0164426
703.140	0.0163089
703.218	0.0164685
703.296	0.0164027
703.374	0.0163442
703.453	0.0163743
703.531	0.0164632
703.609	0.0162912
703.687	0.0164638
703.765	0.0162947
703.843	0.0163145
703.921	0.0163266
703.999	0.0161949
704.078	0.0162600
704.156	0.0162670
704.234	0.0163178
704.312	0.0162347
704.390	0.0162574
704.468	0.0162411
704.546	0.0161206
704.624	0.0161706
704.703	0.0162357
704.781	0.0162727
704.859	0.0161636
704.937	0.0162128
705.015	0.0163415
705.093	0.0162045
705.171	0.0163956
705.249	0.0162798
705.328	0.0162900
705.406	0.0162861
705.484	0.0162620
705.562	0.0163306
705.640	0.0163635
705.718	0.0164032
705.796	0.0161240
705.874	0.0163520
705.953	0.0163114
706.031	0.0162946
706.109	0.0162337
706.187	0.0161899
706.265	0.0163293
706.343	0.0162459
706.421	0.0161700
706.499	0.0162673
706.578	0.0163403
706.656	0.0164189
706.734	0.0163048
706.812	0.0161807
706.890	0.0162884
706.968	0.0162318
707.046	0.0162014
707.124	0.0162114
707.203	0.0162642
707.281	0.0161635
707.359	0.0162205
707.437	0.0162677
707.515	0.0163476
707.593	0.0162077
707.671	0.0163319
707.749	0.0163062
707.828	0.0163282
707.906	0.0162663
707.984	0.0163552
708.062	0.0163216
708.140	0.0163226
708.218	0.0162003
708.296	0.0162611
708.374	0.0162269
708.453	0.0162946
708.531	0.0164063
708.609	0.0162910
708.687	0.0163472
708.765	0.0162814
708.843	0.0163201
708.921	0.0164397
708.999	0.0163986
709.078	0.0164378
709.156	0.0163869
709.234	0.0163893
709.312	0.0164090
709.390	0.0164361
709.468	0.0164542
709.546	0.0163902
709.624	0.0163567
709.703	0.0163876
709.781	0.0165313
709.859	0.0164471
709.937	0.0164682
710.015	0.0162930
710.093	0.0163705
710.171	0.0164088
710.249	0.0164023
710.328	0.0164481
710.406	0.0164178
710.484	0.0164591
710.562	0.0163977
710.640	0.0162851
710.718	0.0163445
710.796	0.0164635
710.874	0.0164368
710.953	0.0164936
711.031	0.0163545
711.109	0.0163060
711.187	0.0163013
711.265	0.0163179
711.343	0.0163421
711.421	0.0162815
711.499	0.0163307
711.578	0.0164204
711.656	0.0162981
711.734	0.0164211
711.812	0.0162312
711.890	0.0162486
711.968	0.0163364
712.046	0.0161735
712.124	0.0162689
712.203	0.0163498
712.281	0.0164111
712.359	0.0161190
712.437	0.0162386
712.515	0.0162393
712.593	0.0161671
712.671	0.0161526
712.749	0.0161390
712.828	0.0162211
712.906	0.0161558
712.984	0.0159805
713.062	0.0160983
713.140	0.0160413
713.218	0.0161681
713.296	0.0160196
713.374	0.0160519
713.453	0.0159576
713.531	0.0162007
713.609	0.0161270
713.687	0.0161130
713.765	0.0159639
713.843	0.0159505
713.921	0.0160874
713.999	0.0161760
714.078	0.0160223
714.156	0.0160146
714.234	0.0160573
714.312	0.0161031
714.390	0.0159932
714.468	0.0159659
714.546	0.0159056
714.624	0.0159927
714.703	0.0161360
714.781	0.0158923
714.859	0.0159509
714.937	0.0159560
715.015	0.0160792
715.093	0.0160123
715.171	0.0159622
715.249	0.0159636
715.328	0.0161704
715.406	0.0160268
715.484	0.0159675
715.562	0.0160458
715.640	0.0160387
715.718	0.0160683
715.796	0.0160590
715.874	0.0161387
715.953	0.0160783
716.031	0.0160072
716.109	0.0162631
716.187	0.0160976
716.265	0.0161777
716.343	0.0161497
716.421	0.0161465
716.499	0.0162016
716.578	0.0161352
716.656	0.0161525
716.734	0.0162677
716.812	0.0162656
716.890	0.0162681
716.968	0.0163339
717.046	0.0162399
717.124	0.0162003
717.203	0.0163262
717.281	0.0162346
717.359	0.0161617
717.437	0.0162484
717.515	0.0163031
717.593	0.0162680
717.671	0.0161935
717.749	0.0161671
717.828	0.0162454
717.906	0.0162845
717.984	0.0162027
718.062	0.0160511
718.140	0.0161794
718.218	0.0161002
718.296	0.0161312
718.374	0.0161945
718.453	0.0160991
718.531	0.0162025
718.609	0.0161197
718.687	0.0159502
718.765	0.0159965
718.843	0.0159682
718.921	0.0159045
718.999	0.0159428
719.078	0.0160966
719.156	0.0160136
719.234	0.0160607
719.312	0.0161487
719.390	0.0160182
719.468	0.0159751
719.546	0.0159383
719.624	0.0159467
719.703	0.0160163
719.781	0.0160371
719.859	0.0160603
719.937	0.0160466
720.015	0.0159469
720.093	0.0159988
720.171	0.0161016
720.249	0.0160575
720.328	0.0161761
720.406	0.0160536
720.484	0.0161319
720.562	0.0161212
720.640	0.0161501
720.718	0.0162181
720.796	0.0160667
720.874	0.0161908
720.953	0.0160039
721.031	0.0158799
721.109	0.0161640
721.187	0.0161731
721.265	0.0160921
721.343	0.0161914
721.421	0.0161425
721.499	0.0159651
721.578	0.0160930
721.656	0.0161462
721.734	0.0160849
721.812	0.0160483
721.890	0.0160819
721.968	0.0161481
722.046	0.0162011
722.124	0.0160334
722.203	0.0159159
722.281	0.0160227
722.359	0.0160770
722.437	0.0159734
722.515	0.0160934
722.593	0.0160052
722.671	0.0162084
722.749	0.0161217
722.828	0.0161319
722.906	0.0161886
722.984	0.0162199
723.062	0.0161121
723.140	0.0161262
723.218	0.0161374
723.296	0.0161295
723.374	0.0162247
723.453	0.0161911
723.531	0.0161293
723.609	0.0162716
723.687	0.0163455
723.765	0.0162154
723.843	0.0161542
723.921	0.0162373
723.999	0.0162894
724.078	0.0161633
724.156	0.0163206
724.234	0.0163847
724.312	0.0162832
724.390	0.0162574
724.468	0.0162656
724.546	0.0162762
724.624	0.0164558
724.703	0.0163803
724.781	0.0164443
724.859	0.0162961
724.937	0.0163158
725.015	0.0164683
725.093	0.0163380
725.171	0.0163441
725.249	0.0163973
725.328	0.0164605
725.406	0.0163208
725.484	0.0162952
725.562	0.0163880
725.640	0.0163535
725.718	0.0164587
725.796	0.0162507
725.874	0.0163375
725.953	0.0164382
726.031	0.0162733
726.109	0.0162719
726.187	0.0163760
726.265	0.0162971
726.343	0.0163798
726.421	0.0163890
726.499	0.0163503
726.578	0.0163602
726.656	0.0163707
726.734	0.0163440
726.812	0.0163894
726.890	0.0162643
726.968	0.0161520
727.046	0.0162770
727.124	0.0162871
727.203	0.0162908
727.281	0.0163018
727.359	0.0162949
727.437	0.0161575
727.515	0.0162566
727.593	0.0162450
727.671	0.0162252
727.749	0.0162177
727.828	0.0161730
727.906	0.0162479
727.984	0.0161722
728.062	0.0161102
728.140	0.0162495
728.218	0.0161268
728.296	0.0161932
728.374	0.0161452
728.453	0.0162546
728.531	0.0161590
728.609	0.0162400
728.687	0.0162036
728.765	0.0162434
728.843	0.0162846
728.921	0.0161606
728.999	0.0162132
729.078	0.0161242
729.156	0.0161386
729.234	0.0162525
729.312	0.0162624
729.390	0.0161392
729.468	0.0161514
729.546	0.0161349
729.624	0.0160951
729.703	0.0161764
729.781	0.0161622
729.859	0.0161929
729.937	0.0160148
730.015	0.0160938
730.093	0.0160958
730.171	0.0160194
730.249	0.0160176
730.328	0.0160350
730.406	0.0161021
730.484	0.0160220
730.562	0.0160822
730.640	0.0160877
730.718	0.0160687
730.796	0.0161377
730.874	0.0159684
730.953	0.0160042
731.031	0.0159165
731.109	0.0160847
731.187	0.0160316
731.265	0.0161034
731.343	0.0159269
731.421	0.0159551
731.499	0.0161845
731.578	0.0161008
731.656	0.0160068
731.734	0.0160979
731.812	0.0159872
731.890	0.0161995
731.968	0.0160683
732.046	0.0160096
732.124	0.0161553
732.203	0.0161334
732.281	0.0160654
732.359	0.0162117
732.437	0.0161097
732.515	0.0160818
732.593	0.0161827
732.671	0.0162601
732.749	0.0163167
732.828	0.0161195
732.906	0.0162982
732.984	0.0162669
733.062	0.0163129
733.140	0.0161749
733.218	0.0163996
733.296	0.0163181
733.374	0.0163194
733.453	0.0162527
733.531	0.0163531
733.609	0.0162934
733.687	0.0161221
733.765	0.0161879
733.843	0.0161070
733.921	0.0162295
733.999	0.0161947
734.078	0.0161662
734.156	0.0160074
734.234	0.0160760
734.312	0.0161250
734.390	0.0161175
734.468	0.0159190
734.546	0.0160722
734.624	0.0161993
734.703	0.0160796
734.781	0.0161732
734.859	0.0161418
734.937	0.0161842
735.015	0.0161919
735.093	0.0162118
735.171	0.0161641
735.249	0.0159888
735.328	0.0162219
735.406	0.0162594
735.484	0.0161661
735.562	0.0161541
735.640	0.0163103
735.718	0.0163310
735.796	0.0160033
735.874	0.0160348
735.953	0.0162467
736.031	0.0162823
736.109	0.0162383
736.187	0.0161687
736.265	0.0161613
736.343	0.0162670
736.421	0.0162833
736.499	0.0160320
736.578	0.0159620
736.656	0.0162178
736.734	0.0162601
736.812	0.0160902
736.890	0.0159912
736.968	0.0159537
737.046	0.0161102
737.124	0.0160738
737.203	0.0161403
737.281	0.0159657
737.359	0.0159993
737.437	0.0160937
737.515	0.0161665
737.593	0.0162171
737.671	0.0161182
737.749	0.0159701
737.828	0.0161417
737.906	0.0160781
737.984	0.0160622
738.062	0.0161031
738.140	0.0160592
738.218	0.0162274
738.296	0.0161224
738.374	0.0162408
738.453	0.0160491
738.531	0.0159605
738.609	0.0160915
738.687	0.0159726
738.765	0.0159986
738.843	0.0161317
738.921	0.0161059
738.999	0.0159814
739.078	0.0159838
739.156	0.0160137
739.234	0.0160264
739.312	0.0160374
739.390	0.0161206
739.468	0.0161647
739.546	0.0160363
739.624	0.0159732
739.703	0.0159949
739.781	0.0158760
739.859	0.0160392
739.937	0.0159253
740.015	0.0158929
740.093	0.0159368
740.171	0.0160156
740.249	0.0160213
740.328	0.0159830
740.406	0.0159896
740.484	0.0160112
740.562	0.0159865
740.640	0.0159542
740.718	0.0161370
740.796	0.0160509
740.874	0.0160292
740.953	0.0159606
741.031	0.0159229
741.109	0.0160014
741.187	0.0160663
741.265	0.0159904
741.343	0.0160049
741.421	0.0160931
741.499	0.0161028
741.578	0.0159597
741.656	0.0160754
741.734	0.0161368
741.812	0.0159860
741.890	0.0160742
741.968	0.0160824
742.046	0.0161164
742.124	0.0161071
742.203	0.0161864
742.281	0.0161961
742.359	0.0162089
742.437	0.0161738
742.515	0.0161207
742.593	0.0162863
742.671	0.0161957
742.749	0.0162305
742.828	0.0162523
742.906	0.0163029
742.984	0.0160645
743.062	0.0162156
743.140	0.0163293
743.218	0.0161006
743.296	0.0161798
743.374	0.0161229
743.453	0.0162096
743.531	0.0162634
743.609	0.0161902
743.687	0.0161997
743.765	0.0161954
743.843	0.0161356
743.921	0.0161709
743.999	0.0162615
744.078	0.0162435
744.156	0.0162305
744.234	0.0161517
744.312	0.0161783
744.390	0.0162317
744.468	0.0161976
744.546	0.0162241
744.624	0.0160608
744.703	0.0161769
744.781	0.0160709
744.859	0.0161177
744.937	0.0160770
745.015	0.0161800
745.093	0.0162897
745.171	0.0160987
745.249	0.0161508
745.328	0.0161516
745.406	0.0161389
745.484	0.0162585
745.562	0.0161736
745.640	0.0161228
745.718	0.0161636
745.796	0.0162441
745.874	0.0162049
745.953	0.0162698
746.031	0.0160236
746.109	0.0161608
746.187	0.0162238
746.265	0.0162308
746.343	0.0160860
746.421	0.0162387
746.499	0.0162083
746.578	0.0161631
746.656	0.0161043
746.734	0.0161899
746.812	0.0161474
746.890	0.0161757
746.968	0.0160921
747.046	0.0160290
747.124	0.0161559
747.203	0.0160190
747.281	0.0161264
747.359	0.0160923
747.437	0.0161326
747.515	0.0162035
747.593	0.0160484
747.671	0.0160219
747.749	0.0162744
747.828	0.0161719
747.906	0.0160919
747.984	0.0159466
748.062	0.0162042
748.140	0.0161584
748.218	0.0161781
748.296	0.0161891
748.374	0.0161464
748.453	0.0161213
748.531	0.0161813
748.609	0.0162304
748.687	0.0162557
748.765	0.0160463
748.843	0.0161842
748.921	0.0162859
748.999	0.0162318
749.078	0.0161547
749.156	0.0161805
749.234	0.0160543
749.312	0.0161941
749.390	0.0160516
749.468	0.0161440
749.546	0.0162469
749.624	0.0162295
749.703	0.0161588
749.781	0.0162039
749.859	0.0162560
749.937	0.0162364
750.015	0.0162232
750.093	0.0162974
750.171	0.0161958
750.249	0.0162543
750.328	0.0162014
750.406	0.0163763
750.484	0.0162484
750.562	0.0162318
750.640	0.0162698
750.718	0.0161833
750.796	0.0163786
750.874	0.0163684
750.953	0.0162397
751.031	0.0161876
751.109	0.0161906
751.187	0.0161561
751.265	0.0162405
751.343	0.0161401
751.421	0.0163242
751.499	0.0162682
751.578	0.0162294
751.656	0.0162391
751.734	0.0160903
751.812	0.0161422
751.890	0.0161704
751.968	0.0162494
752.046	0.0161891
752.124	0.0161718
752.203	0.0161150
752.281	0.0161277
752.359	0.0161270
752.437	0.0161507
752.515	0.0161398
752.593	0.0162402
752.671	0.0160867
752.749	0.0162331
752.828	0.0160868
752.906	0.0161381
752.984	0.0160996
753.062	0.0163885
753.140	0.0160854
753.218	0.0162636
753.296	0.0160785
753.374	0.0162206
753.453	0.0163394
753.531	0.0161794
753.609	0.0160476
753.687	0.0161446
753.765	0.0162660
753.843	0.0163246
753.921	0.0162751
753.999	0.0162345
754.078	0.0163078
754.156	0.0162370
754.234	0.0162790
754.312	0.0162869
754.390	0.0163483
754.468	0.0162739
754.546	0.0163069
754.624	0.0162825
754.703	0.0163367
754.781	0.0163659
754.859	0.0163143
754.937	0.0163273
755.015	0.0163474
755.093	0.0161359
755.171	0.0161282
755.249	0.0162927
755.328	0.0162928
755.406	0.0162093
755.484	0.0162525
755.562	0.0162060
755.640	0.0161244
755.718	0.0163338
755.796	0.0162583
755.874	0.0162462
755.953	0.0162107
756.031	0.0163132
756.109	0.0162541
756.187	0.0162952
756.265	0.0161900
756.343	0.0160629
756.421	0.0161473
756.499	0.0163197
756.578	0.0162445
756.656	0.0162417
756.734	0.0162304
756.812	0.0160506
756.890	0.0161230
756.968	0.0162019
757.046	0.0161451
757.124	0.0163254
757.203	0.0160549
757.281	0.0161234
757.359	0.0161186
757.437	0.0161166
757.515	0.0161050
757.593	0.0160248
757.671	0.0160092
757.749	0.0160106
757.828	0.0160477
757.906	0.0159690
757.984	0.0160255
758.062	0.0160499
758.140	0.0159779
758.218	0.0159355
758.296	0.0160180
758.374	0.0159456
758.453	0.0159792
758.531	0.0159332
758.609	0.0161112
758.687	0.0160510
758.765	0.0159475
758.843	0.0159013
758.921	0.0161002
758.999	0.0160085
759.078	0.0158913
759.156	0.0160284
759.234	0.0160032
759.312	0.0161349
759.390	0.0161073
759.468	0.0161181
759.546	0.0160863
759.624	0.0159924
759.703	0.0161343
759.781	0.0160911
759.859	0.0160644
759.937	0.0159812
760.015	0.0160001
760.093	0.0159712
760.171	0.0160556
760.249	0.0158813
760.328	0.0160474
760.406	0.0159494
760.484	0.0160672
760.562	0.0160236
760.640	0.0161280
760.718	0.0161259
760.796	0.0160998
760.874	0.0161227
760.953	0.0161555
761.031	0.0160491
761.109	0.0159572
761.187	0.0160202
761.265	0.0161533
761.343	0.0160371
761.421	0.0160902
761.499	0.0161337
761.578	0.0161185
761.656	0.0161200
761.734	0.0160535
761.812	0.0159669
761.890	0.0160442
761.968	0.0159754
762.046	0.0159881
762.124	0.0158318
762.203	0.0159401
762.281	0.0160491
762.359	0.0158846
762.437	0.0160452
762.515	0.0159152
762.593	0.0157302
762.671	0.0159135
762.749	0.0159386
762.828	0.0159097
762.906	0.0159621
762.984	0.0158463
763.062	0.0159563
763.140	0.0159492
763.218	0.0160296
763.296	0.0159083
763.374	0.0160045
763.453	0.0159004
763.531	0.0159715
763.609	0.0160819
763.687	0.0159923
763.765	0.0160155
763.843	0.0159800
763.921	0.0161244
763.999	0.0161565
764.078	0.0161252
764.156	0.0161036
764.234	0.0161456
764.312	0.0161331
764.390	0.0161642
764.468	0.0162569
764.546	0.0163995
764.624	0.0163805
764.703	0.0161269
764.781	0.0164004
764.859	0.0162495
764.937	0.0162878
765.015	0.0162689
765.093	0.0162582
765.171	0.0163087
765.249	0.0162524
765.328	0.0165060
765.406	0.0163807
765.484	0.0163303
765.562	0.0164772
765.640	0.0163281
765.718	0.0163743
765.796	0.0162796
765.874	0.0163293
765.953	0.0164014
766.031	0.0164151
766.109	0.0163577
766.187	0.0163712
766.265	0.0164584
766.343	0.0164306
766.421	0.0164186
766.499	0.0164104
766.578	0.0163602
766.656	0.0163554
766.734	0.0163434
766.812	0.0164158
766.890	0.0163975
766.968	0.0165544
767.046	0.0163168
767.124	0.0163254
767.203	0.0163389
767.281	0.0163746
767.359	0.0163361
767.437	0.0162569
767.515	0.0163544
767.593	0.0163326
767.671	0.0162687
767.749	0.0163052
767.828	0.0161785
767.906	0.0162244
767.984	0.0162265
768.062	0.0161037
768.140	0.0162932
768.218	0.0163716
768.296	0.0161662
768.374	0.0162453
768.453	0.0161739
768.531	0.0158931
768.609	0.0161237
768.687	0.0160674
768.765	0.0161598
768.843	0.0161015
768.921	0.0160691
768.999	0.0162438
769.078	0.0162048
769.156	0.0161873
769.234	0.0162700
769.312	0.0161587
769.390	0.0160788
769.468	0.0161270
769.546	0.0160809
769.624	0.0163034
769.703	0.0162770
769.781	0.0162541
769.859	0.0161157
769.937	0.0159720
770.015	0.0162978
770.093	0.0162125
770.171	0.0161124
770.249	0.0162031
770.328	0.0161180
770.406	0.0161032
770.484	0.0160763
770.562	0.0160676
770.640	0.0160594
770.718	0.0161622
770.796	0.0160381
770.874	0.0160330
770.953	0.0160216
771.031	0.0159618
771.109	0.0161289
771.187	0.0159843
771.265	0.0161139
771.343	0.0160677
771.421	0.0161550
771.499	0.0162463
771.578	0.0161275
771.656	0.0161844
771.734	0.0163070
771.812	0.0162974
771.890	0.0162054
771.968	0.0161154
772.046	0.0163270
772.124	0.0162884
772.203	0.0161984
772.281	0.0163487
772.359	0.0162700
772.437	0.0162881
772.515	0.0163027
772.593	0.0162151
772.671	0.0161547
772.749	0.0160999
772.828	0.0161190
772.906	0.0161085
772.984	0.0161864
773.062	0.0160549
773.140	0.0160808
773.218	0.0161436
773.296	0.0162182
773.374	0.0160432
773.453	0.0161259
773.531	0.0161841
773.609	0.0163190
773.687	0.0161877
773.765	0.0162091
773.843	0.0163371
773.921	0.0162852
773.999	0.0163271
774.078	0.0163730
774.156	0.0163309
774.234	0.0162592
774.312	0.0164362
774.390	0.0164049
774.468	0.0162892
774.546	0.0162959
774.624	0.0163795
774.703	0.0162980
774.781	0.0165352
774.859	0.0163938
774.937	0.0163226
775.015	0.0164456
775.093	0.0164825
775.171	0.0164403
775.249	0.0164014
775.328	0.0163445
775.406	0.0163965
775.484	0.0164556
775.562	0.0163681
775.640	0.0163403
775.718	0.0162936
775.796	0.0163525
775.874	0.0163335
775.953	0.0164103
776.031	0.0163902
776.109	0.0162245
776.187	0.0161859
776.265	0.0163380
776.343	0.0163922
776.421	0.0162751
776.499	0.0162428
776.578	0.0163065
776.656	0.0163077
776.734	0.0162995
776.812	0.0163090
776.890	0.0163380
776.968	0.0164278
777.046	0.0162977
777.124	0.0163692
777.203	0.0163498
777.281	0.0164298
777.359	0.0163062
777.437	0.0163246
777.515	0.0163473
777.593	0.0164055
777.671	0.0162662
777.749	0.0162270
777.828	0.0164485
777.906	0.0163190
777.984	0.0162565
778.062	0.0163560
778.140	0.0162711
778.218	0.0163655
778.296	0.0163194
778.374	0.0162625
778.453	0.0161747
778.531	0.0163260
778.609	0.0163872
778.687	0.0163015
778.765	0.0163124
778.843	0.0162279
778.921	0.0162041
778.999	0.0163851
779.078	0.0162482
779.156	0.0162668
779.234	0.0162807
779.312	0.0163493
779.390	0.0163310
779.468	0.0163084
779.546	0.0162899
779.624	0.0163429
779.703	0.0163033
779.781	0.0162252
779.859	0.0164026
779.937	0.0162836
780.015	0.0162843
780.093	0.0161066
780.171	0.0163308
780.249	0.0163234
780.328	0.0162282
780.406	0.0162603
780.484	0.0163123
780.562	0.0163515
780.640	0.0161531
780.718	0.0161595
780.796	0.0161459
780.874	0.0162122
780.953	0.0160999
781.031	0.0161095
781.109	0.0161317
781.187	0.0160704
781.265	0.0161162
781.343	0.0160803
781.421	0.0161436
781.499	0.0160602
781.578	0.0160756
781.656	0.0161421
781.734	0.0160101
781.812	0.0160236
781.890	0.0158692
781.968	0.0160463
782.046	0.0161439
782.124	0.0161023
782.203	0.0161434
782.281	0.0160538
782.359	0.0162135
782.437	0.0160110
782.515	0.0159114
782.593	0.0158866
782.671	0.0160256
782.749	0.0159193
782.828	0.0159108
782.906	0.0159539
782.984	0.0160232
783.062	0.0160274
783.140	0.0160281
783.218	0.0159962
783.296	0.0158648
783.374	0.0159061
783.453	0.0159047
783.531	0.0159869
783.609	0.0158526
783.687	0.0158351
783.765	0.0159209
783.843	0.0159934
783.921	0.0160923
783.999	0.0161266
784.078	0.0160826
784.156	0.0160794
784.234	0.0161235
784.312	0.0161085
784.390	0.0160719
784.468	0.0161459
784.546	0.0162574
784.624	0.0161606
784.703	0.0160870
784.781	0.0161725
784.859	0.0160460
784.937	0.0160713
785.015	0.0162379
785.093	0.0161885
785.171	0.0160449
785.249	0.0162944
785.328	0.0163042
785.406	0.0162002
785.484	0.0162938
785.562	0.0162380
785.640	0.0161700
785.718	0.0162476
785.796	0.0163132
785.874	0.0163350
785.953	0.0162993
786.031	0.0163197
786.109	0.0164928
786.187	0.0161900
786.265	0.0160855
786.343	0.0163185
786.421	0.0163026
786.499	0.0162725
786.578	0.0162957
786.656	0.0163007
786.734	0.0163849
786.812	0.0163783
786.890	0.0163826
786.968	0.0162725
787.046	0.0162763
787.124	0.0162099
787.203	0.0162442
787.281	0.0163374
787.359	0.0163136
787.437	0.0163058
787.515	0.0162228
787.593	0.0162503
787.671	0.0161121
787.749	0.0163020
787.828	0.0162085
787.906	0.0163676
787.984	0.0164062
788.062	0.0164127
788.140	0.0165491
788.218	0.0163021
788.296	0.0163698
788.374	0.0165571
788.453	0.0164919
788.531	0.0165453
788.609	0.0165090
788.687	0.0165317
788.765	0.0164680
788.843	0.0164046
788.921	0.0165244
788.999	0.0164400
789.078	0.0165024
789.156	0.0164163
789.234	0.0164306
789.312	0.0163039
789.390	0.0164431
789.468	0.0164227
789.546	0.0163972
789.624	0.0163738
789.703	0.0163210
789.781	0.0163205
789.859	0.0162349
789.937	0.0163787
790.015	0.0162787
790.093	0.0163050
790.171	0.0163815
790.249	0.0163386
790.328	0.0163593
790.406	0.0163095
790.484	0.0160935
790.562	0.0163363
790.640	0.0164215
790.718	0.0162019
790.796	0.0161349
790.874	0.0162061
790.953	0.0162221
791.031	0.0161909
791.109	0.0162580
791.187	0.0161520
791.265	0.0160773
791.343	0.0160415
791.421	0.0162173
791.499	0.0163168
791.578	0.0160554
791.656	0.0161150
791.734	0.0161077
791.812	0.0162780
791.890	0.0161678
791.968	0.0161907
792.046	0.0160800
792.124	0.0161127
792.203	0.0160319
792.281	0.0161825
792.359	0.0161707
792.437	0.0160296
792.515	0.0161843
792.593	0.0160854
792.671	0.0160679
792.749	0.0162790
792.828	0.0160802
792.906	0.0161180
792.984	0.0160451
793.062	0.0160434
793.140	0.0162255
793.218	0.0160959
793.296	0.0161915
793.374	0.0160395
793.453	0.0161662
793.531	0.0162170
793.609	0.0162611
793.687	0.0162202
793.765	0.0160654
793.843	0.0161492
793.921	0.0161733
793.999	0.0162752
794.078	0.0162350
794.156	0.0160838
794.234	0.0161855
794.312	0.0164405
794.390	0.0162107
794.468	0.0164037
794.546	0.0163462
794.624	0.0162454
794.703	0.0162546
794.781	0.0162138
794.859	0.0161642
794.937	0.0163246
795.015	0.0162912
795.093	0.0160919
795.171	0.0162660
795.249	0.0162926
795.328	0.0161177
795.406	0.0161217
795.484	0.0161694
795.562	0.0160920
795.640	0.0160359
795.718	0.0160757
795.796	0.0161069
795.874	0.0161210
795.953	0.0161864
796.031	0.0160615
796.109	0.0161033
796.187	0.0160841
796.265	0.0160222
796.343	0.0162559
796.421	0.0161856
796.499	0.0162816
796.578	0.0162421
796.656	0.0162271
796.734	0.0162544
796.812	0.0163316
796.890	0.0163100
796.968	0.0162574
797.046	0.0163039
797.124	0.0165918
797.203	0.0164922
797.281	0.0163939
797.359	0.0163875
797.437	0.0163029
797.515	0.0162305
797.593	0.0163914
797.671	0.0163622
797.749	0.0163304
797.828	0.0163594
797.906	0.0162940
797.984	0.0164002
798.062	0.0164364
798.140	0.0163857
798.218	0.0164725
798.296	0.0163212
798.374	0.0163587
798.453	0.0165208
798.531	0.0163809
798.609	0.0163487
798.687	0.0163857
798.765	0.0163599
798.843	0.0163384
798.921	0.0164553
798.999	0.0162977
799.078	0.0162964
799.156	0.0163906
799.234	0.0163007
799.312	0.0160887
799.390	0.0163121
799.468	0.0161925
799.546	0.0161530
799.624	0.0162943
799.703	0.0160680
799.781	0.0161720
799.859	0.0162363
799.937	0.0161662
800.015	0.0162800
800.093	0.0161668
800.171	0.0162991
800.249	0.0162777
800.328	0.0161237
800.406	0.0162350
800.484	0.0163158
800.562	0.0163231
800.640	0.0162784
800.718	0.0162217
800.796	0.0162730
800.874	0.0162438
800.953	0.0163259
801.031	0.0162376
801.109	0.0162002
801.187	0.0162832
801.265	0.0163215
801.343	0.0162334
801.421	0.0161773
801.499	0.0163158
801.578	0.0162534
801.656	0.0162551
801.734	0.0163139
801.812	0.0161460
801.890	0.0161860
801.968	0.0161700
802.046	0.0160934
802.124	0.0161231
802.203	0.0161196
802.281	0.0160979
802.359	0.0160995
802.437	0.0160085
802.515	0.0158901
802.593	0.0160408
802.671	0.0159384
802.749	0.0159411
802.828	0.0158717
802.906	0.0159026
802.984	0.0159380
803.062	0.0158676
803.140	0.0158626
803.218	0.0158489
803.296	0.0158626
803.374	0.0159094
803.453	0.0158340
803.531	0.0158652
803.609	0.0158749
803.687	0.0159186
803.765	0.0159922
803.843	0.0159293
803.921	0.0158388
803.999	0.0158394
804.078	0.0160903
804.156	0.0159801
804.234	0.0159232
804.312	0.0158634
804.390	0.0160062
804.468	0.0160149
804.546	0.0159143
804.624	0.0160446
804.703	0.0161773
804.781	0.0160749
804.859	0.0161526
804.937	0.0160866
805.015	0.0160684
805.093	0.0161266
805.171	0.0161559
805.249	0.0160612
805.328	0.0160680
805.406	0.0159779
805.484	0.0160953
805.562	0.0160302
805.640	0.0160420
805.718	0.0158961
805.796	0.0159479
805.874	0.0162109
805.953	0.0160371
806.031	0.0160361
806.109	0.0159552
806.187	0.0158814
806.265	0.0161303
806.343	0.0160773
806.421	0.0160496
806.499	0.0162916
806.578	0.0159959
806.656	0.0159695
806.734	0.0160406
806.812	0.0161000
806.890	0.0162186
806.968	0.0161070
807.046	0.0161465
807.124	0.0162621
807.203	0.0161855
807.281	0.0163129
807.359	0.0164121
807.437	0.0162421
807.515	0.0162260
807.593	0.0162151
807.671	0.0162330
807.749	0.0163580
807.828	0.0163306
807.906	0.0159834
807.984	0.0161697
808.062	0.0161549
808.140	0.0161919
808.218	0.0162585
808.296	0.0164594
808.374	0.0163370
808.453	0.0163850
808.531	0.0163567
808.609	0.0164318
808.687	0.0164438
808.765	0.0163534
808.843	0.0163583
808.921	0.0163865
808.999	0.0165653
809.078	0.0165827
809.156	0.0163348
809.234	0.0164207
809.312	0.0163428
809.390	0.0165172
809.468	0.0163022
809.546	0.0164155
809.624	0.0163073
809.703	0.0162348
809.781	0.0165083
809.859	0.0163700
809.937	0.0162302
810.015	0.0162514
810.093	0.0163081
810.171	0.0161278
810.249	0.0162466
810.328	0.0161693
810.406	0.0160435
810.484	0.0162959
810.562	0.0161874
810.640	0.0161488
810.718	0.0163071
810.796	0.0161150
810.874	0.0162530
810.953	0.0161868
811.031	0.0160220
811.109	0.0162401
811.187	0.0161917
811.265	0.0162526
811.343	0.0160867
811.421	0.0161609
811.499	0.0161965
811.578	0.0161361
811.656	0.0161533
811.734	0.0162916
811.812	0.0163306
811.890	0.0161879
811.968	0.0160447
812.046	0.0160680
812.124	0.0162336
812.203	0.0162354
812.281	0.0161707
812.359	0.0161182
812.437	0.0160958
812.515	0.0160699
812.593	0.0162180
812.671	0.0161430
812.749	0.0161989
812.828	0.0162078
812.906	0.0162254
812.984	0.0163160
813.062	0.0163197
813.140	0.0162611
813.218	0.0161839
813.296	0.0161420
813.374	0.0162679
813.453	0.0161610
813.531	0.0161075
813.609	0.0161601
813.687	0.0161346
813.765	0.0161412
813.843	0.0161449
813.921	0.0160493
813.999	0.0160832
814.078	0.0161472
814.156	0.0161388
814.234	0.0162865
814.312	0.0162363
814.390	0.0163006
814.468	0.0162646
814.546	0.0163599
814.624	0.0163163
814.703	0.0162711
814.781	0.0163474
814.859	0.0163373
814.937	0.0163062
815.015	0.0162612
815.093	0.0161881
815.171	0.0161971
815.249	0.0162288
815.328	0.0162743
815.406	0.0161461
815.484	0.0161111
815.562	0.0160629
815.640	0.0161636
815.718	0.0161507
815.796	0.0160207
815.874	0.0161060
815.953	0.0161211
816.031	0.0160409
816.109	0.0161603
816.187	0.0160471
816.265	0.0160735
816.343	0.0161802
816.421	0.0160615
816.499	0.0162137
816.578	0.0161111
816.656	0.0160705
816.734	0.0160335
816.812	0.0161275
816.890	0.0162314
816.968	0.0162433
817.046	0.0160065
817.124	0.0162347
817.203	0.0162360
817.281	0.0162410
817.359	0.0162066
817.437	0.0161659
817.515	0.0163255
817.593	0.0165333
817.671	0.0162486
817.749	0.0162295
817.828	0.0164426
817.906	0.0163510
817.984	0.0163479
818.062	0.0163631
818.140	0.0163320
818.218	0.0165309
818.296	0.0163139
818.374	0.0164883
818.453	0.0165032
818.531	0.0165331
818.609	0.0164316
818.687	0.0164273
818.765	0.0163808
818.843	0.0163407
818.921	0.0164244
818.999	0.0163983
819.078	0.0162753
819.156	0.0163605
819.234	0.0163718
819.312	0.0163707
819.390	0.0162647
819.468	0.0163111
819.546	0.0163592
819.624	0.0163409
819.703	0.0162726
819.781	0.0162904
819.859	0.0163120
819.937	0.0163943
820.015	0.0163320
820.093	0.0162247
820.171	0.0162662
820.249	0.0161698
820.328	0.0162325
820.406	0.0161774
820.484	0.0160969
820.562	0.0161767
820.640	0.0161135
820.718	0.0161147
820.796	0.0160323
820.874	0.0159361
820.953	0.0159838
821.031	0.0159533
821.109	0.0160865
821.187	0.0158999
821.265	0.0161134
821.343	0.0160137
821.421	0.0158690
821.499	0.0160658
821.578	0.0160890
821.656	0.0160789
821.734	0.0161281
821.812	0.0161688
821.890	0.0162089
821.968	0.0160722
822.046	0.0160574
822.124	0.0161251
822.203	0.0159737
822.281	0.0161652
822.359	0.0159872
822.437	0.0159823
822.515	0.0161311
822.593	0.0160135
822.671	0.0159431
822.749	0.0159553
822.828	0.0160930
822.906	0.0160951
822.984	0.0161376
823.062	0.0160415
823.140	0.0161913
823.218	0.0161150
823.296	0.0160805
823.374	0.0161796
823.453	0.0160506
823.531	0.0161663
823.609	0.0162274
823.687	0.0160690
823.765	0.0162213
823.843	0.0161275
823.921	0.0161267
823.999	0.0160263
824.078	0.0160684
824.156	0.0160725
824.234	0.0160780
824.312	0.0159711
824.390	0.0159019
824.468	0.0159169
824.546	0.0157842
824.624	0.0159736
824.703	0.0159318
824.781	0.0158504
824.859	0.0159086
824.937	0.0160070
825.015	0.0158614
825.093	0.0157721
825.171	0.0158250
825.249	0.0159560
825.328	0.0159811
825.406	0.0158542
825.484	0.0158800
825.562	0.0158934
825.640	0.0158848
825.718	0.0159563
825.796	0.0159025
825.874	0.0159746
825.953	0.0160352
826.031	0.0160574
826.109	0.0159140
826.187	0.0161208
826.265	0.0161490
826.343	0.0161143
826.421	0.0161034
826.499	0.0160620
826.578	0.0160550
826.656	0.0160663
826.734	0.0160523
826.812	0.0160253
826.890	0.0158701
826.968	0.0158710
827.046	0.0159042
827.124	0.0159556
827.203	0.0158495
827.281	0.0159389
827.359	0.0159048
827.437	0.0158585
827.515	0.0158462
827.593	0.0159743
827.671	0.0161460
827.749	0.0159802
827.828	0.0159166
827.906	0.0159610
827.984	0.0159720
828.062	0.0159923
828.140	0.0160223
828.218	0.0160236
828.296	0.0161426
828.374	0.0162053
828.453	0.0158440
828.531	0.0160320
828.609	0.0160844
828.687	0.0160524
828.765	0.0160630
828.843	0.0160248
828.921	0.0161379
828.999	0.0160612
829.078	0.0161019
829.156	0.0160851
829.234	0.0161951
829.312	0.0161754
829.390	0.0162357
829.468	0.0162035
829.546	0.0161700
829.624	0.0160342
829.703	0.0161544
829.781	0.0161600
829.859	0.0162231
829.937	0.0162010
830.015	0.0159875
830.093	0.0160632
830.171	0.0160278
830.249	0.0161034
830.328	0.0161246
830.406	0.0160197
830.484	0.0159758
830.562	0.0158925
830.640	0.0159032
830.718	0.0160207
830.796	0.0160715
830.874	0.0160529
830.953	0.0161436
831.031	0.0160924
831.109	0.0160270
831.187	0.0159834
831.265	0.0161288
831.343	0.0160683
831.421	0.0161600
831.499	0.0162447
831.578	0.0160349
831.656	0.0160956
831.734	0.0159212
831.812	0.0160674
831.890	0.0160693
831.968	0.0160664
832.046	0.0160210
832.124	0.0161012
832.203	0.0161408
832.281	0.0160603
832.359	0.0161044
832.437	0.0159977
832.515	0.0160290
832.593	0.0158899
832.671	0.0160541
832.749	0.0162022
832.828	0.0160478
832.906	0.0161610
832.984	0.0163098
833.062	0.0161726
833.140	0.0162486
833.218	0.0164235
833.296	0.0162737
833.374	0.0164581
833.453	0.0162957
833.531	0.0163847
833.609	0.0165121
833.687	0.0164014
833.765	0.0163955
833.843	0.0164502
833.921	0.0165401
833.999	0.0163524
834.078	0.0161984
834.156	0.0162696
834.234	0.0163868
834.312	0.0164504
834.390	0.0163887
834.468	0.0162825
834.546	0.0162594
834.624	0.0164070
834.703	0.0161826
834.781	0.0161162
834.859	0.0161374
834.937	0.0160966
835.015	0.0160292
835.093	0.0161441
835.171	0.0161202
835.249	0.0160229
835.328	0.0160989
835.406	0.0159461
835.484	0.0161732
835.562	0.0160382
835.640	0.0158459
835.718	0.0161349
835.796	0.0160129
835.874	0.0160696
835.953	0.0160902
836.031	0.0158958
836.109	0.0161298
836.187	0.0158781
836.265	0.0160375
836.343	0.0162090
836.421	0.0161215
836.499	0.0161039
836.578	0.0162157
836.656	0.0162688
836.734	0.0162854
836.812	0.0162927
836.890	0.0163219
836.968	0.0162675
837.046	0.0164069
837.124	0.0163460
837.203	0.0162041
837.281	0.0162522
837.359	0.0163385
837.437	0.0163657
837.515	0.0161967
837.593	0.0162274
837.671	0.0163791
837.749	0.0162423
837.828	0.0162894
837.906	0.0162483
837.984	0.0162686
838.062	0.0161820
838.140	0.0162444
838.218	0.0160788
838.296	0.0162568
838.374	0.0162812
838.453	0.0161919
838.531	0.0162724
838.609	0.0161869
838.687	0.0162428
838.765	0.0161282
838.843	0.0161274
838.921	0.0162507
838.999	0.0162586
839.078	0.0162062
839.156	0.0160786
839.234	0.0160535
839.312	0.0160654
839.390	0.0162833
839.468	0.0161968
839.546	0.0162543
839.624	0.0162310
839.703	0.0162198
839.781	0.0162576
839.859	0.0162748
839.937	0.0162016
840.015	0.0161977
840.093	0.0164087
840.171	0.0163284
840.249	0.0163242
840.328	0.0163830
840.406	0.0162994
840.484	0.0163589
840.562	0.0162726
840.640	0.0163052
840.718	0.0163892
840.796	0.0164272
840.874	0.0162228
840.953	0.0163181
841.031	0.0163000
841.109	0.0163498
841.187	0.0164266
841.265	0.0161933
841.343	0.0161301
841.421	0.0162823
841.499	0.0163984
841.578	0.0164481
841.656	0.0163920
841.734	0.0165083
841.812	0.0164384
841.890	0.0165066
841.968	0.0164977
842.046	0.0164704
842.124	0.0164510
842.203	0.0163625
842.281	0.0164581
842.359	0.0163476
842.437	0.0162738
842.515	0.0162911
842.593	0.0162982
842.671	0.0163106
842.749	0.0162834
842.828	0.0163555
842.906	0.0161679
842.984	0.0161800
843.062	0.0161106
843.140	0.0162434
843.218	0.0163001
843.296	0.0161995
843.374	0.0162608
843.453	0.0161782
843.531	0.0162163
843.609	0.0162099
843.687	0.0162919
843.765	0.0163940
843.843	0.0162106
843.921	0.0163173
843.999	0.0162717
844.078	0.0162790
844.156	0.0161843
844.234	0.0161773
844.312	0.0161448
844.390	0.0161160
844.468	0.0161095
844.546	0.0162604
844.624	0.0161415
844.703	0.0161453
844.781	0.0161361
844.859	0.0160173
844.937	0.0161362
845.015	0.0162502
845.093	0.0160950
845.171	0.0162234
845.249	0.0161789
845.328	0.0162654
845.406	0.0160934
845.484	0.0161759
845.562	0.0162174
845.640	0.0161154
845.718	0.0162756
845.796	0.0161239
845.874	0.0162418
845.953	0.0161711
846.031	0.0161637
846.109	0.0160873
846.187	0.0162019
846.265	0.0161223
846.343	0.0161080
846.421	0.0161124
846.499	0.0159954
846.578	0.0159342
846.656	0.0160876
846.734	0.0159467
846.812	0.0159693
846.890	0.0160501
846.968	0.0159380
847.046	0.0160543
847.124	0.0158951
847.203	0.0160307
847.281	0.0160362
847.359	0.0160120
847.437	0.0159172
847.515	0.0159914
847.593	0.0160667
847.671	0.0160172
847.749	0.0161227
847.828	0.0161082
847.906	0.0160889
847.984	0.0160212
848.062	0.0161420
848.140	0.0161095
848.218	0.0160477
848.296	0.0161086
848.374	0.0161425
848.453	0.0160760
848.531	0.0162093
848.609	0.0161610
848.687	0.0162486
848.765	0.0164143
848.843	0.0161965
848.921	0.0163235
848.999	0.0162885
849.078	0.0162796
849.156	0.0163013
849.234	0.0162966
849.312	0.0161944
849.390	0.0162772
849.468	0.0162870
849.546	0.0164355
849.624	0.0164064
849.703	0.0162512
849.781	0.0162621
849.859	0.0162160
849.937	0.0163181
850.015	0.0162366
850.093	0.0162351
850.171	0.0161401
850.249	0.0162170
850.328	0.0162159
850.406	0.0161843
850.484	0.0162337
850.562	0.0160965
850.640	0.0161374
850.718	0.0160892
850.796	0.0160594
850.874	0.0160652
850.953	0.0159463
851.031	0.0160546
851.109	0.0161308
851.187	0.0160478
851.265	0.0159923
851.343	0.0159903
851.421	0.0161720
851.499	0.0160361
851.578	0.0160254
851.656	0.0160963
851.734	0.0161848
851.812	0.0163000
851.890	0.0161197
851.968	0.0162060
852.046	0.0162167
852.124	0.0162708
852.203	0.0162006
852.281	0.0161683
852.359	0.0162636
852.437	0.0161855
852.515	0.0162000
852.593	0.0161712
852.671	0.0161367
852.749	0.0162701
852.828	0.0162265
852.906	0.0162328
852.984	0.0161210
853.062	0.0161701
853.140	0.0161605
853.218	0.0161813
853.296	0.0161065
853.374	0.0162783
853.453	0.0161327
853.531	0.0161837
853.609	0.0161814
853.687	0.0162340
853.765	0.0161387
853.843	0.0162768
853.921	0.0160537
853.999	0.0161546
854.078	0.0160557
854.156	0.0161393
854.234	0.0160997
854.312	0.0159708
854.390	0.0161134
854.468	0.0160432
854.546	0.0161475
854.624	0.0160454
854.703	0.0160670
854.781	0.0160884
854.859	0.0162153
854.937	0.0163219
855.015	0.0161040
855.093	0.0160400
855.171	0.0160521
855.249	0.0161671
855.328	0.0161639
855.406	0.0161607
855.484	0.0162164
855.562	0.0160780
855.640	0.0159635
855.718	0.0160895
855.796	0.0160255
855.874	0.0159726
855.953	0.0159356
856.031	0.0160677
856.109	0.0159367
856.187	0.0159129
856.265	0.0160799
856.343	0.0160484
856.421	0.0160364
856.499	0.0160090
856.578	0.0159773
856.656	0.0160908
856.734	0.0161600
856.812	0.0161137
856.890	0.0162453
856.968	0.0160194
857.046	0.0160154
857.124	0.0161611
857.203	0.0161442
857.281	0.0162479
857.359	0.0163316
857.437	0.0162523
857.515	0.0163248
857.593	0.0162032
857.671	0.0162443
857.749	0.0163808
857.828	0.0162153
857.906	0.0163399
857.984	0.0163448
858.062	0.0163697
858.140	0.0161101
858.218	0.0161961
858.296	0.0163626
858.374	0.0164234
858.453	0.0163753
858.531	0.0162967
858.609	0.0161361
858.687	0.0163473
858.765	0.0162883
858.843	0.0162691
858.921	0.0162009
858.999	0.0163744
859.078	0.0162791
859.156	0.0162926
859.234	0.0162533
859.312	0.0161304
859.390	0.0160870
859.468	0.0162127
859.546	0.0161954
859.624	0.0160837
859.703	0.0162418
859.781	0.0159659
859.859	0.0161634
859.937	0.0161333
860.015	0.0160667
860.093	0.0160887
860.171	0.0160901
860.249	0.0161008
860.328	0.0159092
860.406	0.0160314
860.484	0.0162018
860.562	0.0161777
860.640	0.0162276
860.718	0.0161550
860.796	0.0161906
860.874	0.0161680
860.953	0.0162825
861.031	0.0162376
861.109	0.0163185
861.187	0.0163007
861.265	0.0164086
861.343	0.0163012
861.421	0.0163165
861.499	0.0164344
861.578	0.0163729
861.656	0.0163714
861.734	0.0163670
861.812	0.0163837
861.890	0.0163586
861.968	0.0163232
862.046	0.0163374
862.124	0.0163527
862.203	0.0162276
862.281	0.0164137
862.359	0.0162734
862.437	0.0161559
862.515	0.0163569
862.593	0.0163669
862.671	0.0162501
862.749	0.0162004
862.828	0.0162016
862.906	0.0162211
862.984	0.0161495
863.062	0.0161434
863.140	0.0161678
863.218	0.0162128
863.296	0.0160211
863.374	0.0159973
863.453	0.0160633
863.531	0.0159852
863.609	0.0159598
863.687	0.0160221
863.765	0.0160880
863.843	0.0161009
863.921	0.0160699
863.999	0.0161228
864.078	0.0160591
864.156	0.0161823
864.234	0.0161021
864.312	0.0160480
864.390	0.0161526
864.468	0.0160682
864.546	0.0160665
864.624	0.0161442
864.703	0.0160405
864.781	0.0160375
864.859	0.0160733
864.937	0.0162386
865.015	0.0162286
865.093	0.0162083
865.171	0.0161252
865.249	0.0160863
865.328	0.0162060
865.406	0.0161246
865.484	0.0160127
865.562	0.0162728
865.640	0.0161732
865.718	0.0160538
865.796	0.0160954
865.874	0.0161286
865.953	0.0161955
866.031	0.0162067
866.109	0.0162083
866.187	0.0161556
866.265	0.0160420
866.343	0.0161450
866.421	0.0162895
866.499	0.0160673
866.578	0.0161003
866.656	0.0160578
866.734	0.0160927
866.812	0.0161635
866.890	0.0161583
866.968	0.0160516
867.046	0.0162356
867.124	0.0163196
867.203	0.0162021
867.281	0.0160397
867.359	0.0162217
867.437	0.0163389
867.515	0.0163350
867.593	0.0163367
867.671	0.0162296
867.749	0.0163043
867.828	0.0164050
867.906	0.0162992
867.984	0.0163740
868.062	0.0163541
868.140	0.0161817
868.218	0.0163106
868.296	0.0162791
868.374	0.0162717
868.453	0.0163131
868.531	0.0163638
868.609	0.0162782
868.687	0.0163522
868.765	0.0163593
868.843	0.0164209
868.921	0.0162720
868.999	0.0163127
869.078	0.0161652
869.156	0.0162666
869.234	0.0163332
869.312	0.0161707
869.390	0.0161040
869.468	0.0163609
869.546	0.0161891
869.624	0.0161829
869.703	0.0162891
869.781	0.0162701
869.859	0.0161232
869.937	0.0161436
870.015	0.0161533
870.093	0.0161517
870.171	0.0161534
870.249	0.0161550
870.328	0.0162355
870.406	0.0161935
870.484	0.0161713
870.562	0.0162464
870.640	0.0161140
870.718	0.0162614
870.796	0.0161455
870.874	0.0162572
870.953	0.0162882
871.031	0.0163022
871.109	0.0162212
871.187	0.0162949
871.265	0.0163293
871.343	0.0163313
871.421	0.0162663
871.499	0.0162815
871.578	0.0161822
871.656	0.0163896
871.734	0.0162469
871.812	0.0162459
871.890	0.0161768
871.968	0.0162619
872.046	0.0163219
872.124	0.0162683
872.203	0.0162444
872.281	0.0162215
872.359	0.0160766
872.437	0.0162677
872.515	0.0160877
872.593	0.0162233
872.671	0.0161543
872.749	0.0161621
872.828	0.0162592
872.906	0.0162062
872.984	0.0161185
873.062	0.0162250
873.140	0.0161938
873.218	0.0160593
873.296	0.0159648
873.374	0.0161705
873.453	0.0162614
873.531	0.0161765
873.609	0.0161411
873.687	0.0161749
873.765	0.0160361
873.843	0.0160456
873.921	0.0161726
873.999	0.0161321
874.078	0.0161420
874.156	0.0160896
874.234	0.0160844
874.312	0.0161838
874.390	0.0162341
874.468	0.0161445
874.546	0.0161005
874.624	0.0162658
874.703	0.0161779
874.781	0.0159779
874.859	0.0160818
874.937	0.0161378
875.015	0.0162897
875.093	0.0162958
875.171	0.0161970
875.249	0.0161139
875.328	0.0161562
875.406	0.0160960
875.484	0.0164867
875.562	0.0161352
875.640	0.0161549
875.718	0.0162138
875.796	0.0160978
875.874	0.0161617
875.953	0.0161467
876.031	0.0161028
876.109	0.0161575
876.187	0.0161433
876.265	0.0162047
876.343	0.0159909
876.421	0.0159854
876.499	0.0161184
876.578	0.0160488
876.656	0.0161612
876.734	0.0162889
876.812	0.0159794
876.890	0.0161275
876.968	0.0160854
877.046	0.0160952
877.124	0.0160680
877.203	0.0162006
877.281	0.0161190
877.359	0.0162393
877.437	0.0161537
877.515	0.0162045
877.593	0.0161414
877.671	0.0162054
877.749	0.0162660
877.828	0.0162101
877.906	0.0161604
877.984	0.0161877
878.062	0.0162418
878.140	0.0161745
878.218	0.0163025
878.296	0.0163103
878.374	0.0161279
878.453	0.0161628
878.531	0.0160748
878.609	0.0162362
878.687	0.0162287
878.765	0.0160870
878.843	0.0160104
878.921	0.0162472
878.999	0.0161359
879.078	0.0159750
879.156	0.0160250
879.234	0.0159831
879.312	0.0159512
879.390	0.0160730
879.468	0.0159988
879.546	0.0160845
879.624	0.0161179
879.703	0.0160519
879.781	0.0160455
879.859	0.0161709
879.937	0.0160638
880.015	0.0161404
880.093	0.0160750
880.171	0.0159955
880.249	0.0161095
880.328	0.0160719
880.406	0.0160178
880.484	0.0162311
880.562	0.0162093
880.640	0.0161407
880.718	0.0161415
880.796	0.0160838
880.874	0.0162013
880.953	0.0161530
881.031	0.0161308
881.109	0.0160793
881.187	0.0160979
881.265	0.0161829
881.343	0.0161437
881.421	0.0159747
881.499	0.0160117
881.578	0.0160928
881.656	0.0161616
881.734	0.0162358
881.812	0.0160713
881.890	0.0159759
881.968	0.0160829
882.046	0.0161468
882.124	0.0161459
882.203	0.0161649
882.281	0.0160250
882.359	0.0160755
882.437	0.0162300
882.515	0.0160847
882.593	0.0160760
882.671	0.0162109
882.749	0.0162198
882.828	0.0161120
882.906	0.0162167
882.984	0.0162614
883.062	0.0161440
883.140	0.0163032
883.218	0.0163112
883.296	0.0162367
883.374	0.0162531
883.453	0.0162857
883.531	0.0163110
883.609	0.0161610
883.687	0.0161710
883.765	0.0163097
883.843	0.0162268
883.921	0.0162407
883.999	0.0163103
884.078	0.0164183
884.156	0.0162643
884.234	0.0162665
884.312	0.0163454
884.390	0.0164367
884.468	0.0163322
884.546	0.0162292
884.624	0.0163764
884.703	0.0164365
884.781	0.0163463
884.859	0.0164547
884.937	0.0165514
885.015	0.0163391
885.093	0.0164048
885.171	0.0164822
885.249	0.0163959
885.328	0.0164294
885.406	0.0163496
885.484	0.0163641
885.562	0.0163962
885.640	0.0163579
885.718	0.0164075
885.796	0.0166031
885.874	0.0165774
885.953	0.0164998
886.031	0.0163883
886.109	0.0164777
886.187	0.0164429
886.265	0.0164201
886.343	0.0163643
886.421	0.0163834
886.499	0.0163747
886.578	0.0162225
886.656	0.0163772
886.734	0.0162528
886.812	0.0161570
886.890	0.0162894
886.968	0.0162388
887.046	0.0160875
887.124	0.0162391
887.203	0.0162397
887.281	0.0162116
887.359	0.0160626
887.437	0.0161622
887.515	0.0161658
887.593	0.0160658
887.671	0.0160173
887.749	0.0160025
887.828	0.0160506
887.906	0.0161604
887.984	0.0161555
888.062	0.0160529
888.140	0.0160333
888.218	0.0161892
888.296	0.0161694
888.374	0.0161362
888.453	0.0161289
888.531	0.0161655
888.609	0.0161716
888.687	0.0162150
888.765	0.0162234
888.843	0.0165470
888.921	0.0163169
888.999	0.0162074
889.078	0.0163419
889.156	0.0162746
889.234	0.0164014
889.312	0.0163416
889.390	0.0163972
889.468	0.0163568
889.546	0.0164142
889.624	0.0164570
889.703	0.0164715
889.781	0.0164265
889.859	0.0164194
889.937	0.0163861
890.015	0.0161928
890.093	0.0163040
890.171	0.0164131
890.249	0.0164389
890.328	0.0164212
890.406	0.0163322
890.484	0.0163557
890.562	0.0163306
890.640	0.0163090
890.718	0.0163701
890.796	0.0164531
890.874	0.0163483
890.953	0.0163804
891.031	0.0164907
891.109	0.0165145
891.187	0.0164044
891.265	0.0163378
891.343	0.0164353
891.421	0.0164444
891.499	0.0164317
891.578	0.0162192
891.656	0.0164915
891.734	0.0163447
891.812	0.0164297
891.890	0.0161021
891.968	0.0162098
892.046	0.0162885
892.124	0.0162531
892.203	0.0162281
892.281	0.0161452
892.359	0.0162267
892.437	0.0161736
892.515	0.0161848
892.593	0.0161217
892.671	0.0160056
892.749	0.0161505
892.828	0.0161094
892.906	0.0161067
892.984	0.0160487
893.062	0.0161864
893.140	0.0159629
893.218	0.0159707
893.296	0.0160164
893.374	0.0159500
893.453	0.0160063
893.531	0.0161160
893.609	0.0160762
893.687	0.0160575
893.765	0.0161696
893.843	0.0160813
893.921	0.0161182
893.999	0.0161323
894.078	0.0161510
894.156	0.0160682
894.234	0.0161535
894.312	0.0161005
894.390	0.0160164
894.468	0.0161253
894.546	0.0159937
894.624	0.0161379
894.703	0.0162930
894.781	0.0160118
894.859	0.0160635
894.937	0.0161716
895.015	0.0161701
895.093	0.0161080
895.171	0.0161664
895.249	0.0160014
895.328	0.0160610
895.406	0.0162180
895.484	0.0160418
895.562	0.0161367
895.640	0.0162498
895.718	0.0161532
895.796	0.0163000
895.874	0.0162644
895.953	0.0160525
896.031	0.0161686
896.109	0.0162088
896.187	0.0163338
896.265	0.0160490
896.343	0.0161720
896.421	0.0161297
896.499	0.0161939
896.578	0.0161949
896.656	0.0163297
896.734	0.0162498
896.812	0.0161971
896.890	0.0161732
896.968	0.0163203
897.046	0.0163950
897.124	0.0162295
897.203	0.0162218
897.281	0.0162918
897.359	0.0164069
897.437	0.0163616
897.515	0.0162209
897.593	0.0163557
897.671	0.0162511
897.749	0.0164037
897.828	0.0162165
897.906	0.0162363
897.984	0.0162318
898.062	0.0163256
898.140	0.0163622
898.218	0.0162312
898.296	0.0162932
898.374	0.0163377
898.453	0.0162998
898.531	0.0162353
898.609	0.0161843
898.687	0.0162947
898.765	0.0162801
898.843	0.0162042
898.921	0.0161993
898.999	0.0162650
899.078	0.0162654
899.156	0.0162177
899.234	0.0162376
899.312	0.0162568
899.390	0.0162794
899.468	0.0162090
899.546	0.0163701
899.624	0.0163175
899.703	0.0162119
899.781	0.0163570
899.859	0.0163187
899.937	0.0162373
900.015	0.0161919
900.093	0.0161518
900.171	0.0162361
900.249	0.0161688
900.328	0.0162523
900.406	0.0162660
900.484	0.0161710
900.562	0.0160770
900.640	0.0160624
900.718	0.0161083
900.796	0.0161259
900.874	0.0161865
900.953	0.0160354
901.031	0.0161072
901.109	0.0161079
901.187	0.0160788
901.265	0.0160341
901.343	0.0161205
901.421	0.0161333
901.499	0.0161304
901.578	0.0160816
901.656	0.0159824
901.734	0.0160655
901.812	0.0162092
901.890	0.0160522
901.968	0.0161591
902.046	0.0161679
902.124	0.0160683
902.203	0.0162012
902.281	0.0161546
902.359	0.0162401
902.437	0.0162237
902.515	0.0161805
902.593	0.0161664
902.671	0.0161794
902.749	0.0161383
902.828	0.0160941
902.906	0.0162540
902.984	0.0160703
903.062	0.0161542
903.140	0.0160473
903.218	0.0161683
903.296	0.0160397
903.374	0.0160936
903.453	0.0161801
903.531	0.0158913
903.609	0.0159177
903.687	0.0162163
903.765	0.0160399
903.843	0.0159347
903.921	0.0160098
903.999	0.0159589
904.078	0.0160293
904.156	0.0159583
904.234	0.0159628
904.312	0.0159048
904.390	0.0158737
904.468	0.0157755
904.546	0.0159258
904.624	0.0160339
904.703	0.0159899
904.781	0.0158962
904.859	0.0160040
904.937	0.0160249
905.015	0.0160181
905.093	0.0160321
905.171	0.0160873
905.249	0.0160726
905.328	0.0160616
905.406	0.0159968
905.484	0.0160919
905.562	0.0161482
905.640	0.0160876
905.718	0.0160480
905.796	0.0161176
905.874	0.0161733
905.953	0.0161672
906.031	0.0161723
906.109	0.0162676
906.187	0.0161731
906.265	0.0162086
906.343	0.0161723
906.421	0.0161131
906.499	0.0163634
906.578	0.0163840
906.656	0.0162080
906.734	0.0162615
906.812	0.0162718
906.890	0.0165022
906.968	0.0162150
907.046	0.0162440
907.124	0.0163525
907.203	0.0162956
907.281	0.0163983
907.359	0.0162848
907.437	0.0163649
907.515	0.0163929
907.593	0.0162743
907.671	0.0162623
907.749	0.0163325
907.828	0.0162408
907.906	0.0163274
907.984	0.0164526
908.062	0.0163056
908.140	0.0161771
908.218	0.0162991
908.296	0.0162724
908.374	0.0163512
908.453	0.0163708
908.531	0.0161806
908.609	0.0162271
908.687	0.0161732
908.765	0.0163728
908.843	0.0161994
908.921	0.0162582
908.999	0.0161766
909.078	0.0162603
909.156	0.0162579
909.234	0.0162472
909.312	0.0161716
909.390	0.0162177
909.468	0.0162489
909.546	0.0163121
909.624	0.0162492
909.703	0.0162452
909.781	0.0163371
909.859	0.0163512
909.937	0.0162225
910.015	0.0164214
910.093	0.0164693
910.171	0.0163404
910.249	0.0164098
910.328	0.0164217
910.406	0.0164201
910.484	0.0164093
910.562	0.0164215
910.640	0.0164252
910.718	0.0164922
910.796	0.0164635
910.874	0.0163176
910.953	0.0164596
911.031	0.0164928
911.109	0.0165205
911.187	0.0164230
911.265	0.0164745
911.343	0.0165755
911.421	0.0165175
911.499	0.0165734
911.578	0.0164768
911.656	0.0164630
911.734	0.0165361
911.812	0.0165378
911.890	0.0164147
911.968	0.0164167
912.046	0.0165126
912.124	0.0163442
912.203	0.0165108
912.281	0.0163795
912.359	0.0164327
912.437	0.0164787
912.515	0.0163944
912.593	0.0163250
912.671	0.0165116
912.749	0.0165048
912.828	0.0164861
912.906	0.0165038
912.984	0.0164085
913.062	0.0164386
913.140	0.0164526
913.218	0.0165160
913.296	0.0163746
913.374	0.0162899
913.453	0.0164466
913.531	0.0164051
913.609	0.0162135
913.687	0.0163049
913.765	0.0162758
913.843	0.0162582
913.921	0.0164760
913.999	0.0163940
914.078	0.0164571
914.156	0.0162815
914.234	0.0164268
914.312	0.0164532
914.390	0.0164661
914.468	0.0163144
914.546	0.0162495
914.624	0.0165199
914.703	0.0163417
914.781	0.0164294
914.859	0.0164546
914.937	0.0164032
915.015	0.0164338
915.093	0.0165205
915.171	0.0163987
915.249	0.0162887
915.328	0.0163197
915.406	0.0164428
915.484	0.0163297
915.562	0.0164120
915.640	0.0164118
915.718	0.0161453
915.796	0.0162418
915.874	0.0163397
915.953	0.0163921
916.031	0.0164035
916.109	0.0164537
916.187	0.0162287
916.265	0.0162670
916.343	0.0162707
916.421	0.0162550
916.499	0.0161903
916.578	0.0162911
916.656	0.0161716
916.734	0.0161148
916.812	0.0161508
916.890	0.0161490
916.968	0.0162457
917.046	0.0161086
917.124	0.0161326
917.203	0.0162733
917.281	0.0161571
917.359	0.0161944
917.437	0.0161951
917.515	0.0162820
917.593	0.0161781
917.671	0.0161217
917.749	0.0161687
917.828	0.0161955
917.906	0.0162966
917.984	0.0163174
918.062	0.0160909
918.140	0.0161787
918.218	0.0162094
918.296	0.0162692
918.374	0.0161744
918.453	0.0162088
918.531	0.0160429
918.609	0.0162027
918.687	0.0163549
918.765	0.0163073
918.843	0.0162074
918.921	0.0162121
918.999	0.0161664
919.078	0.0162748
919.156	0.0160719
919.234	0.0161637
919.312	0.0161555
919.390	0.0161053
919.468	0.0162035
919.546	0.0161813
919.624	0.0162321
919.703	0.0161431
919.781	0.0162002
919.859	0.0161556
919.937	0.0160531
