06/10/2022	18:28:24	Ver.	4.1	UNKNOWN
Optical Delay	600.015094	Delta X		0.078125	Sweeps	1	Scan Rate	0/0
Coordinates	Axis 1	NaN	Axis 2	NaN	Axis 3	NaN	Axis 4	NaN	Axis 5	NaN	Axis 6	0.000000
TX Power	0.000000	RX Power	0.000000

600.015	0.0161091
600.093	0.0160962
600.171	0.0160458
600.249	0.0161140
600.328	0.0161209
600.406	0.0160889
600.484	0.0160640
600.562	0.0160002
600.640	0.0159632
600.718	0.0161513
600.796	0.0162464
600.874	0.0160606
600.953	0.0161150
601.031	0.0161126
601.109	0.0161008
601.187	0.0161623
601.265	0.0160974
601.343	0.0160567
601.421	0.0160942
601.499	0.0162209
601.578	0.0160812
601.656	0.0160950
601.734	0.0160972
601.812	0.0161908
601.890	0.0161315
601.968	0.0160934
602.046	0.0160990
602.124	0.0160692
602.203	0.0162401
602.281	0.0161178
602.359	0.0160415
602.437	0.0161083
602.515	0.0161597
602.593	0.0160993
602.671	0.0161425
602.749	0.0160880
602.828	0.0159881
602.906	0.0161240
602.984	0.0161771
603.062	0.0160107
603.140	0.0160544
603.218	0.0161758
603.296	0.0163293
603.374	0.0161412
603.453	0.0161625
603.531	0.0161435
603.609	0.0161516
603.687	0.0161732
603.765	0.0161378
603.843	0.0161429
603.921	0.0162086
603.999	0.0161751
604.078	0.0161042
604.156	0.0161707
604.234	0.0161491
604.312	0.0160843
604.390	0.0161698
604.468	0.0162258
604.546	0.0161755
604.624	0.0160710
604.703	0.0160876
604.781	0.0161053
604.859	0.0161643
604.937	0.0162064
605.015	0.0161253
605.093	0.0161289
605.171	0.0161459
605.249	0.0159757
605.328	0.0161650
605.406	0.0161947
605.484	0.0161205
605.562	0.0160325
605.640	0.0160157
605.718	0.0161384
605.796	0.0161739
605.874	0.0160246
605.953	0.0161023
606.031	0.0161234
606.109	0.0162484
606.187	0.0161474
606.265	0.0161437
606.343	0.0162028
606.421	0.0162214
606.499	0.0161461
606.578	0.0159797
606.656	0.0161428
606.734	0.0161285
606.812	0.0160648
606.890	0.0162215
606.968	0.0162086
607.046	0.0159996
607.124	0.0161759
607.203	0.0160913
607.281	0.0160062
607.359	0.0160953
607.437	0.0160310
607.515	0.0160439
607.593	0.0159357
607.671	0.0162224
607.749	0.0160615
607.828	0.0161423
607.906	0.0162644
607.984	0.0161047
608.062	0.0161473
608.140	0.0161498
608.218	0.0159808
608.296	0.0160648
608.374	0.0162055
608.453	0.0160601
608.531	0.0161391
608.609	0.0161012
608.687	0.0162643
608.765	0.0161417
608.843	0.0161652
608.921	0.0161363
608.999	0.0162095
609.078	0.0160990
609.156	0.0160074
609.234	0.0161768
609.312	0.0163847
609.390	0.0162592
609.468	0.0161607
609.546	0.0160974
609.624	0.0161189
609.703	0.0161664
609.781	0.0162196
609.859	0.0161317
609.937	0.0161126
610.015	0.0159853
610.093	0.0160371
610.171	0.0162010
610.249	0.0161388
610.328	0.0160724
610.406	0.0161626
610.484	0.0162002
610.562	0.0161496
610.640	0.0161591
610.718	0.0160362
610.796	0.0161755
610.874	0.0161333
610.953	0.0161157
611.031	0.0160394
611.109	0.0159543
611.187	0.0160652
611.265	0.0162241
611.343	0.0160462
611.421	0.0161364
611.499	0.0161347
611.578	0.0161923
611.656	0.0160675
611.734	0.0161538
611.812	0.0161525
611.890	0.0161752
611.968	0.0161826
612.046	0.0161900
612.124	0.0162339
612.203	0.0161490
612.281	0.0161552
612.359	0.0161925
612.437	0.0161212
612.515	0.0161887
612.593	0.0161061
612.671	0.0161221
612.749	0.0161994
612.828	0.0160922
612.906	0.0159923
612.984	0.0161623
613.062	0.0161615
613.140	0.0162056
613.218	0.0160664
613.296	0.0161812
613.374	0.0162196
613.453	0.0161267
613.531	0.0163290
613.609	0.0161409
613.687	0.0160967
613.765	0.0159631
613.843	0.0161494
613.921	0.0162187
613.999	0.0160786
614.078	0.0161066
614.156	0.0160754
614.234	0.0161503
614.312	0.0161440
614.390	0.0161887
614.468	0.0160978
614.546	0.0161324
614.624	0.0163042
614.703	0.0161112
614.781	0.0162014
614.859	0.0160195
614.937	0.0161422
615.015	0.0161653
615.093	0.0161274
615.171	0.0161443
615.249	0.0161997
615.328	0.0160605
615.406	0.0160557
615.484	0.0160677
615.562	0.0161507
615.640	0.0161375
615.718	0.0160794
615.796	0.0160465
615.874	0.0162321
615.953	0.0162004
616.031	0.0160456
616.109	0.0161459
616.187	0.0162135
616.265	0.0162132
616.343	0.0161525
616.421	0.0159717
616.499	0.0161777
616.578	0.0161243
616.656	0.0161117
616.734	0.0161771
616.812	0.0161520
616.890	0.0161250
616.968	0.0161620
617.046	0.0161158
617.124	0.0160918
617.203	0.0160938
617.281	0.0160226
617.359	0.0160835
617.437	0.0161716
617.515	0.0161150
617.593	0.0161145
617.671	0.0161474
617.749	0.0160802
617.828	0.0161496
617.906	0.0159947
617.984	0.0161475
618.062	0.0161806
618.140	0.0160995
618.218	0.0161858
618.296	0.0162442
618.374	0.0161021
618.453	0.0161987
618.531	0.0161317
618.609	0.0161309
618.687	0.0161603
618.765	0.0162098
618.843	0.0161782
618.921	0.0161834
618.999	0.0160533
619.078	0.0160381
619.156	0.0161876
619.234	0.0161012
619.312	0.0160113
619.390	0.0160837
619.468	0.0161507
619.546	0.0161810
619.624	0.0161542
619.703	0.0162336
619.781	0.0162453
619.859	0.0160511
619.937	0.0161900
620.015	0.0160377
620.093	0.0160420
620.171	0.0162314
620.249	0.0159406
620.328	0.0160927
620.406	0.0160948
620.484	0.0160900
620.562	0.0161626
620.640	0.0160365
620.718	0.0161582
620.796	0.0161362
620.874	0.0161391
620.953	0.0160794
621.031	0.0162189
621.109	0.0162923
621.187	0.0161782
621.265	0.0159794
621.343	0.0159991
621.421	0.0162714
621.499	0.0161227
621.578	0.0161098
621.656	0.0161272
621.734	0.0161835
621.812	0.0161562
621.890	0.0161318
621.968	0.0161279
622.046	0.0161832
622.124	0.0161826
622.203	0.0161428
622.281	0.0162041
622.359	0.0160999
622.437	0.0161292
622.515	0.0162084
622.593	0.0161322
622.671	0.0160757
622.749	0.0160207
622.828	0.0162655
622.906	0.0161802
622.984	0.0162893
623.062	0.0161341
623.140	0.0159774
623.218	0.0161452
623.296	0.0160360
623.374	0.0161115
623.453	0.0161289
623.531	0.0161749
623.609	0.0161504
623.687	0.0161608
623.765	0.0160690
623.843	0.0162043
623.921	0.0162021
623.999	0.0160490
624.078	0.0160406
624.156	0.0159912
624.234	0.0161414
624.312	0.0162029
624.390	0.0161633
624.468	0.0161980
624.546	0.0160325
624.624	0.0159821
624.703	0.0161348
624.781	0.0162727
624.859	0.0161187
624.937	0.0159616
625.015	0.0160651
625.093	0.0160491
625.171	0.0160999
625.249	0.0161364
625.328	0.0160588
625.406	0.0159944
625.484	0.0160743
625.562	0.0162070
625.640	0.0160841
625.718	0.0163234
625.796	0.0162180
625.874	0.0161202
625.953	0.0161021
626.031	0.0160011
626.109	0.0160960
626.187	0.0160928
626.265	0.0161275
626.343	0.0162093
626.421	0.0162257
626.499	0.0161789
626.578	0.0160740
626.656	0.0160788
626.734	0.0160732
626.812	0.0161212
626.890	0.0160235
626.968	0.0161319
627.046	0.0160818
627.124	0.0160886
627.203	0.0161312
627.281	0.0161077
627.359	0.0160430
627.437	0.0160835
627.515	0.0159950
627.593	0.0159872
627.671	0.0160111
627.749	0.0160870
627.828	0.0161537
627.906	0.0160072
627.984	0.0160886
628.062	0.0159769
628.140	0.0159967
628.218	0.0159881
628.296	0.0160993
628.374	0.0160638
628.453	0.0161142
628.531	0.0161180
628.609	0.0160448
628.687	0.0160993
628.765	0.0160091
628.843	0.0161123
628.921	0.0161978
628.999	0.0160892
629.078	0.0160292
629.156	0.0160104
629.234	0.0161271
629.312	0.0161290
629.390	0.0160120
629.468	0.0160863
629.546	0.0161568
629.624	0.0161552
629.703	0.0160905
629.781	0.0160131
629.859	0.0162340
629.937	0.0162326
630.015	0.0160907
630.093	0.0160245
630.171	0.0159647
630.249	0.0160935
630.328	0.0161101
630.406	0.0160561
630.484	0.0160404
630.562	0.0162196
630.640	0.0160037
630.718	0.0160020
630.796	0.0159904
630.874	0.0161481
630.953	0.0161414
631.031	0.0160706
631.109	0.0161534
631.187	0.0161366
631.265	0.0161789
631.343	0.0160574
631.421	0.0160126
631.499	0.0162247
631.578	0.0161135
631.656	0.0160858
631.734	0.0161975
631.812	0.0160558
631.890	0.0161144
631.968	0.0160344
632.046	0.0161451
632.124	0.0161179
632.203	0.0161200
632.281	0.0160822
632.359	0.0161699
632.437	0.0160273
632.515	0.0160662
632.593	0.0161816
632.671	0.0160863
632.749	0.0160809
632.828	0.0160289
632.906	0.0162398
632.984	0.0161586
633.062	0.0160929
633.140	0.0161179
633.218	0.0160698
633.296	0.0159958
633.374	0.0161781
633.453	0.0162582
633.531	0.0161329
633.609	0.0160991
633.687	0.0160977
633.765	0.0161174
633.843	0.0161552
633.921	0.0160927
633.999	0.0160580
634.078	0.0160854
634.156	0.0161304
634.234	0.0160637
634.312	0.0162206
634.390	0.0162137
634.468	0.0160976
634.546	0.0160514
634.624	0.0162500
634.703	0.0161179
634.781	0.0162224
634.859	0.0161635
634.937	0.0161443
635.015	0.0160369
635.093	0.0162353
635.171	0.0161692
635.249	0.0160402
635.328	0.0162442
635.406	0.0160803
635.484	0.0160278
635.562	0.0159361
635.640	0.0160545
635.718	0.0160412
635.796	0.0161278
635.874	0.0160764
635.953	0.0161442
636.031	0.0160611
636.109	0.0160465
636.187	0.0159850
636.265	0.0161145
636.343	0.0161860
636.421	0.0161835
636.499	0.0160478
636.578	0.0161276
636.656	0.0161478
636.734	0.0160872
636.812	0.0161509
636.890	0.0160633
636.968	0.0160017
637.046	0.0161314
637.124	0.0161780
637.203	0.0160632
637.281	0.0161050
637.359	0.0161030
637.437	0.0160339
637.515	0.0160373
637.593	0.0162344
637.671	0.0161974
637.749	0.0161240
637.828	0.0160734
637.906	0.0161538
637.984	0.0161253
638.062	0.0161869
638.140	0.0160094
638.218	0.0160689
638.296	0.0160507
638.374	0.0161276
638.453	0.0161327
638.531	0.0161251
638.609	0.0162093
638.687	0.0161044
638.765	0.0159771
638.843	0.0162553
638.921	0.0162061
638.999	0.0161908
639.078	0.0160464
639.156	0.0160427
639.234	0.0161083
639.312	0.0160952
639.390	0.0160852
639.468	0.0160416
639.546	0.0160513
639.624	0.0161332
639.703	0.0162155
639.781	0.0162085
639.859	0.0161114
639.937	0.0161697
640.015	0.0160536
640.093	0.0161436
640.171	0.0161488
640.249	0.0162025
640.328	0.0161482
640.406	0.0160017
640.484	0.0162127
640.562	0.0161633
640.640	0.0161019
640.718	0.0161431
640.796	0.0160666
640.874	0.0162573
640.953	0.0161310
641.031	0.0161320
641.109	0.0161240
641.187	0.0162108
641.265	0.0160602
641.343	0.0161946
641.421	0.0161106
641.499	0.0161295
641.578	0.0162423
641.656	0.0161002
641.734	0.0162340
641.812	0.0161159
641.890	0.0161542
641.968	0.0162363
642.046	0.0160863
642.124	0.0161105
642.203	0.0160835
642.281	0.0162334
642.359	0.0161246
642.437	0.0160913
642.515	0.0161144
642.593	0.0161793
642.671	0.0161829
642.749	0.0160250
642.828	0.0162357
642.906	0.0161976
642.984	0.0161391
643.062	0.0160556
643.140	0.0161208
643.218	0.0161750
643.296	0.0161107
643.374	0.0160415
643.453	0.0161150
643.531	0.0160145
643.609	0.0162396
643.687	0.0162731
643.765	0.0161631
643.843	0.0160233
643.921	0.0161497
643.999	0.0161765
644.078	0.0160973
644.156	0.0161652
644.234	0.0160260
644.312	0.0161105
644.390	0.0162180
644.468	0.0161279
644.546	0.0160806
644.624	0.0162267
644.703	0.0162447
644.781	0.0162212
644.859	0.0160920
644.937	0.0160076
645.015	0.0162667
645.093	0.0160815
645.171	0.0160565
645.249	0.0160441
645.328	0.0161192
645.406	0.0160777
645.484	0.0161729
645.562	0.0161263
645.640	0.0161394
645.718	0.0160842
645.796	0.0161002
645.874	0.0160523
645.953	0.0161775
646.031	0.0160717
646.109	0.0162006
646.187	0.0161095
646.265	0.0160973
646.343	0.0160127
646.421	0.0160362
646.499	0.0160712
646.578	0.0162157
646.656	0.0160889
646.734	0.0162378
646.812	0.0161532
646.890	0.0161804
646.968	0.0161038
647.046	0.0161262
647.124	0.0160428
647.203	0.0162065
647.281	0.0160661
647.359	0.0160247
647.437	0.0160310
647.515	0.0163107
647.593	0.0161180
647.671	0.0161785
647.749	0.0160078
647.828	0.0161228
647.906	0.0161815
647.984	0.0160576
648.062	0.0160994
648.140	0.0161566
648.218	0.0160278
648.296	0.0161062
648.374	0.0160851
648.453	0.0160741
648.531	0.0161436
648.609	0.0161417
648.687	0.0160780
648.765	0.0160896
648.843	0.0160886
648.921	0.0160940
648.999	0.0161440
649.078	0.0161460
649.156	0.0162227
649.234	0.0160318
649.312	0.0162392
649.390	0.0162121
649.468	0.0161450
649.546	0.0160460
649.624	0.0159151
649.703	0.0160677
649.781	0.0161076
649.859	0.0161195
649.937	0.0160381
650.015	0.0160704
650.093	0.0161112
650.171	0.0160711
650.249	0.0160742
650.328	0.0161948
650.406	0.0161127
650.484	0.0161844
650.562	0.0160645
650.640	0.0160040
650.718	0.0161613
650.796	0.0161330
650.874	0.0160965
650.953	0.0162664
651.031	0.0161765
651.109	0.0160960
651.187	0.0160603
651.265	0.0162593
651.343	0.0160907
651.421	0.0161785
651.499	0.0160317
651.578	0.0161615
651.656	0.0161426
651.734	0.0161699
651.812	0.0162334
651.890	0.0160818
651.968	0.0161118
652.046	0.0161745
652.124	0.0161101
652.203	0.0160915
652.281	0.0161757
652.359	0.0161261
652.437	0.0162823
652.515	0.0160303
652.593	0.0160602
652.671	0.0162312
652.749	0.0161216
652.828	0.0161496
652.906	0.0161701
652.984	0.0161732
653.062	0.0161603
653.140	0.0161398
653.218	0.0161095
653.296	0.0160812
653.374	0.0161388
653.453	0.0162247
653.531	0.0162215
653.609	0.0161298
653.687	0.0162582
653.765	0.0161291
653.843	0.0160828
653.921	0.0162862
653.999	0.0161699
654.078	0.0161475
654.156	0.0161378
654.234	0.0161356
654.312	0.0160712
654.390	0.0161981
654.468	0.0160021
654.546	0.0160564
654.624	0.0162779
654.703	0.0160458
654.781	0.0159944
654.859	0.0162205
654.937	0.0161919
655.015	0.0161498
655.093	0.0162453
655.171	0.0161346
655.249	0.0162831
655.328	0.0161686
655.406	0.0161396
655.484	0.0161148
655.562	0.0161266
655.640	0.0161908
655.718	0.0160133
655.796	0.0162209
655.874	0.0160896
655.953	0.0161075
656.031	0.0162836
656.109	0.0162555
656.187	0.0161168
656.265	0.0161108
656.343	0.0160378
656.421	0.0161013
656.499	0.0160527
656.578	0.0161841
656.656	0.0161061
656.734	0.0161655
656.812	0.0160300
656.890	0.0162032
656.968	0.0160620
657.046	0.0161695
657.124	0.0161438
657.203	0.0161605
657.281	0.0160929
657.359	0.0160110
657.437	0.0161052
657.515	0.0161328
657.593	0.0160454
657.671	0.0161097
657.749	0.0161170
657.828	0.0160797
657.906	0.0161091
657.984	0.0160936
658.062	0.0161706
658.140	0.0161637
658.218	0.0161252
658.296	0.0161185
658.374	0.0162141
658.453	0.0161497
658.531	0.0162125
658.609	0.0161367
658.687	0.0161352
658.765	0.0160966
658.843	0.0161590
658.921	0.0160705
658.999	0.0160691
659.078	0.0161540
659.156	0.0160746
659.234	0.0160709
659.312	0.0161051
659.390	0.0161804
659.468	0.0161532
659.546	0.0162489
659.624	0.0161663
659.703	0.0159906
659.781	0.0160925
659.859	0.0161201
659.937	0.0161279
660.015	0.0161761
660.093	0.0161318
660.171	0.0160082
660.249	0.0160581
660.328	0.0161505
660.406	0.0162054
660.484	0.0160589
660.562	0.0159942
660.640	0.0160537
660.718	0.0161370
660.796	0.0161902
660.874	0.0162061
660.953	0.0160176
661.031	0.0160943
661.109	0.0160883
661.187	0.0160799
661.265	0.0161138
661.343	0.0162323
661.421	0.0160181
661.499	0.0160870
661.578	0.0160729
661.656	0.0161237
661.734	0.0161629
661.812	0.0161155
661.890	0.0160431
661.968	0.0159528
662.046	0.0161454
662.124	0.0160394
662.203	0.0160553
662.281	0.0160590
662.359	0.0161127
662.437	0.0161721
662.515	0.0160432
662.593	0.0161415
662.671	0.0160314
662.749	0.0160546
662.828	0.0160232
662.906	0.0161623
662.984	0.0159702
663.062	0.0161344
663.140	0.0162305
663.218	0.0161526
663.296	0.0160480
663.374	0.0160994
663.453	0.0163438
663.531	0.0161785
663.609	0.0162132
663.687	0.0161423
663.765	0.0161803
663.843	0.0160822
663.921	0.0160770
663.999	0.0162357
664.078	0.0160742
664.156	0.0160301
664.234	0.0161036
664.312	0.0160793
664.390	0.0161177
664.468	0.0160466
664.546	0.0160939
664.624	0.0161197
664.703	0.0161010
664.781	0.0161025
664.859	0.0161606
664.937	0.0161411
665.015	0.0160844
665.093	0.0161442
665.171	0.0160156
665.249	0.0160731
665.328	0.0163200
665.406	0.0162215
665.484	0.0160659
665.562	0.0161497
665.640	0.0161751
665.718	0.0161582
665.796	0.0161071
665.874	0.0161167
665.953	0.0161231
666.031	0.0159900
666.109	0.0160973
666.187	0.0160838
666.265	0.0160377
666.343	0.0160792
666.421	0.0158759
666.499	0.0159903
666.578	0.0161056
666.656	0.0159985
666.734	0.0160984
666.812	0.0161766
666.890	0.0160808
666.968	0.0159927
667.046	0.0161221
667.124	0.0161002
667.203	0.0160848
667.281	0.0161131
667.359	0.0162050
667.437	0.0159906
667.515	0.0160473
667.593	0.0162434
667.671	0.0161761
667.749	0.0161678
667.828	0.0161868
667.906	0.0161906
667.984	0.0162128
668.062	0.0160867
668.140	0.0161127
668.218	0.0161833
668.296	0.0160338
668.374	0.0160086
668.453	0.0160830
668.531	0.0161272
668.609	0.0161629
668.687	0.0159740
668.765	0.0161015
668.843	0.0160552
668.921	0.0160386
668.999	0.0161897
669.078	0.0161906
669.156	0.0160315
669.234	0.0162083
669.312	0.0161264
669.390	0.0161308
669.468	0.0160925
669.546	0.0161070
669.624	0.0161454
669.703	0.0161007
669.781	0.0161255
669.859	0.0161555
669.937	0.0162039
670.015	0.0161359
670.093	0.0161158
670.171	0.0161373
670.249	0.0160291
670.328	0.0160655
670.406	0.0161783
670.484	0.0162101
670.562	0.0161160
670.640	0.0158980
670.718	0.0160322
670.796	0.0160686
670.874	0.0161272
670.953	0.0162413
671.031	0.0160197
671.109	0.0160022
671.187	0.0161369
671.265	0.0160764
671.343	0.0161752
671.421	0.0161271
671.499	0.0161391
671.578	0.0161377
671.656	0.0160650
671.734	0.0161235
671.812	0.0160522
671.890	0.0159623
671.968	0.0160432
672.046	0.0161987
672.124	0.0162663
672.203	0.0161288
672.281	0.0161478
672.359	0.0162404
672.437	0.0162593
672.515	0.0160003
672.593	0.0161097
672.671	0.0162300
672.749	0.0161907
672.828	0.0160143
672.906	0.0161057
672.984	0.0161858
673.062	0.0162340
673.140	0.0161703
673.218	0.0160334
673.296	0.0160818
673.374	0.0162882
673.453	0.0160330
673.531	0.0160969
673.609	0.0161133
673.687	0.0160655
673.765	0.0161093
673.843	0.0161111
673.921	0.0160503
673.999	0.0162962
674.078	0.0160812
674.156	0.0161073
674.234	0.0161259
674.312	0.0160817
674.390	0.0161216
674.468	0.0161732
674.546	0.0160765
674.624	0.0162813
674.703	0.0162174
674.781	0.0161114
674.859	0.0162901
674.937	0.0161308
675.015	0.0161004
675.093	0.0160226
675.171	0.0161642
675.249	0.0162292
675.328	0.0161053
675.406	0.0161374
675.484	0.0160847
675.562	0.0161404
675.640	0.0161710
675.718	0.0161263
675.796	0.0160583
675.874	0.0159895
675.953	0.0162637
676.031	0.0161649
676.109	0.0160764
676.187	0.0160729
676.265	0.0161531
676.343	0.0160279
676.421	0.0161729
676.499	0.0161447
676.578	0.0160499
676.656	0.0161109
676.734	0.0162510
676.812	0.0160947
676.890	0.0161903
676.968	0.0161369
677.046	0.0162023
677.124	0.0160466
677.203	0.0161524
677.281	0.0160857
677.359	0.0160428
677.437	0.0161197
677.515	0.0161710
677.593	0.0162262
677.671	0.0160949
677.749	0.0160712
677.828	0.0160541
677.906	0.0160661
677.984	0.0160580
678.062	0.0160184
678.140	0.0161192
678.218	0.0160785
678.296	0.0160783
678.374	0.0160033
678.453	0.0160290
678.531	0.0160898
678.609	0.0159997
678.687	0.0161186
678.765	0.0161189
678.843	0.0161179
678.921	0.0160273
678.999	0.0161600
679.078	0.0161116
679.156	0.0160170
679.234	0.0162213
679.312	0.0162034
679.390	0.0161436
679.468	0.0161046
679.546	0.0160639
679.624	0.0161240
679.703	0.0161152
679.781	0.0159846
679.859	0.0160404
679.937	0.0159669
680.015	0.0161152
680.093	0.0162260
680.171	0.0160881
680.249	0.0161939
680.328	0.0160902
680.406	0.0160522
680.484	0.0161404
680.562	0.0160436
680.640	0.0161112
680.718	0.0161014
680.796	0.0160280
680.874	0.0160572
680.953	0.0162134
681.031	0.0161251
681.109	0.0160250
681.187	0.0161508
681.265	0.0160508
681.343	0.0159531
681.421	0.0161003
681.499	0.0161352
681.578	0.0160219
681.656	0.0160790
681.734	0.0160693
681.812	0.0161767
681.890	0.0160327
681.968	0.0162450
682.046	0.0160126
682.124	0.0160228
682.203	0.0161570
682.281	0.0159908
682.359	0.0161053
682.437	0.0161356
682.515	0.0161188
682.593	0.0162289
682.671	0.0161376
682.749	0.0162646
682.828	0.0161658
682.906	0.0162063
682.984	0.0162006
683.062	0.0159961
683.140	0.0161641
683.218	0.0161363
683.296	0.0161335
683.374	0.0161440
683.453	0.0160654
683.531	0.0161719
683.609	0.0162168
683.687	0.0161916
683.765	0.0161824
683.843	0.0160021
683.921	0.0161705
683.999	0.0162913
684.078	0.0161122
684.156	0.0159888
684.234	0.0160469
684.312	0.0160965
684.390	0.0161361
684.468	0.0161101
684.546	0.0161727
684.624	0.0161752
684.703	0.0161580
684.781	0.0161825
684.859	0.0161079
684.937	0.0160934
685.015	0.0160318
685.093	0.0161742
685.171	0.0161107
685.249	0.0162092
685.328	0.0159722
685.406	0.0160980
685.484	0.0161919
685.562	0.0160931
685.640	0.0162006
685.718	0.0160645
685.796	0.0160366
685.874	0.0161863
685.953	0.0159867
686.031	0.0160313
686.109	0.0161247
686.187	0.0162370
686.265	0.0162411
686.343	0.0161504
686.421	0.0159813
686.499	0.0161271
686.578	0.0162401
686.656	0.0159837
686.734	0.0161855
686.812	0.0161645
686.890	0.0160135
686.968	0.0161443
687.046	0.0160965
687.124	0.0160621
687.203	0.0160815
687.281	0.0161919
687.359	0.0162130
687.437	0.0160233
687.515	0.0160494
687.593	0.0162099
687.671	0.0160800
687.749	0.0160822
687.828	0.0161071
687.906	0.0162371
687.984	0.0160128
688.062	0.0161977
688.140	0.0160224
688.218	0.0161551
688.296	0.0161465
688.374	0.0160300
688.453	0.0161665
688.531	0.0160885
688.609	0.0160892
688.687	0.0161597
688.765	0.0160847
688.843	0.0161098
688.921	0.0160921
688.999	0.0159716
689.078	0.0159822
689.156	0.0161544
689.234	0.0161425
689.312	0.0159108
689.390	0.0159724
689.468	0.0160635
689.546	0.0161257
689.624	0.0160754
689.703	0.0161198
689.781	0.0161101
689.859	0.0161404
689.937	0.0161613
690.015	0.0161549
690.093	0.0161148
690.171	0.0161066
690.249	0.0161117
690.328	0.0160760
690.406	0.0159303
690.484	0.0160452
690.562	0.0160941
690.640	0.0161264
690.718	0.0160912
690.796	0.0160637
690.874	0.0162158
690.953	0.0160974
691.031	0.0161163
691.109	0.0159975
691.187	0.0160926
691.265	0.0160576
691.343	0.0160152
691.421	0.0160963
691.499	0.0160290
691.578	0.0161479
691.656	0.0159934
691.734	0.0161153
691.812	0.0161244
691.890	0.0162127
691.968	0.0161166
692.046	0.0160550
692.124	0.0160918
692.203	0.0160683
692.281	0.0161501
692.359	0.0161071
692.437	0.0160618
692.515	0.0160717
692.593	0.0161729
692.671	0.0161926
692.749	0.0161107
692.828	0.0161365
692.906	0.0162421
692.984	0.0161547
693.062	0.0159735
693.140	0.0161219
693.218	0.0161753
693.296	0.0161269
693.374	0.0160664
693.453	0.0161017
693.531	0.0161106
693.609	0.0161549
693.687	0.0161572
693.765	0.0160883
693.843	0.0162421
693.921	0.0160994
693.999	0.0161770
694.078	0.0161230
694.156	0.0161028
694.234	0.0160268
694.312	0.0161298
694.390	0.0160583
694.468	0.0161649
694.546	0.0161050
694.624	0.0161399
694.703	0.0161736
694.781	0.0162163
694.859	0.0162050
694.937	0.0161504
695.015	0.0160864
695.093	0.0160868
695.171	0.0160689
695.249	0.0161470
695.328	0.0161069
695.406	0.0161736
695.484	0.0160865
695.562	0.0160820
695.640	0.0161701
695.718	0.0161671
695.796	0.0161771
695.874	0.0160759
695.953	0.0160693
696.031	0.0162253
696.109	0.0161427
696.187	0.0161376
696.265	0.0162248
696.343	0.0161115
696.421	0.0160986
696.499	0.0161401
696.578	0.0161201
696.656	0.0160557
696.734	0.0160544
696.812	0.0159619
696.890	0.0160535
696.968	0.0161134
697.046	0.0160629
697.124	0.0161871
697.203	0.0161929
697.281	0.0161325
697.359	0.0161829
697.437	0.0162299
697.515	0.0161272
697.593	0.0160271
697.671	0.0160867
697.749	0.0160351
697.828	0.0162228
697.906	0.0160207
697.984	0.0161124
698.062	0.0160131
698.140	0.0160417
698.218	0.0161214
698.296	0.0161215
698.374	0.0160847
698.453	0.0161916
698.531	0.0161369
698.609	0.0160545
698.687	0.0161067
698.765	0.0160771
698.843	0.0160019
698.921	0.0161398
698.999	0.0161355
699.078	0.0162032
699.156	0.0162163
699.234	0.0160033
699.312	0.0160406
699.390	0.0160039
699.468	0.0160129
699.546	0.0161011
699.624	0.0159761
699.703	0.0161315
699.781	0.0161459
699.859	0.0161282
699.937	0.0162547
700.015	0.0161486
700.093	0.0159994
700.171	0.0162213
700.249	0.0160409
700.328	0.0161197
700.406	0.0160209
700.484	0.0160659
700.562	0.0160796
700.640	0.0162124
700.718	0.0161213
700.796	0.0161849
700.874	0.0160933
700.953	0.0159758
701.031	0.0161037
701.109	0.0160950
701.187	0.0161559
701.265	0.0161261
701.343	0.0160796
701.421	0.0162382
701.499	0.0160689
701.578	0.0160268
701.656	0.0162563
701.734	0.0162030
701.812	0.0160094
701.890	0.0161571
701.968	0.0161223
702.046	0.0159776
702.124	0.0160674
702.203	0.0159954
702.281	0.0160343
702.359	0.0161262
702.437	0.0160785
702.515	0.0161987
702.593	0.0161458
702.671	0.0162420
702.749	0.0161729
702.828	0.0160394
702.906	0.0160871
702.984	0.0160366
703.062	0.0161241
703.140	0.0160723
703.218	0.0161478
703.296	0.0161883
703.374	0.0160793
703.453	0.0161390
703.531	0.0162936
703.609	0.0161013
703.687	0.0161043
703.765	0.0161662
703.843	0.0161517
703.921	0.0161578
703.999	0.0161121
704.078	0.0160680
704.156	0.0160759
704.234	0.0160647
704.312	0.0162786
704.390	0.0161282
704.468	0.0161034
704.546	0.0161470
704.624	0.0160911
704.703	0.0159978
704.781	0.0159500
704.859	0.0162298
704.937	0.0161443
705.015	0.0160474
705.093	0.0161998
705.171	0.0161684
705.249	0.0161597
705.328	0.0160310
705.406	0.0160561
705.484	0.0160913
705.562	0.0160751
705.640	0.0162038
705.718	0.0161510
705.796	0.0160960
705.874	0.0161452
705.953	0.0162118
706.031	0.0161033
706.109	0.0159594
706.187	0.0160209
706.265	0.0161092
706.343	0.0161093
706.421	0.0160609
706.499	0.0161561
706.578	0.0161964
706.656	0.0162079
706.734	0.0161272
706.812	0.0161391
706.890	0.0161371
706.968	0.0160368
707.046	0.0160361
707.124	0.0161718
707.203	0.0161415
707.281	0.0160925
707.359	0.0160780
707.437	0.0160654
707.515	0.0161225
707.593	0.0161247
707.671	0.0162399
707.749	0.0161426
707.828	0.0160600
707.906	0.0160501
707.984	0.0160696
708.062	0.0161058
708.140	0.0161127
708.218	0.0161485
708.296	0.0162261
708.374	0.0160425
708.453	0.0159896
708.531	0.0161562
708.609	0.0162125
708.687	0.0161672
708.765	0.0160998
708.843	0.0160995
708.921	0.0162457
708.999	0.0160675
709.078	0.0160675
709.156	0.0161269
709.234	0.0160583
709.312	0.0160810
709.390	0.0161218
709.468	0.0161651
709.546	0.0161625
709.624	0.0160655
709.703	0.0161573
709.781	0.0160905
709.859	0.0161372
709.937	0.0162124
710.015	0.0162387
710.093	0.0161108
710.171	0.0161086
710.249	0.0160857
710.328	0.0161568
710.406	0.0161131
710.484	0.0162289
710.562	0.0161331
710.640	0.0161483
710.718	0.0161629
710.796	0.0160612
710.874	0.0163047
710.953	0.0162609
711.031	0.0160123
711.109	0.0161050
711.187	0.0161716
711.265	0.0160745
711.343	0.0161640
711.421	0.0161981
711.499	0.0160357
711.578	0.0161259
711.656	0.0162659
711.734	0.0161553
711.812	0.0162558
711.890	0.0161863
711.968	0.0161243
712.046	0.0161349
712.124	0.0161578
712.203	0.0161642
712.281	0.0160478
712.359	0.0161957
712.437	0.0159465
712.515	0.0162993
712.593	0.0161896
712.671	0.0161588
712.749	0.0161176
712.828	0.0161249
712.906	0.0161271
712.984	0.0161560
713.062	0.0162376
713.140	0.0160687
713.218	0.0160668
713.296	0.0162777
713.374	0.0160748
713.453	0.0160769
713.531	0.0160403
713.609	0.0161850
713.687	0.0160194
713.765	0.0161908
713.843	0.0160447
713.921	0.0160757
713.999	0.0161629
714.078	0.0161078
714.156	0.0160935
714.234	0.0162610
714.312	0.0161277
714.390	0.0160577
714.468	0.0160576
714.546	0.0160051
714.624	0.0159933
714.703	0.0160492
714.781	0.0160158
714.859	0.0160556
714.937	0.0160458
715.015	0.0161650
715.093	0.0161971
715.171	0.0160818
715.249	0.0162405
715.328	0.0162245
715.406	0.0161810
715.484	0.0160286
715.562	0.0160568
715.640	0.0160628
715.718	0.0160908
715.796	0.0160852
715.874	0.0160591
715.953	0.0162717
716.031	0.0162309
716.109	0.0160286
716.187	0.0160521
716.265	0.0161349
716.343	0.0160246
716.421	0.0161105
716.499	0.0161442
716.578	0.0160945
716.656	0.0160714
716.734	0.0161021
716.812	0.0161233
716.890	0.0160240
716.968	0.0160258
717.046	0.0159963
717.124	0.0161079
717.203	0.0161435
717.281	0.0160786
717.359	0.0160690
717.437	0.0159680
717.515	0.0160869
717.593	0.0161012
717.671	0.0160719
717.749	0.0160213
717.828	0.0162167
717.906	0.0159562
717.984	0.0160329
718.062	0.0161055
718.140	0.0161367
718.218	0.0159739
718.296	0.0160403
718.374	0.0161692
718.453	0.0161480
718.531	0.0159681
718.609	0.0160107
718.687	0.0161334
718.765	0.0160464
718.843	0.0160088
718.921	0.0161478
718.999	0.0160410
719.078	0.0160042
719.156	0.0158981
719.234	0.0159576
719.312	0.0161440
719.390	0.0159751
719.468	0.0160376
719.546	0.0160537
719.624	0.0159542
719.703	0.0161741
719.781	0.0161055
719.859	0.0160623
719.937	0.0159954
720.015	0.0160770
720.093	0.0160798
720.171	0.0161863
720.249	0.0160497
720.328	0.0160487
720.406	0.0161217
720.484	0.0161325
720.562	0.0161281
720.640	0.0162337
720.718	0.0161196
720.796	0.0161060
720.874	0.0159465
720.953	0.0160703
721.031	0.0161689
721.109	0.0160536
721.187	0.0160611
721.265	0.0160673
721.343	0.0160752
721.421	0.0159827
721.499	0.0159970
721.578	0.0159586
721.656	0.0161336
721.734	0.0161636
721.812	0.0161947
721.890	0.0160837
721.968	0.0161566
722.046	0.0161646
722.124	0.0161326
722.203	0.0159975
722.281	0.0159823
722.359	0.0161678
722.437	0.0161070
722.515	0.0160342
722.593	0.0161727
722.671	0.0161572
722.749	0.0160984
722.828	0.0160140
722.906	0.0162270
722.984	0.0162359
723.062	0.0161924
723.140	0.0161987
723.218	0.0162797
723.296	0.0161607
723.374	0.0160802
723.453	0.0162152
723.531	0.0162852
723.609	0.0161596
723.687	0.0161294
723.765	0.0161929
723.843	0.0162122
723.921	0.0163509
723.999	0.0161448
724.078	0.0163075
724.156	0.0162868
724.234	0.0162897
724.312	0.0162235
724.390	0.0160987
724.468	0.0161254
724.546	0.0161779
724.624	0.0161886
724.703	0.0162020
724.781	0.0161557
724.859	0.0161616
724.937	0.0162969
725.015	0.0161720
725.093	0.0162733
725.171	0.0161919
725.249	0.0161172
725.328	0.0162489
725.406	0.0162339
725.484	0.0161787
725.562	0.0162527
725.640	0.0161527
725.718	0.0164215
725.796	0.0162275
725.874	0.0161160
725.953	0.0163422
726.031	0.0161423
726.109	0.0162215
726.187	0.0162727
726.265	0.0161797
726.343	0.0161124
726.421	0.0161852
726.499	0.0161194
726.578	0.0162337
726.656	0.0161578
726.734	0.0161607
726.812	0.0162795
726.890	0.0162295
726.968	0.0160772
727.046	0.0159815
727.124	0.0162440
727.203	0.0160977
727.281	0.0161874
727.359	0.0162448
727.437	0.0162117
727.515	0.0161420
727.593	0.0161761
727.671	0.0161044
727.749	0.0162345
727.828	0.0161583
727.906	0.0160355
727.984	0.0162006
728.062	0.0162725
728.140	0.0161845
728.218	0.0160507
728.296	0.0161611
728.374	0.0162012
728.453	0.0162676
728.531	0.0160862
728.609	0.0162266
728.687	0.0162193
728.765	0.0161277
728.843	0.0161095
728.921	0.0162052
728.999	0.0162232
729.078	0.0162814
729.156	0.0162025
729.234	0.0161360
729.312	0.0160047
729.390	0.0162272
729.468	0.0161192
729.546	0.0161948
729.624	0.0161476
729.703	0.0161900
729.781	0.0162067
729.859	0.0161449
729.937	0.0160515
730.015	0.0159977
730.093	0.0160419
730.171	0.0161393
730.249	0.0160328
730.328	0.0161259
730.406	0.0159839
730.484	0.0160136
730.562	0.0161964
730.640	0.0160284
730.718	0.0161483
730.796	0.0161459
730.874	0.0161126
730.953	0.0160396
731.031	0.0161806
731.109	0.0161710
731.187	0.0161257
731.265	0.0160867
731.343	0.0160566
731.421	0.0161682
731.499	0.0160247
731.578	0.0160113
731.656	0.0159832
731.734	0.0160246
731.812	0.0161505
731.890	0.0162104
731.968	0.0160947
732.046	0.0159783
732.124	0.0159202
732.203	0.0159664
732.281	0.0160330
732.359	0.0162135
732.437	0.0160607
732.515	0.0160349
732.593	0.0160535
732.671	0.0161349
732.749	0.0160832
732.828	0.0160521
732.906	0.0159474
732.984	0.0161605
733.062	0.0160091
733.140	0.0160603
733.218	0.0161395
733.296	0.0161944
733.374	0.0162267
733.453	0.0160530
733.531	0.0159554
733.609	0.0160632
733.687	0.0160387
733.765	0.0161419
733.843	0.0161750
733.921	0.0160916
733.999	0.0161186
734.078	0.0160249
734.156	0.0160577
734.234	0.0161198
734.312	0.0160296
734.390	0.0161246
734.468	0.0162188
734.546	0.0161658
734.624	0.0160455
734.703	0.0160728
734.781	0.0160252
734.859	0.0161775
734.937	0.0160160
735.015	0.0159415
735.093	0.0161253
735.171	0.0161571
735.249	0.0161577
735.328	0.0161050
735.406	0.0161158
735.484	0.0159689
735.562	0.0161556
735.640	0.0160756
735.718	0.0159727
735.796	0.0160361
735.874	0.0161190
735.953	0.0159775
736.031	0.0160703
736.109	0.0160678
736.187	0.0159809
736.265	0.0158997
736.343	0.0161699
736.421	0.0161304
736.499	0.0160114
736.578	0.0160861
736.656	0.0161165
736.734	0.0160619
736.812	0.0161111
736.890	0.0160899
736.968	0.0161144
737.046	0.0160445
737.124	0.0161020
737.203	0.0161629
737.281	0.0161123
737.359	0.0160683
737.437	0.0161100
737.515	0.0160253
737.593	0.0159407
737.671	0.0160469
737.749	0.0162446
737.828	0.0161661
737.906	0.0160367
737.984	0.0160658
738.062	0.0161275
738.140	0.0161226
738.218	0.0160011
738.296	0.0161909
738.374	0.0161908
738.453	0.0161509
738.531	0.0162623
738.609	0.0161987
738.687	0.0161511
738.765	0.0160772
738.843	0.0161389
738.921	0.0160881
738.999	0.0160364
739.078	0.0161497
739.156	0.0159138
739.234	0.0158878
739.312	0.0159479
739.390	0.0158562
739.468	0.0157426
739.546	0.0158678
739.624	0.0157592
739.703	0.0158019
739.781	0.0159669
739.859	0.0160827
739.937	0.0161233
740.015	0.0163857
740.093	0.0167790
740.171	0.0169685
740.249	0.0170464
740.328	0.0173521
740.406	0.0174269
740.484	0.0177621
740.562	0.0177284
740.640	0.0175820
740.718	0.0174132
740.796	0.0173028
740.874	0.0166732
740.953	0.0164672
741.031	0.0160718
741.109	0.0154263
741.187	0.0147482
741.265	0.0142068
741.343	0.0137731
741.421	0.0131407
741.499	0.0130227
741.578	0.0129848
741.656	0.0130684
741.734	0.0132744
741.812	0.0136546
741.890	0.0140315
741.968	0.0148195
742.046	0.0155543
742.124	0.0163459
742.203	0.0171741
742.281	0.0179602
742.359	0.0186162
742.437	0.0194887
742.515	0.0202329
742.593	0.0206487
742.671	0.0208240
742.749	0.0210484
742.828	0.0206738
742.906	0.0198574
742.984	0.0190109
743.062	0.0177466
743.140	0.0164414
743.218	0.0151791
743.296	0.0135733
743.374	0.0123917
743.453	0.0116063
743.531	0.0109515
743.609	0.0107977
743.687	0.0109639
743.765	0.0113717
743.843	0.0121864
743.921	0.0131647
743.999	0.0141423
744.078	0.0150789
744.156	0.0162779
744.234	0.0171629
744.312	0.0181549
744.390	0.0190575
744.468	0.0198515
744.546	0.0203592
744.624	0.0210574
744.703	0.0216326
744.781	0.0216676
744.859	0.0217046
744.937	0.0213885
745.015	0.0204980
745.093	0.0196777
745.171	0.0184753
745.249	0.0169458
745.328	0.0154436
745.406	0.0140830
745.484	0.0126671
745.562	0.0114536
745.640	0.0104672
745.718	0.0100534
745.796	0.00948158
745.874	0.00936539
745.953	0.00942329
746.031	0.00963814
746.109	0.0101051
746.187	0.0105872
746.265	0.0116396
746.343	0.0125108
746.421	0.0136061
746.499	0.0149084
746.578	0.0163552
746.656	0.0178677
746.734	0.0194956
746.812	0.0209800
746.890	0.0221925
746.968	0.0231035
747.046	0.0238403
747.124	0.0241226
747.203	0.0239218
747.281	0.0235597
747.359	0.0226102
747.437	0.0214419
747.515	0.0200542
747.593	0.0187114
747.671	0.0172587
747.749	0.0158590
747.828	0.0145047
747.906	0.0134008
747.984	0.0124420
748.062	0.0117415
748.140	0.0111442
748.218	0.0109169
748.296	0.0107459
748.374	0.0111371
748.453	0.0116353
748.531	0.0123548
748.609	0.0130108
748.687	0.0140635
748.765	0.0150909
748.843	0.0161956
748.921	0.0171878
748.999	0.0182121
749.078	0.0192081
749.156	0.0198856
749.234	0.0204556
749.312	0.0206287
749.390	0.0208073
749.468	0.0209070
749.546	0.0203886
749.624	0.0198803
749.703	0.0191127
749.781	0.0182045
749.859	0.0171604
749.937	0.0160690
750.015	0.0147864
750.093	0.0138046
750.171	0.0129856
750.249	0.0119167
750.328	0.0112714
750.406	0.0109599
750.484	0.0104342
750.562	0.0104343
750.640	0.0104079
750.718	0.0107258
750.796	0.0112174
750.874	0.0118238
750.953	0.0124683
751.031	0.0133867
751.109	0.0141900
751.187	0.0153268
751.265	0.0162222
751.343	0.0172733
751.421	0.0182584
751.499	0.0191860
751.578	0.0198934
751.656	0.0206799
751.734	0.0210022
751.812	0.0212484
751.890	0.0215269
751.968	0.0213155
752.046	0.0211239
752.124	0.0207512
752.203	0.0203442
752.281	0.0197349
752.359	0.0191352
752.437	0.0183732
752.515	0.0176709
752.593	0.0169443
752.671	0.0163064
752.749	0.0155853
752.828	0.0150463
752.906	0.0145792
752.984	0.0142953
753.062	0.0139091
753.140	0.0138634
753.218	0.0140994
753.296	0.0140699
753.374	0.0142482
753.453	0.0145377
753.531	0.0149007
753.609	0.0151716
753.687	0.0155173
753.765	0.0157173
753.843	0.0158040
753.921	0.0160070
753.999	0.0160854
754.078	0.0159175
754.156	0.0160645
754.234	0.0160268
754.312	0.0159554
754.390	0.0159473
754.468	0.0156895
754.546	0.0156054
754.624	0.0154211
754.703	0.0153122
754.781	0.0151808
754.859	0.0151929
754.937	0.0150631
755.015	0.0149594
755.093	0.0151033
755.171	0.0151497
755.249	0.0153605
755.328	0.0154756
755.406	0.0157374
755.484	0.0157738
755.562	0.0158958
755.640	0.0160173
755.718	0.0159608
755.796	0.0162985
755.874	0.0161169
755.953	0.0162516
756.031	0.0162853
756.109	0.0163774
756.187	0.0164600
756.265	0.0165633
756.343	0.0167757
756.421	0.0170493
756.499	0.0171349
756.578	0.0171471
756.656	0.0171332
756.734	0.0171689
756.812	0.0172143
756.890	0.0171319
756.968	0.0168718
757.046	0.0167816
757.124	0.0166831
757.203	0.0167850
757.281	0.0167809
757.359	0.0166208
757.437	0.0166800
757.515	0.0167827
757.593	0.0168447
757.671	0.0167616
757.749	0.0167389
757.828	0.0168533
757.906	0.0167734
757.984	0.0167021
758.062	0.0166218
758.140	0.0165971
758.218	0.0164822
758.296	0.0165073
758.374	0.0162745
758.453	0.0161973
758.531	0.0161385
758.609	0.0161192
758.687	0.0160391
758.765	0.0158766
758.843	0.0159767
758.921	0.0155606
758.999	0.0152117
759.078	0.0150616
759.156	0.0149623
759.234	0.0148905
759.312	0.0146498
759.390	0.0145663
759.468	0.0146738
759.546	0.0144534
759.624	0.0146202
759.703	0.0145570
759.781	0.0146265
759.859	0.0147924
759.937	0.0148366
760.015	0.0149906
760.093	0.0149360
760.171	0.0151694
760.249	0.0153304
760.328	0.0154158
760.406	0.0153976
760.484	0.0155329
760.562	0.0156043
760.640	0.0158224
760.718	0.0158713
760.796	0.0160759
760.874	0.0161531
760.953	0.0162512
761.031	0.0166386
761.109	0.0166331
761.187	0.0170833
761.265	0.0172237
761.343	0.0175154
761.421	0.0178457
761.499	0.0179754
761.578	0.0181548
761.656	0.0182437
761.734	0.0181104
761.812	0.0179446
761.890	0.0178955
761.968	0.0177089
762.046	0.0173181
762.124	0.0171161
762.203	0.0168610
762.281	0.0165191
762.359	0.0164958
762.437	0.0161702
762.515	0.0159725
762.593	0.0158486
762.671	0.0159514
762.749	0.0158903
762.828	0.0158155
762.906	0.0158440
762.984	0.0158337
763.062	0.0158971
763.140	0.0158785
763.218	0.0160732
763.296	0.0161111
763.374	0.0162003
763.453	0.0162520
763.531	0.0162274
763.609	0.0161217
763.687	0.0161304
763.765	0.0158274
763.843	0.0157232
763.921	0.0155155
763.999	0.0152973
764.078	0.0150430
764.156	0.0148080
764.234	0.0147755
764.312	0.0149212
764.390	0.0148865
764.468	0.0149442
764.546	0.0150230
764.624	0.0151595
764.703	0.0154810
764.781	0.0154722
764.859	0.0157966
764.937	0.0159866
765.015	0.0162183
765.093	0.0162018
765.171	0.0163336
765.249	0.0164561
765.328	0.0166293
765.406	0.0164935
765.484	0.0164711
765.562	0.0165939
765.640	0.0164349
765.718	0.0162975
765.796	0.0162498
765.874	0.0162778
765.953	0.0161041
766.031	0.0162164
766.109	0.0160296
766.187	0.0162884
766.265	0.0165096
766.343	0.0163363
766.421	0.0164177
766.499	0.0166425
766.578	0.0167605
766.656	0.0168419
766.734	0.0168823
766.812	0.0168973
766.890	0.0167855
766.968	0.0167480
767.046	0.0166761
767.124	0.0164475
767.203	0.0164322
767.281	0.0163016
767.359	0.0162307
767.437	0.0160133
767.515	0.0161623
767.593	0.0161736
767.671	0.0160679
767.749	0.0160249
767.828	0.0161408
767.906	0.0162308
767.984	0.0163392
768.062	0.0163097
768.140	0.0163348
768.218	0.0162933
768.296	0.0162363
768.374	0.0162344
768.453	0.0162002
768.531	0.0160574
768.609	0.0161402
768.687	0.0157864
768.765	0.0158080
768.843	0.0157464
768.921	0.0156908
768.999	0.0155783
769.078	0.0154868
769.156	0.0152939
769.234	0.0152536
769.312	0.0152666
769.390	0.0151593
769.468	0.0151608
769.546	0.0152976
769.624	0.0154956
769.703	0.0154643
769.781	0.0155080
769.859	0.0155630
769.937	0.0156801
770.015	0.0158942
770.093	0.0161030
770.171	0.0161424
770.249	0.0161796
770.328	0.0162431
770.406	0.0163229
770.484	0.0163950
770.562	0.0164252
770.640	0.0163844
770.718	0.0164066
770.796	0.0164199
770.874	0.0164954
770.953	0.0163982
771.031	0.0162270
771.109	0.0162408
771.187	0.0161652
771.265	0.0160485
771.343	0.0160820
771.421	0.0162009
771.499	0.0160938
771.578	0.0162310
771.656	0.0162300
771.734	0.0163656
771.812	0.0162743
771.890	0.0163402
771.968	0.0163351
772.046	0.0164087
772.124	0.0163619
772.203	0.0163431
772.281	0.0164292
772.359	0.0163988
772.437	0.0163556
772.515	0.0164855
772.593	0.0166124
772.671	0.0164605
772.749	0.0164655
772.828	0.0164578
772.906	0.0165056
772.984	0.0163197
773.062	0.0163477
773.140	0.0162664
773.218	0.0162987
773.296	0.0161846
773.374	0.0161650
773.453	0.0161988
773.531	0.0161850
773.609	0.0162225
773.687	0.0161800
773.765	0.0161395
773.843	0.0160933
773.921	0.0163132
773.999	0.0162735
774.078	0.0160967
774.156	0.0162234
774.234	0.0163017
774.312	0.0162867
774.390	0.0162679
774.468	0.0161462
774.546	0.0161556
774.624	0.0160474
774.703	0.0161251
774.781	0.0161140
774.859	0.0158057
774.937	0.0159028
775.015	0.0158047
775.093	0.0156529
775.171	0.0156846
775.249	0.0156195
775.328	0.0156120
775.406	0.0156113
775.484	0.0156125
775.562	0.0156413
775.640	0.0156322
775.718	0.0156715
775.796	0.0156767
775.874	0.0154845
775.953	0.0154861
776.031	0.0156088
776.109	0.0155742
776.187	0.0154330
776.265	0.0155764
776.343	0.0156965
776.421	0.0157487
776.499	0.0157822
776.578	0.0159574
776.656	0.0161443
776.734	0.0161469
776.812	0.0165349
776.890	0.0165136
776.968	0.0167048
777.046	0.0167434
777.124	0.0167448
777.203	0.0168428
777.281	0.0170232
777.359	0.0170837
777.437	0.0170237
777.515	0.0170372
777.593	0.0172479
777.671	0.0172840
777.749	0.0171211
777.828	0.0172237
777.906	0.0172055
777.984	0.0172440
778.062	0.0171539
778.140	0.0171741
778.218	0.0169365
778.296	0.0168571
778.374	0.0167735
778.453	0.0165831
778.531	0.0164314
778.609	0.0162334
778.687	0.0159838
778.765	0.0158593
778.843	0.0156320
778.921	0.0154240
778.999	0.0151892
779.078	0.0150671
779.156	0.0150996
779.234	0.0150294
779.312	0.0150076
779.390	0.0150962
779.468	0.0149427
779.546	0.0151832
779.624	0.0150562
779.703	0.0151000
779.781	0.0153571
779.859	0.0154722
779.937	0.0154957
780.015	0.0156781
780.093	0.0158347
780.171	0.0160251
780.249	0.0162275
780.328	0.0162236
780.406	0.0162605
780.484	0.0163207
780.562	0.0165444
780.640	0.0163940
780.718	0.0165248
780.796	0.0165794
780.874	0.0165701
780.953	0.0165572
781.031	0.0164603
781.109	0.0165749
781.187	0.0165678
781.265	0.0165614
781.343	0.0165033
781.421	0.0164816
781.499	0.0163843
781.578	0.0165269
781.656	0.0164264
781.734	0.0163996
781.812	0.0163579
781.890	0.0164333
781.968	0.0163677
782.046	0.0162811
782.124	0.0163047
782.203	0.0163512
782.281	0.0163631
782.359	0.0162953
782.437	0.0162280
782.515	0.0160642
782.593	0.0160255
782.671	0.0159406
782.749	0.0159624
782.828	0.0159387
782.906	0.0158582
782.984	0.0160910
783.062	0.0158810
783.140	0.0159995
783.218	0.0158365
783.296	0.0158092
783.374	0.0159565
783.453	0.0159427
783.531	0.0157555
783.609	0.0159470
783.687	0.0158215
783.765	0.0157384
783.843	0.0156760
783.921	0.0157170
783.999	0.0156109
784.078	0.0153637
784.156	0.0154651
784.234	0.0155376
784.312	0.0154517
784.390	0.0155402
784.468	0.0155280
784.546	0.0157627
784.624	0.0157899
784.703	0.0158447
784.781	0.0159891
784.859	0.0159799
784.937	0.0162101
785.015	0.0161939
785.093	0.0163628
785.171	0.0165596
785.249	0.0166935
785.328	0.0166328
785.406	0.0167540
785.484	0.0168810
785.562	0.0170603
785.640	0.0168928
785.718	0.0169360
785.796	0.0171026
785.874	0.0170387
785.953	0.0170809
786.031	0.0171552
786.109	0.0171965
786.187	0.0170010
786.265	0.0170210
786.343	0.0167359
786.421	0.0166014
786.499	0.0165904
786.578	0.0163667
786.656	0.0162702
786.734	0.0159507
786.812	0.0158707
786.890	0.0157172
786.968	0.0155005
787.046	0.0154955
787.124	0.0153327
787.203	0.0151011
787.281	0.0151585
787.359	0.0151442
787.437	0.0150346
787.515	0.0149329
787.593	0.0150745
787.671	0.0150040
787.749	0.0152032
787.828	0.0151550
787.906	0.0152540
787.984	0.0154527
788.062	0.0154752
788.140	0.0156941
788.218	0.0157890
788.296	0.0160197
788.374	0.0160483
788.453	0.0161135
788.531	0.0160981
788.609	0.0163602
788.687	0.0163522
788.765	0.0162715
788.843	0.0163856
788.921	0.0165121
788.999	0.0164774
789.078	0.0165947
789.156	0.0164352
789.234	0.0165453
789.312	0.0165639
789.390	0.0166447
789.468	0.0166268
789.546	0.0166490
789.624	0.0166795
789.703	0.0166360
789.781	0.0166588
789.859	0.0167202
789.937	0.0166863
790.015	0.0167118
790.093	0.0166147
790.171	0.0165606
790.249	0.0163438
790.328	0.0162290
790.406	0.0162705
790.484	0.0162112
790.562	0.0161964
790.640	0.0161758
790.718	0.0159595
790.796	0.0158011
790.874	0.0157684
790.953	0.0156806
791.031	0.0157122
791.109	0.0157327
791.187	0.0156573
791.265	0.0155292
791.343	0.0154720
791.421	0.0154427
791.499	0.0154514
791.578	0.0155823
791.656	0.0157261
791.734	0.0157815
791.812	0.0159241
791.890	0.0159391
791.968	0.0158984
792.046	0.0161906
792.124	0.0162704
792.203	0.0162998
792.281	0.0163545
792.359	0.0163306
792.437	0.0164196
792.515	0.0163455
792.593	0.0165179
792.671	0.0164493
792.749	0.0162997
792.828	0.0164086
792.906	0.0162708
792.984	0.0163972
793.062	0.0163248
793.140	0.0163486
793.218	0.0163111
793.296	0.0160871
793.374	0.0160613
793.453	0.0161446
793.531	0.0162256
793.609	0.0160050
793.687	0.0160936
793.765	0.0161343
793.843	0.0161210
793.921	0.0160188
793.999	0.0158736
794.078	0.0158447
794.156	0.0158955
794.234	0.0158318
794.312	0.0157282
794.390	0.0157744
794.468	0.0156570
794.546	0.0160122
794.624	0.0159263
794.703	0.0159754
794.781	0.0160181
794.859	0.0160148
794.937	0.0160031
795.015	0.0160984
795.093	0.0162656
795.171	0.0161543
795.249	0.0162472
795.328	0.0163366
795.406	0.0163717
795.484	0.0163818
795.562	0.0164978
795.640	0.0164375
795.718	0.0165193
795.796	0.0164694
795.874	0.0164753
795.953	0.0165079
796.031	0.0164491
796.109	0.0164140
796.187	0.0164941
796.265	0.0163792
796.343	0.0163631
796.421	0.0162885
796.499	0.0160498
796.578	0.0162451
796.656	0.0161458
796.734	0.0162756
796.812	0.0162018
796.890	0.0159582
796.968	0.0160831
797.046	0.0160951
797.124	0.0160506
797.203	0.0161536
797.281	0.0161147
797.359	0.0159808
797.437	0.0160043
797.515	0.0159823
797.593	0.0159605
797.671	0.0159120
797.749	0.0159748
797.828	0.0157870
797.906	0.0158662
797.984	0.0158467
798.062	0.0158554
798.140	0.0158314
798.218	0.0156845
798.296	0.0157066
798.374	0.0156709
798.453	0.0156137
798.531	0.0155012
798.609	0.0156421
798.687	0.0157336
798.765	0.0156454
798.843	0.0155371
798.921	0.0156838
798.999	0.0156473
799.078	0.0157876
799.156	0.0158123
799.234	0.0159550
799.312	0.0160387
799.390	0.0160447
799.468	0.0161215
799.546	0.0160128
799.624	0.0161420
799.703	0.0160745
799.781	0.0161977
799.859	0.0164503
799.937	0.0164389
800.015	0.0165116
800.093	0.0163644
800.171	0.0165343
800.249	0.0166134
800.328	0.0166985
800.406	0.0166289
800.484	0.0166896
800.562	0.0167365
800.640	0.0167052
800.718	0.0167191
800.796	0.0167625
800.874	0.0168044
800.953	0.0167020
801.031	0.0166132
801.109	0.0164978
801.187	0.0163968
801.265	0.0164633
801.343	0.0165057
801.421	0.0161657
801.499	0.0160910
801.578	0.0161237
801.656	0.0159805
801.734	0.0158793
801.812	0.0159710
801.890	0.0157662
801.968	0.0158696
802.046	0.0158666
802.124	0.0158880
802.203	0.0159351
802.281	0.0157634
802.359	0.0158245
802.437	0.0159779
802.515	0.0159637
802.593	0.0158904
802.671	0.0160670
802.749	0.0162014
802.828	0.0160980
802.906	0.0160876
802.984	0.0161153
803.062	0.0160442
803.140	0.0160827
803.218	0.0161522
803.296	0.0161577
803.374	0.0161495
803.453	0.0162117
803.531	0.0161256
803.609	0.0162173
803.687	0.0161452
803.765	0.0161212
803.843	0.0160891
803.921	0.0161308
803.999	0.0161445
804.078	0.0162463
804.156	0.0160889
804.234	0.0159971
804.312	0.0162075
804.390	0.0160456
804.468	0.0159750
804.546	0.0159843
804.624	0.0160551
804.703	0.0160442
804.781	0.0161149
804.859	0.0159965
804.937	0.0161481
805.015	0.0160563
805.093	0.0161552
805.171	0.0161981
805.249	0.0160983
805.328	0.0162488
805.406	0.0163438
805.484	0.0162468
805.562	0.0161507
805.640	0.0164355
805.718	0.0163286
805.796	0.0164981
805.874	0.0163004
805.953	0.0164254
806.031	0.0164381
806.109	0.0163940
806.187	0.0164602
806.265	0.0163831
806.343	0.0163754
806.421	0.0162004
806.499	0.0163240
806.578	0.0162083
806.656	0.0160255
806.734	0.0160457
806.812	0.0159602
806.890	0.0158794
806.968	0.0158038
807.046	0.0157928
807.124	0.0157417
807.203	0.0156266
807.281	0.0156914
807.359	0.0155795
807.437	0.0157368
807.515	0.0157506
807.593	0.0156097
807.671	0.0157581
807.749	0.0158923
807.828	0.0158028
807.906	0.0159641
807.984	0.0160358
808.062	0.0160480
808.140	0.0161958
808.218	0.0161377
808.296	0.0161014
808.374	0.0161076
808.453	0.0162990
808.531	0.0163700
808.609	0.0162917
808.687	0.0163168
808.765	0.0164059
808.843	0.0162064
808.921	0.0162660
808.999	0.0165987
809.078	0.0162461
809.156	0.0162907
809.234	0.0163097
809.312	0.0161844
809.390	0.0163110
809.468	0.0164169
809.546	0.0164046
809.624	0.0163010
809.703	0.0164156
809.781	0.0162827
809.859	0.0162241
809.937	0.0163192
810.015	0.0164278
810.093	0.0162985
810.171	0.0162058
810.249	0.0162350
810.328	0.0161827
810.406	0.0161661
810.484	0.0162484
810.562	0.0162876
810.640	0.0160807
810.718	0.0158208
810.796	0.0159223
810.874	0.0161104
810.953	0.0161823
811.031	0.0161761
811.109	0.0160003
811.187	0.0160521
811.265	0.0161077
811.343	0.0161191
811.421	0.0160132
811.499	0.0159589
811.578	0.0159144
811.656	0.0159968
811.734	0.0160410
811.812	0.0160829
811.890	0.0159373
811.968	0.0160429
812.046	0.0162236
812.124	0.0162386
812.203	0.0161691
812.281	0.0161152
812.359	0.0160285
812.437	0.0161540
812.515	0.0161878
812.593	0.0161689
812.671	0.0162217
812.749	0.0162086
812.828	0.0161263
812.906	0.0160901
812.984	0.0161541
813.062	0.0160836
813.140	0.0161022
813.218	0.0160800
813.296	0.0159283
813.374	0.0160264
813.453	0.0160755
813.531	0.0160325
813.609	0.0159381
813.687	0.0157955
813.765	0.0158289
813.843	0.0159168
813.921	0.0158150
813.999	0.0158187
814.078	0.0159056
814.156	0.0158253
814.234	0.0160213
814.312	0.0158623
814.390	0.0158987
814.468	0.0160748
814.546	0.0160833
814.624	0.0160141
814.703	0.0160593
814.781	0.0162005
814.859	0.0162485
814.937	0.0162629
815.015	0.0162855
815.093	0.0164745
815.171	0.0164937
815.249	0.0162955
815.328	0.0162427
815.406	0.0163744
815.484	0.0163054
815.562	0.0164452
815.640	0.0163680
815.718	0.0164943
815.796	0.0166727
815.874	0.0165121
815.953	0.0165195
816.031	0.0164841
816.109	0.0164235
816.187	0.0163797
816.265	0.0163695
816.343	0.0163700
816.421	0.0164297
816.499	0.0162919
816.578	0.0161903
816.656	0.0161196
816.734	0.0161513
816.812	0.0160609
816.890	0.0160249
816.968	0.0161265
817.046	0.0160545
817.124	0.0160377
817.203	0.0159930
817.281	0.0159026
817.359	0.0158047
817.437	0.0158065
817.515	0.0157976
817.593	0.0158633
817.671	0.0156335
817.749	0.0158581
817.828	0.0158903
817.906	0.0157654
817.984	0.0158554
818.062	0.0158392
818.140	0.0158331
818.218	0.0158938
818.296	0.0158431
818.374	0.0159718
818.453	0.0160702
818.531	0.0160020
818.609	0.0159117
818.687	0.0160670
818.765	0.0159589
818.843	0.0159167
818.921	0.0161652
818.999	0.0161216
819.078	0.0161334
819.156	0.0161843
819.234	0.0162230
819.312	0.0163356
819.390	0.0162376
819.468	0.0163065
819.546	0.0163016
819.624	0.0164103
819.703	0.0164111
819.781	0.0163351
819.859	0.0163282
819.937	0.0164206
820.015	0.0162976
820.093	0.0162792
820.171	0.0163763
820.249	0.0163243
820.328	0.0162109
820.406	0.0163573
820.484	0.0163191
820.562	0.0160908
820.640	0.0161519
820.718	0.0161858
820.796	0.0161651
820.874	0.0161437
820.953	0.0161108
821.031	0.0161384
821.109	0.0161183
821.187	0.0161374
821.265	0.0161227
821.343	0.0159925
821.421	0.0160715
821.499	0.0160354
821.578	0.0160323
821.656	0.0159969
821.734	0.0159820
821.812	0.0158103
821.890	0.0159144
821.968	0.0159692
822.046	0.0159299
822.124	0.0158643
822.203	0.0158692
822.281	0.0159227
822.359	0.0158733
822.437	0.0159067
822.515	0.0159351
822.593	0.0158970
822.671	0.0159467
822.749	0.0160074
822.828	0.0161127
822.906	0.0161006
822.984	0.0160648
823.062	0.0160274
823.140	0.0162221
823.218	0.0162461
823.296	0.0161018
823.374	0.0162209
823.453	0.0163300
823.531	0.0163046
823.609	0.0162701
823.687	0.0162909
823.765	0.0164345
823.843	0.0163934
823.921	0.0162226
823.999	0.0161549
824.078	0.0162626
824.156	0.0162859
824.234	0.0162473
824.312	0.0161760
824.390	0.0163024
824.468	0.0162019
824.546	0.0161211
824.624	0.0162770
824.703	0.0161948
824.781	0.0160138
824.859	0.0160172
824.937	0.0161081
825.015	0.0160690
825.093	0.0160272
825.171	0.0160059
825.249	0.0160706
825.328	0.0159884
825.406	0.0160202
825.484	0.0160638
825.562	0.0161435
825.640	0.0162492
825.718	0.0160786
825.796	0.0159242
825.874	0.0161253
825.953	0.0161582
826.031	0.0160143
826.109	0.0159025
826.187	0.0161092
826.265	0.0161501
826.343	0.0160232
826.421	0.0161319
826.499	0.0159834
826.578	0.0161360
826.656	0.0162748
826.734	0.0160044
826.812	0.0162847
826.890	0.0162083
826.968	0.0163134
827.046	0.0163093
827.124	0.0162865
827.203	0.0162323
827.281	0.0164751
827.359	0.0162501
827.437	0.0162566
827.515	0.0162050
827.593	0.0161233
827.671	0.0161681
827.749	0.0161673
827.828	0.0161256
827.906	0.0160860
827.984	0.0161273
828.062	0.0162123
828.140	0.0161159
828.218	0.0160776
828.296	0.0161324
828.374	0.0160804
828.453	0.0160996
828.531	0.0160778
828.609	0.0160385
828.687	0.0161210
828.765	0.0160538
828.843	0.0159866
828.921	0.0159511
828.999	0.0159843
829.078	0.0159956
829.156	0.0159643
829.234	0.0161079
829.312	0.0158742
829.390	0.0160532
829.468	0.0160427
829.546	0.0159492
829.624	0.0159789
829.703	0.0161103
829.781	0.0159702
829.859	0.0161410
829.937	0.0161179
830.015	0.0161374
830.093	0.0162373
830.171	0.0160904
830.249	0.0162722
830.328	0.0161468
830.406	0.0162587
830.484	0.0161322
830.562	0.0161849
830.640	0.0162733
830.718	0.0163097
830.796	0.0162545
830.874	0.0162901
830.953	0.0162450
831.031	0.0163123
831.109	0.0163141
831.187	0.0163446
831.265	0.0162218
831.343	0.0162321
831.421	0.0162617
831.499	0.0163462
831.578	0.0162900
831.656	0.0162810
831.734	0.0162277
831.812	0.0162178
831.890	0.0163738
831.968	0.0161520
832.046	0.0161662
832.124	0.0162518
832.203	0.0162563
832.281	0.0162034
832.359	0.0161592
832.437	0.0162138
832.515	0.0159968
832.593	0.0159373
832.671	0.0161010
832.749	0.0160258
832.828	0.0160166
832.906	0.0159161
832.984	0.0159439
833.062	0.0160297
833.140	0.0158060
833.218	0.0159061
833.296	0.0159895
833.374	0.0160222
833.453	0.0160314
833.531	0.0159499
833.609	0.0159431
833.687	0.0159334
833.765	0.0160683
833.843	0.0160853
833.921	0.0160954
833.999	0.0162306
834.078	0.0162265
834.156	0.0161895
834.234	0.0164032
834.312	0.0161926
834.390	0.0162677
834.468	0.0162110
834.546	0.0162367
834.624	0.0162036
834.703	0.0162679
834.781	0.0161512
834.859	0.0162115
834.937	0.0161974
835.015	0.0162495
835.093	0.0161626
835.171	0.0162672
835.249	0.0162259
835.328	0.0161378
835.406	0.0160868
835.484	0.0160528
835.562	0.0160713
835.640	0.0161659
835.718	0.0161814
835.796	0.0160033
835.874	0.0158922
835.953	0.0158961
836.031	0.0159926
836.109	0.0160941
836.187	0.0161749
836.265	0.0159435
836.343	0.0160479
836.421	0.0160407
836.499	0.0160429
836.578	0.0160905
836.656	0.0160688
836.734	0.0160260
836.812	0.0160678
836.890	0.0161755
836.968	0.0159988
837.046	0.0161842
837.124	0.0162543
837.203	0.0162056
837.281	0.0163393
837.359	0.0163122
837.437	0.0162790
837.515	0.0162917
837.593	0.0163528
837.671	0.0161949
837.749	0.0163200
837.828	0.0162128
837.906	0.0160895
837.984	0.0161427
838.062	0.0160590
838.140	0.0160572
838.218	0.0159115
838.296	0.0159921
838.374	0.0159754
838.453	0.0159110
838.531	0.0159145
838.609	0.0158756
838.687	0.0159980
838.765	0.0160450
838.843	0.0159349
838.921	0.0160399
838.999	0.0160915
839.078	0.0162014
839.156	0.0162607
839.234	0.0163598
839.312	0.0164075
839.390	0.0164679
839.468	0.0165053
839.546	0.0165034
839.624	0.0164381
839.703	0.0165053
839.781	0.0163639
839.859	0.0163567
839.937	0.0161939
840.015	0.0160961
840.093	0.0163007
840.171	0.0162177
840.249	0.0158856
840.328	0.0159626
840.406	0.0159078
840.484	0.0159338
840.562	0.0157741
840.640	0.0157128
840.718	0.0158134
840.796	0.0157634
840.874	0.0157587
840.953	0.0157724
841.031	0.0159008
841.109	0.0159741
841.187	0.0161001
841.265	0.0161249
841.343	0.0162396
841.421	0.0162062
841.499	0.0162840
841.578	0.0163007
841.656	0.0164293
841.734	0.0162843
841.812	0.0163081
841.890	0.0163694
841.968	0.0165968
842.046	0.0163950
842.124	0.0163441
842.203	0.0163866
842.281	0.0163529
842.359	0.0163044
842.437	0.0162563
842.515	0.0160771
842.593	0.0160857
842.671	0.0158901
842.749	0.0158668
842.828	0.0156730
842.906	0.0156844
842.984	0.0157312
843.062	0.0155331
843.140	0.0155843
843.218	0.0157391
843.296	0.0157376
843.374	0.0157581
843.453	0.0158340
843.531	0.0158971
843.609	0.0160184
843.687	0.0161839
843.765	0.0162098
843.843	0.0161897
843.921	0.0162931
843.999	0.0164375
844.078	0.0164446
844.156	0.0166203
844.234	0.0165401
844.312	0.0165115
844.390	0.0164812
844.468	0.0164839
844.546	0.0165340
844.624	0.0165466
844.703	0.0163793
844.781	0.0162363
844.859	0.0163593
844.937	0.0164401
845.015	0.0162296
845.093	0.0161569
845.171	0.0159911
845.249	0.0162944
845.328	0.0159405
845.406	0.0159148
845.484	0.0157486
845.562	0.0159348
845.640	0.0160658
845.718	0.0159397
845.796	0.0159239
845.874	0.0159544
845.953	0.0159506
846.031	0.0160122
846.109	0.0159621
846.187	0.0160973
846.265	0.0161098
846.343	0.0161078
846.421	0.0162998
846.499	0.0162305
846.578	0.0163317
846.656	0.0161626
846.734	0.0160788
846.812	0.0164252
846.890	0.0162735
846.968	0.0162820
847.046	0.0162579
847.124	0.0162233
847.203	0.0161311
847.281	0.0160982
847.359	0.0161082
847.437	0.0159545
847.515	0.0159726
847.593	0.0158522
847.671	0.0157650
847.749	0.0158476
847.828	0.0158042
847.906	0.0158866
847.984	0.0157169
848.062	0.0157339
848.140	0.0157079
848.218	0.0159158
848.296	0.0159383
848.374	0.0158395
848.453	0.0159885
848.531	0.0159741
848.609	0.0161529
848.687	0.0160154
848.765	0.0161388
848.843	0.0161776
848.921	0.0163235
848.999	0.0163905
849.078	0.0166539
849.156	0.0166833
849.234	0.0164780
849.312	0.0166644
849.390	0.0167754
849.468	0.0167152
849.546	0.0166032
849.624	0.0166786
849.703	0.0166798
849.781	0.0165222
849.859	0.0164584
849.937	0.0164091
850.015	0.0161674
850.093	0.0162383
850.171	0.0160229
850.249	0.0160587
850.328	0.0159518
850.406	0.0159328
850.484	0.0157626
850.562	0.0157728
850.640	0.0157849
850.718	0.0157365
850.796	0.0155407
850.874	0.0155403
850.953	0.0155501
851.031	0.0155840
851.109	0.0156875
851.187	0.0156522
851.265	0.0156319
851.343	0.0158170
851.421	0.0156956
851.499	0.0156500
851.578	0.0159639
851.656	0.0159577
851.734	0.0159272
851.812	0.0161469
851.890	0.0161995
851.968	0.0162394
852.046	0.0162031
852.124	0.0162325
852.203	0.0161831
852.281	0.0162603
852.359	0.0162008
852.437	0.0162379
852.515	0.0161227
852.593	0.0161439
852.671	0.0160183
852.749	0.0161021
852.828	0.0160136
852.906	0.0161467
852.984	0.0159348
853.062	0.0159911
853.140	0.0160128
853.218	0.0159582
853.296	0.0160368
853.374	0.0161629
853.453	0.0160463
853.531	0.0161621
853.609	0.0161234
853.687	0.0163000
853.765	0.0164349
853.843	0.0163538
853.921	0.0163535
853.999	0.0165134
854.078	0.0164542
854.156	0.0165782
854.234	0.0165180
854.312	0.0164463
854.390	0.0163808
854.468	0.0163033
854.546	0.0164226
854.624	0.0162767
854.703	0.0162039
854.781	0.0160928
854.859	0.0161319
854.937	0.0161493
855.015	0.0159430
855.093	0.0159724
855.171	0.0160014
855.249	0.0160191
855.328	0.0157743
855.406	0.0157221
855.484	0.0158941
855.562	0.0158589
855.640	0.0160081
855.718	0.0159052
855.796	0.0159438
855.874	0.0160706
855.953	0.0159106
856.031	0.0158076
856.109	0.0159612
856.187	0.0159946
856.265	0.0161871
856.343	0.0161657
856.421	0.0162507
856.499	0.0161079
856.578	0.0161408
856.656	0.0160287
856.734	0.0161243
856.812	0.0161381
856.890	0.0159584
856.968	0.0160929
857.046	0.0160374
857.124	0.0160123
857.203	0.0158728
857.281	0.0160178
857.359	0.0159902
857.437	0.0159503
857.515	0.0159385
857.593	0.0159474
857.671	0.0160081
857.749	0.0159916
857.828	0.0161468
857.906	0.0162414
857.984	0.0161705
858.062	0.0161308
858.140	0.0163083
858.218	0.0162962
858.296	0.0163161
858.374	0.0162774
858.453	0.0163752
858.531	0.0164359
858.609	0.0164283
858.687	0.0164417
858.765	0.0163267
858.843	0.0164141
858.921	0.0162275
858.999	0.0164591
859.078	0.0162146
859.156	0.0161372
859.234	0.0162665
859.312	0.0162157
859.390	0.0160709
859.468	0.0162114
859.546	0.0162079
859.624	0.0160419
859.703	0.0158713
859.781	0.0160421
859.859	0.0161484
859.937	0.0159495
860.015	0.0159302
860.093	0.0159785
860.171	0.0158957
860.249	0.0159650
860.328	0.0159975
860.406	0.0160255
860.484	0.0160763
860.562	0.0161524
860.640	0.0160925
860.718	0.0161473
860.796	0.0160841
860.874	0.0161503
860.953	0.0161546
861.031	0.0163038
861.109	0.0161567
861.187	0.0161854
861.265	0.0162731
861.343	0.0162196
861.421	0.0161616
861.499	0.0161311
861.578	0.0162782
861.656	0.0160481
861.734	0.0161417
861.812	0.0160051
861.890	0.0162102
861.968	0.0160856
862.046	0.0161521
862.124	0.0160802
862.203	0.0162193
862.281	0.0159512
862.359	0.0159380
862.437	0.0160790
862.515	0.0161593
862.593	0.0160722
862.671	0.0160232
862.749	0.0161910
862.828	0.0162238
862.906	0.0161607
862.984	0.0160931
863.062	0.0162606
863.140	0.0162547
863.218	0.0161222
863.296	0.0162915
863.374	0.0162809
863.453	0.0162994
863.531	0.0162538
863.609	0.0161391
863.687	0.0161327
863.765	0.0162956
863.843	0.0160866
863.921	0.0160242
863.999	0.0160236
864.078	0.0161111
864.156	0.0161594
864.234	0.0161053
864.312	0.0160938
864.390	0.0160135
864.468	0.0161264
864.546	0.0162652
864.624	0.0160480
864.703	0.0160446
864.781	0.0160909
864.859	0.0161835
864.937	0.0159976
865.015	0.0161906
865.093	0.0161763
865.171	0.0161115
865.249	0.0162133
865.328	0.0162778
865.406	0.0162946
865.484	0.0162362
865.562	0.0161812
865.640	0.0161337
865.718	0.0162990
865.796	0.0162590
865.874	0.0161322
865.953	0.0160609
866.031	0.0160586
866.109	0.0159982
866.187	0.0159123
866.265	0.0159306
866.343	0.0159855
866.421	0.0157548
866.499	0.0158780
866.578	0.0157872
866.656	0.0155757
866.734	0.0156538
866.812	0.0156361
866.890	0.0156900
866.968	0.0156650
867.046	0.0157381
867.124	0.0156611
867.203	0.0158992
867.281	0.0158977
867.359	0.0159692
867.437	0.0160500
867.515	0.0162129
867.593	0.0163085
867.671	0.0162978
867.749	0.0163734
867.828	0.0163873
867.906	0.0165038
867.984	0.0164141
868.062	0.0164682
868.140	0.0164008
868.218	0.0163883
868.296	0.0162749
868.374	0.0162838
868.453	0.0163219
868.531	0.0162545
868.609	0.0160863
868.687	0.0162149
868.765	0.0160642
868.843	0.0161648
868.921	0.0160670
868.999	0.0160863
869.078	0.0160197
869.156	0.0161214
869.234	0.0161080
869.312	0.0161623
869.390	0.0160473
869.468	0.0161468
869.546	0.0160831
869.624	0.0161404
869.703	0.0161536
869.781	0.0163757
869.859	0.0162262
869.937	0.0162578
870.015	0.0163468
870.093	0.0162640
870.171	0.0160887
870.249	0.0162350
870.328	0.0162392
870.406	0.0161687
870.484	0.0160262
870.562	0.0160442
870.640	0.0159592
870.718	0.0159618
870.796	0.0159033
870.874	0.0158064
870.953	0.0159399
871.031	0.0158434
871.109	0.0157393
871.187	0.0158455
871.265	0.0157423
871.343	0.0156274
871.421	0.0157915
871.499	0.0157402
871.578	0.0159481
871.656	0.0160434
871.734	0.0160196
871.812	0.0160091
871.890	0.0160328
871.968	0.0160546
872.046	0.0160065
872.124	0.0160654
872.203	0.0162335
872.281	0.0160865
872.359	0.0160495
872.437	0.0162932
872.515	0.0162797
872.593	0.0161697
872.671	0.0161507
872.749	0.0161237
872.828	0.0161320
872.906	0.0160989
872.984	0.0161519
873.062	0.0161191
873.140	0.0161706
873.218	0.0162434
873.296	0.0160413
873.374	0.0160651
873.453	0.0161930
873.531	0.0161134
873.609	0.0160471
873.687	0.0162693
873.765	0.0161760
873.843	0.0162461
873.921	0.0162452
873.999	0.0162048
874.078	0.0162292
874.156	0.0163169
874.234	0.0163086
874.312	0.0161343
874.390	0.0161709
874.468	0.0161356
874.546	0.0160814
874.624	0.0162434
874.703	0.0162421
874.781	0.0161485
874.859	0.0161232
874.937	0.0162389
875.015	0.0160680
875.093	0.0161623
875.171	0.0162209
875.249	0.0161099
875.328	0.0163015
875.406	0.0162908
875.484	0.0161537
875.562	0.0160638
875.640	0.0161495
875.718	0.0161156
875.796	0.0160104
875.874	0.0159775
875.953	0.0160163
876.031	0.0158894
876.109	0.0160290
876.187	0.0159622
876.265	0.0158559
876.343	0.0158579
876.421	0.0158347
876.499	0.0159477
876.578	0.0159955
876.656	0.0159032
876.734	0.0160085
876.812	0.0158840
876.890	0.0159846
876.968	0.0159554
877.046	0.0161352
877.124	0.0159866
877.203	0.0160144
877.281	0.0161412
877.359	0.0162841
877.437	0.0160206
877.515	0.0160827
877.593	0.0162170
877.671	0.0161024
877.749	0.0161072
877.828	0.0161218
877.906	0.0161449
877.984	0.0160053
878.062	0.0160629
878.140	0.0160568
878.218	0.0160989
878.296	0.0160217
878.374	0.0160827
878.453	0.0161115
878.531	0.0161479
878.609	0.0161391
878.687	0.0162119
878.765	0.0161128
878.843	0.0161588
878.921	0.0162058
878.999	0.0162240
879.078	0.0161927
879.156	0.0162449
879.234	0.0161777
879.312	0.0162582
879.390	0.0162663
879.468	0.0161318
879.546	0.0161736
879.624	0.0162596
879.703	0.0163509
879.781	0.0164251
879.859	0.0161304
879.937	0.0161343
880.015	0.0162723
880.093	0.0161309
880.171	0.0162112
880.249	0.0162827
880.328	0.0162414
880.406	0.0160017
880.484	0.0160518
880.562	0.0162118
880.640	0.0162449
880.718	0.0160882
880.796	0.0160769
880.874	0.0161780
880.953	0.0159667
881.031	0.0160142
881.109	0.0160940
881.187	0.0159482
881.265	0.0161839
881.343	0.0159811
881.421	0.0159406
881.499	0.0161335
881.578	0.0160952
881.656	0.0161453
881.734	0.0161115
881.812	0.0161233
881.890	0.0161652
881.968	0.0161264
882.046	0.0162492
882.124	0.0161147
882.203	0.0161629
882.281	0.0160068
882.359	0.0160059
882.437	0.0160876
882.515	0.0161608
882.593	0.0160380
882.671	0.0162308
882.749	0.0160352
882.828	0.0161031
882.906	0.0160442
882.984	0.0162376
883.062	0.0162648
883.140	0.0161606
883.218	0.0161935
883.296	0.0161194
883.374	0.0161668
883.453	0.0161951
883.531	0.0162484
883.609	0.0162109
883.687	0.0159626
883.765	0.0160166
883.843	0.0161484
883.921	0.0160612
883.999	0.0159200
884.078	0.0160378
884.156	0.0160410
884.234	0.0159679
884.312	0.0159469
884.390	0.0159961
884.468	0.0158812
884.546	0.0159411
884.624	0.0160246
884.703	0.0161256
884.781	0.0160328
884.859	0.0159177
884.937	0.0160694
885.015	0.0161682
885.093	0.0161903
885.171	0.0162359
885.249	0.0163622
885.328	0.0162797
885.406	0.0162080
885.484	0.0163134
885.562	0.0162537
885.640	0.0163355
885.718	0.0162104
885.796	0.0163730
885.874	0.0162888
885.953	0.0162669
886.031	0.0162831
886.109	0.0162764
886.187	0.0163220
886.265	0.0162183
886.343	0.0163141
886.421	0.0163496
886.499	0.0163288
886.578	0.0163702
886.656	0.0162921
886.734	0.0163932
886.812	0.0162705
886.890	0.0162630
886.968	0.0161436
887.046	0.0161906
887.124	0.0162049
887.203	0.0159949
887.281	0.0160622
887.359	0.0162045
887.437	0.0160805
887.515	0.0160841
887.593	0.0161542
887.671	0.0160471
887.749	0.0159754
887.828	0.0159779
887.906	0.0159840
887.984	0.0160979
888.062	0.0161565
888.140	0.0161214
888.218	0.0161035
888.296	0.0161023
888.374	0.0159347
888.453	0.0162337
888.531	0.0163274
888.609	0.0162693
888.687	0.0161459
888.765	0.0162142
888.843	0.0161607
888.921	0.0162531
888.999	0.0162220
889.078	0.0160915
889.156	0.0160666
889.234	0.0161296
889.312	0.0161717
889.390	0.0161156
889.468	0.0159776
889.546	0.0160487
889.624	0.0159204
889.703	0.0160177
889.781	0.0160161
889.859	0.0159500
889.937	0.0160365
890.015	0.0160854
890.093	0.0159280
890.171	0.0160252
890.249	0.0159580
890.328	0.0162260
890.406	0.0162807
890.484	0.0161810
890.562	0.0161389
890.640	0.0161488
890.718	0.0161742
890.796	0.0164029
890.874	0.0161255
890.953	0.0161062
891.031	0.0162330
891.109	0.0162624
891.187	0.0161470
891.265	0.0161933
891.343	0.0160596
891.421	0.0160925
891.499	0.0160434
891.578	0.0159947
891.656	0.0160076
891.734	0.0161993
891.812	0.0161163
891.890	0.0160748
891.968	0.0160131
892.046	0.0161064
892.124	0.0159512
892.203	0.0159465
892.281	0.0160635
892.359	0.0159959
892.437	0.0159454
892.515	0.0159061
892.593	0.0159686
892.671	0.0159251
892.749	0.0159412
892.828	0.0159877
892.906	0.0159736
892.984	0.0157642
893.062	0.0158987
893.140	0.0159929
893.218	0.0159731
893.296	0.0158914
893.374	0.0160327
893.453	0.0160164
893.531	0.0159478
893.609	0.0160188
893.687	0.0161047
893.765	0.0160164
893.843	0.0161228
893.921	0.0161487
893.999	0.0161796
894.078	0.0161288
894.156	0.0161027
894.234	0.0160721
894.312	0.0160713
894.390	0.0161834
894.468	0.0161944
894.546	0.0162929
894.624	0.0161441
894.703	0.0161767
894.781	0.0160936
894.859	0.0162039
894.937	0.0162209
895.015	0.0161536
895.093	0.0162663
895.171	0.0161975
895.249	0.0162910
895.328	0.0161844
895.406	0.0162039
895.484	0.0162538
895.562	0.0162012
895.640	0.0160654
895.718	0.0160378
895.796	0.0161189
895.874	0.0161191
895.953	0.0162612
896.031	0.0161449
896.109	0.0160812
896.187	0.0161478
896.265	0.0160978
896.343	0.0160081
896.421	0.0160431
896.499	0.0161431
896.578	0.0161245
896.656	0.0159124
896.734	0.0161317
896.812	0.0160876
896.890	0.0160687
896.968	0.0159912
897.046	0.0160394
897.124	0.0161034
897.203	0.0160459
897.281	0.0161954
897.359	0.0162127
897.437	0.0160706
897.515	0.0162054
897.593	0.0163603
897.671	0.0163097
897.749	0.0162019
897.828	0.0163232
897.906	0.0163313
897.984	0.0163146
898.062	0.0162459
898.140	0.0163520
898.218	0.0161094
898.296	0.0161720
898.374	0.0161037
898.453	0.0161710
898.531	0.0160400
898.609	0.0160951
898.687	0.0161810
898.765	0.0160660
898.843	0.0160162
898.921	0.0160783
898.999	0.0160343
899.078	0.0161515
899.156	0.0161034
899.234	0.0159859
899.312	0.0161172
899.390	0.0160857
899.468	0.0161094
899.546	0.0161208
899.624	0.0162740
899.703	0.0161433
899.781	0.0161175
899.859	0.0162539
899.937	0.0161900
900.015	0.0161658
900.093	0.0162659
900.171	0.0162032
900.249	0.0162280
900.328	0.0161553
900.406	0.0160997
900.484	0.0160723
900.562	0.0160000
900.640	0.0158965
900.718	0.0160548
900.796	0.0159655
900.874	0.0159531
900.953	0.0160412
901.031	0.0160436
901.109	0.0159915
901.187	0.0159521
901.265	0.0159164
901.343	0.0160783
901.421	0.0159783
901.499	0.0160206
901.578	0.0160958
901.656	0.0160547
901.734	0.0162173
901.812	0.0161157
901.890	0.0161668
901.968	0.0161788
902.046	0.0162493
902.124	0.0161910
902.203	0.0162669
902.281	0.0162905
902.359	0.0162603
902.437	0.0162570
902.515	0.0160744
902.593	0.0161020
902.671	0.0161539
902.749	0.0161369
902.828	0.0160512
902.906	0.0160210
902.984	0.0159225
903.062	0.0158828
903.140	0.0159737
903.218	0.0159161
903.296	0.0158200
903.374	0.0158376
903.453	0.0156704
903.531	0.0158168
903.609	0.0158031
903.687	0.0157220
903.765	0.0158823
903.843	0.0159344
903.921	0.0159156
903.999	0.0159062
904.078	0.0159214
904.156	0.0161009
904.234	0.0160529
904.312	0.0159464
904.390	0.0159786
904.468	0.0162160
904.546	0.0161464
904.624	0.0162027
904.703	0.0161641
904.781	0.0162131
904.859	0.0162022
904.937	0.0162541
905.015	0.0162164
905.093	0.0161834
905.171	0.0162271
905.249	0.0163854
905.328	0.0161932
905.406	0.0161294
905.484	0.0160809
905.562	0.0161746
905.640	0.0161907
905.718	0.0161374
905.796	0.0161291
905.874	0.0161338
905.953	0.0163309
906.031	0.0162548
906.109	0.0160907
906.187	0.0161542
906.265	0.0161436
906.343	0.0161057
906.421	0.0160722
906.499	0.0160722
906.578	0.0161357
906.656	0.0160834
906.734	0.0161198
906.812	0.0161098
906.890	0.0161240
906.968	0.0162514
907.046	0.0160151
907.124	0.0161653
907.203	0.0160758
907.281	0.0160646
907.359	0.0162016
907.437	0.0161112
907.515	0.0158751
907.593	0.0159756
907.671	0.0159415
907.749	0.0159174
907.828	0.0160053
907.906	0.0159653
907.984	0.0160226
908.062	0.0159181
908.140	0.0159461
908.218	0.0159883
908.296	0.0159529
908.374	0.0160750
908.453	0.0159830
908.531	0.0161270
908.609	0.0159391
908.687	0.0162091
908.765	0.0161530
908.843	0.0161564
908.921	0.0162145
908.999	0.0160738
909.078	0.0161554
909.156	0.0164303
909.234	0.0161629
909.312	0.0161795
909.390	0.0162235
909.468	0.0161644
909.546	0.0162228
909.624	0.0161411
909.703	0.0159627
909.781	0.0160557
909.859	0.0160438
909.937	0.0159525
910.015	0.0159659
910.093	0.0158852
910.171	0.0159198
910.249	0.0161626
910.328	0.0160426
910.406	0.0160979
910.484	0.0160770
910.562	0.0162660
910.640	0.0160675
910.718	0.0161272
910.796	0.0161462
910.874	0.0161809
910.953	0.0161694
911.031	0.0161625
911.109	0.0162653
911.187	0.0162597
911.265	0.0162319
911.343	0.0161137
911.421	0.0161739
911.499	0.0160415
911.578	0.0160408
911.656	0.0160429
911.734	0.0159448
911.812	0.0159026
911.890	0.0159411
911.968	0.0159476
912.046	0.0158198
912.124	0.0158970
912.203	0.0157675
912.281	0.0159784
912.359	0.0159418
912.437	0.0159835
912.515	0.0160196
912.593	0.0159419
912.671	0.0161191
912.749	0.0161459
912.828	0.0161304
912.906	0.0161674
912.984	0.0163855
913.062	0.0162801
913.140	0.0162990
913.218	0.0163200
913.296	0.0163641
913.374	0.0162782
913.453	0.0162782
913.531	0.0162224
913.609	0.0162646
913.687	0.0162240
913.765	0.0161619
913.843	0.0160709
913.921	0.0161142
913.999	0.0159640
914.078	0.0160091
914.156	0.0160020
914.234	0.0159609
914.312	0.0160072
914.390	0.0159303
914.468	0.0158774
914.546	0.0157690
914.624	0.0159176
914.703	0.0159610
914.781	0.0159547
914.859	0.0160811
914.937	0.0160511
915.015	0.0161842
915.093	0.0160653
915.171	0.0160313
915.249	0.0161261
915.328	0.0162216
915.406	0.0163454
915.484	0.0162038
915.562	0.0162996
915.640	0.0163193
915.718	0.0163412
915.796	0.0163850
915.874	0.0164046
915.953	0.0161971
916.031	0.0163441
916.109	0.0162420
916.187	0.0161024
916.265	0.0161214
916.343	0.0160755
916.421	0.0161935
916.499	0.0160232
916.578	0.0159637
916.656	0.0160349
916.734	0.0159257
916.812	0.0158910
916.890	0.0158744
916.968	0.0160401
917.046	0.0160395
917.124	0.0159523
917.203	0.0159745
917.281	0.0160714
917.359	0.0161803
917.437	0.0161202
917.515	0.0160909
917.593	0.0160853
917.671	0.0160276
917.749	0.0161507
917.828	0.0161349
917.906	0.0161703
917.984	0.0162397
918.062	0.0162711
918.140	0.0161401
918.218	0.0161191
918.296	0.0159539
918.374	0.0160806
918.453	0.0161969
918.531	0.0160099
918.609	0.0160831
918.687	0.0158954
918.765	0.0159705
918.843	0.0158582
918.921	0.0159631
918.999	0.0159571
919.078	0.0159811
919.156	0.0158091
919.234	0.0157963
919.312	0.0158253
919.390	0.0159418
919.468	0.0160367
919.546	0.0160406
919.624	0.0160600
919.703	0.0160811
919.781	0.0161280
919.859	0.0160819
919.937	0.0160879
