06/10/2022	18:29:04	Ver.	4.1	UNKNOWN
Optical Delay	600.015094	Delta X		0.078125	Sweeps	1	Scan Rate	0/0
Coordinates	Axis 1	NaN	Axis 2	NaN	Axis 3	NaN	Axis 4	NaN	Axis 5	NaN	Axis 6	0.000000
TX Power	0.000000	RX Power	0.000000

600.015	0.0161029
600.093	0.0161979
600.171	0.0160700
600.249	0.0161010
600.328	0.0162372
600.406	0.0161977
600.484	0.0162862
600.562	0.0161562
600.640	0.0160712
600.718	0.0160920
600.796	0.0160352
600.874	0.0161720
600.953	0.0161078
601.031	0.0160791
601.109	0.0161987
601.187	0.0161159
601.265	0.0161584
601.343	0.0161532
601.421	0.0159662
601.499	0.0161710
601.578	0.0160967
601.656	0.0161750
601.734	0.0161599
601.812	0.0161963
601.890	0.0160651
601.968	0.0158778
602.046	0.0161517
602.124	0.0162289
602.203	0.0162044
602.281	0.0161613
602.359	0.0161883
602.437	0.0162766
602.515	0.0162043
602.593	0.0162356
602.671	0.0161603
602.749	0.0161967
602.828	0.0160500
602.906	0.0162196
602.984	0.0161827
603.062	0.0160452
603.140	0.0160921
603.218	0.0160809
603.296	0.0160406
603.374	0.0160126
603.453	0.0160412
603.531	0.0161696
603.609	0.0162490
603.687	0.0160696
603.765	0.0161291
603.843	0.0161027
603.921	0.0161555
603.999	0.0160149
604.078	0.0161754
604.156	0.0161613
604.234	0.0161568
604.312	0.0161840
604.390	0.0160977
604.468	0.0160758
604.546	0.0161407
604.624	0.0161597
604.703	0.0160295
604.781	0.0161010
604.859	0.0162072
604.937	0.0160416
605.015	0.0161763
605.093	0.0161617
605.171	0.0161443
605.249	0.0160233
605.328	0.0161684
605.406	0.0161830
605.484	0.0160909
605.562	0.0161581
605.640	0.0161446
605.718	0.0160935
605.796	0.0160987
605.874	0.0159320
605.953	0.0160325
606.031	0.0160914
606.109	0.0160931
606.187	0.0161964
606.265	0.0162298
606.343	0.0161169
606.421	0.0161668
606.499	0.0160565
606.578	0.0160298
606.656	0.0160921
606.734	0.0161423
606.812	0.0160946
606.890	0.0160255
606.968	0.0160397
607.046	0.0162009
607.124	0.0161701
607.203	0.0160248
607.281	0.0160265
607.359	0.0160316
607.437	0.0161810
607.515	0.0161180
607.593	0.0161060
607.671	0.0160449
607.749	0.0160574
607.828	0.0161089
607.906	0.0159777
607.984	0.0161354
608.062	0.0160011
608.140	0.0161666
608.218	0.0162622
608.296	0.0161088
608.374	0.0159870
608.453	0.0160971
608.531	0.0162540
608.609	0.0161734
608.687	0.0161629
608.765	0.0161134
608.843	0.0159599
608.921	0.0161591
608.999	0.0160938
609.078	0.0161128
609.156	0.0162115
609.234	0.0160657
609.312	0.0162685
609.390	0.0162061
609.468	0.0161147
609.546	0.0162188
609.624	0.0162146
609.703	0.0161005
609.781	0.0162646
609.859	0.0161261
609.937	0.0161223
610.015	0.0161955
610.093	0.0162103
610.171	0.0161258
610.249	0.0161742
610.328	0.0161927
610.406	0.0161409
610.484	0.0162505
610.562	0.0160179
610.640	0.0160592
610.718	0.0161810
610.796	0.0160493
610.874	0.0161576
610.953	0.0162822
611.031	0.0160359
611.109	0.0160223
611.187	0.0160210
611.265	0.0161156
611.343	0.0161176
611.421	0.0160391
611.499	0.0161455
611.578	0.0160588
611.656	0.0161579
611.734	0.0163344
611.812	0.0162304
611.890	0.0162102
611.968	0.0162618
612.046	0.0161130
612.124	0.0161862
612.203	0.0160876
612.281	0.0161357
612.359	0.0160777
612.437	0.0161302
612.515	0.0161597
612.593	0.0161531
612.671	0.0160982
612.749	0.0161137
612.828	0.0160599
612.906	0.0160999
612.984	0.0161075
613.062	0.0162106
613.140	0.0161702
613.218	0.0160158
613.296	0.0161141
613.374	0.0160788
613.453	0.0161436
613.531	0.0160995
613.609	0.0161776
613.687	0.0160575
613.765	0.0161175
613.843	0.0160687
613.921	0.0161089
613.999	0.0161558
614.078	0.0161227
614.156	0.0161971
614.234	0.0162240
614.312	0.0161193
614.390	0.0161102
614.468	0.0161285
614.546	0.0161605
614.624	0.0162241
614.703	0.0161340
614.781	0.0161482
614.859	0.0161603
614.937	0.0161137
615.015	0.0161600
615.093	0.0161063
615.171	0.0161844
615.249	0.0160411
615.328	0.0160871
615.406	0.0161310
615.484	0.0161493
615.562	0.0160347
615.640	0.0160578
615.718	0.0161851
615.796	0.0161429
615.874	0.0161419
615.953	0.0162079
616.031	0.0162164
616.109	0.0162127
616.187	0.0160796
616.265	0.0160806
616.343	0.0160941
616.421	0.0161457
616.499	0.0160346
616.578	0.0162635
616.656	0.0161111
616.734	0.0159808
616.812	0.0161850
616.890	0.0162206
616.968	0.0161349
617.046	0.0162815
617.124	0.0162833
617.203	0.0160846
617.281	0.0161608
617.359	0.0161138
617.437	0.0160480
617.515	0.0161720
617.593	0.0159996
617.671	0.0160468
617.749	0.0160435
617.828	0.0160282
617.906	0.0161697
617.984	0.0160397
618.062	0.0162406
618.140	0.0160918
618.218	0.0162775
618.296	0.0161536
618.374	0.0161020
618.453	0.0160535
618.531	0.0162189
618.609	0.0160831
618.687	0.0161490
618.765	0.0162433
618.843	0.0161488
618.921	0.0160159
618.999	0.0160448
619.078	0.0163560
619.156	0.0161211
619.234	0.0160564
619.312	0.0160278
619.390	0.0160972
619.468	0.0160356
619.546	0.0160632
619.624	0.0160201
619.703	0.0161912
619.781	0.0160929
619.859	0.0161063
619.937	0.0161324
620.015	0.0161153
620.093	0.0160818
620.171	0.0161109
620.249	0.0160715
620.328	0.0161206
620.406	0.0161244
620.484	0.0160576
620.562	0.0161165
620.640	0.0161585
620.718	0.0161224
620.796	0.0161878
620.874	0.0161369
620.953	0.0159505
621.031	0.0162151
621.109	0.0163072
621.187	0.0161008
621.265	0.0161178
621.343	0.0160634
621.421	0.0160892
621.499	0.0160136
621.578	0.0161214
621.656	0.0161990
621.734	0.0160823
621.812	0.0161312
621.890	0.0160870
621.968	0.0161031
622.046	0.0161237
622.124	0.0161143
622.203	0.0162816
622.281	0.0160785
622.359	0.0161701
622.437	0.0160395
622.515	0.0161777
622.593	0.0161156
622.671	0.0160210
622.749	0.0161013
622.828	0.0160715
622.906	0.0160154
622.984	0.0160182
623.062	0.0161057
623.140	0.0160275
623.218	0.0160275
623.296	0.0162105
623.374	0.0160889
623.453	0.0161416
623.531	0.0160694
623.609	0.0159557
623.687	0.0160489
623.765	0.0161606
623.843	0.0160883
623.921	0.0161420
623.999	0.0161269
624.078	0.0161494
624.156	0.0160263
624.234	0.0162277
624.312	0.0161349
624.390	0.0159926
624.468	0.0161753
624.546	0.0161862
624.624	0.0160576
624.703	0.0160285
624.781	0.0160268
624.859	0.0161872
624.937	0.0160799
625.015	0.0161127
625.093	0.0161079
625.171	0.0162029
625.249	0.0161334
625.328	0.0160857
625.406	0.0160636
625.484	0.0161292
625.562	0.0161123
625.640	0.0160800
625.718	0.0161710
625.796	0.0161636
625.874	0.0158430
625.953	0.0160674
626.031	0.0161485
626.109	0.0161614
626.187	0.0161405
626.265	0.0160621
626.343	0.0161800
626.421	0.0161285
626.499	0.0161300
626.578	0.0160941
626.656	0.0162120
626.734	0.0161553
626.812	0.0161737
626.890	0.0160452
626.968	0.0160779
627.046	0.0161331
627.124	0.0160153
627.203	0.0159806
627.281	0.0160944
627.359	0.0162180
627.437	0.0161346
627.515	0.0159839
627.593	0.0161727
627.671	0.0160415
627.749	0.0161660
627.828	0.0162257
627.906	0.0161353
627.984	0.0161402
628.062	0.0161716
628.140	0.0161942
628.218	0.0161576
628.296	0.0160100
628.374	0.0160468
628.453	0.0160513
628.531	0.0162612
628.609	0.0159705
628.687	0.0160484
628.765	0.0160953
628.843	0.0162353
628.921	0.0161093
628.999	0.0161507
629.078	0.0160836
629.156	0.0160902
629.234	0.0162051
629.312	0.0161938
629.390	0.0161216
629.468	0.0162092
629.546	0.0160571
629.624	0.0161201
629.703	0.0161636
629.781	0.0161729
629.859	0.0161650
629.937	0.0161177
630.015	0.0162580
630.093	0.0161049
630.171	0.0159870
630.249	0.0160925
630.328	0.0159735
630.406	0.0159753
630.484	0.0161355
630.562	0.0160407
630.640	0.0161490
630.718	0.0161071
630.796	0.0160819
630.874	0.0161385
630.953	0.0161487
631.031	0.0160882
631.109	0.0161343
631.187	0.0161827
631.265	0.0160704
631.343	0.0160957
631.421	0.0162370
631.499	0.0161801
631.578	0.0160077
631.656	0.0161149
631.734	0.0161649
631.812	0.0161032
631.890	0.0162188
631.968	0.0161789
632.046	0.0160610
632.124	0.0161964
632.203	0.0161221
632.281	0.0161716
632.359	0.0160933
632.437	0.0162564
632.515	0.0160855
632.593	0.0161333
632.671	0.0161425
632.749	0.0160353
632.828	0.0161190
632.906	0.0160317
632.984	0.0161264
633.062	0.0162777
633.140	0.0161411
633.218	0.0160672
633.296	0.0160650
633.374	0.0162073
633.453	0.0161210
633.531	0.0161490
633.609	0.0160888
633.687	0.0162186
633.765	0.0160646
633.843	0.0160429
633.921	0.0160414
633.999	0.0160470
634.078	0.0162366
634.156	0.0160126
634.234	0.0160590
634.312	0.0161242
634.390	0.0161480
634.468	0.0161250
634.546	0.0161955
634.624	0.0160667
634.703	0.0161340
634.781	0.0161491
634.859	0.0161819
634.937	0.0161723
635.015	0.0161479
635.093	0.0160873
635.171	0.0161653
635.249	0.0160873
635.328	0.0160894
635.406	0.0160407
635.484	0.0161073
635.562	0.0161436
635.640	0.0161604
635.718	0.0161803
635.796	0.0162022
635.874	0.0160076
635.953	0.0162278
636.031	0.0161888
636.109	0.0161373
636.187	0.0162270
636.265	0.0160387
636.343	0.0162199
636.421	0.0161648
636.499	0.0160621
636.578	0.0161489
636.656	0.0160828
636.734	0.0160551
636.812	0.0161175
636.890	0.0161327
636.968	0.0160758
637.046	0.0161704
637.124	0.0162032
637.203	0.0161721
637.281	0.0161111
637.359	0.0161892
637.437	0.0162447
637.515	0.0159711
637.593	0.0162489
637.671	0.0162218
637.749	0.0161728
637.828	0.0161237
637.906	0.0161961
637.984	0.0161655
638.062	0.0163207
638.140	0.0160637
638.218	0.0161490
638.296	0.0161507
638.374	0.0161348
638.453	0.0162071
638.531	0.0162572
638.609	0.0161410
638.687	0.0161190
638.765	0.0161239
638.843	0.0161129
638.921	0.0161920
638.999	0.0162136
639.078	0.0161529
639.156	0.0161548
639.234	0.0161368
639.312	0.0161877
639.390	0.0160993
639.468	0.0161050
639.546	0.0161361
639.624	0.0161402
639.703	0.0162035
639.781	0.0161214
639.859	0.0161233
639.937	0.0160629
640.015	0.0161295
640.093	0.0159970
640.171	0.0160179
640.249	0.0161552
640.328	0.0161237
640.406	0.0160804
640.484	0.0161361
640.562	0.0161417
640.640	0.0162567
640.718	0.0162036
640.796	0.0161250
640.874	0.0162340
640.953	0.0162766
641.031	0.0161757
641.109	0.0160915
641.187	0.0162777
641.265	0.0162746
641.343	0.0161018
641.421	0.0159859
641.499	0.0161019
641.578	0.0160317
641.656	0.0161383
641.734	0.0162122
641.812	0.0161796
641.890	0.0161475
641.968	0.0161312
642.046	0.0162645
642.124	0.0161530
642.203	0.0161250
642.281	0.0162640
642.359	0.0161669
642.437	0.0160878
642.515	0.0162209
642.593	0.0160278
642.671	0.0160876
642.749	0.0161372
642.828	0.0162101
642.906	0.0160907
642.984	0.0162243
643.062	0.0161920
643.140	0.0160406
643.218	0.0160605
643.296	0.0161892
643.374	0.0162380
643.453	0.0160645
643.531	0.0162195
643.609	0.0161237
643.687	0.0161805
643.765	0.0161563
643.843	0.0161263
643.921	0.0161147
643.999	0.0161147
644.078	0.0160336
644.156	0.0161443
644.234	0.0160397
644.312	0.0161642
644.390	0.0160480
644.468	0.0161329
644.546	0.0162448
644.624	0.0160229
644.703	0.0160929
644.781	0.0160246
644.859	0.0161463
644.937	0.0162233
645.015	0.0161412
645.093	0.0162303
645.171	0.0162209
645.249	0.0161003
645.328	0.0160458
645.406	0.0160963
645.484	0.0161025
645.562	0.0162197
645.640	0.0162465
645.718	0.0161405
645.796	0.0162210
645.874	0.0162337
645.953	0.0160766
646.031	0.0161419
646.109	0.0161066
646.187	0.0161133
646.265	0.0161053
646.343	0.0161280
646.421	0.0161973
646.499	0.0159950
646.578	0.0163502
646.656	0.0162883
646.734	0.0160385
646.812	0.0162599
646.890	0.0162033
646.968	0.0161580
647.046	0.0161131
647.124	0.0161582
647.203	0.0161744
647.281	0.0161627
647.359	0.0161141
647.437	0.0161684
647.515	0.0161797
647.593	0.0160962
647.671	0.0161315
647.749	0.0161526
647.828	0.0161835
647.906	0.0161196
647.984	0.0159637
648.062	0.0161285
648.140	0.0162462
648.218	0.0161817
648.296	0.0161403
648.374	0.0159534
648.453	0.0161509
648.531	0.0163035
648.609	0.0161844
648.687	0.0160176
648.765	0.0160654
648.843	0.0162029
648.921	0.0161324
648.999	0.0160434
649.078	0.0160311
649.156	0.0161462
649.234	0.0162303
649.312	0.0161670
649.390	0.0160052
649.468	0.0160339
649.546	0.0161359
649.624	0.0160590
649.703	0.0160571
649.781	0.0161176
649.859	0.0161552
649.937	0.0160719
650.015	0.0161794
650.093	0.0159769
650.171	0.0160956
650.249	0.0161047
650.328	0.0161890
650.406	0.0161449
650.484	0.0161802
650.562	0.0161459
650.640	0.0160609
650.718	0.0161772
650.796	0.0162337
650.874	0.0160378
650.953	0.0161302
651.031	0.0161642
651.109	0.0160447
651.187	0.0161388
651.265	0.0161693
651.343	0.0162415
651.421	0.0160747
651.499	0.0162512
651.578	0.0161777
651.656	0.0160664
651.734	0.0160932
651.812	0.0160466
651.890	0.0161658
651.968	0.0162682
652.046	0.0161099
652.124	0.0161140
652.203	0.0161440
652.281	0.0162731
652.359	0.0161085
652.437	0.0162258
652.515	0.0162337
652.593	0.0160294
652.671	0.0160088
652.749	0.0161659
652.828	0.0162666
652.906	0.0161417
652.984	0.0160552
653.062	0.0161311
653.140	0.0161020
653.218	0.0160583
653.296	0.0161926
653.374	0.0161207
653.453	0.0161042
653.531	0.0161234
653.609	0.0161973
653.687	0.0160767
653.765	0.0160986
653.843	0.0162548
653.921	0.0161282
653.999	0.0160526
654.078	0.0159190
654.156	0.0160070
654.234	0.0160926
654.312	0.0161108
654.390	0.0162072
654.468	0.0160680
654.546	0.0160777
654.624	0.0161033
654.703	0.0161079
654.781	0.0160609
654.859	0.0160632
654.937	0.0162626
655.015	0.0161231
655.093	0.0160342
655.171	0.0161282
655.249	0.0160751
655.328	0.0160545
655.406	0.0161496
655.484	0.0160799
655.562	0.0161398
655.640	0.0161620
655.718	0.0161673
655.796	0.0159958
655.874	0.0161371
655.953	0.0161681
656.031	0.0161127
656.109	0.0161700
656.187	0.0161726
656.265	0.0162194
656.343	0.0161731
656.421	0.0162630
656.499	0.0161837
656.578	0.0161541
656.656	0.0161638
656.734	0.0162308
656.812	0.0160311
656.890	0.0161427
656.968	0.0161214
657.046	0.0159909
657.124	0.0161044
657.203	0.0162884
657.281	0.0161517
657.359	0.0161562
657.437	0.0161111
657.515	0.0161459
657.593	0.0162132
657.671	0.0161076
657.749	0.0161433
657.828	0.0161703
657.906	0.0161249
657.984	0.0160524
658.062	0.0161355
658.140	0.0160123
658.218	0.0159564
658.296	0.0161918
658.374	0.0160159
658.453	0.0160628
658.531	0.0162605
658.609	0.0159946
658.687	0.0161054
658.765	0.0160067
658.843	0.0162466
658.921	0.0161630
658.999	0.0161474
659.078	0.0160894
659.156	0.0160648
659.234	0.0160508
659.312	0.0160660
659.390	0.0160875
659.468	0.0162134
659.546	0.0161647
659.624	0.0161215
659.703	0.0159960
659.781	0.0161070
659.859	0.0162949
659.937	0.0160799
660.015	0.0161196
660.093	0.0161694
660.171	0.0162399
660.249	0.0161564
660.328	0.0161775
660.406	0.0159548
660.484	0.0162102
660.562	0.0160060
660.640	0.0161461
660.718	0.0162088
660.796	0.0162210
660.874	0.0161047
660.953	0.0160708
661.031	0.0161858
661.109	0.0161150
661.187	0.0158628
661.265	0.0160140
661.343	0.0160970
661.421	0.0162018
661.499	0.0161135
661.578	0.0159935
661.656	0.0161143
661.734	0.0161053
661.812	0.0161330
661.890	0.0162435
661.968	0.0162533
662.046	0.0161275
662.124	0.0161056
662.203	0.0161175
662.281	0.0160549
662.359	0.0160765
662.437	0.0160829
662.515	0.0160988
662.593	0.0160254
662.671	0.0163085
662.749	0.0160709
662.828	0.0160545
662.906	0.0160419
662.984	0.0161626
663.062	0.0160973
663.140	0.0161120
663.218	0.0161008
663.296	0.0160906
663.374	0.0161978
663.453	0.0161555
663.531	0.0161775
663.609	0.0162894
663.687	0.0161295
663.765	0.0162206
663.843	0.0162361
663.921	0.0161818
663.999	0.0161723
664.078	0.0162502
664.156	0.0161475
664.234	0.0162437
664.312	0.0162284
664.390	0.0161246
664.468	0.0160549
664.546	0.0161802
664.624	0.0161655
664.703	0.0160827
664.781	0.0161329
664.859	0.0161462
664.937	0.0161813
665.015	0.0161086
665.093	0.0161907
665.171	0.0160599
665.249	0.0160725
665.328	0.0160840
665.406	0.0161645
665.484	0.0161199
665.562	0.0160957
665.640	0.0160690
665.718	0.0162194
665.796	0.0160692
665.874	0.0160270
665.953	0.0160777
666.031	0.0162673
666.109	0.0163104
666.187	0.0161279
666.265	0.0159698
666.343	0.0162436
666.421	0.0161320
666.499	0.0160913
666.578	0.0159866
666.656	0.0162837
666.734	0.0161731
666.812	0.0161099
666.890	0.0159733
666.968	0.0160551
667.046	0.0161118
667.124	0.0160391
667.203	0.0161296
667.281	0.0161240
667.359	0.0159779
667.437	0.0159921
667.515	0.0159836
667.593	0.0160867
667.671	0.0160735
667.749	0.0162351
667.828	0.0160923
667.906	0.0161330
667.984	0.0160426
668.062	0.0160868
668.140	0.0160275
668.218	0.0162128
668.296	0.0160748
668.374	0.0161068
668.453	0.0162478
668.531	0.0160380
668.609	0.0160815
668.687	0.0161350
668.765	0.0162552
668.843	0.0161733
668.921	0.0161672
668.999	0.0162354
669.078	0.0161282
669.156	0.0160870
669.234	0.0163035
669.312	0.0161693
669.390	0.0161716
669.468	0.0161382
669.546	0.0162378
669.624	0.0162773
669.703	0.0160847
669.781	0.0160323
669.859	0.0162070
669.937	0.0162015
670.015	0.0161855
670.093	0.0161105
670.171	0.0160826
670.249	0.0160952
670.328	0.0161683
670.406	0.0160450
670.484	0.0161461
670.562	0.0162378
670.640	0.0161899
670.718	0.0161545
670.796	0.0161481
670.874	0.0161008
670.953	0.0161115
671.031	0.0161005
671.109	0.0161377
671.187	0.0160777
671.265	0.0161555
671.343	0.0162476
671.421	0.0161658
671.499	0.0162074
671.578	0.0162217
671.656	0.0162902
671.734	0.0161894
671.812	0.0162679
671.890	0.0162212
671.968	0.0162521
672.046	0.0160835
672.124	0.0160703
672.203	0.0161594
672.281	0.0162065
672.359	0.0161143
672.437	0.0162116
672.515	0.0160629
672.593	0.0161282
672.671	0.0161475
672.749	0.0160479
672.828	0.0159928
672.906	0.0162022
672.984	0.0160928
673.062	0.0161002
673.140	0.0161200
673.218	0.0161063
673.296	0.0161348
673.374	0.0160940
673.453	0.0162083
673.531	0.0159909
673.609	0.0161823
673.687	0.0162161
673.765	0.0161123
673.843	0.0160600
673.921	0.0161276
673.999	0.0161419
674.078	0.0161314
674.156	0.0161517
674.234	0.0161662
674.312	0.0160798
674.390	0.0162470
674.468	0.0161904
674.546	0.0162457
674.624	0.0161699
674.703	0.0160678
674.781	0.0161165
674.859	0.0162914
674.937	0.0162513
675.015	0.0161166
675.093	0.0160327
675.171	0.0162185
675.249	0.0161719
675.328	0.0160906
675.406	0.0161294
675.484	0.0160239
675.562	0.0160779
675.640	0.0161069
675.718	0.0163046
675.796	0.0161794
675.874	0.0161231
675.953	0.0161599
676.031	0.0160119
676.109	0.0161122
676.187	0.0162248
676.265	0.0162092
676.343	0.0161862
676.421	0.0161530
676.499	0.0160208
676.578	0.0162257
676.656	0.0162424
676.734	0.0161900
676.812	0.0160778
676.890	0.0162383
676.968	0.0161848
677.046	0.0161742
677.124	0.0161869
677.203	0.0160629
677.281	0.0160558
677.359	0.0162038
677.437	0.0162255
677.515	0.0160959
677.593	0.0161227
677.671	0.0161266
677.749	0.0163145
677.828	0.0163545
677.906	0.0160822
677.984	0.0160742
678.062	0.0161249
678.140	0.0160667
678.218	0.0160504
678.296	0.0160996
678.374	0.0161763
678.453	0.0160765
678.531	0.0160923
678.609	0.0160702
678.687	0.0161320
678.765	0.0161116
678.843	0.0160635
678.921	0.0161849
678.999	0.0161783
679.078	0.0160766
679.156	0.0159789
679.234	0.0160823
679.312	0.0160883
679.390	0.0161301
679.468	0.0162441
679.546	0.0161844
679.624	0.0161165
679.703	0.0160884
679.781	0.0162401
679.859	0.0162516
679.937	0.0161745
680.015	0.0160728
680.093	0.0161382
680.171	0.0162396
680.249	0.0161713
680.328	0.0160975
680.406	0.0160826
680.484	0.0159936
680.562	0.0160981
680.640	0.0161067
680.718	0.0162574
680.796	0.0161833
680.874	0.0161571
680.953	0.0162012
681.031	0.0160914
681.109	0.0161401
681.187	0.0161310
681.265	0.0161019
681.343	0.0160126
681.421	0.0161756
681.499	0.0161488
681.578	0.0161065
681.656	0.0161240
681.734	0.0160974
681.812	0.0162200
681.890	0.0160766
681.968	0.0160500
682.046	0.0160244
682.124	0.0163973
682.203	0.0161724
682.281	0.0160856
682.359	0.0161918
682.437	0.0161579
682.515	0.0161365
682.593	0.0161082
682.671	0.0160748
682.749	0.0159966
682.828	0.0160852
682.906	0.0162352
682.984	0.0161549
683.062	0.0160197
683.140	0.0161691
683.218	0.0161031
683.296	0.0160885
683.374	0.0159494
683.453	0.0160979
683.531	0.0161069
683.609	0.0161458
683.687	0.0162293
683.765	0.0161341
683.843	0.0161745
683.921	0.0161084
683.999	0.0161295
684.078	0.0161649
684.156	0.0160764
684.234	0.0160949
684.312	0.0161627
684.390	0.0160587
684.468	0.0162285
684.546	0.0162006
684.624	0.0160688
684.703	0.0161254
684.781	0.0162279
684.859	0.0160931
684.937	0.0161198
685.015	0.0161880
685.093	0.0161680
685.171	0.0160547
685.249	0.0160973
685.328	0.0161705
685.406	0.0161649
685.484	0.0160136
685.562	0.0161711
685.640	0.0162500
685.718	0.0161205
685.796	0.0160630
685.874	0.0162572
685.953	0.0160382
686.031	0.0161727
686.109	0.0161937
686.187	0.0161317
686.265	0.0159551
686.343	0.0160938
686.421	0.0161435
686.499	0.0159875
686.578	0.0160370
686.656	0.0161372
686.734	0.0161365
686.812	0.0160880
686.890	0.0160104
686.968	0.0160079
687.046	0.0160205
687.124	0.0161115
687.203	0.0160305
687.281	0.0161711
687.359	0.0161852
687.437	0.0161679
687.515	0.0160339
687.593	0.0161636
687.671	0.0161210
687.749	0.0161470
687.828	0.0160892
687.906	0.0161445
687.984	0.0161041
688.062	0.0161008
688.140	0.0161214
688.218	0.0161723
688.296	0.0159602
688.374	0.0158296
688.453	0.0160683
688.531	0.0161419
688.609	0.0159566
688.687	0.0161976
688.765	0.0161525
688.843	0.0160996
688.921	0.0160004
688.999	0.0161282
689.078	0.0160757
689.156	0.0161436
689.234	0.0160667
689.312	0.0160175
689.390	0.0162410
689.468	0.0161844
689.546	0.0162278
689.624	0.0161317
689.703	0.0160715
689.781	0.0161459
689.859	0.0159901
689.937	0.0161157
690.015	0.0161346
690.093	0.0161407
690.171	0.0161968
690.249	0.0161348
690.328	0.0162021
690.406	0.0161043
690.484	0.0161787
690.562	0.0161533
690.640	0.0161587
690.718	0.0160895
690.796	0.0160471
690.874	0.0161582
690.953	0.0161389
691.031	0.0162514
691.109	0.0161962
691.187	0.0161827
691.265	0.0161994
691.343	0.0162442
691.421	0.0162222
691.499	0.0161204
691.578	0.0160503
691.656	0.0161703
691.734	0.0162296
691.812	0.0160995
691.890	0.0161666
691.968	0.0160093
692.046	0.0161485
692.124	0.0160425
692.203	0.0160193
692.281	0.0161860
692.359	0.0160582
692.437	0.0160442
692.515	0.0161100
692.593	0.0161529
692.671	0.0160239
692.749	0.0162686
692.828	0.0160877
692.906	0.0161726
692.984	0.0161120
693.062	0.0161834
693.140	0.0160851
693.218	0.0160327
693.296	0.0162038
693.374	0.0161948
693.453	0.0161980
693.531	0.0162363
693.609	0.0161987
693.687	0.0160145
693.765	0.0161058
693.843	0.0161704
693.921	0.0161159
693.999	0.0161166
694.078	0.0162240
694.156	0.0162530
694.234	0.0160768
694.312	0.0161536
694.390	0.0160743
694.468	0.0162494
694.546	0.0161187
694.624	0.0161535
694.703	0.0161216
694.781	0.0161469
694.859	0.0162281
694.937	0.0161024
695.015	0.0161559
695.093	0.0160331
695.171	0.0161471
695.249	0.0160748
695.328	0.0160993
695.406	0.0161444
695.484	0.0160699
695.562	0.0161159
695.640	0.0160798
695.718	0.0161095
695.796	0.0161811
695.874	0.0160760
695.953	0.0160385
696.031	0.0161737
696.109	0.0160635
696.187	0.0160690
696.265	0.0160840
696.343	0.0161942
696.421	0.0160338
696.499	0.0160889
696.578	0.0160130
696.656	0.0161176
696.734	0.0161851
696.812	0.0161165
696.890	0.0162904
696.968	0.0161412
697.046	0.0161193
697.124	0.0162469
697.203	0.0161287
697.281	0.0160860
697.359	0.0160646
697.437	0.0160117
697.515	0.0160476
697.593	0.0160616
697.671	0.0162567
697.749	0.0160241
697.828	0.0161069
697.906	0.0161762
697.984	0.0161276
698.062	0.0162201
698.140	0.0162710
698.218	0.0161544
698.296	0.0161410
698.374	0.0160701
698.453	0.0160472
698.531	0.0161304
698.609	0.0162206
698.687	0.0161237
698.765	0.0160426
698.843	0.0160658
698.921	0.0161273
698.999	0.0161868
699.078	0.0161441
699.156	0.0159942
699.234	0.0161929
699.312	0.0161108
699.390	0.0162084
699.468	0.0160828
699.546	0.0162001
699.624	0.0161045
699.703	0.0162264
699.781	0.0159631
699.859	0.0160588
699.937	0.0161555
700.015	0.0161740
700.093	0.0161691
700.171	0.0160123
700.249	0.0162456
700.328	0.0161411
700.406	0.0161213
700.484	0.0162407
700.562	0.0162114
700.640	0.0160806
700.718	0.0161051
700.796	0.0160260
700.874	0.0161214
700.953	0.0161398
701.031	0.0161842
701.109	0.0161813
701.187	0.0161526
701.265	0.0160797
701.343	0.0160841
701.421	0.0161077
701.499	0.0160958
701.578	0.0161872
701.656	0.0161203
701.734	0.0161139
701.812	0.0159478
701.890	0.0160901
701.968	0.0161252
702.046	0.0162528
702.124	0.0160723
702.203	0.0161262
702.281	0.0161446
702.359	0.0162358
702.437	0.0161183
702.515	0.0161205
702.593	0.0162208
702.671	0.0160883
702.749	0.0160655
702.828	0.0161586
702.906	0.0161210
702.984	0.0160887
703.062	0.0161479
703.140	0.0161566
703.218	0.0160770
703.296	0.0161630
703.374	0.0163678
703.453	0.0162578
703.531	0.0161155
703.609	0.0159924
703.687	0.0160393
703.765	0.0161977
703.843	0.0162366
703.921	0.0162747
703.999	0.0161429
704.078	0.0161182
704.156	0.0161804
704.234	0.0161364
704.312	0.0161445
704.390	0.0161591
704.468	0.0160438
704.546	0.0161194
704.624	0.0162075
704.703	0.0161339
704.781	0.0160796
704.859	0.0161390
704.937	0.0160443
705.015	0.0160924
705.093	0.0162003
705.171	0.0160401
705.249	0.0160861
705.328	0.0162362
705.406	0.0161724
705.484	0.0161066
705.562	0.0161652
705.640	0.0161248
705.718	0.0160766
705.796	0.0160865
705.874	0.0162225
705.953	0.0160912
706.031	0.0161021
706.109	0.0161797
706.187	0.0162659
706.265	0.0160740
706.343	0.0161884
706.421	0.0160861
706.499	0.0159657
706.578	0.0161838
706.656	0.0162215
706.734	0.0162403
706.812	0.0159608
706.890	0.0159283
706.968	0.0161637
707.046	0.0161703
707.124	0.0162139
707.203	0.0161851
707.281	0.0162164
707.359	0.0161137
707.437	0.0160735
707.515	0.0161150
707.593	0.0161570
707.671	0.0161269
707.749	0.0161666
707.828	0.0160246
707.906	0.0162154
707.984	0.0161361
708.062	0.0162466
708.140	0.0162582
708.218	0.0161818
708.296	0.0161391
708.374	0.0162197
708.453	0.0161121
708.531	0.0159870
708.609	0.0161034
708.687	0.0162053
708.765	0.0161501
708.843	0.0160399
708.921	0.0159882
708.999	0.0160627
709.078	0.0161102
709.156	0.0162065
709.234	0.0161702
709.312	0.0161273
709.390	0.0159838
709.468	0.0160462
709.546	0.0159434
709.624	0.0161279
709.703	0.0161993
709.781	0.0162093
709.859	0.0160696
709.937	0.0161500
710.015	0.0160387
710.093	0.0161056
710.171	0.0162594
710.249	0.0161134
710.328	0.0160543
710.406	0.0162731
710.484	0.0160692
710.562	0.0162292
710.640	0.0161448
710.718	0.0161067
710.796	0.0161338
710.874	0.0163042
710.953	0.0161298
711.031	0.0160290
711.109	0.0161148
711.187	0.0161726
711.265	0.0160394
711.343	0.0162391
711.421	0.0161851
711.499	0.0160639
711.578	0.0161247
711.656	0.0160925
711.734	0.0162199
711.812	0.0162260
711.890	0.0160788
711.968	0.0161564
712.046	0.0161366
712.124	0.0161102
712.203	0.0160749
712.281	0.0161960
712.359	0.0162143
712.437	0.0160964
712.515	0.0161320
712.593	0.0161143
712.671	0.0161398
712.749	0.0162702
712.828	0.0161820
712.906	0.0162193
712.984	0.0160365
713.062	0.0162216
713.140	0.0161663
713.218	0.0159308
713.296	0.0160950
713.374	0.0161677
713.453	0.0161124
713.531	0.0161029
713.609	0.0159984
713.687	0.0162671
713.765	0.0161475
713.843	0.0160701
713.921	0.0161124
713.999	0.0161250
714.078	0.0161468
714.156	0.0160668
714.234	0.0163152
714.312	0.0161545
714.390	0.0159790
714.468	0.0159709
714.546	0.0162656
714.624	0.0161302
714.703	0.0162034
714.781	0.0161597
714.859	0.0160648
714.937	0.0160532
715.015	0.0160471
715.093	0.0161835
715.171	0.0160673
715.249	0.0162497
715.328	0.0160569
715.406	0.0160069
715.484	0.0160693
715.562	0.0160880
715.640	0.0161642
715.718	0.0160544
715.796	0.0160690
715.874	0.0162624
715.953	0.0161897
716.031	0.0161292
716.109	0.0160873
716.187	0.0160720
716.265	0.0160484
716.343	0.0160594
716.421	0.0160201
716.499	0.0160062
716.578	0.0160538
716.656	0.0160952
716.734	0.0161634
716.812	0.0161701
716.890	0.0160549
716.968	0.0162292
717.046	0.0160863
717.124	0.0161378
717.203	0.0160455
717.281	0.0161427
717.359	0.0161909
717.437	0.0160678
717.515	0.0160494
717.593	0.0161395
717.671	0.0160065
717.749	0.0161060
717.828	0.0161513
717.906	0.0161040
717.984	0.0161633
718.062	0.0160737
718.140	0.0161410
718.218	0.0161153
718.296	0.0160847
718.374	0.0161584
718.453	0.0161051
718.531	0.0161559
718.609	0.0161796
718.687	0.0161503
718.765	0.0160682
718.843	0.0160519
718.921	0.0160578
718.999	0.0160313
719.078	0.0161457
719.156	0.0160859
719.234	0.0161414
719.312	0.0161944
719.390	0.0160029
719.468	0.0161163
719.546	0.0160493
719.624	0.0161258
719.703	0.0162008
719.781	0.0160897
719.859	0.0161386
719.937	0.0161093
720.015	0.0160633
720.093	0.0160357
720.171	0.0160677
720.249	0.0162447
720.328	0.0161292
720.406	0.0159897
720.484	0.0159696
720.562	0.0161944
720.640	0.0162076
720.718	0.0162959
720.796	0.0161142
720.874	0.0159746
720.953	0.0159297
721.031	0.0160609
721.109	0.0161280
721.187	0.0160677
721.265	0.0161597
721.343	0.0159212
721.421	0.0160877
721.499	0.0162659
721.578	0.0160746
721.656	0.0159219
721.734	0.0160104
721.812	0.0161494
721.890	0.0161895
721.968	0.0162270
722.046	0.0161447
722.124	0.0161181
722.203	0.0161275
722.281	0.0161501
722.359	0.0160324
722.437	0.0161400
722.515	0.0161215
722.593	0.0161555
722.671	0.0161620
722.749	0.0162451
722.828	0.0160653
722.906	0.0161525
722.984	0.0161250
723.062	0.0161045
723.140	0.0160734
723.218	0.0161449
723.296	0.0160866
723.374	0.0161149
723.453	0.0162481
723.531	0.0161912
723.609	0.0161275
723.687	0.0161435
723.765	0.0161604
723.843	0.0161874
723.921	0.0160851
723.999	0.0162045
724.078	0.0162242
724.156	0.0161557
724.234	0.0161057
724.312	0.0162201
724.390	0.0161530
724.468	0.0160271
724.546	0.0162035
724.624	0.0160889
724.703	0.0161031
724.781	0.0162305
724.859	0.0162104
724.937	0.0161478
725.015	0.0162324
725.093	0.0161894
725.171	0.0162608
725.249	0.0162534
725.328	0.0162612
725.406	0.0161839
725.484	0.0161201
725.562	0.0162688
725.640	0.0162663
725.718	0.0160928
725.796	0.0161610
725.874	0.0162468
725.953	0.0162460
726.031	0.0161878
726.109	0.0162108
726.187	0.0161816
726.265	0.0162864
726.343	0.0162914
726.421	0.0161995
726.499	0.0162648
726.578	0.0161809
726.656	0.0163132
726.734	0.0162726
726.812	0.0162710
726.890	0.0161199
726.968	0.0160910
727.046	0.0162754
727.124	0.0162323
727.203	0.0161108
727.281	0.0161303
727.359	0.0161834
727.437	0.0161940
727.515	0.0162288
727.593	0.0161160
727.671	0.0161792
727.749	0.0162597
727.828	0.0162318
727.906	0.0162029
727.984	0.0160834
728.062	0.0162062
728.140	0.0162941
728.218	0.0161901
728.296	0.0161149
728.374	0.0161607
728.453	0.0163100
728.531	0.0161013
728.609	0.0160653
728.687	0.0161527
728.765	0.0161938
728.843	0.0161060
728.921	0.0160271
728.999	0.0162499
729.078	0.0159935
729.156	0.0160915
729.234	0.0161873
729.312	0.0162249
729.390	0.0161645
729.468	0.0161334
729.546	0.0160504
729.624	0.0160993
729.703	0.0162454
729.781	0.0161391
729.859	0.0162077
729.937	0.0161571
730.015	0.0161245
730.093	0.0161952
730.171	0.0160147
730.249	0.0160985
730.328	0.0161889
730.406	0.0163251
730.484	0.0160963
730.562	0.0160902
730.640	0.0160014
730.718	0.0162209
730.796	0.0161614
730.874	0.0159921
730.953	0.0161716
731.031	0.0161390
731.109	0.0162954
731.187	0.0161013
731.265	0.0160051
731.343	0.0159826
731.421	0.0159840
731.499	0.0162458
731.578	0.0160378
731.656	0.0162112
731.734	0.0160908
731.812	0.0160423
731.890	0.0161382
731.968	0.0160749
732.046	0.0160891
732.124	0.0162160
732.203	0.0160092
732.281	0.0160390
732.359	0.0161308
732.437	0.0161409
732.515	0.0161620
732.593	0.0160634
732.671	0.0158701
732.749	0.0162025
732.828	0.0160846
732.906	0.0160435
732.984	0.0161417
733.062	0.0160805
733.140	0.0160516
733.218	0.0160299
733.296	0.0161062
733.374	0.0160760
733.453	0.0160361
733.531	0.0161456
733.609	0.0161166
733.687	0.0160823
733.765	0.0161389
733.843	0.0161437
733.921	0.0162106
733.999	0.0163121
734.078	0.0160468
734.156	0.0160905
734.234	0.0162002
734.312	0.0161221
734.390	0.0160220
734.468	0.0160421
734.546	0.0160524
734.624	0.0159879
734.703	0.0161517
734.781	0.0160302
734.859	0.0161351
734.937	0.0161304
735.015	0.0160345
735.093	0.0161987
735.171	0.0161639
735.249	0.0160164
735.328	0.0161018
735.406	0.0160975
735.484	0.0159641
735.562	0.0161321
735.640	0.0162127
735.718	0.0161982
735.796	0.0161081
735.874	0.0160037
735.953	0.0161120
736.031	0.0161661
736.109	0.0160358
736.187	0.0160380
736.265	0.0161224
736.343	0.0162450
736.421	0.0161179
736.499	0.0161028
736.578	0.0160848
736.656	0.0161267
736.734	0.0160651
736.812	0.0161163
736.890	0.0160656
736.968	0.0161315
737.046	0.0160347
737.124	0.0161769
737.203	0.0161674
737.281	0.0161834
737.359	0.0161111
737.437	0.0161534
737.515	0.0160947
737.593	0.0162822
737.671	0.0160699
737.749	0.0161816
737.828	0.0160217
737.906	0.0161086
737.984	0.0160989
738.062	0.0162164
738.140	0.0161719
738.218	0.0160545
738.296	0.0160237
738.374	0.0162293
738.453	0.0160014
738.531	0.0160247
738.609	0.0159977
738.687	0.0161263
738.765	0.0160251
738.843	0.0159537
738.921	0.0161648
738.999	0.0163209
739.078	0.0161160
739.156	0.0163519
739.234	0.0162749
739.312	0.0163670
739.390	0.0163750
739.468	0.0163346
739.546	0.0162833
739.624	0.0163924
739.703	0.0162300
739.781	0.0163440
739.859	0.0164283
739.937	0.0163213
740.015	0.0161378
740.093	0.0162411
740.171	0.0161135
740.249	0.0160866
740.328	0.0160976
740.406	0.0161279
740.484	0.0159740
740.562	0.0159572
740.640	0.0160088
740.718	0.0160406
740.796	0.0158854
740.874	0.0159711
740.953	0.0161108
741.031	0.0160947
741.109	0.0162641
741.187	0.0164579
741.265	0.0166060
741.343	0.0166726
741.421	0.0167966
741.499	0.0168993
741.578	0.0170143
741.656	0.0169166
741.734	0.0167017
741.812	0.0164783
741.890	0.0162695
741.968	0.0159398
742.046	0.0156450
742.124	0.0152040
742.203	0.0149259
742.281	0.0143591
742.359	0.0141853
742.437	0.0139744
742.515	0.0137952
742.593	0.0138276
742.671	0.0136790
742.749	0.0139462
742.828	0.0143369
742.906	0.0146855
742.984	0.0150235
743.062	0.0155968
743.140	0.0162698
743.218	0.0169336
743.296	0.0175249
743.374	0.0181415
743.453	0.0187766
743.531	0.0192845
743.609	0.0198173
743.687	0.0203263
743.765	0.0205216
743.843	0.0208383
743.921	0.0209066
743.999	0.0206826
744.078	0.0202156
744.156	0.0195976
744.234	0.0184741
744.312	0.0174791
744.390	0.0161051
744.468	0.0150565
744.546	0.0136755
744.624	0.0126185
744.703	0.0115849
744.781	0.0107473
744.859	0.0104634
744.937	0.0101791
745.015	0.0102093
745.093	0.0107932
745.171	0.0113643
745.249	0.0122005
745.328	0.0130544
745.406	0.0139440
745.484	0.0150996
745.562	0.0163933
745.640	0.0173956
745.718	0.0182624
745.796	0.0189996
745.874	0.0196432
745.953	0.0199974
746.031	0.0203490
746.109	0.0203341
746.187	0.0202018
746.265	0.0196591
746.343	0.0191176
746.421	0.0185301
746.499	0.0177783
746.578	0.0170650
746.656	0.0162068
746.734	0.0152937
746.812	0.0142869
746.890	0.0135011
746.968	0.0128004
747.046	0.0124110
747.124	0.0120557
747.203	0.0120876
747.281	0.0123043
747.359	0.0126960
747.437	0.0131718
747.515	0.0138662
747.593	0.0145788
747.671	0.0152563
747.749	0.0160168
747.828	0.0167308
747.906	0.0176325
747.984	0.0183061
748.062	0.0189700
748.140	0.0195491
748.218	0.0201359
748.296	0.0205813
748.374	0.0208726
748.453	0.0213128
748.531	0.0215099
748.609	0.0214902
748.687	0.0212093
748.765	0.0208397
748.843	0.0203090
748.921	0.0195475
748.999	0.0185065
749.078	0.0174135
749.156	0.0161575
749.234	0.0148247
749.312	0.0136311
749.390	0.0125883
749.468	0.0116401
749.546	0.0108337
749.624	0.0103912
749.703	0.0100924
749.781	0.00991127
749.859	0.00970093
749.937	0.0100854
750.015	0.0105640
750.093	0.0110409
750.171	0.0115897
750.249	0.0120699
750.328	0.0128884
750.406	0.0138557
750.484	0.0145393
750.562	0.0154634
750.640	0.0163044
750.718	0.0174028
750.796	0.0185021
750.874	0.0194112
750.953	0.0203659
751.031	0.0212187
751.109	0.0219963
751.187	0.0225083
751.265	0.0229050
751.343	0.0232430
751.421	0.0230736
751.499	0.0227326
751.578	0.0220093
751.656	0.0212853
751.734	0.0199559
751.812	0.0188704
751.890	0.0172994
751.968	0.0157748
752.046	0.0142030
752.124	0.0127725
752.203	0.0114627
752.281	0.0103471
752.359	0.00945137
752.437	0.00872963
752.515	0.00834335
752.593	0.00835304
752.671	0.00858704
752.749	0.00961288
752.828	0.0107291
752.906	0.0115206
752.984	0.0132159
753.062	0.0146625
753.140	0.0163680
753.218	0.0179096
753.296	0.0193171
753.374	0.0206063
753.453	0.0218876
753.531	0.0227884
753.609	0.0234439
753.687	0.0236366
753.765	0.0236757
753.843	0.0232022
753.921	0.0227782
753.999	0.0217532
754.078	0.0206009
754.156	0.0194363
754.234	0.0182958
754.312	0.0167809
754.390	0.0155913
754.468	0.0146744
754.546	0.0134605
754.624	0.0126912
754.703	0.0120845
754.781	0.0116841
754.859	0.0113223
754.937	0.0112797
755.015	0.0112618
755.093	0.0113432
755.171	0.0116094
755.249	0.0119080
755.328	0.0124042
755.406	0.0129181
755.484	0.0136251
755.562	0.0140498
755.640	0.0145377
755.718	0.0149743
755.796	0.0153586
755.874	0.0157960
755.953	0.0163239
756.031	0.0167079
756.109	0.0170148
756.187	0.0173235
756.265	0.0178639
756.343	0.0179897
756.421	0.0180343
756.499	0.0184422
756.578	0.0186169
756.656	0.0188686
756.734	0.0188201
756.812	0.0189536
756.890	0.0187946
756.968	0.0187334
757.046	0.0184631
757.124	0.0180724
757.203	0.0175279
757.281	0.0170065
757.359	0.0166443
757.437	0.0160549
757.515	0.0157087
757.593	0.0153672
757.671	0.0148801
757.749	0.0146264
757.828	0.0146812
757.906	0.0145921
757.984	0.0146871
758.062	0.0147596
758.140	0.0150314
758.218	0.0153307
758.296	0.0155985
758.374	0.0160834
758.453	0.0164164
758.531	0.0166455
758.609	0.0170603
758.687	0.0173505
758.765	0.0173805
758.843	0.0177058
758.921	0.0177331
758.999	0.0177561
759.078	0.0174995
759.156	0.0171629
759.234	0.0167370
759.312	0.0165205
759.390	0.0159769
759.468	0.0155670
759.546	0.0150714
759.624	0.0145423
759.703	0.0143224
759.781	0.0141388
759.859	0.0137717
759.937	0.0136385
760.015	0.0137288
760.093	0.0136374
760.171	0.0138217
760.249	0.0142651
760.328	0.0143419
760.406	0.0146389
760.484	0.0150111
760.562	0.0153053
760.640	0.0156708
760.718	0.0159569
760.796	0.0161432
760.874	0.0163252
760.953	0.0164983
761.031	0.0166411
761.109	0.0166909
761.187	0.0168053
761.265	0.0169766
761.343	0.0171408
761.421	0.0171406
761.499	0.0172906
761.578	0.0173414
761.656	0.0174984
761.734	0.0174472
761.812	0.0176570
761.890	0.0175828
761.968	0.0175002
762.046	0.0172594
762.124	0.0171753
762.203	0.0167075
762.281	0.0167456
762.359	0.0164779
762.437	0.0162984
762.515	0.0161723
762.593	0.0159969
762.671	0.0159345
762.749	0.0159241
762.828	0.0156448
762.906	0.0156819
762.984	0.0157501
763.062	0.0157778
763.140	0.0157747
763.218	0.0158451
763.296	0.0159459
763.374	0.0158739
763.453	0.0161298
763.531	0.0160115
763.609	0.0161859
763.687	0.0161729
763.765	0.0161714
763.843	0.0161470
763.921	0.0161604
763.999	0.0161403
764.078	0.0161381
764.156	0.0161326
764.234	0.0160813
764.312	0.0159225
764.390	0.0158569
764.468	0.0158374
764.546	0.0159309
764.624	0.0158242
764.703	0.0157720
764.781	0.0160314
764.859	0.0159764
764.937	0.0158709
765.015	0.0158503
765.093	0.0160598
765.171	0.0160600
765.249	0.0159522
765.328	0.0159495
765.406	0.0158912
765.484	0.0156652
765.562	0.0159485
765.640	0.0157114
765.718	0.0155624
765.796	0.0156237
765.874	0.0155093
765.953	0.0155109
766.031	0.0154046
766.109	0.0153209
766.187	0.0153043
766.265	0.0157011
766.343	0.0156340
766.421	0.0158612
766.499	0.0161458
766.578	0.0164061
766.656	0.0166608
766.734	0.0169738
766.812	0.0171740
766.890	0.0171858
766.968	0.0172285
767.046	0.0173188
767.124	0.0171897
767.203	0.0170794
767.281	0.0170050
767.359	0.0168841
767.437	0.0167368
767.515	0.0166097
767.593	0.0165821
767.671	0.0164243
767.749	0.0164516
767.828	0.0163195
767.906	0.0163174
767.984	0.0162943
768.062	0.0161138
768.140	0.0159819
768.218	0.0159902
768.296	0.0159406
768.374	0.0158347
768.453	0.0156593
768.531	0.0156137
768.609	0.0155592
768.687	0.0156148
768.765	0.0155471
768.843	0.0155283
768.921	0.0155783
768.999	0.0156232
769.078	0.0156182
769.156	0.0158092
769.234	0.0157687
769.312	0.0159566
769.390	0.0160799
769.468	0.0160412
769.546	0.0162370
769.624	0.0162067
769.703	0.0163594
769.781	0.0162793
769.859	0.0163547
769.937	0.0164055
770.015	0.0162781
770.093	0.0163953
770.171	0.0164192
770.249	0.0162812
770.328	0.0162798
770.406	0.0161113
770.484	0.0160126
770.562	0.0157188
770.640	0.0157363
770.718	0.0155730
770.796	0.0154075
770.874	0.0154736
770.953	0.0154171
771.031	0.0154198
771.109	0.0154235
771.187	0.0154099
771.265	0.0155157
771.343	0.0156350
771.421	0.0158293
771.499	0.0160424
771.578	0.0162177
771.656	0.0165205
771.734	0.0166514
771.812	0.0168376
771.890	0.0169427
771.968	0.0170026
772.046	0.0170586
772.124	0.0171059
772.203	0.0170095
772.281	0.0169606
772.359	0.0166693
772.437	0.0164778
772.515	0.0162941
772.593	0.0161544
772.671	0.0160499
772.749	0.0157969
772.828	0.0157428
772.906	0.0157876
772.984	0.0156477
773.062	0.0156765
773.140	0.0155860
773.218	0.0157629
773.296	0.0158672
773.374	0.0159415
773.453	0.0159811
773.531	0.0160287
773.609	0.0162875
773.687	0.0163179
773.765	0.0165292
773.843	0.0165575
773.921	0.0167548
773.999	0.0166359
774.078	0.0166793
774.156	0.0168320
774.234	0.0166021
774.312	0.0166030
774.390	0.0166157
774.468	0.0163481
774.546	0.0162602
774.624	0.0162422
774.703	0.0162086
774.781	0.0160798
774.859	0.0160245
774.937	0.0158190
775.015	0.0159516
775.093	0.0159826
775.171	0.0158263
775.249	0.0160924
775.328	0.0161245
775.406	0.0162039
775.484	0.0162173
775.562	0.0160983
775.640	0.0163901
775.718	0.0163705
775.796	0.0163454
775.874	0.0164560
775.953	0.0163090
776.031	0.0163065
776.109	0.0161640
776.187	0.0160638
776.265	0.0158979
776.343	0.0159241
776.421	0.0158208
776.499	0.0157639
776.578	0.0155254
776.656	0.0156867
776.734	0.0156151
776.812	0.0158017
776.890	0.0155958
776.968	0.0156761
777.046	0.0156647
777.124	0.0156694
777.203	0.0157633
777.281	0.0158794
777.359	0.0158459
777.437	0.0159177
777.515	0.0160321
777.593	0.0157501
777.671	0.0159583
777.749	0.0160619
777.828	0.0159685
777.906	0.0159895
777.984	0.0160860
778.062	0.0162610
778.140	0.0162089
778.218	0.0162621
778.296	0.0163092
778.374	0.0165045
778.453	0.0166864
778.531	0.0166151
778.609	0.0165987
778.687	0.0166256
778.765	0.0167522
778.843	0.0168359
778.921	0.0169005
778.999	0.0168522
779.078	0.0167743
779.156	0.0167637
779.234	0.0168220
779.312	0.0167807
779.390	0.0166763
779.468	0.0167016
779.546	0.0166212
779.624	0.0163647
779.703	0.0163081
779.781	0.0161921
779.859	0.0161182
779.937	0.0159576
780.015	0.0158535
780.093	0.0157880
780.171	0.0157711
780.249	0.0158515
780.328	0.0155476
780.406	0.0155861
780.484	0.0155082
780.562	0.0154473
780.640	0.0156857
780.718	0.0157907
780.796	0.0156489
780.874	0.0158149
780.953	0.0158110
781.031	0.0158864
781.109	0.0160126
781.187	0.0160606
781.265	0.0160298
781.343	0.0161756
781.421	0.0160616
781.499	0.0162265
781.578	0.0164392
781.656	0.0163442
781.734	0.0164171
781.812	0.0164655
781.890	0.0165756
781.968	0.0165553
782.046	0.0164442
782.124	0.0166436
782.203	0.0166164
782.281	0.0165868
782.359	0.0164738
782.437	0.0164758
782.515	0.0164456
782.593	0.0162010
782.671	0.0162530
782.749	0.0160850
782.828	0.0160993
782.906	0.0161501
782.984	0.0159888
783.062	0.0158334
783.140	0.0160014
783.218	0.0158233
783.296	0.0157913
783.374	0.0157323
783.453	0.0157920
783.531	0.0157237
783.609	0.0156120
783.687	0.0155488
783.765	0.0155282
783.843	0.0157922
783.921	0.0157231
783.999	0.0155457
784.078	0.0156344
784.156	0.0157717
784.234	0.0158719
784.312	0.0158031
784.390	0.0158884
784.468	0.0159823
784.546	0.0162524
784.624	0.0162422
784.703	0.0163120
784.781	0.0163111
784.859	0.0164433
784.937	0.0163966
785.015	0.0164606
785.093	0.0165800
785.171	0.0165219
785.249	0.0164924
785.328	0.0164629
785.406	0.0163316
785.484	0.0164899
785.562	0.0162349
785.640	0.0160825
785.718	0.0163050
785.796	0.0163212
785.874	0.0163243
785.953	0.0161504
786.031	0.0163658
786.109	0.0162354
786.187	0.0161821
786.265	0.0162374
786.343	0.0161758
786.421	0.0162106
786.499	0.0163462
786.578	0.0162859
786.656	0.0163587
786.734	0.0163793
786.812	0.0162891
786.890	0.0163891
786.968	0.0162318
787.046	0.0163969
787.124	0.0163896
787.203	0.0165191
787.281	0.0161816
787.359	0.0163075
787.437	0.0162766
787.515	0.0160852
787.593	0.0161076
787.671	0.0161088
787.749	0.0159691
787.828	0.0158666
787.906	0.0159248
787.984	0.0158642
788.062	0.0156421
788.140	0.0156784
788.218	0.0157299
788.296	0.0158648
788.374	0.0158092
788.453	0.0157753
788.531	0.0157526
788.609	0.0157259
788.687	0.0157035
788.765	0.0157412
788.843	0.0157949
788.921	0.0158350
788.999	0.0158138
789.078	0.0159286
789.156	0.0159470
789.234	0.0158875
789.312	0.0160742
789.390	0.0159794
789.468	0.0160518
789.546	0.0160876
789.624	0.0160929
789.703	0.0162013
789.781	0.0161881
789.859	0.0162960
789.937	0.0163284
790.015	0.0164643
790.093	0.0165232
790.171	0.0164060
790.249	0.0163522
790.328	0.0165164
790.406	0.0163634
790.484	0.0164845
790.562	0.0164798
790.640	0.0164644
790.718	0.0165086
790.796	0.0165671
790.874	0.0165782
790.953	0.0164996
791.031	0.0165276
791.109	0.0166956
791.187	0.0165918
791.265	0.0164355
791.343	0.0165572
791.421	0.0164981
791.499	0.0163410
791.578	0.0164072
791.656	0.0162255
791.734	0.0160426
791.812	0.0160709
791.890	0.0159750
791.968	0.0158541
792.046	0.0158414
792.124	0.0156919
792.203	0.0156857
792.281	0.0153826
792.359	0.0155120
792.437	0.0154388
792.515	0.0153375
792.593	0.0154318
792.671	0.0154449
792.749	0.0155705
792.828	0.0155041
792.906	0.0157767
792.984	0.0158564
793.062	0.0158742
793.140	0.0160345
793.218	0.0161150
793.296	0.0163601
793.374	0.0164275
793.453	0.0165411
793.531	0.0165453
793.609	0.0166126
793.687	0.0166187
793.765	0.0164848
793.843	0.0164731
793.921	0.0167570
793.999	0.0166234
794.078	0.0165315
794.156	0.0165617
794.234	0.0164230
794.312	0.0164153
794.390	0.0162556
794.468	0.0161411
794.546	0.0162182
794.624	0.0161365
794.703	0.0160596
794.781	0.0162089
794.859	0.0160099
794.937	0.0161115
795.015	0.0159761
795.093	0.0158879
795.171	0.0159319
795.249	0.0160255
795.328	0.0159827
795.406	0.0157700
795.484	0.0158340
795.562	0.0160026
795.640	0.0158504
795.718	0.0159085
795.796	0.0159357
795.874	0.0160339
795.953	0.0160833
796.031	0.0158188
796.109	0.0160877
796.187	0.0161358
796.265	0.0161083
796.343	0.0162594
796.421	0.0162035
796.499	0.0162566
796.578	0.0162807
796.656	0.0164389
796.734	0.0163784
796.812	0.0164129
796.890	0.0165756
796.968	0.0165521
797.046	0.0166500
797.124	0.0165717
797.203	0.0165726
797.281	0.0166935
797.359	0.0167457
797.437	0.0166844
797.515	0.0165657
797.593	0.0164730
797.671	0.0162257
797.749	0.0161542
797.828	0.0160696
797.906	0.0162121
797.984	0.0160756
798.062	0.0160268
798.140	0.0158540
798.218	0.0159299
798.296	0.0158526
798.374	0.0158450
798.453	0.0157775
798.531	0.0157737
798.609	0.0158063
798.687	0.0156680
798.765	0.0157719
798.843	0.0158508
798.921	0.0156919
798.999	0.0158458
799.078	0.0156712
799.156	0.0157336
799.234	0.0156992
799.312	0.0155769
799.390	0.0155198
799.468	0.0156591
799.546	0.0155994
799.624	0.0156286
799.703	0.0155975
799.781	0.0156860
799.859	0.0157198
799.937	0.0158856
800.015	0.0159701
800.093	0.0159083
800.171	0.0158844
800.249	0.0160790
800.328	0.0162818
800.406	0.0162680
800.484	0.0162626
800.562	0.0162885
800.640	0.0164770
800.718	0.0165619
800.796	0.0164819
800.874	0.0165265
800.953	0.0165465
801.031	0.0166602
801.109	0.0166597
801.187	0.0164465
801.265	0.0163830
801.343	0.0164308
801.421	0.0164856
801.499	0.0164081
801.578	0.0164548
801.656	0.0164890
801.734	0.0164762
801.812	0.0162991
801.890	0.0164046
801.968	0.0162971
802.046	0.0163146
802.124	0.0164855
802.203	0.0163996
802.281	0.0164539
802.359	0.0163578
802.437	0.0164187
802.515	0.0162154
802.593	0.0162294
802.671	0.0162199
802.749	0.0161246
802.828	0.0161532
802.906	0.0159508
802.984	0.0157820
803.062	0.0158293
803.140	0.0157822
803.218	0.0156078
803.296	0.0156437
803.374	0.0154666
803.453	0.0156312
803.531	0.0157393
803.609	0.0156667
803.687	0.0157524
803.765	0.0157332
803.843	0.0158141
803.921	0.0159411
803.999	0.0160343
804.078	0.0159337
804.156	0.0160570
804.234	0.0161323
804.312	0.0162197
804.390	0.0163677
804.468	0.0163166
804.546	0.0164523
804.624	0.0163499
804.703	0.0165094
804.781	0.0165547
804.859	0.0165702
804.937	0.0165841
805.015	0.0165089
805.093	0.0166021
805.171	0.0166512
805.249	0.0165387
805.328	0.0164742
805.406	0.0164073
805.484	0.0164519
805.562	0.0162354
805.640	0.0163016
805.718	0.0162160
805.796	0.0161632
805.874	0.0162323
805.953	0.0159216
806.031	0.0160436
806.109	0.0159691
806.187	0.0158695
806.265	0.0159516
806.343	0.0159270
806.421	0.0160291
806.499	0.0161065
806.578	0.0157345
806.656	0.0159337
806.734	0.0159102
806.812	0.0159343
806.890	0.0160245
806.968	0.0158980
807.046	0.0161391
807.124	0.0160896
807.203	0.0160762
807.281	0.0160950
807.359	0.0161155
807.437	0.0160943
807.515	0.0162032
807.593	0.0161159
807.671	0.0161463
807.749	0.0161929
807.828	0.0161876
807.906	0.0162177
807.984	0.0162035
808.062	0.0162212
808.140	0.0160950
808.218	0.0160067
808.296	0.0160818
808.374	0.0158703
808.453	0.0157796
808.531	0.0158060
808.609	0.0157656
808.687	0.0156828
808.765	0.0156474
808.843	0.0156481
808.921	0.0157924
808.999	0.0156353
809.078	0.0158015
809.156	0.0158594
809.234	0.0160143
809.312	0.0158601
809.390	0.0159776
809.468	0.0159286
809.546	0.0161260
809.624	0.0161279
809.703	0.0163925
809.781	0.0162896
809.859	0.0164710
809.937	0.0163974
810.015	0.0164654
810.093	0.0165151
810.171	0.0165459
810.249	0.0166228
810.328	0.0164706
810.406	0.0165520
810.484	0.0165244
810.562	0.0165111
810.640	0.0163912
810.718	0.0164038
810.796	0.0162944
810.874	0.0164244
810.953	0.0164571
811.031	0.0163683
811.109	0.0161825
811.187	0.0162846
811.265	0.0161726
811.343	0.0162470
811.421	0.0162170
811.499	0.0160852
811.578	0.0161201
811.656	0.0161065
811.734	0.0161288
811.812	0.0160242
811.890	0.0160339
811.968	0.0160524
812.046	0.0159742
812.124	0.0158424
812.203	0.0157519
812.281	0.0158030
812.359	0.0156986
812.437	0.0157365
812.515	0.0158101
812.593	0.0157901
812.671	0.0156786
812.749	0.0158436
812.828	0.0159776
812.906	0.0160285
812.984	0.0161209
813.062	0.0160505
813.140	0.0162433
813.218	0.0161853
813.296	0.0162466
813.374	0.0162978
813.453	0.0163640
813.531	0.0162794
813.609	0.0163962
813.687	0.0163093
813.765	0.0164486
813.843	0.0163342
813.921	0.0163182
813.999	0.0162728
814.078	0.0161904
814.156	0.0160885
814.234	0.0160775
814.312	0.0160573
814.390	0.0159311
814.468	0.0159692
814.546	0.0159396
814.624	0.0159881
814.703	0.0158750
814.781	0.0158820
814.859	0.0157725
814.937	0.0158533
815.015	0.0158460
815.093	0.0158480
815.171	0.0158817
815.249	0.0160303
815.328	0.0159607
815.406	0.0160641
815.484	0.0159812
815.562	0.0160182
815.640	0.0161631
815.718	0.0161150
815.796	0.0161722
815.874	0.0161929
815.953	0.0162890
816.031	0.0161474
816.109	0.0161662
816.187	0.0163309
816.265	0.0164042
816.343	0.0165820
816.421	0.0164880
816.499	0.0164136
816.578	0.0164693
816.656	0.0164922
816.734	0.0165971
816.812	0.0165221
816.890	0.0165094
816.968	0.0166605
817.046	0.0164788
817.124	0.0165717
817.203	0.0165099
817.281	0.0164841
817.359	0.0164481
817.437	0.0164498
817.515	0.0163731
817.593	0.0162748
817.671	0.0162940
817.749	0.0160425
817.828	0.0159305
817.906	0.0159679
817.984	0.0159192
818.062	0.0158505
818.140	0.0157332
818.218	0.0156690
818.296	0.0156740
818.374	0.0157041
818.453	0.0156098
818.531	0.0155720
818.609	0.0157568
818.687	0.0157204
818.765	0.0158443
818.843	0.0157922
818.921	0.0159191
818.999	0.0159425
819.078	0.0159581
819.156	0.0160019
819.234	0.0160995
819.312	0.0159660
819.390	0.0160307
819.468	0.0163442
819.546	0.0162685
819.624	0.0161801
819.703	0.0163142
819.781	0.0161347
819.859	0.0163679
819.937	0.0162050
820.015	0.0159998
820.093	0.0162917
820.171	0.0161542
820.249	0.0162888
820.328	0.0160619
820.406	0.0162639
820.484	0.0164066
820.562	0.0162663
820.640	0.0163075
820.718	0.0164006
820.796	0.0164319
820.874	0.0163234
820.953	0.0163293
821.031	0.0163471
821.109	0.0163580
821.187	0.0163861
821.265	0.0162955
821.343	0.0163248
821.421	0.0163026
821.499	0.0162908
821.578	0.0163685
821.656	0.0162710
821.734	0.0162372
821.812	0.0161927
821.890	0.0161385
821.968	0.0161462
822.046	0.0161328
822.124	0.0160320
822.203	0.0160668
822.281	0.0161198
822.359	0.0160989
822.437	0.0158326
822.515	0.0159035
822.593	0.0158453
822.671	0.0160197
822.749	0.0158434
822.828	0.0156654
822.906	0.0157674
822.984	0.0158578
823.062	0.0158537
823.140	0.0157698
823.218	0.0158475
823.296	0.0156955
823.374	0.0157765
823.453	0.0159050
823.531	0.0158577
823.609	0.0158134
823.687	0.0159122
823.765	0.0158400
823.843	0.0158100
823.921	0.0160191
823.999	0.0160345
824.078	0.0160870
824.156	0.0161207
824.234	0.0161874
824.312	0.0162315
824.390	0.0162409
824.468	0.0163156
824.546	0.0163554
824.624	0.0163934
824.703	0.0165302
824.781	0.0163660
824.859	0.0162968
824.937	0.0165586
825.015	0.0164258
825.093	0.0164772
825.171	0.0165007
825.249	0.0163834
825.328	0.0163672
825.406	0.0161983
825.484	0.0163273
825.562	0.0162144
825.640	0.0161252
825.718	0.0160681
825.796	0.0160327
825.874	0.0159296
825.953	0.0160291
826.031	0.0159695
826.109	0.0160445
826.187	0.0158780
826.265	0.0158413
826.343	0.0159285
826.421	0.0160156
826.499	0.0160566
826.578	0.0159718
826.656	0.0159379
826.734	0.0160416
826.812	0.0161142
826.890	0.0161055
826.968	0.0160591
827.046	0.0159852
827.124	0.0160679
827.203	0.0161976
827.281	0.0162518
827.359	0.0160612
827.437	0.0161724
827.515	0.0162954
827.593	0.0162025
827.671	0.0161745
827.749	0.0161340
827.828	0.0162309
827.906	0.0162852
827.984	0.0162163
828.062	0.0162833
828.140	0.0162570
828.218	0.0162941
828.296	0.0162776
828.374	0.0161490
828.453	0.0161140
828.531	0.0161400
828.609	0.0161887
828.687	0.0160989
828.765	0.0160889
828.843	0.0160626
828.921	0.0158714
828.999	0.0159679
829.078	0.0159925
829.156	0.0161484
829.234	0.0159448
829.312	0.0161086
829.390	0.0160680
829.468	0.0160385
829.546	0.0161368
829.624	0.0160826
829.703	0.0160810
829.781	0.0161724
829.859	0.0160878
829.937	0.0162067
830.015	0.0162120
830.093	0.0161832
830.171	0.0159850
830.249	0.0161654
830.328	0.0160730
830.406	0.0158774
830.484	0.0159772
830.562	0.0160143
830.640	0.0161297
830.718	0.0159613
830.796	0.0160245
830.874	0.0161288
830.953	0.0160972
831.031	0.0161970
831.109	0.0161700
831.187	0.0160538
831.265	0.0159496
831.343	0.0160540
831.421	0.0161932
831.499	0.0162981
831.578	0.0163033
831.656	0.0162543
831.734	0.0162328
831.812	0.0161710
831.890	0.0160737
831.968	0.0161649
832.046	0.0162279
832.124	0.0163377
832.203	0.0163470
832.281	0.0163158
832.359	0.0163505
832.437	0.0163129
832.515	0.0161431
832.593	0.0161848
832.671	0.0162919
832.749	0.0162460
832.828	0.0160637
832.906	0.0163033
832.984	0.0163440
833.062	0.0162914
833.140	0.0161062
833.218	0.0161866
833.296	0.0162445
833.374	0.0162260
833.453	0.0162518
833.531	0.0160410
833.609	0.0161391
833.687	0.0160451
833.765	0.0159429
833.843	0.0159838
833.921	0.0160432
833.999	0.0159628
834.078	0.0159097
834.156	0.0158304
834.234	0.0158992
834.312	0.0159465
834.390	0.0160117
834.468	0.0158611
834.546	0.0159644
834.624	0.0161263
834.703	0.0161342
834.781	0.0161266
834.859	0.0161830
834.937	0.0160247
835.015	0.0161998
835.093	0.0161931
835.171	0.0160995
835.249	0.0162658
835.328	0.0162281
835.406	0.0162706
835.484	0.0162814
835.562	0.0162850
835.640	0.0163393
835.718	0.0162811
835.796	0.0163119
835.874	0.0164551
835.953	0.0163531
836.031	0.0162576
836.109	0.0163435
836.187	0.0162827
836.265	0.0162094
836.343	0.0161993
836.421	0.0161841
836.499	0.0162263
836.578	0.0161979
836.656	0.0162251
836.734	0.0162066
836.812	0.0161919
836.890	0.0161368
836.968	0.0161395
837.046	0.0161455
837.124	0.0160655
837.203	0.0160410
837.281	0.0160928
837.359	0.0161499
837.437	0.0160896
837.515	0.0160760
837.593	0.0161353
837.671	0.0161034
837.749	0.0161085
837.828	0.0161565
837.906	0.0159828
837.984	0.0160744
838.062	0.0161964
838.140	0.0161184
838.218	0.0159999
838.296	0.0160457
838.374	0.0162494
838.453	0.0163293
838.531	0.0161796
838.609	0.0163161
838.687	0.0162798
838.765	0.0161742
838.843	0.0160208
838.921	0.0161629
838.999	0.0162125
839.078	0.0161796
839.156	0.0160793
839.234	0.0158771
839.312	0.0158596
839.390	0.0159267
839.468	0.0159107
839.546	0.0159228
839.624	0.0158016
839.703	0.0159087
839.781	0.0159338
839.859	0.0159322
839.937	0.0159856
840.015	0.0160586
840.093	0.0159792
840.171	0.0162194
840.249	0.0162679
840.328	0.0163078
840.406	0.0163148
840.484	0.0163947
840.562	0.0164145
840.640	0.0164857
840.718	0.0164939
840.796	0.0165271
840.874	0.0166879
840.953	0.0166537
841.031	0.0164776
841.109	0.0163306
841.187	0.0163254
841.265	0.0161517
841.343	0.0161233
841.421	0.0160244
841.499	0.0159580
841.578	0.0159448
841.656	0.0157830
841.734	0.0156715
841.812	0.0156779
841.890	0.0155573
841.968	0.0155188
842.046	0.0156135
842.124	0.0155178
842.203	0.0155932
842.281	0.0157471
842.359	0.0157470
842.437	0.0159042
842.515	0.0161102
842.593	0.0162030
842.671	0.0162666
842.749	0.0162985
842.828	0.0163366
842.906	0.0165025
842.984	0.0165542
843.062	0.0164947
843.140	0.0165122
843.218	0.0166050
843.296	0.0164251
843.374	0.0166193
843.453	0.0165559
843.531	0.0163966
843.609	0.0162649
843.687	0.0162589
843.765	0.0161852
843.843	0.0160050
843.921	0.0157608
843.999	0.0157119
844.078	0.0156370
844.156	0.0155045
844.234	0.0154859
844.312	0.0153655
844.390	0.0153851
844.468	0.0152177
844.546	0.0154272
844.624	0.0156754
844.703	0.0157569
844.781	0.0158440
844.859	0.0159356
844.937	0.0162076
845.015	0.0163165
845.093	0.0164942
845.171	0.0166403
845.249	0.0166089
845.328	0.0166412
845.406	0.0167628
845.484	0.0167080
845.562	0.0167632
845.640	0.0167011
845.718	0.0166307
845.796	0.0165262
845.874	0.0165775
845.953	0.0164710
846.031	0.0163704
846.109	0.0161367
846.187	0.0160659
846.265	0.0159758
846.343	0.0157526
846.421	0.0155597
846.499	0.0155524
846.578	0.0155524
846.656	0.0154073
846.734	0.0151847
846.812	0.0153064
846.890	0.0153493
846.968	0.0153391
847.046	0.0154761
847.124	0.0155972
847.203	0.0158421
847.281	0.0159515
847.359	0.0161076
847.437	0.0162373
847.515	0.0163670
847.593	0.0165282
847.671	0.0164122
847.749	0.0165230
847.828	0.0166719
847.906	0.0167168
847.984	0.0167377
848.062	0.0166322
848.140	0.0166552
848.218	0.0167480
848.296	0.0167242
848.374	0.0165772
848.453	0.0164558
848.531	0.0162914
848.609	0.0164659
848.687	0.0162704
848.765	0.0160117
848.843	0.0159800
848.921	0.0159291
848.999	0.0157906
849.078	0.0156461
849.156	0.0156533
849.234	0.0157446
849.312	0.0156404
849.390	0.0156881
849.468	0.0156676
849.546	0.0158833
849.624	0.0157329
849.703	0.0159769
849.781	0.0159647
849.859	0.0161062
849.937	0.0162174
850.015	0.0159514
850.093	0.0160708
850.171	0.0162325
850.249	0.0163679
850.328	0.0163765
850.406	0.0164598
850.484	0.0163188
850.562	0.0163274
850.640	0.0163223
850.718	0.0161784
850.796	0.0162208
850.874	0.0164426
850.953	0.0165927
851.031	0.0163414
851.109	0.0164725
851.187	0.0163160
851.265	0.0162724
851.343	0.0161948
851.421	0.0161372
851.499	0.0161806
851.578	0.0159756
851.656	0.0161186
851.734	0.0160023
851.812	0.0158134
851.890	0.0157806
851.968	0.0157581
852.046	0.0157266
852.124	0.0156832
852.203	0.0155917
852.281	0.0155346
852.359	0.0157231
852.437	0.0155990
852.515	0.0156702
852.593	0.0157518
852.671	0.0156244
852.749	0.0156705
852.828	0.0157912
852.906	0.0158722
852.984	0.0158975
853.062	0.0161072
853.140	0.0160955
853.218	0.0161954
853.296	0.0161988
853.374	0.0161629
853.453	0.0162970
853.531	0.0163681
853.609	0.0162800
853.687	0.0164323
853.765	0.0163887
853.843	0.0163426
853.921	0.0164719
853.999	0.0164457
854.078	0.0163458
854.156	0.0162833
854.234	0.0163898
854.312	0.0163169
854.390	0.0162904
854.468	0.0162610
854.546	0.0162608
854.624	0.0162094
854.703	0.0161222
854.781	0.0162830
854.859	0.0161851
854.937	0.0161826
855.015	0.0163212
855.093	0.0162857
855.171	0.0161169
855.249	0.0161314
855.328	0.0162385
855.406	0.0160779
855.484	0.0160682
855.562	0.0161232
855.640	0.0162147
855.718	0.0159639
855.796	0.0159232
855.874	0.0160160
855.953	0.0160788
856.031	0.0160129
856.109	0.0160244
856.187	0.0160075
856.265	0.0161388
856.343	0.0161383
856.421	0.0159887
856.499	0.0161178
856.578	0.0161110
856.656	0.0159777
856.734	0.0160521
856.812	0.0159856
856.890	0.0160545
856.968	0.0159645
857.046	0.0158395
857.124	0.0158760
857.203	0.0159540
857.281	0.0157197
857.359	0.0160049
857.437	0.0159212
857.515	0.0159056
857.593	0.0159538
857.671	0.0159156
857.749	0.0159991
857.828	0.0161556
857.906	0.0161326
857.984	0.0160605
858.062	0.0161755
858.140	0.0164088
858.218	0.0162812
858.296	0.0161865
858.374	0.0163330
858.453	0.0164279
858.531	0.0163702
858.609	0.0163194
858.687	0.0164387
858.765	0.0164155
858.843	0.0162577
858.921	0.0162390
858.999	0.0162952
859.078	0.0162789
859.156	0.0162538
859.234	0.0159736
859.312	0.0162011
859.390	0.0161296
859.468	0.0161179
859.546	0.0161524
859.624	0.0160887
859.703	0.0160136
859.781	0.0160851
859.859	0.0160160
859.937	0.0161404
860.015	0.0160155
860.093	0.0160826
860.171	0.0160719
860.249	0.0160081
860.328	0.0161585
860.406	0.0161242
860.484	0.0160635
860.562	0.0161416
860.640	0.0160094
860.718	0.0160160
860.796	0.0160835
860.874	0.0161168
860.953	0.0162050
861.031	0.0160531
861.109	0.0160638
861.187	0.0159456
861.265	0.0161179
861.343	0.0162146
861.421	0.0162022
861.499	0.0161505
861.578	0.0162621
861.656	0.0162276
861.734	0.0162100
861.812	0.0161488
861.890	0.0161695
861.968	0.0162372
862.046	0.0162872
862.124	0.0160742
862.203	0.0159295
862.281	0.0160934
862.359	0.0161313
862.437	0.0159876
862.515	0.0160648
862.593	0.0159600
862.671	0.0160954
862.749	0.0161113
862.828	0.0160157
862.906	0.0159758
862.984	0.0159428
863.062	0.0160888
863.140	0.0160022
863.218	0.0160425
863.296	0.0161221
863.374	0.0162394
863.453	0.0162208
863.531	0.0161336
863.609	0.0161766
863.687	0.0161541
863.765	0.0161198
863.843	0.0162655
863.921	0.0163482
863.999	0.0164165
864.078	0.0163808
864.156	0.0162970
864.234	0.0164014
864.312	0.0164209
864.390	0.0164086
864.468	0.0163967
864.546	0.0163425
864.624	0.0162730
864.703	0.0162709
864.781	0.0162997
864.859	0.0162400
864.937	0.0161883
865.015	0.0162170
865.093	0.0161669
865.171	0.0161144
865.249	0.0160294
865.328	0.0160915
865.406	0.0160908
865.484	0.0159813
865.562	0.0158723
865.640	0.0159104
865.718	0.0161400
865.796	0.0161139
865.874	0.0159089
865.953	0.0160574
866.031	0.0161648
866.109	0.0160005
866.187	0.0160497
866.265	0.0160782
866.343	0.0160352
866.421	0.0161446
866.499	0.0161523
866.578	0.0159786
866.656	0.0159923
866.734	0.0160815
866.812	0.0160586
866.890	0.0160657
866.968	0.0161534
867.046	0.0160091
867.124	0.0160838
867.203	0.0162297
867.281	0.0161832
867.359	0.0160612
867.437	0.0159879
867.515	0.0159491
867.593	0.0159458
867.671	0.0160139
867.749	0.0160254
867.828	0.0160497
867.906	0.0158559
867.984	0.0160605
868.062	0.0159551
868.140	0.0159119
868.218	0.0160431
868.296	0.0160267
868.374	0.0159623
868.453	0.0159280
868.531	0.0160168
868.609	0.0160630
868.687	0.0160667
868.765	0.0162896
868.843	0.0162780
868.921	0.0163136
868.999	0.0162495
869.078	0.0163049
869.156	0.0164703
869.234	0.0163238
869.312	0.0163614
869.390	0.0163440
869.468	0.0163310
869.546	0.0163808
869.624	0.0164554
869.703	0.0162438
869.781	0.0162318
869.859	0.0162803
869.937	0.0162463
870.015	0.0161936
870.093	0.0161755
870.171	0.0160643
870.249	0.0159994
870.328	0.0161620
870.406	0.0160921
870.484	0.0159547
870.562	0.0159696
870.640	0.0160246
870.718	0.0159590
870.796	0.0159589
870.874	0.0160419
870.953	0.0159773
871.031	0.0159762
871.109	0.0160049
871.187	0.0158768
871.265	0.0161224
871.343	0.0161728
871.421	0.0161058
871.499	0.0159654
871.578	0.0161415
871.656	0.0160507
871.734	0.0160308
871.812	0.0160201
871.890	0.0160813
871.968	0.0160882
872.046	0.0160226
872.124	0.0159686
872.203	0.0160132
872.281	0.0160758
872.359	0.0160836
872.437	0.0161783
872.515	0.0161554
872.593	0.0161267
872.671	0.0161510
872.749	0.0160245
872.828	0.0159958
872.906	0.0160972
872.984	0.0160474
873.062	0.0159372
873.140	0.0159908
873.218	0.0159514
873.296	0.0159692
873.374	0.0160460
873.453	0.0160147
873.531	0.0159393
873.609	0.0159179
873.687	0.0160238
873.765	0.0160157
873.843	0.0159469
873.921	0.0160281
873.999	0.0162160
874.078	0.0161764
874.156	0.0159845
874.234	0.0160941
874.312	0.0160839
874.390	0.0161435
874.468	0.0160519
874.546	0.0161475
874.624	0.0162453
874.703	0.0162881
874.781	0.0162373
874.859	0.0162470
874.937	0.0162856
875.015	0.0162824
875.093	0.0163132
875.171	0.0162357
875.249	0.0162075
875.328	0.0161786
875.406	0.0162395
875.484	0.0161777
875.562	0.0162396
875.640	0.0161754
875.718	0.0162127
875.796	0.0162099
875.874	0.0161820
875.953	0.0163259
876.031	0.0162457
876.109	0.0162244
876.187	0.0162244
876.265	0.0162030
876.343	0.0162397
876.421	0.0162717
876.499	0.0161472
876.578	0.0162782
876.656	0.0160682
876.734	0.0160696
876.812	0.0162125
876.890	0.0161183
876.968	0.0161413
877.046	0.0162578
877.124	0.0159933
877.203	0.0160475
877.281	0.0160330
877.359	0.0159087
877.437	0.0159059
877.515	0.0159491
877.593	0.0157973
877.671	0.0157459
877.749	0.0158929
877.828	0.0158222
877.906	0.0157092
877.984	0.0158556
878.062	0.0158908
878.140	0.0160004
878.218	0.0159125
878.296	0.0160676
878.374	0.0160272
878.453	0.0159708
878.531	0.0159824
878.609	0.0160349
878.687	0.0159850
878.765	0.0161475
878.843	0.0161490
878.921	0.0161797
878.999	0.0161723
879.078	0.0161970
879.156	0.0161942
879.234	0.0164249
879.312	0.0162891
879.390	0.0162679
879.468	0.0161152
879.546	0.0161978
879.624	0.0161958
879.703	0.0162624
879.781	0.0161880
879.859	0.0160480
879.937	0.0161065
880.015	0.0162571
880.093	0.0161354
880.171	0.0161272
880.249	0.0160441
880.328	0.0160952
880.406	0.0160346
880.484	0.0161361
880.562	0.0161104
880.640	0.0161205
880.718	0.0161483
880.796	0.0161784
880.874	0.0161922
880.953	0.0160924
881.031	0.0161568
881.109	0.0162752
881.187	0.0162521
881.265	0.0162299
881.343	0.0160882
881.421	0.0161668
881.499	0.0162396
881.578	0.0161922
881.656	0.0162042
881.734	0.0162860
881.812	0.0161774
881.890	0.0160365
881.968	0.0162198
882.046	0.0161094
882.124	0.0161351
882.203	0.0161633
882.281	0.0160766
882.359	0.0161040
882.437	0.0159596
882.515	0.0162209
882.593	0.0162168
882.671	0.0160204
882.749	0.0159717
882.828	0.0160909
882.906	0.0161867
882.984	0.0161607
883.062	0.0161543
883.140	0.0162083
883.218	0.0163214
883.296	0.0163512
883.374	0.0161336
883.453	0.0161508
883.531	0.0162542
883.609	0.0161305
883.687	0.0162283
883.765	0.0162212
883.843	0.0162532
883.921	0.0162029
883.999	0.0162411
884.078	0.0162551
884.156	0.0163194
884.234	0.0161787
884.312	0.0162427
884.390	0.0160770
884.468	0.0161150
884.546	0.0161414
884.624	0.0162229
884.703	0.0162159
884.781	0.0161015
884.859	0.0159411
884.937	0.0159919
885.015	0.0160619
885.093	0.0159089
885.171	0.0158140
885.249	0.0158292
885.328	0.0158974
885.406	0.0160407
885.484	0.0159731
885.562	0.0158862
885.640	0.0158527
885.718	0.0159333
885.796	0.0159436
885.874	0.0160402
885.953	0.0160146
886.031	0.0160162
886.109	0.0162228
886.187	0.0162516
886.265	0.0162421
886.343	0.0162245
886.421	0.0162806
886.499	0.0163075
886.578	0.0163052
886.656	0.0163032
886.734	0.0162053
886.812	0.0162353
886.890	0.0163776
886.968	0.0163465
887.046	0.0163880
887.124	0.0162502
887.203	0.0163454
887.281	0.0163058
887.359	0.0162582
887.437	0.0162527
887.515	0.0161801
887.593	0.0164343
887.671	0.0163651
887.749	0.0160819
887.828	0.0160393
887.906	0.0161589
887.984	0.0161787
888.062	0.0160564
888.140	0.0160227
888.218	0.0159082
888.296	0.0158849
888.374	0.0159807
888.453	0.0160070
888.531	0.0159241
888.609	0.0159995
888.687	0.0159419
888.765	0.0160277
888.843	0.0160406
888.921	0.0160871
888.999	0.0161674
889.078	0.0160426
889.156	0.0160210
889.234	0.0161612
889.312	0.0162516
889.390	0.0161190
889.468	0.0161229
889.546	0.0160646
889.624	0.0160986
889.703	0.0161409
889.781	0.0162437
889.859	0.0163205
889.937	0.0162396
890.015	0.0163441
890.093	0.0163229
890.171	0.0161868
890.249	0.0163422
890.328	0.0163065
890.406	0.0163152
890.484	0.0163282
890.562	0.0164275
890.640	0.0162872
890.718	0.0162525
890.796	0.0162231
890.874	0.0163264
890.953	0.0162807
891.031	0.0161567
891.109	0.0162115
891.187	0.0160146
891.265	0.0160155
891.343	0.0160429
891.421	0.0160832
891.499	0.0159675
891.578	0.0160046
891.656	0.0160243
891.734	0.0160304
891.812	0.0158789
891.890	0.0159373
891.968	0.0159765
892.046	0.0159798
892.124	0.0161040
892.203	0.0160788
892.281	0.0159373
892.359	0.0158724
892.437	0.0159405
892.515	0.0160293
892.593	0.0160114
892.671	0.0159496
892.749	0.0158707
892.828	0.0159586
892.906	0.0160722
892.984	0.0159897
893.062	0.0158868
893.140	0.0159360
893.218	0.0159726
893.296	0.0160139
893.374	0.0160336
893.453	0.0159367
893.531	0.0160156
893.609	0.0162020
893.687	0.0160204
893.765	0.0161122
893.843	0.0160559
893.921	0.0161105
893.999	0.0161343
894.078	0.0161696
894.156	0.0161175
894.234	0.0161189
894.312	0.0161385
894.390	0.0160520
894.468	0.0162554
894.546	0.0162149
894.624	0.0160790
894.703	0.0161271
894.781	0.0160969
894.859	0.0161066
894.937	0.0160250
895.015	0.0162129
895.093	0.0160863
895.171	0.0160567
895.249	0.0161287
895.328	0.0160446
895.406	0.0159281
895.484	0.0161517
895.562	0.0160793
895.640	0.0161280
895.718	0.0161436
895.796	0.0163880
895.874	0.0162903
895.953	0.0162405
896.031	0.0163067
896.109	0.0163589
896.187	0.0162007
896.265	0.0161337
896.343	0.0163208
896.421	0.0161897
896.499	0.0162116
896.578	0.0161989
896.656	0.0162371
896.734	0.0161573
896.812	0.0161256
896.890	0.0161854
896.968	0.0159990
897.046	0.0159504
897.124	0.0160252
897.203	0.0161678
897.281	0.0160278
897.359	0.0159546
897.437	0.0160557
897.515	0.0159724
897.593	0.0160134
897.671	0.0158537
897.749	0.0159303
897.828	0.0161271
897.906	0.0159687
897.984	0.0159972
898.062	0.0159394
898.140	0.0159947
898.218	0.0161614
898.296	0.0159472
898.374	0.0160809
898.453	0.0161394
898.531	0.0160372
898.609	0.0161372
898.687	0.0162021
898.765	0.0162122
898.843	0.0162508
898.921	0.0162590
898.999	0.0161534
899.078	0.0163414
899.156	0.0162570
899.234	0.0162060
899.312	0.0162817
899.390	0.0162836
899.468	0.0161520
899.546	0.0160193
899.624	0.0161896
899.703	0.0161149
899.781	0.0159990
899.859	0.0160871
899.937	0.0160952
900.015	0.0161443
900.093	0.0161024
900.171	0.0161686
900.249	0.0160127
900.328	0.0160432
900.406	0.0161341
900.484	0.0162003
900.562	0.0161702
900.640	0.0161083
900.718	0.0160564
900.796	0.0161643
900.874	0.0163571
900.953	0.0161327
901.031	0.0161749
901.109	0.0162962
901.187	0.0163139
901.265	0.0162685
901.343	0.0161609
901.421	0.0163242
901.499	0.0162812
901.578	0.0161280
901.656	0.0162347
901.734	0.0160299
901.812	0.0159613
901.890	0.0160236
901.968	0.0160919
902.046	0.0160053
902.124	0.0160213
902.203	0.0159286
902.281	0.0160001
902.359	0.0160522
902.437	0.0160948
902.515	0.0160708
902.593	0.0160017
902.671	0.0161893
902.749	0.0161517
902.828	0.0161864
902.906	0.0162032
902.984	0.0161798
903.062	0.0161089
903.140	0.0161375
903.218	0.0161958
903.296	0.0160576
903.374	0.0163094
903.453	0.0160655
903.531	0.0161659
903.609	0.0161144
903.687	0.0162746
903.765	0.0160821
903.843	0.0161308
903.921	0.0160207
903.999	0.0160507
904.078	0.0160647
904.156	0.0160902
904.234	0.0161523
904.312	0.0158434
904.390	0.0160537
904.468	0.0159336
904.546	0.0159930
904.624	0.0160351
904.703	0.0159811
904.781	0.0158810
904.859	0.0159682
904.937	0.0161778
905.015	0.0160838
905.093	0.0160806
905.171	0.0159323
905.249	0.0160274
905.328	0.0161815
905.406	0.0161400
905.484	0.0161887
905.562	0.0161539
905.640	0.0160812
905.718	0.0162421
905.796	0.0163153
905.874	0.0162566
905.953	0.0163705
906.031	0.0162463
906.109	0.0162033
906.187	0.0162003
906.265	0.0163190
906.343	0.0163010
906.421	0.0161612
906.499	0.0162051
906.578	0.0163293
906.656	0.0160698
906.734	0.0160822
906.812	0.0161530
906.890	0.0161934
906.968	0.0164024
907.046	0.0163174
907.124	0.0163688
907.203	0.0162385
907.281	0.0163244
907.359	0.0163075
907.437	0.0162399
907.515	0.0162616
907.593	0.0162127
907.671	0.0162302
907.749	0.0160939
907.828	0.0160789
907.906	0.0159892
907.984	0.0159114
908.062	0.0159313
908.140	0.0160261
908.218	0.0159575
908.296	0.0159104
908.374	0.0158051
908.453	0.0157078
908.531	0.0159423
908.609	0.0158337
908.687	0.0157575
908.765	0.0158264
908.843	0.0157677
908.921	0.0157781
908.999	0.0158755
909.078	0.0159327
909.156	0.0160852
909.234	0.0160930
909.312	0.0161659
909.390	0.0160590
909.468	0.0161694
909.546	0.0161501
909.624	0.0162615
909.703	0.0163010
909.781	0.0162592
909.859	0.0161368
909.937	0.0161523
910.015	0.0161970
910.093	0.0162210
910.171	0.0162354
910.249	0.0161449
910.328	0.0162835
910.406	0.0161909
910.484	0.0161845
910.562	0.0160124
910.640	0.0161728
910.718	0.0161237
910.796	0.0162241
910.874	0.0161687
910.953	0.0158971
911.031	0.0159364
911.109	0.0161101
911.187	0.0161116
911.265	0.0160416
911.343	0.0160374
911.421	0.0161144
911.499	0.0160780
911.578	0.0161562
911.656	0.0161854
911.734	0.0162187
911.812	0.0162181
911.890	0.0161212
911.968	0.0162074
912.046	0.0162276
912.124	0.0161614
912.203	0.0161703
912.281	0.0162263
912.359	0.0161604
912.437	0.0162602
912.515	0.0161572
912.593	0.0160173
912.671	0.0159079
912.749	0.0160120
912.828	0.0159491
912.906	0.0158746
912.984	0.0159152
913.062	0.0157333
913.140	0.0158321
913.218	0.0157335
913.296	0.0159109
913.374	0.0159065
913.453	0.0158967
913.531	0.0159909
913.609	0.0159563
913.687	0.0160387
913.765	0.0159290
913.843	0.0159206
913.921	0.0161659
913.999	0.0162914
914.078	0.0162120
914.156	0.0161971
914.234	0.0163760
914.312	0.0162360
914.390	0.0162605
914.468	0.0163215
914.546	0.0163484
914.624	0.0162901
914.703	0.0161987
914.781	0.0161712
914.859	0.0162576
914.937	0.0162451
915.015	0.0161657
915.093	0.0160556
915.171	0.0160092
915.249	0.0160919
915.328	0.0160371
915.406	0.0159525
915.484	0.0160410
915.562	0.0159831
915.640	0.0161169
915.718	0.0160251
915.796	0.0159299
915.874	0.0159262
915.953	0.0160128
916.031	0.0160177
916.109	0.0161343
916.187	0.0160722
916.265	0.0159387
916.343	0.0159615
916.421	0.0161008
916.499	0.0160637
916.578	0.0160793
916.656	0.0162077
916.734	0.0163088
916.812	0.0161523
916.890	0.0163926
916.968	0.0162418
917.046	0.0162878
917.124	0.0163611
917.203	0.0163420
917.281	0.0162338
917.359	0.0163122
917.437	0.0163118
917.515	0.0161591
917.593	0.0161051
917.671	0.0162730
917.749	0.0160888
917.828	0.0160547
917.906	0.0159619
917.984	0.0159016
918.062	0.0159333
918.140	0.0158562
918.218	0.0159016
918.296	0.0158781
918.374	0.0159863
918.453	0.0158926
918.531	0.0158371
918.609	0.0159109
918.687	0.0159502
918.765	0.0159206
918.843	0.0158475
918.921	0.0160767
918.999	0.0160800
919.078	0.0160847
919.156	0.0160841
919.234	0.0160884
919.312	0.0159742
919.390	0.0159476
919.468	0.0160703
919.546	0.0161839
919.624	0.0161527
919.703	0.0161375
919.781	0.0160443
919.859	0.0161608
919.937	0.0161459
