06/10/2022	18:30:39	Ver.	4.1	UNKNOWN
Optical Delay	600.015094	Delta X		0.078125	Sweeps	1	Scan Rate	0/0
Coordinates	Axis 1	NaN	Axis 2	NaN	Axis 3	NaN	Axis 4	NaN	Axis 5	NaN	Axis 6	0.000000
TX Power	0.000000	RX Power	0.000000

600.015	0.0165643
600.093	0.0166322
600.171	0.0164910
600.249	0.0165901
600.328	0.0165747
600.406	0.0164801
600.484	0.0166082
600.562	0.0164904
600.640	0.0166589
600.718	0.0165395
600.796	0.0164394
600.874	0.0165589
600.953	0.0165987
601.031	0.0165518
601.109	0.0166251
601.187	0.0166273
601.265	0.0165617
601.343	0.0164870
601.421	0.0164925
601.499	0.0165913
601.578	0.0166288
601.656	0.0163908
601.734	0.0165948
601.812	0.0165432
601.890	0.0165653
601.968	0.0165457
602.046	0.0166721
602.124	0.0166577
602.203	0.0165845
602.281	0.0166193
602.359	0.0166480
602.437	0.0166021
602.515	0.0165694
602.593	0.0165927
602.671	0.0166638
602.749	0.0166644
602.828	0.0164838
602.906	0.0165693
602.984	0.0164883
603.062	0.0165333
603.140	0.0165025
603.218	0.0165471
603.296	0.0166058
603.374	0.0164766
603.453	0.0165788
603.531	0.0165011
603.609	0.0165939
603.687	0.0165188
603.765	0.0165012
603.843	0.0166075
603.921	0.0166714
603.999	0.0163908
604.078	0.0166227
604.156	0.0165825
604.234	0.0165131
604.312	0.0164015
604.390	0.0166017
604.468	0.0165255
604.546	0.0164326
604.624	0.0163965
604.703	0.0164893
604.781	0.0165929
604.859	0.0165022
604.937	0.0165848
605.015	0.0164473
605.093	0.0165261
605.171	0.0165638
605.249	0.0166306
605.328	0.0166697
605.406	0.0165479
605.484	0.0166154
605.562	0.0165288
605.640	0.0164362
605.718	0.0164923
605.796	0.0164958
605.874	0.0164494
605.953	0.0165164
606.031	0.0165710
606.109	0.0165092
606.187	0.0164837
606.265	0.0165795
606.343	0.0164988
606.421	0.0165440
606.499	0.0165907
606.578	0.0165862
606.656	0.0165853
606.734	0.0164780
606.812	0.0165361
606.890	0.0165926
606.968	0.0165630
607.046	0.0165216
607.124	0.0166340
607.203	0.0165110
607.281	0.0164768
607.359	0.0165435
607.437	0.0165518
607.515	0.0165617
607.593	0.0163983
607.671	0.0164735
607.749	0.0165455
607.828	0.0165025
607.906	0.0165265
607.984	0.0166242
608.062	0.0164172
608.140	0.0166544
608.218	0.0166389
608.296	0.0164683
608.374	0.0166185
608.453	0.0165489
608.531	0.0165285
608.609	0.0166817
608.687	0.0165995
608.765	0.0165424
608.843	0.0164691
608.921	0.0165790
608.999	0.0164931
609.078	0.0165578
609.156	0.0165327
609.234	0.0165728
609.312	0.0164364
609.390	0.0164877
609.468	0.0165481
609.546	0.0166123
609.624	0.0167255
609.703	0.0166003
609.781	0.0164701
609.859	0.0165661
609.937	0.0165891
610.015	0.0165759
610.093	0.0165095
610.171	0.0165468
610.249	0.0164706
610.328	0.0163515
610.406	0.0165500
610.484	0.0165417
610.562	0.0164557
610.640	0.0165620
610.718	0.0164523
610.796	0.0166359
610.874	0.0166238
610.953	0.0165129
611.031	0.0166886
611.109	0.0166109
611.187	0.0165974
611.265	0.0166519
611.343	0.0164344
611.421	0.0165730
611.499	0.0165528
611.578	0.0166103
611.656	0.0165891
611.734	0.0165849
611.812	0.0165025
611.890	0.0165854
611.968	0.0165936
612.046	0.0165163
612.124	0.0164185
612.203	0.0164065
612.281	0.0164571
612.359	0.0165716
612.437	0.0164956
612.515	0.0165582
612.593	0.0167501
612.671	0.0166426
612.749	0.0166707
612.828	0.0165891
612.906	0.0165382
612.984	0.0164484
613.062	0.0165057
613.140	0.0166303
613.218	0.0166192
613.296	0.0165829
613.374	0.0164608
613.453	0.0164854
613.531	0.0167076
613.609	0.0165488
613.687	0.0165033
613.765	0.0167313
613.843	0.0166506
613.921	0.0165013
613.999	0.0165231
614.078	0.0164690
614.156	0.0164634
614.234	0.0164079
614.312	0.0165603
614.390	0.0165744
614.468	0.0164918
614.546	0.0168172
614.624	0.0165003
614.703	0.0163963
614.781	0.0166050
614.859	0.0165533
614.937	0.0165070
615.015	0.0165237
615.093	0.0165702
615.171	0.0165546
615.249	0.0165375
615.328	0.0165383
615.406	0.0165742
615.484	0.0165944
615.562	0.0165874
615.640	0.0164439
615.718	0.0164837
615.796	0.0166018
615.874	0.0165581
615.953	0.0165048
616.031	0.0164277
616.109	0.0165339
616.187	0.0166775
616.265	0.0166448
616.343	0.0165583
616.421	0.0164914
616.499	0.0165411
616.578	0.0164040
616.656	0.0165764
616.734	0.0165871
616.812	0.0166340
616.890	0.0164866
616.968	0.0165392
617.046	0.0165023
617.124	0.0165362
617.203	0.0165506
617.281	0.0166607
617.359	0.0166834
617.437	0.0165260
617.515	0.0164430
617.593	0.0166738
617.671	0.0165359
617.749	0.0166482
617.828	0.0166843
617.906	0.0165751
617.984	0.0165445
618.062	0.0165855
618.140	0.0165627
618.218	0.0165486
618.296	0.0165725
618.374	0.0166006
618.453	0.0166034
618.531	0.0165612
618.609	0.0164592
618.687	0.0166181
618.765	0.0166304
618.843	0.0165332
618.921	0.0165075
618.999	0.0164902
619.078	0.0166357
619.156	0.0164666
619.234	0.0166463
619.312	0.0165968
619.390	0.0165317
619.468	0.0165072
619.546	0.0164340
619.624	0.0165354
619.703	0.0164940
619.781	0.0165704
619.859	0.0165706
619.937	0.0165505
620.015	0.0165539
620.093	0.0165293
620.171	0.0165308
620.249	0.0167188
620.328	0.0165419
620.406	0.0165558
620.484	0.0166129
620.562	0.0165110
620.640	0.0165675
620.718	0.0165721
620.796	0.0165719
620.874	0.0166408
620.953	0.0164411
621.031	0.0165024
621.109	0.0164568
621.187	0.0164366
621.265	0.0166800
621.343	0.0165635
621.421	0.0165570
621.499	0.0166155
621.578	0.0164552
621.656	0.0167010
621.734	0.0166186
621.812	0.0166811
621.890	0.0165575
621.968	0.0164507
622.046	0.0166357
622.124	0.0166488
622.203	0.0166905
622.281	0.0165325
622.359	0.0166053
622.437	0.0164483
622.515	0.0164870
622.593	0.0165356
622.671	0.0165366
622.749	0.0165990
622.828	0.0165407
622.906	0.0166581
622.984	0.0164465
623.062	0.0165092
623.140	0.0166386
623.218	0.0166338
623.296	0.0165518
623.374	0.0165228
623.453	0.0164901
623.531	0.0164880
623.609	0.0165920
623.687	0.0165313
623.765	0.0165071
623.843	0.0165305
623.921	0.0165568
623.999	0.0164489
624.078	0.0165405
624.156	0.0165753
624.234	0.0164255
624.312	0.0166234
624.390	0.0166457
624.468	0.0165748
624.546	0.0164503
624.624	0.0164246
624.703	0.0165808
624.781	0.0164268
624.859	0.0167058
624.937	0.0165591
625.015	0.0165096
625.093	0.0165630
625.171	0.0165318
625.249	0.0165210
625.328	0.0166895
625.406	0.0165771
625.484	0.0165154
625.562	0.0165250
625.640	0.0166060
625.718	0.0163743
625.796	0.0165971
625.874	0.0165740
625.953	0.0166671
626.031	0.0163377
626.109	0.0164826
626.187	0.0164517
626.265	0.0164883
626.343	0.0165695
626.421	0.0164896
626.499	0.0165665
626.578	0.0164749
626.656	0.0166188
626.734	0.0164634
626.812	0.0163829
626.890	0.0164809
626.968	0.0166223
627.046	0.0164065
627.124	0.0165266
627.203	0.0165977
627.281	0.0165632
627.359	0.0164317
627.437	0.0164927
627.515	0.0164262
627.593	0.0165067
627.671	0.0165617
627.749	0.0165620
627.828	0.0165074
627.906	0.0165063
627.984	0.0165018
628.062	0.0164742
628.140	0.0164238
628.218	0.0163969
628.296	0.0166551
628.374	0.0166275
628.453	0.0165022
628.531	0.0165187
628.609	0.0166232
628.687	0.0164489
628.765	0.0166414
628.843	0.0165601
628.921	0.0164208
628.999	0.0165271
629.078	0.0165347
629.156	0.0165100
629.234	0.0164556
629.312	0.0166936
629.390	0.0165754
629.468	0.0166347
629.546	0.0165597
629.624	0.0164239
629.703	0.0165804
629.781	0.0166586
629.859	0.0165182
629.937	0.0164597
630.015	0.0165840
630.093	0.0164887
630.171	0.0165186
630.249	0.0165851
630.328	0.0165128
630.406	0.0165553
630.484	0.0166216
630.562	0.0165520
630.640	0.0165296
630.718	0.0166628
630.796	0.0165214
630.874	0.0164143
630.953	0.0166254
631.031	0.0164682
631.109	0.0166148
631.187	0.0164806
631.265	0.0165047
631.343	0.0165183
631.421	0.0165802
631.499	0.0165042
631.578	0.0165829
631.656	0.0165730
631.734	0.0164883
631.812	0.0166287
631.890	0.0164859
631.968	0.0165472
632.046	0.0165721
632.124	0.0165792
632.203	0.0165782
632.281	0.0166254
632.359	0.0164970
632.437	0.0164347
632.515	0.0166173
632.593	0.0164381
632.671	0.0165166
632.749	0.0165203
632.828	0.0166044
632.906	0.0166922
632.984	0.0165098
633.062	0.0164138
633.140	0.0164844
633.218	0.0164518
633.296	0.0164458
633.374	0.0164993
633.453	0.0165375
633.531	0.0165627
633.609	0.0163108
633.687	0.0165303
633.765	0.0165459
633.843	0.0165118
633.921	0.0164833
633.999	0.0166732
634.078	0.0165337
634.156	0.0165566
634.234	0.0165464
634.312	0.0165216
634.390	0.0164588
634.468	0.0166185
634.546	0.0165953
634.624	0.0166872
634.703	0.0165749
634.781	0.0165161
634.859	0.0165981
634.937	0.0164212
635.015	0.0164933
635.093	0.0165900
635.171	0.0164942
635.249	0.0164804
635.328	0.0164278
635.406	0.0165409
635.484	0.0165307
635.562	0.0164776
635.640	0.0165842
635.718	0.0165018
635.796	0.0164938
635.874	0.0164410
635.953	0.0165009
636.031	0.0165371
636.109	0.0163210
636.187	0.0163654
636.265	0.0165993
636.343	0.0164883
636.421	0.0166838
636.499	0.0166383
636.578	0.0164925
636.656	0.0163784
636.734	0.0164803
636.812	0.0165462
636.890	0.0166505
636.968	0.0165216
637.046	0.0165287
637.124	0.0164402
637.203	0.0164839
637.281	0.0166811
637.359	0.0165023
637.437	0.0166833
637.515	0.0166408
637.593	0.0165966
637.671	0.0164783
637.749	0.0166013
637.828	0.0165431
637.906	0.0164523
637.984	0.0163922
638.062	0.0165235
638.140	0.0164652
638.218	0.0165351
638.296	0.0165483
638.374	0.0164874
638.453	0.0164977
638.531	0.0165631
638.609	0.0165743
638.687	0.0164587
638.765	0.0165288
638.843	0.0165698
638.921	0.0165987
638.999	0.0165669
639.078	0.0165554
639.156	0.0165581
639.234	0.0165004
639.312	0.0165751
639.390	0.0164796
639.468	0.0164577
639.546	0.0165490
639.624	0.0166163
639.703	0.0165770
639.781	0.0164165
639.859	0.0166004
639.937	0.0165012
640.015	0.0163975
640.093	0.0165087
640.171	0.0165072
640.249	0.0166215
640.328	0.0164419
640.406	0.0165707
640.484	0.0164436
640.562	0.0164470
640.640	0.0165297
640.718	0.0165964
640.796	0.0165602
640.874	0.0165304
640.953	0.0165596
641.031	0.0165973
641.109	0.0165993
641.187	0.0166404
641.265	0.0166106
641.343	0.0163947
641.421	0.0163822
641.499	0.0164921
641.578	0.0166106
641.656	0.0165319
641.734	0.0164888
641.812	0.0164698
641.890	0.0164402
641.968	0.0164426
642.046	0.0165283
642.124	0.0166653
642.203	0.0165815
642.281	0.0164579
642.359	0.0165574
642.437	0.0166672
642.515	0.0165936
642.593	0.0165715
642.671	0.0165189
642.749	0.0164763
642.828	0.0164964
642.906	0.0166431
642.984	0.0165213
643.062	0.0164241
643.140	0.0166295
643.218	0.0166833
643.296	0.0164780
643.374	0.0165062
643.453	0.0164803
643.531	0.0164676
643.609	0.0164484
643.687	0.0165224
643.765	0.0165372
643.843	0.0165195
643.921	0.0165546
643.999	0.0165338
644.078	0.0164869
644.156	0.0165205
644.234	0.0163764
644.312	0.0165734
644.390	0.0165100
644.468	0.0166092
644.546	0.0166873
644.624	0.0166039
644.703	0.0165680
644.781	0.0165057
644.859	0.0164690
644.937	0.0166286
645.015	0.0165048
645.093	0.0164931
645.171	0.0165881
645.249	0.0165565
645.328	0.0166357
645.406	0.0164847
645.484	0.0165611
645.562	0.0164079
645.640	0.0164222
645.718	0.0164986
645.796	0.0164130
645.874	0.0166174
645.953	0.0166225
646.031	0.0164410
646.109	0.0164803
646.187	0.0165511
646.265	0.0164546
646.343	0.0165762
646.421	0.0164921
646.499	0.0166150
646.578	0.0164504
646.656	0.0165558
646.734	0.0164490
646.812	0.0164878
646.890	0.0166099
646.968	0.0165908
647.046	0.0165293
647.124	0.0166378
647.203	0.0164175
647.281	0.0164925
647.359	0.0166350
647.437	0.0164067
647.515	0.0164993
647.593	0.0165363
647.671	0.0164613
647.749	0.0166190
647.828	0.0165048
647.906	0.0165341
647.984	0.0165012
648.062	0.0165276
648.140	0.0165788
648.218	0.0165189
648.296	0.0165395
648.374	0.0166364
648.453	0.0165451
648.531	0.0166008
648.609	0.0164999
648.687	0.0166185
648.765	0.0165270
648.843	0.0164913
648.921	0.0164346
648.999	0.0165331
649.078	0.0166175
649.156	0.0163834
649.234	0.0166496
649.312	0.0165785
649.390	0.0165519
649.468	0.0164865
649.546	0.0165084
649.624	0.0165725
649.703	0.0165101
649.781	0.0164394
649.859	0.0164902
649.937	0.0167084
650.015	0.0166568
650.093	0.0165780
650.171	0.0163967
650.249	0.0165543
650.328	0.0164616
650.406	0.0166201
650.484	0.0166696
650.562	0.0165130
650.640	0.0166495
650.718	0.0164680
650.796	0.0164454
650.874	0.0165087
650.953	0.0165456
651.031	0.0165759
651.109	0.0164056
651.187	0.0164661
651.265	0.0165159
651.343	0.0165974
651.421	0.0165176
651.499	0.0166325
651.578	0.0166447
651.656	0.0164639
651.734	0.0164693
651.812	0.0166210
651.890	0.0165392
651.968	0.0165356
652.046	0.0164265
652.124	0.0164104
652.203	0.0165808
652.281	0.0165986
652.359	0.0165861
652.437	0.0165736
652.515	0.0166647
652.593	0.0165570
652.671	0.0165986
652.749	0.0165479
652.828	0.0166856
652.906	0.0165811
652.984	0.0164849
653.062	0.0162895
653.140	0.0165133
653.218	0.0164931
653.296	0.0165814
653.374	0.0165805
653.453	0.0166985
653.531	0.0166138
653.609	0.0165865
653.687	0.0165727
653.765	0.0165134
653.843	0.0165581
653.921	0.0165367
653.999	0.0166535
654.078	0.0165857
654.156	0.0164714
654.234	0.0164465
654.312	0.0164944
654.390	0.0165343
654.468	0.0166325
654.546	0.0165586
654.624	0.0164468
654.703	0.0165820
654.781	0.0166135
654.859	0.0165995
654.937	0.0166060
655.015	0.0166358
655.093	0.0163846
655.171	0.0164870
655.249	0.0165379
655.328	0.0166220
655.406	0.0164395
655.484	0.0166312
655.562	0.0164365
655.640	0.0163946
655.718	0.0165502
655.796	0.0165367
655.874	0.0165862
655.953	0.0165785
656.031	0.0166066
656.109	0.0166290
656.187	0.0165236
656.265	0.0165777
656.343	0.0165578
656.421	0.0165222
656.499	0.0164988
656.578	0.0164598
656.656	0.0166075
656.734	0.0165654
656.812	0.0165270
656.890	0.0165997
656.968	0.0165628
657.046	0.0165651
657.124	0.0166071
657.203	0.0164355
657.281	0.0164207
657.359	0.0165911
657.437	0.0165739
657.515	0.0165696
657.593	0.0164968
657.671	0.0163966
657.749	0.0164740
657.828	0.0166625
657.906	0.0165751
657.984	0.0164945
658.062	0.0165313
658.140	0.0164671
658.218	0.0166396
658.296	0.0165192
658.374	0.0165923
658.453	0.0164704
658.531	0.0166649
658.609	0.0166373
658.687	0.0165347
658.765	0.0165578
658.843	0.0164430
658.921	0.0164775
658.999	0.0165942
659.078	0.0164880
659.156	0.0165831
659.234	0.0165220
659.312	0.0165244
659.390	0.0164478
659.468	0.0165974
659.546	0.0165095
659.624	0.0166293
659.703	0.0165894
659.781	0.0165845
659.859	0.0163961
659.937	0.0165316
660.015	0.0166217
660.093	0.0166191
660.171	0.0165626
660.249	0.0165024
660.328	0.0164790
660.406	0.0166496
660.484	0.0166006
660.562	0.0165534
660.640	0.0165604
660.718	0.0164795
660.796	0.0164393
660.874	0.0165273
660.953	0.0164733
661.031	0.0165002
661.109	0.0166259
661.187	0.0166201
661.265	0.0165695
661.343	0.0164960
661.421	0.0164736
661.499	0.0166449
661.578	0.0165274
661.656	0.0165179
661.734	0.0163786
661.812	0.0166494
661.890	0.0165741
661.968	0.0165901
662.046	0.0164460
662.124	0.0165486
662.203	0.0164853
662.281	0.0165466
662.359	0.0165490
662.437	0.0166644
662.515	0.0165548
662.593	0.0166262
662.671	0.0166900
662.749	0.0166553
662.828	0.0166269
662.906	0.0165161
662.984	0.0165386
663.062	0.0166276
663.140	0.0164556
663.218	0.0165042
663.296	0.0166620
663.374	0.0165965
663.453	0.0165764
663.531	0.0166376
663.609	0.0164798
663.687	0.0165440
663.765	0.0164602
663.843	0.0165984
663.921	0.0165575
663.999	0.0165422
664.078	0.0164976
664.156	0.0165527
664.234	0.0165172
664.312	0.0166647
664.390	0.0165928
664.468	0.0164523
664.546	0.0165925
664.624	0.0166106
664.703	0.0165379
664.781	0.0165176
664.859	0.0164523
664.937	0.0164734
665.015	0.0164333
665.093	0.0164958
665.171	0.0166342
665.249	0.0166578
665.328	0.0166863
665.406	0.0166266
665.484	0.0165311
665.562	0.0164571
665.640	0.0167072
665.718	0.0166048
665.796	0.0165154
665.874	0.0166334
665.953	0.0166763
666.031	0.0165131
666.109	0.0165452
666.187	0.0165349
666.265	0.0164970
666.343	0.0166247
666.421	0.0165145
666.499	0.0163953
666.578	0.0166139
666.656	0.0165952
666.734	0.0164871
666.812	0.0165802
666.890	0.0165889
666.968	0.0165764
667.046	0.0165451
667.124	0.0163984
667.203	0.0165203
667.281	0.0164123
667.359	0.0165662
667.437	0.0166202
667.515	0.0165059
667.593	0.0166174
667.671	0.0166196
667.749	0.0165128
667.828	0.0164439
667.906	0.0166534
667.984	0.0166464
668.062	0.0167252
668.140	0.0165544
668.218	0.0166650
668.296	0.0165616
668.374	0.0165847
668.453	0.0165909
668.531	0.0165199
668.609	0.0166699
668.687	0.0165860
668.765	0.0164513
668.843	0.0164524
668.921	0.0165638
668.999	0.0165099
669.078	0.0165013
669.156	0.0165004
669.234	0.0166061
669.312	0.0164727
669.390	0.0165827
669.468	0.0165074
669.546	0.0163404
669.624	0.0164635
669.703	0.0164333
669.781	0.0164017
669.859	0.0164996
669.937	0.0164465
670.015	0.0163009
670.093	0.0164034
670.171	0.0164793
670.249	0.0165820
670.328	0.0165455
670.406	0.0164616
670.484	0.0164436
670.562	0.0165385
670.640	0.0165919
670.718	0.0164931
670.796	0.0165280
670.874	0.0165370
670.953	0.0165948
671.031	0.0164611
671.109	0.0166418
671.187	0.0165675
671.265	0.0166267
671.343	0.0166219
671.421	0.0164923
671.499	0.0164890
671.578	0.0165713
671.656	0.0165823
671.734	0.0164948
671.812	0.0164948
671.890	0.0165376
671.968	0.0166223
672.046	0.0165413
672.124	0.0164581
672.203	0.0165189
672.281	0.0165862
672.359	0.0164896
672.437	0.0166001
672.515	0.0164359
672.593	0.0164554
672.671	0.0165852
672.749	0.0165545
672.828	0.0165182
672.906	0.0164762
672.984	0.0166404
673.062	0.0165477
673.140	0.0165155
673.218	0.0165615
673.296	0.0166423
673.374	0.0165152
673.453	0.0166352
673.531	0.0167340
673.609	0.0166463
673.687	0.0165587
673.765	0.0164984
673.843	0.0165639
673.921	0.0165147
673.999	0.0167102
674.078	0.0165794
674.156	0.0164614
674.234	0.0167192
674.312	0.0166187
674.390	0.0164896
674.468	0.0164657
674.546	0.0165147
674.624	0.0165516
674.703	0.0166344
674.781	0.0166155
674.859	0.0164939
674.937	0.0164954
675.015	0.0164939
675.093	0.0163924
675.171	0.0164852
675.249	0.0166035
675.328	0.0164799
675.406	0.0164445
675.484	0.0164343
675.562	0.0165070
675.640	0.0165858
675.718	0.0165755
675.796	0.0165179
675.874	0.0164481
675.953	0.0165100
676.031	0.0164989
676.109	0.0165330
676.187	0.0165495
676.265	0.0163890
676.343	0.0165315
676.421	0.0165280
676.499	0.0166833
676.578	0.0165612
676.656	0.0165424
676.734	0.0166042
676.812	0.0166019
676.890	0.0165858
676.968	0.0165193
677.046	0.0164136
677.124	0.0165442
677.203	0.0165891
677.281	0.0165330
677.359	0.0166265
677.437	0.0164617
677.515	0.0164746
677.593	0.0165453
677.671	0.0163558
677.749	0.0165014
677.828	0.0163686
677.906	0.0164252
677.984	0.0166231
678.062	0.0166188
678.140	0.0164056
678.218	0.0164763
678.296	0.0165572
678.374	0.0165968
678.453	0.0164698
678.531	0.0164870
678.609	0.0165829
678.687	0.0165891
678.765	0.0165630
678.843	0.0164928
678.921	0.0165775
678.999	0.0165611
679.078	0.0165666
679.156	0.0165828
679.234	0.0164619
679.312	0.0165415
679.390	0.0166079
679.468	0.0166290
679.546	0.0165366
679.624	0.0165987
679.703	0.0165240
679.781	0.0164371
679.859	0.0165935
679.937	0.0165630
680.015	0.0165077
680.093	0.0165631
680.171	0.0166222
680.249	0.0164445
680.328	0.0165183
680.406	0.0165739
680.484	0.0165253
680.562	0.0166691
680.640	0.0164497
680.718	0.0165250
680.796	0.0164819
680.874	0.0165604
680.953	0.0164851
681.031	0.0165816
681.109	0.0163824
681.187	0.0164721
681.265	0.0165976
681.343	0.0164918
681.421	0.0164528
681.499	0.0165612
681.578	0.0166574
681.656	0.0164905
681.734	0.0165472
681.812	0.0164794
681.890	0.0165839
681.968	0.0164932
682.046	0.0165302
682.124	0.0166177
682.203	0.0165410
682.281	0.0165408
682.359	0.0164400
682.437	0.0164943
682.515	0.0165208
682.593	0.0164418
682.671	0.0164526
682.749	0.0164744
682.828	0.0166754
682.906	0.0166688
682.984	0.0164390
683.062	0.0163750
683.140	0.0165321
683.218	0.0164677
683.296	0.0165107
683.374	0.0163915
683.453	0.0164114
683.531	0.0164069
683.609	0.0164732
683.687	0.0164944
683.765	0.0164643
683.843	0.0165685
683.921	0.0164291
683.999	0.0164819
684.078	0.0165775
684.156	0.0164399
684.234	0.0165747
684.312	0.0166761
684.390	0.0165251
684.468	0.0165632
684.546	0.0164443
684.624	0.0165234
684.703	0.0165686
684.781	0.0165196
684.859	0.0165250
684.937	0.0166438
685.015	0.0165011
685.093	0.0165962
685.171	0.0165308
685.249	0.0164958
685.328	0.0165035
685.406	0.0165214
685.484	0.0165691
685.562	0.0166684
685.640	0.0167101
685.718	0.0163927
685.796	0.0164731
685.874	0.0164772
685.953	0.0164325
686.031	0.0164811
686.109	0.0164097
686.187	0.0164959
686.265	0.0166080
686.343	0.0164671
686.421	0.0165115
686.499	0.0165031
686.578	0.0164629
686.656	0.0165985
686.734	0.0165178
686.812	0.0165769
686.890	0.0165568
686.968	0.0165020
687.046	0.0166009
687.124	0.0166958
687.203	0.0166191
687.281	0.0164577
687.359	0.0164965
687.437	0.0166241
687.515	0.0165405
687.593	0.0165698
687.671	0.0165628
687.749	0.0166045
687.828	0.0164790
687.906	0.0166422
687.984	0.0165996
688.062	0.0164270
688.140	0.0166016
688.218	0.0165165
688.296	0.0165972
688.374	0.0165249
688.453	0.0165162
688.531	0.0166279
688.609	0.0166189
688.687	0.0165600
688.765	0.0165430
688.843	0.0165163
688.921	0.0165749
688.999	0.0166100
689.078	0.0167161
689.156	0.0164694
689.234	0.0165559
689.312	0.0165923
689.390	0.0164722
689.468	0.0166999
689.546	0.0165825
689.624	0.0165825
689.703	0.0167504
689.781	0.0165363
689.859	0.0165558
689.937	0.0165317
690.015	0.0164574
690.093	0.0166496
690.171	0.0164957
690.249	0.0165910
690.328	0.0166314
690.406	0.0165172
690.484	0.0164876
690.562	0.0164755
690.640	0.0166513
690.718	0.0164642
690.796	0.0166463
690.874	0.0165546
690.953	0.0165882
691.031	0.0165127
691.109	0.0164805
691.187	0.0166296
691.265	0.0165547
691.343	0.0164186
691.421	0.0164971
691.499	0.0165949
691.578	0.0166343
691.656	0.0164674
691.734	0.0165288
691.812	0.0166248
691.890	0.0165806
691.968	0.0165791
692.046	0.0165215
692.124	0.0164871
692.203	0.0163995
692.281	0.0164944
692.359	0.0166127
692.437	0.0164771
692.515	0.0164937
692.593	0.0165907
692.671	0.0164819
692.749	0.0164648
692.828	0.0164836
692.906	0.0166219
692.984	0.0165908
693.062	0.0165795
693.140	0.0163343
693.218	0.0164077
693.296	0.0165807
693.374	0.0165979
693.453	0.0165885
693.531	0.0166676
693.609	0.0166174
693.687	0.0166547
693.765	0.0165667
693.843	0.0165025
693.921	0.0164635
693.999	0.0166339
694.078	0.0165440
694.156	0.0164111
694.234	0.0164192
694.312	0.0164572
694.390	0.0165688
694.468	0.0165280
694.546	0.0163192
694.624	0.0164207
694.703	0.0166337
694.781	0.0165401
694.859	0.0164746
694.937	0.0165608
695.015	0.0164413
695.093	0.0164559
695.171	0.0165546
695.249	0.0163799
695.328	0.0164117
695.406	0.0165390
695.484	0.0165683
695.562	0.0164582
695.640	0.0164448
695.718	0.0164576
695.796	0.0165511
695.874	0.0165254
695.953	0.0164905
696.031	0.0166006
696.109	0.0165482
696.187	0.0166969
696.265	0.0165524
696.343	0.0165357
696.421	0.0163770
696.499	0.0165684
696.578	0.0165434
696.656	0.0164679
696.734	0.0166077
696.812	0.0166187
696.890	0.0166301
696.968	0.0164555
697.046	0.0165075
697.124	0.0165413
697.203	0.0163955
697.281	0.0164143
697.359	0.0166265
697.437	0.0165232
697.515	0.0165084
697.593	0.0165735
697.671	0.0166470
697.749	0.0165036
697.828	0.0165124
697.906	0.0165276
697.984	0.0166093
698.062	0.0165105
698.140	0.0164069
698.218	0.0166040
698.296	0.0165617
698.374	0.0164935
698.453	0.0165858
698.531	0.0165534
698.609	0.0164497
698.687	0.0166480
698.765	0.0164209
698.843	0.0164537
698.921	0.0165956
698.999	0.0165475
699.078	0.0166331
699.156	0.0164712
699.234	0.0165570
699.312	0.0166338
699.390	0.0164759
699.468	0.0166113
699.546	0.0164295
699.624	0.0165985
699.703	0.0165427
699.781	0.0164412
699.859	0.0165540
699.937	0.0165305
700.015	0.0166306
700.093	0.0164185
700.171	0.0164799
700.249	0.0165382
700.328	0.0166715
700.406	0.0166128
700.484	0.0165055
700.562	0.0165323
700.640	0.0165589
700.718	0.0166093
700.796	0.0165292
700.874	0.0165368
700.953	0.0165378
701.031	0.0166035
701.109	0.0164732
701.187	0.0165227
701.265	0.0166129
701.343	0.0165561
701.421	0.0166288
701.499	0.0165888
701.578	0.0164501
701.656	0.0165127
701.734	0.0165902
701.812	0.0165722
701.890	0.0165174
701.968	0.0164960
702.046	0.0165789
702.124	0.0164577
702.203	0.0165134
702.281	0.0164897
702.359	0.0164832
702.437	0.0166739
702.515	0.0165323
702.593	0.0165632
702.671	0.0165217
702.749	0.0166360
702.828	0.0164191
702.906	0.0165634
702.984	0.0163525
703.062	0.0164052
703.140	0.0165342
703.218	0.0165762
703.296	0.0165363
703.374	0.0165266
703.453	0.0165298
703.531	0.0165634
703.609	0.0165663
703.687	0.0165018
703.765	0.0164816
703.843	0.0165541
703.921	0.0164173
703.999	0.0165173
704.078	0.0165700
704.156	0.0164021
704.234	0.0164374
704.312	0.0164672
704.390	0.0165792
704.468	0.0164946
704.546	0.0165677
704.624	0.0166621
704.703	0.0165250
704.781	0.0164868
704.859	0.0165780
704.937	0.0165269
705.015	0.0165675
705.093	0.0165208
705.171	0.0165965
705.249	0.0165124
705.328	0.0166547
705.406	0.0165701
705.484	0.0165308
705.562	0.0165326
705.640	0.0164982
705.718	0.0164561
705.796	0.0165803
705.874	0.0164920
705.953	0.0165995
706.031	0.0165546
706.109	0.0166846
706.187	0.0165720
706.265	0.0166419
706.343	0.0165507
706.421	0.0165218
706.499	0.0165353
706.578	0.0165639
706.656	0.0165112
706.734	0.0165183
706.812	0.0165305
706.890	0.0164809
706.968	0.0165676
707.046	0.0164593
707.124	0.0164240
707.203	0.0165144
707.281	0.0167229
707.359	0.0165155
707.437	0.0164763
707.515	0.0165459
707.593	0.0164383
707.671	0.0165696
707.749	0.0165214
707.828	0.0164617
707.906	0.0164319
707.984	0.0165059
708.062	0.0165229
708.140	0.0165635
708.218	0.0165880
708.296	0.0164577
708.374	0.0165966
708.453	0.0165884
708.531	0.0165729
708.609	0.0164826
708.687	0.0166072
708.765	0.0164808
708.843	0.0165517
708.921	0.0165157
708.999	0.0164970
709.078	0.0165188
709.156	0.0164986
709.234	0.0165768
709.312	0.0165276
709.390	0.0165089
709.468	0.0165346
709.546	0.0165472
709.624	0.0166080
709.703	0.0166367
709.781	0.0165405
709.859	0.0165848
709.937	0.0165566
710.015	0.0165832
710.093	0.0165804
710.171	0.0165586
710.249	0.0165984
710.328	0.0165121
710.406	0.0165227
710.484	0.0166444
710.562	0.0166187
710.640	0.0164391
710.718	0.0165422
710.796	0.0165495
710.874	0.0165107
710.953	0.0165025
711.031	0.0166649
711.109	0.0165397
711.187	0.0165746
711.265	0.0165035
711.343	0.0166914
711.421	0.0164430
711.499	0.0165129
711.578	0.0164903
711.656	0.0164252
711.734	0.0166438
711.812	0.0165724
711.890	0.0165807
711.968	0.0164477
712.046	0.0165833
712.124	0.0164344
712.203	0.0165738
712.281	0.0165826
712.359	0.0165434
712.437	0.0165340
712.515	0.0166068
712.593	0.0164702
712.671	0.0165857
712.749	0.0165709
712.828	0.0165384
712.906	0.0164521
712.984	0.0164515
713.062	0.0164681
713.140	0.0167521
713.218	0.0164908
713.296	0.0165201
713.374	0.0166219
713.453	0.0165913
713.531	0.0164529
713.609	0.0165913
713.687	0.0165373
713.765	0.0165428
713.843	0.0164899
713.921	0.0165107
713.999	0.0164882
714.078	0.0164952
714.156	0.0165771
714.234	0.0165639
714.312	0.0164560
714.390	0.0164846
714.468	0.0164493
714.546	0.0165082
714.624	0.0165931
714.703	0.0166591
714.781	0.0164931
714.859	0.0164158
714.937	0.0167091
715.015	0.0165511
715.093	0.0165411
715.171	0.0165291
715.249	0.0166263
715.328	0.0164095
715.406	0.0166235
715.484	0.0167865
715.562	0.0165442
715.640	0.0166583
715.718	0.0165920
715.796	0.0164608
715.874	0.0165073
715.953	0.0165184
716.031	0.0164988
716.109	0.0167020
716.187	0.0165770
716.265	0.0165172
716.343	0.0164227
716.421	0.0166180
716.499	0.0165892
716.578	0.0166370
716.656	0.0165878
716.734	0.0164368
716.812	0.0165796
716.890	0.0165665
716.968	0.0166343
717.046	0.0165632
717.124	0.0165881
717.203	0.0166615
717.281	0.0165861
717.359	0.0165096
717.437	0.0164923
717.515	0.0165765
717.593	0.0166882
717.671	0.0164705
717.749	0.0165453
717.828	0.0164632
717.906	0.0165919
717.984	0.0165722
718.062	0.0165222
718.140	0.0164597
718.218	0.0165256
718.296	0.0166482
718.374	0.0164978
718.453	0.0165427
718.531	0.0165672
718.609	0.0165028
718.687	0.0165293
718.765	0.0164926
718.843	0.0166183
718.921	0.0163973
718.999	0.0164785
719.078	0.0165624
719.156	0.0165688
719.234	0.0165264
719.312	0.0165050
719.390	0.0163908
719.468	0.0165318
719.546	0.0166273
719.624	0.0165372
719.703	0.0165608
719.781	0.0165067
719.859	0.0164888
719.937	0.0165972
720.015	0.0164890
720.093	0.0165827
720.171	0.0166461
720.249	0.0166292
720.328	0.0165321
720.406	0.0164799
720.484	0.0164940
720.562	0.0165324
720.640	0.0165683
720.718	0.0165996
720.796	0.0165300
720.874	0.0164488
720.953	0.0166167
721.031	0.0166637
721.109	0.0165987
721.187	0.0163216
721.265	0.0164190
721.343	0.0165684
721.421	0.0165730
721.499	0.0165427
721.578	0.0165452
721.656	0.0166227
721.734	0.0165659
721.812	0.0164699
721.890	0.0166995
721.968	0.0165080
722.046	0.0164131
722.124	0.0165012
722.203	0.0164294
722.281	0.0166241
722.359	0.0166330
722.437	0.0165341
722.515	0.0166525
722.593	0.0166668
722.671	0.0164353
722.749	0.0165587
722.828	0.0165977
722.906	0.0165280
722.984	0.0165600
723.062	0.0166964
723.140	0.0165317
723.218	0.0165318
723.296	0.0165505
723.374	0.0165046
723.453	0.0166405
723.531	0.0166572
723.609	0.0166493
723.687	0.0166595
723.765	0.0165637
723.843	0.0166865
723.921	0.0165474
723.999	0.0165087
724.078	0.0166389
724.156	0.0167279
724.234	0.0165921
724.312	0.0165004
724.390	0.0166601
724.468	0.0166188
724.546	0.0166159
724.624	0.0166314
724.703	0.0166483
724.781	0.0167329
724.859	0.0166772
724.937	0.0166521
725.015	0.0166299
725.093	0.0166535
725.171	0.0166900
725.249	0.0167501
725.328	0.0166484
725.406	0.0166802
725.484	0.0166013
725.562	0.0167474
725.640	0.0167400
725.718	0.0164816
725.796	0.0165262
725.874	0.0167020
725.953	0.0167055
726.031	0.0165658
726.109	0.0165644
726.187	0.0166830
726.265	0.0167433
726.343	0.0166835
726.421	0.0166505
726.499	0.0165721
726.578	0.0165166
726.656	0.0166065
726.734	0.0167307
726.812	0.0166603
726.890	0.0167707
726.968	0.0166052
727.046	0.0165888
727.124	0.0166243
727.203	0.0166015
727.281	0.0167406
727.359	0.0166419
727.437	0.0166269
727.515	0.0165585
727.593	0.0166934
727.671	0.0166464
727.749	0.0166538
727.828	0.0166238
727.906	0.0165423
727.984	0.0165955
728.062	0.0166705
728.140	0.0166248
728.218	0.0165314
728.296	0.0164952
728.374	0.0165730
728.453	0.0166616
728.531	0.0165228
728.609	0.0165937
728.687	0.0165546
728.765	0.0166428
728.843	0.0166360
728.921	0.0165508
728.999	0.0167515
729.078	0.0165383
729.156	0.0165989
729.234	0.0165518
729.312	0.0165495
729.390	0.0165340
729.468	0.0166953
729.546	0.0165481
729.624	0.0166874
729.703	0.0166484
729.781	0.0164750
729.859	0.0166051
729.937	0.0164591
730.015	0.0165958
730.093	0.0165935
730.171	0.0165376
730.249	0.0167245
730.328	0.0165102
730.406	0.0165032
730.484	0.0165312
730.562	0.0165031
730.640	0.0164499
730.718	0.0165417
730.796	0.0165572
730.874	0.0163914
730.953	0.0166217
731.031	0.0165486
731.109	0.0165685
731.187	0.0164272
731.265	0.0164197
731.343	0.0165662
731.421	0.0165446
731.499	0.0165471
731.578	0.0165649
731.656	0.0165456
731.734	0.0165604
731.812	0.0165952
731.890	0.0165473
731.968	0.0164613
732.046	0.0164439
732.124	0.0165710
732.203	0.0166437
732.281	0.0165900
732.359	0.0165356
732.437	0.0165367
732.515	0.0164543
732.593	0.0164874
732.671	0.0164677
732.749	0.0163969
732.828	0.0165480
732.906	0.0165711
732.984	0.0164980
733.062	0.0165177
733.140	0.0165678
733.218	0.0164407
733.296	0.0164260
733.374	0.0167288
733.453	0.0165584
733.531	0.0165601
733.609	0.0165597
733.687	0.0164607
733.765	0.0164014
733.843	0.0165713
733.921	0.0165081
733.999	0.0164980
734.078	0.0164644
734.156	0.0163811
734.234	0.0164771
734.312	0.0164668
734.390	0.0165250
734.468	0.0164018
734.546	0.0165491
734.624	0.0165364
734.703	0.0164839
734.781	0.0164912
734.859	0.0166073
734.937	0.0165524
735.015	0.0164927
735.093	0.0166212
735.171	0.0167129
735.249	0.0164925
735.328	0.0164950
735.406	0.0166792
735.484	0.0165581
735.562	0.0165669
735.640	0.0163961
735.718	0.0166208
735.796	0.0165570
735.874	0.0164938
735.953	0.0165491
736.031	0.0166586
736.109	0.0165515
736.187	0.0165511
736.265	0.0166154
736.343	0.0164774
736.421	0.0163904
736.499	0.0166261
736.578	0.0165525
736.656	0.0164040
736.734	0.0164759
736.812	0.0164564
736.890	0.0164029
736.968	0.0165295
737.046	0.0165869
737.124	0.0165862
737.203	0.0164505
737.281	0.0166183
737.359	0.0166733
737.437	0.0165897
737.515	0.0165507
737.593	0.0164479
737.671	0.0165338
737.749	0.0165679
737.828	0.0165485
737.906	0.0165681
737.984	0.0165089
738.062	0.0164575
738.140	0.0165628
738.218	0.0165289
738.296	0.0164088
738.374	0.0164970
738.453	0.0166712
738.531	0.0165309
738.609	0.0164816
738.687	0.0164442
738.765	0.0164952
738.843	0.0165446
738.921	0.0165903
738.999	0.0163749
739.078	0.0166416
739.156	0.0166258
739.234	0.0166114
739.312	0.0165418
739.390	0.0166349
739.468	0.0166854
739.546	0.0168166
739.624	0.0165930
739.703	0.0167227
739.781	0.0166199
739.859	0.0167094
739.937	0.0167646
740.015	0.0166096
740.093	0.0167857
740.171	0.0166952
740.249	0.0166714
740.328	0.0168632
740.406	0.0168318
740.484	0.0167919
740.562	0.0168875
740.640	0.0167263
740.718	0.0166841
740.796	0.0167190
740.874	0.0165248
740.953	0.0164767
741.031	0.0162863
741.109	0.0161446
741.187	0.0160741
741.265	0.0159906
741.343	0.0159427
741.421	0.0158574
741.499	0.0155444
741.578	0.0157263
741.656	0.0156988
741.734	0.0156560
741.812	0.0157298
741.890	0.0159562
741.968	0.0159400
742.046	0.0160625
742.124	0.0163037
742.203	0.0163388
742.281	0.0166908
742.359	0.0168472
742.437	0.0171067
742.515	0.0173332
742.593	0.0176939
742.671	0.0177074
742.749	0.0175617
742.828	0.0176144
742.906	0.0176604
742.984	0.0174628
743.062	0.0173791
743.140	0.0171281
743.218	0.0167795
743.296	0.0165867
743.374	0.0163532
743.453	0.0159998
743.531	0.0158202
743.609	0.0155441
743.687	0.0154453
743.765	0.0152529
743.843	0.0153219
743.921	0.0156160
743.999	0.0156107
744.078	0.0158888
744.156	0.0162705
744.234	0.0168608
744.312	0.0173011
744.390	0.0177882
744.468	0.0181245
744.546	0.0185149
744.624	0.0187064
744.703	0.0189642
744.781	0.0191656
744.859	0.0192965
744.937	0.0194677
745.015	0.0193934
745.093	0.0191880
745.171	0.0189664
745.249	0.0186769
745.328	0.0181419
745.406	0.0173426
745.484	0.0162792
745.562	0.0150215
745.640	0.0138901
745.718	0.0124413
745.796	0.0111514
745.874	0.0100546
745.953	0.00912994
746.031	0.00865906
746.109	0.00854591
746.187	0.00888351
746.265	0.00943352
746.343	0.0103329
746.421	0.0115136
746.499	0.0129301
746.578	0.0142606
746.656	0.0157124
746.734	0.0170985
746.812	0.0185139
746.890	0.0198221
746.968	0.0208963
747.046	0.0220540
747.124	0.0230351
747.203	0.0236474
747.281	0.0242370
747.359	0.0246154
747.437	0.0248521
747.515	0.0246457
747.593	0.0244637
747.671	0.0240317
747.749	0.0232580
747.828	0.0222150
747.906	0.0211482
747.984	0.0202160
748.062	0.0192414
748.140	0.0180037
748.218	0.0168420
748.296	0.0155598
748.374	0.0144819
748.453	0.0133942
748.531	0.0123492
748.609	0.0112657
748.687	0.0104339
748.765	0.00984047
748.843	0.00932785
748.921	0.00902557
748.999	0.00917656
749.078	0.00935974
749.156	0.00989990
749.234	0.0103674
749.312	0.0112714
749.390	0.0120921
749.468	0.0128709
749.546	0.0138078
749.624	0.0147392
749.703	0.0156593
749.781	0.0167139
749.859	0.0174323
749.937	0.0181684
750.015	0.0190481
750.093	0.0196174
750.171	0.0202389
750.249	0.0206587
750.328	0.0210366
750.406	0.0213351
750.484	0.0214381
750.562	0.0215028
750.640	0.0215324
750.718	0.0216047
750.796	0.0213074
750.874	0.0211838
750.953	0.0208743
751.031	0.0203313
751.109	0.0197640
751.187	0.0188474
751.265	0.0178636
751.343	0.0166752
751.421	0.0155476
751.499	0.0143443
751.578	0.0130728
751.656	0.0121088
751.734	0.0112817
751.812	0.0106898
751.890	0.0102234
751.968	0.0101213
752.046	0.0103139
752.124	0.0107069
752.203	0.0112994
752.281	0.0123081
752.359	0.0136688
752.437	0.0148529
752.515	0.0165086
752.593	0.0179687
752.671	0.0195715
752.749	0.0212248
752.828	0.0226402
752.906	0.0236161
752.984	0.0246781
753.062	0.0251816
753.140	0.0254189
753.218	0.0251599
753.296	0.0246695
753.374	0.0237421
753.453	0.0224898
753.531	0.0210344
753.609	0.0195214
753.687	0.0178669
753.765	0.0159217
753.843	0.0140456
753.921	0.0121832
753.999	0.0106165
754.078	0.00932404
754.156	0.00813179
754.234	0.00724350
754.312	0.00677261
754.390	0.00666252
754.468	0.00692894
754.546	0.00743790
754.624	0.00827240
754.703	0.00939133
754.781	0.0107410
754.859	0.0122147
754.937	0.0138248
755.015	0.0153817
755.093	0.0169789
755.171	0.0184771
755.249	0.0198425
755.328	0.0210399
755.406	0.0222205
755.484	0.0231057
755.562	0.0239484
755.640	0.0245342
755.718	0.0250703
755.796	0.0252838
755.874	0.0254061
755.953	0.0253740
756.031	0.0248645
756.109	0.0240654
756.187	0.0234037
756.265	0.0222466
756.343	0.0211179
756.421	0.0197719
756.499	0.0181683
756.578	0.0164464
756.656	0.0149696
756.734	0.0134488
756.812	0.0120335
756.890	0.0106120
756.968	0.00948936
757.046	0.00840820
757.124	0.00791458
757.203	0.00760582
757.281	0.00755478
757.359	0.00782761
757.437	0.00843544
757.515	0.00912560
757.593	0.0102091
757.671	0.0114346
757.749	0.0128742
757.828	0.0143943
757.906	0.0158532
757.984	0.0173853
758.062	0.0187408
758.140	0.0200880
758.218	0.0211160
758.296	0.0220695
758.374	0.0230182
758.453	0.0236153
758.531	0.0239536
758.609	0.0237409
758.687	0.0235242
758.765	0.0231108
758.843	0.0222305
758.921	0.0215517
758.999	0.0204278
759.078	0.0192602
759.156	0.0181470
759.234	0.0169786
759.312	0.0158025
759.390	0.0149108
759.468	0.0138482
759.546	0.0130820
759.624	0.0124174
759.703	0.0119727
759.781	0.0115865
759.859	0.0114185
759.937	0.0114677
760.015	0.0117091
760.093	0.0120486
760.171	0.0126534
760.249	0.0130260
760.328	0.0136842
760.406	0.0143773
760.484	0.0150175
760.562	0.0158468
760.640	0.0165121
760.718	0.0169513
760.796	0.0175261
760.874	0.0179596
760.953	0.0183149
761.031	0.0186613
761.109	0.0188713
761.187	0.0191907
761.265	0.0192343
761.343	0.0193568
761.421	0.0192369
761.499	0.0191271
761.578	0.0188591
761.656	0.0188346
761.734	0.0185061
761.812	0.0181812
761.890	0.0178410
761.968	0.0173172
762.046	0.0169637
762.124	0.0168482
762.203	0.0165343
762.281	0.0160108
762.359	0.0158874
762.437	0.0157239
762.515	0.0153876
762.593	0.0151165
762.671	0.0149603
762.749	0.0148655
762.828	0.0147933
762.906	0.0147182
762.984	0.0148885
763.062	0.0151093
763.140	0.0150973
763.218	0.0153143
763.296	0.0156799
763.374	0.0159687
763.453	0.0163180
763.531	0.0167088
763.609	0.0168929
763.687	0.0170341
763.765	0.0169822
763.843	0.0173000
763.921	0.0174430
763.999	0.0173547
764.078	0.0172630
764.156	0.0173725
764.234	0.0173151
764.312	0.0173123
764.390	0.0172285
764.468	0.0170432
764.546	0.0168790
764.624	0.0168126
764.703	0.0166542
764.781	0.0164449
764.859	0.0162431
764.937	0.0161876
765.015	0.0161304
765.093	0.0160984
765.171	0.0161849
765.249	0.0158842
765.328	0.0159524
765.406	0.0158466
765.484	0.0158856
765.562	0.0159928
765.640	0.0159061
765.718	0.0161234
765.796	0.0163202
765.874	0.0167229
765.953	0.0168551
766.031	0.0171741
766.109	0.0176157
766.187	0.0177595
766.265	0.0180824
766.343	0.0182057
766.421	0.0180774
766.499	0.0180726
766.578	0.0179477
766.656	0.0180040
766.734	0.0177717
766.812	0.0175397
766.890	0.0170696
766.968	0.0168494
767.046	0.0166174
767.124	0.0163680
767.203	0.0160983
767.281	0.0155949
767.359	0.0153651
767.437	0.0153412
767.515	0.0151525
767.593	0.0149814
767.671	0.0148766
767.749	0.0147056
767.828	0.0149388
767.906	0.0147064
767.984	0.0149290
768.062	0.0148510
768.140	0.0149142
768.218	0.0150794
768.296	0.0152271
768.374	0.0154913
768.453	0.0156906
768.531	0.0160725
768.609	0.0163010
768.687	0.0166032
768.765	0.0168803
768.843	0.0172137
768.921	0.0174669
768.999	0.0177553
769.078	0.0178991
769.156	0.0180637
769.234	0.0181010
769.312	0.0182713
769.390	0.0184730
769.468	0.0182756
769.546	0.0181073
769.624	0.0180215
769.703	0.0179333
769.781	0.0175251
769.859	0.0173206
769.937	0.0170650
770.015	0.0166187
770.093	0.0163610
770.171	0.0161607
770.249	0.0160006
770.328	0.0156962
770.406	0.0154733
770.484	0.0154041
770.562	0.0154912
770.640	0.0153402
770.718	0.0153680
770.796	0.0154976
770.874	0.0157820
770.953	0.0157121
771.031	0.0159998
771.109	0.0165060
771.187	0.0166405
771.265	0.0168138
771.343	0.0172079
771.421	0.0173535
771.499	0.0175624
771.578	0.0175413
771.656	0.0175907
771.734	0.0174722
771.812	0.0172883
771.890	0.0172746
771.968	0.0171086
772.046	0.0168000
772.124	0.0166178
772.203	0.0162337
772.281	0.0161974
772.359	0.0159990
772.437	0.0159628
772.515	0.0157277
772.593	0.0159090
772.671	0.0156236
772.749	0.0157185
772.828	0.0158931
772.906	0.0158479
772.984	0.0158698
773.062	0.0158665
773.140	0.0159129
773.218	0.0160961
773.296	0.0160560
773.374	0.0162021
773.453	0.0162164
773.531	0.0164201
773.609	0.0164621
773.687	0.0163930
773.765	0.0164257
773.843	0.0165594
773.921	0.0167350
773.999	0.0167495
774.078	0.0167558
774.156	0.0168680
774.234	0.0167110
774.312	0.0168073
774.390	0.0169156
774.468	0.0169973
774.546	0.0168585
774.624	0.0168709
774.703	0.0170625
774.781	0.0172256
774.859	0.0171639
774.937	0.0172771
775.015	0.0174864
775.093	0.0175335
775.171	0.0174889
775.249	0.0175934
775.328	0.0174532
775.406	0.0174498
775.484	0.0174455
775.562	0.0172070
775.640	0.0169076
775.718	0.0168227
775.796	0.0165161
775.874	0.0161934
775.953	0.0160722
776.031	0.0158886
776.109	0.0157320
776.187	0.0156732
776.265	0.0158023
776.343	0.0157394
776.421	0.0156019
776.499	0.0159849
776.578	0.0159985
776.656	0.0160857
776.734	0.0160933
776.812	0.0163319
776.890	0.0165103
776.968	0.0164647
777.046	0.0167719
777.124	0.0168492
777.203	0.0168760
777.281	0.0170227
777.359	0.0170525
777.437	0.0170221
777.515	0.0171512
777.593	0.0171510
777.671	0.0171929
777.749	0.0171774
777.828	0.0169847
777.906	0.0170927
777.984	0.0169666
778.062	0.0169640
778.140	0.0168203
778.218	0.0166039
778.296	0.0166036
778.374	0.0162614
778.453	0.0161000
778.531	0.0160072
778.609	0.0160956
778.687	0.0158025
778.765	0.0155750
778.843	0.0156840
778.921	0.0156836
778.999	0.0156294
779.078	0.0157354
779.156	0.0157200
779.234	0.0158383
779.312	0.0158720
779.390	0.0157919
779.468	0.0158574
779.546	0.0160503
779.624	0.0162520
779.703	0.0163459
779.781	0.0162675
779.859	0.0164585
779.937	0.0166919
780.015	0.0168936
780.093	0.0171436
780.171	0.0170988
780.249	0.0173810
780.328	0.0175921
780.406	0.0176225
780.484	0.0178344
780.562	0.0179668
780.640	0.0178984
780.718	0.0180065
780.796	0.0178642
780.874	0.0179960
780.953	0.0179631
781.031	0.0176665
781.109	0.0176730
781.187	0.0173574
781.265	0.0173122
781.343	0.0170145
781.421	0.0167393
781.499	0.0166248
781.578	0.0165147
781.656	0.0163927
781.734	0.0162260
781.812	0.0162601
781.890	0.0162209
781.968	0.0160358
782.046	0.0160370
782.124	0.0159647
782.203	0.0158675
782.281	0.0157430
782.359	0.0158856
782.437	0.0158946
782.515	0.0158504
782.593	0.0158617
782.671	0.0160577
782.749	0.0160612
782.828	0.0159952
782.906	0.0160629
782.984	0.0160395
783.062	0.0160171
783.140	0.0160527
783.218	0.0161221
783.296	0.0163148
783.374	0.0163804
783.453	0.0163804
783.531	0.0162959
783.609	0.0163115
783.687	0.0164584
783.765	0.0164394
783.843	0.0164400
783.921	0.0162881
783.999	0.0164069
784.078	0.0165719
784.156	0.0167031
784.234	0.0166460
784.312	0.0167678
784.390	0.0166914
784.468	0.0166635
784.546	0.0167665
784.624	0.0166550
784.703	0.0166081
784.781	0.0168065
784.859	0.0167655
784.937	0.0166663
785.015	0.0166895
785.093	0.0166583
785.171	0.0167161
785.249	0.0165984
785.328	0.0164982
785.406	0.0166212
785.484	0.0166113
785.562	0.0165347
785.640	0.0165263
785.718	0.0164767
785.796	0.0165768
785.874	0.0165926
785.953	0.0166172
786.031	0.0168501
786.109	0.0169089
786.187	0.0168842
786.265	0.0170695
786.343	0.0172068
786.421	0.0170708
786.499	0.0170858
786.578	0.0171671
786.656	0.0171432
786.734	0.0170506
786.812	0.0170361
786.890	0.0169511
786.968	0.0168823
787.046	0.0167445
787.124	0.0166492
787.203	0.0165543
787.281	0.0162749
787.359	0.0163332
787.437	0.0162485
787.515	0.0158752
787.593	0.0160983
787.671	0.0160183
787.749	0.0159502
787.828	0.0161474
787.906	0.0160454
787.984	0.0159439
788.062	0.0161337
788.140	0.0162314
788.218	0.0161740
788.296	0.0162788
788.374	0.0163013
788.453	0.0163648
788.531	0.0162631
788.609	0.0162405
788.687	0.0161868
788.765	0.0163158
788.843	0.0163386
788.921	0.0163837
788.999	0.0163245
789.078	0.0165784
789.156	0.0165188
789.234	0.0165709
789.312	0.0165310
789.390	0.0165285
789.468	0.0166512
789.546	0.0168559
789.624	0.0167621
789.703	0.0168480
789.781	0.0170806
789.859	0.0171339
789.937	0.0170179
790.015	0.0170245
790.093	0.0170387
790.171	0.0170719
790.249	0.0169958
790.328	0.0170292
790.406	0.0169673
790.484	0.0166951
790.562	0.0167250
790.640	0.0165828
790.718	0.0165216
790.796	0.0162773
790.874	0.0163204
790.953	0.0162720
791.031	0.0161881
791.109	0.0160419
791.187	0.0160587
791.265	0.0161884
791.343	0.0160531
791.421	0.0159351
791.499	0.0161771
791.578	0.0160333
791.656	0.0161418
791.734	0.0160967
791.812	0.0163409
791.890	0.0162960
791.968	0.0165547
792.046	0.0165520
792.124	0.0166298
792.203	0.0166748
792.281	0.0168272
792.359	0.0169596
792.437	0.0170161
792.515	0.0170322
792.593	0.0171216
792.671	0.0172906
792.749	0.0174111
792.828	0.0172745
792.906	0.0173090
792.984	0.0171757
793.062	0.0171444
793.140	0.0171260
793.218	0.0170802
793.296	0.0169843
793.374	0.0167421
793.453	0.0165087
793.531	0.0164492
793.609	0.0162344
793.687	0.0160596
793.765	0.0160019
793.843	0.0159854
793.921	0.0158525
793.999	0.0157362
794.078	0.0158430
794.156	0.0156873
794.234	0.0158845
794.312	0.0159170
794.390	0.0160758
794.468	0.0160583
794.546	0.0161009
794.624	0.0161492
794.703	0.0162091
794.781	0.0162325
794.859	0.0163416
794.937	0.0163467
795.015	0.0164333
795.093	0.0166140
795.171	0.0166787
795.249	0.0168307
795.328	0.0168576
795.406	0.0169110
795.484	0.0169961
795.562	0.0171779
795.640	0.0171516
795.718	0.0171021
795.796	0.0170631
795.874	0.0171199
795.953	0.0171664
796.031	0.0170709
796.109	0.0171169
796.187	0.0170512
796.265	0.0169138
796.343	0.0169122
796.421	0.0168493
796.499	0.0165048
796.578	0.0164500
796.656	0.0162679
796.734	0.0162536
796.812	0.0161391
796.890	0.0160877
796.968	0.0159145
797.046	0.0160739
797.124	0.0159418
797.203	0.0160365
797.281	0.0159727
797.359	0.0160323
797.437	0.0161048
797.515	0.0162244
797.593	0.0163032
797.671	0.0164146
797.749	0.0164536
797.828	0.0164920
797.906	0.0165778
797.984	0.0167987
798.062	0.0168848
798.140	0.0169701
798.218	0.0170232
798.296	0.0172610
798.374	0.0172413
798.453	0.0171915
798.531	0.0171387
798.609	0.0171605
798.687	0.0171610
798.765	0.0171754
798.843	0.0170701
798.921	0.0169247
798.999	0.0169717
799.078	0.0168569
799.156	0.0166530
799.234	0.0165252
799.312	0.0164174
799.390	0.0162033
799.468	0.0161948
799.546	0.0159361
799.624	0.0159583
799.703	0.0159051
799.781	0.0157082
799.859	0.0158292
799.937	0.0158822
800.015	0.0156717
800.093	0.0157007
800.171	0.0158089
800.249	0.0158913
800.328	0.0160538
800.406	0.0161340
800.484	0.0162170
800.562	0.0162539
800.640	0.0165405
800.718	0.0164910
800.796	0.0164938
800.874	0.0166455
800.953	0.0167764
801.031	0.0169340
801.109	0.0169704
801.187	0.0170069
801.265	0.0171613
801.343	0.0173051
801.421	0.0172577
801.499	0.0171963
801.578	0.0172670
801.656	0.0172107
801.734	0.0173105
801.812	0.0172977
801.890	0.0171324
801.968	0.0171925
802.046	0.0171460
802.124	0.0169517
802.203	0.0168863
802.281	0.0166155
802.359	0.0166094
802.437	0.0163448
802.515	0.0161758
802.593	0.0161085
802.671	0.0160025
802.749	0.0158585
802.828	0.0159452
802.906	0.0158823
802.984	0.0156483
803.062	0.0158107
803.140	0.0158212
803.218	0.0157824
803.296	0.0159284
803.374	0.0161208
803.453	0.0162265
803.531	0.0163446
803.609	0.0164623
803.687	0.0166438
803.765	0.0166804
803.843	0.0168861
803.921	0.0169292
803.999	0.0170066
804.078	0.0171395
804.156	0.0170798
804.234	0.0171902
804.312	0.0171169
804.390	0.0170945
804.468	0.0170208
804.546	0.0169656
804.624	0.0169227
804.703	0.0168539
804.781	0.0167090
804.859	0.0165816
804.937	0.0164393
805.015	0.0164806
805.093	0.0164630
805.171	0.0162154
805.249	0.0163239
805.328	0.0162492
805.406	0.0163412
805.484	0.0164599
805.562	0.0164169
805.640	0.0165713
805.718	0.0164714
805.796	0.0165602
805.874	0.0165355
805.953	0.0166833
806.031	0.0167699
806.109	0.0169247
806.187	0.0166573
806.265	0.0169235
806.343	0.0168804
806.421	0.0168987
806.499	0.0167955
806.578	0.0170002
806.656	0.0168318
806.734	0.0168783
806.812	0.0168066
806.890	0.0166975
806.968	0.0164910
807.046	0.0166399
807.124	0.0165967
807.203	0.0165828
807.281	0.0164322
807.359	0.0162697
807.437	0.0164059
807.515	0.0164375
807.593	0.0163695
807.671	0.0162665
807.749	0.0162103
807.828	0.0162107
807.906	0.0160934
807.984	0.0162624
808.062	0.0162097
808.140	0.0161365
808.218	0.0163126
808.296	0.0161201
808.374	0.0162479
808.453	0.0162716
808.531	0.0163921
808.609	0.0163594
808.687	0.0163776
808.765	0.0163628
808.843	0.0164059
808.921	0.0165282
808.999	0.0165687
809.078	0.0164896
809.156	0.0165556
809.234	0.0166105
809.312	0.0167097
809.390	0.0168176
809.468	0.0169025
809.546	0.0168265
809.624	0.0166822
809.703	0.0169834
809.781	0.0168662
809.859	0.0169871
809.937	0.0168838
810.015	0.0166964
810.093	0.0168487
810.171	0.0167096
810.249	0.0166818
810.328	0.0167163
810.406	0.0165502
810.484	0.0164798
810.562	0.0165726
810.640	0.0165787
810.718	0.0165496
810.796	0.0164618
810.874	0.0164212
810.953	0.0165007
811.031	0.0165053
811.109	0.0166199
811.187	0.0165272
811.265	0.0163608
811.343	0.0164671
811.421	0.0166054
811.499	0.0165401
811.578	0.0164671
811.656	0.0165486
811.734	0.0164606
811.812	0.0164347
811.890	0.0165558
811.968	0.0165205
812.046	0.0165519
812.124	0.0166429
812.203	0.0166016
812.281	0.0166223
812.359	0.0167206
812.437	0.0166373
812.515	0.0167581
812.593	0.0168102
812.671	0.0168511
812.749	0.0167336
812.828	0.0167764
812.906	0.0167536
812.984	0.0168473
813.062	0.0167522
813.140	0.0166489
813.218	0.0166216
813.296	0.0164002
813.374	0.0163670
813.453	0.0164005
813.531	0.0161024
813.609	0.0161310
813.687	0.0162022
813.765	0.0159695
813.843	0.0160197
813.921	0.0160114
813.999	0.0159849
814.078	0.0159117
814.156	0.0158453
814.234	0.0160323
814.312	0.0161732
814.390	0.0162225
814.468	0.0163644
814.546	0.0165101
814.624	0.0164101
814.703	0.0165672
814.781	0.0167416
814.859	0.0168301
814.937	0.0169547
815.015	0.0170876
815.093	0.0172036
815.171	0.0171642
815.249	0.0172842
815.328	0.0172453
815.406	0.0171687
815.484	0.0172811
815.562	0.0171427
815.640	0.0170631
815.718	0.0170139
815.796	0.0169296
815.874	0.0169014
815.953	0.0167781
816.031	0.0166608
816.109	0.0165404
816.187	0.0163688
816.265	0.0162735
816.343	0.0160529
816.421	0.0161002
816.499	0.0161573
816.578	0.0159334
816.656	0.0159834
816.734	0.0160149
816.812	0.0161324
816.890	0.0159615
816.968	0.0158093
817.046	0.0159721
817.124	0.0161445
817.203	0.0162606
817.281	0.0162402
817.359	0.0162840
817.437	0.0165120
817.515	0.0164704
817.593	0.0166108
817.671	0.0167091
817.749	0.0166088
817.828	0.0168013
817.906	0.0168943
817.984	0.0168681
818.062	0.0170665
818.140	0.0170831
818.218	0.0169735
818.296	0.0169186
818.374	0.0171217
818.453	0.0170739
818.531	0.0169631
818.609	0.0169962
818.687	0.0170238
818.765	0.0168554
818.843	0.0168845
818.921	0.0167296
818.999	0.0167056
819.078	0.0166450
819.156	0.0165730
819.234	0.0163464
819.312	0.0163027
819.390	0.0162832
819.468	0.0162078
819.546	0.0161198
819.624	0.0160155
819.703	0.0160354
819.781	0.0161121
819.859	0.0159749
819.937	0.0159695
820.015	0.0160309
820.093	0.0162235
820.171	0.0160441
820.249	0.0162358
820.328	0.0162719
820.406	0.0165298
820.484	0.0165215
820.562	0.0164836
820.640	0.0166948
820.718	0.0167404
820.796	0.0166500
820.874	0.0167704
820.953	0.0169627
821.031	0.0169356
821.109	0.0170401
821.187	0.0168667
821.265	0.0168373
821.343	0.0168399
821.421	0.0168887
821.499	0.0168408
821.578	0.0167333
821.656	0.0168321
821.734	0.0169273
821.812	0.0167590
821.890	0.0167803
821.968	0.0167052
822.046	0.0166363
822.124	0.0166715
822.203	0.0165328
822.281	0.0164104
822.359	0.0163531
822.437	0.0163437
822.515	0.0163559
822.593	0.0163747
822.671	0.0163897
822.749	0.0163054
822.828	0.0163177
822.906	0.0162907
822.984	0.0163861
823.062	0.0163216
823.140	0.0163938
823.218	0.0163001
823.296	0.0164336
823.374	0.0163612
823.453	0.0163937
823.531	0.0166410
823.609	0.0165554
823.687	0.0166627
823.765	0.0165515
823.843	0.0165795
823.921	0.0168173
823.999	0.0168669
824.078	0.0168079
824.156	0.0168157
824.234	0.0167823
824.312	0.0168992
824.390	0.0168859
824.468	0.0167742
824.546	0.0167302
824.624	0.0167103
824.703	0.0166273
824.781	0.0164867
824.859	0.0164812
824.937	0.0163954
825.015	0.0163852
825.093	0.0164614
825.171	0.0162052
825.249	0.0162969
825.328	0.0163857
825.406	0.0164450
825.484	0.0163712
825.562	0.0162366
825.640	0.0164495
825.718	0.0163786
825.796	0.0165193
825.874	0.0164998
825.953	0.0166196
826.031	0.0168619
826.109	0.0166112
826.187	0.0166680
826.265	0.0167614
826.343	0.0167858
826.421	0.0166372
826.499	0.0167323
826.578	0.0167004
826.656	0.0167638
826.734	0.0167593
826.812	0.0167758
826.890	0.0166943
826.968	0.0166023
827.046	0.0165830
827.124	0.0165078
827.203	0.0163938
827.281	0.0164512
827.359	0.0165038
827.437	0.0162484
827.515	0.0163565
827.593	0.0163443
827.671	0.0162566
827.749	0.0162002
827.828	0.0162838
827.906	0.0162402
827.984	0.0163376
828.062	0.0164408
828.140	0.0162827
828.218	0.0162256
828.296	0.0163949
828.374	0.0164288
828.453	0.0165260
828.531	0.0166033
828.609	0.0165508
828.687	0.0166436
828.765	0.0167747
828.843	0.0167399
828.921	0.0167986
828.999	0.0169244
829.078	0.0168665
829.156	0.0167883
829.234	0.0169818
829.312	0.0169408
829.390	0.0168821
829.468	0.0168483
829.546	0.0168377
829.624	0.0169991
829.703	0.0167306
829.781	0.0167216
829.859	0.0166800
829.937	0.0167323
830.015	0.0165779
830.093	0.0164747
830.171	0.0164647
830.249	0.0164221
830.328	0.0163542
830.406	0.0165101
830.484	0.0164193
830.562	0.0162416
830.640	0.0163037
830.718	0.0162107
830.796	0.0163628
830.874	0.0164344
830.953	0.0163802
831.031	0.0162970
831.109	0.0164957
831.187	0.0163947
831.265	0.0164659
831.343	0.0163715
831.421	0.0166888
831.499	0.0164832
831.578	0.0165179
831.656	0.0164714
831.734	0.0164547
831.812	0.0164403
831.890	0.0166589
831.968	0.0167194
832.046	0.0166711
832.124	0.0165476
832.203	0.0165517
832.281	0.0165991
832.359	0.0166111
832.437	0.0166937
832.515	0.0167208
832.593	0.0166408
832.671	0.0166853
832.749	0.0166148
832.828	0.0166534
832.906	0.0168074
832.984	0.0166982
833.062	0.0164758
833.140	0.0165354
833.218	0.0165108
833.296	0.0165390
833.374	0.0163878
833.453	0.0163556
833.531	0.0164788
833.609	0.0164060
833.687	0.0163163
833.765	0.0163105
833.843	0.0164864
833.921	0.0164585
833.999	0.0163731
834.078	0.0164857
834.156	0.0165002
834.234	0.0166927
834.312	0.0166502
834.390	0.0166055
834.468	0.0165675
834.546	0.0166792
834.624	0.0167503
834.703	0.0166418
834.781	0.0166642
834.859	0.0169162
834.937	0.0167838
835.015	0.0165779
835.093	0.0167729
835.171	0.0167577
835.249	0.0166451
835.328	0.0165780
835.406	0.0165445
835.484	0.0165066
835.562	0.0166164
835.640	0.0162878
835.718	0.0162827
835.796	0.0162629
835.874	0.0163290
835.953	0.0162772
836.031	0.0162143
836.109	0.0163326
836.187	0.0163244
836.265	0.0162140
836.343	0.0163033
836.421	0.0162458
836.499	0.0162992
836.578	0.0165482
836.656	0.0164687
836.734	0.0164204
836.812	0.0165517
836.890	0.0166698
836.968	0.0166666
837.046	0.0167120
837.124	0.0165810
837.203	0.0166282
837.281	0.0166369
837.359	0.0166725
837.437	0.0165728
837.515	0.0165426
837.593	0.0166496
837.671	0.0167284
837.749	0.0167123
837.828	0.0167015
837.906	0.0165756
837.984	0.0165446
838.062	0.0167140
838.140	0.0165498
838.218	0.0165916
838.296	0.0165485
838.374	0.0166007
838.453	0.0165089
838.531	0.0164536
838.609	0.0164936
838.687	0.0164572
838.765	0.0165932
838.843	0.0164761
838.921	0.0164207
838.999	0.0165376
839.078	0.0163991
839.156	0.0163017
839.234	0.0164175
839.312	0.0163972
839.390	0.0163834
839.468	0.0165182
839.546	0.0164890
839.624	0.0163178
839.703	0.0163664
839.781	0.0164642
839.859	0.0164167
839.937	0.0166407
840.015	0.0166466
840.093	0.0165311
840.171	0.0166014
840.249	0.0167014
840.328	0.0166607
840.406	0.0165942
840.484	0.0165573
840.562	0.0165257
840.640	0.0165362
840.718	0.0165823
840.796	0.0165306
840.874	0.0165402
840.953	0.0164767
841.031	0.0164674
841.109	0.0164851
841.187	0.0163136
841.265	0.0164923
841.343	0.0165249
841.421	0.0165824
841.499	0.0165572
841.578	0.0165593
841.656	0.0167357
841.734	0.0167743
841.812	0.0167932
841.890	0.0167580
841.968	0.0167473
842.046	0.0167861
842.124	0.0166598
842.203	0.0166196
842.281	0.0165550
842.359	0.0165643
842.437	0.0165983
842.515	0.0165536
842.593	0.0164069
842.671	0.0163535
842.749	0.0163548
842.828	0.0162495
842.906	0.0160448
842.984	0.0160960
843.062	0.0160995
843.140	0.0158418
843.218	0.0159812
843.296	0.0160670
843.374	0.0161313
843.453	0.0161266
843.531	0.0163056
843.609	0.0164005
843.687	0.0164478
843.765	0.0167329
843.843	0.0168602
843.921	0.0168969
843.999	0.0169077
844.078	0.0170694
844.156	0.0170921
844.234	0.0170396
844.312	0.0171349
844.390	0.0173128
844.468	0.0172768
844.546	0.0171889
844.624	0.0173831
844.703	0.0175034
844.781	0.0173116
844.859	0.0172837
844.937	0.0171836
845.015	0.0168882
845.093	0.0169894
845.171	0.0166868
845.249	0.0164198
845.328	0.0162751
845.406	0.0161250
845.484	0.0158800
845.562	0.0157967
845.640	0.0156021
845.718	0.0155102
845.796	0.0154269
845.874	0.0154715
845.953	0.0154192
846.031	0.0155908
846.109	0.0157658
846.187	0.0157247
846.265	0.0159743
846.343	0.0160860
846.421	0.0163236
846.499	0.0163728
846.578	0.0166566
846.656	0.0167651
846.734	0.0167986
846.812	0.0170034
846.890	0.0172159
846.968	0.0173362
847.046	0.0173209
847.124	0.0175940
847.203	0.0174961
847.281	0.0173810
847.359	0.0172372
847.437	0.0172176
847.515	0.0172562
847.593	0.0171528
847.671	0.0169897
847.749	0.0170068
847.828	0.0168059
847.906	0.0166307
847.984	0.0164429
848.062	0.0160858
848.140	0.0162896
848.218	0.0161787
848.296	0.0159830
848.374	0.0158833
848.453	0.0158849
848.531	0.0158969
848.609	0.0159243
848.687	0.0158163
848.765	0.0159170
848.843	0.0160252
848.921	0.0161411
848.999	0.0163975
849.078	0.0164075
849.156	0.0166736
849.234	0.0167440
849.312	0.0169420
849.390	0.0169271
849.468	0.0171127
849.546	0.0173055
849.624	0.0172619
849.703	0.0171781
849.781	0.0172633
849.859	0.0172362
849.937	0.0171634
850.015	0.0169607
850.093	0.0168786
850.171	0.0169807
850.249	0.0167535
850.328	0.0165158
850.406	0.0166618
850.484	0.0164327
850.562	0.0163362
850.640	0.0161290
850.718	0.0161301
850.796	0.0161074
850.874	0.0159565
850.953	0.0159093
851.031	0.0159658
851.109	0.0159074
851.187	0.0157648
851.265	0.0157999
851.343	0.0159840
851.421	0.0160535
851.499	0.0159491
851.578	0.0160907
851.656	0.0161031
851.734	0.0162215
851.812	0.0163403
851.890	0.0165056
851.968	0.0165930
852.046	0.0165718
852.124	0.0168974
852.203	0.0168715
852.281	0.0171136
852.359	0.0172219
852.437	0.0171329
852.515	0.0171726
852.593	0.0172523
852.671	0.0172420
852.749	0.0171796
852.828	0.0170721
852.906	0.0169717
852.984	0.0168779
853.062	0.0169438
853.140	0.0168141
853.218	0.0166511
853.296	0.0166290
853.374	0.0164056
853.453	0.0163168
853.531	0.0162044
853.609	0.0161323
853.687	0.0161929
853.765	0.0161272
853.843	0.0161507
853.921	0.0162074
853.999	0.0161162
854.078	0.0162251
854.156	0.0161887
854.234	0.0162272
854.312	0.0163010
854.390	0.0162166
854.468	0.0163718
854.546	0.0164583
854.624	0.0163702
854.703	0.0164835
854.781	0.0164729
854.859	0.0165478
854.937	0.0165200
855.015	0.0166109
855.093	0.0166578
855.171	0.0166875
855.249	0.0166673
855.328	0.0168082
855.406	0.0167727
855.484	0.0167545
855.562	0.0168542
855.640	0.0169487
855.718	0.0168349
855.796	0.0169027
855.874	0.0168780
855.953	0.0168341
856.031	0.0168255
856.109	0.0167830
856.187	0.0169008
856.265	0.0167732
856.343	0.0166177
856.421	0.0167030
856.499	0.0166457
856.578	0.0164785
856.656	0.0164449
856.734	0.0165797
856.812	0.0164944
856.890	0.0164542
856.968	0.0164607
857.046	0.0164223
857.124	0.0164043
857.203	0.0163235
857.281	0.0163905
857.359	0.0162813
857.437	0.0163698
857.515	0.0165166
857.593	0.0165081
857.671	0.0165335
857.749	0.0165154
857.828	0.0165472
857.906	0.0166767
857.984	0.0167392
858.062	0.0167582
858.140	0.0166341
858.218	0.0166549
858.296	0.0167652
858.374	0.0167788
858.453	0.0166652
858.531	0.0167322
858.609	0.0166154
858.687	0.0166228
858.765	0.0166235
858.843	0.0165060
858.921	0.0165340
858.999	0.0165149
859.078	0.0165141
859.156	0.0164283
859.234	0.0164001
859.312	0.0165864
859.390	0.0166505
859.468	0.0164410
859.546	0.0164800
859.624	0.0163223
859.703	0.0165237
859.781	0.0165356
859.859	0.0165566
859.937	0.0165768
860.015	0.0166184
860.093	0.0167642
860.171	0.0165678
860.249	0.0167946
860.328	0.0166737
860.406	0.0165426
860.484	0.0167740
860.562	0.0167066
860.640	0.0165574
860.718	0.0165749
860.796	0.0166899
860.874	0.0166563
860.953	0.0166454
861.031	0.0165699
861.109	0.0166225
861.187	0.0166435
861.265	0.0166443
861.343	0.0166724
861.421	0.0164754
861.499	0.0164995
861.578	0.0165506
861.656	0.0164344
861.734	0.0164675
861.812	0.0165023
861.890	0.0164940
861.968	0.0164357
862.046	0.0163091
862.124	0.0164573
862.203	0.0163727
862.281	0.0164275
862.359	0.0165305
862.437	0.0164114
862.515	0.0163782
862.593	0.0165605
862.671	0.0166383
862.749	0.0165750
862.828	0.0165700
862.906	0.0167123
862.984	0.0165957
863.062	0.0167979
863.140	0.0168034
863.218	0.0168726
863.296	0.0165988
863.374	0.0167987
863.453	0.0168452
863.531	0.0167276
863.609	0.0167265
863.687	0.0165662
863.765	0.0164918
863.843	0.0164240
863.921	0.0165503
863.999	0.0165234
864.078	0.0163239
864.156	0.0163877
864.234	0.0163063
864.312	0.0162749
864.390	0.0163314
864.468	0.0163390
864.546	0.0162537
864.624	0.0162591
864.703	0.0163093
864.781	0.0165218
864.859	0.0163946
864.937	0.0165105
865.015	0.0165916
865.093	0.0167072
865.171	0.0167622
865.249	0.0168034
865.328	0.0167326
865.406	0.0167474
865.484	0.0168714
865.562	0.0170193
865.640	0.0168051
865.718	0.0169082
865.796	0.0169553
865.874	0.0168372
865.953	0.0169191
866.031	0.0168027
866.109	0.0168034
866.187	0.0166777
866.265	0.0166725
866.343	0.0165370
866.421	0.0165121
866.499	0.0164841
866.578	0.0163860
866.656	0.0163207
866.734	0.0163966
866.812	0.0163494
866.890	0.0163235
866.968	0.0161874
867.046	0.0160508
867.124	0.0162032
867.203	0.0162073
867.281	0.0162451
867.359	0.0161752
867.437	0.0163490
867.515	0.0161630
867.593	0.0162909
867.671	0.0164197
867.749	0.0164256
867.828	0.0164433
867.906	0.0164972
867.984	0.0164801
868.062	0.0166763
868.140	0.0166290
868.218	0.0166656
868.296	0.0168252
868.374	0.0167621
868.453	0.0167713
868.531	0.0168711
868.609	0.0168064
868.687	0.0169073
868.765	0.0169553
868.843	0.0167545
868.921	0.0167044
868.999	0.0165299
869.078	0.0166773
869.156	0.0165208
869.234	0.0163683
869.312	0.0164189
869.390	0.0162756
869.468	0.0163042
869.546	0.0161373
869.624	0.0162680
869.703	0.0162090
869.781	0.0161164
869.859	0.0161165
869.937	0.0161721
870.015	0.0161423
870.093	0.0162569
870.171	0.0163612
870.249	0.0161797
870.328	0.0164227
870.406	0.0164915
870.484	0.0166430
870.562	0.0165254
870.640	0.0166669
870.718	0.0167137
870.796	0.0167697
870.874	0.0168847
870.953	0.0168603
871.031	0.0168831
871.109	0.0168538
871.187	0.0168916
871.265	0.0169444
871.343	0.0168980
871.421	0.0168126
871.499	0.0167336
871.578	0.0168272
871.656	0.0168699
871.734	0.0167638
871.812	0.0167990
871.890	0.0168584
871.968	0.0167622
872.046	0.0167321
872.124	0.0167612
872.203	0.0167567
872.281	0.0167082
872.359	0.0166896
872.437	0.0166658
872.515	0.0165765
872.593	0.0165373
872.671	0.0165115
872.749	0.0164867
872.828	0.0163949
872.906	0.0162808
872.984	0.0161892
873.062	0.0162568
873.140	0.0163347
873.218	0.0162537
873.296	0.0162195
873.374	0.0162357
873.453	0.0162065
873.531	0.0162911
873.609	0.0163059
873.687	0.0163184
873.765	0.0163194
873.843	0.0164639
873.921	0.0163041
873.999	0.0164872
874.078	0.0165372
874.156	0.0165494
874.234	0.0164587
874.312	0.0166349
874.390	0.0166979
874.468	0.0163638
874.546	0.0164943
874.624	0.0165573
874.703	0.0166161
874.781	0.0165267
874.859	0.0166203
874.937	0.0166327
875.015	0.0166364
875.093	0.0166576
875.171	0.0165385
875.249	0.0165582
875.328	0.0166160
875.406	0.0166601
875.484	0.0164734
875.562	0.0165190
875.640	0.0166014
875.718	0.0164458
875.796	0.0164754
875.874	0.0164174
875.953	0.0164452
876.031	0.0163995
876.109	0.0162481
876.187	0.0163674
876.265	0.0165490
876.343	0.0163522
876.421	0.0164378
876.499	0.0165015
876.578	0.0165736
876.656	0.0167206
876.734	0.0166138
876.812	0.0167122
876.890	0.0168673
876.968	0.0166777
877.046	0.0168291
877.124	0.0167854
877.203	0.0166769
877.281	0.0168354
877.359	0.0167718
877.437	0.0167452
877.515	0.0169841
877.593	0.0166679
877.671	0.0168423
877.749	0.0168697
877.828	0.0167773
877.906	0.0168718
877.984	0.0165807
878.062	0.0166453
878.140	0.0167023
878.218	0.0166312
878.296	0.0165299
878.374	0.0167363
878.453	0.0166384
878.531	0.0165185
878.609	0.0164803
878.687	0.0164381
878.765	0.0164089
878.843	0.0163599
878.921	0.0163908
878.999	0.0161925
879.078	0.0161354
879.156	0.0162389
879.234	0.0162363
879.312	0.0163894
879.390	0.0163409
879.468	0.0162652
879.546	0.0163150
879.624	0.0163362
879.703	0.0164229
879.781	0.0165028
879.859	0.0165210
879.937	0.0163496
880.015	0.0163461
880.093	0.0165031
880.171	0.0165868
880.249	0.0166577
880.328	0.0166248
880.406	0.0167371
880.484	0.0166586
880.562	0.0165363
880.640	0.0166483
880.718	0.0165720
880.796	0.0167111
880.874	0.0166926
880.953	0.0166348
881.031	0.0165238
881.109	0.0165565
881.187	0.0166502
881.265	0.0165845
881.343	0.0165849
881.421	0.0166511
881.499	0.0165768
881.578	0.0165681
881.656	0.0167215
881.734	0.0165914
881.812	0.0165977
881.890	0.0165474
881.968	0.0167073
882.046	0.0166799
882.124	0.0165983
882.203	0.0166047
882.281	0.0166892
882.359	0.0166288
882.437	0.0166743
882.515	0.0166504
882.593	0.0166001
882.671	0.0167262
882.749	0.0168234
882.828	0.0166869
882.906	0.0167634
882.984	0.0168582
883.062	0.0167313
883.140	0.0166956
883.218	0.0167557
883.296	0.0168102
883.374	0.0167035
883.453	0.0165965
883.531	0.0166257
883.609	0.0167053
883.687	0.0166671
883.765	0.0166261
883.843	0.0165684
883.921	0.0165028
883.999	0.0166076
884.078	0.0165701
884.156	0.0164336
884.234	0.0163567
884.312	0.0164026
884.390	0.0163382
884.468	0.0162507
884.546	0.0163483
884.624	0.0164528
884.703	0.0163851
884.781	0.0164587
884.859	0.0164695
884.937	0.0165143
885.015	0.0165816
885.093	0.0166142
885.171	0.0167353
885.249	0.0167008
885.328	0.0166572
885.406	0.0167339
885.484	0.0167521
885.562	0.0167980
885.640	0.0167448
885.718	0.0167543
885.796	0.0167351
885.874	0.0166925
885.953	0.0168040
886.031	0.0165469
886.109	0.0164939
886.187	0.0165754
886.265	0.0164504
886.343	0.0164908
886.421	0.0164369
886.499	0.0163956
886.578	0.0163075
886.656	0.0163071
886.734	0.0162679
886.812	0.0162110
886.890	0.0163007
886.968	0.0162691
887.046	0.0162231
887.124	0.0163441
887.203	0.0162647
887.281	0.0163313
887.359	0.0163885
887.437	0.0163985
887.515	0.0164673
887.593	0.0165126
887.671	0.0163991
887.749	0.0165820
887.828	0.0165162
887.906	0.0165594
887.984	0.0165952
888.062	0.0166691
888.140	0.0167902
888.218	0.0167739
888.296	0.0167455
888.374	0.0167004
888.453	0.0168270
888.531	0.0166720
888.609	0.0167532
888.687	0.0167334
888.765	0.0168202
888.843	0.0167751
888.921	0.0166231
888.999	0.0167383
889.078	0.0167842
889.156	0.0165502
889.234	0.0166206
889.312	0.0165692
889.390	0.0166005
889.468	0.0165607
889.546	0.0164537
889.624	0.0165311
889.703	0.0165424
889.781	0.0165816
889.859	0.0163987
889.937	0.0163142
890.015	0.0166222
890.093	0.0163898
890.171	0.0164016
890.249	0.0163679
890.328	0.0163425
890.406	0.0166778
890.484	0.0166173
890.562	0.0164497
890.640	0.0164720
890.718	0.0166467
890.796	0.0166448
890.874	0.0166348
890.953	0.0165777
891.031	0.0166481
891.109	0.0166519
891.187	0.0165675
891.265	0.0165062
891.343	0.0167170
891.421	0.0165739
891.499	0.0166278
891.578	0.0164899
891.656	0.0164952
891.734	0.0164645
891.812	0.0165993
891.890	0.0165304
891.968	0.0164643
892.046	0.0164980
892.124	0.0164099
892.203	0.0164863
892.281	0.0164256
892.359	0.0163686
892.437	0.0162776
892.515	0.0164354
892.593	0.0165379
892.671	0.0164931
892.749	0.0165058
892.828	0.0164042
892.906	0.0165793
892.984	0.0164571
893.062	0.0164626
893.140	0.0163810
893.218	0.0165086
893.296	0.0166360
893.374	0.0164587
893.453	0.0164626
893.531	0.0164567
893.609	0.0163390
893.687	0.0163937
893.765	0.0163499
893.843	0.0165757
893.921	0.0164929
893.999	0.0163824
894.078	0.0163879
894.156	0.0165680
894.234	0.0163917
894.312	0.0164191
894.390	0.0165945
894.468	0.0163904
894.546	0.0164685
894.624	0.0164641
894.703	0.0166294
894.781	0.0165041
894.859	0.0165132
894.937	0.0166225
895.015	0.0165488
895.093	0.0164462
895.171	0.0166107
895.249	0.0166669
895.328	0.0167729
895.406	0.0166434
895.484	0.0165664
895.562	0.0165331
895.640	0.0164949
895.718	0.0165076
895.796	0.0165671
895.874	0.0165537
895.953	0.0166055
896.031	0.0165666
896.109	0.0164320
896.187	0.0164771
896.265	0.0164686
896.343	0.0164902
896.421	0.0164574
896.499	0.0164783
896.578	0.0164566
896.656	0.0165569
896.734	0.0165344
896.812	0.0164236
896.890	0.0164210
896.968	0.0166085
897.046	0.0165961
897.124	0.0166570
897.203	0.0165170
897.281	0.0167352
897.359	0.0166590
897.437	0.0167987
897.515	0.0165742
897.593	0.0167527
897.671	0.0167156
897.749	0.0166670
897.828	0.0166773
897.906	0.0165953
897.984	0.0167253
898.062	0.0166633
898.140	0.0166425
898.218	0.0167151
898.296	0.0167397
898.374	0.0165655
898.453	0.0167041
898.531	0.0166305
898.609	0.0165560
898.687	0.0165268
898.765	0.0164672
898.843	0.0164333
898.921	0.0163589
898.999	0.0164397
899.078	0.0163860
899.156	0.0163882
899.234	0.0163386
899.312	0.0163815
899.390	0.0164464
899.468	0.0163233
899.546	0.0164331
899.624	0.0164432
899.703	0.0164294
899.781	0.0165099
899.859	0.0165583
899.937	0.0164497
900.015	0.0166510
900.093	0.0165881
900.171	0.0166838
900.249	0.0165691
900.328	0.0166194
900.406	0.0166547
900.484	0.0166195
900.562	0.0165392
900.640	0.0166801
900.718	0.0164342
900.796	0.0166922
900.874	0.0168246
900.953	0.0165647
901.031	0.0165395
901.109	0.0165519
901.187	0.0166232
901.265	0.0165073
901.343	0.0165197
901.421	0.0164406
901.499	0.0164695
901.578	0.0165060
901.656	0.0165511
901.734	0.0165015
901.812	0.0164194
901.890	0.0164381
901.968	0.0165977
902.046	0.0167151
902.124	0.0165531
902.203	0.0166138
902.281	0.0166946
902.359	0.0166489
902.437	0.0165691
902.515	0.0165199
902.593	0.0166788
902.671	0.0167178
902.749	0.0165302
902.828	0.0166534
902.906	0.0164460
902.984	0.0163248
903.062	0.0166101
903.140	0.0166393
903.218	0.0165237
903.296	0.0163369
903.374	0.0163012
903.453	0.0164008
903.531	0.0164276
903.609	0.0162756
903.687	0.0162955
903.765	0.0163313
903.843	0.0162792
903.921	0.0164446
903.999	0.0163779
904.078	0.0162530
904.156	0.0164493
904.234	0.0165936
904.312	0.0164542
904.390	0.0165173
904.468	0.0165623
904.546	0.0166672
904.624	0.0165921
904.703	0.0165173
904.781	0.0166990
904.859	0.0166785
904.937	0.0166566
905.015	0.0165073
905.093	0.0166496
905.171	0.0166218
905.249	0.0166858
905.328	0.0167527
905.406	0.0167749
905.484	0.0166707
905.562	0.0166901
905.640	0.0165254
905.718	0.0165108
905.796	0.0165755
905.874	0.0167333
905.953	0.0164650
906.031	0.0166415
906.109	0.0165069
906.187	0.0165206
906.265	0.0165344
906.343	0.0163999
906.421	0.0166453
906.499	0.0165144
906.578	0.0164847
906.656	0.0165592
906.734	0.0166030
906.812	0.0165891
906.890	0.0165173
906.968	0.0164688
907.046	0.0165031
907.124	0.0164583
907.203	0.0166825
907.281	0.0166113
907.359	0.0165102
907.437	0.0166738
907.515	0.0165504
907.593	0.0165559
907.671	0.0165375
907.749	0.0165195
907.828	0.0166042
907.906	0.0164326
907.984	0.0165748
908.062	0.0165786
908.140	0.0166229
908.218	0.0165859
908.296	0.0166186
908.374	0.0166271
908.453	0.0167492
908.531	0.0166339
908.609	0.0167298
908.687	0.0167208
908.765	0.0168774
908.843	0.0168240
908.921	0.0167098
908.999	0.0167009
909.078	0.0167319
909.156	0.0166123
909.234	0.0166389
909.312	0.0167239
909.390	0.0165432
909.468	0.0165533
909.546	0.0165357
909.624	0.0165263
909.703	0.0164709
909.781	0.0163609
909.859	0.0162662
909.937	0.0165021
910.015	0.0161970
910.093	0.0162976
910.171	0.0163065
910.249	0.0162711
910.328	0.0162721
910.406	0.0162637
910.484	0.0162788
910.562	0.0162093
910.640	0.0163623
910.718	0.0165948
910.796	0.0165540
910.874	0.0165549
910.953	0.0165012
911.031	0.0168002
911.109	0.0166297
911.187	0.0165733
911.265	0.0167532
911.343	0.0168085
911.421	0.0168897
911.499	0.0167690
911.578	0.0168763
911.656	0.0168380
911.734	0.0169348
911.812	0.0169395
911.890	0.0166685
911.968	0.0167262
912.046	0.0167117
912.124	0.0167788
912.203	0.0165842
912.281	0.0165311
912.359	0.0164875
912.437	0.0164685
912.515	0.0163908
912.593	0.0163684
912.671	0.0163345
912.749	0.0164722
912.828	0.0163183
912.906	0.0163876
912.984	0.0163203
913.062	0.0164658
913.140	0.0164126
913.218	0.0164270
913.296	0.0164534
913.374	0.0164539
913.453	0.0165242
913.531	0.0165405
913.609	0.0165912
913.687	0.0164700
913.765	0.0167390
913.843	0.0167023
913.921	0.0166248
913.999	0.0167554
914.078	0.0165829
914.156	0.0166058
914.234	0.0165835
914.312	0.0165723
914.390	0.0165562
914.468	0.0165639
914.546	0.0165038
914.624	0.0166100
914.703	0.0164301
914.781	0.0166199
914.859	0.0164919
914.937	0.0165073
915.015	0.0164988
915.093	0.0165849
915.171	0.0165147
915.249	0.0164420
915.328	0.0165697
915.406	0.0165976
915.484	0.0165900
915.562	0.0165321
915.640	0.0165186
915.718	0.0165561
915.796	0.0165656
915.874	0.0167011
915.953	0.0165378
916.031	0.0166030
916.109	0.0166102
916.187	0.0165380
916.265	0.0166951
916.343	0.0165545
916.421	0.0165902
916.499	0.0165540
916.578	0.0165195
916.656	0.0164902
916.734	0.0165511
916.812	0.0165855
916.890	0.0165759
916.968	0.0165424
917.046	0.0164867
917.124	0.0165391
917.203	0.0164900
917.281	0.0164462
917.359	0.0165287
917.437	0.0164523
917.515	0.0164917
917.593	0.0165449
917.671	0.0164708
917.749	0.0164811
917.828	0.0164697
917.906	0.0165421
917.984	0.0165393
918.062	0.0165731
918.140	0.0165790
918.218	0.0166507
918.296	0.0166164
918.374	0.0164683
918.453	0.0167580
918.531	0.0168463
918.609	0.0165698
918.687	0.0167257
918.765	0.0166730
918.843	0.0167351
918.921	0.0166670
918.999	0.0166742
919.078	0.0166513
919.156	0.0165640
919.234	0.0166494
919.312	0.0167255
919.390	0.0166117
919.468	0.0166360
919.546	0.0165746
919.624	0.0167225
919.703	0.0166904
919.781	0.0165869
919.859	0.0165166
919.937	0.0165208
