06/10/2022	18:32:44	Ver.	4.1	UNKNOWN
Optical Delay	600.015094	Delta X		0.078125	Sweeps	1	Scan Rate	0/0
Coordinates	Axis 1	NaN	Axis 2	NaN	Axis 3	NaN	Axis 4	NaN	Axis 5	NaN	Axis 6	0.000000
TX Power	0.000000	RX Power	0.000000

600.015	0.0161996
600.093	0.0162309
600.171	0.0163155
600.249	0.0161332
600.328	0.0162083
600.406	0.0162386
600.484	0.0161742
600.562	0.0162919
600.640	0.0161666
600.718	0.0161945
600.796	0.0162730
600.874	0.0162955
600.953	0.0162844
601.031	0.0162954
601.109	0.0162029
601.187	0.0161732
601.265	0.0162054
601.343	0.0162757
601.421	0.0161369
601.499	0.0162360
601.578	0.0161243
601.656	0.0162067
601.734	0.0162544
601.812	0.0162405
601.890	0.0161070
601.968	0.0161136
602.046	0.0162090
602.124	0.0162370
602.203	0.0163050
602.281	0.0161845
602.359	0.0162987
602.437	0.0162533
602.515	0.0162338
602.593	0.0163213
602.671	0.0162901
602.749	0.0162272
602.828	0.0161946
602.906	0.0160538
602.984	0.0161826
603.062	0.0162866
603.140	0.0161941
603.218	0.0161728
603.296	0.0161388
603.374	0.0163589
603.453	0.0163306
603.531	0.0162906
603.609	0.0162241
603.687	0.0162561
603.765	0.0161419
603.843	0.0161442
603.921	0.0161642
603.999	0.0161583
604.078	0.0162566
604.156	0.0163199
604.234	0.0161833
604.312	0.0161200
604.390	0.0161822
604.468	0.0161517
604.546	0.0161874
604.624	0.0161976
604.703	0.0162234
604.781	0.0162547
604.859	0.0160425
604.937	0.0162501
605.015	0.0162574
605.093	0.0161673
605.171	0.0162582
605.249	0.0162468
605.328	0.0161405
605.406	0.0161336
605.484	0.0162594
605.562	0.0162627
605.640	0.0161730
605.718	0.0162407
605.796	0.0162688
605.874	0.0161433
605.953	0.0160841
606.031	0.0162183
606.109	0.0162115
606.187	0.0162135
606.265	0.0161005
606.343	0.0162437
606.421	0.0161856
606.499	0.0161824
606.578	0.0162058
606.656	0.0162251
606.734	0.0161942
606.812	0.0163120
606.890	0.0161412
606.968	0.0160640
607.046	0.0161703
607.124	0.0161326
607.203	0.0162257
607.281	0.0162116
607.359	0.0161733
607.437	0.0161786
607.515	0.0163240
607.593	0.0161697
607.671	0.0161058
607.749	0.0161909
607.828	0.0161900
607.906	0.0162909
607.984	0.0161714
608.062	0.0161176
608.140	0.0163253
608.218	0.0161840
608.296	0.0162194
608.374	0.0161179
608.453	0.0160836
608.531	0.0160698
608.609	0.0162115
608.687	0.0162153
608.765	0.0162823
608.843	0.0162625
608.921	0.0162153
608.999	0.0161156
609.078	0.0162049
609.156	0.0163116
609.234	0.0161562
609.312	0.0162125
609.390	0.0160764
609.468	0.0161189
609.546	0.0161846
609.624	0.0163962
609.703	0.0161999
609.781	0.0162628
609.859	0.0162836
609.937	0.0162534
610.015	0.0162688
610.093	0.0162330
610.171	0.0161343
610.249	0.0162900
610.328	0.0161068
610.406	0.0163173
610.484	0.0164474
610.562	0.0161851
610.640	0.0161788
610.718	0.0162121
610.796	0.0160849
610.874	0.0161781
610.953	0.0162122
611.031	0.0162601
611.109	0.0161660
611.187	0.0162055
611.265	0.0161651
611.343	0.0161269
611.421	0.0161658
611.499	0.0161518
611.578	0.0160447
611.656	0.0161305
611.734	0.0161295
611.812	0.0160867
611.890	0.0161567
611.968	0.0163161
612.046	0.0162060
612.124	0.0162434
612.203	0.0160993
612.281	0.0162516
612.359	0.0162411
612.437	0.0161856
612.515	0.0161877
612.593	0.0161005
612.671	0.0162099
612.749	0.0162639
612.828	0.0163670
612.906	0.0163680
612.984	0.0161430
613.062	0.0162351
613.140	0.0163173
613.218	0.0162659
613.296	0.0162019
613.374	0.0162457
613.453	0.0162190
613.531	0.0161201
613.609	0.0162446
613.687	0.0163053
613.765	0.0162067
613.843	0.0163319
613.921	0.0161898
613.999	0.0162991
614.078	0.0161858
614.156	0.0163044
614.234	0.0160637
614.312	0.0163055
614.390	0.0162987
614.468	0.0160888
614.546	0.0161619
614.624	0.0162463
614.703	0.0162585
614.781	0.0162609
614.859	0.0163653
614.937	0.0162723
615.015	0.0161816
615.093	0.0162610
615.171	0.0161931
615.249	0.0162200
615.328	0.0161763
615.406	0.0161640
615.484	0.0163238
615.562	0.0162079
615.640	0.0161607
615.718	0.0162199
615.796	0.0163128
615.874	0.0162931
615.953	0.0161993
616.031	0.0162108
616.109	0.0161191
616.187	0.0161412
616.265	0.0162768
616.343	0.0162328
616.421	0.0162482
616.499	0.0161313
616.578	0.0161954
616.656	0.0161005
616.734	0.0162846
616.812	0.0164124
616.890	0.0162591
616.968	0.0161286
617.046	0.0162488
617.124	0.0161497
617.203	0.0161897
617.281	0.0162477
617.359	0.0162320
617.437	0.0162084
617.515	0.0161837
617.593	0.0161576
617.671	0.0161983
617.749	0.0162715
617.828	0.0162298
617.906	0.0162753
617.984	0.0162309
618.062	0.0162477
618.140	0.0162809
618.218	0.0162581
618.296	0.0163078
618.374	0.0161969
618.453	0.0161803
618.531	0.0162504
618.609	0.0163246
618.687	0.0162260
618.765	0.0161916
618.843	0.0162164
618.921	0.0162519
618.999	0.0162694
619.078	0.0162947
619.156	0.0161772
619.234	0.0162609
619.312	0.0162540
619.390	0.0161880
619.468	0.0163863
619.546	0.0162349
619.624	0.0160513
619.703	0.0162224
619.781	0.0162038
619.859	0.0162137
619.937	0.0161672
620.015	0.0162197
620.093	0.0161809
620.171	0.0162673
620.249	0.0162525
620.328	0.0161008
620.406	0.0163229
620.484	0.0162620
620.562	0.0161611
620.640	0.0161765
620.718	0.0163469
620.796	0.0162090
620.874	0.0161681
620.953	0.0163022
621.031	0.0161750
621.109	0.0162152
621.187	0.0163103
621.265	0.0163371
621.343	0.0161910
621.421	0.0162447
621.499	0.0162528
621.578	0.0162405
621.656	0.0162562
621.734	0.0162232
621.812	0.0162431
621.890	0.0161777
621.968	0.0162359
622.046	0.0163298
622.124	0.0162135
622.203	0.0163067
622.281	0.0161961
622.359	0.0162759
622.437	0.0163882
622.515	0.0162588
622.593	0.0161893
622.671	0.0162654
622.749	0.0162891
622.828	0.0163000
622.906	0.0162783
622.984	0.0162495
623.062	0.0161830
623.140	0.0161089
623.218	0.0162526
623.296	0.0162733
623.374	0.0163187
623.453	0.0162373
623.531	0.0161505
623.609	0.0163205
623.687	0.0162982
623.765	0.0162006
623.843	0.0163352
623.921	0.0162933
623.999	0.0162077
624.078	0.0162825
624.156	0.0161668
624.234	0.0161639
624.312	0.0161370
624.390	0.0162566
624.468	0.0162605
624.546	0.0163043
624.624	0.0161591
624.703	0.0162012
624.781	0.0161461
624.859	0.0162431
624.937	0.0162173
625.015	0.0163671
625.093	0.0161983
625.171	0.0163624
625.249	0.0163337
625.328	0.0162283
625.406	0.0161832
625.484	0.0162870
625.562	0.0163177
625.640	0.0163563
625.718	0.0162460
625.796	0.0161929
625.874	0.0162306
625.953	0.0162099
626.031	0.0161968
626.109	0.0161308
626.187	0.0161337
626.265	0.0162023
626.343	0.0161851
626.421	0.0161270
626.499	0.0164365
626.578	0.0163473
626.656	0.0162457
626.734	0.0162045
626.812	0.0162226
626.890	0.0161429
626.968	0.0162312
627.046	0.0161636
627.124	0.0163033
627.203	0.0162121
627.281	0.0162202
627.359	0.0161889
627.437	0.0161190
627.515	0.0163232
627.593	0.0160768
627.671	0.0161648
627.749	0.0161936
627.828	0.0162218
627.906	0.0162030
627.984	0.0163091
628.062	0.0162648
628.140	0.0161582
628.218	0.0161604
628.296	0.0162212
628.374	0.0162157
628.453	0.0162970
628.531	0.0161665
628.609	0.0161308
628.687	0.0160915
628.765	0.0162569
628.843	0.0163205
628.921	0.0162760
628.999	0.0163451
629.078	0.0161695
629.156	0.0160555
629.234	0.0161602
629.312	0.0162141
629.390	0.0162139
629.468	0.0161827
629.546	0.0161145
629.624	0.0161594
629.703	0.0161803
629.781	0.0163171
629.859	0.0161134
629.937	0.0161475
630.015	0.0163331
630.093	0.0162772
630.171	0.0160690
630.249	0.0161499
630.328	0.0162598
630.406	0.0162506
630.484	0.0161189
630.562	0.0161330
630.640	0.0161744
630.718	0.0163301
630.796	0.0161843
630.874	0.0161581
630.953	0.0161487
631.031	0.0162479
631.109	0.0160811
631.187	0.0161400
631.265	0.0161199
631.343	0.0161405
631.421	0.0162249
631.499	0.0162625
631.578	0.0162548
631.656	0.0161887
631.734	0.0161028
631.812	0.0161969
631.890	0.0161694
631.968	0.0162212
632.046	0.0162057
632.124	0.0162875
632.203	0.0162720
632.281	0.0161428
632.359	0.0162360
632.437	0.0162622
632.515	0.0162553
632.593	0.0160874
632.671	0.0162445
632.749	0.0162933
632.828	0.0160402
632.906	0.0162109
632.984	0.0163514
633.062	0.0161980
633.140	0.0162057
633.218	0.0162704
633.296	0.0162940
633.374	0.0161474
633.453	0.0161787
633.531	0.0162321
633.609	0.0161073
633.687	0.0160818
633.765	0.0161562
633.843	0.0162534
633.921	0.0161885
633.999	0.0162239
634.078	0.0162509
634.156	0.0161888
634.234	0.0161980
634.312	0.0161114
634.390	0.0160210
634.468	0.0162833
634.546	0.0161994
634.624	0.0162430
634.703	0.0162789
634.781	0.0161065
634.859	0.0161427
634.937	0.0162362
635.015	0.0162791
635.093	0.0163351
635.171	0.0161953
635.249	0.0163116
635.328	0.0161711
635.406	0.0161167
635.484	0.0162909
635.562	0.0162208
635.640	0.0162661
635.718	0.0161806
635.796	0.0162247
635.874	0.0161462
635.953	0.0161455
636.031	0.0164128
636.109	0.0162521
636.187	0.0163452
636.265	0.0161288
636.343	0.0161275
636.421	0.0162287
636.499	0.0161790
636.578	0.0161820
636.656	0.0164346
636.734	0.0162030
636.812	0.0161843
636.890	0.0163106
636.968	0.0161800
637.046	0.0163017
637.124	0.0163428
637.203	0.0161911
637.281	0.0163945
637.359	0.0160851
637.437	0.0162058
637.515	0.0163944
637.593	0.0161115
637.671	0.0162261
637.749	0.0162471
637.828	0.0162067
637.906	0.0163294
637.984	0.0161609
638.062	0.0162148
638.140	0.0162681
638.218	0.0162132
638.296	0.0163449
638.374	0.0163120
638.453	0.0162132
638.531	0.0160594
638.609	0.0161635
638.687	0.0162460
638.765	0.0162213
638.843	0.0161725
638.921	0.0161951
638.999	0.0161240
639.078	0.0162204
639.156	0.0159395
639.234	0.0161455
639.312	0.0162594
639.390	0.0162614
639.468	0.0163231
639.546	0.0160809
639.624	0.0162025
639.703	0.0162209
639.781	0.0161122
639.859	0.0162157
639.937	0.0162466
640.015	0.0162463
640.093	0.0162199
640.171	0.0162106
640.249	0.0162141
640.328	0.0161610
640.406	0.0161252
640.484	0.0162180
640.562	0.0162823
640.640	0.0161578
640.718	0.0163213
640.796	0.0162545
640.874	0.0161792
640.953	0.0163381
641.031	0.0161652
641.109	0.0162706
641.187	0.0162146
641.265	0.0161274
641.343	0.0161600
641.421	0.0161718
641.499	0.0162825
641.578	0.0162254
641.656	0.0162160
641.734	0.0162796
641.812	0.0162762
641.890	0.0163894
641.968	0.0161990
642.046	0.0162269
642.124	0.0163263
642.203	0.0163504
642.281	0.0163143
642.359	0.0162622
642.437	0.0161922
642.515	0.0163109
642.593	0.0162347
642.671	0.0162906
642.749	0.0162447
642.828	0.0163152
642.906	0.0162258
642.984	0.0162533
643.062	0.0161237
643.140	0.0161990
643.218	0.0163571
643.296	0.0162356
643.374	0.0162606
643.453	0.0161978
643.531	0.0161435
643.609	0.0162680
643.687	0.0162393
643.765	0.0161588
643.843	0.0161836
643.921	0.0163760
643.999	0.0163206
644.078	0.0162158
644.156	0.0162908
644.234	0.0163763
644.312	0.0161933
644.390	0.0162212
644.468	0.0162045
644.546	0.0162236
644.624	0.0163160
644.703	0.0161358
644.781	0.0161200
644.859	0.0161908
644.937	0.0161760
645.015	0.0163190
645.093	0.0161008
645.171	0.0162843
645.249	0.0161907
645.328	0.0161974
645.406	0.0162766
645.484	0.0161504
645.562	0.0161175
645.640	0.0162382
645.718	0.0161641
645.796	0.0160569
645.874	0.0160910
645.953	0.0161970
646.031	0.0161890
646.109	0.0162786
646.187	0.0162157
646.265	0.0161729
646.343	0.0162826
646.421	0.0162697
646.499	0.0162376
646.578	0.0163148
646.656	0.0161930
646.734	0.0161160
646.812	0.0163992
646.890	0.0162096
646.968	0.0162234
647.046	0.0161171
647.124	0.0161835
647.203	0.0162192
647.281	0.0162318
647.359	0.0160912
647.437	0.0162741
647.515	0.0162246
647.593	0.0161333
647.671	0.0160812
647.749	0.0161316
647.828	0.0161871
647.906	0.0162334
647.984	0.0162083
648.062	0.0161960
648.140	0.0163007
648.218	0.0161434
648.296	0.0161043
648.374	0.0162491
648.453	0.0162709
648.531	0.0162882
648.609	0.0162062
648.687	0.0162254
648.765	0.0163058
648.843	0.0162327
648.921	0.0161671
648.999	0.0162057
649.078	0.0161126
649.156	0.0161888
649.234	0.0161621
649.312	0.0161642
649.390	0.0161991
649.468	0.0162021
649.546	0.0162956
649.624	0.0163432
649.703	0.0163554
649.781	0.0160638
649.859	0.0161613
649.937	0.0162286
650.015	0.0162207
650.093	0.0161318
650.171	0.0162404
650.249	0.0161822
650.328	0.0161765
650.406	0.0162587
650.484	0.0163382
650.562	0.0161621
650.640	0.0161405
650.718	0.0162347
650.796	0.0161567
650.874	0.0162468
650.953	0.0162752
651.031	0.0162280
651.109	0.0161987
651.187	0.0161009
651.265	0.0162540
651.343	0.0162119
651.421	0.0162301
651.499	0.0162623
651.578	0.0161350
651.656	0.0161151
651.734	0.0161217
651.812	0.0161979
651.890	0.0162852
651.968	0.0162107
652.046	0.0161246
652.124	0.0161025
652.203	0.0161720
652.281	0.0163247
652.359	0.0162019
652.437	0.0162512
652.515	0.0162504
652.593	0.0162138
652.671	0.0163089
652.749	0.0163668
652.828	0.0162409
652.906	0.0161622
652.984	0.0162868
653.062	0.0162794
653.140	0.0161779
653.218	0.0161446
653.296	0.0160658
653.374	0.0162974
653.453	0.0161693
653.531	0.0161912
653.609	0.0162547
653.687	0.0162138
653.765	0.0162256
653.843	0.0162229
653.921	0.0161516
653.999	0.0161785
654.078	0.0162049
654.156	0.0161147
654.234	0.0162552
654.312	0.0161726
654.390	0.0163304
654.468	0.0161722
654.546	0.0162279
654.624	0.0161469
654.703	0.0162287
654.781	0.0162582
654.859	0.0161486
654.937	0.0163288
655.015	0.0161281
655.093	0.0162503
655.171	0.0162119
655.249	0.0161849
655.328	0.0163404
655.406	0.0161501
655.484	0.0162251
655.562	0.0161678
655.640	0.0160826
655.718	0.0161626
655.796	0.0161932
655.874	0.0160946
655.953	0.0163374
656.031	0.0164203
656.109	0.0162029
656.187	0.0161581
656.265	0.0161582
656.343	0.0161647
656.421	0.0162553
656.499	0.0162801
656.578	0.0161291
656.656	0.0162614
656.734	0.0163474
656.812	0.0162910
656.890	0.0161610
656.968	0.0162959
657.046	0.0162002
657.124	0.0161946
657.203	0.0162118
657.281	0.0162107
657.359	0.0162171
657.437	0.0160786
657.515	0.0162110
657.593	0.0163271
657.671	0.0161990
657.749	0.0161781
657.828	0.0161559
657.906	0.0163351
657.984	0.0162342
658.062	0.0162087
658.140	0.0162329
658.218	0.0163338
658.296	0.0163037
658.374	0.0163047
658.453	0.0162769
658.531	0.0163284
658.609	0.0161803
658.687	0.0161813
658.765	0.0162424
658.843	0.0162687
658.921	0.0161517
658.999	0.0163300
659.078	0.0163048
659.156	0.0164053
659.234	0.0163058
659.312	0.0162486
659.390	0.0163499
659.468	0.0163722
659.546	0.0162159
659.624	0.0161546
659.703	0.0163213
659.781	0.0162510
659.859	0.0162334
659.937	0.0162615
660.015	0.0163058
660.093	0.0162754
660.171	0.0162238
660.249	0.0161883
660.328	0.0162163
660.406	0.0161688
660.484	0.0161619
660.562	0.0161543
660.640	0.0162982
660.718	0.0163040
660.796	0.0161257
660.874	0.0163055
660.953	0.0161602
661.031	0.0161703
661.109	0.0161212
661.187	0.0161758
661.265	0.0163065
661.343	0.0162084
661.421	0.0162611
661.499	0.0161700
661.578	0.0162349
661.656	0.0162990
661.734	0.0161839
661.812	0.0161160
661.890	0.0161917
661.968	0.0161668
662.046	0.0163127
662.124	0.0162264
662.203	0.0162341
662.281	0.0163285
662.359	0.0162882
662.437	0.0162860
662.515	0.0164429
662.593	0.0162935
662.671	0.0161195
662.749	0.0163870
662.828	0.0163403
662.906	0.0161408
662.984	0.0162026
663.062	0.0162594
663.140	0.0162287
663.218	0.0163499
663.296	0.0162863
663.374	0.0162790
663.453	0.0162596
663.531	0.0162788
663.609	0.0163186
663.687	0.0162646
663.765	0.0162807
663.843	0.0161485
663.921	0.0162582
663.999	0.0163170
664.078	0.0162229
664.156	0.0162260
664.234	0.0162927
664.312	0.0162810
664.390	0.0162753
664.468	0.0161573
664.546	0.0161453
664.624	0.0162807
664.703	0.0161591
664.781	0.0162776
664.859	0.0161588
664.937	0.0162092
665.015	0.0163322
665.093	0.0163203
665.171	0.0161893
665.249	0.0162276
665.328	0.0163068
665.406	0.0161807
665.484	0.0162084
665.562	0.0161438
665.640	0.0162455
665.718	0.0161814
665.796	0.0161730
665.874	0.0162872
665.953	0.0161708
666.031	0.0163492
666.109	0.0161755
666.187	0.0161943
666.265	0.0161810
666.343	0.0160576
666.421	0.0161296
666.499	0.0162583
666.578	0.0163515
666.656	0.0162416
666.734	0.0162114
666.812	0.0161444
666.890	0.0162534
666.968	0.0161721
667.046	0.0162022
667.124	0.0163865
667.203	0.0161853
667.281	0.0162995
667.359	0.0161568
667.437	0.0161435
667.515	0.0162001
667.593	0.0162125
667.671	0.0162734
667.749	0.0162777
667.828	0.0162321
667.906	0.0161824
667.984	0.0161556
668.062	0.0161416
668.140	0.0162943
668.218	0.0162362
668.296	0.0163223
668.374	0.0163461
668.453	0.0162840
668.531	0.0162604
668.609	0.0162246
668.687	0.0161137
668.765	0.0163248
668.843	0.0162200
668.921	0.0162282
668.999	0.0162695
669.078	0.0161766
669.156	0.0164134
669.234	0.0161805
669.312	0.0162800
669.390	0.0162843
669.468	0.0161987
669.546	0.0162566
669.624	0.0163195
669.703	0.0161934
669.781	0.0161726
669.859	0.0162151
669.937	0.0161822
670.015	0.0161747
670.093	0.0163038
670.171	0.0160679
670.249	0.0161219
670.328	0.0162663
670.406	0.0163235
670.484	0.0162409
670.562	0.0162746
670.640	0.0162096
670.718	0.0163976
670.796	0.0163017
670.874	0.0162321
670.953	0.0162721
671.031	0.0162883
671.109	0.0161600
671.187	0.0164349
671.265	0.0163503
671.343	0.0162075
671.421	0.0163103
671.499	0.0163237
671.578	0.0163596
671.656	0.0162872
671.734	0.0161877
671.812	0.0161336
671.890	0.0162424
671.968	0.0161522
672.046	0.0163678
672.124	0.0162635
672.203	0.0162286
672.281	0.0162730
672.359	0.0161445
672.437	0.0161093
672.515	0.0162540
672.593	0.0162965
672.671	0.0162364
672.749	0.0163269
672.828	0.0162657
672.906	0.0162186
672.984	0.0162851
673.062	0.0162462
673.140	0.0162117
673.218	0.0162648
673.296	0.0163148
673.374	0.0161034
673.453	0.0162720
673.531	0.0163324
673.609	0.0162437
673.687	0.0162117
673.765	0.0163184
673.843	0.0162501
673.921	0.0163525
673.999	0.0162471
674.078	0.0163734
674.156	0.0162949
674.234	0.0162556
674.312	0.0163085
674.390	0.0163741
674.468	0.0164141
674.546	0.0161478
674.624	0.0163381
674.703	0.0162025
674.781	0.0162022
674.859	0.0161435
674.937	0.0161874
675.015	0.0163763
675.093	0.0162350
675.171	0.0161414
675.249	0.0161469
675.328	0.0162154
675.406	0.0162191
675.484	0.0162348
675.562	0.0163972
675.640	0.0162739
675.718	0.0161136
675.796	0.0162085
675.874	0.0162178
675.953	0.0160905
676.031	0.0160661
676.109	0.0163409
676.187	0.0162554
676.265	0.0163255
676.343	0.0160704
676.421	0.0162421
676.499	0.0164922
676.578	0.0161084
676.656	0.0161999
676.734	0.0162774
676.812	0.0163429
676.890	0.0161228
676.968	0.0161899
677.046	0.0162668
677.124	0.0163529
677.203	0.0162413
677.281	0.0162434
677.359	0.0164105
677.437	0.0163349
677.515	0.0163924
677.593	0.0162423
677.671	0.0162548
677.749	0.0162542
677.828	0.0163819
677.906	0.0161766
677.984	0.0162237
678.062	0.0162561
678.140	0.0161876
678.218	0.0162437
678.296	0.0161845
678.374	0.0161314
678.453	0.0163708
678.531	0.0162281
678.609	0.0160876
678.687	0.0161156
678.765	0.0162416
678.843	0.0161939
678.921	0.0162062
678.999	0.0161465
679.078	0.0160943
679.156	0.0161649
679.234	0.0161494
679.312	0.0161026
679.390	0.0161436
679.468	0.0161027
679.546	0.0161430
679.624	0.0162025
679.703	0.0160258
679.781	0.0161754
679.859	0.0161931
679.937	0.0160457
680.015	0.0161089
680.093	0.0162200
680.171	0.0162120
680.249	0.0162460
680.328	0.0162199
680.406	0.0162142
680.484	0.0162189
680.562	0.0162317
680.640	0.0163023
680.718	0.0162938
680.796	0.0162949
680.874	0.0163200
680.953	0.0163205
681.031	0.0162910
681.109	0.0162333
681.187	0.0163215
681.265	0.0163124
681.343	0.0162769
681.421	0.0161871
681.499	0.0162456
681.578	0.0162492
681.656	0.0163617
681.734	0.0163077
681.812	0.0163107
681.890	0.0162907
681.968	0.0162492
682.046	0.0162802
682.124	0.0161915
682.203	0.0161457
682.281	0.0162924
682.359	0.0162164
682.437	0.0160883
682.515	0.0163138
682.593	0.0162029
682.671	0.0161584
682.749	0.0161800
682.828	0.0162924
682.906	0.0161425
682.984	0.0161114
683.062	0.0162025
683.140	0.0160973
683.218	0.0161131
683.296	0.0161841
683.374	0.0161791
683.453	0.0163362
683.531	0.0161292
683.609	0.0161939
683.687	0.0162298
683.765	0.0162277
683.843	0.0161227
683.921	0.0161481
683.999	0.0162764
684.078	0.0162643
684.156	0.0162032
684.234	0.0162168
684.312	0.0163653
684.390	0.0162109
684.468	0.0164519
684.546	0.0163031
684.624	0.0162617
684.703	0.0162791
684.781	0.0162883
684.859	0.0162138
684.937	0.0162263
685.015	0.0162228
685.093	0.0161264
685.171	0.0160623
685.249	0.0161832
685.328	0.0162307
685.406	0.0161935
685.484	0.0163335
685.562	0.0163234
685.640	0.0161889
685.718	0.0161489
685.796	0.0162061
685.874	0.0162094
685.953	0.0161584
686.031	0.0162061
686.109	0.0162241
686.187	0.0160258
686.265	0.0160946
686.343	0.0161273
686.421	0.0160994
686.499	0.0163168
686.578	0.0160211
686.656	0.0162728
686.734	0.0163049
686.812	0.0161370
686.890	0.0161752
686.968	0.0162621
687.046	0.0162575
687.124	0.0163532
687.203	0.0161924
687.281	0.0161677
687.359	0.0162797
687.437	0.0161829
687.515	0.0162240
687.593	0.0161238
687.671	0.0162968
687.749	0.0163136
687.828	0.0162842
687.906	0.0162527
687.984	0.0163636
688.062	0.0162292
688.140	0.0162561
688.218	0.0163191
688.296	0.0163124
688.374	0.0162064
688.453	0.0162193
688.531	0.0162672
688.609	0.0162284
688.687	0.0160637
688.765	0.0161944
688.843	0.0163164
688.921	0.0161153
688.999	0.0162788
689.078	0.0162285
689.156	0.0161955
689.234	0.0160982
689.312	0.0161987
689.390	0.0162566
689.468	0.0161894
689.546	0.0162822
689.624	0.0162666
689.703	0.0161318
689.781	0.0162686
689.859	0.0161957
689.937	0.0162933
690.015	0.0161396
690.093	0.0162741
690.171	0.0161626
690.249	0.0162631
690.328	0.0162173
690.406	0.0162781
690.484	0.0162855
690.562	0.0160960
690.640	0.0161598
690.718	0.0162978
690.796	0.0162536
690.874	0.0163316
690.953	0.0163244
691.031	0.0163350
691.109	0.0162265
691.187	0.0163783
691.265	0.0163445
691.343	0.0161703
691.421	0.0162936
691.499	0.0162246
691.578	0.0160930
691.656	0.0161868
691.734	0.0162280
691.812	0.0162495
691.890	0.0161408
691.968	0.0162240
692.046	0.0161248
692.124	0.0162747
692.203	0.0162651
692.281	0.0162801
692.359	0.0161771
692.437	0.0161868
692.515	0.0162694
692.593	0.0163233
692.671	0.0161478
692.749	0.0163053
692.828	0.0162556
692.906	0.0161393
692.984	0.0163116
693.062	0.0161445
693.140	0.0162198
693.218	0.0161576
693.296	0.0162019
693.374	0.0162309
693.453	0.0162511
693.531	0.0162114
693.609	0.0162038
693.687	0.0161294
693.765	0.0161826
693.843	0.0161495
693.921	0.0162581
693.999	0.0162614
694.078	0.0162720
694.156	0.0161351
694.234	0.0161586
694.312	0.0162768
694.390	0.0162234
694.468	0.0163290
694.546	0.0163499
694.624	0.0163129
694.703	0.0162297
694.781	0.0163062
694.859	0.0163658
694.937	0.0162309
695.015	0.0162825
695.093	0.0161278
695.171	0.0163605
695.249	0.0161922
695.328	0.0162931
695.406	0.0162910
695.484	0.0163254
695.562	0.0162675
695.640	0.0162155
695.718	0.0161174
695.796	0.0162337
695.874	0.0163142
695.953	0.0162597
696.031	0.0162527
696.109	0.0161089
696.187	0.0162412
696.265	0.0161969
696.343	0.0162793
696.421	0.0161659
696.499	0.0162230
696.578	0.0164217
696.656	0.0163614
696.734	0.0163098
696.812	0.0161660
696.890	0.0160391
696.968	0.0163716
697.046	0.0162371
697.124	0.0161643
697.203	0.0163434
697.281	0.0162432
697.359	0.0162614
697.437	0.0162117
697.515	0.0162171
697.593	0.0161488
697.671	0.0162438
697.749	0.0162031
697.828	0.0162410
697.906	0.0162419
697.984	0.0161745
698.062	0.0162920
698.140	0.0161591
698.218	0.0163109
698.296	0.0161904
698.374	0.0161675
698.453	0.0163417
698.531	0.0162222
698.609	0.0162069
698.687	0.0163159
698.765	0.0161531
698.843	0.0162184
698.921	0.0163549
698.999	0.0162646
699.078	0.0162541
699.156	0.0163168
699.234	0.0164156
699.312	0.0162522
699.390	0.0161605
699.468	0.0161452
699.546	0.0162680
699.624	0.0162838
699.703	0.0163533
699.781	0.0162406
699.859	0.0160677
699.937	0.0162163
700.015	0.0162266
700.093	0.0163432
700.171	0.0161946
700.249	0.0162283
700.328	0.0162112
700.406	0.0162381
700.484	0.0163386
700.562	0.0161526
700.640	0.0161884
700.718	0.0161872
700.796	0.0161366
700.874	0.0162240
700.953	0.0162776
701.031	0.0161746
701.109	0.0162952
701.187	0.0163308
701.265	0.0162165
701.343	0.0161894
701.421	0.0162382
701.499	0.0162719
701.578	0.0161733
701.656	0.0162903
701.734	0.0163630
701.812	0.0161987
701.890	0.0161726
701.968	0.0163225
702.046	0.0163557
702.124	0.0162323
702.203	0.0162457
702.281	0.0162180
702.359	0.0162544
702.437	0.0162688
702.515	0.0163134
702.593	0.0162873
702.671	0.0162251
702.749	0.0162320
702.828	0.0163483
702.906	0.0161053
702.984	0.0162063
703.062	0.0162139
703.140	0.0161407
703.218	0.0162099
703.296	0.0163866
703.374	0.0161429
703.453	0.0163137
703.531	0.0161540
703.609	0.0162018
703.687	0.0163616
703.765	0.0162295
703.843	0.0160990
703.921	0.0162965
703.999	0.0162917
704.078	0.0162305
704.156	0.0161529
704.234	0.0163323
704.312	0.0162166
704.390	0.0162159
704.468	0.0161636
704.546	0.0161759
704.624	0.0163142
704.703	0.0161671
704.781	0.0161728
704.859	0.0162636
704.937	0.0160725
705.015	0.0162110
705.093	0.0162914
705.171	0.0160271
705.249	0.0162138
705.328	0.0162543
705.406	0.0162698
705.484	0.0162180
705.562	0.0163065
705.640	0.0163206
705.718	0.0162023
705.796	0.0162115
705.874	0.0163489
705.953	0.0161761
706.031	0.0162074
706.109	0.0162000
706.187	0.0162453
706.265	0.0161823
706.343	0.0163661
706.421	0.0163129
706.499	0.0161971
706.578	0.0161322
706.656	0.0162356
706.734	0.0163385
706.812	0.0162220
706.890	0.0162882
706.968	0.0162232
707.046	0.0161684
707.124	0.0163004
707.203	0.0163484
707.281	0.0161468
707.359	0.0160825
707.437	0.0162687
707.515	0.0163010
707.593	0.0160692
707.671	0.0161514
707.749	0.0161983
707.828	0.0163140
707.906	0.0161085
707.984	0.0162238
708.062	0.0162160
708.140	0.0161822
708.218	0.0161088
708.296	0.0161086
708.374	0.0162444
708.453	0.0161736
708.531	0.0161746
708.609	0.0161565
708.687	0.0162363
708.765	0.0161907
708.843	0.0161500
708.921	0.0162239
708.999	0.0162363
709.078	0.0162141
709.156	0.0162045
709.234	0.0161424
709.312	0.0161731
709.390	0.0162441
709.468	0.0162263
709.546	0.0160963
709.624	0.0163081
709.703	0.0163290
709.781	0.0162968
709.859	0.0162720
709.937	0.0161684
710.015	0.0162070
710.093	0.0161076
710.171	0.0161901
710.249	0.0162568
710.328	0.0163334
710.406	0.0162770
710.484	0.0162669
710.562	0.0163406
710.640	0.0161976
710.718	0.0162651
710.796	0.0161866
710.874	0.0162051
710.953	0.0161641
711.031	0.0162383
711.109	0.0162581
711.187	0.0163113
711.265	0.0163572
711.343	0.0162041
711.421	0.0161593
711.499	0.0162542
711.578	0.0163739
711.656	0.0162769
711.734	0.0162695
711.812	0.0162198
711.890	0.0164113
711.968	0.0162355
712.046	0.0162240
712.124	0.0163110
712.203	0.0163704
712.281	0.0163069
712.359	0.0161355
712.437	0.0162212
712.515	0.0160966
712.593	0.0162214
712.671	0.0162713
712.749	0.0162619
712.828	0.0161852
712.906	0.0162621
712.984	0.0161974
713.062	0.0161658
713.140	0.0162077
713.218	0.0162573
713.296	0.0162460
713.374	0.0160862
713.453	0.0162057
713.531	0.0162441
713.609	0.0161618
713.687	0.0162254
713.765	0.0162037
713.843	0.0162681
713.921	0.0161454
713.999	0.0162415
714.078	0.0161817
714.156	0.0162315
714.234	0.0163021
714.312	0.0161673
714.390	0.0162071
714.468	0.0162603
714.546	0.0162307
714.624	0.0162099
714.703	0.0163137
714.781	0.0162134
714.859	0.0161440
714.937	0.0162223
715.015	0.0162103
715.093	0.0164355
715.171	0.0163127
715.249	0.0161805
715.328	0.0161127
715.406	0.0162647
715.484	0.0161284
715.562	0.0162029
715.640	0.0163050
715.718	0.0161639
715.796	0.0162961
715.874	0.0162569
715.953	0.0161861
716.031	0.0162396
716.109	0.0161281
716.187	0.0161102
716.265	0.0163492
716.343	0.0162562
716.421	0.0161395
716.499	0.0162105
716.578	0.0163309
716.656	0.0161720
716.734	0.0162428
716.812	0.0163394
716.890	0.0163016
716.968	0.0161424
717.046	0.0163020
717.124	0.0161969
717.203	0.0162994
717.281	0.0162524
717.359	0.0162560
717.437	0.0162952
717.515	0.0162377
717.593	0.0163115
717.671	0.0161877
717.749	0.0161676
717.828	0.0162986
717.906	0.0162569
717.984	0.0162634
718.062	0.0160477
718.140	0.0162573
718.218	0.0162538
718.296	0.0164069
718.374	0.0161911
718.453	0.0162198
718.531	0.0162262
718.609	0.0162909
718.687	0.0161826
718.765	0.0163431
718.843	0.0162000
718.921	0.0161762
718.999	0.0162034
719.078	0.0162927
719.156	0.0163629
719.234	0.0161646
719.312	0.0161686
719.390	0.0162396
719.468	0.0162341
719.546	0.0163438
719.624	0.0163328
719.703	0.0162686
719.781	0.0163133
719.859	0.0162447
719.937	0.0161369
720.015	0.0162682
720.093	0.0161951
720.171	0.0161942
720.249	0.0163731
720.328	0.0160886
720.406	0.0162985
720.484	0.0162137
720.562	0.0162093
720.640	0.0162568
720.718	0.0162205
720.796	0.0162692
720.874	0.0162047
720.953	0.0162656
721.031	0.0162979
721.109	0.0161992
721.187	0.0162504
721.265	0.0161824
721.343	0.0162697
721.421	0.0162663
721.499	0.0163591
721.578	0.0162145
721.656	0.0163126
721.734	0.0162697
721.812	0.0163396
721.890	0.0163879
721.968	0.0163411
722.046	0.0162317
722.124	0.0161147
722.203	0.0162261
722.281	0.0162433
722.359	0.0161435
722.437	0.0162878
722.515	0.0162137
722.593	0.0162048
722.671	0.0164022
722.749	0.0162202
722.828	0.0161379
722.906	0.0162377
722.984	0.0161968
723.062	0.0162466
723.140	0.0163013
723.218	0.0163779
723.296	0.0162115
723.374	0.0163132
723.453	0.0162643
723.531	0.0163379
723.609	0.0163838
723.687	0.0163379
723.765	0.0163296
723.843	0.0162734
723.921	0.0162875
723.999	0.0162077
724.078	0.0162166
724.156	0.0162040
724.234	0.0161985
724.312	0.0162742
724.390	0.0161459
724.468	0.0162376
724.546	0.0163126
724.624	0.0162751
724.703	0.0162712
724.781	0.0163919
724.859	0.0162672
724.937	0.0162634
725.015	0.0163416
725.093	0.0162687
725.171	0.0163601
725.249	0.0162615
725.328	0.0163586
725.406	0.0161475
725.484	0.0163727
725.562	0.0162586
725.640	0.0164370
725.718	0.0162242
725.796	0.0161575
725.874	0.0164128
725.953	0.0163158
726.031	0.0161047
726.109	0.0164185
726.187	0.0163078
726.265	0.0162095
726.343	0.0162402
726.421	0.0162169
726.499	0.0162711
726.578	0.0164510
726.656	0.0162816
726.734	0.0163479
726.812	0.0162526
726.890	0.0163116
726.968	0.0162890
727.046	0.0161431
727.124	0.0162853
727.203	0.0163024
727.281	0.0163097
727.359	0.0162949
727.437	0.0163374
727.515	0.0162259
727.593	0.0161316
727.671	0.0162807
727.749	0.0162753
727.828	0.0162275
727.906	0.0163577
727.984	0.0163840
728.062	0.0162836
728.140	0.0163043
728.218	0.0161189
728.296	0.0161700
728.374	0.0162089
728.453	0.0163158
728.531	0.0162084
728.609	0.0162380
728.687	0.0162935
728.765	0.0162522
728.843	0.0162559
728.921	0.0162135
728.999	0.0162039
729.078	0.0164046
729.156	0.0164096
729.234	0.0162729
729.312	0.0162185
729.390	0.0162558
729.468	0.0162870
729.546	0.0162206
729.624	0.0162290
729.703	0.0161278
729.781	0.0160695
729.859	0.0162659
729.937	0.0163361
730.015	0.0162437
730.093	0.0161239
730.171	0.0162859
730.249	0.0162939
730.328	0.0162137
730.406	0.0162646
730.484	0.0161890
730.562	0.0162965
730.640	0.0160945
730.718	0.0162046
730.796	0.0163239
730.874	0.0162251
730.953	0.0161812
731.031	0.0161562
731.109	0.0162543
731.187	0.0161620
731.265	0.0162492
731.343	0.0162559
731.421	0.0163293
731.499	0.0162636
731.578	0.0163255
731.656	0.0163242
731.734	0.0161710
731.812	0.0162849
731.890	0.0161676
731.968	0.0161665
732.046	0.0161700
732.124	0.0162482
732.203	0.0163361
732.281	0.0161373
732.359	0.0161468
732.437	0.0163442
732.515	0.0161562
732.593	0.0161860
732.671	0.0161906
732.749	0.0162540
732.828	0.0161894
732.906	0.0162902
732.984	0.0162122
733.062	0.0160911
733.140	0.0162777
733.218	0.0161897
733.296	0.0160999
733.374	0.0162747
733.453	0.0162481
733.531	0.0162196
733.609	0.0162601
733.687	0.0162470
733.765	0.0161431
733.843	0.0161093
733.921	0.0161921
733.999	0.0160514
734.078	0.0162510
734.156	0.0162028
734.234	0.0162836
734.312	0.0162434
734.390	0.0162955
734.468	0.0161169
734.546	0.0163138
734.624	0.0162531
734.703	0.0161826
734.781	0.0162284
734.859	0.0161316
734.937	0.0162556
735.015	0.0163015
735.093	0.0161237
735.171	0.0160078
735.249	0.0161721
735.328	0.0162009
735.406	0.0162486
735.484	0.0162280
735.562	0.0161044
735.640	0.0163158
735.718	0.0162900
735.796	0.0160754
735.874	0.0161689
735.953	0.0161945
736.031	0.0162711
736.109	0.0160542
736.187	0.0160197
736.265	0.0163135
736.343	0.0161658
736.421	0.0161707
736.499	0.0161435
736.578	0.0161967
736.656	0.0162619
736.734	0.0161265
736.812	0.0161176
736.890	0.0162479
736.968	0.0162419
737.046	0.0162172
737.124	0.0161830
737.203	0.0162270
737.281	0.0161777
737.359	0.0162286
737.437	0.0162173
737.515	0.0161018
737.593	0.0162276
737.671	0.0163176
737.749	0.0162654
737.828	0.0162053
737.906	0.0162775
737.984	0.0162439
738.062	0.0162337
738.140	0.0163449
738.218	0.0163424
738.296	0.0162240
738.374	0.0163625
738.453	0.0162964
738.531	0.0163690
738.609	0.0163322
738.687	0.0163599
738.765	0.0164961
738.843	0.0165215
738.921	0.0164901
738.999	0.0164337
739.078	0.0163427
739.156	0.0163988
739.234	0.0164315
739.312	0.0164616
739.390	0.0165056
739.468	0.0163946
739.546	0.0162028
739.624	0.0162248
739.703	0.0162627
739.781	0.0163039
739.859	0.0162465
739.937	0.0162122
740.015	0.0160921
740.093	0.0159387
740.171	0.0159270
740.249	0.0158588
740.328	0.0157328
740.406	0.0155898
740.484	0.0154500
740.562	0.0153829
740.640	0.0155177
740.718	0.0154708
740.796	0.0155908
740.874	0.0157132
740.953	0.0157565
741.031	0.0159603
741.109	0.0161471
741.187	0.0162624
741.265	0.0165086
741.343	0.0165032
741.421	0.0166173
741.499	0.0166901
741.578	0.0167745
741.656	0.0167998
741.734	0.0168799
741.812	0.0168190
741.890	0.0166844
741.968	0.0168282
742.046	0.0165443
742.124	0.0164695
742.203	0.0164219
742.281	0.0164867
742.359	0.0164642
742.437	0.0164017
742.515	0.0164566
742.593	0.0165899
742.671	0.0166483
742.749	0.0166456
742.828	0.0165662
742.906	0.0166067
742.984	0.0168262
743.062	0.0167899
743.140	0.0167574
743.218	0.0169279
743.296	0.0168127
743.374	0.0167524
743.453	0.0166972
743.531	0.0166811
743.609	0.0166282
743.687	0.0164846
743.765	0.0162686
743.843	0.0163248
743.921	0.0161413
743.999	0.0162012
744.078	0.0160880
744.156	0.0160418
744.234	0.0157464
744.312	0.0156582
744.390	0.0153368
744.468	0.0150426
744.546	0.0146285
744.624	0.0143275
744.703	0.0138946
744.781	0.0136112
744.859	0.0134271
744.937	0.0134464
745.015	0.0135892
745.093	0.0139050
745.171	0.0142098
745.249	0.0146521
745.328	0.0151827
745.406	0.0158566
745.484	0.0165878
745.562	0.0171635
745.640	0.0176439
745.718	0.0181411
745.796	0.0182706
745.874	0.0184046
745.953	0.0182477
746.031	0.0181712
746.109	0.0180918
746.187	0.0179324
746.265	0.0176425
746.343	0.0173947
746.421	0.0173772
746.499	0.0173460
746.578	0.0174104
746.656	0.0170467
746.734	0.0170939
746.812	0.0171223
746.890	0.0169574
746.968	0.0171011
747.046	0.0170219
747.124	0.0169601
747.203	0.0168654
747.281	0.0169975
747.359	0.0171404
747.437	0.0171835
747.515	0.0173283
747.593	0.0174403
747.671	0.0173963
747.749	0.0175543
747.828	0.0174468
747.906	0.0173944
747.984	0.0171082
748.062	0.0168441
748.140	0.0165701
748.218	0.0161409
748.296	0.0157196
748.374	0.0151746
748.453	0.0144965
748.531	0.0137970
748.609	0.0129861
748.687	0.0122503
748.765	0.0116978
748.843	0.0111515
748.921	0.0107870
748.999	0.0105116
749.078	0.0104908
749.156	0.0106063
749.234	0.0112605
749.312	0.0121901
749.390	0.0131174
749.468	0.0142890
749.546	0.0155695
749.624	0.0168497
749.703	0.0183016
749.781	0.0196230
749.859	0.0206767
749.937	0.0217242
750.015	0.0225478
750.093	0.0232737
750.171	0.0235528
750.249	0.0235025
750.328	0.0233356
750.406	0.0228461
750.484	0.0220995
750.562	0.0211133
750.640	0.0203427
750.718	0.0192200
750.796	0.0178860
750.874	0.0169201
750.953	0.0158169
751.031	0.0146879
751.109	0.0137528
751.187	0.0129714
751.265	0.0124018
751.343	0.0118483
751.421	0.0113380
751.499	0.0112300
751.578	0.0111195
751.656	0.0111623
751.734	0.0114139
751.812	0.0114709
751.890	0.0117320
751.968	0.0123447
752.046	0.0128866
752.124	0.0135722
752.203	0.0143244
752.281	0.0150682
752.359	0.0158308
752.437	0.0164918
752.515	0.0171450
752.593	0.0176585
752.671	0.0182551
752.749	0.0187071
752.828	0.0192177
752.906	0.0194888
752.984	0.0200784
753.062	0.0202823
753.140	0.0204652
753.218	0.0205561
753.296	0.0206291
753.374	0.0206188
753.453	0.0203644
753.531	0.0201048
753.609	0.0195573
753.687	0.0190562
753.765	0.0184809
753.843	0.0175592
753.921	0.0171028
753.999	0.0164227
754.078	0.0158679
754.156	0.0153708
754.234	0.0151316
754.312	0.0149700
754.390	0.0147964
754.468	0.0146478
754.546	0.0145203
754.624	0.0142239
754.703	0.0141554
754.781	0.0138785
754.859	0.0134731
754.937	0.0131557
755.015	0.0126613
755.093	0.0121165
755.171	0.0118384
755.249	0.0115341
755.328	0.0110814
755.406	0.0110532
755.484	0.0109000
755.562	0.0109792
755.640	0.0110516
755.718	0.0114933
755.796	0.0122727
755.874	0.0129143
755.953	0.0138274
756.031	0.0150014
756.109	0.0162449
756.187	0.0174825
756.265	0.0185708
756.343	0.0199799
756.421	0.0209427
756.499	0.0219481
756.578	0.0225804
756.656	0.0232147
756.734	0.0236897
756.812	0.0238125
756.890	0.0238683
756.968	0.0237257
757.046	0.0234345
757.124	0.0231512
757.203	0.0227172
757.281	0.0220978
757.359	0.0214313
757.437	0.0207192
757.515	0.0200702
757.593	0.0195670
757.671	0.0186932
757.749	0.0179169
757.828	0.0171671
757.906	0.0163126
757.984	0.0154886
758.062	0.0145303
758.140	0.0135471
758.218	0.0122123
758.296	0.0112323
758.374	0.00990173
758.453	0.00890121
758.531	0.00792068
758.609	0.00704041
758.687	0.00652458
758.765	0.00633095
758.843	0.00621666
758.921	0.00643341
758.999	0.00708344
759.078	0.00788017
759.156	0.00880821
759.234	0.0100014
759.312	0.0112698
759.390	0.0126013
759.468	0.0140709
759.546	0.0152628
759.624	0.0168058
759.703	0.0182822
759.781	0.0196233
759.859	0.0207583
759.937	0.0219783
760.015	0.0228117
760.093	0.0234771
760.171	0.0238995
760.249	0.0241660
760.328	0.0240233
760.406	0.0238815
760.484	0.0234919
760.562	0.0229373
760.640	0.0224833
760.718	0.0219357
760.796	0.0215293
760.874	0.0211396
760.953	0.0206035
761.031	0.0202396
761.109	0.0197957
761.187	0.0194711
761.265	0.0189765
761.343	0.0183685
761.421	0.0178069
761.499	0.0171438
761.578	0.0161622
761.656	0.0152457
761.734	0.0142673
761.812	0.0132893
761.890	0.0121076
761.968	0.0111279
762.046	0.0100711
762.124	0.00912758
762.203	0.00833282
762.281	0.00768188
762.359	0.00739983
762.437	0.00714294
762.515	0.00730125
762.593	0.00772156
762.671	0.00830040
762.749	0.00925018
762.828	0.0103597
762.906	0.0120482
762.984	0.0134484
763.062	0.0150426
763.140	0.0170029
763.218	0.0186559
763.296	0.0200153
763.374	0.0215273
763.453	0.0228151
763.531	0.0237003
763.609	0.0245388
763.687	0.0249219
763.765	0.0249531
763.843	0.0248331
763.921	0.0244855
763.999	0.0236663
764.078	0.0227641
764.156	0.0215077
764.234	0.0201639
764.312	0.0188668
764.390	0.0174789
764.468	0.0162031
764.546	0.0149527
764.624	0.0140240
764.703	0.0131550
764.781	0.0126279
764.859	0.0123222
764.937	0.0120197
765.015	0.0118853
765.093	0.0117453
765.171	0.0117334
765.249	0.0118690
765.328	0.0118831
765.406	0.0118233
765.484	0.0117200
765.562	0.0117843
765.640	0.0119392
765.718	0.0120126
765.796	0.0122543
765.874	0.0126476
765.953	0.0130891
766.031	0.0138109
766.109	0.0142955
766.187	0.0151872
766.265	0.0157081
766.343	0.0166272
766.421	0.0174132
766.499	0.0180793
766.578	0.0187312
766.656	0.0194765
766.734	0.0201142
766.812	0.0206189
766.890	0.0209312
766.968	0.0213319
767.046	0.0216872
767.124	0.0219067
767.203	0.0219323
767.281	0.0219136
767.359	0.0216031
767.437	0.0214780
767.515	0.0208367
767.593	0.0204584
767.671	0.0196821
767.749	0.0189993
767.828	0.0182840
767.906	0.0177141
767.984	0.0168912
768.062	0.0158753
768.140	0.0153020
768.218	0.0146660
768.296	0.0138818
768.374	0.0132906
768.453	0.0125610
768.531	0.0122039
768.609	0.0116862
768.687	0.0114230
768.765	0.0109542
768.843	0.0107210
768.921	0.0107144
768.999	0.0104876
769.078	0.0104947
769.156	0.0105643
769.234	0.0108065
769.312	0.0111960
769.390	0.0115742
769.468	0.0120049
769.546	0.0126073
769.624	0.0133988
769.703	0.0140881
769.781	0.0149589
769.859	0.0157271
769.937	0.0166541
770.015	0.0177017
770.093	0.0182152
770.171	0.0189616
770.249	0.0197125
770.328	0.0201058
770.406	0.0205569
770.484	0.0210486
770.562	0.0210940
770.640	0.0210595
770.718	0.0211348
770.796	0.0208863
770.874	0.0205250
770.953	0.0201745
771.031	0.0199506
771.109	0.0196224
771.187	0.0192776
771.265	0.0188194
771.343	0.0183721
771.421	0.0179861
771.499	0.0175735
771.578	0.0170877
771.656	0.0166377
771.734	0.0163437
771.812	0.0159153
771.890	0.0156437
771.968	0.0152851
772.046	0.0151183
772.124	0.0148101
772.203	0.0147575
772.281	0.0145335
772.359	0.0142888
772.437	0.0141961
772.515	0.0142139
772.593	0.0139030
772.671	0.0137937
772.749	0.0138634
772.828	0.0137082
772.906	0.0136554
772.984	0.0137253
773.062	0.0136974
773.140	0.0137354
773.218	0.0139313
773.296	0.0141079
773.374	0.0143790
773.453	0.0146433
773.531	0.0149902
773.609	0.0153431
773.687	0.0155971
773.765	0.0161921
773.843	0.0166868
773.921	0.0171609
773.999	0.0175780
774.078	0.0178771
774.156	0.0183944
774.234	0.0185887
774.312	0.0186304
774.390	0.0186236
774.468	0.0187013
774.546	0.0185276
774.624	0.0182821
774.703	0.0181704
774.781	0.0180269
774.859	0.0175005
774.937	0.0172675
775.015	0.0169405
775.093	0.0166743
775.171	0.0163940
775.249	0.0162518
775.328	0.0159303
775.406	0.0156627
775.484	0.0153891
775.562	0.0152872
775.640	0.0150891
775.718	0.0150974
775.796	0.0150932
775.874	0.0149592
775.953	0.0148673
776.031	0.0149800
776.109	0.0151958
776.187	0.0152628
776.265	0.0154111
776.343	0.0156168
776.421	0.0158646
776.499	0.0157696
776.578	0.0159904
776.656	0.0161443
776.734	0.0161609
776.812	0.0164253
776.890	0.0165912
776.968	0.0165134
777.046	0.0167513
777.124	0.0167789
777.203	0.0165902
777.281	0.0167328
777.359	0.0168219
777.437	0.0167331
777.515	0.0169303
777.593	0.0169797
777.671	0.0168027
777.749	0.0170628
777.828	0.0170760
777.906	0.0171351
777.984	0.0171395
778.062	0.0171636
778.140	0.0171558
778.218	0.0171229
778.296	0.0171598
778.374	0.0171407
778.453	0.0171579
778.531	0.0169521
778.609	0.0168553
778.687	0.0165204
778.765	0.0164686
778.843	0.0163552
778.921	0.0161108
778.999	0.0159914
779.078	0.0156339
779.156	0.0154517
779.234	0.0152773
779.312	0.0151823
779.390	0.0150471
779.468	0.0149516
779.546	0.0148180
779.624	0.0148510
779.703	0.0148836
779.781	0.0149841
779.859	0.0151269
779.937	0.0153110
780.015	0.0153657
780.093	0.0154854
780.171	0.0156644
780.249	0.0158669
780.328	0.0160320
780.406	0.0160917
780.484	0.0161417
780.562	0.0162856
780.640	0.0161967
780.718	0.0162874
780.796	0.0165211
780.874	0.0164503
780.953	0.0164647
781.031	0.0164841
781.109	0.0164297
781.187	0.0163871
781.265	0.0165163
781.343	0.0165565
781.421	0.0167014
781.499	0.0168005
781.578	0.0169639
781.656	0.0169955
781.734	0.0170786
781.812	0.0172388
781.890	0.0174648
781.968	0.0175017
782.046	0.0174933
782.124	0.0173621
782.203	0.0173144
782.281	0.0172829
782.359	0.0170746
782.437	0.0170135
782.515	0.0167326
782.593	0.0165313
782.671	0.0162624
782.749	0.0160337
782.828	0.0159422
782.906	0.0157215
782.984	0.0155741
783.062	0.0153856
783.140	0.0155334
783.218	0.0152831
783.296	0.0152260
783.374	0.0154609
783.453	0.0154709
783.531	0.0154755
783.609	0.0154707
783.687	0.0156098
783.765	0.0157390
783.843	0.0156674
783.921	0.0158677
783.999	0.0159247
784.078	0.0159463
784.156	0.0160803
784.234	0.0160476
784.312	0.0161499
784.390	0.0162937
784.468	0.0162435
784.546	0.0163564
784.624	0.0164285
784.703	0.0166801
784.781	0.0167485
784.859	0.0164790
784.937	0.0166058
785.015	0.0167126
785.093	0.0169460
785.171	0.0169175
785.249	0.0169097
785.328	0.0169382
785.406	0.0169919
785.484	0.0169503
785.562	0.0170293
785.640	0.0169939
785.718	0.0169200
785.796	0.0167187
785.874	0.0165457
785.953	0.0163952
786.031	0.0163452
786.109	0.0161086
786.187	0.0158473
786.265	0.0156944
786.343	0.0156398
786.421	0.0153526
786.499	0.0152985
786.578	0.0150252
786.656	0.0150491
786.734	0.0151949
786.812	0.0150748
786.890	0.0151508
786.968	0.0150958
787.046	0.0154064
787.124	0.0155259
787.203	0.0155775
787.281	0.0157038
787.359	0.0159601
787.437	0.0159814
787.515	0.0160278
787.593	0.0162847
787.671	0.0163548
787.749	0.0165918
787.828	0.0167378
787.906	0.0169360
787.984	0.0168666
788.062	0.0166817
788.140	0.0167678
788.218	0.0167391
788.296	0.0166985
788.374	0.0166365
788.453	0.0165176
788.531	0.0166080
788.609	0.0165840
788.687	0.0165668
788.765	0.0165840
788.843	0.0166498
788.921	0.0166283
788.999	0.0166599
789.078	0.0167022
789.156	0.0168413
789.234	0.0169617
789.312	0.0169382
789.390	0.0169011
789.468	0.0170322
789.546	0.0167734
789.624	0.0167726
789.703	0.0166016
789.781	0.0165640
789.859	0.0164128
789.937	0.0163361
790.015	0.0163136
790.093	0.0161095
790.171	0.0160061
790.249	0.0157925
790.328	0.0157945
790.406	0.0156197
790.484	0.0154053
790.562	0.0153922
790.640	0.0151733
790.718	0.0153204
790.796	0.0154678
790.874	0.0153249
790.953	0.0154833
791.031	0.0155878
791.109	0.0155319
791.187	0.0156870
791.265	0.0156557
791.343	0.0157272
791.421	0.0157955
791.499	0.0158557
791.578	0.0160744
791.656	0.0161014
791.734	0.0161829
791.812	0.0162714
791.890	0.0162479
791.968	0.0163068
792.046	0.0163331
792.124	0.0163842
792.203	0.0164310
792.281	0.0164300
792.359	0.0163241
792.437	0.0163795
792.515	0.0164709
792.593	0.0164632
792.671	0.0166485
792.749	0.0166395
792.828	0.0167055
792.906	0.0166261
792.984	0.0167138
793.062	0.0167142
793.140	0.0166923
793.218	0.0166736
793.296	0.0164031
793.374	0.0165223
793.453	0.0162890
793.531	0.0162157
793.609	0.0162233
793.687	0.0160065
793.765	0.0158834
793.843	0.0159238
793.921	0.0157878
793.999	0.0157944
794.078	0.0159351
794.156	0.0158511
794.234	0.0159727
794.312	0.0161273
794.390	0.0160361
794.468	0.0163403
794.546	0.0162513
794.624	0.0162013
794.703	0.0164977
794.781	0.0164472
794.859	0.0164175
794.937	0.0166392
795.015	0.0166879
795.093	0.0167617
795.171	0.0166994
795.249	0.0167436
795.328	0.0167902
795.406	0.0167645
795.484	0.0167502
795.562	0.0167844
795.640	0.0167013
795.718	0.0167832
795.796	0.0166543
795.874	0.0164655
795.953	0.0164017
796.031	0.0164482
796.109	0.0164258
796.187	0.0163281
796.265	0.0163167
796.343	0.0161690
796.421	0.0161932
796.499	0.0161188
796.578	0.0160449
796.656	0.0162055
796.734	0.0162609
796.812	0.0160716
796.890	0.0161517
796.968	0.0160836
797.046	0.0160899
797.124	0.0159142
797.203	0.0158836
797.281	0.0158654
797.359	0.0157448
797.437	0.0154871
797.515	0.0156420
797.593	0.0154203
797.671	0.0156348
797.749	0.0155260
797.828	0.0155143
797.906	0.0155931
797.984	0.0157375
798.062	0.0158015
798.140	0.0158848
798.218	0.0160787
798.296	0.0160662
798.374	0.0162359
798.453	0.0162248
798.531	0.0164677
798.609	0.0164513
798.687	0.0163925
798.765	0.0163821
798.843	0.0165115
798.921	0.0165453
798.999	0.0164597
799.078	0.0163878
799.156	0.0164925
799.234	0.0164063
799.312	0.0164048
799.390	0.0165524
799.468	0.0164089
799.546	0.0164736
799.624	0.0164175
799.703	0.0163908
799.781	0.0165141
799.859	0.0166258
799.937	0.0165986
800.015	0.0166149
800.093	0.0166733
800.171	0.0167389
800.249	0.0166813
800.328	0.0166017
800.406	0.0168001
800.484	0.0168151
800.562	0.0165968
800.640	0.0166626
800.718	0.0167448
800.796	0.0164706
800.874	0.0164571
800.953	0.0164680
801.031	0.0164539
801.109	0.0164792
801.187	0.0164326
801.265	0.0164162
801.343	0.0163035
801.421	0.0162231
801.499	0.0161584
801.578	0.0162087
801.656	0.0161456
801.734	0.0161075
801.812	0.0161460
801.890	0.0160458
801.968	0.0159830
802.046	0.0159824
802.124	0.0160374
802.203	0.0159419
802.281	0.0159392
802.359	0.0159951
802.437	0.0158520
802.515	0.0158590
802.593	0.0158291
802.671	0.0160163
802.749	0.0159158
802.828	0.0158657
802.906	0.0160999
802.984	0.0160107
803.062	0.0161822
803.140	0.0161024
803.218	0.0161929
803.296	0.0163544
803.374	0.0163284
803.453	0.0162689
803.531	0.0163645
803.609	0.0164693
803.687	0.0166181
803.765	0.0166407
803.843	0.0165284
803.921	0.0165614
803.999	0.0164878
804.078	0.0163828
804.156	0.0163868
804.234	0.0162782
804.312	0.0161352
804.390	0.0161518
804.468	0.0159842
804.546	0.0160741
804.624	0.0157707
804.703	0.0160213
804.781	0.0158894
804.859	0.0158464
804.937	0.0159507
805.015	0.0158826
805.093	0.0160416
805.171	0.0161264
805.249	0.0160426
805.328	0.0162504
805.406	0.0162540
805.484	0.0165134
805.562	0.0165385
805.640	0.0166997
805.718	0.0167508
805.796	0.0169079
805.874	0.0169118
805.953	0.0167300
806.031	0.0169042
806.109	0.0168604
806.187	0.0167278
806.265	0.0166020
806.343	0.0165699
806.421	0.0165547
806.499	0.0165497
806.578	0.0164490
806.656	0.0162766
806.734	0.0162144
806.812	0.0162959
806.890	0.0162866
806.968	0.0162045
807.046	0.0161731
807.124	0.0162950
807.203	0.0162154
807.281	0.0162955
807.359	0.0162431
807.437	0.0162803
807.515	0.0162140
807.593	0.0161454
807.671	0.0161152
807.749	0.0161407
807.828	0.0158854
807.906	0.0158823
807.984	0.0157803
808.062	0.0158936
808.140	0.0158824
808.218	0.0157173
808.296	0.0157197
808.374	0.0157741
808.453	0.0156989
808.531	0.0157471
808.609	0.0158411
808.687	0.0160698
808.765	0.0160020
808.843	0.0161279
808.921	0.0161997
808.999	0.0162395
809.078	0.0165742
809.156	0.0166692
809.234	0.0166812
809.312	0.0165371
809.390	0.0166927
809.468	0.0167509
809.546	0.0167850
809.624	0.0166726
809.703	0.0166444
809.781	0.0167105
809.859	0.0165529
809.937	0.0165861
810.015	0.0162668
810.093	0.0161873
810.171	0.0162652
810.249	0.0162691
810.328	0.0160841
810.406	0.0158538
810.484	0.0158257
810.562	0.0159497
810.640	0.0158432
810.718	0.0159175
810.796	0.0159013
810.874	0.0159756
810.953	0.0159815
811.031	0.0161311
811.109	0.0160732
811.187	0.0164048
811.265	0.0162351
811.343	0.0162528
811.421	0.0162884
811.499	0.0163080
811.578	0.0164072
811.656	0.0162900
811.734	0.0162132
811.812	0.0162076
811.890	0.0161565
811.968	0.0160576
812.046	0.0160960
812.124	0.0161237
812.203	0.0161166
812.281	0.0161458
812.359	0.0162278
812.437	0.0161102
812.515	0.0162454
812.593	0.0162542
812.671	0.0164526
812.749	0.0164734
812.828	0.0166228
812.906	0.0166595
812.984	0.0165955
813.062	0.0168367
813.140	0.0169318
813.218	0.0168391
813.296	0.0166320
813.374	0.0168719
813.453	0.0167910
813.531	0.0166486
813.609	0.0164938
813.687	0.0164146
813.765	0.0164174
813.843	0.0163394
813.921	0.0161218
813.999	0.0163022
814.078	0.0162182
814.156	0.0159608
814.234	0.0160851
814.312	0.0159989
814.390	0.0160757
814.468	0.0159752
814.546	0.0160440
814.624	0.0161283
814.703	0.0163387
814.781	0.0162148
814.859	0.0163705
814.937	0.0162362
815.015	0.0163405
815.093	0.0163618
815.171	0.0164584
815.249	0.0162682
815.328	0.0163161
815.406	0.0162535
815.484	0.0162509
815.562	0.0160912
815.640	0.0160602
815.718	0.0159526
815.796	0.0160314
815.874	0.0160054
815.953	0.0159259
816.031	0.0159656
816.109	0.0159847
816.187	0.0159951
816.265	0.0160380
816.343	0.0159392
816.421	0.0161061
816.499	0.0162388
816.578	0.0161133
816.656	0.0162691
816.734	0.0163171
816.812	0.0163247
816.890	0.0163944
816.968	0.0163432
817.046	0.0161389
817.124	0.0162753
817.203	0.0162207
817.281	0.0162413
817.359	0.0161917
817.437	0.0160909
817.515	0.0161777
817.593	0.0159969
817.671	0.0161144
817.749	0.0161416
817.828	0.0161012
817.906	0.0161872
817.984	0.0161282
818.062	0.0162442
818.140	0.0162231
818.218	0.0162741
818.296	0.0163401
818.374	0.0164467
818.453	0.0164393
818.531	0.0165588
818.609	0.0165719
818.687	0.0164398
818.765	0.0164030
818.843	0.0164145
818.921	0.0162752
818.999	0.0164469
819.078	0.0162595
819.156	0.0161987
819.234	0.0163263
819.312	0.0161906
819.390	0.0161269
819.468	0.0160468
819.546	0.0160349
819.624	0.0160165
819.703	0.0161254
819.781	0.0160772
819.859	0.0161440
819.937	0.0161776
820.015	0.0162395
820.093	0.0163609
820.171	0.0162374
820.249	0.0162032
820.328	0.0161971
820.406	0.0162939
820.484	0.0162567
820.562	0.0163511
820.640	0.0163880
820.718	0.0162778
820.796	0.0163540
820.874	0.0162420
820.953	0.0162901
821.031	0.0161131
821.109	0.0161297
821.187	0.0161578
821.265	0.0161780
821.343	0.0161994
821.421	0.0161864
821.499	0.0161107
821.578	0.0159545
821.656	0.0159560
821.734	0.0160868
821.812	0.0160255
821.890	0.0160615
821.968	0.0160468
822.046	0.0160852
822.124	0.0159350
822.203	0.0160780
822.281	0.0161901
822.359	0.0162319
822.437	0.0162350
822.515	0.0163319
822.593	0.0163209
822.671	0.0163540
822.749	0.0163960
822.828	0.0164780
822.906	0.0163534
822.984	0.0163481
823.062	0.0164744
823.140	0.0164949
823.218	0.0164618
823.296	0.0164757
823.374	0.0165034
823.453	0.0164600
823.531	0.0164165
823.609	0.0163402
823.687	0.0162359
823.765	0.0161256
823.843	0.0162000
823.921	0.0162711
823.999	0.0160939
824.078	0.0159289
824.156	0.0161449
824.234	0.0161246
824.312	0.0159743
824.390	0.0158626
824.468	0.0160423
824.546	0.0160745
824.624	0.0160941
824.703	0.0162181
824.781	0.0161716
824.859	0.0161475
824.937	0.0161586
825.015	0.0161353
825.093	0.0162128
825.171	0.0163819
825.249	0.0163187
825.328	0.0163680
825.406	0.0164951
825.484	0.0164420
825.562	0.0164491
825.640	0.0164111
825.718	0.0164790
825.796	0.0164501
825.874	0.0164173
825.953	0.0163683
826.031	0.0163097
826.109	0.0163218
826.187	0.0163510
826.265	0.0162772
826.343	0.0162579
826.421	0.0163818
826.499	0.0162601
826.578	0.0162621
826.656	0.0162736
826.734	0.0161121
826.812	0.0162642
826.890	0.0162675
826.968	0.0163560
827.046	0.0162952
827.124	0.0163872
827.203	0.0162599
827.281	0.0162260
827.359	0.0163815
827.437	0.0163142
827.515	0.0161644
827.593	0.0160514
827.671	0.0160654
827.749	0.0161513
827.828	0.0161807
827.906	0.0160856
827.984	0.0159823
828.062	0.0159741
828.140	0.0161025
828.218	0.0160583
828.296	0.0160727
828.374	0.0159917
828.453	0.0160275
828.531	0.0160893
828.609	0.0161856
828.687	0.0162926
828.765	0.0163087
828.843	0.0162604
828.921	0.0163235
828.999	0.0163538
829.078	0.0164078
829.156	0.0163432
829.234	0.0164295
829.312	0.0164831
829.390	0.0164067
829.468	0.0164570
829.546	0.0164464
829.624	0.0162498
829.703	0.0163203
829.781	0.0164297
829.859	0.0162600
829.937	0.0162224
830.015	0.0161691
830.093	0.0162218
830.171	0.0162475
830.249	0.0160580
830.328	0.0162050
830.406	0.0161028
830.484	0.0161021
830.562	0.0161676
830.640	0.0160816
830.718	0.0161833
830.796	0.0161456
830.874	0.0161823
830.953	0.0162102
831.031	0.0162704
831.109	0.0161402
831.187	0.0161198
831.265	0.0161673
831.343	0.0160566
831.421	0.0162599
831.499	0.0162249
831.578	0.0162749
831.656	0.0159939
831.734	0.0161266
831.812	0.0161813
831.890	0.0162574
831.968	0.0162505
832.046	0.0162974
832.124	0.0163108
832.203	0.0163317
832.281	0.0161613
832.359	0.0163755
832.437	0.0164629
832.515	0.0163160
832.593	0.0162463
832.671	0.0163024
832.749	0.0163084
832.828	0.0164574
832.906	0.0162279
832.984	0.0162497
833.062	0.0163654
833.140	0.0161662
833.218	0.0161109
833.296	0.0162077
833.374	0.0162525
833.453	0.0161408
833.531	0.0161866
833.609	0.0161998
833.687	0.0163655
833.765	0.0162315
833.843	0.0162484
833.921	0.0162827
833.999	0.0162682
834.078	0.0163572
834.156	0.0162976
834.234	0.0162257
834.312	0.0162321
834.390	0.0161677
834.468	0.0162070
834.546	0.0162694
834.624	0.0161166
834.703	0.0160199
834.781	0.0160928
834.859	0.0161243
834.937	0.0161591
835.015	0.0160960
835.093	0.0161292
835.171	0.0162577
835.249	0.0162502
835.328	0.0161578
835.406	0.0162434
835.484	0.0162268
835.562	0.0160412
835.640	0.0163200
835.718	0.0162659
835.796	0.0162260
835.874	0.0161746
835.953	0.0162450
836.031	0.0162544
836.109	0.0162551
836.187	0.0163015
836.265	0.0163348
836.343	0.0162209
836.421	0.0161649
836.499	0.0161743
836.578	0.0161944
836.656	0.0161588
836.734	0.0161766
836.812	0.0161853
836.890	0.0159756
836.968	0.0160641
837.046	0.0161146
837.124	0.0161381
837.203	0.0161265
837.281	0.0160636
837.359	0.0161158
837.437	0.0162310
837.515	0.0161986
837.593	0.0161912
837.671	0.0161972
837.749	0.0161810
837.828	0.0160316
837.906	0.0160248
837.984	0.0161374
838.062	0.0161948
838.140	0.0161781
838.218	0.0161273
838.296	0.0162984
838.374	0.0162170
838.453	0.0162342
838.531	0.0162614
838.609	0.0161504
838.687	0.0162086
838.765	0.0162599
838.843	0.0162402
838.921	0.0161703
838.999	0.0162579
839.078	0.0163299
839.156	0.0162685
839.234	0.0162138
839.312	0.0162055
839.390	0.0163103
839.468	0.0163409
839.546	0.0164655
839.624	0.0164819
839.703	0.0162923
839.781	0.0164538
839.859	0.0163662
839.937	0.0164808
840.015	0.0165137
840.093	0.0164822
840.171	0.0164677
840.249	0.0163457
840.328	0.0162274
840.406	0.0161777
840.484	0.0162765
840.562	0.0161052
840.640	0.0160840
840.718	0.0160728
840.796	0.0159566
840.874	0.0160554
840.953	0.0160123
841.031	0.0160187
841.109	0.0160191
841.187	0.0161510
841.265	0.0160298
841.343	0.0159939
841.421	0.0161561
841.499	0.0161333
841.578	0.0162553
841.656	0.0161216
841.734	0.0161793
841.812	0.0162604
841.890	0.0162140
841.968	0.0161661
842.046	0.0160797
842.124	0.0160133
842.203	0.0161015
842.281	0.0159563
842.359	0.0160619
842.437	0.0161790
842.515	0.0159718
842.593	0.0161651
842.671	0.0161706
842.749	0.0161746
842.828	0.0161745
842.906	0.0162333
842.984	0.0163453
843.062	0.0163216
843.140	0.0163187
843.218	0.0163224
843.296	0.0163761
843.374	0.0164126
843.453	0.0164371
843.531	0.0164912
843.609	0.0164050
843.687	0.0163206
843.765	0.0165207
843.843	0.0164167
843.921	0.0165070
843.999	0.0165149
844.078	0.0164310
844.156	0.0163433
844.234	0.0164396
844.312	0.0163612
844.390	0.0163292
844.468	0.0161678
844.546	0.0160778
844.624	0.0161925
844.703	0.0161494
844.781	0.0161020
844.859	0.0160558
844.937	0.0160433
845.015	0.0161421
845.093	0.0160357
845.171	0.0162248
845.249	0.0161395
845.328	0.0161449
845.406	0.0160506
845.484	0.0161591
845.562	0.0162293
845.640	0.0160961
845.718	0.0161566
845.796	0.0162084
845.874	0.0160822
845.953	0.0162010
846.031	0.0162260
846.109	0.0161776
846.187	0.0163116
846.265	0.0162394
846.343	0.0162656
846.421	0.0163205
846.499	0.0163792
846.578	0.0163329
846.656	0.0162626
846.734	0.0163834
846.812	0.0164287
846.890	0.0164314
846.968	0.0166174
847.046	0.0164783
847.124	0.0165575
847.203	0.0165952
847.281	0.0164870
847.359	0.0163444
847.437	0.0165336
847.515	0.0165182
847.593	0.0167006
847.671	0.0164196
847.749	0.0164276
847.828	0.0163613
847.906	0.0162460
847.984	0.0161980
848.062	0.0161188
848.140	0.0159319
848.218	0.0158340
848.296	0.0158664
848.374	0.0156617
848.453	0.0155769
848.531	0.0155109
848.609	0.0153137
848.687	0.0153459
848.765	0.0152880
848.843	0.0153524
848.921	0.0155637
848.999	0.0159081
849.078	0.0157921
849.156	0.0160674
849.234	0.0160146
849.312	0.0161855
849.390	0.0163749
849.468	0.0164783
849.546	0.0166324
849.624	0.0167248
849.703	0.0168211
849.781	0.0170919
849.859	0.0170034
849.937	0.0169852
850.015	0.0169434
850.093	0.0170153
850.171	0.0169031
850.249	0.0169377
850.328	0.0169194
850.406	0.0169490
850.484	0.0168483
850.562	0.0166636
850.640	0.0168532
850.718	0.0168590
850.796	0.0165294
850.874	0.0165028
850.953	0.0164153
851.031	0.0162425
851.109	0.0161607
851.187	0.0160578
851.265	0.0159412
851.343	0.0158435
851.421	0.0156242
851.499	0.0155685
851.578	0.0154884
851.656	0.0153654
851.734	0.0152357
851.812	0.0152347
851.890	0.0153099
851.968	0.0151416
852.046	0.0150831
852.124	0.0153082
852.203	0.0156036
852.281	0.0155231
852.359	0.0155792
852.437	0.0156890
852.515	0.0159193
852.593	0.0159686
852.671	0.0162135
852.749	0.0161516
852.828	0.0162848
852.906	0.0164731
852.984	0.0165927
853.062	0.0165628
853.140	0.0166781
853.218	0.0168190
853.296	0.0169281
853.374	0.0169325
853.453	0.0169260
853.531	0.0170070
853.609	0.0170781
853.687	0.0170855
853.765	0.0171561
853.843	0.0170357
853.921	0.0170020
853.999	0.0169434
854.078	0.0169782
854.156	0.0168945
854.234	0.0167371
854.312	0.0166842
854.390	0.0166363
854.468	0.0165286
854.546	0.0162483
854.624	0.0162099
854.703	0.0162289
854.781	0.0160220
854.859	0.0159470
854.937	0.0157478
855.015	0.0156417
855.093	0.0156104
855.171	0.0154913
855.249	0.0153932
855.328	0.0154468
855.406	0.0152305
855.484	0.0151380
855.562	0.0152078
855.640	0.0151494
855.718	0.0151098
855.796	0.0151498
855.874	0.0153152
855.953	0.0153840
856.031	0.0154840
856.109	0.0155685
856.187	0.0158138
856.265	0.0159435
856.343	0.0159822
856.421	0.0162603
856.499	0.0162457
856.578	0.0164063
856.656	0.0164013
856.734	0.0166643
856.812	0.0167352
856.890	0.0168484
856.968	0.0169168
857.046	0.0169655
857.124	0.0172326
857.203	0.0173625
857.281	0.0173089
857.359	0.0173669
857.437	0.0172710
857.515	0.0174766
857.593	0.0173838
857.671	0.0173910
857.749	0.0172284
857.828	0.0171473
857.906	0.0170425
857.984	0.0168810
858.062	0.0168031
858.140	0.0165515
858.218	0.0164665
858.296	0.0162554
858.374	0.0161083
858.453	0.0159320
858.531	0.0157075
858.609	0.0156544
858.687	0.0156613
858.765	0.0152694
858.843	0.0152041
858.921	0.0154094
858.999	0.0153101
859.078	0.0152917
859.156	0.0152795
859.234	0.0154249
859.312	0.0154250
859.390	0.0156003
859.468	0.0157044
859.546	0.0157030
859.624	0.0158335
859.703	0.0159414
859.781	0.0163225
859.859	0.0162111
859.937	0.0163813
860.015	0.0165363
860.093	0.0164040
860.171	0.0165958
860.249	0.0167219
860.328	0.0167400
860.406	0.0166611
860.484	0.0166743
860.562	0.0166655
860.640	0.0168346
860.718	0.0169534
860.796	0.0168609
860.874	0.0167623
860.953	0.0167584
861.031	0.0167753
861.109	0.0166637
861.187	0.0167252
861.265	0.0166380
861.343	0.0165118
861.421	0.0165694
861.499	0.0164146
861.578	0.0161529
861.656	0.0161777
861.734	0.0161201
861.812	0.0160392
861.890	0.0159942
861.968	0.0157824
862.046	0.0157462
862.124	0.0158641
862.203	0.0158105
862.281	0.0158753
862.359	0.0158358
862.437	0.0158201
862.515	0.0157488
862.593	0.0159054
862.671	0.0159277
862.749	0.0159701
862.828	0.0158761
862.906	0.0159374
862.984	0.0161597
863.062	0.0161026
863.140	0.0161515
863.218	0.0163333
863.296	0.0163427
863.374	0.0163344
863.453	0.0165186
863.531	0.0165004
863.609	0.0163967
863.687	0.0164791
863.765	0.0166841
863.843	0.0167307
863.921	0.0169342
863.999	0.0167211
864.078	0.0167418
864.156	0.0167849
864.234	0.0168240
864.312	0.0169417
864.390	0.0167633
864.468	0.0166992
864.546	0.0167498
864.624	0.0165676
864.703	0.0166639
864.781	0.0163960
864.859	0.0164006
864.937	0.0163573
865.015	0.0164409
865.093	0.0163223
865.171	0.0160603
865.249	0.0159895
865.328	0.0160825
865.406	0.0159222
865.484	0.0158949
865.562	0.0159258
865.640	0.0159421
865.718	0.0157685
865.796	0.0158552
865.874	0.0157314
865.953	0.0155921
866.031	0.0159202
866.109	0.0158512
866.187	0.0159387
866.265	0.0157050
866.343	0.0157838
866.421	0.0157343
866.499	0.0158661
866.578	0.0158257
866.656	0.0158292
866.734	0.0159031
866.812	0.0159072
866.890	0.0161300
866.968	0.0161755
867.046	0.0161724
867.124	0.0163106
867.203	0.0164194
867.281	0.0164410
867.359	0.0162768
867.437	0.0164461
867.515	0.0167501
867.593	0.0166524
867.671	0.0166707
867.749	0.0165486
867.828	0.0167622
867.906	0.0167920
867.984	0.0166352
868.062	0.0168111
868.140	0.0168161
868.218	0.0165446
868.296	0.0166817
868.374	0.0166854
868.453	0.0166679
868.531	0.0166222
868.609	0.0166066
868.687	0.0165983
868.765	0.0165048
868.843	0.0166409
868.921	0.0163152
868.999	0.0164648
869.078	0.0162796
869.156	0.0162494
869.234	0.0162165
869.312	0.0161404
869.390	0.0160528
869.468	0.0159892
869.546	0.0160036
869.624	0.0159283
869.703	0.0160210
869.781	0.0159500
869.859	0.0159555
869.937	0.0158675
870.015	0.0157456
870.093	0.0158947
870.171	0.0158182
870.249	0.0158527
870.328	0.0158389
870.406	0.0158673
870.484	0.0158694
870.562	0.0158929
870.640	0.0159641
870.718	0.0160243
870.796	0.0160887
870.874	0.0161824
870.953	0.0162115
871.031	0.0162607
871.109	0.0163744
871.187	0.0164078
871.265	0.0164214
871.343	0.0165716
871.421	0.0164970
871.499	0.0165543
871.578	0.0164167
871.656	0.0165400
871.734	0.0165329
871.812	0.0165965
871.890	0.0165817
871.968	0.0165396
872.046	0.0164709
872.124	0.0164796
872.203	0.0164363
872.281	0.0163714
872.359	0.0164669
872.437	0.0162251
872.515	0.0162511
872.593	0.0162091
872.671	0.0159851
872.749	0.0161614
872.828	0.0160270
872.906	0.0159603
872.984	0.0160363
873.062	0.0158955
873.140	0.0159949
873.218	0.0158727
873.296	0.0159546
873.374	0.0159879
873.453	0.0159491
873.531	0.0160433
873.609	0.0160186
873.687	0.0160066
873.765	0.0162178
873.843	0.0160788
873.921	0.0162892
873.999	0.0162193
874.078	0.0162249
874.156	0.0163778
874.234	0.0164413
874.312	0.0164201
874.390	0.0164359
874.468	0.0164108
874.546	0.0163495
874.624	0.0164744
874.703	0.0164825
874.781	0.0163649
874.859	0.0165114
874.937	0.0164642
875.015	0.0164433
875.093	0.0165440
875.171	0.0165179
875.249	0.0163605
875.328	0.0164145
875.406	0.0163173
875.484	0.0164185
875.562	0.0163811
875.640	0.0163271
875.718	0.0163466
875.796	0.0164177
875.874	0.0161846
875.953	0.0162685
876.031	0.0160717
876.109	0.0160516
876.187	0.0160253
876.265	0.0158720
876.343	0.0159021
876.421	0.0159184
876.499	0.0157051
876.578	0.0160404
876.656	0.0159441
876.734	0.0158344
876.812	0.0159571
876.890	0.0159737
876.968	0.0158282
877.046	0.0159949
877.124	0.0160885
877.203	0.0160906
877.281	0.0159698
877.359	0.0160194
877.437	0.0161713
877.515	0.0163116
877.593	0.0162601
877.671	0.0162135
877.749	0.0163531
877.828	0.0163219
877.906	0.0163429
877.984	0.0163865
878.062	0.0164577
878.140	0.0165722
878.218	0.0164082
878.296	0.0165030
878.374	0.0166039
878.453	0.0165694
878.531	0.0164671
878.609	0.0165597
878.687	0.0165963
878.765	0.0164735
878.843	0.0166922
878.921	0.0165543
878.999	0.0165663
879.078	0.0163852
879.156	0.0162716
879.234	0.0163728
879.312	0.0164570
879.390	0.0162009
879.468	0.0161012
879.546	0.0160664
879.624	0.0162406
879.703	0.0160903
879.781	0.0160258
879.859	0.0160119
879.937	0.0160130
880.015	0.0159739
880.093	0.0160078
880.171	0.0160710
880.249	0.0158698
880.328	0.0160860
880.406	0.0159471
880.484	0.0160085
880.562	0.0160896
880.640	0.0160643
880.718	0.0159357
880.796	0.0159087
880.874	0.0161641
880.953	0.0160953
881.031	0.0161510
881.109	0.0162086
881.187	0.0161273
881.265	0.0163126
881.343	0.0162230
881.421	0.0163670
881.499	0.0163431
881.578	0.0164246
881.656	0.0163685
881.734	0.0163179
881.812	0.0163335
881.890	0.0163458
881.968	0.0164017
882.046	0.0163643
882.124	0.0163970
882.203	0.0163725
882.281	0.0163138
882.359	0.0163449
882.437	0.0163593
882.515	0.0163440
882.593	0.0164337
882.671	0.0160867
882.749	0.0162972
882.828	0.0162872
882.906	0.0162276
882.984	0.0162748
883.062	0.0162086
883.140	0.0161213
883.218	0.0162016
883.296	0.0162643
883.374	0.0162608
883.453	0.0162827
883.531	0.0162116
883.609	0.0162044
883.687	0.0161163
883.765	0.0162479
883.843	0.0163251
883.921	0.0161115
883.999	0.0163103
884.078	0.0161919
884.156	0.0161247
884.234	0.0161263
884.312	0.0160501
884.390	0.0161739
884.468	0.0162731
884.546	0.0164040
884.624	0.0164600
884.703	0.0164686
884.781	0.0163810
884.859	0.0164963
884.937	0.0164088
885.015	0.0165287
885.093	0.0166827
885.171	0.0164622
885.249	0.0165018
885.328	0.0165140
885.406	0.0165579
885.484	0.0165275
885.562	0.0163892
885.640	0.0163683
885.718	0.0164603
885.796	0.0162774
885.874	0.0164257
885.953	0.0162465
886.031	0.0162694
886.109	0.0161679
886.187	0.0162398
886.265	0.0161542
886.343	0.0161396
886.421	0.0160658
886.499	0.0161001
886.578	0.0161670
886.656	0.0160734
886.734	0.0160537
886.812	0.0160513
886.890	0.0160674
886.968	0.0161313
887.046	0.0159466
887.124	0.0160059
887.203	0.0161853
887.281	0.0160137
887.359	0.0161022
887.437	0.0161731
887.515	0.0161229
887.593	0.0161375
887.671	0.0161752
887.749	0.0161543
887.828	0.0161103
887.906	0.0161227
887.984	0.0164735
888.062	0.0163094
888.140	0.0162341
888.218	0.0163852
888.296	0.0164407
888.374	0.0165582
888.453	0.0164456
888.531	0.0165376
888.609	0.0165260
888.687	0.0165108
888.765	0.0165341
888.843	0.0164168
888.921	0.0163900
888.999	0.0163570
889.078	0.0166804
889.156	0.0164595
889.234	0.0163131
889.312	0.0163804
889.390	0.0163466
889.468	0.0163215
889.546	0.0162487
889.624	0.0161406
889.703	0.0161729
889.781	0.0161055
889.859	0.0162437
889.937	0.0161470
890.015	0.0161029
890.093	0.0161875
890.171	0.0161317
890.249	0.0160956
890.328	0.0160748
890.406	0.0159939
890.484	0.0159710
890.562	0.0160872
890.640	0.0160929
890.718	0.0160867
890.796	0.0160647
890.874	0.0161706
890.953	0.0160583
891.031	0.0161275
891.109	0.0161411
891.187	0.0161967
891.265	0.0161092
891.343	0.0161694
891.421	0.0162816
891.499	0.0163265
891.578	0.0164027
891.656	0.0163413
891.734	0.0162687
891.812	0.0163276
891.890	0.0163147
891.968	0.0164234
892.046	0.0164137
892.124	0.0162685
892.203	0.0161880
892.281	0.0163629
892.359	0.0162173
892.437	0.0162131
892.515	0.0162407
892.593	0.0161496
892.671	0.0161905
892.749	0.0162512
892.828	0.0162943
892.906	0.0161758
892.984	0.0161333
893.062	0.0162775
893.140	0.0162102
893.218	0.0161297
893.296	0.0162304
893.374	0.0162753
893.453	0.0162477
893.531	0.0161977
893.609	0.0162423
893.687	0.0162196
893.765	0.0162006
893.843	0.0162499
893.921	0.0161611
893.999	0.0162611
894.078	0.0162431
894.156	0.0160220
894.234	0.0161315
894.312	0.0161655
894.390	0.0160999
894.468	0.0160913
894.546	0.0160593
894.624	0.0161405
894.703	0.0159855
894.781	0.0159747
894.859	0.0161267
894.937	0.0162499
895.015	0.0161427
895.093	0.0160625
895.171	0.0161890
895.249	0.0161971
895.328	0.0161876
895.406	0.0162431
895.484	0.0163822
895.562	0.0162801
895.640	0.0163643
895.718	0.0163550
895.796	0.0162862
895.874	0.0163278
895.953	0.0163846
896.031	0.0162419
896.109	0.0162819
896.187	0.0162384
896.265	0.0163391
896.343	0.0161442
896.421	0.0162919
896.499	0.0162614
896.578	0.0163900
896.656	0.0162909
896.734	0.0162357
896.812	0.0163047
896.890	0.0161883
896.968	0.0162199
897.046	0.0163034
897.124	0.0161582
897.203	0.0162582
897.281	0.0162692
897.359	0.0161196
897.437	0.0161414
897.515	0.0159911
897.593	0.0161413
897.671	0.0161613
897.749	0.0161984
897.828	0.0162926
897.906	0.0162447
897.984	0.0162666
898.062	0.0162796
898.140	0.0161954
898.218	0.0163740
898.296	0.0163307
898.374	0.0163879
898.453	0.0163515
898.531	0.0163127
898.609	0.0163286
898.687	0.0162628
898.765	0.0161202
898.843	0.0162642
898.921	0.0162817
898.999	0.0164161
899.078	0.0161099
899.156	0.0161820
899.234	0.0162511
899.312	0.0161206
899.390	0.0161942
899.468	0.0162041
899.546	0.0162128
899.624	0.0162858
899.703	0.0161654
899.781	0.0162341
899.859	0.0162740
899.937	0.0163219
900.015	0.0162297
900.093	0.0163068
900.171	0.0163454
900.249	0.0162177
900.328	0.0160907
900.406	0.0161732
900.484	0.0162360
900.562	0.0164150
900.640	0.0162369
900.718	0.0162334
900.796	0.0161140
900.874	0.0161308
900.953	0.0161263
901.031	0.0161484
901.109	0.0162415
901.187	0.0162289
901.265	0.0161458
901.343	0.0160578
901.421	0.0162016
901.499	0.0161242
901.578	0.0161572
901.656	0.0161722
901.734	0.0161511
901.812	0.0161107
901.890	0.0162634
901.968	0.0163136
902.046	0.0163813
902.124	0.0161849
902.203	0.0161353
902.281	0.0162434
902.359	0.0160719
902.437	0.0161890
902.515	0.0163693
902.593	0.0161633
902.671	0.0161871
902.749	0.0161900
902.828	0.0161245
902.906	0.0161916
902.984	0.0161376
903.062	0.0161327
903.140	0.0161234
903.218	0.0162673
903.296	0.0162694
903.374	0.0161816
903.453	0.0162916
903.531	0.0162959
903.609	0.0162872
903.687	0.0164790
903.765	0.0163567
903.843	0.0163891
903.921	0.0164919
903.999	0.0163556
904.078	0.0164870
904.156	0.0164201
904.234	0.0165401
904.312	0.0164510
904.390	0.0163731
904.468	0.0164980
904.546	0.0162956
904.624	0.0163952
904.703	0.0163165
904.781	0.0162566
904.859	0.0161153
904.937	0.0162701
905.015	0.0162041
905.093	0.0161535
905.171	0.0160897
905.249	0.0162279
905.328	0.0161341
905.406	0.0160582
905.484	0.0162840
905.562	0.0162095
905.640	0.0161847
905.718	0.0163280
905.796	0.0163027
905.874	0.0163209
905.953	0.0162354
906.031	0.0163742
906.109	0.0163217
906.187	0.0162060
906.265	0.0162411
906.343	0.0163091
906.421	0.0161468
906.499	0.0162943
906.578	0.0163010
906.656	0.0161343
906.734	0.0161711
906.812	0.0161217
906.890	0.0160783
906.968	0.0160549
907.046	0.0160452
907.124	0.0160977
907.203	0.0160804
907.281	0.0160995
907.359	0.0161604
907.437	0.0162167
907.515	0.0161543
907.593	0.0163300
907.671	0.0160768
907.749	0.0162811
907.828	0.0161558
907.906	0.0163243
907.984	0.0162454
908.062	0.0163335
908.140	0.0164835
908.218	0.0163541
908.296	0.0164571
908.374	0.0164130
908.453	0.0165178
908.531	0.0164239
908.609	0.0164445
908.687	0.0165116
908.765	0.0164104
908.843	0.0162873
908.921	0.0163279
908.999	0.0163436
909.078	0.0163380
909.156	0.0163589
909.234	0.0163554
909.312	0.0163673
909.390	0.0162543
909.468	0.0162445
909.546	0.0164367
909.624	0.0163181
909.703	0.0163045
909.781	0.0164091
909.859	0.0163406
909.937	0.0162033
910.015	0.0162994
910.093	0.0163643
910.171	0.0163211
910.249	0.0162950
910.328	0.0162997
910.406	0.0162814
910.484	0.0162077
910.562	0.0162334
910.640	0.0163708
910.718	0.0160998
910.796	0.0161494
910.874	0.0161277
910.953	0.0161818
911.031	0.0162113
911.109	0.0159756
911.187	0.0160263
911.265	0.0159439
911.343	0.0160043
911.421	0.0159949
911.499	0.0159766
911.578	0.0160919
911.656	0.0160380
911.734	0.0161165
911.812	0.0161048
911.890	0.0160781
911.968	0.0160400
912.046	0.0161592
912.124	0.0161636
912.203	0.0160485
912.281	0.0160748
912.359	0.0161762
912.437	0.0162101
912.515	0.0161336
912.593	0.0162280
912.671	0.0161912
912.749	0.0160889
912.828	0.0162663
912.906	0.0163001
912.984	0.0162125
913.062	0.0162721
913.140	0.0163105
913.218	0.0163334
913.296	0.0163213
913.374	0.0161626
913.453	0.0163645
913.531	0.0163239
913.609	0.0164146
913.687	0.0162841
913.765	0.0162995
913.843	0.0163580
913.921	0.0163510
913.999	0.0162947
914.078	0.0162690
914.156	0.0162307
914.234	0.0163489
914.312	0.0161843
914.390	0.0160916
914.468	0.0160787
914.546	0.0163188
914.624	0.0163345
914.703	0.0161887
914.781	0.0163171
914.859	0.0162459
914.937	0.0161793
915.015	0.0163290
915.093	0.0163376
915.171	0.0160949
915.249	0.0162758
915.328	0.0162859
915.406	0.0163122
915.484	0.0161425
915.562	0.0161613
915.640	0.0162700
915.718	0.0162789
915.796	0.0162379
915.874	0.0163121
915.953	0.0162295
916.031	0.0161382
916.109	0.0161095
916.187	0.0163115
916.265	0.0162613
916.343	0.0161587
916.421	0.0163684
916.499	0.0163150
916.578	0.0162430
916.656	0.0162974
916.734	0.0163684
916.812	0.0162122
916.890	0.0162670
916.968	0.0162874
917.046	0.0163499
917.124	0.0162937
917.203	0.0165054
917.281	0.0162714
917.359	0.0162891
917.437	0.0161359
917.515	0.0161654
917.593	0.0162367
917.671	0.0162507
917.749	0.0161030
917.828	0.0160406
917.906	0.0160809
917.984	0.0159970
918.062	0.0160039
918.140	0.0158994
918.218	0.0159396
918.296	0.0159544
918.374	0.0158776
918.453	0.0159407
918.531	0.0158998
918.609	0.0160582
918.687	0.0160484
918.765	0.0160231
918.843	0.0159155
918.921	0.0160390
918.999	0.0160214
919.078	0.0160782
919.156	0.0162182
919.234	0.0161655
919.312	0.0163338
919.390	0.0162609
919.468	0.0161953
919.546	0.0164126
919.624	0.0164018
919.703	0.0165247
919.781	0.0164138
919.859	0.0165080
919.937	0.0164860
