06/10/2022	18:33:24	Ver.	4.1	UNKNOWN
Optical Delay	600.015094	Delta X		0.078125	Sweeps	1	Scan Rate	0/0
Coordinates	Axis 1	NaN	Axis 2	NaN	Axis 3	NaN	Axis 4	NaN	Axis 5	NaN	Axis 6	0.000000
TX Power	0.000000	RX Power	0.000000

600.015	0.0165855
600.093	0.0165738
600.171	0.0166372
600.249	0.0166025
600.328	0.0166124
600.406	0.0166769
600.484	0.0165923
600.562	0.0165632
600.640	0.0166354
600.718	0.0166015
600.796	0.0166367
600.874	0.0166366
600.953	0.0165922
601.031	0.0165428
601.109	0.0165811
601.187	0.0166533
601.265	0.0167200
601.343	0.0166767
601.421	0.0165799
601.499	0.0165350
601.578	0.0165849
601.656	0.0167374
601.734	0.0167235
601.812	0.0165514
601.890	0.0164650
601.968	0.0166473
602.046	0.0165236
602.124	0.0166280
602.203	0.0167142
602.281	0.0163959
602.359	0.0166120
602.437	0.0165568
602.515	0.0166987
602.593	0.0166190
602.671	0.0164643
602.749	0.0165665
602.828	0.0164774
602.906	0.0164462
602.984	0.0166133
603.062	0.0165607
603.140	0.0165939
603.218	0.0165965
603.296	0.0166138
603.374	0.0165436
603.453	0.0165216
603.531	0.0166827
603.609	0.0165154
603.687	0.0165285
603.765	0.0166420
603.843	0.0165390
603.921	0.0164778
603.999	0.0165652
604.078	0.0165659
604.156	0.0165517
604.234	0.0165514
604.312	0.0165768
604.390	0.0165305
604.468	0.0166411
604.546	0.0166019
604.624	0.0166419
604.703	0.0164107
604.781	0.0165529
604.859	0.0166164
604.937	0.0165604
605.015	0.0165077
605.093	0.0166174
605.171	0.0165059
605.249	0.0164532
605.328	0.0166066
605.406	0.0166872
605.484	0.0166389
605.562	0.0164723
605.640	0.0164031
605.718	0.0164854
605.796	0.0165526
605.874	0.0166245
605.953	0.0165346
606.031	0.0164614
606.109	0.0166113
606.187	0.0166158
606.265	0.0166412
606.343	0.0164719
606.421	0.0165180
606.499	0.0165523
606.578	0.0165108
606.656	0.0164938
606.734	0.0165987
606.812	0.0166177
606.890	0.0166051
606.968	0.0165707
607.046	0.0165134
607.124	0.0165397
607.203	0.0166539
607.281	0.0165356
607.359	0.0164476
607.437	0.0166425
607.515	0.0166345
607.593	0.0164912
607.671	0.0165490
607.749	0.0166254
607.828	0.0165155
607.906	0.0165902
607.984	0.0165413
608.062	0.0165079
608.140	0.0166569
608.218	0.0165119
608.296	0.0163973
608.374	0.0165102
608.453	0.0165632
608.531	0.0165073
608.609	0.0164377
608.687	0.0165703
608.765	0.0165364
608.843	0.0165449
608.921	0.0167418
608.999	0.0165706
609.078	0.0165578
609.156	0.0166792
609.234	0.0164420
609.312	0.0164645
609.390	0.0166208
609.468	0.0163750
609.546	0.0164739
609.624	0.0166254
609.703	0.0166583
609.781	0.0165318
609.859	0.0165193
609.937	0.0165366
610.015	0.0164043
610.093	0.0166215
610.171	0.0166037
610.249	0.0164735
610.328	0.0164881
610.406	0.0165857
610.484	0.0166234
610.562	0.0165934
610.640	0.0164393
610.718	0.0165105
610.796	0.0164926
610.874	0.0165260
610.953	0.0164866
611.031	0.0166435
611.109	0.0165632
611.187	0.0164413
611.265	0.0165037
611.343	0.0166290
611.421	0.0167254
611.499	0.0164596
611.578	0.0164949
611.656	0.0164293
611.734	0.0165614
611.812	0.0166061
611.890	0.0164992
611.968	0.0164939
612.046	0.0166205
612.124	0.0165788
612.203	0.0165288
612.281	0.0164325
612.359	0.0165182
612.437	0.0165070
612.515	0.0165025
612.593	0.0166007
612.671	0.0164964
612.749	0.0165891
612.828	0.0164330
612.906	0.0164862
612.984	0.0165045
613.062	0.0164833
613.140	0.0165112
613.218	0.0165919
613.296	0.0164407
613.374	0.0164767
613.453	0.0164983
613.531	0.0165665
613.609	0.0164967
613.687	0.0165495
613.765	0.0164984
613.843	0.0166049
613.921	0.0166718
613.999	0.0164848
614.078	0.0163969
614.156	0.0167073
614.234	0.0165864
614.312	0.0163888
614.390	0.0165713
614.468	0.0164953
614.546	0.0165549
614.624	0.0163948
614.703	0.0166003
614.781	0.0164992
614.859	0.0165137
614.937	0.0165068
615.015	0.0165031
615.093	0.0165237
615.171	0.0164158
615.249	0.0165511
615.328	0.0166355
615.406	0.0165890
615.484	0.0165238
615.562	0.0165745
615.640	0.0164942
615.718	0.0165191
615.796	0.0164654
615.874	0.0165936
615.953	0.0166566
616.031	0.0164809
616.109	0.0165014
616.187	0.0166147
616.265	0.0166044
616.343	0.0165749
616.421	0.0164595
616.499	0.0165494
616.578	0.0165163
616.656	0.0164450
616.734	0.0166300
616.812	0.0165579
616.890	0.0164207
616.968	0.0167075
617.046	0.0166743
617.124	0.0164276
617.203	0.0167290
617.281	0.0167297
617.359	0.0164997
617.437	0.0165046
617.515	0.0166527
617.593	0.0166061
617.671	0.0165024
617.749	0.0164722
617.828	0.0165423
617.906	0.0165778
617.984	0.0165793
618.062	0.0166242
618.140	0.0163866
618.218	0.0164947
618.296	0.0165495
618.374	0.0166757
618.453	0.0165677
618.531	0.0164065
618.609	0.0165562
618.687	0.0166415
618.765	0.0164514
618.843	0.0165576
618.921	0.0165693
618.999	0.0165383
619.078	0.0165383
619.156	0.0165082
619.234	0.0166592
619.312	0.0165495
619.390	0.0165160
619.468	0.0165167
619.546	0.0165769
619.624	0.0165930
619.703	0.0164183
619.781	0.0164957
619.859	0.0165562
619.937	0.0166186
620.015	0.0164960
620.093	0.0164186
620.171	0.0165909
620.249	0.0164474
620.328	0.0165134
620.406	0.0165317
620.484	0.0165536
620.562	0.0166290
620.640	0.0165056
620.718	0.0165285
620.796	0.0164746
620.874	0.0166441
620.953	0.0166191
621.031	0.0166811
621.109	0.0164504
621.187	0.0164850
621.265	0.0164326
621.343	0.0166282
621.421	0.0164394
621.499	0.0164912
621.578	0.0165745
621.656	0.0164902
621.734	0.0165533
621.812	0.0165486
621.890	0.0165112
621.968	0.0165055
622.046	0.0165089
622.124	0.0165867
622.203	0.0165565
622.281	0.0166010
622.359	0.0165212
622.437	0.0166725
622.515	0.0164804
622.593	0.0164468
622.671	0.0165702
622.749	0.0165582
622.828	0.0165822
622.906	0.0165763
622.984	0.0165099
623.062	0.0164634
623.140	0.0166000
623.218	0.0165667
623.296	0.0165308
623.374	0.0165357
623.453	0.0166325
623.531	0.0165386
623.609	0.0165546
623.687	0.0164713
623.765	0.0165381
623.843	0.0164316
623.921	0.0164417
623.999	0.0164332
624.078	0.0165013
624.156	0.0164178
624.234	0.0164784
624.312	0.0165482
624.390	0.0166171
624.468	0.0165418
624.546	0.0164848
624.624	0.0165554
624.703	0.0164885
624.781	0.0165414
624.859	0.0165475
624.937	0.0165285
625.015	0.0165769
625.093	0.0165132
625.171	0.0164713
625.249	0.0165152
625.328	0.0166457
625.406	0.0165773
625.484	0.0165905
625.562	0.0165228
625.640	0.0166600
625.718	0.0166759
625.796	0.0165876
625.874	0.0166502
625.953	0.0165247
626.031	0.0164781
626.109	0.0165755
626.187	0.0165688
626.265	0.0165491
626.343	0.0165290
626.421	0.0165984
626.499	0.0165648
626.578	0.0164812
626.656	0.0166003
626.734	0.0166299
626.812	0.0165000
626.890	0.0165276
626.968	0.0166005
627.046	0.0166167
627.124	0.0164865
627.203	0.0165202
627.281	0.0164950
627.359	0.0165939
627.437	0.0166848
627.515	0.0165341
627.593	0.0167474
627.671	0.0166138
627.749	0.0165917
627.828	0.0165806
627.906	0.0165459
627.984	0.0165292
628.062	0.0165833
628.140	0.0166072
628.218	0.0164761
628.296	0.0165453
628.374	0.0165443
628.453	0.0165499
628.531	0.0165022
628.609	0.0165979
628.687	0.0165759
628.765	0.0165729
628.843	0.0165342
628.921	0.0164472
628.999	0.0166203
629.078	0.0166092
629.156	0.0164766
629.234	0.0165318
629.312	0.0165981
629.390	0.0166196
629.468	0.0165314
629.546	0.0166575
629.624	0.0166208
629.703	0.0165014
629.781	0.0164928
629.859	0.0166127
629.937	0.0165989
630.015	0.0166588
630.093	0.0165981
630.171	0.0165664
630.249	0.0165868
630.328	0.0164040
630.406	0.0165671
630.484	0.0166669
630.562	0.0165675
630.640	0.0165546
630.718	0.0166414
630.796	0.0164719
630.874	0.0165495
630.953	0.0165111
631.031	0.0165694
631.109	0.0166014
631.187	0.0165184
631.265	0.0165483
631.343	0.0165195
631.421	0.0165984
631.499	0.0165499
631.578	0.0164333
631.656	0.0165017
631.734	0.0165091
631.812	0.0165364
631.890	0.0165751
631.968	0.0164294
632.046	0.0164122
632.124	0.0166073
632.203	0.0166343
632.281	0.0163771
632.359	0.0166468
632.437	0.0165526
632.515	0.0165838
632.593	0.0167076
632.671	0.0165640
632.749	0.0164679
632.828	0.0165497
632.906	0.0165514
632.984	0.0164032
633.062	0.0164761
633.140	0.0166183
633.218	0.0164942
633.296	0.0165881
633.374	0.0166177
633.453	0.0166338
633.531	0.0165952
633.609	0.0166171
633.687	0.0165064
633.765	0.0165395
633.843	0.0164834
633.921	0.0165227
633.999	0.0164729
634.078	0.0164263
634.156	0.0166663
634.234	0.0164598
634.312	0.0165747
634.390	0.0164857
634.468	0.0166798
634.546	0.0166002
634.624	0.0166666
634.703	0.0165536
634.781	0.0165112
634.859	0.0165864
634.937	0.0166685
635.015	0.0165507
635.093	0.0165167
635.171	0.0166480
635.249	0.0167139
635.328	0.0167103
635.406	0.0165872
635.484	0.0165459
635.562	0.0165878
635.640	0.0164935
635.718	0.0165587
635.796	0.0166118
635.874	0.0165527
635.953	0.0164558
636.031	0.0165661
636.109	0.0164880
636.187	0.0167455
636.265	0.0165253
636.343	0.0164569
636.421	0.0164559
636.499	0.0166383
636.578	0.0164981
636.656	0.0166147
636.734	0.0164575
636.812	0.0165531
636.890	0.0166026
636.968	0.0164639
637.046	0.0165270
637.124	0.0164532
637.203	0.0165201
637.281	0.0165622
637.359	0.0165258
637.437	0.0166856
637.515	0.0165452
637.593	0.0165474
637.671	0.0164729
637.749	0.0165322
637.828	0.0165405
637.906	0.0165247
637.984	0.0165810
638.062	0.0166844
638.140	0.0166605
638.218	0.0164575
638.296	0.0165030
638.374	0.0164304
638.453	0.0164764
638.531	0.0164655
638.609	0.0164752
638.687	0.0164102
638.765	0.0164946
638.843	0.0166393
638.921	0.0165799
638.999	0.0164301
639.078	0.0165253
639.156	0.0165756
639.234	0.0165932
639.312	0.0166345
639.390	0.0164559
639.468	0.0165881
639.546	0.0166346
639.624	0.0165483
639.703	0.0165792
639.781	0.0166078
639.859	0.0165114
639.937	0.0166254
640.015	0.0164865
640.093	0.0166030
640.171	0.0166418
640.249	0.0165908
640.328	0.0164935
640.406	0.0163860
640.484	0.0165760
640.562	0.0166374
640.640	0.0166658
640.718	0.0165883
640.796	0.0165189
640.874	0.0166103
640.953	0.0166037
641.031	0.0166305
641.109	0.0165496
641.187	0.0165396
641.265	0.0166491
641.343	0.0164803
641.421	0.0165829
641.499	0.0164928
641.578	0.0165180
641.656	0.0165929
641.734	0.0165484
641.812	0.0166232
641.890	0.0164620
641.968	0.0165602
642.046	0.0166257
642.124	0.0165440
642.203	0.0166339
642.281	0.0165567
642.359	0.0163975
642.437	0.0164890
642.515	0.0164404
642.593	0.0166011
642.671	0.0166094
642.749	0.0165017
642.828	0.0165105
642.906	0.0166236
642.984	0.0163769
643.062	0.0165624
643.140	0.0165334
643.218	0.0165559
643.296	0.0165880
643.374	0.0165279
643.453	0.0164454
643.531	0.0165823
643.609	0.0165549
643.687	0.0166391
643.765	0.0164967
643.843	0.0166095
643.921	0.0165708
643.999	0.0164249
644.078	0.0165337
644.156	0.0164749
644.234	0.0163826
644.312	0.0165676
644.390	0.0164192
644.468	0.0165988
644.546	0.0166735
644.624	0.0165802
644.703	0.0164378
644.781	0.0165460
644.859	0.0165250
644.937	0.0166069
645.015	0.0165456
645.093	0.0165646
645.171	0.0165028
645.249	0.0165152
645.328	0.0165772
645.406	0.0163859
645.484	0.0165372
645.562	0.0165968
645.640	0.0166038
645.718	0.0165205
645.796	0.0165382
645.874	0.0165489
645.953	0.0165863
646.031	0.0165720
646.109	0.0166277
646.187	0.0165596
646.265	0.0164122
646.343	0.0165722
646.421	0.0164708
646.499	0.0165066
646.578	0.0165205
646.656	0.0165847
646.734	0.0164389
646.812	0.0165711
646.890	0.0165758
646.968	0.0163672
647.046	0.0165875
647.124	0.0165630
647.203	0.0165298
647.281	0.0165733
647.359	0.0166871
647.437	0.0166027
647.515	0.0165674
647.593	0.0165807
647.671	0.0164114
647.749	0.0164498
647.828	0.0164968
647.906	0.0165913
647.984	0.0166783
648.062	0.0165846
648.140	0.0165231
648.218	0.0166130
648.296	0.0166570
648.374	0.0166173
648.453	0.0165285
648.531	0.0166663
648.609	0.0167229
648.687	0.0165087
648.765	0.0165456
648.843	0.0167456
648.921	0.0165709
648.999	0.0165621
649.078	0.0164905
649.156	0.0166136
649.234	0.0163348
649.312	0.0165327
649.390	0.0165857
649.468	0.0164410
649.546	0.0166080
649.624	0.0165474
649.703	0.0165818
649.781	0.0165931
649.859	0.0167123
649.937	0.0167114
650.015	0.0165041
650.093	0.0165096
650.171	0.0165239
650.249	0.0166097
650.328	0.0165582
650.406	0.0165620
650.484	0.0164803
650.562	0.0165775
650.640	0.0166241
650.718	0.0165508
650.796	0.0166699
650.874	0.0164665
650.953	0.0165788
651.031	0.0166741
651.109	0.0166050
651.187	0.0166470
651.265	0.0166328
651.343	0.0164407
651.421	0.0165303
651.499	0.0165764
651.578	0.0164107
651.656	0.0165908
651.734	0.0165462
651.812	0.0164790
651.890	0.0166660
651.968	0.0166045
652.046	0.0165910
652.124	0.0164815
652.203	0.0165105
652.281	0.0166315
652.359	0.0166062
652.437	0.0166441
652.515	0.0166395
652.593	0.0164494
652.671	0.0165702
652.749	0.0166096
652.828	0.0165122
652.906	0.0165696
652.984	0.0166486
653.062	0.0166669
653.140	0.0165624
653.218	0.0164969
653.296	0.0166550
653.374	0.0166222
653.453	0.0166965
653.531	0.0164281
653.609	0.0165814
653.687	0.0165917
653.765	0.0164222
653.843	0.0165452
653.921	0.0165800
653.999	0.0165223
654.078	0.0165653
654.156	0.0166222
654.234	0.0166171
654.312	0.0165861
654.390	0.0164940
654.468	0.0166000
654.546	0.0164415
654.624	0.0165559
654.703	0.0165527
654.781	0.0165452
654.859	0.0165679
654.937	0.0165665
655.015	0.0164397
655.093	0.0165496
655.171	0.0164962
655.249	0.0165089
655.328	0.0165608
655.406	0.0164479
655.484	0.0166519
655.562	0.0165392
655.640	0.0165542
655.718	0.0166207
655.796	0.0165729
655.874	0.0165157
655.953	0.0165302
656.031	0.0165544
656.109	0.0165726
656.187	0.0165950
656.265	0.0165892
656.343	0.0165804
656.421	0.0164975
656.499	0.0165513
656.578	0.0166458
656.656	0.0165948
656.734	0.0166394
656.812	0.0165701
656.890	0.0165609
656.968	0.0165144
657.046	0.0165298
657.124	0.0166501
657.203	0.0166186
657.281	0.0166763
657.359	0.0165197
657.437	0.0165149
657.515	0.0164607
657.593	0.0164014
657.671	0.0167451
657.749	0.0166018
657.828	0.0166290
657.906	0.0166158
657.984	0.0163759
658.062	0.0166004
658.140	0.0165289
658.218	0.0167490
658.296	0.0165926
658.374	0.0163694
658.453	0.0165092
658.531	0.0166199
658.609	0.0165443
658.687	0.0165183
658.765	0.0165427
658.843	0.0166190
658.921	0.0165426
658.999	0.0166530
659.078	0.0166921
659.156	0.0165515
659.234	0.0166062
659.312	0.0165855
659.390	0.0165860
659.468	0.0164771
659.546	0.0166505
659.624	0.0164960
659.703	0.0165507
659.781	0.0166356
659.859	0.0167186
659.937	0.0166428
660.015	0.0165408
660.093	0.0165387
660.171	0.0166080
660.249	0.0166899
660.328	0.0166163
660.406	0.0164830
660.484	0.0166296
660.562	0.0166286
660.640	0.0165083
660.718	0.0166282
660.796	0.0165255
660.874	0.0165989
660.953	0.0166362
661.031	0.0166608
661.109	0.0165866
661.187	0.0165887
661.265	0.0165410
661.343	0.0165769
661.421	0.0166356
661.499	0.0166936
661.578	0.0166329
661.656	0.0166161
661.734	0.0166039
661.812	0.0165429
661.890	0.0165280
661.968	0.0165769
662.046	0.0165185
662.124	0.0164915
662.203	0.0165282
662.281	0.0166438
662.359	0.0166101
662.437	0.0166228
662.515	0.0166779
662.593	0.0165034
662.671	0.0164487
662.749	0.0164885
662.828	0.0166218
662.906	0.0166857
662.984	0.0165378
663.062	0.0164943
663.140	0.0164846
663.218	0.0165722
663.296	0.0165946
663.374	0.0164626
663.453	0.0165616
663.531	0.0165804
663.609	0.0165730
663.687	0.0166560
663.765	0.0165681
663.843	0.0165732
663.921	0.0166272
663.999	0.0164941
664.078	0.0164969
664.156	0.0165690
664.234	0.0165424
664.312	0.0166424
664.390	0.0165984
664.468	0.0164936
664.546	0.0165718
664.624	0.0165987
664.703	0.0166922
664.781	0.0165553
664.859	0.0163300
664.937	0.0165910
665.015	0.0165807
665.093	0.0165331
665.171	0.0165112
665.249	0.0165398
665.328	0.0165405
665.406	0.0165144
665.484	0.0165340
665.562	0.0164465
665.640	0.0166311
665.718	0.0165227
665.796	0.0165166
665.874	0.0164976
665.953	0.0165587
666.031	0.0165408
666.109	0.0164028
666.187	0.0166634
666.265	0.0165157
666.343	0.0166069
666.421	0.0164015
666.499	0.0165347
666.578	0.0165294
666.656	0.0166383
666.734	0.0165730
666.812	0.0164280
666.890	0.0164701
666.968	0.0164890
667.046	0.0166609
667.124	0.0164472
667.203	0.0164504
667.281	0.0164893
667.359	0.0166066
667.437	0.0165762
667.515	0.0165531
667.593	0.0163387
667.671	0.0165759
667.749	0.0165647
667.828	0.0165179
667.906	0.0166011
667.984	0.0165492
668.062	0.0166184
668.140	0.0167819
668.218	0.0164698
668.296	0.0165233
668.374	0.0165232
668.453	0.0165704
668.531	0.0164973
668.609	0.0166135
668.687	0.0164595
668.765	0.0164413
668.843	0.0165128
668.921	0.0164931
668.999	0.0165714
669.078	0.0166082
669.156	0.0166471
669.234	0.0165202
669.312	0.0165150
669.390	0.0164948
669.468	0.0164436
669.546	0.0165734
669.624	0.0166340
669.703	0.0166138
669.781	0.0165292
669.859	0.0164360
669.937	0.0165755
670.015	0.0165276
670.093	0.0166275
670.171	0.0166414
670.249	0.0166042
670.328	0.0166567
670.406	0.0165742
670.484	0.0165987
670.562	0.0165231
670.640	0.0166881
670.718	0.0165300
670.796	0.0167021
670.874	0.0166106
670.953	0.0165448
671.031	0.0164476
671.109	0.0165659
671.187	0.0166315
671.265	0.0165209
671.343	0.0164222
671.421	0.0164629
671.499	0.0166173
671.578	0.0165482
671.656	0.0165071
671.734	0.0165366
671.812	0.0166450
671.890	0.0165234
671.968	0.0164822
672.046	0.0165795
672.124	0.0164817
672.203	0.0165432
672.281	0.0165948
672.359	0.0165182
672.437	0.0165079
672.515	0.0166699
672.593	0.0166518
672.671	0.0164930
672.749	0.0165089
672.828	0.0165620
672.906	0.0166617
672.984	0.0166085
673.062	0.0165446
673.140	0.0165311
673.218	0.0165736
673.296	0.0164875
673.374	0.0165730
673.453	0.0164525
673.531	0.0164072
673.609	0.0165598
673.687	0.0166094
673.765	0.0165075
673.843	0.0166768
673.921	0.0164745
673.999	0.0166062
674.078	0.0166871
674.156	0.0163750
674.234	0.0164441
674.312	0.0166601
674.390	0.0166950
674.468	0.0165829
674.546	0.0166620
674.624	0.0167303
674.703	0.0167474
674.781	0.0166585
674.859	0.0166443
674.937	0.0165513
675.015	0.0165744
675.093	0.0167471
675.171	0.0165026
675.249	0.0166615
675.328	0.0166266
675.406	0.0164635
675.484	0.0164645
675.562	0.0166324
675.640	0.0166262
675.718	0.0165201
675.796	0.0164551
675.874	0.0165547
675.953	0.0166029
676.031	0.0165632
676.109	0.0165923
676.187	0.0165868
676.265	0.0164895
676.343	0.0166134
676.421	0.0164367
676.499	0.0166145
676.578	0.0165082
676.656	0.0166252
676.734	0.0165847
676.812	0.0167834
676.890	0.0165750
676.968	0.0167270
677.046	0.0166087
677.124	0.0163795
677.203	0.0165633
677.281	0.0165462
677.359	0.0165498
677.437	0.0165474
677.515	0.0165118
677.593	0.0164364
677.671	0.0165350
677.749	0.0166640
677.828	0.0165967
677.906	0.0165660
677.984	0.0166253
678.062	0.0165598
678.140	0.0166763
678.218	0.0166549
678.296	0.0165529
678.374	0.0164764
678.453	0.0164905
678.531	0.0167058
678.609	0.0166416
678.687	0.0166593
678.765	0.0165589
678.843	0.0165247
678.921	0.0164472
678.999	0.0165388
679.078	0.0165926
679.156	0.0165464
679.234	0.0165110
679.312	0.0164162
679.390	0.0164948
679.468	0.0165649
679.546	0.0165717
679.624	0.0165937
679.703	0.0164555
679.781	0.0165651
679.859	0.0166467
679.937	0.0165941
680.015	0.0165283
680.093	0.0165087
680.171	0.0165351
680.249	0.0164570
680.328	0.0164415
680.406	0.0165842
680.484	0.0166341
680.562	0.0163998
680.640	0.0164656
680.718	0.0165600
680.796	0.0163917
680.874	0.0164822
680.953	0.0164478
681.031	0.0165040
681.109	0.0165631
681.187	0.0165463
681.265	0.0164949
681.343	0.0165812
681.421	0.0165730
681.499	0.0166178
681.578	0.0166124
681.656	0.0164887
681.734	0.0166975
681.812	0.0166434
681.890	0.0165451
681.968	0.0165440
682.046	0.0166234
682.124	0.0166441
682.203	0.0166557
682.281	0.0165384
682.359	0.0165173
682.437	0.0165787
682.515	0.0165368
682.593	0.0166798
682.671	0.0166342
682.749	0.0166216
682.828	0.0166959
682.906	0.0166277
682.984	0.0166351
683.062	0.0166993
683.140	0.0166019
683.218	0.0165250
683.296	0.0166466
683.374	0.0165099
683.453	0.0166266
683.531	0.0165993
683.609	0.0165012
683.687	0.0166001
683.765	0.0164983
683.843	0.0167207
683.921	0.0165343
683.999	0.0164053
684.078	0.0164107
684.156	0.0165664
684.234	0.0165174
684.312	0.0164980
684.390	0.0164901
684.468	0.0165082
684.546	0.0165688
684.624	0.0165788
684.703	0.0165321
684.781	0.0165602
684.859	0.0164787
684.937	0.0166357
685.015	0.0166168
685.093	0.0164564
685.171	0.0165707
685.249	0.0163931
685.328	0.0166072
685.406	0.0165399
685.484	0.0165854
685.562	0.0165134
685.640	0.0164819
685.718	0.0165602
685.796	0.0166038
685.874	0.0166361
685.953	0.0165282
686.031	0.0165079
686.109	0.0165029
686.187	0.0165675
686.265	0.0165890
686.343	0.0166724
686.421	0.0165871
686.499	0.0164601
686.578	0.0164529
686.656	0.0165587
686.734	0.0165962
686.812	0.0165266
686.890	0.0164320
686.968	0.0166080
687.046	0.0166736
687.124	0.0164302
687.203	0.0165271
687.281	0.0164554
687.359	0.0163805
687.437	0.0165305
687.515	0.0165939
687.593	0.0166651
687.671	0.0166016
687.749	0.0165367
687.828	0.0166174
687.906	0.0165990
687.984	0.0164745
688.062	0.0163627
688.140	0.0165484
688.218	0.0166740
688.296	0.0165757
688.374	0.0165491
688.453	0.0164536
688.531	0.0165510
688.609	0.0163814
688.687	0.0164539
688.765	0.0166803
688.843	0.0165597
688.921	0.0166403
688.999	0.0165885
689.078	0.0166099
689.156	0.0166908
689.234	0.0164603
689.312	0.0166383
689.390	0.0167251
689.468	0.0166295
689.546	0.0165932
689.624	0.0166585
689.703	0.0165827
689.781	0.0166000
689.859	0.0164584
689.937	0.0163892
690.015	0.0166612
690.093	0.0166076
690.171	0.0165513
690.249	0.0164281
690.328	0.0165800
690.406	0.0165862
690.484	0.0165696
690.562	0.0165837
690.640	0.0165750
690.718	0.0165654
690.796	0.0164899
690.874	0.0165582
690.953	0.0166007
691.031	0.0165732
691.109	0.0166080
691.187	0.0165045
691.265	0.0165722
691.343	0.0165910
691.421	0.0165591
691.499	0.0165571
691.578	0.0166975
691.656	0.0166782
691.734	0.0166310
691.812	0.0164264
691.890	0.0165345
691.968	0.0166672
692.046	0.0165804
692.124	0.0165481
692.203	0.0165044
692.281	0.0166149
692.359	0.0166682
692.437	0.0167400
692.515	0.0166529
692.593	0.0166446
692.671	0.0166653
692.749	0.0166987
692.828	0.0165511
692.906	0.0166009
692.984	0.0165117
693.062	0.0166273
693.140	0.0165941
693.218	0.0167126
693.296	0.0165915
693.374	0.0165398
693.453	0.0167076
693.531	0.0165232
693.609	0.0166003
693.687	0.0166625
693.765	0.0165301
693.843	0.0164959
693.921	0.0164740
693.999	0.0165129
694.078	0.0166723
694.156	0.0166014
694.234	0.0165358
694.312	0.0165479
694.390	0.0166845
694.468	0.0164806
694.546	0.0164182
694.624	0.0165668
694.703	0.0165909
694.781	0.0165299
694.859	0.0166157
694.937	0.0165295
695.015	0.0165191
695.093	0.0166222
695.171	0.0165082
695.249	0.0165691
695.328	0.0166180
695.406	0.0165558
695.484	0.0165064
695.562	0.0164761
695.640	0.0165502
695.718	0.0164847
695.796	0.0166171
695.874	0.0167126
695.953	0.0166492
696.031	0.0166306
696.109	0.0164861
696.187	0.0165926
696.265	0.0165686
696.343	0.0166026
696.421	0.0166201
696.499	0.0166685
696.578	0.0163834
696.656	0.0165909
696.734	0.0166720
696.812	0.0165119
696.890	0.0165922
696.968	0.0165354
697.046	0.0166229
697.124	0.0165113
697.203	0.0166283
697.281	0.0165430
697.359	0.0164622
697.437	0.0166016
697.515	0.0164365
697.593	0.0164687
697.671	0.0165251
697.749	0.0165543
697.828	0.0163794
697.906	0.0164803
697.984	0.0164548
698.062	0.0164951
698.140	0.0165432
698.218	0.0164942
698.296	0.0166232
698.374	0.0165029
698.453	0.0165048
698.531	0.0165687
698.609	0.0164735
698.687	0.0164612
698.765	0.0164560
698.843	0.0166074
698.921	0.0165073
698.999	0.0165067
699.078	0.0165063
699.156	0.0165598
699.234	0.0165351
699.312	0.0165575
699.390	0.0164602
699.468	0.0165905
699.546	0.0165002
699.624	0.0166470
699.703	0.0166120
699.781	0.0165427
699.859	0.0166219
699.937	0.0166504
700.015	0.0166500
700.093	0.0164722
700.171	0.0165057
700.249	0.0166431
700.328	0.0165710
700.406	0.0166856
700.484	0.0164647
700.562	0.0164818
700.640	0.0166536
700.718	0.0165762
700.796	0.0165176
700.874	0.0166895
700.953	0.0165494
701.031	0.0165507
701.109	0.0165965
701.187	0.0165798
701.265	0.0164898
701.343	0.0165888
701.421	0.0166074
701.499	0.0165408
701.578	0.0164797
701.656	0.0164774
701.734	0.0164827
701.812	0.0165183
701.890	0.0163824
701.968	0.0165318
702.046	0.0164929
702.124	0.0166050
702.203	0.0165903
702.281	0.0165994
702.359	0.0167504
702.437	0.0165433
702.515	0.0164771
702.593	0.0165417
702.671	0.0165160
702.749	0.0165023
702.828	0.0165572
702.906	0.0165337
702.984	0.0165917
703.062	0.0166570
703.140	0.0165505
703.218	0.0165827
703.296	0.0165493
703.374	0.0165170
703.453	0.0164294
703.531	0.0165859
703.609	0.0165517
703.687	0.0165531
703.765	0.0165242
703.843	0.0165018
703.921	0.0165768
703.999	0.0166572
704.078	0.0165115
704.156	0.0164688
704.234	0.0164350
704.312	0.0164766
704.390	0.0165530
704.468	0.0164938
704.546	0.0165627
704.624	0.0164339
704.703	0.0165120
704.781	0.0165662
704.859	0.0165865
704.937	0.0165612
705.015	0.0166030
705.093	0.0165092
705.171	0.0165469
705.249	0.0166057
705.328	0.0165477
705.406	0.0165519
705.484	0.0164846
705.562	0.0164738
705.640	0.0166040
705.718	0.0165202
705.796	0.0164468
705.874	0.0166161
705.953	0.0165240
706.031	0.0164515
706.109	0.0164852
706.187	0.0165276
706.265	0.0164027
706.343	0.0165643
706.421	0.0164231
706.499	0.0166055
706.578	0.0167094
706.656	0.0166451
706.734	0.0165529
706.812	0.0165453
706.890	0.0164328
706.968	0.0165311
707.046	0.0165419
707.124	0.0165805
707.203	0.0165290
707.281	0.0164988
707.359	0.0165586
707.437	0.0165482
707.515	0.0166010
707.593	0.0165149
707.671	0.0164214
707.749	0.0166239
707.828	0.0165318
707.906	0.0165475
707.984	0.0165566
708.062	0.0165936
708.140	0.0166682
708.218	0.0165641
708.296	0.0164821
708.374	0.0166183
708.453	0.0166367
708.531	0.0164554
708.609	0.0165041
708.687	0.0166250
708.765	0.0166079
708.843	0.0166018
708.921	0.0165378
708.999	0.0165589
709.078	0.0164170
709.156	0.0164463
709.234	0.0165649
709.312	0.0165962
709.390	0.0165671
709.468	0.0165289
709.546	0.0164505
709.624	0.0167104
709.703	0.0164515
709.781	0.0165019
709.859	0.0165385
709.937	0.0165581
710.015	0.0165345
710.093	0.0164657
710.171	0.0165275
710.249	0.0165926
710.328	0.0164153
710.406	0.0164193
710.484	0.0165517
710.562	0.0164757
710.640	0.0164801
710.718	0.0164631
710.796	0.0165216
710.874	0.0165834
710.953	0.0165372
711.031	0.0164130
711.109	0.0164017
711.187	0.0165724
711.265	0.0165385
711.343	0.0165382
711.421	0.0166807
711.499	0.0164874
711.578	0.0164940
711.656	0.0164413
711.734	0.0164381
711.812	0.0165588
711.890	0.0164818
711.968	0.0165655
712.046	0.0164983
712.124	0.0165250
712.203	0.0163905
712.281	0.0164139
712.359	0.0165360
712.437	0.0164819
712.515	0.0165392
712.593	0.0165658
712.671	0.0165178
712.749	0.0165884
712.828	0.0165557
712.906	0.0164831
712.984	0.0164690
713.062	0.0164939
713.140	0.0164191
713.218	0.0164577
713.296	0.0165979
713.374	0.0164275
713.453	0.0165570
713.531	0.0165601
713.609	0.0163789
713.687	0.0164756
713.765	0.0164571
713.843	0.0165533
713.921	0.0165641
713.999	0.0164902
714.078	0.0165080
714.156	0.0164874
714.234	0.0164743
714.312	0.0164145
714.390	0.0164624
714.468	0.0165641
714.546	0.0165822
714.624	0.0162583
714.703	0.0165047
714.781	0.0165993
714.859	0.0163911
714.937	0.0165234
715.015	0.0165941
715.093	0.0164802
715.171	0.0165780
715.249	0.0164948
715.328	0.0165194
715.406	0.0165882
715.484	0.0165197
715.562	0.0164583
715.640	0.0164577
715.718	0.0166647
715.796	0.0163846
715.874	0.0166049
715.953	0.0164515
716.031	0.0165530
716.109	0.0164873
716.187	0.0166431
716.265	0.0165280
716.343	0.0164964
716.421	0.0165204
716.499	0.0165134
716.578	0.0165125
716.656	0.0165779
716.734	0.0165189
716.812	0.0165300
716.890	0.0165657
716.968	0.0165551
717.046	0.0164858
717.124	0.0163527
717.203	0.0165151
717.281	0.0166605
717.359	0.0165532
717.437	0.0165394
717.515	0.0165820
717.593	0.0165525
717.671	0.0165776
717.749	0.0165282
717.828	0.0165045
717.906	0.0165372
717.984	0.0164208
718.062	0.0164829
718.140	0.0164745
718.218	0.0165154
718.296	0.0165676
718.374	0.0165153
718.453	0.0164705
718.531	0.0165318
718.609	0.0165522
718.687	0.0165825
718.765	0.0165010
718.843	0.0165057
718.921	0.0164890
718.999	0.0165475
719.078	0.0164063
719.156	0.0166010
719.234	0.0165954
719.312	0.0164673
719.390	0.0164476
719.468	0.0165343
719.546	0.0166091
719.624	0.0165032
719.703	0.0166087
719.781	0.0166795
719.859	0.0165923
719.937	0.0165790
720.015	0.0164959
720.093	0.0163881
720.171	0.0165951
720.249	0.0164266
720.328	0.0164076
720.406	0.0163953
720.484	0.0164517
720.562	0.0165771
720.640	0.0164858
720.718	0.0165599
720.796	0.0165348
720.874	0.0164829
720.953	0.0166282
721.031	0.0166282
721.109	0.0165324
721.187	0.0165614
721.265	0.0165295
721.343	0.0165957
721.421	0.0163841
721.499	0.0166045
721.578	0.0165818
721.656	0.0164345
721.734	0.0165037
721.812	0.0166472
721.890	0.0163297
721.968	0.0166192
722.046	0.0164616
722.124	0.0165304
722.203	0.0165798
722.281	0.0165826
722.359	0.0165305
722.437	0.0166661
722.515	0.0165523
722.593	0.0166080
722.671	0.0166333
722.749	0.0166518
722.828	0.0165018
722.906	0.0164780
722.984	0.0166209
723.062	0.0165680
723.140	0.0165286
723.218	0.0165477
723.296	0.0165128
723.374	0.0165824
723.453	0.0166084
723.531	0.0165102
723.609	0.0165265
723.687	0.0164886
723.765	0.0164700
723.843	0.0166454
723.921	0.0164988
723.999	0.0166524
724.078	0.0166341
724.156	0.0165293
724.234	0.0165801
724.312	0.0166438
724.390	0.0166129
724.468	0.0164777
724.546	0.0165768
724.624	0.0165541
724.703	0.0165243
724.781	0.0165249
724.859	0.0164635
724.937	0.0166210
725.015	0.0166625
725.093	0.0165328
725.171	0.0166135
725.249	0.0166634
725.328	0.0164996
725.406	0.0166687
725.484	0.0167004
725.562	0.0165954
725.640	0.0164960
725.718	0.0164986
725.796	0.0165735
725.874	0.0165977
725.953	0.0165780
726.031	0.0166548
726.109	0.0165661
726.187	0.0164542
726.265	0.0166445
726.343	0.0165318
726.421	0.0165504
726.499	0.0165768
726.578	0.0166735
726.656	0.0165181
726.734	0.0166103
726.812	0.0166178
726.890	0.0166105
726.968	0.0165102
727.046	0.0166219
727.124	0.0165935
727.203	0.0164641
727.281	0.0165479
727.359	0.0164831
727.437	0.0165942
727.515	0.0165423
727.593	0.0166382
727.671	0.0166700
727.749	0.0166292
727.828	0.0165736
727.906	0.0165440
727.984	0.0164224
728.062	0.0165288
728.140	0.0165469
728.218	0.0166327
728.296	0.0165694
728.374	0.0165984
728.453	0.0165609
728.531	0.0166065
728.609	0.0165327
728.687	0.0165292
728.765	0.0166610
728.843	0.0165739
728.921	0.0167194
728.999	0.0166002
729.078	0.0165565
729.156	0.0164702
729.234	0.0166165
729.312	0.0166447
729.390	0.0165672
729.468	0.0166367
729.546	0.0165524
729.624	0.0165234
729.703	0.0164614
729.781	0.0166074
729.859	0.0166611
729.937	0.0166174
730.015	0.0165477
730.093	0.0165170
730.171	0.0165261
730.249	0.0165085
730.328	0.0164137
730.406	0.0166349
730.484	0.0165426
730.562	0.0165148
730.640	0.0165039
730.718	0.0165736
730.796	0.0165902
730.874	0.0165572
730.953	0.0165253
731.031	0.0165809
731.109	0.0165810
731.187	0.0165990
731.265	0.0165736
731.343	0.0165090
731.421	0.0165296
731.499	0.0166349
731.578	0.0164749
731.656	0.0164943
731.734	0.0165533
731.812	0.0164149
731.890	0.0164827
731.968	0.0164999
732.046	0.0165429
732.124	0.0164819
732.203	0.0165546
732.281	0.0165173
732.359	0.0164773
732.437	0.0164694
732.515	0.0165002
732.593	0.0164925
732.671	0.0165810
732.749	0.0166637
732.828	0.0165074
732.906	0.0166254
732.984	0.0165630
733.062	0.0165881
733.140	0.0166643
733.218	0.0164563
733.296	0.0165459
733.374	0.0166650
733.453	0.0165430
733.531	0.0165974
733.609	0.0164891
733.687	0.0165494
733.765	0.0165116
733.843	0.0165530
733.921	0.0164722
733.999	0.0166504
734.078	0.0165590
734.156	0.0165750
734.234	0.0165592
734.312	0.0164668
734.390	0.0163956
734.468	0.0165134
734.546	0.0165623
734.624	0.0164773
734.703	0.0164772
734.781	0.0164651
734.859	0.0164266
734.937	0.0165248
735.015	0.0165948
735.093	0.0165576
735.171	0.0166639
735.249	0.0165231
735.328	0.0165295
735.406	0.0165767
735.484	0.0166112
735.562	0.0164307
735.640	0.0164899
735.718	0.0164597
735.796	0.0164574
735.874	0.0167236
735.953	0.0165764
736.031	0.0166002
736.109	0.0165633
736.187	0.0164812
736.265	0.0165203
736.343	0.0163838
736.421	0.0165369
736.499	0.0166060
736.578	0.0163427
736.656	0.0164315
736.734	0.0164759
736.812	0.0164105
736.890	0.0163374
736.968	0.0164326
737.046	0.0164877
737.124	0.0164629
737.203	0.0163833
737.281	0.0165505
737.359	0.0164281
737.437	0.0164286
737.515	0.0165959
737.593	0.0165626
737.671	0.0164725
737.749	0.0165855
737.828	0.0165452
737.906	0.0166054
737.984	0.0165544
738.062	0.0167294
738.140	0.0166801
738.218	0.0167638
738.296	0.0166367
738.374	0.0165854
738.453	0.0165845
738.531	0.0165638
738.609	0.0166978
738.687	0.0168211
738.765	0.0165937
738.843	0.0167807
738.921	0.0167442
738.999	0.0167022
739.078	0.0166367
739.156	0.0166499
739.234	0.0166372
739.312	0.0165123
739.390	0.0164038
739.468	0.0165620
739.546	0.0163641
739.624	0.0164277
739.703	0.0162917
739.781	0.0160780
739.859	0.0160592
739.937	0.0160665
740.015	0.0159160
740.093	0.0158518
740.171	0.0158244
740.249	0.0158807
740.328	0.0159480
740.406	0.0159244
740.484	0.0161735
740.562	0.0161668
740.640	0.0163422
740.718	0.0165439
740.796	0.0166843
740.874	0.0168565
740.953	0.0170222
741.031	0.0171449
741.109	0.0169716
741.187	0.0171909
741.265	0.0171754
741.343	0.0169913
741.421	0.0169250
741.499	0.0168948
741.578	0.0168053
741.656	0.0168394
741.734	0.0166778
741.812	0.0166656
741.890	0.0165208
741.968	0.0165997
742.046	0.0164905
742.124	0.0166589
742.203	0.0166702
742.281	0.0168390
742.359	0.0168142
742.437	0.0169070
742.515	0.0170843
742.593	0.0172631
742.671	0.0173359
742.749	0.0173339
742.828	0.0172414
742.906	0.0173238
742.984	0.0173617
743.062	0.0172428
743.140	0.0170836
743.218	0.0169210
743.296	0.0168887
743.374	0.0168276
743.453	0.0164427
743.531	0.0163954
743.609	0.0163596
743.687	0.0161401
743.765	0.0159316
743.843	0.0157204
743.921	0.0153247
743.999	0.0150980
744.078	0.0147810
744.156	0.0144599
744.234	0.0139965
744.312	0.0139184
744.390	0.0139265
744.468	0.0138727
744.546	0.0141166
744.624	0.0143848
744.703	0.0148814
744.781	0.0153536
744.859	0.0160075
744.937	0.0166880
745.015	0.0175245
745.093	0.0180993
745.171	0.0188107
745.249	0.0188824
745.328	0.0190934
745.406	0.0191372
745.484	0.0188909
745.562	0.0186136
745.640	0.0182607
745.718	0.0179654
745.796	0.0176491
745.874	0.0173195
745.953	0.0169349
746.031	0.0167923
746.109	0.0165141
746.187	0.0163860
746.265	0.0163028
746.343	0.0162182
746.421	0.0161928
746.499	0.0162106
746.578	0.0161085
746.656	0.0162606
746.734	0.0162572
746.812	0.0163235
746.890	0.0165607
746.968	0.0165639
747.046	0.0168239
747.124	0.0171007
747.203	0.0172123
747.281	0.0176775
747.359	0.0177759
747.437	0.0178291
747.515	0.0180110
747.593	0.0182203
747.671	0.0180669
747.749	0.0180614
747.828	0.0178551
747.906	0.0174825
747.984	0.0174236
748.062	0.0169936
748.140	0.0164699
748.218	0.0157735
748.296	0.0152309
748.374	0.0146828
748.453	0.0141132
748.531	0.0134252
748.609	0.0132147
748.687	0.0128404
748.765	0.0126972
748.843	0.0130267
748.921	0.0132111
748.999	0.0134853
749.078	0.0139467
749.156	0.0145544
749.234	0.0151698
749.312	0.0157166
749.390	0.0164182
749.468	0.0169798
749.546	0.0173588
749.624	0.0177596
749.703	0.0181615
749.781	0.0183720
749.859	0.0183871
749.937	0.0185303
750.015	0.0183031
750.093	0.0182710
750.171	0.0181209
750.249	0.0177889
750.328	0.0176060
750.406	0.0174048
750.484	0.0170628
750.562	0.0169311
750.640	0.0167542
750.718	0.0170507
750.796	0.0173888
750.874	0.0177187
750.953	0.0182748
751.031	0.0188396
751.109	0.0195250
751.187	0.0199492
751.265	0.0201978
751.343	0.0203074
751.421	0.0202424
751.499	0.0201583
751.578	0.0198171
751.656	0.0194374
751.734	0.0186301
751.812	0.0179374
751.890	0.0169553
751.968	0.0159194
752.046	0.0151533
752.124	0.0141219
752.203	0.0130842
752.281	0.0121519
752.359	0.0115784
752.437	0.0109659
752.515	0.0103992
752.593	0.0100940
752.671	0.00981941
752.749	0.0100390
752.828	0.0102576
752.906	0.0106200
752.984	0.0113787
753.062	0.0121130
753.140	0.0129990
753.218	0.0141635
753.296	0.0152488
753.374	0.0164250
753.453	0.0176892
753.531	0.0186768
753.609	0.0195824
753.687	0.0206230
753.765	0.0212783
753.843	0.0220410
753.921	0.0224920
753.999	0.0228729
754.078	0.0230032
754.156	0.0231561
754.234	0.0229413
754.312	0.0226737
754.390	0.0221519
754.468	0.0216548
754.546	0.0209066
754.624	0.0202908
754.703	0.0195762
754.781	0.0187506
754.859	0.0178751
754.937	0.0170428
755.015	0.0161575
755.093	0.0154729
755.171	0.0147409
755.249	0.0140497
755.328	0.0134841
755.406	0.0127299
755.484	0.0121323
755.562	0.0115615
755.640	0.0110879
755.718	0.0108395
755.796	0.0105510
755.874	0.0104076
755.953	0.0104551
756.031	0.0105920
756.109	0.0108585
756.187	0.0115250
756.265	0.0120583
756.343	0.0127646
756.421	0.0133749
756.499	0.0142234
756.578	0.0152081
756.656	0.0162427
756.734	0.0171323
756.812	0.0181211
756.890	0.0190856
756.968	0.0199240
757.046	0.0205858
757.124	0.0212832
757.203	0.0217603
757.281	0.0218890
757.359	0.0217952
757.437	0.0218798
757.515	0.0215667
757.593	0.0210802
757.671	0.0205946
757.749	0.0202065
757.828	0.0197740
757.906	0.0194125
757.984	0.0191343
758.062	0.0188938
758.140	0.0186406
758.218	0.0183346
758.296	0.0180741
758.374	0.0177093
758.453	0.0176546
758.531	0.0174063
758.609	0.0172369
758.687	0.0171832
758.765	0.0168172
758.843	0.0165677
758.921	0.0163279
758.999	0.0158247
759.078	0.0157076
759.156	0.0150366
759.234	0.0143459
759.312	0.0135651
759.390	0.0129198
759.468	0.0122019
759.546	0.0113900
759.624	0.0107143
759.703	0.0101411
759.781	0.00971802
759.859	0.00963860
759.937	0.00974670
760.015	0.00984726
760.093	0.0100793
760.171	0.0107896
760.249	0.0113818
760.328	0.0121046
760.406	0.0131052
760.484	0.0140425
760.562	0.0151611
760.640	0.0162444
760.718	0.0174205
760.796	0.0184238
760.874	0.0195361
760.953	0.0206649
761.031	0.0214680
761.109	0.0222686
761.187	0.0229202
761.265	0.0233968
761.343	0.0237063
761.421	0.0237406
761.499	0.0238079
761.578	0.0240179
761.656	0.0236602
761.734	0.0233588
761.812	0.0229475
761.890	0.0225986
761.968	0.0220166
762.046	0.0216491
762.124	0.0209254
762.203	0.0201084
762.281	0.0195102
762.359	0.0188824
762.437	0.0180438
762.515	0.0170863
762.593	0.0163387
762.671	0.0156351
762.749	0.0146289
762.828	0.0135654
762.906	0.0126416
762.984	0.0114262
763.062	0.0103358
763.140	0.00941002
763.218	0.00853569
763.296	0.00767662
763.374	0.00703506
763.453	0.00659088
763.531	0.00633018
763.609	0.00660583
763.687	0.00707573
763.765	0.00776672
763.843	0.00861908
763.921	0.00996941
763.999	0.0112665
764.078	0.0125877
764.156	0.0141640
764.234	0.0160100
764.312	0.0177863
764.390	0.0193075
764.468	0.0208170
764.546	0.0223006
764.624	0.0235850
764.703	0.0245455
764.781	0.0251952
764.859	0.0255325
764.937	0.0256193
765.015	0.0253140
765.093	0.0249282
765.171	0.0241467
765.249	0.0233977
765.328	0.0222707
765.406	0.0214738
765.484	0.0204661
765.562	0.0194183
765.640	0.0185577
765.718	0.0178261
765.796	0.0170970
765.874	0.0164234
765.953	0.0159576
766.031	0.0156577
766.109	0.0152724
766.187	0.0149359
766.265	0.0146793
766.343	0.0145072
766.421	0.0142207
766.499	0.0138845
766.578	0.0136870
766.656	0.0131283
766.734	0.0126657
766.812	0.0124158
766.890	0.0119771
766.968	0.0114014
767.046	0.0109721
767.124	0.0106546
767.203	0.0105309
767.281	0.0103631
767.359	0.0105869
767.437	0.0108464
767.515	0.0114875
767.593	0.0121255
767.671	0.0130249
767.749	0.0141666
767.828	0.0152898
767.906	0.0163702
767.984	0.0174813
768.062	0.0187982
768.140	0.0198875
768.218	0.0209707
768.296	0.0220361
768.374	0.0230222
768.453	0.0236027
768.531	0.0241532
768.609	0.0244599
768.687	0.0243817
768.765	0.0242610
768.843	0.0237751
768.921	0.0233024
768.999	0.0222767
769.078	0.0214819
769.156	0.0203123
769.234	0.0193117
769.312	0.0183135
769.390	0.0171302
769.468	0.0160278
769.546	0.0152430
769.624	0.0143649
769.703	0.0137869
769.781	0.0129839
769.859	0.0124860
769.937	0.0118967
770.015	0.0115576
770.093	0.0113508
770.171	0.0110120
770.249	0.0108375
770.328	0.0107824
770.406	0.0108504
770.484	0.0110478
770.562	0.0111135
770.640	0.0114478
770.718	0.0117795
770.796	0.0120389
770.874	0.0125879
770.953	0.0132906
771.031	0.0138303
771.109	0.0142999
771.187	0.0148772
771.265	0.0156453
771.343	0.0164500
771.421	0.0171220
771.499	0.0178770
771.578	0.0185812
771.656	0.0191250
771.734	0.0197871
771.812	0.0204397
771.890	0.0210078
771.968	0.0215849
772.046	0.0218506
772.124	0.0222716
772.203	0.0224032
772.281	0.0227069
772.359	0.0225722
772.437	0.0224575
772.515	0.0222653
772.593	0.0217444
772.671	0.0213768
772.749	0.0209412
772.828	0.0202811
772.906	0.0196132
772.984	0.0189025
773.062	0.0181808
773.140	0.0174113
773.218	0.0167760
773.296	0.0159113
773.374	0.0153168
773.453	0.0147326
773.531	0.0141600
773.609	0.0135576
773.687	0.0128671
773.765	0.0124821
773.843	0.0121292
773.921	0.0118073
773.999	0.0114092
774.078	0.0111467
774.156	0.0110456
774.234	0.0111176
774.312	0.0112267
774.390	0.0113048
774.468	0.0115307
774.546	0.0121432
774.624	0.0126651
774.703	0.0132986
774.781	0.0140062
774.859	0.0148296
774.937	0.0155995
775.015	0.0162179
775.093	0.0169643
775.171	0.0176987
775.249	0.0182819
775.328	0.0187510
775.406	0.0194277
775.484	0.0195998
775.562	0.0199129
775.640	0.0202139
775.718	0.0202908
775.796	0.0203475
775.874	0.0203041
775.953	0.0202098
776.031	0.0201736
776.109	0.0200475
776.187	0.0196404
776.265	0.0194500
776.343	0.0191367
776.421	0.0187432
776.499	0.0182673
776.578	0.0178993
776.656	0.0175320
776.734	0.0172300
776.812	0.0169555
776.890	0.0165307
776.968	0.0164259
777.046	0.0161530
777.124	0.0159097
777.203	0.0154980
777.281	0.0153004
777.359	0.0150856
777.437	0.0150250
777.515	0.0148582
777.593	0.0147795
777.671	0.0145599
777.749	0.0143514
777.828	0.0143058
777.906	0.0143954
777.984	0.0142397
778.062	0.0142217
778.140	0.0142699
778.218	0.0144167
778.296	0.0144224
778.374	0.0144957
778.453	0.0146984
778.531	0.0148724
778.609	0.0154605
778.687	0.0157638
778.765	0.0160935
778.843	0.0165706
778.921	0.0169617
778.999	0.0175174
779.078	0.0178716
779.156	0.0183074
779.234	0.0186462
779.312	0.0188000
779.390	0.0192126
779.468	0.0194174
779.546	0.0193472
779.624	0.0194061
779.703	0.0191932
779.781	0.0191185
779.859	0.0187511
779.937	0.0183552
780.015	0.0180265
780.093	0.0176239
780.171	0.0173338
780.249	0.0169337
780.328	0.0164433
780.406	0.0161859
780.484	0.0159566
780.562	0.0155943
780.640	0.0153299
780.718	0.0152502
780.796	0.0150233
780.874	0.0151004
780.953	0.0151075
781.031	0.0151594
781.109	0.0151426
781.187	0.0151912
781.265	0.0151740
781.343	0.0153275
781.421	0.0153072
781.499	0.0155025
781.578	0.0153268
781.656	0.0153618
781.734	0.0152589
781.812	0.0153809
781.890	0.0152336
781.968	0.0153121
782.046	0.0152422
782.124	0.0153634
782.203	0.0153845
782.281	0.0156250
782.359	0.0157481
782.437	0.0159026
782.515	0.0164279
782.593	0.0164853
782.671	0.0168107
782.749	0.0172630
782.828	0.0175888
782.906	0.0178593
782.984	0.0180565
783.062	0.0184363
783.140	0.0186475
783.218	0.0187086
783.296	0.0187553
783.374	0.0187711
783.453	0.0186669
783.531	0.0186865
783.609	0.0184139
783.687	0.0181024
783.765	0.0180698
783.843	0.0176447
783.921	0.0174535
783.999	0.0171448
784.078	0.0168401
784.156	0.0168406
784.234	0.0165524
784.312	0.0163956
784.390	0.0162621
784.468	0.0161380
784.546	0.0161339
784.624	0.0159798
784.703	0.0158196
784.781	0.0159118
784.859	0.0158900
784.937	0.0159088
785.015	0.0158241
785.093	0.0158178
785.171	0.0157439
785.249	0.0156464
785.328	0.0155826
785.406	0.0156174
785.484	0.0155826
785.562	0.0154586
785.640	0.0150414
785.718	0.0150884
785.796	0.0151289
785.874	0.0151495
785.953	0.0151736
786.031	0.0154417
786.109	0.0154118
786.187	0.0155990
786.265	0.0158374
786.343	0.0159572
786.421	0.0162014
786.499	0.0164914
786.578	0.0166576
786.656	0.0167450
786.734	0.0169928
786.812	0.0173684
786.890	0.0175024
786.968	0.0175951
787.046	0.0176523
787.124	0.0177446
787.203	0.0178326
787.281	0.0178197
787.359	0.0178970
787.437	0.0178274
787.515	0.0176180
787.593	0.0174232
787.671	0.0175066
787.749	0.0174780
787.828	0.0171371
787.906	0.0170797
787.984	0.0168941
788.062	0.0166875
788.140	0.0165078
788.218	0.0163097
788.296	0.0161843
788.374	0.0160867
788.453	0.0159146
788.531	0.0158595
788.609	0.0157728
788.687	0.0156635
788.765	0.0156501
788.843	0.0155806
788.921	0.0156818
788.999	0.0157072
789.078	0.0158743
789.156	0.0159729
789.234	0.0159968
789.312	0.0163256
789.390	0.0164935
789.468	0.0164509
789.546	0.0166069
789.624	0.0168045
789.703	0.0168466
789.781	0.0168584
789.859	0.0169337
789.937	0.0170647
790.015	0.0170898
790.093	0.0170825
790.171	0.0173075
790.249	0.0173698
790.328	0.0173521
790.406	0.0172894
790.484	0.0172477
790.562	0.0173283
790.640	0.0171703
790.718	0.0172034
790.796	0.0171036
790.874	0.0170916
790.953	0.0169218
791.031	0.0168107
791.109	0.0166700
791.187	0.0165036
791.265	0.0164104
791.343	0.0162906
791.421	0.0162209
791.499	0.0161350
791.578	0.0160319
791.656	0.0159554
791.734	0.0159126
791.812	0.0157444
791.890	0.0157514
791.968	0.0158958
792.046	0.0157720
792.124	0.0158413
792.203	0.0158545
792.281	0.0161036
792.359	0.0158494
792.437	0.0160150
792.515	0.0161273
792.593	0.0160533
792.671	0.0160499
792.749	0.0161379
792.828	0.0161963
792.906	0.0161330
792.984	0.0161691
793.062	0.0160760
793.140	0.0161568
793.218	0.0163338
793.296	0.0165143
793.374	0.0163788
793.453	0.0164087
793.531	0.0166306
793.609	0.0170016
793.687	0.0170850
793.765	0.0169212
793.843	0.0172058
793.921	0.0173344
793.999	0.0174247
794.078	0.0173827
794.156	0.0175438
794.234	0.0175749
794.312	0.0173997
794.390	0.0173664
794.468	0.0172477
794.546	0.0171143
794.624	0.0170506
794.703	0.0169502
794.781	0.0167232
794.859	0.0167439
794.937	0.0166064
795.015	0.0164476
795.093	0.0164078
795.171	0.0164645
795.249	0.0163734
795.328	0.0165814
795.406	0.0165372
795.484	0.0163919
795.562	0.0165267
795.640	0.0165067
795.718	0.0165503
795.796	0.0165386
795.874	0.0165902
795.953	0.0163588
796.031	0.0165720
796.109	0.0166434
796.187	0.0164897
796.265	0.0164130
796.343	0.0163535
796.421	0.0164782
796.499	0.0162288
796.578	0.0162090
796.656	0.0163699
796.734	0.0161529
796.812	0.0161509
796.890	0.0162248
796.968	0.0160136
797.046	0.0161817
797.124	0.0162608
797.203	0.0161334
797.281	0.0161166
797.359	0.0162480
797.437	0.0161617
797.515	0.0162837
797.593	0.0165182
797.671	0.0165444
797.749	0.0164825
797.828	0.0167654
797.906	0.0167110
797.984	0.0167464
798.062	0.0167944
798.140	0.0167309
798.218	0.0167931
798.296	0.0166264
798.374	0.0166040
798.453	0.0165251
798.531	0.0165996
798.609	0.0166440
798.687	0.0165873
798.765	0.0165137
798.843	0.0164790
798.921	0.0164890
798.999	0.0165414
799.078	0.0166166
799.156	0.0164432
799.234	0.0164565
799.312	0.0164635
799.390	0.0164684
799.468	0.0167177
799.546	0.0165729
799.624	0.0166056
799.703	0.0166171
799.781	0.0166408
799.859	0.0166222
799.937	0.0166607
800.015	0.0165189
800.093	0.0165357
800.171	0.0165070
800.249	0.0164867
800.328	0.0163087
800.406	0.0162556
800.484	0.0162609
800.562	0.0162112
800.640	0.0162845
800.718	0.0162199
800.796	0.0162805
800.874	0.0161610
800.953	0.0163736
801.031	0.0163124
801.109	0.0163618
801.187	0.0165307
801.265	0.0165982
801.343	0.0166227
801.421	0.0169023
801.499	0.0170487
801.578	0.0170741
801.656	0.0169632
801.734	0.0171990
801.812	0.0171180
801.890	0.0169781
801.968	0.0170036
802.046	0.0169803
802.124	0.0170172
802.203	0.0170652
802.281	0.0169412
802.359	0.0167637
802.437	0.0166653
802.515	0.0166769
802.593	0.0166193
802.671	0.0165092
802.749	0.0164929
802.828	0.0163693
802.906	0.0164642
802.984	0.0163710
803.062	0.0163174
803.140	0.0162414
803.218	0.0161939
803.296	0.0159877
803.374	0.0160954
803.453	0.0162045
803.531	0.0161042
803.609	0.0162353
803.687	0.0162050
803.765	0.0161773
803.843	0.0163692
803.921	0.0163947
803.999	0.0165419
804.078	0.0164055
804.156	0.0166184
804.234	0.0167718
804.312	0.0168120
804.390	0.0166469
804.468	0.0168991
804.546	0.0169328
804.624	0.0169312
804.703	0.0170670
804.781	0.0168915
804.859	0.0168709
804.937	0.0170475
805.015	0.0166360
805.093	0.0166032
805.171	0.0164845
805.249	0.0164393
805.328	0.0163992
805.406	0.0162000
805.484	0.0161579
805.562	0.0161273
805.640	0.0159139
805.718	0.0159621
805.796	0.0159060
805.874	0.0158424
805.953	0.0159066
806.031	0.0158663
806.109	0.0158555
806.187	0.0160466
806.265	0.0162138
806.343	0.0162663
806.421	0.0163430
806.499	0.0164679
806.578	0.0167944
806.656	0.0168294
806.734	0.0168393
806.812	0.0170177
806.890	0.0170397
806.968	0.0169760
807.046	0.0171075
807.124	0.0172243
807.203	0.0173068
807.281	0.0171264
807.359	0.0170753
807.437	0.0171222
807.515	0.0170557
807.593	0.0170247
807.671	0.0170320
807.749	0.0169773
807.828	0.0168984
807.906	0.0168763
807.984	0.0168849
808.062	0.0168558
808.140	0.0168345
808.218	0.0168443
808.296	0.0168359
808.374	0.0167817
808.453	0.0166962
808.531	0.0166425
808.609	0.0167408
808.687	0.0167928
808.765	0.0165994
808.843	0.0164256
808.921	0.0165717
808.999	0.0164180
809.078	0.0162786
809.156	0.0162616
809.234	0.0162897
809.312	0.0162547
809.390	0.0160395
809.468	0.0161040
809.546	0.0162498
809.624	0.0161662
809.703	0.0161797
809.781	0.0163020
809.859	0.0161633
809.937	0.0161308
810.015	0.0162647
810.093	0.0164204
810.171	0.0165032
810.249	0.0166089
810.328	0.0165816
810.406	0.0168705
810.484	0.0169278
810.562	0.0167125
810.640	0.0167489
810.718	0.0168769
810.796	0.0167365
810.874	0.0165975
810.953	0.0166386
811.031	0.0167648
811.109	0.0165321
811.187	0.0164147
811.265	0.0165649
811.343	0.0164354
811.421	0.0162772
811.499	0.0163777
811.578	0.0164221
811.656	0.0164410
811.734	0.0162700
811.812	0.0164553
811.890	0.0161896
811.968	0.0162720
812.046	0.0164202
812.124	0.0164190
812.203	0.0164303
812.281	0.0165023
812.359	0.0164657
812.437	0.0164188
812.515	0.0164005
812.593	0.0165323
812.671	0.0165698
812.749	0.0165038
812.828	0.0164904
812.906	0.0164218
812.984	0.0164896
813.062	0.0165478
813.140	0.0166072
813.218	0.0166521
813.296	0.0168189
813.374	0.0168362
813.453	0.0167725
813.531	0.0169509
813.609	0.0169391
813.687	0.0169475
813.765	0.0169345
813.843	0.0170655
813.921	0.0172283
813.999	0.0172578
814.078	0.0172010
814.156	0.0172002
814.234	0.0171470
814.312	0.0171314
814.390	0.0171705
814.468	0.0170049
814.546	0.0171030
814.624	0.0168644
814.703	0.0169019
814.781	0.0165535
814.859	0.0165091
814.937	0.0166161
815.015	0.0165260
815.093	0.0163042
815.171	0.0162868
815.249	0.0161716
815.328	0.0160463
815.406	0.0162321
815.484	0.0160181
815.562	0.0160072
815.640	0.0161047
815.718	0.0161601
815.796	0.0162250
815.874	0.0163103
815.953	0.0162460
816.031	0.0162377
816.109	0.0162748
816.187	0.0163936
816.265	0.0164558
816.343	0.0161690
816.421	0.0162939
816.499	0.0162734
816.578	0.0164561
816.656	0.0161726
816.734	0.0161825
816.812	0.0162830
816.890	0.0162109
816.968	0.0160975
817.046	0.0161375
817.124	0.0161996
817.203	0.0162395
817.281	0.0162804
817.359	0.0163114
817.437	0.0163426
817.515	0.0162345
817.593	0.0165357
817.671	0.0165748
817.749	0.0166192
817.828	0.0167878
817.906	0.0168472
817.984	0.0169318
818.062	0.0169853
818.140	0.0170284
818.218	0.0169980
818.296	0.0170455
818.374	0.0171649
818.453	0.0171933
818.531	0.0171089
818.609	0.0169348
818.687	0.0171866
818.765	0.0170348
818.843	0.0168679
818.921	0.0169317
818.999	0.0167909
819.078	0.0166104
819.156	0.0167040
819.234	0.0166741
819.312	0.0164926
819.390	0.0165225
819.468	0.0164019
819.546	0.0162657
819.624	0.0163046
819.703	0.0162142
819.781	0.0162146
819.859	0.0162313
819.937	0.0161592
820.015	0.0162354
820.093	0.0160691
820.171	0.0160484
820.249	0.0160213
820.328	0.0161455
820.406	0.0161702
820.484	0.0161054
820.562	0.0163198
820.640	0.0162123
820.718	0.0163315
820.796	0.0163127
820.874	0.0163342
820.953	0.0164060
821.031	0.0164728
821.109	0.0164571
821.187	0.0163927
821.265	0.0164294
821.343	0.0164080
821.421	0.0164688
821.499	0.0165965
821.578	0.0165300
821.656	0.0166407
821.734	0.0165649
821.812	0.0166773
821.890	0.0167266
821.968	0.0167194
822.046	0.0168005
822.124	0.0168367
822.203	0.0167423
822.281	0.0168540
822.359	0.0166862
822.437	0.0167159
822.515	0.0167842
822.593	0.0167352
822.671	0.0165549
822.749	0.0165550
822.828	0.0165079
822.906	0.0164026
822.984	0.0163433
823.062	0.0163873
823.140	0.0163095
823.218	0.0163876
823.296	0.0163425
823.374	0.0163493
823.453	0.0162637
823.531	0.0162453
823.609	0.0161867
823.687	0.0162474
823.765	0.0162632
823.843	0.0163050
823.921	0.0162954
823.999	0.0163850
824.078	0.0164024
824.156	0.0164687
824.234	0.0165227
824.312	0.0166290
824.390	0.0166330
824.468	0.0165544
824.546	0.0167383
824.624	0.0168922
824.703	0.0167249
824.781	0.0166437
824.859	0.0167184
824.937	0.0168083
825.015	0.0167091
825.093	0.0166324
825.171	0.0166419
825.249	0.0166253
825.328	0.0166175
825.406	0.0165511
825.484	0.0164520
825.562	0.0164546
825.640	0.0165062
825.718	0.0163970
825.796	0.0164643
825.874	0.0165383
825.953	0.0166156
826.031	0.0165281
826.109	0.0166077
826.187	0.0165879
826.265	0.0165578
826.343	0.0166949
826.421	0.0165784
826.499	0.0165214
826.578	0.0164963
826.656	0.0166348
826.734	0.0165382
826.812	0.0166682
826.890	0.0165025
826.968	0.0163700
827.046	0.0164948
827.124	0.0164052
827.203	0.0164251
827.281	0.0163109
827.359	0.0162850
827.437	0.0164043
827.515	0.0163603
827.593	0.0164082
827.671	0.0163377
827.749	0.0163499
827.828	0.0164402
827.906	0.0165009
827.984	0.0165171
828.062	0.0165702
828.140	0.0166165
828.218	0.0165713
828.296	0.0164548
828.374	0.0165484
828.453	0.0165273
828.531	0.0164580
828.609	0.0164539
828.687	0.0164080
828.765	0.0164519
828.843	0.0163866
828.921	0.0164379
828.999	0.0163426
829.078	0.0164167
829.156	0.0164797
829.234	0.0163725
829.312	0.0164585
829.390	0.0165324
829.468	0.0166080
829.546	0.0165810
829.624	0.0165552
829.703	0.0166006
829.781	0.0166531
829.859	0.0167494
829.937	0.0166944
830.015	0.0166414
830.093	0.0165585
830.171	0.0165957
830.249	0.0166673
830.328	0.0166659
830.406	0.0165493
830.484	0.0165797
830.562	0.0166151
830.640	0.0163895
830.718	0.0163480
830.796	0.0164109
830.874	0.0162816
830.953	0.0163585
831.031	0.0162991
831.109	0.0162829
831.187	0.0162335
831.265	0.0163315
831.343	0.0165002
831.421	0.0163452
831.499	0.0164766
831.578	0.0164345
831.656	0.0164342
831.734	0.0163600
831.812	0.0163972
831.890	0.0166264
831.968	0.0166708
832.046	0.0165530
832.124	0.0165417
832.203	0.0164998
832.281	0.0166226
832.359	0.0165880
832.437	0.0166689
832.515	0.0167301
832.593	0.0167802
832.671	0.0166698
832.749	0.0165746
832.828	0.0166860
832.906	0.0166073
832.984	0.0166338
833.062	0.0166681
833.140	0.0166819
833.218	0.0166562
833.296	0.0166132
833.374	0.0166295
833.453	0.0166336
833.531	0.0166014
833.609	0.0167268
833.687	0.0165464
833.765	0.0167435
833.843	0.0166447
833.921	0.0164791
833.999	0.0166226
834.078	0.0165285
834.156	0.0165430
834.234	0.0165498
834.312	0.0163987
834.390	0.0163186
834.468	0.0164057
834.546	0.0164198
834.624	0.0163577
834.703	0.0163345
834.781	0.0164245
834.859	0.0164752
834.937	0.0163558
835.015	0.0163734
835.093	0.0164308
835.171	0.0164516
835.249	0.0163216
835.328	0.0164464
835.406	0.0164433
835.484	0.0165215
835.562	0.0165033
835.640	0.0165166
835.718	0.0164935
835.796	0.0164921
835.874	0.0165815
835.953	0.0166077
836.031	0.0166130
836.109	0.0165206
836.187	0.0165340
836.265	0.0164436
836.343	0.0166715
836.421	0.0166235
836.499	0.0168344
836.578	0.0167324
836.656	0.0166679
836.734	0.0166286
836.812	0.0166837
836.890	0.0166001
836.968	0.0165936
837.046	0.0166826
837.124	0.0166035
837.203	0.0166693
837.281	0.0165733
837.359	0.0164309
837.437	0.0166689
837.515	0.0165840
837.593	0.0165018
837.671	0.0166073
837.749	0.0164438
837.828	0.0165186
837.906	0.0164668
837.984	0.0164902
838.062	0.0164818
838.140	0.0165642
838.218	0.0165214
838.296	0.0164183
838.374	0.0165540
838.453	0.0163889
838.531	0.0164422
838.609	0.0164605
838.687	0.0166372
838.765	0.0165731
838.843	0.0165989
838.921	0.0165552
838.999	0.0166718
839.078	0.0168447
839.156	0.0166882
839.234	0.0166434
839.312	0.0166323
839.390	0.0166417
839.468	0.0165163
839.546	0.0164223
839.624	0.0167329
839.703	0.0166151
839.781	0.0166226
839.859	0.0164947
839.937	0.0163873
840.015	0.0165768
840.093	0.0166606
840.171	0.0167211
840.249	0.0166091
840.328	0.0165649
840.406	0.0165307
840.484	0.0165758
840.562	0.0167039
840.640	0.0166196
840.718	0.0166948
840.796	0.0167478
840.874	0.0166885
840.953	0.0166417
841.031	0.0165571
841.109	0.0167049
841.187	0.0167420
841.265	0.0165960
841.343	0.0165137
841.421	0.0165463
841.499	0.0163641
841.578	0.0164765
841.656	0.0162417
841.734	0.0162939
841.812	0.0164576
841.890	0.0162922
841.968	0.0161777
842.046	0.0163307
842.124	0.0162854
842.203	0.0163589
842.281	0.0164000
842.359	0.0164326
842.437	0.0165118
842.515	0.0164316
842.593	0.0164102
842.671	0.0165157
842.749	0.0165347
842.828	0.0163820
842.906	0.0164386
842.984	0.0164417
843.062	0.0165172
843.140	0.0164594
843.218	0.0164725
843.296	0.0165231
843.374	0.0165475
843.453	0.0164915
843.531	0.0166084
843.609	0.0165652
843.687	0.0164941
843.765	0.0166361
843.843	0.0166205
843.921	0.0166350
843.999	0.0166354
844.078	0.0165715
844.156	0.0165868
844.234	0.0165628
844.312	0.0167528
844.390	0.0167878
844.468	0.0166402
844.546	0.0166967
844.624	0.0167185
844.703	0.0165642
844.781	0.0165552
844.859	0.0164827
844.937	0.0166077
845.015	0.0165813
845.093	0.0165288
845.171	0.0166212
845.249	0.0164904
845.328	0.0165918
845.406	0.0165256
845.484	0.0163753
845.562	0.0163780
845.640	0.0163947
845.718	0.0164175
845.796	0.0164382
845.874	0.0163045
845.953	0.0164099
846.031	0.0162708
846.109	0.0163155
846.187	0.0163068
846.265	0.0162760
846.343	0.0162765
846.421	0.0162302
846.499	0.0161330
846.578	0.0162997
846.656	0.0163078
846.734	0.0161682
846.812	0.0162479
846.890	0.0164749
846.968	0.0164296
847.046	0.0165074
847.124	0.0166547
847.203	0.0166309
847.281	0.0168113
847.359	0.0166872
847.437	0.0169213
847.515	0.0169341
847.593	0.0169501
847.671	0.0170412
847.749	0.0169068
847.828	0.0169125
847.906	0.0169933
847.984	0.0168388
848.062	0.0169528
848.140	0.0168685
848.218	0.0169190
848.296	0.0168104
848.374	0.0167509
848.453	0.0165668
848.531	0.0165469
848.609	0.0164258
848.687	0.0163754
848.765	0.0162897
848.843	0.0162873
848.921	0.0160921
848.999	0.0159591
849.078	0.0159319
849.156	0.0157528
849.234	0.0158174
849.312	0.0156784
849.390	0.0156160
849.468	0.0157714
849.546	0.0158138
849.624	0.0157613
849.703	0.0159893
849.781	0.0159160
849.859	0.0161173
849.937	0.0161428
850.015	0.0164129
850.093	0.0165784
850.171	0.0166872
850.249	0.0167769
850.328	0.0170605
850.406	0.0170060
850.484	0.0170811
850.562	0.0171709
850.640	0.0171815
850.718	0.0172176
850.796	0.0171571
850.874	0.0172585
850.953	0.0172051
851.031	0.0170197
851.109	0.0171512
851.187	0.0169958
851.265	0.0170203
851.343	0.0168839
851.421	0.0168886
851.499	0.0168176
851.578	0.0167691
851.656	0.0167703
851.734	0.0167137
851.812	0.0165717
851.890	0.0164770
851.968	0.0164727
852.046	0.0163418
852.124	0.0163227
852.203	0.0162368
852.281	0.0162566
852.359	0.0161575
852.437	0.0159946
852.515	0.0159406
852.593	0.0157949
852.671	0.0157713
852.749	0.0157210
852.828	0.0157288
852.906	0.0157641
852.984	0.0156997
853.062	0.0157439
853.140	0.0159092
853.218	0.0159629
853.296	0.0159282
853.374	0.0160839
853.453	0.0162611
853.531	0.0162628
853.609	0.0165038
853.687	0.0166324
853.765	0.0166328
853.843	0.0167352
853.921	0.0168685
853.999	0.0168687
854.078	0.0171018
854.156	0.0169862
854.234	0.0172101
854.312	0.0171471
854.390	0.0172641
854.468	0.0173189
854.546	0.0174067
854.624	0.0173460
854.703	0.0173984
854.781	0.0172918
854.859	0.0173349
854.937	0.0172957
855.015	0.0171423
855.093	0.0170075
855.171	0.0169345
855.249	0.0168684
855.328	0.0166610
855.406	0.0163628
855.484	0.0164822
855.562	0.0162990
855.640	0.0161872
855.718	0.0160314
855.796	0.0159743
855.874	0.0158765
855.953	0.0158329
856.031	0.0157837
856.109	0.0156826
856.187	0.0156110
856.265	0.0155627
856.343	0.0155865
856.421	0.0156189
856.499	0.0155103
856.578	0.0157040
856.656	0.0155636
856.734	0.0157026
856.812	0.0158495
856.890	0.0159333
856.968	0.0158280
857.046	0.0158990
857.124	0.0161486
857.203	0.0162534
857.281	0.0164989
857.359	0.0164006
857.437	0.0163232
857.515	0.0164875
857.593	0.0167687
857.671	0.0168755
857.749	0.0170199
857.828	0.0169868
857.906	0.0170493
857.984	0.0172293
858.062	0.0174466
858.140	0.0174857
858.218	0.0174633
858.296	0.0175629
858.374	0.0177069
858.453	0.0177786
858.531	0.0176153
858.609	0.0176261
858.687	0.0176369
858.765	0.0175039
858.843	0.0174978
858.921	0.0174277
858.999	0.0172477
859.078	0.0169938
859.156	0.0169582
859.234	0.0169350
859.312	0.0166767
859.390	0.0165910
859.468	0.0163145
859.546	0.0160471
859.624	0.0161102
859.703	0.0158629
859.781	0.0157418
859.859	0.0155879
859.937	0.0154691
860.015	0.0153755
860.093	0.0153913
860.171	0.0155156
860.249	0.0153843
860.328	0.0153583
860.406	0.0154237
860.484	0.0155852
860.562	0.0157589
860.640	0.0159465
860.718	0.0160587
860.796	0.0160280
860.874	0.0162046
860.953	0.0163898
861.031	0.0162548
861.109	0.0165105
861.187	0.0166998
861.265	0.0167807
861.343	0.0168091
861.421	0.0169834
861.499	0.0170070
861.578	0.0171549
861.656	0.0172463
861.734	0.0172306
861.812	0.0171232
861.890	0.0174186
861.968	0.0174157
862.046	0.0174255
862.124	0.0173838
862.203	0.0174778
862.281	0.0172004
862.359	0.0171525
862.437	0.0172018
862.515	0.0170893
862.593	0.0170174
862.671	0.0168687
862.749	0.0168414
862.828	0.0167379
862.906	0.0165868
862.984	0.0164073
863.062	0.0163593
863.140	0.0161914
863.218	0.0161925
863.296	0.0162517
863.374	0.0160449
863.453	0.0159764
863.531	0.0161351
863.609	0.0160680
863.687	0.0160890
863.765	0.0160241
863.843	0.0159721
863.921	0.0160970
863.999	0.0160283
864.078	0.0161980
864.156	0.0161202
864.234	0.0162196
864.312	0.0162133
864.390	0.0163501
864.468	0.0163658
864.546	0.0164178
864.624	0.0165253
864.703	0.0164987
864.781	0.0164227
864.859	0.0165504
864.937	0.0166312
865.015	0.0166307
865.093	0.0165430
865.171	0.0167671
865.249	0.0169013
865.328	0.0168726
865.406	0.0168930
865.484	0.0169634
865.562	0.0169249
865.640	0.0169908
865.718	0.0169815
865.796	0.0169595
865.874	0.0171146
865.953	0.0171127
866.031	0.0170204
866.109	0.0170583
866.187	0.0169090
866.265	0.0169366
866.343	0.0167758
866.421	0.0167542
866.499	0.0165855
866.578	0.0166808
866.656	0.0167471
866.734	0.0165498
866.812	0.0163313
866.890	0.0163479
866.968	0.0164402
867.046	0.0163503
867.124	0.0161547
867.203	0.0160226
867.281	0.0160942
867.359	0.0159959
867.437	0.0159516
867.515	0.0159872
867.593	0.0160421
867.671	0.0160210
867.749	0.0158743
867.828	0.0158509
867.906	0.0160255
867.984	0.0160289
868.062	0.0161330
868.140	0.0161683
868.218	0.0162885
868.296	0.0163967
868.374	0.0162332
868.453	0.0164458
868.531	0.0165934
868.609	0.0165041
868.687	0.0167451
868.765	0.0168183
868.843	0.0170059
868.921	0.0170107
868.999	0.0170193
869.078	0.0172127
869.156	0.0171786
869.234	0.0171434
869.312	0.0173165
869.390	0.0171592
869.468	0.0172090
869.546	0.0169958
869.624	0.0169324
869.703	0.0170852
869.781	0.0169247
869.859	0.0169719
869.937	0.0167930
870.015	0.0169418
870.093	0.0166663
870.171	0.0166496
870.249	0.0166132
870.328	0.0166492
870.406	0.0165804
870.484	0.0165653
870.562	0.0165359
870.640	0.0164906
870.718	0.0166075
870.796	0.0163583
870.874	0.0163556
870.953	0.0163494
871.031	0.0162333
871.109	0.0162928
871.187	0.0162701
871.265	0.0160336
871.343	0.0160576
871.421	0.0159529
871.499	0.0160748
871.578	0.0159095
871.656	0.0159400
871.734	0.0159097
871.812	0.0159538
871.890	0.0158656
871.968	0.0159081
872.046	0.0161118
872.124	0.0160944
872.203	0.0160658
872.281	0.0162586
872.359	0.0163999
872.437	0.0166493
872.515	0.0164519
872.593	0.0166862
872.671	0.0167580
872.749	0.0167850
872.828	0.0169250
872.906	0.0169751
872.984	0.0169908
873.062	0.0169892
873.140	0.0172179
873.218	0.0170888
873.296	0.0170434
873.374	0.0170282
873.453	0.0170560
873.531	0.0170295
873.609	0.0168579
873.687	0.0169293
873.765	0.0168240
873.843	0.0166679
873.921	0.0166698
873.999	0.0165479
874.078	0.0165147
874.156	0.0165952
874.234	0.0163060
874.312	0.0163558
874.390	0.0164210
874.468	0.0163609
874.546	0.0162810
874.624	0.0163280
874.703	0.0163766
874.781	0.0164882
874.859	0.0162909
874.937	0.0163944
875.015	0.0163468
875.093	0.0164379
875.171	0.0166283
875.249	0.0165524
875.328	0.0165652
875.406	0.0164578
875.484	0.0164830
875.562	0.0165119
875.640	0.0165604
875.718	0.0165897
875.796	0.0164706
875.874	0.0164747
875.953	0.0165189
876.031	0.0164005
876.109	0.0164294
876.187	0.0164709
876.265	0.0164422
876.343	0.0165522
876.421	0.0163982
876.499	0.0165919
876.578	0.0165966
876.656	0.0164526
876.734	0.0165724
876.812	0.0164988
876.890	0.0165468
876.968	0.0164973
877.046	0.0166955
877.124	0.0166934
877.203	0.0165061
877.281	0.0166209
877.359	0.0166120
877.437	0.0165533
877.515	0.0165795
877.593	0.0165537
877.671	0.0164709
877.749	0.0164184
877.828	0.0165360
877.906	0.0165437
877.984	0.0164968
878.062	0.0165071
878.140	0.0166585
878.218	0.0165380
878.296	0.0165850
878.374	0.0166722
878.453	0.0167096
878.531	0.0165660
878.609	0.0165714
878.687	0.0166075
878.765	0.0165237
878.843	0.0165507
878.921	0.0165689
878.999	0.0165483
879.078	0.0165491
879.156	0.0165586
879.234	0.0166496
879.312	0.0166266
879.390	0.0167731
879.468	0.0167091
879.546	0.0166541
879.624	0.0165752
879.703	0.0167782
879.781	0.0167508
879.859	0.0166282
879.937	0.0165277
880.015	0.0166502
880.093	0.0166300
880.171	0.0166477
880.249	0.0166644
880.328	0.0166322
880.406	0.0165101
880.484	0.0164952
880.562	0.0166257
880.640	0.0164894
880.718	0.0165837
880.796	0.0164780
880.874	0.0163271
880.953	0.0164665
881.031	0.0164835
881.109	0.0165660
881.187	0.0164304
881.265	0.0163726
881.343	0.0164741
881.421	0.0166110
881.499	0.0164146
881.578	0.0164352
881.656	0.0165251
881.734	0.0164631
881.812	0.0165158
881.890	0.0165324
881.968	0.0165161
882.046	0.0165996
882.124	0.0165106
882.203	0.0163953
882.281	0.0165426
882.359	0.0165997
882.437	0.0165790
882.515	0.0164531
882.593	0.0165615
882.671	0.0165018
882.749	0.0166001
882.828	0.0165993
882.906	0.0164896
882.984	0.0164434
883.062	0.0165535
883.140	0.0165263
883.218	0.0164709
883.296	0.0164590
883.374	0.0164887
883.453	0.0164532
883.531	0.0166067
883.609	0.0166837
883.687	0.0167020
883.765	0.0165749
883.843	0.0165857
883.921	0.0166634
883.999	0.0166147
884.078	0.0166470
884.156	0.0165861
884.234	0.0167416
884.312	0.0169251
884.390	0.0168145
884.468	0.0168067
884.546	0.0168118
884.624	0.0167290
884.703	0.0166994
884.781	0.0166798
884.859	0.0167474
884.937	0.0166133
885.015	0.0165768
885.093	0.0164143
885.171	0.0165876
885.249	0.0163671
885.328	0.0165009
885.406	0.0164721
885.484	0.0165263
885.562	0.0164986
885.640	0.0164570
885.718	0.0164317
885.796	0.0165281
885.874	0.0165463
885.953	0.0166663
886.031	0.0164964
886.109	0.0165038
886.187	0.0166595
886.265	0.0166671
886.343	0.0166859
886.421	0.0166992
886.499	0.0168560
886.578	0.0165097
886.656	0.0165890
886.734	0.0166258
886.812	0.0165923
886.890	0.0164478
886.968	0.0165331
887.046	0.0166334
887.124	0.0165458
887.203	0.0165615
887.281	0.0165031
887.359	0.0165649
887.437	0.0165611
887.515	0.0164760
887.593	0.0164256
887.671	0.0166276
887.749	0.0164247
887.828	0.0165020
887.906	0.0165366
887.984	0.0165077
888.062	0.0164491
888.140	0.0165012
888.218	0.0163987
888.296	0.0164155
888.374	0.0164595
888.453	0.0165460
888.531	0.0165073
888.609	0.0165239
888.687	0.0164914
888.765	0.0163977
888.843	0.0165469
888.921	0.0165074
888.999	0.0165498
889.078	0.0166054
889.156	0.0167142
889.234	0.0166344
889.312	0.0166049
889.390	0.0166093
889.468	0.0167519
889.546	0.0168306
889.624	0.0167057
889.703	0.0167560
889.781	0.0165509
889.859	0.0167681
889.937	0.0167142
890.015	0.0166769
890.093	0.0166876
890.171	0.0167378
890.249	0.0165110
890.328	0.0167364
890.406	0.0165972
890.484	0.0164976
890.562	0.0165129
890.640	0.0164925
890.718	0.0164342
890.796	0.0165850
890.874	0.0164319
890.953	0.0165379
891.031	0.0165290
891.109	0.0165023
891.187	0.0164447
891.265	0.0166081
891.343	0.0165904
891.421	0.0165681
891.499	0.0165939
891.578	0.0164902
891.656	0.0166090
891.734	0.0165904
891.812	0.0164266
891.890	0.0164020
891.968	0.0165144
892.046	0.0164615
892.124	0.0163512
892.203	0.0164179
892.281	0.0165115
892.359	0.0165703
892.437	0.0164461
892.515	0.0162772
892.593	0.0164055
892.671	0.0165691
892.749	0.0164564
892.828	0.0164209
892.906	0.0164851
892.984	0.0165368
893.062	0.0166589
893.140	0.0164922
893.218	0.0165604
893.296	0.0164696
893.374	0.0167504
893.453	0.0166193
893.531	0.0163836
893.609	0.0164851
893.687	0.0164989
893.765	0.0165074
893.843	0.0165798
893.921	0.0164976
893.999	0.0165012
894.078	0.0166395
894.156	0.0165990
894.234	0.0166093
894.312	0.0167296
894.390	0.0166827
894.468	0.0166009
894.546	0.0166580
894.624	0.0166721
894.703	0.0164456
894.781	0.0166032
894.859	0.0166528
894.937	0.0165067
895.015	0.0164814
895.093	0.0166447
895.171	0.0165254
895.249	0.0165644
895.328	0.0165800
895.406	0.0164262
895.484	0.0163802
895.562	0.0165701
895.640	0.0164951
895.718	0.0164191
895.796	0.0165722
895.874	0.0163332
895.953	0.0165189
896.031	0.0165672
896.109	0.0164900
896.187	0.0165517
896.265	0.0164870
896.343	0.0165776
896.421	0.0163865
896.499	0.0164547
896.578	0.0164600
896.656	0.0166246
896.734	0.0166386
896.812	0.0166447
896.890	0.0165327
896.968	0.0165100
897.046	0.0167741
897.124	0.0166978
897.203	0.0165028
897.281	0.0166132
897.359	0.0166566
897.437	0.0166958
897.515	0.0166160
897.593	0.0165683
897.671	0.0167493
897.749	0.0166747
897.828	0.0166611
897.906	0.0165445
897.984	0.0164683
898.062	0.0166869
898.140	0.0165492
898.218	0.0165413
898.296	0.0165853
898.374	0.0165716
898.453	0.0165630
898.531	0.0164932
898.609	0.0164932
898.687	0.0166229
898.765	0.0165826
898.843	0.0166389
898.921	0.0166370
898.999	0.0165520
899.078	0.0164882
899.156	0.0166410
899.234	0.0165470
899.312	0.0165262
899.390	0.0165659
899.468	0.0164867
899.546	0.0164810
899.624	0.0164394
899.703	0.0163796
899.781	0.0165121
899.859	0.0164768
899.937	0.0164117
900.015	0.0163639
900.093	0.0163586
900.171	0.0164485
900.249	0.0165314
900.328	0.0164468
900.406	0.0165358
900.484	0.0164993
900.562	0.0164637
900.640	0.0166537
900.718	0.0165491
900.796	0.0166281
900.874	0.0165642
900.953	0.0167115
901.031	0.0166437
901.109	0.0165333
901.187	0.0165511
901.265	0.0165686
901.343	0.0166801
901.421	0.0166638
901.499	0.0165513
901.578	0.0165166
901.656	0.0165608
901.734	0.0165595
901.812	0.0164999
901.890	0.0164874
901.968	0.0164870
902.046	0.0164350
902.124	0.0162900
902.203	0.0164201
902.281	0.0163766
902.359	0.0163164
902.437	0.0163475
902.515	0.0162881
902.593	0.0164439
902.671	0.0162989
902.749	0.0163457
902.828	0.0163497
902.906	0.0164481
902.984	0.0163094
903.062	0.0163142
903.140	0.0164803
903.218	0.0165692
903.296	0.0165379
903.374	0.0165964
903.453	0.0165958
903.531	0.0166149
903.609	0.0167010
903.687	0.0168525
903.765	0.0167213
903.843	0.0166520
903.921	0.0167760
903.999	0.0168619
904.078	0.0167478
904.156	0.0166566
904.234	0.0166013
904.312	0.0165317
904.390	0.0167020
904.468	0.0166073
904.546	0.0166496
904.624	0.0167015
904.703	0.0166480
904.781	0.0166428
904.859	0.0167020
904.937	0.0166635
905.015	0.0164847
905.093	0.0167297
905.171	0.0167354
905.249	0.0165563
905.328	0.0166092
905.406	0.0166956
905.484	0.0165340
905.562	0.0166227
905.640	0.0166207
905.718	0.0166357
905.796	0.0166000
905.874	0.0164169
905.953	0.0166721
906.031	0.0165481
906.109	0.0164743
906.187	0.0164057
906.265	0.0162562
906.343	0.0163681
906.421	0.0164968
906.499	0.0165517
906.578	0.0163957
906.656	0.0164714
906.734	0.0164775
906.812	0.0165028
906.890	0.0163983
906.968	0.0164405
907.046	0.0164419
907.124	0.0164282
907.203	0.0163477
907.281	0.0164328
907.359	0.0162807
907.437	0.0165771
907.515	0.0163257
907.593	0.0164510
907.671	0.0164388
907.749	0.0164178
907.828	0.0165185
907.906	0.0163535
907.984	0.0163647
908.062	0.0165451
908.140	0.0164585
908.218	0.0164447
908.296	0.0165733
908.374	0.0165485
908.453	0.0165727
908.531	0.0166448
908.609	0.0165135
908.687	0.0165721
908.765	0.0165999
908.843	0.0166235
908.921	0.0165810
908.999	0.0166716
909.078	0.0167217
909.156	0.0167569
909.234	0.0166682
909.312	0.0168675
909.390	0.0166317
909.468	0.0165127
909.546	0.0167764
909.624	0.0167062
909.703	0.0166460
909.781	0.0167176
909.859	0.0166459
909.937	0.0167038
910.015	0.0167142
910.093	0.0166704
910.171	0.0165904
910.249	0.0167828
910.328	0.0167297
910.406	0.0167249
910.484	0.0166061
910.562	0.0166264
910.640	0.0166862
910.718	0.0168109
910.796	0.0166888
910.874	0.0165617
910.953	0.0165443
911.031	0.0165005
911.109	0.0165305
911.187	0.0166002
911.265	0.0165390
911.343	0.0165737
911.421	0.0164839
911.499	0.0164063
911.578	0.0164729
911.656	0.0164862
911.734	0.0164336
911.812	0.0164959
911.890	0.0164842
911.968	0.0165221
912.046	0.0164661
912.124	0.0163804
912.203	0.0165137
912.281	0.0165368
912.359	0.0163674
912.437	0.0165370
912.515	0.0164365
912.593	0.0165090
912.671	0.0166663
912.749	0.0165596
912.828	0.0165179
912.906	0.0164444
912.984	0.0165358
913.062	0.0166040
913.140	0.0165094
913.218	0.0163393
913.296	0.0162052
913.374	0.0165081
913.453	0.0164708
913.531	0.0163527
913.609	0.0164491
913.687	0.0163459
913.765	0.0164295
913.843	0.0164258
913.921	0.0165302
913.999	0.0165765
914.078	0.0166055
914.156	0.0165613
914.234	0.0165554
914.312	0.0166132
914.390	0.0166296
914.468	0.0167739
914.546	0.0166936
914.624	0.0165995
914.703	0.0167812
914.781	0.0168285
914.859	0.0167654
914.937	0.0168095
915.015	0.0169755
915.093	0.0167949
915.171	0.0167097
915.249	0.0167617
915.328	0.0166617
915.406	0.0167229
915.484	0.0166669
915.562	0.0166582
915.640	0.0167677
915.718	0.0166142
915.796	0.0165932
915.874	0.0166013
915.953	0.0165293
916.031	0.0165730
916.109	0.0166179
916.187	0.0165459
916.265	0.0166109
916.343	0.0165878
916.421	0.0165507
916.499	0.0164625
916.578	0.0165864
916.656	0.0164977
916.734	0.0166425
916.812	0.0167883
916.890	0.0165381
916.968	0.0164995
917.046	0.0165285
917.124	0.0165292
917.203	0.0165127
917.281	0.0165607
917.359	0.0166992
917.437	0.0167062
917.515	0.0166006
917.593	0.0166393
917.671	0.0165405
917.749	0.0165273
917.828	0.0165849
917.906	0.0165953
917.984	0.0166237
918.062	0.0164706
918.140	0.0166029
918.218	0.0165373
918.296	0.0163813
918.374	0.0164526
918.453	0.0162862
918.531	0.0163451
918.609	0.0163268
918.687	0.0163673
918.765	0.0164111
918.843	0.0163927
918.921	0.0163030
918.999	0.0163792
919.078	0.0161655
919.156	0.0165033
919.234	0.0164506
919.312	0.0163321
919.390	0.0165279
919.468	0.0164249
919.546	0.0165168
919.624	0.0165120
919.703	0.0165878
919.781	0.0164811
919.859	0.0166158
919.937	0.0165983
