06/10/2022	18:34:39	Ver.	4.1	UNKNOWN
Optical Delay	600.015094	Delta X		0.078125	Sweeps	1	Scan Rate	0/0
Coordinates	Axis 1	NaN	Axis 2	NaN	Axis 3	NaN	Axis 4	NaN	Axis 5	NaN	Axis 6	0.000000
TX Power	0.000000	RX Power	0.000000

600.015	0.0165526
600.093	0.0165842
600.171	0.0165065
600.249	0.0165186
600.328	0.0165182
600.406	0.0165170
600.484	0.0165965
600.562	0.0165634
600.640	0.0166345
600.718	0.0165260
600.796	0.0164844
600.874	0.0165653
600.953	0.0166157
601.031	0.0165289
601.109	0.0165869
601.187	0.0165008
601.265	0.0165255
601.343	0.0164906
601.421	0.0165601
601.499	0.0165308
601.578	0.0166082
601.656	0.0165085
601.734	0.0165421
601.812	0.0166420
601.890	0.0165419
601.968	0.0164479
602.046	0.0165118
602.124	0.0166247
602.203	0.0165443
602.281	0.0166295
602.359	0.0165305
602.437	0.0165266
602.515	0.0165586
602.593	0.0164679
602.671	0.0165371
602.749	0.0165237
602.828	0.0166046
602.906	0.0165637
602.984	0.0165463
603.062	0.0165941
603.140	0.0164172
603.218	0.0165556
603.296	0.0165237
603.374	0.0166093
603.453	0.0165218
603.531	0.0166243
603.609	0.0165253
603.687	0.0163833
603.765	0.0165387
603.843	0.0165259
603.921	0.0165945
603.999	0.0165355
604.078	0.0165600
604.156	0.0164900
604.234	0.0163752
604.312	0.0165292
604.390	0.0165839
604.468	0.0164307
604.546	0.0165873
604.624	0.0165110
604.703	0.0165752
604.781	0.0165615
604.859	0.0165179
604.937	0.0165299
605.015	0.0164026
605.093	0.0165139
605.171	0.0164605
605.249	0.0164517
605.328	0.0166096
605.406	0.0166051
605.484	0.0165468
605.562	0.0165630
605.640	0.0164241
605.718	0.0165746
605.796	0.0165614
605.874	0.0166019
605.953	0.0164421
606.031	0.0165432
606.109	0.0166029
606.187	0.0165096
606.265	0.0166409
606.343	0.0165437
606.421	0.0166029
606.499	0.0165734
606.578	0.0165115
606.656	0.0165285
606.734	0.0166743
606.812	0.0166304
606.890	0.0165242
606.968	0.0165973
607.046	0.0165476
607.124	0.0165153
607.203	0.0165736
607.281	0.0164406
607.359	0.0166068
607.437	0.0166238
607.515	0.0166259
607.593	0.0165730
607.671	0.0165156
607.749	0.0164643
607.828	0.0164836
607.906	0.0165919
607.984	0.0165424
608.062	0.0165359
608.140	0.0165047
608.218	0.0166295
608.296	0.0166656
608.374	0.0164840
608.453	0.0164997
608.531	0.0165994
608.609	0.0165206
608.687	0.0165330
608.765	0.0165619
608.843	0.0165493
608.921	0.0165562
608.999	0.0164963
609.078	0.0165638
609.156	0.0165409
609.234	0.0165496
609.312	0.0165752
609.390	0.0165526
609.468	0.0167255
609.546	0.0166463
609.624	0.0165538
609.703	0.0165409
609.781	0.0166620
609.859	0.0166262
609.937	0.0165366
610.015	0.0167530
610.093	0.0165851
610.171	0.0165340
610.249	0.0165208
610.328	0.0166589
610.406	0.0164728
610.484	0.0166086
610.562	0.0165347
610.640	0.0165208
610.718	0.0166222
610.796	0.0164144
610.874	0.0166186
610.953	0.0165005
611.031	0.0164867
611.109	0.0164844
611.187	0.0164909
611.265	0.0164274
611.343	0.0165623
611.421	0.0165092
611.499	0.0165105
611.578	0.0166386
611.656	0.0166134
611.734	0.0164364
611.812	0.0166495
611.890	0.0164821
611.968	0.0164487
612.046	0.0164432
612.124	0.0166325
612.203	0.0166238
612.281	0.0164706
612.359	0.0165144
612.437	0.0164894
612.515	0.0165770
612.593	0.0165711
612.671	0.0164291
612.749	0.0166247
612.828	0.0164854
612.906	0.0164776
612.984	0.0165398
613.062	0.0164968
613.140	0.0165849
613.218	0.0165482
613.296	0.0165885
613.374	0.0165907
613.453	0.0164584
613.531	0.0165028
613.609	0.0165598
613.687	0.0164531
613.765	0.0165210
613.843	0.0164622
613.921	0.0164278
613.999	0.0164877
614.078	0.0164901
614.156	0.0163663
614.234	0.0167163
614.312	0.0164299
614.390	0.0163868
614.468	0.0165026
614.546	0.0164963
614.624	0.0164957
614.703	0.0165105
614.781	0.0165503
614.859	0.0164502
614.937	0.0165233
615.015	0.0164643
615.093	0.0164475
615.171	0.0166105
615.249	0.0165979
615.328	0.0165253
615.406	0.0165076
615.484	0.0164827
615.562	0.0164774
615.640	0.0165727
615.718	0.0166158
615.796	0.0164902
615.874	0.0165291
615.953	0.0165659
616.031	0.0164117
616.109	0.0163773
616.187	0.0165033
616.265	0.0166834
616.343	0.0164691
616.421	0.0165238
616.499	0.0166966
616.578	0.0165146
616.656	0.0164735
616.734	0.0165316
616.812	0.0164873
616.890	0.0165545
616.968	0.0166450
617.046	0.0165605
617.124	0.0166437
617.203	0.0165056
617.281	0.0165935
617.359	0.0166193
617.437	0.0165271
617.515	0.0165403
617.593	0.0166251
617.671	0.0165308
617.749	0.0165144
617.828	0.0166278
617.906	0.0165726
617.984	0.0166006
618.062	0.0166238
618.140	0.0165668
618.218	0.0165829
618.296	0.0165629
618.374	0.0165169
618.453	0.0164378
618.531	0.0165485
618.609	0.0165932
618.687	0.0166467
618.765	0.0165422
618.843	0.0164999
618.921	0.0165388
618.999	0.0165410
619.078	0.0165543
619.156	0.0164780
619.234	0.0164838
619.312	0.0166536
619.390	0.0164706
619.468	0.0165314
619.546	0.0165373
619.624	0.0163803
619.703	0.0167109
619.781	0.0165997
619.859	0.0164415
619.937	0.0164951
620.015	0.0165509
620.093	0.0165284
620.171	0.0165483
620.249	0.0165597
620.328	0.0166145
620.406	0.0165939
620.484	0.0164886
620.562	0.0164987
620.640	0.0164999
620.718	0.0165410
620.796	0.0164686
620.874	0.0165635
620.953	0.0167094
621.031	0.0166763
621.109	0.0165403
621.187	0.0165134
621.265	0.0165121
621.343	0.0164192
621.421	0.0164278
621.499	0.0165764
621.578	0.0164806
621.656	0.0165381
621.734	0.0164485
621.812	0.0164828
621.890	0.0165586
621.968	0.0164352
622.046	0.0165354
622.124	0.0166541
622.203	0.0164765
622.281	0.0166370
622.359	0.0165354
622.437	0.0164662
622.515	0.0165964
622.593	0.0164445
622.671	0.0164938
622.749	0.0163712
622.828	0.0164590
622.906	0.0165254
622.984	0.0166673
623.062	0.0165437
623.140	0.0163991
623.218	0.0164328
623.296	0.0166300
623.374	0.0165120
623.453	0.0165890
623.531	0.0164721
623.609	0.0165503
623.687	0.0165253
623.765	0.0164378
623.843	0.0165594
623.921	0.0164718
623.999	0.0165934
624.078	0.0165137
624.156	0.0166058
624.234	0.0166122
624.312	0.0165104
624.390	0.0164519
624.468	0.0166054
624.546	0.0164930
624.624	0.0165325
624.703	0.0166210
624.781	0.0165164
624.859	0.0165314
624.937	0.0165063
625.015	0.0164768
625.093	0.0164427
625.171	0.0165778
625.249	0.0166410
625.328	0.0166565
625.406	0.0166594
625.484	0.0163841
625.562	0.0164318
625.640	0.0165502
625.718	0.0166321
625.796	0.0164883
625.874	0.0166621
625.953	0.0165531
626.031	0.0165520
626.109	0.0166092
626.187	0.0164613
626.265	0.0167198
626.343	0.0165464
626.421	0.0164980
626.499	0.0165257
626.578	0.0164222
626.656	0.0165253
626.734	0.0165889
626.812	0.0164703
626.890	0.0165220
626.968	0.0164967
627.046	0.0166165
627.124	0.0165830
627.203	0.0165645
627.281	0.0165637
627.359	0.0165009
627.437	0.0166084
627.515	0.0164415
627.593	0.0164981
627.671	0.0166984
627.749	0.0166357
627.828	0.0166282
627.906	0.0165763
627.984	0.0164288
628.062	0.0165414
628.140	0.0165034
628.218	0.0164426
628.296	0.0165554
628.374	0.0165890
628.453	0.0165605
628.531	0.0164399
628.609	0.0163709
628.687	0.0165858
628.765	0.0164536
628.843	0.0165739
628.921	0.0166187
628.999	0.0165092
629.078	0.0166501
629.156	0.0165319
629.234	0.0165652
629.312	0.0165986
629.390	0.0164921
629.468	0.0165172
629.546	0.0166550
629.624	0.0165471
629.703	0.0165924
629.781	0.0165799
629.859	0.0164629
629.937	0.0166267
630.015	0.0166619
630.093	0.0165437
630.171	0.0165135
630.249	0.0166084
630.328	0.0166663
630.406	0.0166193
630.484	0.0165105
630.562	0.0165425
630.640	0.0166003
630.718	0.0165174
630.796	0.0165607
630.874	0.0165097
630.953	0.0165227
631.031	0.0164982
631.109	0.0163916
631.187	0.0167072
631.265	0.0166261
631.343	0.0165098
631.421	0.0166245
631.499	0.0164732
631.578	0.0164094
631.656	0.0165042
631.734	0.0164217
631.812	0.0166338
631.890	0.0165367
631.968	0.0164813
632.046	0.0166058
632.124	0.0165724
632.203	0.0164649
632.281	0.0164239
632.359	0.0166961
632.437	0.0166600
632.515	0.0164653
632.593	0.0163657
632.671	0.0164587
632.749	0.0165675
632.828	0.0167115
632.906	0.0164791
632.984	0.0165160
633.062	0.0166967
633.140	0.0165925
633.218	0.0166434
633.296	0.0164838
633.374	0.0164607
633.453	0.0164262
633.531	0.0165555
633.609	0.0166666
633.687	0.0165365
633.765	0.0165404
633.843	0.0165867
633.921	0.0166990
633.999	0.0164748
634.078	0.0166196
634.156	0.0166081
634.234	0.0166684
634.312	0.0165739
634.390	0.0164812
634.468	0.0165959
634.546	0.0164459
634.624	0.0166336
634.703	0.0166231
634.781	0.0165832
634.859	0.0165654
634.937	0.0166774
635.015	0.0164838
635.093	0.0165543
635.171	0.0164857
635.249	0.0163929
635.328	0.0164920
635.406	0.0165294
635.484	0.0165440
635.562	0.0164788
635.640	0.0164809
635.718	0.0165894
635.796	0.0165267
635.874	0.0165662
635.953	0.0165517
636.031	0.0165873
636.109	0.0164532
636.187	0.0165440
636.265	0.0165085
636.343	0.0164249
636.421	0.0165334
636.499	0.0165478
636.578	0.0165366
636.656	0.0164995
636.734	0.0166045
636.812	0.0166035
636.890	0.0164381
636.968	0.0164628
637.046	0.0166092
637.124	0.0166002
637.203	0.0166502
637.281	0.0165882
637.359	0.0165962
637.437	0.0165310
637.515	0.0164927
637.593	0.0165458
637.671	0.0165847
637.749	0.0165710
637.828	0.0166264
637.906	0.0165671
637.984	0.0165022
638.062	0.0165128
638.140	0.0165645
638.218	0.0167244
638.296	0.0166338
638.374	0.0166074
638.453	0.0166022
638.531	0.0165840
638.609	0.0166303
638.687	0.0164678
638.765	0.0165319
638.843	0.0164766
638.921	0.0165196
638.999	0.0165647
639.078	0.0165923
639.156	0.0166531
639.234	0.0165352
639.312	0.0165934
639.390	0.0165649
639.468	0.0166080
639.546	0.0165118
639.624	0.0165382
639.703	0.0165063
639.781	0.0165322
639.859	0.0165649
639.937	0.0163519
640.015	0.0166118
640.093	0.0167049
640.171	0.0165105
640.249	0.0165968
640.328	0.0164441
640.406	0.0166013
640.484	0.0166045
640.562	0.0165421
640.640	0.0165630
640.718	0.0165470
640.796	0.0164639
640.874	0.0163963
640.953	0.0165508
641.031	0.0165397
641.109	0.0166236
641.187	0.0164950
641.265	0.0164654
641.343	0.0165664
641.421	0.0166574
641.499	0.0166357
641.578	0.0163995
641.656	0.0167109
641.734	0.0165595
641.812	0.0165437
641.890	0.0165523
641.968	0.0166238
642.046	0.0166097
642.124	0.0164775
642.203	0.0164442
642.281	0.0166009
642.359	0.0166138
642.437	0.0166246
642.515	0.0165360
642.593	0.0166201
642.671	0.0166182
642.749	0.0165540
642.828	0.0164776
642.906	0.0165621
642.984	0.0166563
643.062	0.0165266
643.140	0.0166205
643.218	0.0166739
643.296	0.0166119
643.374	0.0165796
643.453	0.0166970
643.531	0.0165599
643.609	0.0165656
643.687	0.0165359
643.765	0.0165249
643.843	0.0165546
643.921	0.0165590
643.999	0.0163995
644.078	0.0164904
644.156	0.0164728
644.234	0.0166190
644.312	0.0165171
644.390	0.0164850
644.468	0.0165723
644.546	0.0166576
644.624	0.0164075
644.703	0.0166524
644.781	0.0165263
644.859	0.0165437
644.937	0.0165669
645.015	0.0165819
645.093	0.0165463
645.171	0.0165524
645.249	0.0165221
645.328	0.0166203
645.406	0.0166404
645.484	0.0165446
645.562	0.0165977
645.640	0.0165878
645.718	0.0165237
645.796	0.0166714
645.874	0.0165543
645.953	0.0166658
646.031	0.0165559
646.109	0.0166119
646.187	0.0165117
646.265	0.0165310
646.343	0.0164965
646.421	0.0165829
646.499	0.0165250
646.578	0.0166354
646.656	0.0166193
646.734	0.0165961
646.812	0.0165416
646.890	0.0165652
646.968	0.0165388
647.046	0.0165657
647.124	0.0165510
647.203	0.0165042
647.281	0.0165594
647.359	0.0167149
647.437	0.0166074
647.515	0.0165254
647.593	0.0165481
647.671	0.0166696
647.749	0.0166712
647.828	0.0165268
647.906	0.0165651
647.984	0.0164488
648.062	0.0165700
648.140	0.0165984
648.218	0.0165329
648.296	0.0164482
648.374	0.0165871
648.453	0.0166086
648.531	0.0164527
648.609	0.0165255
648.687	0.0165740
648.765	0.0166493
648.843	0.0166273
648.921	0.0166290
648.999	0.0165105
649.078	0.0166089
649.156	0.0165298
649.234	0.0166070
649.312	0.0166185
649.390	0.0167192
649.468	0.0166291
649.546	0.0165121
649.624	0.0165421
649.703	0.0164272
649.781	0.0165558
649.859	0.0166213
649.937	0.0165218
650.015	0.0165073
650.093	0.0165087
650.171	0.0166544
650.249	0.0164658
650.328	0.0165384
650.406	0.0165474
650.484	0.0165676
650.562	0.0164866
650.640	0.0166322
650.718	0.0164709
650.796	0.0165777
650.874	0.0166322
650.953	0.0166120
651.031	0.0165205
651.109	0.0164935
651.187	0.0165930
651.265	0.0164851
651.343	0.0165785
651.421	0.0165926
651.499	0.0166029
651.578	0.0165478
651.656	0.0166258
651.734	0.0166080
651.812	0.0164964
651.890	0.0165480
651.968	0.0167851
652.046	0.0165561
652.124	0.0166094
652.203	0.0165777
652.281	0.0164924
652.359	0.0165173
652.437	0.0166425
652.515	0.0166467
652.593	0.0166992
652.671	0.0165606
652.749	0.0165168
652.828	0.0165868
652.906	0.0165126
652.984	0.0164937
653.062	0.0165939
653.140	0.0166323
653.218	0.0164828
653.296	0.0164425
653.374	0.0166574
653.453	0.0165029
653.531	0.0165275
653.609	0.0165456
653.687	0.0166322
653.765	0.0164745
653.843	0.0166501
653.921	0.0166068
653.999	0.0165363
654.078	0.0165041
654.156	0.0165981
654.234	0.0165774
654.312	0.0165842
654.390	0.0166039
654.468	0.0166008
654.546	0.0164761
654.624	0.0165713
654.703	0.0165513
654.781	0.0163915
654.859	0.0165845
654.937	0.0165645
655.015	0.0166354
655.093	0.0165950
655.171	0.0165358
655.249	0.0165958
655.328	0.0166204
655.406	0.0165034
655.484	0.0164475
655.562	0.0165002
655.640	0.0167132
655.718	0.0165835
655.796	0.0166057
655.874	0.0164637
655.953	0.0166958
656.031	0.0165770
656.109	0.0164495
656.187	0.0165405
656.265	0.0165737
656.343	0.0165121
656.421	0.0164581
656.499	0.0164233
656.578	0.0166720
656.656	0.0165750
656.734	0.0165777
656.812	0.0165030
656.890	0.0165908
656.968	0.0165276
657.046	0.0165308
657.124	0.0165663
657.203	0.0164726
657.281	0.0165990
657.359	0.0165594
657.437	0.0165974
657.515	0.0165991
657.593	0.0164787
657.671	0.0165687
657.749	0.0165107
657.828	0.0165826
657.906	0.0166254
657.984	0.0164958
658.062	0.0165396
658.140	0.0165201
658.218	0.0166685
658.296	0.0166344
658.374	0.0166605
658.453	0.0166008
658.531	0.0165883
658.609	0.0165921
658.687	0.0166196
658.765	0.0165106
658.843	0.0165048
658.921	0.0166273
658.999	0.0165882
659.078	0.0165163
659.156	0.0164461
659.234	0.0166673
659.312	0.0166068
659.390	0.0163194
659.468	0.0165997
659.546	0.0166666
659.624	0.0165701
659.703	0.0165440
659.781	0.0166351
659.859	0.0165456
659.937	0.0164699
660.015	0.0166168
660.093	0.0165611
660.171	0.0165394
660.249	0.0166289
660.328	0.0165981
660.406	0.0165372
660.484	0.0166266
660.562	0.0164993
660.640	0.0165191
660.718	0.0165660
660.796	0.0165724
660.874	0.0166161
660.953	0.0165208
661.031	0.0165179
661.109	0.0164842
661.187	0.0165199
661.265	0.0165197
661.343	0.0165970
661.421	0.0165457
661.499	0.0167195
661.578	0.0165045
661.656	0.0164713
661.734	0.0164961
661.812	0.0164926
661.890	0.0164629
661.968	0.0165541
662.046	0.0165882
662.124	0.0166560
662.203	0.0166377
662.281	0.0165799
662.359	0.0165057
662.437	0.0165654
662.515	0.0164611
662.593	0.0165489
662.671	0.0165569
662.749	0.0164816
662.828	0.0165594
662.906	0.0165338
662.984	0.0165392
663.062	0.0164975
663.140	0.0165253
663.218	0.0165266
663.296	0.0165376
663.374	0.0165112
663.453	0.0165035
663.531	0.0165096
663.609	0.0165387
663.687	0.0165487
663.765	0.0165105
663.843	0.0165395
663.921	0.0166245
663.999	0.0164206
664.078	0.0165919
664.156	0.0164826
664.234	0.0165021
664.312	0.0165100
664.390	0.0166067
664.468	0.0165694
664.546	0.0163605
664.624	0.0165763
664.703	0.0164905
664.781	0.0165337
664.859	0.0166119
664.937	0.0165306
665.015	0.0165440
665.093	0.0165115
665.171	0.0165302
665.249	0.0164809
665.328	0.0164491
665.406	0.0165513
665.484	0.0165216
665.562	0.0165815
665.640	0.0165411
665.718	0.0164838
665.796	0.0164989
665.874	0.0166341
665.953	0.0166124
666.031	0.0165366
666.109	0.0164979
666.187	0.0165112
666.265	0.0164779
666.343	0.0165982
666.421	0.0165335
666.499	0.0166294
666.578	0.0164677
666.656	0.0165410
666.734	0.0164840
666.812	0.0165947
666.890	0.0165491
666.968	0.0164448
667.046	0.0165421
667.124	0.0166672
667.203	0.0166102
667.281	0.0165585
667.359	0.0165281
667.437	0.0164291
667.515	0.0165076
667.593	0.0166138
667.671	0.0165055
667.749	0.0165369
667.828	0.0165458
667.906	0.0166230
667.984	0.0164934
668.062	0.0164758
668.140	0.0166126
668.218	0.0166025
668.296	0.0164558
668.374	0.0165974
668.453	0.0166364
668.531	0.0164658
668.609	0.0164538
668.687	0.0165629
668.765	0.0165636
668.843	0.0164845
668.921	0.0166637
668.999	0.0166243
669.078	0.0166216
669.156	0.0164393
669.234	0.0165105
669.312	0.0166494
669.390	0.0165015
669.468	0.0165566
669.546	0.0164386
669.624	0.0165591
669.703	0.0165858
669.781	0.0165984
669.859	0.0164928
669.937	0.0164352
670.015	0.0165205
670.093	0.0166686
670.171	0.0166212
670.249	0.0165524
670.328	0.0165176
670.406	0.0164748
670.484	0.0165379
670.562	0.0165755
670.640	0.0164832
670.718	0.0164660
670.796	0.0163821
670.874	0.0164941
670.953	0.0165621
671.031	0.0165759
671.109	0.0166568
671.187	0.0165247
671.265	0.0164939
671.343	0.0164566
671.421	0.0166327
671.499	0.0165463
671.578	0.0166273
671.656	0.0164214
671.734	0.0166290
671.812	0.0165324
671.890	0.0164988
671.968	0.0166014
672.046	0.0165969
672.124	0.0164846
672.203	0.0164436
672.281	0.0165722
672.359	0.0165438
672.437	0.0165073
672.515	0.0165894
672.593	0.0166190
672.671	0.0165902
672.749	0.0165719
672.828	0.0164857
672.906	0.0166061
672.984	0.0166514
673.062	0.0166203
673.140	0.0164525
673.218	0.0164598
673.296	0.0165955
673.374	0.0166222
673.453	0.0165842
673.531	0.0164771
673.609	0.0164294
673.687	0.0166442
673.765	0.0166123
673.843	0.0164745
673.921	0.0165249
673.999	0.0165306
674.078	0.0165182
674.156	0.0164313
674.234	0.0164718
674.312	0.0164178
674.390	0.0164548
674.468	0.0164980
674.546	0.0165932
674.624	0.0164410
674.703	0.0166058
674.781	0.0165701
674.859	0.0165312
674.937	0.0164137
675.015	0.0166354
675.093	0.0166050
675.171	0.0165685
675.249	0.0166243
675.328	0.0165441
675.406	0.0166234
675.484	0.0165720
675.562	0.0165742
675.640	0.0165842
675.718	0.0166777
675.796	0.0165129
675.874	0.0166549
675.953	0.0166940
676.031	0.0166222
676.109	0.0165561
676.187	0.0164680
676.265	0.0165056
676.343	0.0165485
676.421	0.0165002
676.499	0.0164705
676.578	0.0165070
676.656	0.0166111
676.734	0.0165665
676.812	0.0166779
676.890	0.0164084
676.968	0.0165516
677.046	0.0165295
677.124	0.0163546
677.203	0.0164626
677.281	0.0164609
677.359	0.0165043
677.437	0.0165330
677.515	0.0165913
677.593	0.0165486
677.671	0.0164131
677.749	0.0165413
677.828	0.0164230
677.906	0.0163970
677.984	0.0165246
678.062	0.0165242
678.140	0.0165638
678.218	0.0166366
678.296	0.0165813
678.374	0.0165738
678.453	0.0165567
678.531	0.0163847
678.609	0.0165991
678.687	0.0166112
678.765	0.0164808
678.843	0.0166824
678.921	0.0166119
678.999	0.0166828
679.078	0.0166245
679.156	0.0165439
679.234	0.0164666
679.312	0.0166939
679.390	0.0165794
679.468	0.0165589
679.546	0.0165319
679.624	0.0166077
679.703	0.0166048
679.781	0.0165132
679.859	0.0166022
679.937	0.0164883
680.015	0.0166273
680.093	0.0165697
680.171	0.0165911
680.249	0.0164916
680.328	0.0166070
680.406	0.0165656
680.484	0.0164854
680.562	0.0165541
680.640	0.0166444
680.718	0.0165416
680.796	0.0165569
680.874	0.0166180
680.953	0.0166051
681.031	0.0165547
681.109	0.0166347
681.187	0.0166277
681.265	0.0165978
681.343	0.0166125
681.421	0.0165778
681.499	0.0166071
681.578	0.0164817
681.656	0.0164777
681.734	0.0165585
681.812	0.0165372
681.890	0.0165041
681.968	0.0165990
682.046	0.0164022
682.124	0.0165855
682.203	0.0164936
682.281	0.0165032
682.359	0.0164552
682.437	0.0165572
682.515	0.0165871
682.593	0.0163908
682.671	0.0165427
682.749	0.0166898
682.828	0.0166190
682.906	0.0165469
682.984	0.0165281
683.062	0.0165613
683.140	0.0165926
683.218	0.0164115
683.296	0.0167010
683.374	0.0166081
683.453	0.0165510
683.531	0.0165894
683.609	0.0165688
683.687	0.0165881
683.765	0.0165208
683.843	0.0165118
683.921	0.0166129
683.999	0.0164756
684.078	0.0165888
684.156	0.0165664
684.234	0.0166463
684.312	0.0165626
684.390	0.0164974
684.468	0.0165642
684.546	0.0166067
684.624	0.0164857
684.703	0.0164397
684.781	0.0166257
684.859	0.0165489
684.937	0.0166595
685.015	0.0165838
685.093	0.0166045
685.171	0.0166118
685.249	0.0166425
685.328	0.0165025
685.406	0.0165910
685.484	0.0165915
685.562	0.0164467
685.640	0.0165791
685.718	0.0164739
685.796	0.0166634
685.874	0.0165871
685.953	0.0165511
686.031	0.0164267
686.109	0.0165565
686.187	0.0165192
686.265	0.0163710
686.343	0.0165331
686.421	0.0165993
686.499	0.0166364
686.578	0.0165092
686.656	0.0165642
686.734	0.0165004
686.812	0.0166408
686.890	0.0164801
686.968	0.0165533
687.046	0.0164677
687.124	0.0165292
687.203	0.0166261
687.281	0.0165402
687.359	0.0166167
687.437	0.0165621
687.515	0.0165191
687.593	0.0165324
687.671	0.0167811
687.749	0.0165740
687.828	0.0165704
687.906	0.0165100
687.984	0.0165757
688.062	0.0166530
688.140	0.0165748
688.218	0.0165159
688.296	0.0165569
688.374	0.0168272
688.453	0.0165160
688.531	0.0166046
688.609	0.0165718
688.687	0.0167796
688.765	0.0167078
688.843	0.0164664
688.921	0.0164547
688.999	0.0165154
689.078	0.0166791
689.156	0.0166131
689.234	0.0165470
689.312	0.0165242
689.390	0.0165652
689.468	0.0166952
689.546	0.0164636
689.624	0.0164652
689.703	0.0165717
689.781	0.0166136
689.859	0.0165395
689.937	0.0164160
690.015	0.0167618
690.093	0.0164608
690.171	0.0165081
690.249	0.0165414
690.328	0.0164921
690.406	0.0165467
690.484	0.0165034
690.562	0.0165647
690.640	0.0165521
690.718	0.0166815
690.796	0.0165573
690.874	0.0166469
690.953	0.0166121
691.031	0.0167310
691.109	0.0165097
691.187	0.0166339
691.265	0.0166145
691.343	0.0166412
691.421	0.0164888
691.499	0.0164256
691.578	0.0165446
691.656	0.0166072
691.734	0.0166183
691.812	0.0165785
691.890	0.0165932
691.968	0.0166620
692.046	0.0166396
692.124	0.0165107
692.203	0.0165648
692.281	0.0166222
692.359	0.0164985
692.437	0.0166286
692.515	0.0165918
692.593	0.0167112
692.671	0.0166046
692.749	0.0164375
692.828	0.0165175
692.906	0.0164670
692.984	0.0165438
693.062	0.0166250
693.140	0.0165175
693.218	0.0164670
693.296	0.0165398
693.374	0.0165891
693.453	0.0164684
693.531	0.0165556
693.609	0.0163497
693.687	0.0165121
693.765	0.0165220
693.843	0.0164408
693.921	0.0165831
693.999	0.0165521
694.078	0.0166393
694.156	0.0164722
694.234	0.0165560
694.312	0.0164009
694.390	0.0165557
694.468	0.0166510
694.546	0.0164331
694.624	0.0166911
694.703	0.0166093
694.781	0.0165383
694.859	0.0166162
694.937	0.0165813
695.015	0.0166169
695.093	0.0166383
695.171	0.0167439
695.249	0.0167871
695.328	0.0166714
695.406	0.0164556
695.484	0.0165918
695.562	0.0166717
695.640	0.0164767
695.718	0.0166086
695.796	0.0167039
695.874	0.0166597
695.953	0.0165147
696.031	0.0165553
696.109	0.0166605
696.187	0.0166013
696.265	0.0165376
696.343	0.0166254
696.421	0.0165683
696.499	0.0164923
696.578	0.0167189
696.656	0.0166138
696.734	0.0165820
696.812	0.0165935
696.890	0.0165853
696.968	0.0165369
697.046	0.0165556
697.124	0.0164877
697.203	0.0166583
697.281	0.0166547
697.359	0.0165079
697.437	0.0164676
697.515	0.0164463
697.593	0.0165863
697.671	0.0166538
697.749	0.0166520
697.828	0.0166063
697.906	0.0166473
697.984	0.0165459
698.062	0.0166144
698.140	0.0165283
698.218	0.0165354
698.296	0.0166492
698.374	0.0164951
698.453	0.0166492
698.531	0.0166468
698.609	0.0165661
698.687	0.0167405
698.765	0.0167159
698.843	0.0166160
698.921	0.0165551
698.999	0.0166483
699.078	0.0167234
699.156	0.0166690
699.234	0.0165493
699.312	0.0165041
699.390	0.0165623
699.468	0.0166809
699.546	0.0166602
699.624	0.0166234
699.703	0.0165704
699.781	0.0165457
699.859	0.0165255
699.937	0.0165976
700.015	0.0166142
700.093	0.0166880
700.171	0.0165830
700.249	0.0165100
700.328	0.0166637
700.406	0.0164380
700.484	0.0165913
700.562	0.0165881
700.640	0.0166348
700.718	0.0165722
700.796	0.0165509
700.874	0.0166673
700.953	0.0164494
701.031	0.0165038
701.109	0.0167546
701.187	0.0165945
701.265	0.0165795
701.343	0.0164504
701.421	0.0165257
701.499	0.0164004
701.578	0.0165539
701.656	0.0167496
701.734	0.0165007
701.812	0.0166084
701.890	0.0165781
701.968	0.0166100
702.046	0.0165977
702.124	0.0166454
702.203	0.0166871
702.281	0.0166373
702.359	0.0165279
702.437	0.0165724
702.515	0.0164803
702.593	0.0166824
702.671	0.0165911
702.749	0.0166169
702.828	0.0165829
702.906	0.0165263
702.984	0.0165682
703.062	0.0164224
703.140	0.0164865
703.218	0.0166486
703.296	0.0164976
703.374	0.0165529
703.453	0.0166418
703.531	0.0166295
703.609	0.0164915
703.687	0.0166330
703.765	0.0165687
703.843	0.0166969
703.921	0.0167723
703.999	0.0164656
704.078	0.0164790
704.156	0.0164951
704.234	0.0165205
704.312	0.0166076
704.390	0.0165886
704.468	0.0166113
704.546	0.0166604
704.624	0.0165459
704.703	0.0167025
704.781	0.0165411
704.859	0.0166461
704.937	0.0165304
705.015	0.0166640
705.093	0.0166132
705.171	0.0166254
705.249	0.0166361
705.328	0.0165611
705.406	0.0166097
705.484	0.0165257
705.562	0.0165036
705.640	0.0165639
705.718	0.0164754
705.796	0.0166011
705.874	0.0165793
705.953	0.0166051
706.031	0.0165544
706.109	0.0164068
706.187	0.0165926
706.265	0.0165387
706.343	0.0164902
706.421	0.0165238
706.499	0.0166964
706.578	0.0167133
706.656	0.0166299
706.734	0.0166723
706.812	0.0165785
706.890	0.0165565
706.968	0.0165947
707.046	0.0164822
707.124	0.0165500
707.203	0.0166255
707.281	0.0167115
707.359	0.0166800
707.437	0.0164941
707.515	0.0165003
707.593	0.0166715
707.671	0.0165060
707.749	0.0166355
707.828	0.0166643
707.906	0.0166216
707.984	0.0164535
708.062	0.0165263
708.140	0.0166057
708.218	0.0167319
708.296	0.0165730
708.374	0.0164297
708.453	0.0165079
708.531	0.0165156
708.609	0.0166086
708.687	0.0165161
708.765	0.0165741
708.843	0.0165501
708.921	0.0164751
708.999	0.0166105
709.078	0.0165868
709.156	0.0166071
709.234	0.0164899
709.312	0.0164551
709.390	0.0165601
709.468	0.0166938
709.546	0.0166287
709.624	0.0165314
709.703	0.0164227
709.781	0.0164719
709.859	0.0166758
709.937	0.0165274
710.015	0.0165945
710.093	0.0164973
710.171	0.0165951
710.249	0.0165321
710.328	0.0165586
710.406	0.0167088
710.484	0.0165865
710.562	0.0165070
710.640	0.0166402
710.718	0.0166229
710.796	0.0165768
710.874	0.0165658
710.953	0.0163839
711.031	0.0164087
711.109	0.0165132
711.187	0.0167604
711.265	0.0165316
711.343	0.0166143
711.421	0.0165707
711.499	0.0164592
711.578	0.0166088
711.656	0.0165366
711.734	0.0165265
711.812	0.0165627
711.890	0.0164857
711.968	0.0164426
712.046	0.0166582
712.124	0.0166151
712.203	0.0164650
712.281	0.0166321
712.359	0.0166674
712.437	0.0165039
712.515	0.0165701
712.593	0.0166140
712.671	0.0165239
712.749	0.0166119
712.828	0.0166441
712.906	0.0165643
712.984	0.0164864
713.062	0.0164775
713.140	0.0165746
713.218	0.0166024
713.296	0.0166870
713.374	0.0166267
713.453	0.0165247
713.531	0.0164924
713.609	0.0167345
713.687	0.0165466
713.765	0.0166055
713.843	0.0166972
713.921	0.0166251
713.999	0.0165858
714.078	0.0165801
714.156	0.0166145
714.234	0.0165939
714.312	0.0165891
714.390	0.0166005
714.468	0.0166994
714.546	0.0164695
714.624	0.0164554
714.703	0.0165822
714.781	0.0165397
714.859	0.0164236
714.937	0.0166409
715.015	0.0165354
715.093	0.0165561
715.171	0.0164295
715.249	0.0165319
715.328	0.0166276
715.406	0.0166096
715.484	0.0166568
715.562	0.0165072
715.640	0.0166223
715.718	0.0165819
715.796	0.0165466
715.874	0.0164968
715.953	0.0165086
716.031	0.0164909
716.109	0.0167063
716.187	0.0166079
716.265	0.0165389
716.343	0.0166039
716.421	0.0165483
716.499	0.0164816
716.578	0.0166177
716.656	0.0166018
716.734	0.0165886
716.812	0.0165740
716.890	0.0165417
716.968	0.0166737
717.046	0.0165984
717.124	0.0166336
717.203	0.0164941
717.281	0.0165176
717.359	0.0166932
717.437	0.0166166
717.515	0.0164761
717.593	0.0166669
717.671	0.0165986
717.749	0.0164558
717.828	0.0164275
717.906	0.0165530
717.984	0.0165559
718.062	0.0166750
718.140	0.0166414
718.218	0.0166378
718.296	0.0165860
718.374	0.0166676
718.453	0.0166596
718.531	0.0167001
718.609	0.0166184
718.687	0.0165351
718.765	0.0166153
718.843	0.0165531
718.921	0.0164205
718.999	0.0165095
719.078	0.0165310
719.156	0.0165208
719.234	0.0164678
719.312	0.0164075
719.390	0.0165337
719.468	0.0165315
719.546	0.0166518
719.624	0.0164379
719.703	0.0165640
719.781	0.0165028
719.859	0.0165461
719.937	0.0164395
720.015	0.0166111
720.093	0.0166306
720.171	0.0166575
720.249	0.0166196
720.328	0.0165220
720.406	0.0166118
720.484	0.0165533
720.562	0.0166149
720.640	0.0164925
720.718	0.0165054
720.796	0.0165126
720.874	0.0166180
720.953	0.0164915
721.031	0.0166714
721.109	0.0166570
721.187	0.0164275
721.265	0.0165852
721.343	0.0165590
721.421	0.0165675
721.499	0.0165743
721.578	0.0164899
721.656	0.0166365
721.734	0.0166377
721.812	0.0165469
721.890	0.0165616
721.968	0.0166412
722.046	0.0166273
722.124	0.0165849
722.203	0.0165984
722.281	0.0166435
722.359	0.0165857
722.437	0.0164751
722.515	0.0166505
722.593	0.0165624
722.671	0.0164950
722.749	0.0165584
722.828	0.0164861
722.906	0.0166780
722.984	0.0165701
723.062	0.0165766
723.140	0.0165162
723.218	0.0165334
723.296	0.0165372
723.374	0.0165881
723.453	0.0166473
723.531	0.0165272
723.609	0.0164408
723.687	0.0165647
723.765	0.0166235
723.843	0.0166570
723.921	0.0164487
723.999	0.0166698
724.078	0.0166252
724.156	0.0166830
724.234	0.0163839
724.312	0.0165681
724.390	0.0165668
724.468	0.0165246
724.546	0.0165823
724.624	0.0166174
724.703	0.0164963
724.781	0.0165792
724.859	0.0165962
724.937	0.0166971
725.015	0.0166562
725.093	0.0166408
725.171	0.0164561
725.249	0.0164980
725.328	0.0166949
725.406	0.0166772
725.484	0.0166748
725.562	0.0165943
725.640	0.0165334
725.718	0.0165003
725.796	0.0166115
725.874	0.0164384
725.953	0.0165038
726.031	0.0166787
726.109	0.0165369
726.187	0.0166547
726.265	0.0165723
726.343	0.0164096
726.421	0.0165376
726.499	0.0165643
726.578	0.0166209
726.656	0.0165142
726.734	0.0166316
726.812	0.0166302
726.890	0.0165321
726.968	0.0165044
727.046	0.0165631
727.124	0.0165247
727.203	0.0164680
727.281	0.0165556
727.359	0.0165047
727.437	0.0165981
727.515	0.0165063
727.593	0.0165427
727.671	0.0165354
727.749	0.0165001
727.828	0.0165525
727.906	0.0166309
727.984	0.0166895
728.062	0.0165562
728.140	0.0164625
728.218	0.0166154
728.296	0.0166718
728.374	0.0165974
728.453	0.0165107
728.531	0.0165418
728.609	0.0165485
728.687	0.0165228
728.765	0.0165563
728.843	0.0165161
728.921	0.0165789
728.999	0.0166180
729.078	0.0165025
729.156	0.0164809
729.234	0.0166006
729.312	0.0166050
729.390	0.0167412
729.468	0.0165241
729.546	0.0165033
729.624	0.0163220
729.703	0.0164494
729.781	0.0166129
729.859	0.0166738
729.937	0.0165115
730.015	0.0164182
730.093	0.0164951
730.171	0.0165879
730.249	0.0166137
730.328	0.0165887
730.406	0.0165807
730.484	0.0165770
730.562	0.0164767
730.640	0.0165730
730.718	0.0165745
730.796	0.0165546
730.874	0.0166887
730.953	0.0165875
731.031	0.0165625
731.109	0.0165989
731.187	0.0166968
731.265	0.0166125
731.343	0.0165199
731.421	0.0165139
731.499	0.0166492
731.578	0.0166093
731.656	0.0166048
731.734	0.0165498
731.812	0.0165023
731.890	0.0165060
731.968	0.0166106
732.046	0.0165448
732.124	0.0166028
732.203	0.0164281
732.281	0.0166212
732.359	0.0165338
732.437	0.0164642
732.515	0.0165771
732.593	0.0165582
732.671	0.0166904
732.749	0.0164207
732.828	0.0164841
732.906	0.0165338
732.984	0.0165250
733.062	0.0164435
733.140	0.0164397
733.218	0.0166212
733.296	0.0166090
733.374	0.0165397
733.453	0.0164826
733.531	0.0165057
733.609	0.0163850
733.687	0.0164072
733.765	0.0165562
733.843	0.0164431
733.921	0.0164103
733.999	0.0165595
734.078	0.0164641
734.156	0.0165077
734.234	0.0164326
734.312	0.0165230
734.390	0.0165226
734.468	0.0165657
734.546	0.0165530
734.624	0.0164100
734.703	0.0164615
734.781	0.0165524
734.859	0.0166151
734.937	0.0164835
735.015	0.0164554
735.093	0.0163661
735.171	0.0163727
735.249	0.0164280
735.328	0.0165800
735.406	0.0164919
735.484	0.0164486
735.562	0.0165338
735.640	0.0163816
735.718	0.0165006
735.796	0.0164057
735.874	0.0163952
735.953	0.0164025
736.031	0.0164632
736.109	0.0165874
736.187	0.0165554
736.265	0.0164858
736.343	0.0165149
736.421	0.0166363
736.499	0.0167192
736.578	0.0165164
736.656	0.0166506
736.734	0.0166401
736.812	0.0166275
736.890	0.0166805
736.968	0.0166157
737.046	0.0166209
737.124	0.0165845
737.203	0.0166504
737.281	0.0166877
737.359	0.0168054
737.437	0.0166400
737.515	0.0166016
737.593	0.0166084
737.671	0.0165653
737.749	0.0166798
737.828	0.0165755
737.906	0.0165718
737.984	0.0165682
738.062	0.0165683
738.140	0.0164721
738.218	0.0164175
738.296	0.0163969
738.374	0.0165352
738.453	0.0162399
738.531	0.0161948
738.609	0.0161636
738.687	0.0160326
738.765	0.0160155
738.843	0.0157221
738.921	0.0156636
738.999	0.0159605
739.078	0.0157855
739.156	0.0158321
739.234	0.0159724
739.312	0.0160724
739.390	0.0162651
739.468	0.0165170
739.546	0.0165742
739.624	0.0166994
739.703	0.0168477
739.781	0.0170832
739.859	0.0171098
739.937	0.0171466
740.015	0.0171462
740.093	0.0170768
740.171	0.0170065
740.249	0.0169763
740.328	0.0167640
740.406	0.0168646
740.484	0.0165780
740.562	0.0164488
740.640	0.0164859
740.718	0.0164076
740.796	0.0163249
740.874	0.0163785
740.953	0.0163969
741.031	0.0165398
741.109	0.0165724
741.187	0.0165865
741.265	0.0167950
741.343	0.0169576
741.421	0.0169180
741.499	0.0169998
741.578	0.0171286
741.656	0.0171094
741.734	0.0170672
741.812	0.0172578
741.890	0.0171128
741.968	0.0170698
742.046	0.0169219
742.124	0.0168548
742.203	0.0167305
742.281	0.0166682
742.359	0.0163730
742.437	0.0164307
742.515	0.0162762
742.593	0.0161184
742.671	0.0159203
742.749	0.0155985
742.828	0.0151945
742.906	0.0150150
742.984	0.0149110
743.062	0.0145765
743.140	0.0143404
743.218	0.0141936
743.296	0.0142525
743.374	0.0144308
743.453	0.0146250
743.531	0.0150417
743.609	0.0154052
743.687	0.0160973
743.765	0.0168393
743.843	0.0171729
743.921	0.0177068
743.999	0.0181505
744.078	0.0184457
744.156	0.0185101
744.234	0.0185774
744.312	0.0184420
744.390	0.0182365
744.468	0.0181182
744.546	0.0178501
744.624	0.0175606
744.703	0.0173436
744.781	0.0171886
744.859	0.0170332
744.937	0.0167896
745.015	0.0166621
745.093	0.0166481
745.171	0.0164838
745.249	0.0163327
745.328	0.0161659
745.406	0.0161997
745.484	0.0160807
745.562	0.0161121
745.640	0.0160459
745.718	0.0160440
745.796	0.0163359
745.874	0.0165009
745.953	0.0167458
746.031	0.0170296
746.109	0.0172798
746.187	0.0174796
746.265	0.0173783
746.343	0.0175652
746.421	0.0176210
746.499	0.0174830
746.578	0.0173460
746.656	0.0172475
746.734	0.0169194
746.812	0.0168481
746.890	0.0163843
746.968	0.0157269
747.046	0.0155128
747.124	0.0149883
747.203	0.0144849
747.281	0.0142588
747.359	0.0138957
747.437	0.0137480
747.515	0.0137015
747.593	0.0139071
747.671	0.0144388
747.749	0.0145858
747.828	0.0151712
747.906	0.0156395
747.984	0.0162531
748.062	0.0169397
748.140	0.0174190
748.218	0.0178316
748.296	0.0183159
748.374	0.0188609
748.453	0.0189640
748.531	0.0190237
748.609	0.0188827
748.687	0.0189612
748.765	0.0186539
748.843	0.0182701
748.921	0.0177724
748.999	0.0174264
749.078	0.0169212
749.156	0.0161726
749.234	0.0157158
749.312	0.0153516
749.390	0.0147626
749.468	0.0146268
749.546	0.0144748
749.624	0.0143966
749.703	0.0147203
749.781	0.0149899
749.859	0.0153209
749.937	0.0158247
750.015	0.0162341
750.093	0.0167176
750.171	0.0171591
750.249	0.0176454
750.328	0.0179435
750.406	0.0182362
750.484	0.0185214
750.562	0.0186751
750.640	0.0185942
750.718	0.0184534
750.796	0.0184576
750.874	0.0181675
750.953	0.0180182
751.031	0.0176651
751.109	0.0172298
751.187	0.0169315
751.265	0.0166598
751.343	0.0164903
751.421	0.0163268
751.499	0.0161579
751.578	0.0162594
751.656	0.0162882
751.734	0.0162009
751.812	0.0163024
751.890	0.0161648
751.968	0.0162537
752.046	0.0160283
752.124	0.0160257
752.203	0.0160031
752.281	0.0158011
752.359	0.0157163
752.437	0.0159526
752.515	0.0158797
752.593	0.0160714
752.671	0.0161687
752.749	0.0161863
752.828	0.0163361
752.906	0.0162578
752.984	0.0161920
753.062	0.0160835
753.140	0.0158997
753.218	0.0155757
753.296	0.0155690
753.374	0.0152079
753.453	0.0151910
753.531	0.0150650
753.609	0.0148387
753.687	0.0144762
753.765	0.0143782
753.843	0.0142465
753.921	0.0140743
753.999	0.0141356
754.078	0.0141483
754.156	0.0143379
754.234	0.0146205
754.312	0.0150309
754.390	0.0156425
754.468	0.0161094
754.546	0.0168128
754.624	0.0175507
754.703	0.0185774
754.781	0.0193494
754.859	0.0202100
754.937	0.0207932
755.015	0.0215363
755.093	0.0221143
755.171	0.0223648
755.249	0.0227504
755.328	0.0229428
755.406	0.0228063
755.484	0.0224861
755.562	0.0220564
755.640	0.0215460
755.718	0.0207940
755.796	0.0198734
755.874	0.0189782
755.953	0.0177805
756.031	0.0170423
756.109	0.0161774
756.187	0.0151468
756.265	0.0143062
756.343	0.0135812
756.421	0.0129491
756.499	0.0123091
756.578	0.0117207
756.656	0.0110820
756.734	0.0106521
756.812	0.0104333
756.890	0.0100264
756.968	0.00982811
757.046	0.00977684
757.124	0.00971619
757.203	0.00994507
757.281	0.0102103
757.359	0.0107402
757.437	0.0113844
757.515	0.0117831
757.593	0.0124468
757.671	0.0131100
757.749	0.0137647
757.828	0.0146809
757.906	0.0156100
757.984	0.0164590
758.062	0.0177425
758.140	0.0189334
758.218	0.0201683
758.296	0.0212952
758.374	0.0224838
758.453	0.0234754
758.531	0.0244074
758.609	0.0248282
758.687	0.0249898
758.765	0.0250630
758.843	0.0246998
758.921	0.0241989
758.999	0.0232869
759.078	0.0224345
759.156	0.0215744
759.234	0.0208125
759.312	0.0195488
759.390	0.0187456
759.468	0.0180615
759.546	0.0172381
759.624	0.0165117
759.703	0.0160949
759.781	0.0157090
759.859	0.0153256
759.937	0.0150862
760.015	0.0149332
760.093	0.0146582
760.171	0.0146127
760.249	0.0144576
760.328	0.0141618
760.406	0.0140347
760.484	0.0138396
760.562	0.0133383
760.640	0.0129604
760.718	0.0124092
760.796	0.0118338
760.874	0.0113519
760.953	0.0108080
761.031	0.0105063
761.109	0.0103574
761.187	0.0101624
761.265	0.0102509
761.343	0.0104950
761.421	0.0109461
761.499	0.0117912
761.578	0.0125160
761.656	0.0133327
761.734	0.0143219
761.812	0.0151611
761.890	0.0162460
761.968	0.0169530
762.046	0.0177758
762.124	0.0187737
762.203	0.0195695
762.281	0.0202264
762.359	0.0207424
762.437	0.0211259
762.515	0.0216370
762.593	0.0218485
762.671	0.0218877
762.749	0.0218867
762.828	0.0220226
762.906	0.0218279
762.984	0.0216971
763.062	0.0214265
763.140	0.0211661
763.218	0.0209541
763.296	0.0208056
763.374	0.0205030
763.453	0.0201031
763.531	0.0198135
763.609	0.0192897
763.687	0.0187680
763.765	0.0182604
763.843	0.0177312
763.921	0.0173672
763.999	0.0167706
764.078	0.0160842
764.156	0.0159222
764.234	0.0156812
764.312	0.0154301
764.390	0.0150036
764.468	0.0146466
764.546	0.0141435
764.624	0.0138317
764.703	0.0135410
764.781	0.0130039
764.859	0.0126284
764.937	0.0120282
765.015	0.0117963
765.093	0.0114316
765.171	0.0109999
765.249	0.0105513
765.328	0.0103455
765.406	0.0103175
765.484	0.0104370
765.562	0.0105232
765.640	0.0108630
765.718	0.0113581
765.796	0.0118978
765.874	0.0125139
765.953	0.0134801
766.031	0.0142258
766.109	0.0150007
766.187	0.0161364
766.265	0.0170908
766.343	0.0177755
766.421	0.0187546
766.499	0.0196813
766.578	0.0205282
766.656	0.0211142
766.734	0.0215714
766.812	0.0220783
766.890	0.0225327
766.968	0.0229324
767.046	0.0229878
767.124	0.0231414
767.203	0.0230638
767.281	0.0229606
767.359	0.0226292
767.437	0.0223450
767.515	0.0219829
767.593	0.0213456
767.671	0.0208298
767.749	0.0200788
767.828	0.0195007
767.906	0.0187740
767.984	0.0180306
768.062	0.0172177
768.140	0.0167912
768.218	0.0162889
768.296	0.0155197
768.374	0.0151043
768.453	0.0146101
768.531	0.0139767
768.609	0.0133853
768.687	0.0127660
768.765	0.0120596
768.843	0.0115856
768.921	0.0110883
768.999	0.0105211
769.078	0.0102176
769.156	0.00972900
769.234	0.00955063
769.312	0.00955238
769.390	0.00972092
769.468	0.00981598
769.546	0.0101633
769.624	0.0107165
769.703	0.0113490
769.781	0.0122265
769.859	0.0132633
769.937	0.0143756
770.015	0.0155766
770.093	0.0167438
770.171	0.0179366
770.249	0.0192278
770.328	0.0202351
770.406	0.0212154
770.484	0.0220039
770.562	0.0228001
770.640	0.0233512
770.718	0.0237346
770.796	0.0238082
770.874	0.0237798
770.953	0.0234960
771.031	0.0230936
771.109	0.0226965
771.187	0.0219675
771.265	0.0213696
771.343	0.0204866
771.421	0.0194711
771.499	0.0186732
771.578	0.0176865
771.656	0.0168053
771.734	0.0161762
771.812	0.0154714
771.890	0.0149272
771.968	0.0143960
772.046	0.0138936
772.124	0.0136880
772.203	0.0134959
772.281	0.0133640
772.359	0.0130978
772.437	0.0130911
772.515	0.0129723
772.593	0.0129827
772.671	0.0130254
772.749	0.0132000
772.828	0.0131763
772.906	0.0132087
772.984	0.0131494
773.062	0.0131693
773.140	0.0132562
773.218	0.0135125
773.296	0.0133396
773.374	0.0135516
773.453	0.0134671
773.531	0.0139165
773.609	0.0142584
773.687	0.0146667
773.765	0.0151799
773.843	0.0156895
773.921	0.0162733
773.999	0.0170876
774.078	0.0177995
774.156	0.0185538
774.234	0.0192683
774.312	0.0201301
774.390	0.0209253
774.468	0.0216010
774.546	0.0222260
774.624	0.0230693
774.703	0.0235892
774.781	0.0237061
774.859	0.0239380
774.937	0.0236829
775.015	0.0233244
775.093	0.0227969
775.171	0.0221121
775.249	0.0209713
775.328	0.0199853
775.406	0.0187926
775.484	0.0174229
775.562	0.0162098
775.640	0.0148490
775.718	0.0138959
775.796	0.0127782
775.874	0.0117070
775.953	0.0110220
776.031	0.0104525
776.109	0.0101106
776.187	0.0100416
776.265	0.0100419
776.343	0.0101653
776.421	0.0106867
776.499	0.0113063
776.578	0.0119667
776.656	0.0126414
776.734	0.0134594
776.812	0.0138954
776.890	0.0144936
776.968	0.0150646
777.046	0.0155211
777.124	0.0159752
777.203	0.0161494
777.281	0.0163158
777.359	0.0166225
777.437	0.0169283
777.515	0.0168039
777.593	0.0169825
777.671	0.0169398
777.749	0.0170760
777.828	0.0171404
777.906	0.0174936
777.984	0.0176493
778.062	0.0178529
778.140	0.0182880
778.218	0.0187113
778.296	0.0190330
778.374	0.0197435
778.453	0.0199073
778.531	0.0202420
778.609	0.0207799
778.687	0.0210410
778.765	0.0212429
778.843	0.0212475
778.921	0.0212540
778.999	0.0210829
779.078	0.0208492
779.156	0.0204934
779.234	0.0201538
779.312	0.0194694
779.390	0.0188562
779.468	0.0183733
779.546	0.0174545
779.624	0.0167159
779.703	0.0159756
779.781	0.0153422
779.859	0.0146838
779.937	0.0141796
780.015	0.0135511
780.093	0.0131401
780.171	0.0127309
780.249	0.0126089
780.328	0.0124010
780.406	0.0123347
780.484	0.0124112
780.562	0.0124441
780.640	0.0125459
780.718	0.0131075
780.796	0.0134659
780.874	0.0136039
780.953	0.0141769
781.031	0.0146326
781.109	0.0151896
781.187	0.0156319
781.265	0.0161190
781.343	0.0166030
781.421	0.0168837
781.499	0.0171367
781.578	0.0172701
781.656	0.0177597
781.734	0.0177650
781.812	0.0176641
781.890	0.0177026
781.968	0.0177851
782.046	0.0177126
782.124	0.0177091
782.203	0.0175972
782.281	0.0175569
782.359	0.0173582
782.437	0.0175655
782.515	0.0176089
782.593	0.0177526
782.671	0.0178591
782.749	0.0180803
782.828	0.0181718
782.906	0.0184541
782.984	0.0185292
783.062	0.0184347
783.140	0.0183783
783.218	0.0182956
783.296	0.0181705
783.374	0.0179796
783.453	0.0178838
783.531	0.0176516
783.609	0.0173545
783.687	0.0170097
783.765	0.0166624
783.843	0.0162298
783.921	0.0158900
783.999	0.0156302
784.078	0.0153533
784.156	0.0149455
784.234	0.0148726
784.312	0.0146896
784.390	0.0147225
784.468	0.0147681
784.546	0.0146580
784.624	0.0148035
784.703	0.0150900
784.781	0.0152257
784.859	0.0153880
784.937	0.0155069
785.015	0.0159934
785.093	0.0161423
785.171	0.0162372
785.249	0.0166273
785.328	0.0169569
785.406	0.0169907
785.484	0.0171416
785.562	0.0172581
785.640	0.0174123
785.718	0.0173837
785.796	0.0173960
785.874	0.0174088
785.953	0.0174409
786.031	0.0173395
786.109	0.0172880
786.187	0.0173204
786.265	0.0173076
786.343	0.0171642
786.421	0.0170873
786.499	0.0168256
786.578	0.0167696
786.656	0.0166291
786.734	0.0165887
786.812	0.0164597
786.890	0.0164118
786.968	0.0163331
787.046	0.0162359
787.124	0.0160616
787.203	0.0161493
787.281	0.0162118
787.359	0.0160883
787.437	0.0160428
787.515	0.0160299
787.593	0.0160183
787.671	0.0159731
787.749	0.0160724
787.828	0.0160945
787.906	0.0159983
787.984	0.0160923
788.062	0.0161414
788.140	0.0160046
788.218	0.0160870
788.296	0.0160268
788.374	0.0159737
788.453	0.0160563
788.531	0.0159464
788.609	0.0159446
788.687	0.0160386
788.765	0.0159704
788.843	0.0162125
788.921	0.0162370
788.999	0.0164588
789.078	0.0165492
789.156	0.0167115
789.234	0.0169310
789.312	0.0171686
789.390	0.0173281
789.468	0.0173603
789.546	0.0178108
789.624	0.0177074
789.703	0.0178672
789.781	0.0178307
789.859	0.0178078
789.937	0.0178077
790.015	0.0177096
790.093	0.0175042
790.171	0.0174427
790.249	0.0174366
790.328	0.0170832
790.406	0.0168226
790.484	0.0167254
790.562	0.0167038
790.640	0.0164333
790.718	0.0165047
790.796	0.0163922
790.874	0.0160906
790.953	0.0159250
791.031	0.0157881
791.109	0.0158361
791.187	0.0159313
791.265	0.0159198
791.343	0.0158789
791.421	0.0158334
791.499	0.0157771
791.578	0.0156634
791.656	0.0158716
791.734	0.0160009
791.812	0.0160977
791.890	0.0160722
791.968	0.0160534
792.046	0.0162311
792.124	0.0163511
792.203	0.0164165
792.281	0.0162702
792.359	0.0163931
792.437	0.0163290
792.515	0.0164435
792.593	0.0164974
792.671	0.0164215
792.749	0.0163625
792.828	0.0163876
792.906	0.0162564
792.984	0.0163146
793.062	0.0162352
793.140	0.0162332
793.218	0.0160670
793.296	0.0162346
793.374	0.0163870
793.453	0.0165492
793.531	0.0166170
793.609	0.0167023
793.687	0.0169536
793.765	0.0168618
793.843	0.0169669
793.921	0.0171333
793.999	0.0170285
794.078	0.0170213
794.156	0.0170554
794.234	0.0170139
794.312	0.0168096
794.390	0.0170185
794.468	0.0169859
794.546	0.0167649
794.624	0.0167662
794.703	0.0167079
794.781	0.0167805
794.859	0.0165859
794.937	0.0166061
795.015	0.0164960
795.093	0.0165141
795.171	0.0167720
795.249	0.0164849
795.328	0.0164854
795.406	0.0165483
795.484	0.0165026
795.562	0.0164477
795.640	0.0163978
795.718	0.0163692
795.796	0.0162190
795.874	0.0163470
795.953	0.0163072
796.031	0.0163781
796.109	0.0162617
796.187	0.0165315
796.265	0.0164655
796.343	0.0164763
796.421	0.0165662
796.499	0.0167142
796.578	0.0166245
796.656	0.0166381
796.734	0.0168121
796.812	0.0166599
796.890	0.0165367
796.968	0.0165080
797.046	0.0164703
797.124	0.0165360
797.203	0.0164349
797.281	0.0162921
797.359	0.0162556
797.437	0.0162559
797.515	0.0162379
797.593	0.0161304
797.671	0.0162494
797.749	0.0161887
797.828	0.0164066
797.906	0.0163485
797.984	0.0164150
798.062	0.0164251
798.140	0.0164468
798.218	0.0164687
798.296	0.0165560
798.374	0.0166511
798.453	0.0167026
798.531	0.0167430
798.609	0.0167428
798.687	0.0168764
798.765	0.0166868
798.843	0.0167694
798.921	0.0166497
798.999	0.0166978
799.078	0.0166486
799.156	0.0167537
799.234	0.0167764
799.312	0.0167558
799.390	0.0166447
799.468	0.0165636
799.546	0.0166411
799.624	0.0166050
799.703	0.0166119
799.781	0.0166242
799.859	0.0164099
799.937	0.0164203
800.015	0.0163162
800.093	0.0161700
800.171	0.0164306
800.249	0.0162806
800.328	0.0162679
800.406	0.0163477
800.484	0.0161786
800.562	0.0162633
800.640	0.0161591
800.718	0.0162965
800.796	0.0163974
800.874	0.0163351
800.953	0.0164335
801.031	0.0163457
801.109	0.0162778
801.187	0.0164079
801.265	0.0165847
801.343	0.0164831
801.421	0.0164339
801.499	0.0165579
801.578	0.0166206
801.656	0.0165133
801.734	0.0165924
801.812	0.0164360
801.890	0.0164716
801.968	0.0165739
802.046	0.0166344
802.124	0.0164519
802.203	0.0167793
802.281	0.0168182
802.359	0.0168148
802.437	0.0168593
802.515	0.0168796
802.593	0.0167831
802.671	0.0168891
802.749	0.0170291
802.828	0.0169968
802.906	0.0170033
802.984	0.0170185
803.062	0.0171541
803.140	0.0169814
803.218	0.0169558
803.296	0.0169394
803.374	0.0170220
803.453	0.0170042
803.531	0.0169268
803.609	0.0168785
803.687	0.0170488
803.765	0.0169678
803.843	0.0170396
803.921	0.0168332
803.999	0.0168552
804.078	0.0168255
804.156	0.0167487
804.234	0.0167878
804.312	0.0167934
804.390	0.0165095
804.468	0.0165336
804.546	0.0164793
804.624	0.0163629
804.703	0.0161587
804.781	0.0160332
804.859	0.0159342
804.937	0.0158542
805.015	0.0159122
805.093	0.0157018
805.171	0.0158025
805.249	0.0156400
805.328	0.0157017
805.406	0.0157855
805.484	0.0157664
805.562	0.0157904
805.640	0.0159089
805.718	0.0159182
805.796	0.0160783
805.874	0.0162464
805.953	0.0165831
806.031	0.0165150
806.109	0.0166212
806.187	0.0168066
806.265	0.0167554
806.343	0.0167943
806.421	0.0168898
806.499	0.0168377
806.578	0.0169096
806.656	0.0169373
806.734	0.0168396
806.812	0.0167471
806.890	0.0168275
806.968	0.0167664
807.046	0.0166570
807.124	0.0166472
807.203	0.0166735
807.281	0.0165719
807.359	0.0164656
807.437	0.0165150
807.515	0.0165092
807.593	0.0166164
807.671	0.0167252
807.749	0.0167294
807.828	0.0168092
807.906	0.0168839
807.984	0.0170441
808.062	0.0171196
808.140	0.0171754
808.218	0.0171463
808.296	0.0171495
808.374	0.0172505
808.453	0.0171494
808.531	0.0172186
808.609	0.0171631
808.687	0.0169986
808.765	0.0169528
808.843	0.0169347
808.921	0.0166848
808.999	0.0164806
809.078	0.0165598
809.156	0.0163804
809.234	0.0163007
809.312	0.0163127
809.390	0.0161685
809.468	0.0162309
809.546	0.0162339
809.624	0.0160345
809.703	0.0161153
809.781	0.0161160
809.859	0.0160847
809.937	0.0162482
810.015	0.0162134
810.093	0.0162035
810.171	0.0160136
810.249	0.0162244
810.328	0.0162808
810.406	0.0162247
810.484	0.0161978
810.562	0.0161771
810.640	0.0162761
810.718	0.0163955
810.796	0.0162326
810.874	0.0162843
810.953	0.0165019
811.031	0.0163675
811.109	0.0164750
811.187	0.0164767
811.265	0.0164835
811.343	0.0163959
811.421	0.0164507
811.499	0.0165813
811.578	0.0167349
811.656	0.0167155
811.734	0.0167116
811.812	0.0167620
811.890	0.0168519
811.968	0.0169769
812.046	0.0168294
812.124	0.0169381
812.203	0.0169048
812.281	0.0168931
812.359	0.0168282
812.437	0.0168738
812.515	0.0166874
812.593	0.0166097
812.671	0.0165733
812.749	0.0164141
812.828	0.0164954
812.906	0.0165037
812.984	0.0164584
813.062	0.0163194
813.140	0.0162559
813.218	0.0160136
813.296	0.0162145
813.374	0.0161767
813.453	0.0162422
813.531	0.0162965
813.609	0.0162372
813.687	0.0160089
813.765	0.0162183
813.843	0.0161878
813.921	0.0162365
813.999	0.0163460
814.078	0.0162722
814.156	0.0165942
814.234	0.0165836
814.312	0.0164732
814.390	0.0166299
814.468	0.0166515
814.546	0.0166881
814.624	0.0169399
814.703	0.0170004
814.781	0.0171124
814.859	0.0171947
814.937	0.0171599
815.015	0.0170403
815.093	0.0171671
815.171	0.0172897
815.249	0.0172630
815.328	0.0171902
815.406	0.0171251
815.484	0.0171294
815.562	0.0171434
815.640	0.0169933
815.718	0.0168603
815.796	0.0167831
815.874	0.0167722
815.953	0.0166589
816.031	0.0166281
816.109	0.0163451
816.187	0.0163848
816.265	0.0162652
816.343	0.0162302
816.421	0.0159609
816.499	0.0163207
816.578	0.0161766
816.656	0.0159661
816.734	0.0161044
816.812	0.0160413
816.890	0.0160361
816.968	0.0159747
817.046	0.0160234
817.124	0.0161314
817.203	0.0160632
817.281	0.0161156
817.359	0.0160162
817.437	0.0162292
817.515	0.0164091
817.593	0.0163885
817.671	0.0162756
817.749	0.0162261
817.828	0.0161942
817.906	0.0163016
817.984	0.0163103
818.062	0.0162476
818.140	0.0163784
818.218	0.0166348
818.296	0.0164701
818.374	0.0163820
818.453	0.0164674
818.531	0.0164485
818.609	0.0166210
818.687	0.0166187
818.765	0.0167145
818.843	0.0167455
818.921	0.0168414
818.999	0.0168218
819.078	0.0169188
819.156	0.0169132
819.234	0.0170147
819.312	0.0169842
819.390	0.0169372
819.468	0.0170795
819.546	0.0167741
819.624	0.0168565
819.703	0.0168701
819.781	0.0166866
819.859	0.0167191
819.937	0.0166636
820.015	0.0166068
820.093	0.0167255
820.171	0.0167135
820.249	0.0164565
820.328	0.0165132
820.406	0.0166335
820.484	0.0165612
820.562	0.0166203
820.640	0.0165977
820.718	0.0166499
820.796	0.0166037
820.874	0.0165350
820.953	0.0166514
821.031	0.0165929
821.109	0.0164997
821.187	0.0164454
821.265	0.0163499
821.343	0.0164508
821.421	0.0163896
821.499	0.0163203
821.578	0.0163570
821.656	0.0163277
821.734	0.0162772
821.812	0.0162598
821.890	0.0163580
821.968	0.0163209
822.046	0.0163503
822.124	0.0162801
822.203	0.0163079
822.281	0.0162766
822.359	0.0162437
822.437	0.0164839
822.515	0.0166685
822.593	0.0163570
822.671	0.0164381
822.749	0.0165089
822.828	0.0166092
822.906	0.0166769
822.984	0.0166938
823.062	0.0167229
823.140	0.0167612
823.218	0.0167707
823.296	0.0166058
823.374	0.0165838
823.453	0.0167575
823.531	0.0168294
823.609	0.0168422
823.687	0.0167777
823.765	0.0167703
823.843	0.0167619
823.921	0.0167078
823.999	0.0166682
824.078	0.0167303
824.156	0.0166021
824.234	0.0167336
824.312	0.0165198
824.390	0.0164748
824.468	0.0163629
824.546	0.0163204
824.624	0.0162451
824.703	0.0163210
824.781	0.0163225
824.859	0.0163078
824.937	0.0163164
825.015	0.0161058
825.093	0.0161600
825.171	0.0162284
825.249	0.0161228
825.328	0.0161437
825.406	0.0162048
825.484	0.0163683
825.562	0.0164764
825.640	0.0163480
825.718	0.0162988
825.796	0.0165965
825.874	0.0166619
825.953	0.0167194
826.031	0.0166872
826.109	0.0168040
826.187	0.0168870
826.265	0.0169112
826.343	0.0169049
826.421	0.0170644
826.499	0.0169688
826.578	0.0170261
826.656	0.0170251
826.734	0.0171533
826.812	0.0169559
826.890	0.0170782
826.968	0.0169666
827.046	0.0169945
827.124	0.0168593
827.203	0.0169139
827.281	0.0169421
827.359	0.0167811
827.437	0.0168121
827.515	0.0168113
827.593	0.0167285
827.671	0.0166740
827.749	0.0166279
827.828	0.0165636
827.906	0.0165909
827.984	0.0165398
828.062	0.0163443
828.140	0.0165482
828.218	0.0163577
828.296	0.0163795
828.374	0.0162514
828.453	0.0162267
828.531	0.0162100
828.609	0.0163050
828.687	0.0163287
828.765	0.0162473
828.843	0.0162903
828.921	0.0162353
828.999	0.0162527
829.078	0.0164053
829.156	0.0163556
829.234	0.0162611
829.312	0.0163474
829.390	0.0163012
829.468	0.0164415
829.546	0.0166599
829.624	0.0165636
829.703	0.0166393
829.781	0.0165041
829.859	0.0166426
829.937	0.0167446
830.015	0.0166792
830.093	0.0167513
830.171	0.0168047
830.249	0.0165936
830.328	0.0165712
830.406	0.0166310
830.484	0.0166049
830.562	0.0165484
830.640	0.0167335
830.718	0.0164893
830.796	0.0165792
830.874	0.0166328
830.953	0.0164744
831.031	0.0165527
831.109	0.0164968
831.187	0.0166173
831.265	0.0165231
831.343	0.0164396
831.421	0.0164901
831.499	0.0167641
831.578	0.0166633
831.656	0.0167610
831.734	0.0167271
831.812	0.0165742
831.890	0.0166070
831.968	0.0166769
832.046	0.0166505
832.124	0.0167088
832.203	0.0165990
832.281	0.0168147
832.359	0.0166821
832.437	0.0166854
832.515	0.0167168
832.593	0.0166129
832.671	0.0167410
832.749	0.0165648
832.828	0.0166299
832.906	0.0165171
832.984	0.0165380
833.062	0.0164352
833.140	0.0164198
833.218	0.0166151
833.296	0.0164901
833.374	0.0166744
833.453	0.0165524
833.531	0.0166009
833.609	0.0164182
833.687	0.0167141
833.765	0.0166824
833.843	0.0164649
833.921	0.0166772
833.999	0.0166792
834.078	0.0166732
834.156	0.0166753
834.234	0.0165181
834.312	0.0167348
834.390	0.0166791
834.468	0.0166642
834.546	0.0166507
834.624	0.0166238
834.703	0.0165363
834.781	0.0166273
834.859	0.0166012
834.937	0.0165307
835.015	0.0164923
835.093	0.0165105
835.171	0.0165345
835.249	0.0165618
835.328	0.0164919
835.406	0.0165253
835.484	0.0165193
835.562	0.0165229
835.640	0.0164861
835.718	0.0163785
835.796	0.0164426
835.874	0.0164023
835.953	0.0164995
836.031	0.0164811
836.109	0.0165563
836.187	0.0166093
836.265	0.0165273
836.343	0.0166100
836.421	0.0165091
836.499	0.0165230
836.578	0.0166079
836.656	0.0166734
836.734	0.0166566
836.812	0.0165977
836.890	0.0165871
836.968	0.0167850
837.046	0.0165260
837.124	0.0165436
837.203	0.0167441
837.281	0.0164873
837.359	0.0167289
837.437	0.0165763
837.515	0.0165518
837.593	0.0166510
837.671	0.0167517
837.749	0.0167436
837.828	0.0167051
837.906	0.0167064
837.984	0.0165800
838.062	0.0167532
838.140	0.0167273
838.218	0.0166946
838.296	0.0165063
838.374	0.0166290
838.453	0.0167599
838.531	0.0166403
838.609	0.0165903
838.687	0.0166571
838.765	0.0165704
838.843	0.0164812
838.921	0.0165459
838.999	0.0164980
839.078	0.0163752
839.156	0.0163382
839.234	0.0162705
839.312	0.0163764
839.390	0.0165267
839.468	0.0162974
839.546	0.0164886
839.624	0.0164558
839.703	0.0163621
839.781	0.0165388
839.859	0.0165883
839.937	0.0165351
840.015	0.0167101
840.093	0.0166431
840.171	0.0167655
840.249	0.0165745
840.328	0.0165804
840.406	0.0166136
840.484	0.0165952
840.562	0.0166391
840.640	0.0164751
840.718	0.0165433
840.796	0.0166061
840.874	0.0163561
840.953	0.0163412
841.031	0.0164105
841.109	0.0164473
841.187	0.0165324
841.265	0.0165011
841.343	0.0164017
841.421	0.0163702
841.499	0.0164661
841.578	0.0166237
841.656	0.0166527
841.734	0.0166129
841.812	0.0165579
841.890	0.0168513
841.968	0.0167525
842.046	0.0167919
842.124	0.0167803
842.203	0.0166599
842.281	0.0168180
842.359	0.0167690
842.437	0.0167335
842.515	0.0166348
842.593	0.0165649
842.671	0.0165810
842.749	0.0166692
842.828	0.0164977
842.906	0.0163775
842.984	0.0164300
843.062	0.0164780
843.140	0.0164087
843.218	0.0163344
843.296	0.0164184
843.374	0.0163647
843.453	0.0163882
843.531	0.0164071
843.609	0.0164415
843.687	0.0164957
843.765	0.0165694
843.843	0.0166175
843.921	0.0165546
843.999	0.0165865
844.078	0.0166372
844.156	0.0166965
844.234	0.0166026
844.312	0.0167089
844.390	0.0165753
844.468	0.0166072
844.546	0.0164867
844.624	0.0165082
844.703	0.0164936
844.781	0.0163563
844.859	0.0164133
844.937	0.0164162
845.015	0.0162688
845.093	0.0161983
845.171	0.0162449
845.249	0.0162544
845.328	0.0163644
845.406	0.0163698
845.484	0.0162686
845.562	0.0163718
845.640	0.0164897
845.718	0.0164793
845.796	0.0166522
845.874	0.0166267
845.953	0.0167632
846.031	0.0168378
846.109	0.0167943
846.187	0.0168335
846.265	0.0168346
846.343	0.0166945
846.421	0.0168719
846.499	0.0167496
846.578	0.0167609
846.656	0.0166140
846.734	0.0165884
846.812	0.0165123
846.890	0.0165294
846.968	0.0165147
847.046	0.0164568
847.124	0.0164549
847.203	0.0164214
847.281	0.0165014
847.359	0.0164694
847.437	0.0165611
847.515	0.0165927
847.593	0.0166857
847.671	0.0164841
847.749	0.0166096
847.828	0.0167346
847.906	0.0167364
847.984	0.0166379
848.062	0.0167440
848.140	0.0167293
848.218	0.0165237
848.296	0.0167226
848.374	0.0166721
848.453	0.0166362
848.531	0.0167022
848.609	0.0166665
848.687	0.0166759
848.765	0.0165446
848.843	0.0166923
848.921	0.0166153
848.999	0.0165321
849.078	0.0165443
849.156	0.0166039
849.234	0.0165085
849.312	0.0164796
849.390	0.0164355
849.468	0.0164706
849.546	0.0164833
849.624	0.0165038
849.703	0.0163430
849.781	0.0162408
849.859	0.0162991
849.937	0.0164053
850.015	0.0163422
850.093	0.0163680
850.171	0.0161382
850.249	0.0161844
850.328	0.0163026
850.406	0.0160873
850.484	0.0161504
850.562	0.0162271
850.640	0.0160714
850.718	0.0160809
850.796	0.0162325
850.874	0.0162093
850.953	0.0162807
851.031	0.0161598
851.109	0.0164497
851.187	0.0166549
851.265	0.0166950
851.343	0.0166243
851.421	0.0167793
851.499	0.0168057
851.578	0.0169222
851.656	0.0170892
851.734	0.0170147
851.812	0.0170474
851.890	0.0171622
851.968	0.0171233
852.046	0.0171312
852.124	0.0172092
852.203	0.0173093
852.281	0.0172357
852.359	0.0171122
852.437	0.0171130
852.515	0.0171191
852.593	0.0171378
852.671	0.0170339
852.749	0.0168570
852.828	0.0168121
852.906	0.0168080
852.984	0.0166833
853.062	0.0165573
853.140	0.0164957
853.218	0.0162881
853.296	0.0161660
853.374	0.0162062
853.453	0.0161610
853.531	0.0160649
853.609	0.0161561
853.687	0.0160393
853.765	0.0159177
853.843	0.0158435
853.921	0.0159766
853.999	0.0159091
854.078	0.0159236
854.156	0.0158125
854.234	0.0157008
854.312	0.0159245
854.390	0.0160574
854.468	0.0160435
854.546	0.0162618
854.624	0.0162543
854.703	0.0163895
854.781	0.0165836
854.859	0.0166647
854.937	0.0169315
855.015	0.0170101
855.093	0.0168251
855.171	0.0169332
855.249	0.0170217
855.328	0.0171770
855.406	0.0171130
855.484	0.0172327
855.562	0.0172086
855.640	0.0173238
855.718	0.0172637
855.796	0.0173233
855.874	0.0172077
855.953	0.0173730
856.031	0.0172572
856.109	0.0170960
856.187	0.0172423
856.265	0.0170660
856.343	0.0169577
856.421	0.0169353
856.499	0.0168328
856.578	0.0165421
856.656	0.0165247
856.734	0.0165316
856.812	0.0163792
856.890	0.0162600
856.968	0.0160827
857.046	0.0160705
857.124	0.0160139
857.203	0.0158141
857.281	0.0159146
857.359	0.0159142
857.437	0.0157581
857.515	0.0158060
857.593	0.0156689
857.671	0.0156748
857.749	0.0157372
857.828	0.0158293
857.906	0.0157755
857.984	0.0158922
858.062	0.0160918
858.140	0.0159311
858.218	0.0163018
858.296	0.0164342
858.374	0.0165085
858.453	0.0163803
858.531	0.0166357
858.609	0.0166923
858.687	0.0166982
858.765	0.0168781
858.843	0.0170043
858.921	0.0169794
858.999	0.0169967
859.078	0.0172390
859.156	0.0172411
859.234	0.0171116
859.312	0.0173359
859.390	0.0174307
859.468	0.0173783
859.546	0.0175123
859.624	0.0174326
859.703	0.0174882
859.781	0.0174610
859.859	0.0175168
859.937	0.0175208
860.015	0.0175298
860.093	0.0173393
860.171	0.0171154
860.249	0.0170284
860.328	0.0170279
860.406	0.0169405
860.484	0.0168049
860.562	0.0167905
860.640	0.0167487
860.718	0.0165314
860.796	0.0166422
860.874	0.0164071
860.953	0.0162415
861.031	0.0161850
861.109	0.0160710
861.187	0.0158796
861.265	0.0158382
861.343	0.0158089
861.421	0.0157433
861.499	0.0156504
861.578	0.0155428
861.656	0.0155713
861.734	0.0155976
861.812	0.0155448
861.890	0.0157140
861.968	0.0156653
862.046	0.0155899
862.124	0.0158292
862.203	0.0158873
862.281	0.0158404
862.359	0.0160253
862.437	0.0161470
862.515	0.0162740
862.593	0.0164037
862.671	0.0165166
862.749	0.0167527
862.828	0.0167048
862.906	0.0167313
862.984	0.0168935
863.062	0.0169817
863.140	0.0171959
863.218	0.0171437
863.296	0.0174675
863.374	0.0173522
863.453	0.0173215
863.531	0.0173757
863.609	0.0173046
863.687	0.0174979
863.765	0.0173154
863.843	0.0172405
863.921	0.0174745
863.999	0.0173762
864.078	0.0171900
864.156	0.0171625
864.234	0.0170541
864.312	0.0169881
864.390	0.0168304
864.468	0.0167590
864.546	0.0166933
864.624	0.0166219
864.703	0.0163687
864.781	0.0163809
864.859	0.0163527
864.937	0.0161731
865.015	0.0161487
865.093	0.0160929
865.171	0.0160101
865.249	0.0159991
865.328	0.0160406
865.406	0.0160338
865.484	0.0159735
865.562	0.0159329
865.640	0.0160920
865.718	0.0160648
865.796	0.0159578
865.874	0.0160741
865.953	0.0161150
866.031	0.0160007
866.109	0.0158508
866.187	0.0161744
866.265	0.0160393
866.343	0.0160120
866.421	0.0162194
866.499	0.0161801
866.578	0.0161871
866.656	0.0163644
866.734	0.0164024
866.812	0.0166241
866.890	0.0166786
866.968	0.0168493
867.046	0.0167507
867.124	0.0169515
867.203	0.0170266
867.281	0.0170892
867.359	0.0172249
867.437	0.0173148
867.515	0.0172366
867.593	0.0173311
867.671	0.0174269
867.749	0.0173502
867.828	0.0172728
867.906	0.0173089
867.984	0.0171989
868.062	0.0170927
868.140	0.0170789
868.218	0.0170068
868.296	0.0168275
868.374	0.0167797
868.453	0.0168274
868.531	0.0165163
868.609	0.0163718
868.687	0.0163398
868.765	0.0162219
868.843	0.0163068
868.921	0.0163158
868.999	0.0162678
869.078	0.0161859
869.156	0.0161656
869.234	0.0161117
869.312	0.0161481
869.390	0.0162867
869.468	0.0162642
869.546	0.0161608
869.624	0.0162539
869.703	0.0163216
869.781	0.0163192
869.859	0.0161620
869.937	0.0161795
870.015	0.0161990
870.093	0.0162727
870.171	0.0161368
870.249	0.0162241
870.328	0.0162630
870.406	0.0161231
870.484	0.0163619
870.562	0.0162830
870.640	0.0163202
870.718	0.0165650
870.796	0.0165995
870.874	0.0166617
870.953	0.0166828
871.031	0.0166852
871.109	0.0168698
871.187	0.0168594
871.265	0.0170107
871.343	0.0170721
871.421	0.0169530
871.499	0.0170440
871.578	0.0172668
871.656	0.0171803
871.734	0.0171484
871.812	0.0170141
871.890	0.0170658
871.968	0.0171412
872.046	0.0169643
872.124	0.0170765
872.203	0.0169846
872.281	0.0167937
872.359	0.0166792
872.437	0.0167416
872.515	0.0165636
872.593	0.0164414
872.671	0.0163476
872.749	0.0163523
872.828	0.0163445
872.906	0.0161173
872.984	0.0161251
873.062	0.0160838
873.140	0.0160506
873.218	0.0160527
873.296	0.0159218
873.374	0.0159940
873.453	0.0158850
873.531	0.0161420
873.609	0.0160630
873.687	0.0160441
873.765	0.0161466
873.843	0.0162890
873.921	0.0163089
873.999	0.0163702
874.078	0.0166103
874.156	0.0164695
874.234	0.0166857
874.312	0.0168027
874.390	0.0166941
874.468	0.0167088
874.546	0.0169767
874.624	0.0169623
874.703	0.0169918
874.781	0.0171033
874.859	0.0169981
874.937	0.0171213
875.015	0.0171271
875.093	0.0171365
875.171	0.0171696
875.249	0.0170961
875.328	0.0170117
875.406	0.0170947
875.484	0.0169917
875.562	0.0169109
875.640	0.0170311
875.718	0.0169231
875.796	0.0168748
875.874	0.0169073
875.953	0.0166691
876.031	0.0166290
876.109	0.0166036
876.187	0.0166963
876.265	0.0165240
876.343	0.0165023
876.421	0.0163988
876.499	0.0163650
876.578	0.0164896
876.656	0.0165431
876.734	0.0165367
876.812	0.0163857
876.890	0.0163612
876.968	0.0163208
877.046	0.0163293
877.124	0.0164796
877.203	0.0164320
877.281	0.0162729
877.359	0.0163168
877.437	0.0163940
877.515	0.0163056
877.593	0.0164289
877.671	0.0163052
877.749	0.0163120
877.828	0.0163102
877.906	0.0162986
877.984	0.0162060
878.062	0.0163451
878.140	0.0162972
878.218	0.0163309
878.296	0.0164638
878.374	0.0165116
878.453	0.0163467
878.531	0.0165023
878.609	0.0165652
878.687	0.0166313
878.765	0.0166233
878.843	0.0167548
878.921	0.0167838
878.999	0.0168040
879.078	0.0169125
879.156	0.0168433
879.234	0.0168192
879.312	0.0169508
879.390	0.0169646
879.468	0.0169613
879.546	0.0169004
879.624	0.0169040
879.703	0.0169785
879.781	0.0169395
879.859	0.0168003
879.937	0.0166557
880.015	0.0167917
880.093	0.0167860
880.171	0.0166242
880.249	0.0166042
880.328	0.0167364
880.406	0.0167105
880.484	0.0165128
880.562	0.0163925
880.640	0.0165435
880.718	0.0164672
880.796	0.0164397
880.874	0.0166172
880.953	0.0165797
881.031	0.0164610
881.109	0.0165090
881.187	0.0165931
881.265	0.0165826
881.343	0.0165260
881.421	0.0164626
881.499	0.0165025
881.578	0.0165881
881.656	0.0164548
881.734	0.0164983
881.812	0.0164894
881.890	0.0163184
881.968	0.0164184
882.046	0.0163720
882.124	0.0161949
882.203	0.0161990
882.281	0.0163169
882.359	0.0163585
882.437	0.0163478
882.515	0.0162656
882.593	0.0162444
882.671	0.0163225
882.749	0.0163805
882.828	0.0163680
882.906	0.0163790
882.984	0.0164430
883.062	0.0165620
883.140	0.0166224
883.218	0.0165974
883.296	0.0165430
883.374	0.0165742
883.453	0.0165125
883.531	0.0167277
883.609	0.0167378
883.687	0.0167126
883.765	0.0166618
883.843	0.0167280
883.921	0.0165604
883.999	0.0165038
884.078	0.0164974
884.156	0.0165742
884.234	0.0165712
884.312	0.0164365
884.390	0.0165445
884.468	0.0165992
884.546	0.0165413
884.624	0.0164828
884.703	0.0164774
884.781	0.0165611
884.859	0.0166193
884.937	0.0165225
885.015	0.0165863
885.093	0.0166700
885.171	0.0165747
885.249	0.0166482
885.328	0.0168312
885.406	0.0169333
885.484	0.0168237
885.562	0.0168423
885.640	0.0168347
885.718	0.0168155
885.796	0.0167657
885.874	0.0167553
885.953	0.0167079
886.031	0.0167830
886.109	0.0168039
886.187	0.0166121
886.265	0.0166484
886.343	0.0167068
886.421	0.0166979
886.499	0.0167226
886.578	0.0166160
886.656	0.0166463
886.734	0.0165369
886.812	0.0166172
886.890	0.0164426
886.968	0.0165263
887.046	0.0164429
887.124	0.0165219
887.203	0.0165733
887.281	0.0165853
887.359	0.0164599
887.437	0.0165086
887.515	0.0166593
887.593	0.0166662
887.671	0.0165552
887.749	0.0168261
887.828	0.0167162
887.906	0.0166799
887.984	0.0164732
888.062	0.0163725
888.140	0.0166228
888.218	0.0166049
888.296	0.0163687
888.374	0.0165419
888.453	0.0164538
888.531	0.0164059
888.609	0.0162599
888.687	0.0162507
888.765	0.0162861
888.843	0.0164053
888.921	0.0162924
888.999	0.0162320
889.078	0.0164321
889.156	0.0164002
889.234	0.0163596
889.312	0.0163174
889.390	0.0164201
889.468	0.0163936
889.546	0.0164953
889.624	0.0164867
889.703	0.0164248
889.781	0.0165131
889.859	0.0165057
889.937	0.0165982
890.015	0.0165604
890.093	0.0165305
890.171	0.0166168
890.249	0.0165620
890.328	0.0165958
890.406	0.0165790
890.484	0.0164266
890.562	0.0165633
890.640	0.0165712
890.718	0.0166228
890.796	0.0165766
890.874	0.0165799
890.953	0.0167168
891.031	0.0165652
891.109	0.0166214
891.187	0.0166506
891.265	0.0165985
891.343	0.0166810
891.421	0.0168822
891.499	0.0168302
891.578	0.0167073
891.656	0.0168172
891.734	0.0166975
891.812	0.0167589
891.890	0.0168102
891.968	0.0167263
892.046	0.0168822
892.124	0.0167558
892.203	0.0165668
892.281	0.0167496
892.359	0.0167429
892.437	0.0167420
892.515	0.0165461
892.593	0.0165330
892.671	0.0166245
892.749	0.0165575
892.828	0.0163672
892.906	0.0163406
892.984	0.0164425
893.062	0.0163972
893.140	0.0163570
893.218	0.0165246
893.296	0.0163425
893.374	0.0162220
893.453	0.0163961
893.531	0.0163534
893.609	0.0163308
893.687	0.0163356
893.765	0.0164234
893.843	0.0163541
893.921	0.0163286
893.999	0.0163322
894.078	0.0163364
894.156	0.0162758
894.234	0.0163222
894.312	0.0163135
894.390	0.0164120
894.468	0.0162981
894.546	0.0163741
894.624	0.0165822
894.703	0.0163712
894.781	0.0163567
894.859	0.0163799
894.937	0.0163074
895.015	0.0163846
895.093	0.0163971
895.171	0.0165462
895.249	0.0165968
895.328	0.0165596
895.406	0.0165565
895.484	0.0165775
895.562	0.0167542
895.640	0.0167256
895.718	0.0168336
895.796	0.0169120
895.874	0.0167834
895.953	0.0169102
896.031	0.0170097
896.109	0.0169301
896.187	0.0169014
896.265	0.0168988
896.343	0.0170145
896.421	0.0168845
896.499	0.0167502
896.578	0.0169027
896.656	0.0168287
896.734	0.0166459
896.812	0.0167627
896.890	0.0167392
896.968	0.0167037
897.046	0.0166969
897.124	0.0166263
897.203	0.0166124
897.281	0.0164346
897.359	0.0164591
897.437	0.0165571
897.515	0.0165530
897.593	0.0164378
897.671	0.0163238
897.749	0.0163889
897.828	0.0162691
897.906	0.0163340
897.984	0.0161421
898.062	0.0164080
898.140	0.0162836
898.218	0.0161734
898.296	0.0161892
898.374	0.0162006
898.453	0.0163895
898.531	0.0163557
898.609	0.0162653
898.687	0.0164211
898.765	0.0163181
898.843	0.0165009
898.921	0.0165253
898.999	0.0164178
899.078	0.0165466
899.156	0.0165635
899.234	0.0165840
899.312	0.0166005
899.390	0.0168125
899.468	0.0169150
899.546	0.0166800
899.624	0.0166203
899.703	0.0167712
899.781	0.0168163
899.859	0.0168967
899.937	0.0168482
900.015	0.0168558
900.093	0.0168268
900.171	0.0168797
900.249	0.0169365
900.328	0.0168507
900.406	0.0168150
900.484	0.0167311
900.562	0.0169801
900.640	0.0170183
900.718	0.0167489
900.796	0.0169105
900.874	0.0167171
900.953	0.0166721
901.031	0.0167952
901.109	0.0167413
901.187	0.0165268
901.265	0.0165733
901.343	0.0166106
901.421	0.0162533
901.499	0.0163409
901.578	0.0164264
901.656	0.0163125
901.734	0.0161650
901.812	0.0161479
901.890	0.0162013
901.968	0.0162230
902.046	0.0160928
902.124	0.0161841
902.203	0.0161938
902.281	0.0162816
902.359	0.0162585
902.437	0.0162228
902.515	0.0162087
902.593	0.0161008
902.671	0.0163187
902.749	0.0163641
902.828	0.0163510
902.906	0.0162843
902.984	0.0163308
903.062	0.0164926
903.140	0.0165214
903.218	0.0164600
903.296	0.0165636
903.374	0.0167603
903.453	0.0166924
903.531	0.0167050
903.609	0.0166464
903.687	0.0166913
903.765	0.0166934
903.843	0.0167191
903.921	0.0168531
903.999	0.0168934
904.078	0.0168465
904.156	0.0169457
904.234	0.0170160
904.312	0.0169527
904.390	0.0170077
904.468	0.0168196
904.546	0.0169544
904.624	0.0169560
904.703	0.0168616
904.781	0.0167632
904.859	0.0169045
904.937	0.0167719
905.015	0.0168467
905.093	0.0167385
905.171	0.0166908
905.249	0.0166467
905.328	0.0166965
905.406	0.0165974
905.484	0.0164771
905.562	0.0165995
905.640	0.0164701
905.718	0.0164577
905.796	0.0166302
905.874	0.0163065
905.953	0.0163219
906.031	0.0163072
906.109	0.0165553
906.187	0.0163793
906.265	0.0162595
906.343	0.0163622
906.421	0.0161730
906.499	0.0162756
906.578	0.0161883
906.656	0.0162372
906.734	0.0163062
906.812	0.0163962
906.890	0.0163835
906.968	0.0164835
907.046	0.0164798
907.124	0.0164869
907.203	0.0166467
907.281	0.0165664
907.359	0.0165427
907.437	0.0164268
907.515	0.0165846
907.593	0.0166142
907.671	0.0165812
907.749	0.0166245
907.828	0.0167714
907.906	0.0166584
907.984	0.0166109
908.062	0.0166551
908.140	0.0166814
908.218	0.0165910
908.296	0.0165176
908.374	0.0166267
908.453	0.0167081
908.531	0.0166137
908.609	0.0165290
908.687	0.0166607
908.765	0.0164841
908.843	0.0165972
908.921	0.0166528
908.999	0.0165793
909.078	0.0165159
909.156	0.0165876
909.234	0.0164471
909.312	0.0164029
909.390	0.0164533
909.468	0.0164476
909.546	0.0165044
909.624	0.0165826
909.703	0.0163716
909.781	0.0163882
909.859	0.0164700
909.937	0.0164967
910.015	0.0164729
910.093	0.0163936
910.171	0.0165414
910.249	0.0164494
910.328	0.0165320
910.406	0.0165579
910.484	0.0165664
910.562	0.0164327
910.640	0.0164923
910.718	0.0166647
910.796	0.0166051
910.874	0.0165662
910.953	0.0166640
911.031	0.0165623
911.109	0.0166573
911.187	0.0168841
911.265	0.0169324
911.343	0.0168803
911.421	0.0168644
911.499	0.0168890
911.578	0.0168569
911.656	0.0168166
911.734	0.0169336
911.812	0.0169609
911.890	0.0169029
911.968	0.0169106
912.046	0.0168670
912.124	0.0167679
912.203	0.0166181
912.281	0.0166458
912.359	0.0166093
912.437	0.0165354
912.515	0.0164965
912.593	0.0163355
912.671	0.0163802
912.749	0.0164072
912.828	0.0164303
912.906	0.0163456
912.984	0.0162939
913.062	0.0164364
913.140	0.0164214
913.218	0.0164511
913.296	0.0164478
913.374	0.0164230
913.453	0.0163713
913.531	0.0163451
913.609	0.0163966
913.687	0.0165659
913.765	0.0163945
913.843	0.0164742
913.921	0.0165207
913.999	0.0163650
914.078	0.0164625
914.156	0.0164941
914.234	0.0164177
914.312	0.0163807
914.390	0.0164012
914.468	0.0163223
914.546	0.0164169
914.624	0.0163951
914.703	0.0164668
914.781	0.0164178
914.859	0.0164249
914.937	0.0164207
915.015	0.0164548
915.093	0.0166029
915.171	0.0165383
915.249	0.0164368
915.328	0.0165858
915.406	0.0166481
915.484	0.0166675
915.562	0.0167056
915.640	0.0167126
915.718	0.0167809
915.796	0.0166958
915.874	0.0168033
915.953	0.0168255
916.031	0.0168250
916.109	0.0167626
916.187	0.0166619
916.265	0.0165929
916.343	0.0167005
916.421	0.0166264
916.499	0.0165807
916.578	0.0165277
916.656	0.0165581
916.734	0.0166058
916.812	0.0165518
916.890	0.0166390
916.968	0.0165485
917.046	0.0165563
917.124	0.0165660
917.203	0.0165949
917.281	0.0165175
917.359	0.0166197
917.437	0.0165166
917.515	0.0164758
917.593	0.0166676
917.671	0.0165891
917.749	0.0164950
917.828	0.0163841
917.906	0.0164481
917.984	0.0165124
918.062	0.0165800
918.140	0.0164541
918.218	0.0164758
918.296	0.0164872
918.374	0.0165646
918.453	0.0166068
918.531	0.0164904
918.609	0.0165883
918.687	0.0166013
918.765	0.0165710
918.843	0.0165701
918.921	0.0165620
918.999	0.0166305
919.078	0.0165403
919.156	0.0166481
919.234	0.0165401
919.312	0.0164871
919.390	0.0165356
919.468	0.0164732
919.546	0.0164557
919.624	0.0164658
919.703	0.0165475
919.781	0.0165305
919.859	0.0164396
919.937	0.0164465
