06/10/2022	18:35:39	Ver.	4.1	UNKNOWN
Optical Delay	600.015094	Delta X		0.078125	Sweeps	1	Scan Rate	0/0
Coordinates	Axis 1	NaN	Axis 2	NaN	Axis 3	NaN	Axis 4	NaN	Axis 5	NaN	Axis 6	0.000000
TX Power	0.000000	RX Power	0.000000

600.015	0.0162498
600.093	0.0163568
600.171	0.0161296
600.249	0.0160815
600.328	0.0161472
600.406	0.0161005
600.484	0.0162189
600.562	0.0162461
600.640	0.0162654
600.718	0.0162866
600.796	0.0162442
600.874	0.0162698
600.953	0.0161361
601.031	0.0161832
601.109	0.0162921
601.187	0.0161938
601.265	0.0162096
601.343	0.0161270
601.421	0.0161787
601.499	0.0163004
601.578	0.0162836
601.656	0.0163148
601.734	0.0161961
601.812	0.0162068
601.890	0.0162035
601.968	0.0162294
602.046	0.0161566
602.124	0.0162490
602.203	0.0161325
602.281	0.0162902
602.359	0.0161974
602.437	0.0163522
602.515	0.0163048
602.593	0.0163049
602.671	0.0162074
602.749	0.0162431
602.828	0.0162685
602.906	0.0162500
602.984	0.0162216
603.062	0.0162430
603.140	0.0163550
603.218	0.0162470
603.296	0.0163601
603.374	0.0162501
603.453	0.0163053
603.531	0.0162788
603.609	0.0162990
603.687	0.0160572
603.765	0.0161456
603.843	0.0162613
603.921	0.0164027
603.999	0.0161999
604.078	0.0163364
604.156	0.0163746
604.234	0.0163026
604.312	0.0162675
604.390	0.0162691
604.468	0.0163423
604.546	0.0163615
604.624	0.0162695
604.703	0.0163541
604.781	0.0163346
604.859	0.0163184
604.937	0.0162821
605.015	0.0162733
605.093	0.0162129
605.171	0.0160167
605.249	0.0162248
605.328	0.0163287
605.406	0.0163009
605.484	0.0162674
605.562	0.0162333
605.640	0.0162444
605.718	0.0162458
605.796	0.0161196
605.874	0.0162529
605.953	0.0162431
606.031	0.0161899
606.109	0.0162009
606.187	0.0162657
606.265	0.0162423
606.343	0.0163584
606.421	0.0163647
606.499	0.0161504
606.578	0.0161999
606.656	0.0162921
606.734	0.0162340
606.812	0.0163369
606.890	0.0162428
606.968	0.0162064
607.046	0.0163100
607.124	0.0163154
607.203	0.0162324
607.281	0.0163233
607.359	0.0163414
607.437	0.0163380
607.515	0.0163358
607.593	0.0162560
607.671	0.0162698
607.749	0.0161993
607.828	0.0162444
607.906	0.0161666
607.984	0.0162749
608.062	0.0162608
608.140	0.0161957
608.218	0.0163220
608.296	0.0163661
608.374	0.0162043
608.453	0.0160852
608.531	0.0162458
608.609	0.0163215
608.687	0.0162285
608.765	0.0161945
608.843	0.0162927
608.921	0.0162344
608.999	0.0163206
609.078	0.0162228
609.156	0.0162092
609.234	0.0161139
609.312	0.0162176
609.390	0.0161719
609.468	0.0163138
609.546	0.0163967
609.624	0.0161747
609.703	0.0162507
609.781	0.0163560
609.859	0.0162341
609.937	0.0163306
610.015	0.0164819
610.093	0.0160452
610.171	0.0163188
610.249	0.0163396
610.328	0.0163011
610.406	0.0161914
610.484	0.0162061
610.562	0.0163000
610.640	0.0162186
610.718	0.0164651
610.796	0.0163623
610.874	0.0162861
610.953	0.0162499
611.031	0.0162810
611.109	0.0161285
611.187	0.0162887
611.265	0.0162303
611.343	0.0162989
611.421	0.0163214
611.499	0.0163013
611.578	0.0162395
611.656	0.0162386
611.734	0.0162328
611.812	0.0163275
611.890	0.0162276
611.968	0.0163262
612.046	0.0163211
612.124	0.0161912
612.203	0.0161504
612.281	0.0162233
612.359	0.0162380
612.437	0.0162516
612.515	0.0161216
612.593	0.0161707
612.671	0.0161937
612.749	0.0163066
612.828	0.0161481
612.906	0.0161722
612.984	0.0162784
613.062	0.0161720
613.140	0.0162883
613.218	0.0163512
613.296	0.0161977
613.374	0.0162437
613.453	0.0163285
613.531	0.0161697
613.609	0.0162679
613.687	0.0161149
613.765	0.0163003
613.843	0.0161819
613.921	0.0163110
613.999	0.0162584
614.078	0.0161759
614.156	0.0162486
614.234	0.0162516
614.312	0.0163297
614.390	0.0162019
614.468	0.0162230
614.546	0.0162425
614.624	0.0162500
614.703	0.0160449
614.781	0.0162022
614.859	0.0163577
614.937	0.0164281
615.015	0.0162690
615.093	0.0161662
615.171	0.0162941
615.249	0.0162231
615.328	0.0162516
615.406	0.0162055
615.484	0.0163377
615.562	0.0163005
615.640	0.0161220
615.718	0.0163628
615.796	0.0163585
615.874	0.0162135
615.953	0.0161095
616.031	0.0162222
616.109	0.0161764
616.187	0.0162166
616.265	0.0162397
616.343	0.0161874
616.421	0.0162550
616.499	0.0163103
616.578	0.0161784
616.656	0.0161929
616.734	0.0162324
616.812	0.0163327
616.890	0.0162193
616.968	0.0162482
617.046	0.0162614
617.124	0.0161803
617.203	0.0161327
617.281	0.0163147
617.359	0.0162201
617.437	0.0162309
617.515	0.0161771
617.593	0.0161842
617.671	0.0163152
617.749	0.0162601
617.828	0.0161654
617.906	0.0160917
617.984	0.0162609
618.062	0.0161879
618.140	0.0162153
618.218	0.0162466
618.296	0.0163572
618.374	0.0161627
618.453	0.0162306
618.531	0.0161863
618.609	0.0162059
618.687	0.0161954
618.765	0.0163053
618.843	0.0162497
618.921	0.0162595
618.999	0.0161646
619.078	0.0163200
619.156	0.0162254
619.234	0.0161687
619.312	0.0163190
619.390	0.0162444
619.468	0.0162476
619.546	0.0162839
619.624	0.0163273
619.703	0.0162803
619.781	0.0161460
619.859	0.0162415
619.937	0.0161440
620.015	0.0162158
620.093	0.0162761
620.171	0.0162124
620.249	0.0160757
620.328	0.0163363
620.406	0.0162457
620.484	0.0162379
620.562	0.0163291
620.640	0.0163422
620.718	0.0163708
620.796	0.0161583
620.874	0.0162038
620.953	0.0162614
621.031	0.0162019
621.109	0.0162549
621.187	0.0163186
621.265	0.0161827
621.343	0.0161685
621.421	0.0163760
621.499	0.0163461
621.578	0.0161987
621.656	0.0162271
621.734	0.0163080
621.812	0.0163007
621.890	0.0162241
621.968	0.0162672
622.046	0.0163110
622.124	0.0161803
622.203	0.0163206
622.281	0.0161669
622.359	0.0161528
622.437	0.0163883
622.515	0.0163062
622.593	0.0163095
622.671	0.0162509
622.749	0.0162537
622.828	0.0161036
622.906	0.0162605
622.984	0.0163002
623.062	0.0164478
623.140	0.0162670
623.218	0.0161913
623.296	0.0163190
623.374	0.0163727
623.453	0.0162727
623.531	0.0162862
623.609	0.0161877
623.687	0.0162437
623.765	0.0162130
623.843	0.0162019
623.921	0.0163451
623.999	0.0163377
624.078	0.0161820
624.156	0.0161685
624.234	0.0162723
624.312	0.0163406
624.390	0.0163470
624.468	0.0162957
624.546	0.0162234
624.624	0.0162244
624.703	0.0162736
624.781	0.0162656
624.859	0.0163126
624.937	0.0162358
625.015	0.0162983
625.093	0.0163586
625.171	0.0161490
625.249	0.0162487
625.328	0.0164516
625.406	0.0162394
625.484	0.0163053
625.562	0.0163628
625.640	0.0162781
625.718	0.0162673
625.796	0.0163206
625.874	0.0163718
625.953	0.0162978
626.031	0.0163420
626.109	0.0162061
626.187	0.0162904
626.265	0.0163531
626.343	0.0164100
626.421	0.0164408
626.499	0.0163206
626.578	0.0163533
626.656	0.0163623
626.734	0.0162719
626.812	0.0160912
626.890	0.0162952
626.968	0.0163372
627.046	0.0162423
627.124	0.0162195
627.203	0.0163378
627.281	0.0162945
627.359	0.0163302
627.437	0.0162573
627.515	0.0162212
627.593	0.0162770
627.671	0.0163445
627.749	0.0163001
627.828	0.0162467
627.906	0.0163171
627.984	0.0162514
628.062	0.0162667
628.140	0.0164537
628.218	0.0162303
628.296	0.0161995
628.374	0.0161588
628.453	0.0163252
628.531	0.0162492
628.609	0.0161878
628.687	0.0162701
628.765	0.0163071
628.843	0.0162463
628.921	0.0161727
628.999	0.0162865
629.078	0.0162382
629.156	0.0163478
629.234	0.0164538
629.312	0.0163885
629.390	0.0162652
629.468	0.0164277
629.546	0.0162822
629.624	0.0161112
629.703	0.0162383
629.781	0.0162747
629.859	0.0162653
629.937	0.0162933
630.015	0.0162664
630.093	0.0163600
630.171	0.0163801
630.249	0.0163166
630.328	0.0161832
630.406	0.0161937
630.484	0.0163005
630.562	0.0162591
630.640	0.0161714
630.718	0.0161858
630.796	0.0162963
630.874	0.0161980
630.953	0.0163781
631.031	0.0162241
631.109	0.0163052
631.187	0.0162658
631.265	0.0163168
631.343	0.0163048
631.421	0.0162215
631.499	0.0163457
631.578	0.0162686
631.656	0.0163114
631.734	0.0163660
631.812	0.0162958
631.890	0.0163731
631.968	0.0163233
632.046	0.0163940
632.124	0.0162328
632.203	0.0162331
632.281	0.0163129
632.359	0.0162711
632.437	0.0163687
632.515	0.0162904
632.593	0.0162984
632.671	0.0161700
632.749	0.0161224
632.828	0.0162827
632.906	0.0162721
632.984	0.0163631
633.062	0.0163341
633.140	0.0163017
633.218	0.0161507
633.296	0.0163344
633.374	0.0164330
633.453	0.0162205
633.531	0.0161927
633.609	0.0162695
633.687	0.0163032
633.765	0.0162179
633.843	0.0162952
633.921	0.0163760
633.999	0.0160725
634.078	0.0161832
634.156	0.0161419
634.234	0.0161951
634.312	0.0161980
634.390	0.0161324
634.468	0.0162651
634.546	0.0163426
634.624	0.0163815
634.703	0.0161770
634.781	0.0162484
634.859	0.0163557
634.937	0.0162018
635.015	0.0161654
635.093	0.0162448
635.171	0.0161186
635.249	0.0163683
635.328	0.0162445
635.406	0.0162045
635.484	0.0162852
635.562	0.0162534
635.640	0.0162555
635.718	0.0161403
635.796	0.0163205
635.874	0.0162263
635.953	0.0161559
636.031	0.0163979
636.109	0.0162273
636.187	0.0161156
636.265	0.0161504
636.343	0.0162514
636.421	0.0161823
636.499	0.0163201
636.578	0.0162868
636.656	0.0163339
636.734	0.0162070
636.812	0.0162159
636.890	0.0162636
636.968	0.0163818
637.046	0.0162601
637.124	0.0160928
637.203	0.0161466
637.281	0.0163557
637.359	0.0163033
637.437	0.0161889
637.515	0.0162782
637.593	0.0163086
637.671	0.0161550
637.749	0.0161971
637.828	0.0162141
637.906	0.0162830
637.984	0.0162646
638.062	0.0162695
638.140	0.0161954
638.218	0.0162647
638.296	0.0162146
638.374	0.0163383
638.453	0.0162311
638.531	0.0162086
638.609	0.0162711
638.687	0.0162200
638.765	0.0162333
638.843	0.0162106
638.921	0.0162254
638.999	0.0162473
639.078	0.0163591
639.156	0.0163033
639.234	0.0162356
639.312	0.0162492
639.390	0.0162539
639.468	0.0162956
639.546	0.0164420
639.624	0.0162665
639.703	0.0163422
639.781	0.0162393
639.859	0.0161210
639.937	0.0162811
640.015	0.0163162
640.093	0.0162700
640.171	0.0161868
640.249	0.0162493
640.328	0.0162442
640.406	0.0161304
640.484	0.0160920
640.562	0.0163179
640.640	0.0162154
640.718	0.0162225
640.796	0.0163213
640.874	0.0163414
640.953	0.0163042
641.031	0.0162368
641.109	0.0163667
641.187	0.0162778
641.265	0.0163495
641.343	0.0162848
641.421	0.0162770
641.499	0.0162184
641.578	0.0162286
641.656	0.0161150
641.734	0.0161763
641.812	0.0163501
641.890	0.0162758
641.968	0.0163040
642.046	0.0162658
642.124	0.0162514
642.203	0.0162939
642.281	0.0162098
642.359	0.0163980
642.437	0.0162568
642.515	0.0162570
642.593	0.0163046
642.671	0.0163374
642.749	0.0162691
642.828	0.0163939
642.906	0.0162643
642.984	0.0162361
643.062	0.0163645
643.140	0.0162975
643.218	0.0163214
643.296	0.0162593
643.374	0.0162970
643.453	0.0163721
643.531	0.0163831
643.609	0.0163577
643.687	0.0162893
643.765	0.0162155
643.843	0.0162697
643.921	0.0164806
643.999	0.0161233
644.078	0.0162046
644.156	0.0163025
644.234	0.0162742
644.312	0.0161728
644.390	0.0161446
644.468	0.0161597
644.546	0.0161570
644.624	0.0163049
644.703	0.0162246
644.781	0.0161724
644.859	0.0161566
644.937	0.0163293
645.015	0.0163077
645.093	0.0162986
645.171	0.0161044
645.249	0.0163045
645.328	0.0163248
645.406	0.0162363
645.484	0.0162499
645.562	0.0163800
645.640	0.0162309
645.718	0.0162616
645.796	0.0163070
645.874	0.0162321
645.953	0.0162989
646.031	0.0163141
646.109	0.0162512
646.187	0.0162550
646.265	0.0162780
646.343	0.0162827
646.421	0.0162444
646.499	0.0164030
646.578	0.0161412
646.656	0.0162984
646.734	0.0162943
646.812	0.0162581
646.890	0.0162023
646.968	0.0162870
647.046	0.0162060
647.124	0.0161548
647.203	0.0162531
647.281	0.0163161
647.359	0.0162611
647.437	0.0162450
647.515	0.0162703
647.593	0.0163839
647.671	0.0161616
647.749	0.0161723
647.828	0.0161866
647.906	0.0163102
647.984	0.0163094
648.062	0.0163040
648.140	0.0163527
648.218	0.0162923
648.296	0.0162833
648.374	0.0162891
648.453	0.0162831
648.531	0.0162865
648.609	0.0162312
648.687	0.0162862
648.765	0.0163645
648.843	0.0162694
648.921	0.0161906
648.999	0.0162016
649.078	0.0161922
649.156	0.0163128
649.234	0.0162182
649.312	0.0162517
649.390	0.0162101
649.468	0.0163555
649.546	0.0162357
649.624	0.0162360
649.703	0.0163916
649.781	0.0163113
649.859	0.0161116
649.937	0.0161073
650.015	0.0162490
650.093	0.0162701
650.171	0.0162217
650.249	0.0163515
650.328	0.0161954
650.406	0.0163890
650.484	0.0163383
650.562	0.0161861
650.640	0.0163971
650.718	0.0163904
650.796	0.0161996
650.874	0.0162627
650.953	0.0163050
651.031	0.0162460
651.109	0.0162716
651.187	0.0161625
651.265	0.0162956
651.343	0.0161877
651.421	0.0161839
651.499	0.0162956
651.578	0.0162212
651.656	0.0163168
651.734	0.0162482
651.812	0.0161919
651.890	0.0162237
651.968	0.0162782
652.046	0.0163009
652.124	0.0163580
652.203	0.0163044
652.281	0.0162067
652.359	0.0161929
652.437	0.0162731
652.515	0.0163924
652.593	0.0163274
652.671	0.0162158
652.749	0.0163448
652.828	0.0162685
652.906	0.0161893
652.984	0.0162389
653.062	0.0163387
653.140	0.0163087
653.218	0.0163541
653.296	0.0163490
653.374	0.0162397
653.453	0.0162658
653.531	0.0162890
653.609	0.0163670
653.687	0.0162399
653.765	0.0162906
653.843	0.0162976
653.921	0.0161905
653.999	0.0163081
654.078	0.0162304
654.156	0.0162762
654.234	0.0163098
654.312	0.0163219
654.390	0.0163091
654.468	0.0162256
654.546	0.0161414
654.624	0.0162730
654.703	0.0162487
654.781	0.0163158
654.859	0.0163746
654.937	0.0162944
655.015	0.0161529
655.093	0.0162889
655.171	0.0163416
655.249	0.0162833
655.328	0.0162309
655.406	0.0162944
655.484	0.0163138
655.562	0.0163567
655.640	0.0163940
655.718	0.0162595
655.796	0.0162547
655.874	0.0162672
655.953	0.0162086
656.031	0.0163450
656.109	0.0163809
656.187	0.0162032
656.265	0.0163062
656.343	0.0161549
656.421	0.0163908
656.499	0.0163497
656.578	0.0163331
656.656	0.0164237
656.734	0.0163839
656.812	0.0162780
656.890	0.0162360
656.968	0.0162859
657.046	0.0163587
657.124	0.0162991
657.203	0.0162983
657.281	0.0162374
657.359	0.0163792
657.437	0.0162327
657.515	0.0163450
657.593	0.0162728
657.671	0.0161966
657.749	0.0163735
657.828	0.0162441
657.906	0.0163981
657.984	0.0163120
658.062	0.0160870
658.140	0.0163307
658.218	0.0162689
658.296	0.0163647
658.374	0.0163879
658.453	0.0162600
658.531	0.0162240
658.609	0.0162331
658.687	0.0162582
658.765	0.0161864
658.843	0.0163149
658.921	0.0163101
658.999	0.0161697
659.078	0.0164056
659.156	0.0162070
659.234	0.0163268
659.312	0.0162209
659.390	0.0163062
659.468	0.0163522
659.546	0.0161860
659.624	0.0161746
659.703	0.0162920
659.781	0.0163988
659.859	0.0162280
659.937	0.0162554
660.015	0.0162444
660.093	0.0163213
660.171	0.0162870
660.249	0.0162506
660.328	0.0162627
660.406	0.0163622
660.484	0.0161381
660.562	0.0161283
660.640	0.0161706
660.718	0.0161636
660.796	0.0162600
660.874	0.0162404
660.953	0.0162897
661.031	0.0162514
661.109	0.0164100
661.187	0.0162406
661.265	0.0163280
661.343	0.0163376
661.421	0.0162366
661.499	0.0162648
661.578	0.0163148
661.656	0.0162341
661.734	0.0163158
661.812	0.0162675
661.890	0.0162998
661.968	0.0161699
662.046	0.0163574
662.124	0.0162727
662.203	0.0162582
662.281	0.0162042
662.359	0.0162697
662.437	0.0162126
662.515	0.0161346
662.593	0.0161082
662.671	0.0161928
662.749	0.0162582
662.828	0.0161845
662.906	0.0162160
662.984	0.0161926
663.062	0.0163332
663.140	0.0161270
663.218	0.0162850
663.296	0.0162992
663.374	0.0163314
663.453	0.0162754
663.531	0.0162528
663.609	0.0163874
663.687	0.0163491
663.765	0.0162056
663.843	0.0162865
663.921	0.0162627
663.999	0.0162148
664.078	0.0163703
664.156	0.0163387
664.234	0.0163113
664.312	0.0162527
664.390	0.0162337
664.468	0.0163428
664.546	0.0163881
664.624	0.0163940
664.703	0.0162970
664.781	0.0162375
664.859	0.0163082
664.937	0.0162845
665.015	0.0161760
665.093	0.0163873
665.171	0.0163412
665.249	0.0161961
665.328	0.0164621
665.406	0.0163613
665.484	0.0161106
665.562	0.0163515
665.640	0.0163789
665.718	0.0163982
665.796	0.0162349
665.874	0.0162706
665.953	0.0162408
666.031	0.0163387
666.109	0.0163360
666.187	0.0161535
666.265	0.0161324
666.343	0.0164686
666.421	0.0162657
666.499	0.0161979
666.578	0.0163215
666.656	0.0163687
666.734	0.0163604
666.812	0.0161893
666.890	0.0161552
666.968	0.0162261
667.046	0.0160940
667.124	0.0163408
667.203	0.0162377
667.281	0.0162938
667.359	0.0161776
667.437	0.0163315
667.515	0.0163795
667.593	0.0163286
667.671	0.0162728
667.749	0.0162843
667.828	0.0163514
667.906	0.0162193
667.984	0.0163055
668.062	0.0164703
668.140	0.0161852
668.218	0.0161816
668.296	0.0163765
668.374	0.0162302
668.453	0.0162199
668.531	0.0163482
668.609	0.0162915
668.687	0.0163803
668.765	0.0162990
668.843	0.0162839
668.921	0.0164185
668.999	0.0161787
669.078	0.0162206
669.156	0.0161871
669.234	0.0162496
669.312	0.0163182
669.390	0.0162363
669.468	0.0162620
669.546	0.0163406
669.624	0.0163392
669.703	0.0162529
669.781	0.0162164
669.859	0.0163996
669.937	0.0163059
670.015	0.0163690
670.093	0.0162923
670.171	0.0163384
670.249	0.0163203
670.328	0.0163942
670.406	0.0164511
670.484	0.0162734
670.562	0.0163493
670.640	0.0163759
670.718	0.0163303
670.796	0.0163024
670.874	0.0163976
670.953	0.0163160
671.031	0.0162212
671.109	0.0162392
671.187	0.0162275
671.265	0.0163032
671.343	0.0163412
671.421	0.0162476
671.499	0.0162211
671.578	0.0162656
671.656	0.0163280
671.734	0.0162035
671.812	0.0162987
671.890	0.0163603
671.968	0.0163685
672.046	0.0162963
672.124	0.0162933
672.203	0.0162525
672.281	0.0162296
672.359	0.0161318
672.437	0.0162935
672.515	0.0164431
672.593	0.0161890
672.671	0.0161976
672.749	0.0162596
672.828	0.0163324
672.906	0.0162872
672.984	0.0163114
673.062	0.0162402
673.140	0.0162152
673.218	0.0164059
673.296	0.0162009
673.374	0.0162804
673.453	0.0162965
673.531	0.0162621
673.609	0.0163332
673.687	0.0162598
673.765	0.0161911
673.843	0.0162772
673.921	0.0162393
673.999	0.0161625
674.078	0.0163427
674.156	0.0163191
674.234	0.0162920
674.312	0.0162081
674.390	0.0163401
674.468	0.0161920
674.546	0.0163831
674.624	0.0162506
674.703	0.0163469
674.781	0.0163236
674.859	0.0163522
674.937	0.0162862
675.015	0.0162360
675.093	0.0163216
675.171	0.0163777
675.249	0.0163028
675.328	0.0161452
675.406	0.0161579
675.484	0.0163380
675.562	0.0163462
675.640	0.0161926
675.718	0.0161658
675.796	0.0163597
675.874	0.0162003
675.953	0.0163102
676.031	0.0164115
676.109	0.0163747
676.187	0.0163437
676.265	0.0162281
676.343	0.0163827
676.421	0.0163157
676.499	0.0163204
676.578	0.0163503
676.656	0.0162325
676.734	0.0163258
676.812	0.0163425
676.890	0.0162332
676.968	0.0162697
677.046	0.0163831
677.124	0.0162663
677.203	0.0162549
677.281	0.0161500
677.359	0.0162527
677.437	0.0162931
677.515	0.0162862
677.593	0.0162619
677.671	0.0163339
677.749	0.0163165
677.828	0.0163165
677.906	0.0162048
677.984	0.0162260
678.062	0.0163418
678.140	0.0162725
678.218	0.0161082
678.296	0.0162068
678.374	0.0162199
678.453	0.0162668
678.531	0.0162640
678.609	0.0163633
678.687	0.0163509
678.765	0.0162322
678.843	0.0162439
678.921	0.0162164
678.999	0.0161845
679.078	0.0163112
679.156	0.0163362
679.234	0.0163060
679.312	0.0163052
679.390	0.0163554
679.468	0.0163147
679.546	0.0164046
679.624	0.0163400
679.703	0.0163169
679.781	0.0162729
679.859	0.0162573
679.937	0.0162878
680.015	0.0162703
680.093	0.0163619
680.171	0.0164205
680.249	0.0163305
680.328	0.0163381
680.406	0.0163302
680.484	0.0163252
680.562	0.0162106
680.640	0.0163358
680.718	0.0164408
680.796	0.0163058
680.874	0.0163474
680.953	0.0164179
681.031	0.0163346
681.109	0.0163979
681.187	0.0162830
681.265	0.0161837
681.343	0.0164593
681.421	0.0163320
681.499	0.0162656
681.578	0.0162450
681.656	0.0162168
681.734	0.0163146
681.812	0.0162373
681.890	0.0162684
681.968	0.0162604
682.046	0.0162643
682.124	0.0162772
682.203	0.0163605
682.281	0.0162180
682.359	0.0162319
682.437	0.0160719
682.515	0.0162364
682.593	0.0163692
682.671	0.0162132
682.749	0.0161387
682.828	0.0161877
682.906	0.0163703
682.984	0.0163158
683.062	0.0163348
683.140	0.0162550
683.218	0.0162721
683.296	0.0161539
683.374	0.0162856
683.453	0.0162419
683.531	0.0163019
683.609	0.0163093
683.687	0.0161991
683.765	0.0162264
683.843	0.0162320
683.921	0.0162605
683.999	0.0163674
684.078	0.0162551
684.156	0.0164567
684.234	0.0163642
684.312	0.0162459
684.390	0.0164129
684.468	0.0162698
684.546	0.0162733
684.624	0.0163648
684.703	0.0162411
684.781	0.0162251
684.859	0.0162026
684.937	0.0162835
685.015	0.0162502
685.093	0.0161982
685.171	0.0164172
685.249	0.0164194
685.328	0.0163538
685.406	0.0161205
685.484	0.0162868
685.562	0.0162468
685.640	0.0162444
685.718	0.0161663
685.796	0.0162679
685.874	0.0162653
685.953	0.0161881
686.031	0.0162071
686.109	0.0162446
686.187	0.0162626
686.265	0.0161048
686.343	0.0161719
686.421	0.0162174
686.499	0.0163035
686.578	0.0163125
686.656	0.0162771
686.734	0.0163275
686.812	0.0162831
686.890	0.0162475
686.968	0.0161907
687.046	0.0163011
687.124	0.0162468
687.203	0.0163757
687.281	0.0161758
687.359	0.0162341
687.437	0.0164008
687.515	0.0163538
687.593	0.0163496
687.671	0.0162866
687.749	0.0162929
687.828	0.0162656
687.906	0.0162940
687.984	0.0163829
688.062	0.0162999
688.140	0.0162178
688.218	0.0163946
688.296	0.0163962
688.374	0.0163345
688.453	0.0163099
688.531	0.0162637
688.609	0.0163627
688.687	0.0162988
688.765	0.0163258
688.843	0.0163262
688.921	0.0161324
688.999	0.0163654
689.078	0.0163506
689.156	0.0162582
689.234	0.0163346
689.312	0.0163400
689.390	0.0164182
689.468	0.0164361
689.546	0.0161917
689.624	0.0162090
689.703	0.0162644
689.781	0.0162755
689.859	0.0162325
689.937	0.0162646
690.015	0.0163235
690.093	0.0162247
690.171	0.0163390
690.249	0.0161776
690.328	0.0161762
690.406	0.0161692
690.484	0.0161928
690.562	0.0162523
690.640	0.0161392
690.718	0.0162077
690.796	0.0162706
690.874	0.0160778
690.953	0.0163144
691.031	0.0162979
691.109	0.0162955
691.187	0.0161648
691.265	0.0162041
691.343	0.0163118
691.421	0.0161886
691.499	0.0163009
691.578	0.0162806
691.656	0.0161341
691.734	0.0162661
691.812	0.0161848
691.890	0.0162126
691.968	0.0162465
692.046	0.0164339
692.124	0.0163126
692.203	0.0162661
692.281	0.0162896
692.359	0.0163138
692.437	0.0161748
692.515	0.0162252
692.593	0.0161976
692.671	0.0161543
692.749	0.0163113
692.828	0.0163945
692.906	0.0162119
692.984	0.0162544
693.062	0.0162850
693.140	0.0160880
693.218	0.0163105
693.296	0.0163641
693.374	0.0162438
693.453	0.0162653
693.531	0.0162846
693.609	0.0161485
693.687	0.0162862
693.765	0.0162794
693.843	0.0163162
693.921	0.0163738
693.999	0.0163631
694.078	0.0162460
694.156	0.0162671
694.234	0.0162373
694.312	0.0162299
694.390	0.0163001
694.468	0.0162782
694.546	0.0164332
694.624	0.0163100
694.703	0.0160863
694.781	0.0162673
694.859	0.0163126
694.937	0.0163051
695.015	0.0163233
695.093	0.0162521
695.171	0.0163198
695.249	0.0163470
695.328	0.0163070
695.406	0.0163570
695.484	0.0162460
695.562	0.0162128
695.640	0.0162630
695.718	0.0161830
695.796	0.0163181
695.874	0.0162971
695.953	0.0162718
696.031	0.0163235
696.109	0.0163108
696.187	0.0163036
696.265	0.0161792
696.343	0.0163116
696.421	0.0161852
696.499	0.0161291
696.578	0.0162036
696.656	0.0163784
696.734	0.0163680
696.812	0.0161317
696.890	0.0162146
696.968	0.0162280
697.046	0.0163833
697.124	0.0164343
697.203	0.0162637
697.281	0.0163225
697.359	0.0162766
697.437	0.0162814
697.515	0.0163176
697.593	0.0162786
697.671	0.0162998
697.749	0.0162118
697.828	0.0163789
697.906	0.0163151
697.984	0.0162753
698.062	0.0162766
698.140	0.0162835
698.218	0.0162345
698.296	0.0164097
698.374	0.0163628
698.453	0.0162721
698.531	0.0161987
698.609	0.0162746
698.687	0.0162457
698.765	0.0161391
698.843	0.0161655
698.921	0.0161902
698.999	0.0163294
699.078	0.0163582
699.156	0.0160738
699.234	0.0162806
699.312	0.0163128
699.390	0.0164017
699.468	0.0163470
699.546	0.0162988
699.624	0.0162930
699.703	0.0162308
699.781	0.0162939
699.859	0.0161774
699.937	0.0163521
700.015	0.0162158
700.093	0.0162429
700.171	0.0162806
700.249	0.0163156
700.328	0.0162267
700.406	0.0162926
700.484	0.0162782
700.562	0.0164004
700.640	0.0163345
700.718	0.0161892
700.796	0.0162383
700.874	0.0163812
700.953	0.0162946
701.031	0.0162592
701.109	0.0162440
701.187	0.0161182
701.265	0.0163174
701.343	0.0163490
701.421	0.0163348
701.499	0.0162267
701.578	0.0162826
701.656	0.0162935
701.734	0.0164205
701.812	0.0162041
701.890	0.0162305
701.968	0.0162273
702.046	0.0163210
702.124	0.0162706
702.203	0.0163514
702.281	0.0162806
702.359	0.0161691
702.437	0.0163470
702.515	0.0164205
702.593	0.0162212
702.671	0.0162696
702.749	0.0162019
702.828	0.0161423
702.906	0.0162022
702.984	0.0162347
703.062	0.0162128
703.140	0.0161623
703.218	0.0162812
703.296	0.0163345
703.374	0.0161900
703.453	0.0161562
703.531	0.0163892
703.609	0.0163720
703.687	0.0160980
703.765	0.0162748
703.843	0.0160983
703.921	0.0164226
703.999	0.0163689
704.078	0.0163080
704.156	0.0162717
704.234	0.0162421
704.312	0.0162314
704.390	0.0162788
704.468	0.0162958
704.546	0.0163429
704.624	0.0163627
704.703	0.0163097
704.781	0.0162225
704.859	0.0162693
704.937	0.0163058
705.015	0.0162943
705.093	0.0164462
705.171	0.0163156
705.249	0.0163677
705.328	0.0162085
705.406	0.0162626
705.484	0.0163203
705.562	0.0163043
705.640	0.0164124
705.718	0.0162379
705.796	0.0162668
705.874	0.0163134
705.953	0.0163052
706.031	0.0163013
706.109	0.0161926
706.187	0.0161922
706.265	0.0163081
706.343	0.0164552
706.421	0.0163236
706.499	0.0163572
706.578	0.0162096
706.656	0.0162888
706.734	0.0163879
706.812	0.0162941
706.890	0.0163075
706.968	0.0164178
707.046	0.0162996
707.124	0.0161635
707.203	0.0162719
707.281	0.0163130
707.359	0.0162046
707.437	0.0163691
707.515	0.0163048
707.593	0.0161938
707.671	0.0162798
707.749	0.0163936
707.828	0.0163866
707.906	0.0162834
707.984	0.0163091
708.062	0.0162299
708.140	0.0163192
708.218	0.0163811
708.296	0.0163861
708.374	0.0163586
708.453	0.0162711
708.531	0.0163121
708.609	0.0162671
708.687	0.0162608
708.765	0.0163613
708.843	0.0162742
708.921	0.0164182
708.999	0.0164381
709.078	0.0162154
709.156	0.0163212
709.234	0.0163396
709.312	0.0163092
709.390	0.0163580
709.468	0.0162849
709.546	0.0163129
709.624	0.0163877
709.703	0.0163064
709.781	0.0163074
709.859	0.0163017
709.937	0.0162112
710.015	0.0163667
710.093	0.0162760
710.171	0.0163113
710.249	0.0162840
710.328	0.0163226
710.406	0.0162548
710.484	0.0163715
710.562	0.0162550
710.640	0.0161414
710.718	0.0163923
710.796	0.0163777
710.874	0.0161275
710.953	0.0161341
711.031	0.0163052
711.109	0.0162863
711.187	0.0162444
711.265	0.0163172
711.343	0.0162954
711.421	0.0163188
711.499	0.0163239
711.578	0.0161951
711.656	0.0164098
711.734	0.0162089
711.812	0.0163732
711.890	0.0163234
711.968	0.0163812
712.046	0.0164037
712.124	0.0162482
712.203	0.0163004
712.281	0.0163256
712.359	0.0162657
712.437	0.0163893
712.515	0.0162740
712.593	0.0162277
712.671	0.0163496
712.749	0.0163749
712.828	0.0162400
712.906	0.0163336
712.984	0.0163402
713.062	0.0162437
713.140	0.0163612
713.218	0.0163161
713.296	0.0161835
713.374	0.0161977
713.453	0.0162290
713.531	0.0162406
713.609	0.0161885
713.687	0.0162395
713.765	0.0162366
713.843	0.0161542
713.921	0.0163042
713.999	0.0162975
714.078	0.0161882
714.156	0.0164326
714.234	0.0164001
714.312	0.0162218
714.390	0.0161296
714.468	0.0163185
714.546	0.0163492
714.624	0.0163589
714.703	0.0163503
714.781	0.0162536
714.859	0.0162645
714.937	0.0162971
715.015	0.0163071
715.093	0.0162933
715.171	0.0164870
715.249	0.0164067
715.328	0.0163824
715.406	0.0162724
715.484	0.0163486
715.562	0.0162788
715.640	0.0162766
715.718	0.0162813
715.796	0.0163585
715.874	0.0162434
715.953	0.0162897
716.031	0.0161932
716.109	0.0162988
716.187	0.0163223
716.265	0.0162300
716.343	0.0163278
716.421	0.0163711
716.499	0.0163015
716.578	0.0163779
716.656	0.0163456
716.734	0.0161349
716.812	0.0162458
716.890	0.0163630
716.968	0.0161743
717.046	0.0162202
717.124	0.0163289
717.203	0.0161517
717.281	0.0161420
717.359	0.0162462
717.437	0.0163725
717.515	0.0163960
717.593	0.0163026
717.671	0.0163544
717.749	0.0163377
717.828	0.0162868
717.906	0.0162514
717.984	0.0162496
718.062	0.0161975
718.140	0.0162771
718.218	0.0164066
718.296	0.0163094
718.374	0.0162590
718.453	0.0162548
718.531	0.0162717
718.609	0.0164543
718.687	0.0161495
718.765	0.0160992
718.843	0.0161895
718.921	0.0162961
718.999	0.0163578
719.078	0.0162369
719.156	0.0161083
719.234	0.0162901
719.312	0.0162718
719.390	0.0162215
719.468	0.0163365
719.546	0.0163285
719.624	0.0162437
719.703	0.0163236
719.781	0.0161134
719.859	0.0162476
719.937	0.0162411
720.015	0.0162458
720.093	0.0161890
720.171	0.0163141
720.249	0.0162586
720.328	0.0163197
720.406	0.0162549
720.484	0.0163900
720.562	0.0162640
720.640	0.0163913
720.718	0.0164030
720.796	0.0163310
720.874	0.0163097
720.953	0.0163672
721.031	0.0162262
721.109	0.0162962
721.187	0.0163593
721.265	0.0162909
721.343	0.0162238
721.421	0.0162519
721.499	0.0163261
721.578	0.0163319
721.656	0.0162390
721.734	0.0162892
721.812	0.0161887
721.890	0.0163539
721.968	0.0164658
722.046	0.0164231
722.124	0.0162437
722.203	0.0162654
722.281	0.0164525
722.359	0.0163857
722.437	0.0162797
722.515	0.0163505
722.593	0.0162835
722.671	0.0162399
722.749	0.0162914
722.828	0.0163992
722.906	0.0164314
722.984	0.0163561
723.062	0.0163409
723.140	0.0164452
723.218	0.0163132
723.296	0.0162653
723.374	0.0162974
723.453	0.0162100
723.531	0.0163863
723.609	0.0164593
723.687	0.0163084
723.765	0.0164221
723.843	0.0162091
723.921	0.0162547
723.999	0.0161973
724.078	0.0161961
724.156	0.0163988
724.234	0.0165197
724.312	0.0163083
724.390	0.0162410
724.468	0.0163894
724.546	0.0162470
724.624	0.0163670
724.703	0.0163551
724.781	0.0163461
724.859	0.0164035
724.937	0.0162515
725.015	0.0161586
725.093	0.0162640
725.171	0.0160957
725.249	0.0162478
725.328	0.0162739
725.406	0.0162545
725.484	0.0162373
725.562	0.0163261
725.640	0.0162313
725.718	0.0162438
725.796	0.0162696
725.874	0.0163605
725.953	0.0162544
726.031	0.0163031
726.109	0.0161240
726.187	0.0163390
726.265	0.0162712
726.343	0.0161865
726.421	0.0162589
726.499	0.0162790
726.578	0.0163332
726.656	0.0163051
726.734	0.0161686
726.812	0.0163124
726.890	0.0162868
726.968	0.0161861
727.046	0.0163486
727.124	0.0162977
727.203	0.0162057
727.281	0.0163311
727.359	0.0162484
727.437	0.0162270
727.515	0.0162643
727.593	0.0162856
727.671	0.0163294
727.749	0.0162862
727.828	0.0164165
727.906	0.0163226
727.984	0.0162927
728.062	0.0163577
728.140	0.0164106
728.218	0.0162852
728.296	0.0162677
728.374	0.0162451
728.453	0.0163540
728.531	0.0162645
728.609	0.0162454
728.687	0.0162561
728.765	0.0163233
728.843	0.0163497
728.921	0.0162306
728.999	0.0162353
729.078	0.0164159
729.156	0.0164210
729.234	0.0163500
729.312	0.0161752
729.390	0.0162037
729.468	0.0162881
729.546	0.0162528
729.624	0.0161867
729.703	0.0162103
729.781	0.0162180
729.859	0.0163068
729.937	0.0163894
730.015	0.0161950
730.093	0.0161616
730.171	0.0161552
730.249	0.0162674
730.328	0.0161967
730.406	0.0163540
730.484	0.0162849
730.562	0.0162237
730.640	0.0162486
730.718	0.0162661
730.796	0.0163063
730.874	0.0162668
730.953	0.0164437
731.031	0.0162880
731.109	0.0163104
731.187	0.0162531
731.265	0.0162422
731.343	0.0162597
731.421	0.0162218
731.499	0.0163218
731.578	0.0161870
731.656	0.0162745
731.734	0.0163615
731.812	0.0162041
731.890	0.0162885
731.968	0.0163472
732.046	0.0162376
732.124	0.0163638
732.203	0.0162738
732.281	0.0161935
732.359	0.0162862
732.437	0.0162059
732.515	0.0164335
732.593	0.0162456
732.671	0.0162301
732.749	0.0161366
732.828	0.0162225
732.906	0.0161762
732.984	0.0163317
733.062	0.0162073
733.140	0.0163893
733.218	0.0164241
733.296	0.0163202
733.374	0.0162491
733.453	0.0161987
733.531	0.0163397
733.609	0.0162921
733.687	0.0162492
733.765	0.0162474
733.843	0.0162391
733.921	0.0162304
733.999	0.0162781
734.078	0.0162760
734.156	0.0162421
734.234	0.0163483
734.312	0.0161681
734.390	0.0161402
734.468	0.0162874
734.546	0.0163081
734.624	0.0162803
734.703	0.0163376
734.781	0.0162150
734.859	0.0161188
734.937	0.0163192
735.015	0.0164297
735.093	0.0163966
735.171	0.0162528
735.249	0.0162306
735.328	0.0161774
735.406	0.0163495
735.484	0.0163985
735.562	0.0163301
735.640	0.0163979
735.718	0.0164757
735.796	0.0165247
735.874	0.0163478
735.953	0.0163618
736.031	0.0163554
736.109	0.0164257
736.187	0.0165363
736.265	0.0165604
736.343	0.0163544
736.421	0.0164204
736.499	0.0165044
736.578	0.0164684
736.656	0.0164854
736.734	0.0164042
736.812	0.0162782
736.890	0.0164545
736.968	0.0162604
737.046	0.0161358
737.124	0.0161270
737.203	0.0162228
737.281	0.0162170
737.359	0.0160891
737.437	0.0160003
737.515	0.0158201
737.593	0.0158508
737.671	0.0156448
737.749	0.0157127
737.828	0.0156106
737.906	0.0157376
737.984	0.0157569
738.062	0.0158017
738.140	0.0159007
738.218	0.0160124
738.296	0.0159985
738.374	0.0162577
738.453	0.0165527
738.531	0.0167027
738.609	0.0168152
738.687	0.0166619
738.765	0.0169357
738.843	0.0170424
738.921	0.0168219
738.999	0.0167753
739.078	0.0167545
739.156	0.0166344
739.234	0.0164674
739.312	0.0164614
739.390	0.0164103
739.468	0.0162424
739.546	0.0161609
739.624	0.0162511
739.703	0.0159938
739.781	0.0160738
739.859	0.0160358
739.937	0.0160650
740.015	0.0163190
740.093	0.0162621
740.171	0.0163983
740.249	0.0166227
740.328	0.0167440
740.406	0.0167963
740.484	0.0168065
740.562	0.0167548
740.640	0.0169073
740.718	0.0168717
740.796	0.0169466
740.874	0.0167536
740.953	0.0165612
741.031	0.0165954
741.109	0.0165786
741.187	0.0165413
741.265	0.0163608
741.343	0.0160548
741.421	0.0161649
741.499	0.0159058
741.578	0.0156470
741.656	0.0154414
741.734	0.0151759
741.812	0.0149042
741.890	0.0147138
741.968	0.0144262
742.046	0.0143321
742.124	0.0143037
742.203	0.0141943
742.281	0.0143598
742.359	0.0147708
742.437	0.0150536
742.515	0.0155005
742.593	0.0160495
742.671	0.0165590
742.749	0.0169749
742.828	0.0173269
742.906	0.0177348
742.984	0.0180353
743.062	0.0179381
743.140	0.0182185
743.218	0.0181362
743.296	0.0178599
743.374	0.0177773
743.453	0.0175043
743.531	0.0173303
743.609	0.0171725
743.687	0.0169624
743.765	0.0167078
743.843	0.0167054
743.921	0.0165782
743.999	0.0163005
744.078	0.0159169
744.156	0.0159202
744.234	0.0156838
744.312	0.0154768
744.390	0.0155156
744.468	0.0153381
744.546	0.0155099
744.624	0.0156816
744.703	0.0159286
744.781	0.0159943
744.859	0.0161201
744.937	0.0166508
745.015	0.0168590
745.093	0.0172176
745.171	0.0173392
745.249	0.0174448
745.328	0.0174661
745.406	0.0175835
745.484	0.0175726
745.562	0.0174194
745.640	0.0174232
745.718	0.0171133
745.796	0.0168630
745.874	0.0164459
745.953	0.0160960
746.031	0.0157162
746.109	0.0152415
746.187	0.0149217
746.265	0.0146164
746.343	0.0145427
746.421	0.0142253
746.499	0.0143821
746.578	0.0145096
746.656	0.0146819
746.734	0.0150837
746.812	0.0152723
746.890	0.0155244
746.968	0.0159428
747.046	0.0164006
747.124	0.0167524
747.203	0.0169815
747.281	0.0173133
747.359	0.0174393
747.437	0.0174310
747.515	0.0176044
747.593	0.0174977
747.671	0.0171519
747.749	0.0169922
747.828	0.0167561
747.906	0.0163795
747.984	0.0160104
748.062	0.0157568
748.140	0.0153342
748.218	0.0148815
748.296	0.0147955
748.374	0.0147251
748.453	0.0148344
748.531	0.0150043
748.609	0.0153130
748.687	0.0157585
748.765	0.0163284
748.843	0.0169066
748.921	0.0173331
748.999	0.0178872
749.078	0.0183932
749.156	0.0186806
749.234	0.0189067
749.312	0.0191790
749.390	0.0191061
749.468	0.0189285
749.546	0.0187851
749.624	0.0185002
749.703	0.0180896
749.781	0.0176328
749.859	0.0169944
749.937	0.0165791
750.015	0.0159433
750.093	0.0154442
750.171	0.0151334
750.249	0.0147537
750.328	0.0145950
750.406	0.0143015
750.484	0.0142209
750.562	0.0142961
750.640	0.0143727
750.718	0.0144657
750.796	0.0144877
750.874	0.0146035
750.953	0.0148113
751.031	0.0149372
751.109	0.0149850
751.187	0.0150417
751.265	0.0151157
751.343	0.0151714
751.421	0.0155054
751.499	0.0157098
751.578	0.0159421
751.656	0.0164025
751.734	0.0167109
751.812	0.0169624
751.890	0.0172852
751.968	0.0175992
752.046	0.0178678
752.124	0.0180238
752.203	0.0181207
752.281	0.0179427
752.359	0.0180363
752.437	0.0178201
752.515	0.0177177
752.593	0.0173771
752.671	0.0171203
752.749	0.0170398
752.828	0.0168220
752.906	0.0167098
752.984	0.0164613
753.062	0.0161688
753.140	0.0158356
753.218	0.0155293
753.296	0.0153683
753.374	0.0151701
753.453	0.0149210
753.531	0.0149223
753.609	0.0148977
753.687	0.0149609
753.765	0.0152005
753.843	0.0156301
753.921	0.0159720
753.999	0.0162667
754.078	0.0165860
754.156	0.0167865
754.234	0.0169315
754.312	0.0171242
754.390	0.0169143
754.468	0.0169157
754.546	0.0168601
754.624	0.0165172
754.703	0.0163461
754.781	0.0161648
754.859	0.0159849
754.937	0.0156322
755.015	0.0156118
755.093	0.0156924
755.171	0.0156296
755.249	0.0156544
755.328	0.0158091
755.406	0.0160701
755.484	0.0161218
755.562	0.0163504
755.640	0.0166020
755.718	0.0165905
755.796	0.0169003
755.874	0.0170100
755.953	0.0172028
756.031	0.0174282
756.109	0.0175080
756.187	0.0176025
756.265	0.0178631
756.343	0.0178678
756.421	0.0179974
756.499	0.0180157
756.578	0.0180915
756.656	0.0179522
756.734	0.0178182
756.812	0.0175189
756.890	0.0174424
756.968	0.0172205
757.046	0.0168115
757.124	0.0164968
757.203	0.0162177
757.281	0.0159208
757.359	0.0155378
757.437	0.0151281
757.515	0.0145757
757.593	0.0141432
757.671	0.0135350
757.749	0.0132008
757.828	0.0128074
757.906	0.0122991
757.984	0.0120174
758.062	0.0117326
758.140	0.0116049
758.218	0.0117416
758.296	0.0117319
758.374	0.0119945
758.453	0.0123459
758.531	0.0128565
758.609	0.0135278
758.687	0.0142177
758.765	0.0151432
758.843	0.0160540
758.921	0.0169778
758.999	0.0178648
759.078	0.0188145
759.156	0.0198730
759.234	0.0207704
759.312	0.0214346
759.390	0.0221420
759.468	0.0225586
759.546	0.0229106
759.624	0.0229462
759.703	0.0227937
759.781	0.0225313
759.859	0.0223189
759.937	0.0216264
760.015	0.0212508
760.093	0.0205650
760.171	0.0200398
760.249	0.0192843
760.328	0.0184872
760.406	0.0176742
760.484	0.0168459
760.562	0.0163680
760.640	0.0156557
760.718	0.0149746
760.796	0.0143642
760.874	0.0138335
760.953	0.0133096
761.031	0.0128779
761.109	0.0126618
761.187	0.0123858
761.265	0.0121144
761.343	0.0120189
761.421	0.0119330
761.499	0.0117245
761.578	0.0114738
761.656	0.0114909
761.734	0.0113685
761.812	0.0110188
761.890	0.0109873
761.968	0.0110834
762.046	0.0112254
762.124	0.0115272
762.203	0.0117158
762.281	0.0121646
762.359	0.0125961
762.437	0.0131564
762.515	0.0138579
762.593	0.0145891
762.671	0.0155013
762.749	0.0162813
762.828	0.0172266
762.906	0.0180667
762.984	0.0191646
763.062	0.0200124
763.140	0.0207450
763.218	0.0217103
763.296	0.0223587
763.374	0.0227793
763.453	0.0231462
763.531	0.0233141
763.609	0.0232655
763.687	0.0229436
763.765	0.0227907
763.843	0.0223187
763.921	0.0216212
763.999	0.0210908
764.078	0.0205037
764.156	0.0197080
764.234	0.0191150
764.312	0.0185526
764.390	0.0178983
764.468	0.0172562
764.546	0.0167544
764.624	0.0160645
764.703	0.0157538
764.781	0.0153753
764.859	0.0147997
764.937	0.0147224
765.015	0.0144020
765.093	0.0141972
765.171	0.0140626
765.249	0.0138122
765.328	0.0139986
765.406	0.0138803
765.484	0.0135956
765.562	0.0134608
765.640	0.0133430
765.718	0.0131193
765.796	0.0128175
765.874	0.0125531
765.953	0.0123108
766.031	0.0120408
766.109	0.0117290
766.187	0.0115778
766.265	0.0115441
766.343	0.0114613
766.421	0.0116103
766.499	0.0117285
766.578	0.0121655
766.656	0.0126266
766.734	0.0128619
766.812	0.0134329
766.890	0.0140266
766.968	0.0147240
767.046	0.0153416
767.124	0.0162141
767.203	0.0170595
767.281	0.0175407
767.359	0.0184260
767.437	0.0190086
767.515	0.0196842
767.593	0.0203825
767.671	0.0209475
767.749	0.0214601
767.828	0.0217723
767.906	0.0219547
767.984	0.0220653
768.062	0.0219158
768.140	0.0216595
768.218	0.0211250
768.296	0.0206749
768.374	0.0202657
768.453	0.0197079
768.531	0.0191527
768.609	0.0187258
768.687	0.0182803
768.765	0.0179398
768.843	0.0177148
768.921	0.0173004
768.999	0.0169826
769.078	0.0167513
769.156	0.0166324
769.234	0.0163403
769.312	0.0161454
769.390	0.0159576
769.468	0.0159785
769.546	0.0159789
769.624	0.0158685
769.703	0.0157639
769.781	0.0158633
769.859	0.0156725
769.937	0.0155794
770.015	0.0153466
770.093	0.0148999
770.171	0.0144135
770.249	0.0138965
770.328	0.0132926
770.406	0.0127331
770.484	0.0120721
770.562	0.0113874
770.640	0.0111008
770.718	0.0106944
770.796	0.0102070
770.874	0.00988640
770.953	0.00998550
771.031	0.0102549
771.109	0.0105108
771.187	0.0110017
771.265	0.0115977
771.343	0.0124321
771.421	0.0134449
771.499	0.0143452
771.578	0.0152635
771.656	0.0162139
771.734	0.0170108
771.812	0.0178916
771.890	0.0186811
771.968	0.0195225
772.046	0.0200133
772.124	0.0206351
772.203	0.0212678
772.281	0.0216628
772.359	0.0220112
772.437	0.0221470
772.515	0.0225761
772.593	0.0223788
772.671	0.0222092
772.749	0.0219607
772.828	0.0217760
772.906	0.0213863
772.984	0.0208387
773.062	0.0204364
773.140	0.0199506
773.218	0.0196143
773.296	0.0191035
773.374	0.0183894
773.453	0.0180530
773.531	0.0175607
773.609	0.0168573
773.687	0.0163464
773.765	0.0156027
773.843	0.0152541
773.921	0.0147310
773.999	0.0141198
774.078	0.0137715
774.156	0.0132411
774.234	0.0129401
774.312	0.0127643
774.390	0.0125494
774.468	0.0122426
774.546	0.0121251
774.624	0.0118990
774.703	0.0117622
774.781	0.0115974
774.859	0.0116614
774.937	0.0116366
775.015	0.0117184
775.093	0.0115652
775.171	0.0118807
775.249	0.0120815
775.328	0.0123344
775.406	0.0127219
775.484	0.0131087
775.562	0.0139044
775.640	0.0145186
775.718	0.0154462
775.796	0.0162240
775.874	0.0172834
775.953	0.0181582
776.031	0.0191016
776.109	0.0198444
776.187	0.0206483
776.265	0.0213461
776.343	0.0215807
776.421	0.0216926
776.499	0.0219862
776.578	0.0220566
776.656	0.0216629
776.734	0.0212508
776.812	0.0207935
776.890	0.0204182
776.968	0.0198688
777.046	0.0190667
777.124	0.0184882
777.203	0.0178309
777.281	0.0173143
777.359	0.0166428
777.437	0.0161957
777.515	0.0157841
777.593	0.0154177
777.671	0.0151984
777.749	0.0149178
777.828	0.0147742
777.906	0.0145618
777.984	0.0142190
778.062	0.0143060
778.140	0.0142493
778.218	0.0142376
778.296	0.0144074
778.374	0.0142774
778.453	0.0143213
778.531	0.0143652
778.609	0.0143562
778.687	0.0142204
778.765	0.0141523
778.843	0.0141451
778.921	0.0143532
778.999	0.0143119
779.078	0.0141972
779.156	0.0140700
779.234	0.0139607
779.312	0.0140874
779.390	0.0142271
779.468	0.0142354
779.546	0.0143887
779.624	0.0145535
779.703	0.0148342
779.781	0.0149400
779.859	0.0154173
779.937	0.0159460
780.015	0.0164151
780.093	0.0170562
780.171	0.0175979
780.249	0.0182234
780.328	0.0188787
780.406	0.0194022
780.484	0.0198618
780.562	0.0201817
780.640	0.0205368
780.718	0.0208423
780.796	0.0211438
780.874	0.0211317
780.953	0.0209913
781.031	0.0209430
781.109	0.0206474
781.187	0.0200759
781.265	0.0195025
781.343	0.0189449
781.421	0.0182041
781.499	0.0174914
781.578	0.0167587
781.656	0.0159808
781.734	0.0154668
781.812	0.0146542
781.890	0.0140029
781.968	0.0137019
782.046	0.0131700
782.124	0.0129977
782.203	0.0128489
782.281	0.0126340
782.359	0.0126983
782.437	0.0126587
782.515	0.0128023
782.593	0.0130592
782.671	0.0131407
782.749	0.0135650
782.828	0.0138153
782.906	0.0141656
782.984	0.0144933
783.062	0.0146790
783.140	0.0147802
783.218	0.0149093
783.296	0.0151837
783.374	0.0152348
783.453	0.0154619
783.531	0.0155693
783.609	0.0157159
783.687	0.0157394
783.765	0.0159959
783.843	0.0161323
783.921	0.0163940
783.999	0.0166238
784.078	0.0166585
784.156	0.0168785
784.234	0.0170433
784.312	0.0173872
784.390	0.0176981
784.468	0.0178513
784.546	0.0181685
784.624	0.0183438
784.703	0.0187503
784.781	0.0189518
784.859	0.0193081
784.937	0.0194139
785.015	0.0195679
785.093	0.0195025
785.171	0.0197445
785.249	0.0196297
785.328	0.0194598
785.406	0.0193375
785.484	0.0191483
785.562	0.0187885
785.640	0.0183728
785.718	0.0180541
785.796	0.0175484
785.874	0.0171149
785.953	0.0165057
786.031	0.0158351
786.109	0.0153864
786.187	0.0147668
786.265	0.0141426
786.343	0.0138621
786.421	0.0135341
786.499	0.0131016
786.578	0.0126959
786.656	0.0126523
786.734	0.0127785
786.812	0.0127231
786.890	0.0129591
786.968	0.0130276
787.046	0.0133246
787.124	0.0136369
787.203	0.0141362
787.281	0.0146368
787.359	0.0149500
787.437	0.0154193
787.515	0.0156981
787.593	0.0163166
787.671	0.0164228
787.749	0.0167406
787.828	0.0171014
787.906	0.0171553
787.984	0.0172275
788.062	0.0174524
788.140	0.0174125
788.218	0.0173528
788.296	0.0173895
788.374	0.0172684
788.453	0.0171577
788.531	0.0171103
788.609	0.0169230
788.687	0.0167142
788.765	0.0167672
788.843	0.0167731
788.921	0.0168742
788.999	0.0167242
789.078	0.0168998
789.156	0.0169942
789.234	0.0170943
789.312	0.0170258
789.390	0.0171000
789.468	0.0170483
789.546	0.0168285
789.624	0.0168407
789.703	0.0168928
789.781	0.0167847
789.859	0.0166741
789.937	0.0167444
790.015	0.0166633
790.093	0.0166750
790.171	0.0164862
790.249	0.0164073
790.328	0.0163290
790.406	0.0162980
790.484	0.0160997
790.562	0.0160049
790.640	0.0159106
790.718	0.0159180
790.796	0.0158821
790.874	0.0157843
790.953	0.0157426
791.031	0.0157780
791.109	0.0159642
791.187	0.0158085
791.265	0.0157662
791.343	0.0159121
791.421	0.0157750
791.499	0.0158630
791.578	0.0159949
791.656	0.0162218
791.734	0.0162526
791.812	0.0164468
791.890	0.0164869
791.968	0.0164965
792.046	0.0166419
792.124	0.0167209
792.203	0.0167576
792.281	0.0167533
792.359	0.0167557
792.437	0.0167101
792.515	0.0165996
792.593	0.0166802
792.671	0.0165863
792.749	0.0165878
792.828	0.0163351
792.906	0.0162164
792.984	0.0160432
793.062	0.0158721
793.140	0.0158595
793.218	0.0157140
793.296	0.0157315
793.374	0.0156799
793.453	0.0155935
793.531	0.0155583
793.609	0.0155986
793.687	0.0156281
793.765	0.0157352
793.843	0.0156882
793.921	0.0157235
793.999	0.0159602
794.078	0.0159614
794.156	0.0161271
794.234	0.0160860
794.312	0.0160549
794.390	0.0162180
794.468	0.0162549
794.546	0.0163490
794.624	0.0164877
794.703	0.0165228
794.781	0.0166013
794.859	0.0167201
794.937	0.0166910
795.015	0.0165524
795.093	0.0164641
795.171	0.0165672
795.249	0.0165295
795.328	0.0164925
795.406	0.0162872
795.484	0.0162630
795.562	0.0162180
795.640	0.0163538
795.718	0.0162280
795.796	0.0161314
795.874	0.0161813
795.953	0.0163351
796.031	0.0163351
796.109	0.0164579
796.187	0.0165126
796.265	0.0166623
796.343	0.0168645
796.421	0.0168233
796.499	0.0169212
796.578	0.0168510
796.656	0.0170000
796.734	0.0170159
796.812	0.0169466
796.890	0.0168247
796.968	0.0167085
797.046	0.0166932
797.124	0.0165327
797.203	0.0165320
797.281	0.0162678
797.359	0.0161369
797.437	0.0160050
797.515	0.0161832
797.593	0.0161416
797.671	0.0161496
797.749	0.0159618
797.828	0.0160957
797.906	0.0160934
797.984	0.0160867
798.062	0.0160893
798.140	0.0160796
798.218	0.0160230
798.296	0.0159382
798.374	0.0159197
798.453	0.0159086
798.531	0.0159154
798.609	0.0158574
798.687	0.0159315
798.765	0.0159963
798.843	0.0159478
798.921	0.0158505
798.999	0.0158231
799.078	0.0158624
799.156	0.0159950
799.234	0.0159914
799.312	0.0160777
799.390	0.0161940
799.468	0.0161988
799.546	0.0163470
799.624	0.0163493
799.703	0.0163470
799.781	0.0164372
799.859	0.0163895
799.937	0.0163786
800.015	0.0162375
800.093	0.0161976
800.171	0.0161556
800.249	0.0160786
800.328	0.0160847
800.406	0.0159812
800.484	0.0160218
800.562	0.0159286
800.640	0.0160589
800.718	0.0160038
800.796	0.0161631
800.874	0.0162299
800.953	0.0161543
801.031	0.0163351
801.109	0.0164366
801.187	0.0162830
801.265	0.0164682
801.343	0.0165706
801.421	0.0165616
801.499	0.0166103
801.578	0.0165464
801.656	0.0165987
801.734	0.0166757
801.812	0.0167658
801.890	0.0166067
801.968	0.0165701
802.046	0.0165634
802.124	0.0167111
802.203	0.0166668
802.281	0.0165231
802.359	0.0165444
802.437	0.0165402
802.515	0.0165031
802.593	0.0164133
802.671	0.0164145
802.749	0.0164813
802.828	0.0163618
802.906	0.0163199
802.984	0.0163659
803.062	0.0163888
803.140	0.0163293
803.218	0.0164141
803.296	0.0163924
803.374	0.0163605
803.453	0.0162809
803.531	0.0164298
803.609	0.0164565
803.687	0.0165416
803.765	0.0164362
803.843	0.0162846
803.921	0.0163853
803.999	0.0162680
804.078	0.0162620
804.156	0.0162156
804.234	0.0161023
804.312	0.0160266
804.390	0.0158797
804.468	0.0159863
804.546	0.0158025
804.624	0.0157256
804.703	0.0158570
804.781	0.0158521
804.859	0.0158659
804.937	0.0159188
805.015	0.0159987
805.093	0.0158659
805.171	0.0160828
805.249	0.0160693
805.328	0.0159669
805.406	0.0161094
805.484	0.0163558
805.562	0.0163931
805.640	0.0163824
805.718	0.0164262
805.796	0.0164729
805.874	0.0163911
805.953	0.0164275
806.031	0.0164304
806.109	0.0163399
806.187	0.0163443
806.265	0.0163233
806.343	0.0163433
806.421	0.0163501
806.499	0.0162907
806.578	0.0163297
806.656	0.0163946
806.734	0.0162523
806.812	0.0162092
806.890	0.0163189
806.968	0.0163080
807.046	0.0162397
807.124	0.0162109
807.203	0.0162485
807.281	0.0162623
807.359	0.0162986
807.437	0.0162902
807.515	0.0162810
807.593	0.0162874
807.671	0.0163244
807.749	0.0162392
807.828	0.0161462
807.906	0.0162849
807.984	0.0162649
808.062	0.0162287
808.140	0.0163375
808.218	0.0164800
808.296	0.0164769
808.374	0.0165282
808.453	0.0163903
808.531	0.0164555
808.609	0.0165552
808.687	0.0167578
808.765	0.0165457
808.843	0.0166007
808.921	0.0167127
808.999	0.0167396
809.078	0.0166811
809.156	0.0167293
809.234	0.0167795
809.312	0.0168161
809.390	0.0166753
809.468	0.0166647
809.546	0.0165009
809.624	0.0166132
809.703	0.0164582
809.781	0.0163525
809.859	0.0163341
809.937	0.0162481
810.015	0.0160583
810.093	0.0160466
810.171	0.0159842
810.249	0.0158779
810.328	0.0157825
810.406	0.0158154
810.484	0.0157825
810.562	0.0157961
810.640	0.0159046
810.718	0.0158913
810.796	0.0159059
810.874	0.0160854
810.953	0.0160088
811.031	0.0161391
811.109	0.0162568
811.187	0.0163372
811.265	0.0164624
811.343	0.0164667
811.421	0.0164630
811.499	0.0166306
811.578	0.0165089
811.656	0.0165563
811.734	0.0165462
811.812	0.0164092
811.890	0.0165315
811.968	0.0163940
812.046	0.0163590
812.124	0.0165016
812.203	0.0164296
812.281	0.0163227
812.359	0.0163010
812.437	0.0163635
812.515	0.0162107
812.593	0.0163847
812.671	0.0162492
812.749	0.0161565
812.828	0.0161615
812.906	0.0163736
812.984	0.0162102
813.062	0.0162366
813.140	0.0161937
813.218	0.0161735
813.296	0.0162096
813.374	0.0163505
813.453	0.0160737
813.531	0.0162643
813.609	0.0161336
813.687	0.0161073
813.765	0.0161256
813.843	0.0161519
813.921	0.0161627
813.999	0.0163105
814.078	0.0161012
814.156	0.0162106
814.234	0.0162157
814.312	0.0163766
814.390	0.0164098
814.468	0.0164687
814.546	0.0163074
814.624	0.0164059
814.703	0.0163673
814.781	0.0164139
814.859	0.0163538
814.937	0.0163313
815.015	0.0163652
815.093	0.0163727
815.171	0.0164313
815.249	0.0163606
815.328	0.0163052
815.406	0.0165350
815.484	0.0165775
815.562	0.0165375
815.640	0.0165245
815.718	0.0164947
815.796	0.0166160
815.874	0.0166677
815.953	0.0165193
816.031	0.0165965
816.109	0.0165544
816.187	0.0166523
816.265	0.0166271
816.343	0.0166769
816.421	0.0167412
816.499	0.0165213
816.578	0.0165694
816.656	0.0164806
816.734	0.0163826
816.812	0.0163840
816.890	0.0163305
816.968	0.0162140
817.046	0.0161815
817.124	0.0161822
817.203	0.0159388
817.281	0.0160143
817.359	0.0159768
817.437	0.0160089
817.515	0.0157979
817.593	0.0157513
817.671	0.0159208
817.749	0.0158895
817.828	0.0158751
817.906	0.0158996
817.984	0.0159863
818.062	0.0159786
818.140	0.0158578
818.218	0.0159254
818.296	0.0160216
818.374	0.0162130
818.453	0.0160316
818.531	0.0161468
818.609	0.0162782
818.687	0.0163039
818.765	0.0160874
818.843	0.0163097
818.921	0.0162467
818.999	0.0161826
819.078	0.0163220
819.156	0.0161598
819.234	0.0162196
819.312	0.0162504
819.390	0.0162146
819.468	0.0162093
819.546	0.0162323
819.624	0.0161344
819.703	0.0162791
819.781	0.0162279
819.859	0.0162408
819.937	0.0163063
820.015	0.0162422
820.093	0.0161694
820.171	0.0163807
820.249	0.0163103
820.328	0.0164034
820.406	0.0164737
820.484	0.0166322
820.562	0.0164713
820.640	0.0165449
820.718	0.0165645
820.796	0.0166660
820.874	0.0166447
820.953	0.0167579
821.031	0.0166938
821.109	0.0167523
821.187	0.0167429
821.265	0.0165933
821.343	0.0166862
821.421	0.0166357
821.499	0.0166363
821.578	0.0166838
821.656	0.0166214
821.734	0.0165017
821.812	0.0165938
821.890	0.0164869
821.968	0.0163011
822.046	0.0163042
822.124	0.0163423
822.203	0.0163794
822.281	0.0162722
822.359	0.0162353
822.437	0.0162130
822.515	0.0160390
822.593	0.0160419
822.671	0.0159699
822.749	0.0160322
822.828	0.0158820
822.906	0.0160337
822.984	0.0161463
823.062	0.0159876
823.140	0.0159963
823.218	0.0161343
823.296	0.0160295
823.374	0.0160004
823.453	0.0160410
823.531	0.0159962
823.609	0.0159772
823.687	0.0159331
823.765	0.0159732
823.843	0.0159856
823.921	0.0159594
823.999	0.0159349
824.078	0.0157974
824.156	0.0160828
824.234	0.0161028
824.312	0.0161372
824.390	0.0160692
824.468	0.0162322
824.546	0.0162411
824.624	0.0162987
824.703	0.0163816
824.781	0.0164453
824.859	0.0164487
824.937	0.0164843
825.015	0.0165739
825.093	0.0166930
825.171	0.0166632
825.249	0.0166067
825.328	0.0166727
825.406	0.0165510
825.484	0.0163559
825.562	0.0165920
825.640	0.0164296
825.718	0.0162924
825.796	0.0163559
825.874	0.0162444
825.953	0.0162293
826.031	0.0162522
826.109	0.0163585
826.187	0.0161793
826.265	0.0161520
826.343	0.0162629
826.421	0.0161837
826.499	0.0159831
826.578	0.0162421
826.656	0.0163856
826.734	0.0163383
826.812	0.0162619
826.890	0.0161913
826.968	0.0162045
827.046	0.0163083
827.124	0.0162986
827.203	0.0163659
827.281	0.0163873
827.359	0.0164346
827.437	0.0163167
827.515	0.0163773
827.593	0.0164062
827.671	0.0165089
827.749	0.0164699
827.828	0.0164718
827.906	0.0163494
827.984	0.0162988
828.062	0.0163998
828.140	0.0164490
828.218	0.0163481
828.296	0.0164579
828.374	0.0163710
828.453	0.0165236
828.531	0.0164507
828.609	0.0164411
828.687	0.0164256
828.765	0.0164703
828.843	0.0164999
828.921	0.0164827
828.999	0.0164952
829.078	0.0163765
829.156	0.0163478
829.234	0.0161655
829.312	0.0161646
829.390	0.0161865
829.468	0.0162709
829.546	0.0160355
829.624	0.0158990
829.703	0.0159150
829.781	0.0159406
829.859	0.0160139
829.937	0.0159757
830.015	0.0159726
830.093	0.0158968
830.171	0.0160466
830.249	0.0160711
830.328	0.0160038
830.406	0.0160831
830.484	0.0161410
830.562	0.0161852
830.640	0.0162839
830.718	0.0161442
830.796	0.0161790
830.874	0.0161508
830.953	0.0163048
831.031	0.0163647
831.109	0.0163145
831.187	0.0161701
831.265	0.0162809
831.343	0.0162566
831.421	0.0161372
831.499	0.0160627
831.578	0.0162398
831.656	0.0161861
831.734	0.0162052
831.812	0.0161427
831.890	0.0161060
831.968	0.0162490
832.046	0.0161490
832.124	0.0162017
832.203	0.0162067
832.281	0.0164127
832.359	0.0163360
832.437	0.0162064
832.515	0.0162292
832.593	0.0163940
832.671	0.0163797
832.749	0.0162666
832.828	0.0164711
832.906	0.0164793
832.984	0.0164404
833.062	0.0165096
833.140	0.0164541
833.218	0.0163649
833.296	0.0164803
833.374	0.0166643
833.453	0.0165353
833.531	0.0163782
833.609	0.0165996
833.687	0.0165376
833.765	0.0164912
833.843	0.0165058
833.921	0.0165275
833.999	0.0165382
834.078	0.0164806
834.156	0.0165157
834.234	0.0165130
834.312	0.0163762
834.390	0.0163908
834.468	0.0163301
834.546	0.0162585
834.624	0.0163824
834.703	0.0162874
834.781	0.0162871
834.859	0.0163033
834.937	0.0161745
835.015	0.0161605
835.093	0.0160146
835.171	0.0161021
835.249	0.0159267
835.328	0.0159151
835.406	0.0160542
835.484	0.0159276
835.562	0.0157663
835.640	0.0158433
835.718	0.0158817
835.796	0.0158070
835.874	0.0159560
835.953	0.0158289
836.031	0.0158820
836.109	0.0158414
836.187	0.0159171
836.265	0.0159924
836.343	0.0159622
836.421	0.0160387
836.499	0.0161015
836.578	0.0162258
836.656	0.0164163
836.734	0.0163383
836.812	0.0163226
836.890	0.0164722
836.968	0.0165997
837.046	0.0165900
837.124	0.0164717
837.203	0.0167104
837.281	0.0166129
837.359	0.0166846
837.437	0.0166680
837.515	0.0165402
837.593	0.0165511
837.671	0.0165280
837.749	0.0166352
837.828	0.0164858
837.906	0.0164500
837.984	0.0163796
838.062	0.0164478
838.140	0.0164436
838.218	0.0164421
838.296	0.0163805
838.374	0.0163322
838.453	0.0163649
838.531	0.0165253
838.609	0.0164769
838.687	0.0164113
838.765	0.0164302
838.843	0.0164388
838.921	0.0165403
838.999	0.0162619
839.078	0.0161760
839.156	0.0162955
839.234	0.0162480
839.312	0.0161415
839.390	0.0161372
839.468	0.0162214
839.546	0.0160265
839.624	0.0161310
839.703	0.0159488
839.781	0.0160649
839.859	0.0159284
839.937	0.0160957
840.015	0.0159470
840.093	0.0161263
840.171	0.0160962
840.249	0.0160491
840.328	0.0159547
840.406	0.0161362
840.484	0.0162454
840.562	0.0160732
840.640	0.0160783
840.718	0.0161608
840.796	0.0163175
840.874	0.0163480
840.953	0.0162016
841.031	0.0163918
841.109	0.0163238
841.187	0.0163030
841.265	0.0162054
841.343	0.0162901
841.421	0.0164148
841.499	0.0162910
841.578	0.0163894
841.656	0.0161305
841.734	0.0160908
841.812	0.0162624
841.890	0.0162292
841.968	0.0160820
842.046	0.0161506
842.124	0.0161904
842.203	0.0161097
842.281	0.0162473
842.359	0.0161222
842.437	0.0163188
842.515	0.0162960
842.593	0.0163120
842.671	0.0163760
842.749	0.0164109
842.828	0.0164335
842.906	0.0164894
842.984	0.0165144
843.062	0.0165965
843.140	0.0166212
843.218	0.0166916
843.296	0.0165854
843.374	0.0164641
843.453	0.0163973
843.531	0.0163876
843.609	0.0162309
843.687	0.0161842
843.765	0.0162997
843.843	0.0161201
843.921	0.0161057
843.999	0.0160178
844.078	0.0159000
844.156	0.0159161
844.234	0.0158931
844.312	0.0158840
844.390	0.0160256
844.468	0.0159061
844.546	0.0159731
844.624	0.0160781
844.703	0.0161170
844.781	0.0160580
844.859	0.0161837
844.937	0.0162095
845.015	0.0161990
845.093	0.0163242
845.171	0.0162453
845.249	0.0163286
845.328	0.0164227
845.406	0.0164735
845.484	0.0164194
845.562	0.0163693
845.640	0.0163538
845.718	0.0162460
845.796	0.0162463
845.874	0.0162238
845.953	0.0162941
846.031	0.0162209
846.109	0.0161584
846.187	0.0163040
846.265	0.0162233
846.343	0.0161972
846.421	0.0161974
846.499	0.0162904
846.578	0.0163313
846.656	0.0163259
846.734	0.0163897
846.812	0.0163551
846.890	0.0165047
846.968	0.0163148
847.046	0.0165514
847.124	0.0166149
847.203	0.0165786
847.281	0.0164446
847.359	0.0165367
847.437	0.0164722
847.515	0.0165054
847.593	0.0165166
847.671	0.0164706
847.749	0.0163958
847.828	0.0163203
847.906	0.0163253
847.984	0.0162243
848.062	0.0162392
848.140	0.0162239
848.218	0.0160429
848.296	0.0160980
848.374	0.0161684
848.453	0.0162370
848.531	0.0159198
848.609	0.0160593
848.687	0.0162015
848.765	0.0160642
848.843	0.0161799
848.921	0.0162392
848.999	0.0161845
849.078	0.0163313
849.156	0.0162117
849.234	0.0161463
849.312	0.0162120
849.390	0.0163121
849.468	0.0162584
849.546	0.0163491
849.624	0.0163540
849.703	0.0162440
849.781	0.0163804
849.859	0.0162094
849.937	0.0162713
850.015	0.0161221
850.093	0.0161863
850.171	0.0160682
850.249	0.0160308
850.328	0.0162531
850.406	0.0161201
850.484	0.0160918
850.562	0.0161017
850.640	0.0160429
850.718	0.0159481
850.796	0.0160122
850.874	0.0161734
850.953	0.0162241
851.031	0.0161108
851.109	0.0162313
851.187	0.0162122
851.265	0.0163059
851.343	0.0164124
851.421	0.0162626
851.499	0.0164027
851.578	0.0164562
851.656	0.0163420
851.734	0.0164665
851.812	0.0161707
851.890	0.0163521
851.968	0.0163477
852.046	0.0163982
852.124	0.0164552
852.203	0.0163039
852.281	0.0164290
852.359	0.0164047
852.437	0.0164484
852.515	0.0164507
852.593	0.0163903
852.671	0.0164259
852.749	0.0164537
852.828	0.0163434
852.906	0.0163611
852.984	0.0162757
853.062	0.0163998
853.140	0.0163053
853.218	0.0163849
853.296	0.0162715
853.374	0.0163548
853.453	0.0164468
853.531	0.0161877
853.609	0.0164034
853.687	0.0163413
853.765	0.0163926
853.843	0.0163802
853.921	0.0162621
853.999	0.0162593
854.078	0.0160110
854.156	0.0160636
854.234	0.0159750
854.312	0.0158808
854.390	0.0158138
854.468	0.0158139
854.546	0.0158531
854.624	0.0155975
854.703	0.0157472
854.781	0.0157371
854.859	0.0156174
854.937	0.0156218
855.015	0.0157693
855.093	0.0156808
855.171	0.0158003
855.249	0.0159609
855.328	0.0159706
855.406	0.0160248
855.484	0.0162441
855.562	0.0163873
855.640	0.0163403
855.718	0.0165013
855.796	0.0166284
855.874	0.0166365
855.953	0.0167218
856.031	0.0166502
856.109	0.0168651
856.187	0.0169402
856.265	0.0169282
856.343	0.0169595
856.421	0.0167602
856.499	0.0168919
856.578	0.0168473
856.656	0.0168957
856.734	0.0167950
856.812	0.0167846
856.890	0.0167647
856.968	0.0167499
857.046	0.0166938
857.124	0.0167006
857.203	0.0165633
857.281	0.0165488
857.359	0.0165527
857.437	0.0164400
857.515	0.0163741
857.593	0.0162186
857.671	0.0162602
857.749	0.0161124
857.828	0.0160366
857.906	0.0158238
857.984	0.0156468
858.062	0.0156950
858.140	0.0156179
858.218	0.0155927
858.296	0.0153458
858.374	0.0151935
858.453	0.0152785
858.531	0.0151845
858.609	0.0151147
858.687	0.0151050
858.765	0.0151477
858.843	0.0151730
858.921	0.0152021
858.999	0.0153844
859.078	0.0153156
859.156	0.0154288
859.234	0.0157994
859.312	0.0160295
859.390	0.0160211
859.468	0.0162659
859.546	0.0164001
859.624	0.0166444
859.703	0.0168204
859.781	0.0170193
859.859	0.0172070
859.937	0.0172644
860.015	0.0172822
860.093	0.0174700
860.171	0.0173354
860.249	0.0174165
860.328	0.0173979
860.406	0.0174405
860.484	0.0174474
860.562	0.0173410
860.640	0.0172195
860.718	0.0173305
860.796	0.0172032
860.874	0.0169960
860.953	0.0169852
861.031	0.0169776
861.109	0.0168056
861.187	0.0166360
861.265	0.0166318
861.343	0.0166306
861.421	0.0164493
861.499	0.0163949
861.578	0.0163449
861.656	0.0160896
861.734	0.0160168
861.812	0.0160563
861.890	0.0161205
861.968	0.0159879
862.046	0.0159074
862.124	0.0158851
862.203	0.0156877
862.281	0.0155421
862.359	0.0155365
862.437	0.0156358
862.515	0.0154144
862.593	0.0153481
862.671	0.0153556
862.749	0.0151213
862.828	0.0153485
862.906	0.0150414
862.984	0.0152940
863.062	0.0152719
863.140	0.0152103
863.218	0.0153038
863.296	0.0154917
863.374	0.0155241
863.453	0.0153879
863.531	0.0157221
863.609	0.0158903
863.687	0.0160995
863.765	0.0161441
863.843	0.0164606
863.921	0.0166335
863.999	0.0167427
864.078	0.0168821
864.156	0.0170013
864.234	0.0171586
864.312	0.0172765
864.390	0.0173729
864.468	0.0174392
864.546	0.0175015
864.624	0.0175392
864.703	0.0172884
864.781	0.0174186
864.859	0.0175426
864.937	0.0173196
865.015	0.0174012
865.093	0.0173358
865.171	0.0172005
865.249	0.0172116
865.328	0.0169586
865.406	0.0168394
865.484	0.0168005
865.562	0.0165772
865.640	0.0164307
865.718	0.0163632
865.796	0.0162204
865.874	0.0160275
865.953	0.0159475
866.031	0.0159399
866.109	0.0159663
866.187	0.0157687
866.265	0.0157813
866.343	0.0157661
866.421	0.0157835
866.499	0.0159311
866.578	0.0158070
866.656	0.0157502
866.734	0.0157279
866.812	0.0158119
866.890	0.0157783
866.968	0.0156804
867.046	0.0155830
867.124	0.0154859
867.203	0.0155616
867.281	0.0156083
867.359	0.0154392
867.437	0.0155253
867.515	0.0154681
867.593	0.0153946
867.671	0.0154674
867.749	0.0155824
867.828	0.0156159
867.906	0.0157374
867.984	0.0158556
868.062	0.0159657
868.140	0.0160214
868.218	0.0163608
868.296	0.0164742
868.374	0.0166604
868.453	0.0167549
868.531	0.0168982
868.609	0.0169917
868.687	0.0170704
868.765	0.0172382
868.843	0.0173388
868.921	0.0171852
868.999	0.0172153
869.078	0.0172913
869.156	0.0172591
869.234	0.0171706
869.312	0.0169749
869.390	0.0170025
869.468	0.0169364
869.546	0.0168092
869.624	0.0168458
869.703	0.0168034
869.781	0.0167480
869.859	0.0165246
869.937	0.0165022
870.015	0.0165216
870.093	0.0164087
870.171	0.0162827
870.249	0.0161301
870.328	0.0161655
870.406	0.0159443
870.484	0.0160680
870.562	0.0157988
870.640	0.0158217
870.718	0.0157885
870.796	0.0158444
870.874	0.0157717
870.953	0.0155781
871.031	0.0157304
871.109	0.0157245
871.187	0.0154783
871.265	0.0155795
871.343	0.0156704
871.421	0.0157281
871.499	0.0156841
871.578	0.0156610
871.656	0.0157133
871.734	0.0158672
871.812	0.0157603
871.890	0.0157555
871.968	0.0159788
872.046	0.0160015
872.124	0.0158270
872.203	0.0159863
872.281	0.0160995
872.359	0.0162312
872.437	0.0162795
872.515	0.0165633
872.593	0.0164919
872.671	0.0164637
872.749	0.0165907
872.828	0.0167716
872.906	0.0167744
872.984	0.0169328
873.062	0.0168661
873.140	0.0169682
873.218	0.0169696
873.296	0.0168445
873.374	0.0169255
873.453	0.0168741
873.531	0.0166972
873.609	0.0166550
873.687	0.0166772
873.765	0.0164528
873.843	0.0163861
873.921	0.0165108
873.999	0.0162540
874.078	0.0162827
874.156	0.0162150
874.234	0.0161243
874.312	0.0159978
874.390	0.0159753
874.468	0.0159039
874.546	0.0159794
874.624	0.0158549
874.703	0.0156939
874.781	0.0157005
874.859	0.0159155
874.937	0.0158135
875.015	0.0156983
875.093	0.0157777
875.171	0.0158480
875.249	0.0159141
875.328	0.0158788
875.406	0.0159164
875.484	0.0160037
875.562	0.0159341
875.640	0.0160606
875.718	0.0162176
875.796	0.0162841
875.874	0.0162110
875.953	0.0163766
876.031	0.0163335
876.109	0.0164463
876.187	0.0162888
876.265	0.0164970
876.343	0.0164128
876.421	0.0163526
876.499	0.0165328
876.578	0.0166222
876.656	0.0165466
876.734	0.0164888
876.812	0.0165446
876.890	0.0164673
876.968	0.0163409
877.046	0.0164539
877.124	0.0165942
877.203	0.0166243
877.281	0.0167258
877.359	0.0164575
877.437	0.0165288
877.515	0.0164752
877.593	0.0165051
877.671	0.0164249
877.749	0.0163650
877.828	0.0165229
877.906	0.0164642
877.984	0.0162014
878.062	0.0162393
878.140	0.0161440
878.218	0.0161057
878.296	0.0160215
878.374	0.0160529
878.453	0.0159358
878.531	0.0160973
878.609	0.0160735
878.687	0.0158047
878.765	0.0159064
878.843	0.0158598
878.921	0.0157278
878.999	0.0158140
879.078	0.0156852
879.156	0.0156275
879.234	0.0157953
879.312	0.0157711
879.390	0.0157060
879.468	0.0156944
879.546	0.0158304
879.624	0.0159877
879.703	0.0158261
879.781	0.0159612
879.859	0.0160102
879.937	0.0160432
880.015	0.0163032
880.093	0.0164502
880.171	0.0164306
880.249	0.0163976
880.328	0.0165623
880.406	0.0165854
880.484	0.0167144
880.562	0.0168179
880.640	0.0167516
880.718	0.0168056
880.796	0.0168143
880.874	0.0167136
880.953	0.0167235
881.031	0.0167453
881.109	0.0166994
881.187	0.0165211
881.265	0.0164990
881.343	0.0164347
881.421	0.0165197
881.499	0.0164669
881.578	0.0163167
881.656	0.0163426
881.734	0.0161697
881.812	0.0163471
881.890	0.0163159
881.968	0.0163792
882.046	0.0163793
882.124	0.0162527
882.203	0.0162049
882.281	0.0162593
882.359	0.0162429
882.437	0.0163222
882.515	0.0163214
882.593	0.0161281
882.671	0.0160333
882.749	0.0160722
882.828	0.0161485
882.906	0.0160046
882.984	0.0158424
883.062	0.0159513
883.140	0.0159327
883.218	0.0158832
883.296	0.0159473
883.374	0.0159541
883.453	0.0157928
883.531	0.0159446
883.609	0.0158760
883.687	0.0160938
883.765	0.0161649
883.843	0.0160160
883.921	0.0160353
883.999	0.0160303
884.078	0.0162192
884.156	0.0162865
884.234	0.0162656
884.312	0.0162566
884.390	0.0163024
884.468	0.0164125
884.546	0.0163758
884.624	0.0166040
884.703	0.0163689
884.781	0.0164707
884.859	0.0164537
884.937	0.0164312
885.015	0.0165709
885.093	0.0164663
885.171	0.0164085
885.249	0.0164317
885.328	0.0165977
885.406	0.0164999
885.484	0.0164125
885.562	0.0164488
885.640	0.0163900
885.718	0.0164293
885.796	0.0164641
885.874	0.0163666
885.953	0.0163257
886.031	0.0163969
886.109	0.0163443
886.187	0.0162460
886.265	0.0162469
886.343	0.0162708
886.421	0.0163310
886.499	0.0162830
886.578	0.0161331
886.656	0.0163171
886.734	0.0164539
886.812	0.0163908
886.890	0.0160532
886.968	0.0162267
887.046	0.0164662
887.124	0.0164643
887.203	0.0163956
887.281	0.0162994
887.359	0.0162027
887.437	0.0163338
887.515	0.0162748
887.593	0.0162451
887.671	0.0163368
887.749	0.0163775
887.828	0.0164243
887.906	0.0163279
887.984	0.0162453
888.062	0.0163198
888.140	0.0161909
888.218	0.0163705
888.296	0.0163334
888.374	0.0161446
888.453	0.0162667
888.531	0.0163314
888.609	0.0162973
888.687	0.0163995
888.765	0.0163522
888.843	0.0163899
888.921	0.0162395
888.999	0.0162911
889.078	0.0163602
889.156	0.0161580
889.234	0.0162492
889.312	0.0162744
889.390	0.0161607
889.468	0.0160403
889.546	0.0162888
889.624	0.0163651
889.703	0.0161034
889.781	0.0162053
889.859	0.0161488
889.937	0.0162543
890.015	0.0162241
890.093	0.0162035
890.171	0.0161069
890.249	0.0161633
890.328	0.0161267
890.406	0.0160329
890.484	0.0161185
890.562	0.0161967
890.640	0.0163096
890.718	0.0163223
890.796	0.0162015
890.874	0.0162540
890.953	0.0161807
891.031	0.0162882
891.109	0.0164060
891.187	0.0162891
891.265	0.0163828
891.343	0.0163548
891.421	0.0164793
891.499	0.0165019
891.578	0.0164182
891.656	0.0163637
891.734	0.0164622
891.812	0.0163282
891.890	0.0163380
891.968	0.0162791
892.046	0.0162761
892.124	0.0162029
892.203	0.0163068
892.281	0.0163688
892.359	0.0162257
892.437	0.0161865
892.515	0.0162502
892.593	0.0162106
892.671	0.0164130
892.749	0.0163261
892.828	0.0163934
892.906	0.0163543
892.984	0.0164339
893.062	0.0163683
893.140	0.0162421
893.218	0.0163175
893.296	0.0163704
893.374	0.0164747
893.453	0.0162814
893.531	0.0163613
893.609	0.0163846
893.687	0.0162924
893.765	0.0163333
893.843	0.0162908
893.921	0.0161045
893.999	0.0162515
894.078	0.0163391
894.156	0.0161346
894.234	0.0161493
894.312	0.0160930
894.390	0.0163431
894.468	0.0161935
894.546	0.0160796
894.624	0.0160688
894.703	0.0161082
894.781	0.0161394
894.859	0.0162930
894.937	0.0161540
895.015	0.0160806
895.093	0.0160641
895.171	0.0161951
895.249	0.0162997
895.328	0.0161416
895.406	0.0161816
895.484	0.0162273
895.562	0.0162155
895.640	0.0161707
895.718	0.0162346
895.796	0.0161334
895.874	0.0162563
895.953	0.0162509
896.031	0.0161584
896.109	0.0160558
896.187	0.0161459
896.265	0.0161519
896.343	0.0161967
896.421	0.0160929
896.499	0.0160314
896.578	0.0161584
896.656	0.0161369
896.734	0.0160976
896.812	0.0161233
896.890	0.0161881
896.968	0.0162007
897.046	0.0162288
897.124	0.0162493
897.203	0.0163144
897.281	0.0163338
897.359	0.0163113
897.437	0.0165310
897.515	0.0164590
897.593	0.0164427
897.671	0.0165084
897.749	0.0164384
897.828	0.0164957
897.906	0.0164370
897.984	0.0163731
898.062	0.0163746
898.140	0.0163892
898.218	0.0164678
898.296	0.0164212
898.374	0.0162978
898.453	0.0162730
898.531	0.0162237
898.609	0.0162602
898.687	0.0161265
898.765	0.0162258
898.843	0.0161744
898.921	0.0160708
898.999	0.0161835
899.078	0.0162378
899.156	0.0160361
899.234	0.0162132
899.312	0.0160628
899.390	0.0161723
899.468	0.0162521
899.546	0.0160846
899.624	0.0162463
899.703	0.0161632
899.781	0.0162958
899.859	0.0162289
899.937	0.0161407
900.015	0.0161379
900.093	0.0162315
900.171	0.0161575
900.249	0.0161507
900.328	0.0161092
900.406	0.0161635
900.484	0.0161571
900.562	0.0162403
900.640	0.0163287
900.718	0.0161548
900.796	0.0161285
900.874	0.0161298
900.953	0.0161692
901.031	0.0161808
901.109	0.0162004
901.187	0.0162819
901.265	0.0163596
901.343	0.0164816
901.421	0.0163573
901.499	0.0163219
901.578	0.0163262
901.656	0.0164287
901.734	0.0165331
901.812	0.0164288
901.890	0.0164926
901.968	0.0165280
902.046	0.0165134
902.124	0.0164981
902.203	0.0164920
902.281	0.0163866
902.359	0.0162319
902.437	0.0163216
902.515	0.0163422
902.593	0.0162495
902.671	0.0161633
902.749	0.0160860
902.828	0.0159040
902.906	0.0159145
902.984	0.0158694
903.062	0.0160299
903.140	0.0159000
903.218	0.0158102
903.296	0.0158456
903.374	0.0159866
903.453	0.0159647
903.531	0.0157368
903.609	0.0158268
903.687	0.0158431
903.765	0.0159399
903.843	0.0160452
903.921	0.0159338
903.999	0.0160376
904.078	0.0161671
904.156	0.0162241
904.234	0.0160912
904.312	0.0161618
904.390	0.0162064
904.468	0.0161697
904.546	0.0163329
904.624	0.0164192
904.703	0.0164109
904.781	0.0163808
904.859	0.0163926
904.937	0.0163566
905.015	0.0163585
905.093	0.0162581
905.171	0.0162753
905.249	0.0164799
905.328	0.0164696
905.406	0.0165747
905.484	0.0165542
905.562	0.0164348
905.640	0.0165645
905.718	0.0167345
905.796	0.0166051
905.874	0.0166511
905.953	0.0167368
906.031	0.0166836
906.109	0.0167293
906.187	0.0166384
906.265	0.0166952
906.343	0.0166109
906.421	0.0165182
906.499	0.0165866
906.578	0.0166260
906.656	0.0165918
906.734	0.0165961
906.812	0.0163898
906.890	0.0162712
906.968	0.0162116
907.046	0.0160451
907.124	0.0160818
907.203	0.0161177
907.281	0.0160198
907.359	0.0158942
907.437	0.0158258
907.515	0.0157177
907.593	0.0156674
907.671	0.0157880
907.749	0.0158053
907.828	0.0157906
907.906	0.0159203
907.984	0.0159898
908.062	0.0160007
908.140	0.0160088
908.218	0.0161685
908.296	0.0162173
908.374	0.0163344
908.453	0.0163167
908.531	0.0163486
908.609	0.0162642
908.687	0.0163595
908.765	0.0163239
908.843	0.0164478
908.921	0.0163881
908.999	0.0164297
909.078	0.0162619
909.156	0.0162466
909.234	0.0163836
909.312	0.0162890
909.390	0.0162125
909.468	0.0162975
909.546	0.0162830
909.624	0.0163039
909.703	0.0162236
909.781	0.0161865
909.859	0.0162304
909.937	0.0162104
910.015	0.0164964
910.093	0.0164669
910.171	0.0163550
910.249	0.0165820
910.328	0.0165357
910.406	0.0164277
910.484	0.0165164
910.562	0.0165122
910.640	0.0164980
910.718	0.0164556
910.796	0.0164323
910.874	0.0164623
910.953	0.0163773
911.031	0.0163853
911.109	0.0162444
911.187	0.0161484
911.265	0.0162550
911.343	0.0162029
911.421	0.0162981
911.499	0.0160986
911.578	0.0159719
911.656	0.0161099
911.734	0.0160415
911.812	0.0161485
911.890	0.0161545
911.968	0.0161163
912.046	0.0161552
912.124	0.0162654
912.203	0.0162556
912.281	0.0162217
912.359	0.0163093
912.437	0.0163144
912.515	0.0164623
912.593	0.0165455
912.671	0.0165356
912.749	0.0165690
912.828	0.0164053
912.906	0.0164869
912.984	0.0165292
913.062	0.0165015
913.140	0.0164765
913.218	0.0164775
913.296	0.0164358
913.374	0.0163578
913.453	0.0163216
913.531	0.0162309
913.609	0.0163937
913.687	0.0163461
913.765	0.0163370
913.843	0.0161205
913.921	0.0162613
913.999	0.0162347
914.078	0.0161983
914.156	0.0162940
914.234	0.0162449
914.312	0.0162276
914.390	0.0161324
914.468	0.0161636
914.546	0.0164719
914.624	0.0162714
914.703	0.0162981
914.781	0.0163759
914.859	0.0162488
914.937	0.0165393
915.015	0.0164111
915.093	0.0163728
915.171	0.0163477
915.249	0.0162475
915.328	0.0162177
915.406	0.0161257
915.484	0.0162266
915.562	0.0161934
915.640	0.0161719
915.718	0.0160165
915.796	0.0159756
915.874	0.0161012
915.953	0.0161247
916.031	0.0159084
916.109	0.0159822
916.187	0.0159904
916.265	0.0160910
916.343	0.0160704
916.421	0.0159325
916.499	0.0159711
916.578	0.0159872
916.656	0.0159566
916.734	0.0161282
916.812	0.0162463
916.890	0.0161957
916.968	0.0160947
917.046	0.0163651
917.124	0.0163605
917.203	0.0163799
917.281	0.0162956
917.359	0.0164423
917.437	0.0164526
917.515	0.0163438
917.593	0.0164817
917.671	0.0164861
917.749	0.0163667
917.828	0.0165789
917.906	0.0165492
917.984	0.0165244
918.062	0.0164275
918.140	0.0164648
918.218	0.0165070
918.296	0.0165502
918.374	0.0165597
918.453	0.0162971
918.531	0.0163959
918.609	0.0164980
918.687	0.0164668
918.765	0.0165016
918.843	0.0165387
918.921	0.0164472
918.999	0.0163009
919.078	0.0162465
919.156	0.0163628
919.234	0.0163651
919.312	0.0164077
919.390	0.0163844
919.468	0.0163345
919.546	0.0162099
919.624	0.0161581
919.703	0.0161919
919.781	0.0161138
919.859	0.0161704
919.937	0.0161539
