06/10/2022	18:24:49	Ver.	4.1	UNKNOWN
Optical Delay	600.015094	Delta X		0.078125	Sweeps	1	Scan Rate	0/0
Coordinates	Axis 1	NaN	Axis 2	NaN	Axis 3	NaN	Axis 4	NaN	Axis 5	NaN	Axis 6	0.000000
TX Power	0.000000	RX Power	0.000000

600.015	0.0155355
600.093	0.0156493
600.171	0.0155302
600.249	0.0155627
600.328	0.0155473
600.406	0.0156345
600.484	0.0153754
600.562	0.0155338
600.640	0.0156023
600.718	0.0156037
600.796	0.0155833
600.874	0.0155293
600.953	0.0155000
601.031	0.0154733
601.109	0.0156227
601.187	0.0154902
601.265	0.0155195
601.343	0.0155561
601.421	0.0154942
601.499	0.0154907
601.578	0.0156037
601.656	0.0154141
601.734	0.0154640
601.812	0.0155795
601.890	0.0154853
601.968	0.0155741
602.046	0.0153735
602.124	0.0153923
602.203	0.0155013
602.281	0.0154182
602.359	0.0154255
602.437	0.0155058
602.515	0.0155479
602.593	0.0153488
602.671	0.0155984
602.749	0.0155135
602.828	0.0155906
602.906	0.0156915
602.984	0.0154950
603.062	0.0155032
603.140	0.0154813
603.218	0.0156552
603.296	0.0155106
603.374	0.0154485
603.453	0.0155443
603.531	0.0154910
603.609	0.0154643
603.687	0.0154394
603.765	0.0154671
603.843	0.0156038
603.921	0.0155050
603.999	0.0154372
604.078	0.0156190
604.156	0.0155806
604.234	0.0154574
604.312	0.0155513
604.390	0.0154699
604.468	0.0154314
604.546	0.0155950
604.624	0.0154406
604.703	0.0155778
604.781	0.0153780
604.859	0.0155725
604.937	0.0155982
605.015	0.0155188
605.093	0.0153169
605.171	0.0154565
605.249	0.0153894
605.328	0.0155433
605.406	0.0155814
605.484	0.0155349
605.562	0.0155758
605.640	0.0154166
605.718	0.0153882
605.796	0.0156033
605.874	0.0154674
605.953	0.0155662
606.031	0.0155174
606.109	0.0154977
606.187	0.0154929
606.265	0.0155227
606.343	0.0155940
606.421	0.0153844
606.499	0.0154063
606.578	0.0156048
606.656	0.0156340
606.734	0.0156042
606.812	0.0155681
606.890	0.0154645
606.968	0.0155708
607.046	0.0155028
607.124	0.0154611
607.203	0.0153938
607.281	0.0155055
607.359	0.0155067
607.437	0.0155476
607.515	0.0154913
607.593	0.0156051
607.671	0.0155202
607.749	0.0154433
607.828	0.0155551
607.906	0.0155078
607.984	0.0154979
608.062	0.0155006
608.140	0.0154852
608.218	0.0155544
608.296	0.0155126
608.374	0.0155785
608.453	0.0155218
608.531	0.0155259
608.609	0.0154237
608.687	0.0153986
608.765	0.0153814
608.843	0.0155493
608.921	0.0155474
608.999	0.0155222
609.078	0.0154387
609.156	0.0154965
609.234	0.0155758
609.312	0.0155669
609.390	0.0155408
609.468	0.0154125
609.546	0.0154213
609.624	0.0154762
609.703	0.0157890
609.781	0.0155140
609.859	0.0155389
609.937	0.0154071
610.015	0.0154797
610.093	0.0156669
610.171	0.0155161
610.249	0.0154853
610.328	0.0155276
610.406	0.0155370
610.484	0.0155986
610.562	0.0154242
610.640	0.0155811
610.718	0.0156656
610.796	0.0155138
610.874	0.0154751
610.953	0.0155093
611.031	0.0155563
611.109	0.0155684
611.187	0.0154271
611.265	0.0154335
611.343	0.0153551
611.421	0.0154112
611.499	0.0154118
611.578	0.0154191
611.656	0.0154461
611.734	0.0155052
611.812	0.0154997
611.890	0.0155105
611.968	0.0155915
612.046	0.0154663
612.124	0.0154376
612.203	0.0153822
612.281	0.0154314
612.359	0.0156820
612.437	0.0154710
612.515	0.0154153
612.593	0.0154344
612.671	0.0154543
612.749	0.0155925
612.828	0.0154936
612.906	0.0154922
612.984	0.0154819
613.062	0.0155171
613.140	0.0154958
613.218	0.0156066
613.296	0.0155543
613.374	0.0155266
613.453	0.0155238
613.531	0.0155598
613.609	0.0154562
613.687	0.0153965
613.765	0.0154115
613.843	0.0155690
613.921	0.0155139
613.999	0.0154748
614.078	0.0155418
614.156	0.0154713
614.234	0.0154288
614.312	0.0154523
614.390	0.0155788
614.468	0.0155502
614.546	0.0154553
614.624	0.0154468
614.703	0.0154166
614.781	0.0153839
614.859	0.0154021
614.937	0.0154845
615.015	0.0155021
615.093	0.0154458
615.171	0.0154826
615.249	0.0154582
615.328	0.0154407
615.406	0.0155116
615.484	0.0155616
615.562	0.0154030
615.640	0.0155046
615.718	0.0155414
615.796	0.0155166
615.874	0.0155106
615.953	0.0154537
616.031	0.0155151
616.109	0.0154084
616.187	0.0154739
616.265	0.0153529
616.343	0.0154909
616.421	0.0155837
616.499	0.0153598
616.578	0.0152427
616.656	0.0155608
616.734	0.0153526
616.812	0.0154212
616.890	0.0153960
616.968	0.0155096
617.046	0.0155455
617.124	0.0155525
617.203	0.0154916
617.281	0.0155362
617.359	0.0154696
617.437	0.0153579
617.515	0.0154943
617.593	0.0154380
617.671	0.0153748
617.749	0.0155038
617.828	0.0154737
617.906	0.0154420
617.984	0.0155439
618.062	0.0155441
618.140	0.0154960
618.218	0.0153655
618.296	0.0153973
618.374	0.0154597
618.453	0.0155039
618.531	0.0154796
618.609	0.0153813
618.687	0.0155092
618.765	0.0153588
618.843	0.0154452
618.921	0.0154960
618.999	0.0155831
619.078	0.0155419
619.156	0.0155035
619.234	0.0154397
619.312	0.0154150
619.390	0.0153877
619.468	0.0154674
619.546	0.0154388
619.624	0.0155977
619.703	0.0155414
619.781	0.0155656
619.859	0.0154444
619.937	0.0155446
620.015	0.0153673
620.093	0.0155824
620.171	0.0155352
620.249	0.0154324
620.328	0.0156734
620.406	0.0156154
620.484	0.0154476
620.562	0.0154188
620.640	0.0155750
620.718	0.0154961
620.796	0.0155437
620.874	0.0155904
620.953	0.0154101
621.031	0.0153687
621.109	0.0154819
621.187	0.0153578
621.265	0.0155593
621.343	0.0154217
621.421	0.0155096
621.499	0.0154453
621.578	0.0155252
621.656	0.0154602
621.734	0.0155048
621.812	0.0155521
621.890	0.0154517
621.968	0.0153973
622.046	0.0154762
622.124	0.0154566
622.203	0.0153903
622.281	0.0154846
622.359	0.0155544
622.437	0.0153822
622.515	0.0154958
622.593	0.0154778
622.671	0.0154980
622.749	0.0154392
622.828	0.0153968
622.906	0.0155587
622.984	0.0154562
623.062	0.0154243
623.140	0.0154455
623.218	0.0154742
623.296	0.0154295
623.374	0.0155070
623.453	0.0154436
623.531	0.0154104
623.609	0.0156068
623.687	0.0156021
623.765	0.0155164
623.843	0.0155485
623.921	0.0154112
623.999	0.0154861
624.078	0.0154450
624.156	0.0154280
624.234	0.0154689
624.312	0.0155585
624.390	0.0154502
624.468	0.0154028
624.546	0.0154610
624.624	0.0154158
624.703	0.0155580
624.781	0.0154265
624.859	0.0154536
624.937	0.0156145
625.015	0.0155639
625.093	0.0154723
625.171	0.0154380
625.249	0.0155857
625.328	0.0154195
625.406	0.0154403
625.484	0.0154514
625.562	0.0155161
625.640	0.0155025
625.718	0.0154480
625.796	0.0155202
625.874	0.0154808
625.953	0.0154610
626.031	0.0154655
626.109	0.0154866
626.187	0.0155308
626.265	0.0154186
626.343	0.0155172
626.421	0.0154758
626.499	0.0154801
626.578	0.0153988
626.656	0.0155708
626.734	0.0154700
626.812	0.0154584
626.890	0.0155327
626.968	0.0154736
627.046	0.0154973
627.124	0.0154815
627.203	0.0154251
627.281	0.0154124
627.359	0.0156074
627.437	0.0154845
627.515	0.0154824
627.593	0.0154966
627.671	0.0154839
627.749	0.0154243
627.828	0.0154279
627.906	0.0154838
627.984	0.0155481
628.062	0.0155141
628.140	0.0155562
628.218	0.0155655
628.296	0.0154867
628.374	0.0154743
628.453	0.0155775
628.531	0.0155519
628.609	0.0153442
628.687	0.0154448
628.765	0.0154863
628.843	0.0156538
628.921	0.0155106
628.999	0.0155187
629.078	0.0154464
629.156	0.0154301
629.234	0.0154578
629.312	0.0154549
629.390	0.0154693
629.468	0.0154956
629.546	0.0153362
629.624	0.0155891
629.703	0.0154881
629.781	0.0154346
629.859	0.0154877
629.937	0.0155542
630.015	0.0154999
630.093	0.0155783
630.171	0.0154922
630.249	0.0154317
630.328	0.0153444
630.406	0.0154015
630.484	0.0156051
630.562	0.0155710
630.640	0.0155151
630.718	0.0154424
630.796	0.0155336
630.874	0.0155393
630.953	0.0152646
631.031	0.0154382
631.109	0.0155244
631.187	0.0154543
631.265	0.0153867
631.343	0.0154077
631.421	0.0155673
631.499	0.0155504
631.578	0.0155524
631.656	0.0154555
631.734	0.0154892
631.812	0.0156336
631.890	0.0155221
631.968	0.0154523
632.046	0.0154399
632.124	0.0155621
632.203	0.0154620
632.281	0.0154313
632.359	0.0154040
632.437	0.0154640
632.515	0.0154704
632.593	0.0153912
632.671	0.0154792
632.749	0.0155156
632.828	0.0154351
632.906	0.0154616
632.984	0.0155130
633.062	0.0154079
633.140	0.0153768
633.218	0.0154788
633.296	0.0154007
633.374	0.0155850
633.453	0.0155889
633.531	0.0154420
633.609	0.0154696
633.687	0.0155931
633.765	0.0155009
633.843	0.0155044
633.921	0.0155416
633.999	0.0153996
634.078	0.0154913
634.156	0.0155696
634.234	0.0154148
634.312	0.0155740
634.390	0.0153767
634.468	0.0153967
634.546	0.0155148
634.624	0.0155135
634.703	0.0155380
634.781	0.0155245
634.859	0.0153903
634.937	0.0154253
635.015	0.0155347
635.093	0.0154257
635.171	0.0155055
635.249	0.0153270
635.328	0.0153856
635.406	0.0154727
635.484	0.0155458
635.562	0.0154041
635.640	0.0155434
635.718	0.0155856
635.796	0.0154781
635.874	0.0155051
635.953	0.0154983
636.031	0.0154979
636.109	0.0154440
636.187	0.0153693
636.265	0.0156272
636.343	0.0154612
636.421	0.0154942
636.499	0.0154649
636.578	0.0154726
636.656	0.0155503
636.734	0.0153844
636.812	0.0155529
636.890	0.0155786
636.968	0.0154787
637.046	0.0154047
637.124	0.0154033
637.203	0.0154683
637.281	0.0154197
637.359	0.0154443
637.437	0.0154261
637.515	0.0155780
637.593	0.0155643
637.671	0.0153584
637.749	0.0155400
637.828	0.0156017
637.906	0.0154023
637.984	0.0155676
638.062	0.0154860
638.140	0.0154175
638.218	0.0154877
638.296	0.0155112
638.374	0.0154224
638.453	0.0155344
638.531	0.0155019
638.609	0.0154293
638.687	0.0155605
638.765	0.0154344
638.843	0.0154435
638.921	0.0154475
638.999	0.0154494
639.078	0.0156070
639.156	0.0155592
639.234	0.0155677
639.312	0.0154779
639.390	0.0154278
639.468	0.0153866
639.546	0.0155762
639.624	0.0155011
639.703	0.0155712
639.781	0.0155967
639.859	0.0154171
639.937	0.0155188
640.015	0.0155801
640.093	0.0153391
640.171	0.0153494
640.249	0.0156206
640.328	0.0155631
640.406	0.0153867
640.484	0.0154596
640.562	0.0154626
640.640	0.0155991
640.718	0.0154789
640.796	0.0154515
640.874	0.0152982
640.953	0.0154780
641.031	0.0155075
641.109	0.0155679
641.187	0.0155174
641.265	0.0155214
641.343	0.0153224
641.421	0.0154041
641.499	0.0156216
641.578	0.0154767
641.656	0.0154732
641.734	0.0154693
641.812	0.0154757
641.890	0.0154519
641.968	0.0156306
642.046	0.0155222
642.124	0.0154287
642.203	0.0155254
642.281	0.0154064
642.359	0.0153792
642.437	0.0154842
642.515	0.0155463
642.593	0.0155184
642.671	0.0156110
642.749	0.0155685
642.828	0.0155556
642.906	0.0154539
642.984	0.0154337
643.062	0.0154250
643.140	0.0154319
643.218	0.0154822
643.296	0.0155153
643.374	0.0154694
643.453	0.0155639
643.531	0.0153956
643.609	0.0155531
643.687	0.0154579
643.765	0.0155133
643.843	0.0153780
643.921	0.0155202
643.999	0.0156306
644.078	0.0155851
644.156	0.0154607
644.234	0.0153957
644.312	0.0155958
644.390	0.0154569
644.468	0.0154222
644.546	0.0154733
644.624	0.0154189
644.703	0.0154471
644.781	0.0155100
644.859	0.0154924
644.937	0.0154116
645.015	0.0154849
645.093	0.0154948
645.171	0.0154648
645.249	0.0155027
645.328	0.0156454
645.406	0.0154935
645.484	0.0154746
645.562	0.0155455
645.640	0.0154178
645.718	0.0155875
645.796	0.0154062
645.874	0.0154106
645.953	0.0154919
646.031	0.0155650
646.109	0.0154444
646.187	0.0154305
646.265	0.0154551
646.343	0.0154799
646.421	0.0154080
646.499	0.0154433
646.578	0.0155119
646.656	0.0155304
646.734	0.0155431
646.812	0.0153104
646.890	0.0153985
646.968	0.0154859
647.046	0.0154048
647.124	0.0154585
647.203	0.0155098
647.281	0.0156017
647.359	0.0154895
647.437	0.0154144
647.515	0.0155679
647.593	0.0154040
647.671	0.0154602
647.749	0.0156041
647.828	0.0153393
647.906	0.0156516
647.984	0.0155460
648.062	0.0155173
648.140	0.0154594
648.218	0.0154964
648.296	0.0154925
648.374	0.0155334
648.453	0.0155566
648.531	0.0153941
648.609	0.0154782
648.687	0.0155113
648.765	0.0155604
648.843	0.0155828
648.921	0.0155540
648.999	0.0154311
649.078	0.0154521
649.156	0.0154025
649.234	0.0154697
649.312	0.0155171
649.390	0.0155877
649.468	0.0154904
649.546	0.0155008
649.624	0.0154838
649.703	0.0155178
649.781	0.0154827
649.859	0.0154138
649.937	0.0155344
650.015	0.0154157
650.093	0.0154395
650.171	0.0155782
650.249	0.0155680
650.328	0.0154301
650.406	0.0153576
650.484	0.0155508
650.562	0.0156472
650.640	0.0155663
650.718	0.0153732
650.796	0.0154489
650.874	0.0153973
650.953	0.0154552
651.031	0.0154704
651.109	0.0154855
651.187	0.0155810
651.265	0.0154662
651.343	0.0153999
651.421	0.0155730
651.499	0.0156236
651.578	0.0153801
651.656	0.0154673
651.734	0.0154483
651.812	0.0154984
651.890	0.0154401
651.968	0.0157290
652.046	0.0154845
652.124	0.0154881
652.203	0.0154900
652.281	0.0155264
652.359	0.0155117
652.437	0.0154459
652.515	0.0155455
652.593	0.0155497
652.671	0.0154151
652.749	0.0155000
652.828	0.0155833
652.906	0.0154794
652.984	0.0153725
653.062	0.0154448
653.140	0.0155300
653.218	0.0154884
653.296	0.0154669
653.374	0.0154773
653.453	0.0155614
653.531	0.0154535
653.609	0.0156017
653.687	0.0154784
653.765	0.0154366
653.843	0.0155210
653.921	0.0154768
653.999	0.0154134
654.078	0.0156604
654.156	0.0154790
654.234	0.0155698
654.312	0.0155064
654.390	0.0155786
654.468	0.0154308
654.546	0.0155093
654.624	0.0154175
654.703	0.0156226
654.781	0.0154806
654.859	0.0154929
654.937	0.0155221
655.015	0.0154820
655.093	0.0154642
655.171	0.0154868
655.249	0.0154563
655.328	0.0155534
655.406	0.0154198
655.484	0.0155679
655.562	0.0155136
655.640	0.0154686
655.718	0.0154660
655.796	0.0153694
655.874	0.0154226
655.953	0.0155305
656.031	0.0155204
656.109	0.0153735
656.187	0.0155369
656.265	0.0155963
656.343	0.0154581
656.421	0.0154794
656.499	0.0154341
656.578	0.0154718
656.656	0.0154908
656.734	0.0154956
656.812	0.0154420
656.890	0.0155805
656.968	0.0155133
657.046	0.0154477
657.124	0.0155553
657.203	0.0155022
657.281	0.0155232
657.359	0.0154301
657.437	0.0154608
657.515	0.0154552
657.593	0.0156020
657.671	0.0156260
657.749	0.0155914
657.828	0.0154619
657.906	0.0153979
657.984	0.0154386
658.062	0.0155671
658.140	0.0155190
658.218	0.0154936
658.296	0.0154509
658.374	0.0154447
658.453	0.0155508
658.531	0.0155072
658.609	0.0154922
658.687	0.0155544
658.765	0.0155625
658.843	0.0155417
658.921	0.0155328
658.999	0.0154897
659.078	0.0154538
659.156	0.0154939
659.234	0.0154818
659.312	0.0154086
659.390	0.0154563
659.468	0.0154687
659.546	0.0156258
659.624	0.0156150
659.703	0.0153687
659.781	0.0155218
659.859	0.0154420
659.937	0.0154684
660.015	0.0155449
660.093	0.0154508
660.171	0.0155201
660.249	0.0154620
660.328	0.0154373
660.406	0.0154237
660.484	0.0155595
660.562	0.0155437
660.640	0.0154527
660.718	0.0155386
660.796	0.0154185
660.874	0.0156396
660.953	0.0155893
661.031	0.0154877
661.109	0.0154848
661.187	0.0154543
661.265	0.0155260
661.343	0.0153486
661.421	0.0153175
661.499	0.0156491
661.578	0.0156164
661.656	0.0154496
661.734	0.0154052
661.812	0.0156502
661.890	0.0155006
661.968	0.0154429
662.046	0.0156416
662.124	0.0154559
662.203	0.0155360
662.281	0.0156015
662.359	0.0155256
662.437	0.0154823
662.515	0.0154971
662.593	0.0155194
662.671	0.0155592
662.749	0.0155201
662.828	0.0154137
662.906	0.0156742
662.984	0.0155344
663.062	0.0155457
663.140	0.0154835
663.218	0.0154891
663.296	0.0154297
663.374	0.0153947
663.453	0.0154560
663.531	0.0154802
663.609	0.0156022
663.687	0.0154430
663.765	0.0154230
663.843	0.0154012
663.921	0.0155481
663.999	0.0155220
664.078	0.0154778
664.156	0.0154475
664.234	0.0155871
664.312	0.0154254
664.390	0.0154713
664.468	0.0153170
664.546	0.0153893
664.624	0.0154565
664.703	0.0155630
664.781	0.0154492
664.859	0.0155464
664.937	0.0154930
665.015	0.0156015
665.093	0.0154974
665.171	0.0154591
665.249	0.0154394
665.328	0.0154808
665.406	0.0155412
665.484	0.0154970
665.562	0.0154652
665.640	0.0155458
665.718	0.0154162
665.796	0.0153816
665.874	0.0153526
665.953	0.0154813
666.031	0.0153592
666.109	0.0155099
666.187	0.0154954
666.265	0.0154173
666.343	0.0155092
666.421	0.0155568
666.499	0.0155258
666.578	0.0154937
666.656	0.0154601
666.734	0.0154659
666.812	0.0154720
666.890	0.0155491
666.968	0.0153919
667.046	0.0154945
667.124	0.0154704
667.203	0.0154716
667.281	0.0155006
667.359	0.0155511
667.437	0.0154868
667.515	0.0153889
667.593	0.0154935
667.671	0.0154156
667.749	0.0155299
667.828	0.0154973
667.906	0.0153996
667.984	0.0155418
668.062	0.0154660
668.140	0.0154916
668.218	0.0154784
668.296	0.0154129
668.374	0.0155307
668.453	0.0153957
668.531	0.0154692
668.609	0.0154922
668.687	0.0154591
668.765	0.0155779
668.843	0.0156107
668.921	0.0154490
668.999	0.0155368
669.078	0.0155527
669.156	0.0156184
669.234	0.0154712
669.312	0.0155367
669.390	0.0154553
669.468	0.0155277
669.546	0.0153770
669.624	0.0155269
669.703	0.0155269
669.781	0.0155464
669.859	0.0155638
669.937	0.0155695
670.015	0.0154208
670.093	0.0154597
670.171	0.0155173
670.249	0.0155864
670.328	0.0154905
670.406	0.0155518
670.484	0.0153735
670.562	0.0155714
670.640	0.0154130
670.718	0.0153573
670.796	0.0155254
670.874	0.0155647
670.953	0.0155120
671.031	0.0153983
671.109	0.0153382
671.187	0.0155048
671.265	0.0155993
671.343	0.0154206
671.421	0.0155325
671.499	0.0154462
671.578	0.0154838
671.656	0.0154485
671.734	0.0154364
671.812	0.0154327
671.890	0.0153712
671.968	0.0154266
672.046	0.0155500
672.124	0.0154767
672.203	0.0153262
672.281	0.0155750
672.359	0.0154573
672.437	0.0154307
672.515	0.0155540
672.593	0.0156660
672.671	0.0154848
672.749	0.0154054
672.828	0.0154385
672.906	0.0154089
672.984	0.0155640
673.062	0.0154364
673.140	0.0154922
673.218	0.0154979
673.296	0.0155518
673.374	0.0154450
673.453	0.0153611
673.531	0.0154337
673.609	0.0154425
673.687	0.0155170
673.765	0.0154348
673.843	0.0154441
673.921	0.0155030
673.999	0.0153145
674.078	0.0154018
674.156	0.0155786
674.234	0.0154173
674.312	0.0155588
674.390	0.0155686
674.468	0.0154321
674.546	0.0155553
674.624	0.0154063
674.703	0.0154558
674.781	0.0155564
674.859	0.0154177
674.937	0.0154461
675.015	0.0154478
675.093	0.0155669
675.171	0.0153231
675.249	0.0155317
675.328	0.0155957
675.406	0.0154615
675.484	0.0154649
675.562	0.0156011
675.640	0.0155703
675.718	0.0154968
675.796	0.0154466
675.874	0.0155633
675.953	0.0156602
676.031	0.0154215
676.109	0.0152315
676.187	0.0155024
676.265	0.0155440
676.343	0.0154964
676.421	0.0155434
676.499	0.0154847
676.578	0.0156329
676.656	0.0155051
676.734	0.0155229
676.812	0.0155442
676.890	0.0155355
676.968	0.0152691
677.046	0.0153742
677.124	0.0155482
677.203	0.0154680
677.281	0.0154635
677.359	0.0154961
677.437	0.0153727
677.515	0.0155978
677.593	0.0155018
677.671	0.0155338
677.749	0.0155059
677.828	0.0153941
677.906	0.0153989
677.984	0.0154980
678.062	0.0153806
678.140	0.0152995
678.218	0.0153478
678.296	0.0155109
678.374	0.0154461
678.453	0.0154238
678.531	0.0153629
678.609	0.0154974
678.687	0.0155049
678.765	0.0155117
678.843	0.0154868
678.921	0.0153970
678.999	0.0154502
679.078	0.0154436
679.156	0.0153445
679.234	0.0154276
679.312	0.0154926
679.390	0.0155755
679.468	0.0155223
679.546	0.0154396
679.624	0.0153810
679.703	0.0155914
679.781	0.0156223
679.859	0.0153967
679.937	0.0155554
680.015	0.0155616
680.093	0.0153632
680.171	0.0154944
680.249	0.0155520
680.328	0.0155595
680.406	0.0154965
680.484	0.0154180
680.562	0.0154556
680.640	0.0156747
680.718	0.0155093
680.796	0.0155396
680.874	0.0155553
680.953	0.0153458
681.031	0.0156084
681.109	0.0156026
681.187	0.0155457
681.265	0.0155060
681.343	0.0154393
681.421	0.0155286
681.499	0.0154973
681.578	0.0154794
681.656	0.0154554
681.734	0.0156934
681.812	0.0155902
681.890	0.0154424
681.968	0.0155363
682.046	0.0155692
682.124	0.0155785
682.203	0.0156184
682.281	0.0155915
682.359	0.0154885
682.437	0.0155054
682.515	0.0153989
682.593	0.0154491
682.671	0.0155988
682.749	0.0156059
682.828	0.0155594
682.906	0.0154668
682.984	0.0154849
683.062	0.0155714
683.140	0.0154240
683.218	0.0156059
683.296	0.0154202
683.374	0.0153348
683.453	0.0155226
683.531	0.0155450
683.609	0.0154795
683.687	0.0155240
683.765	0.0154001
683.843	0.0156172
683.921	0.0155324
683.999	0.0155041
684.078	0.0154745
684.156	0.0154890
684.234	0.0154649
684.312	0.0155340
684.390	0.0155645
684.468	0.0155197
684.546	0.0153686
684.624	0.0155413
684.703	0.0155872
684.781	0.0154497
684.859	0.0154077
684.937	0.0154398
685.015	0.0155012
685.093	0.0154253
685.171	0.0155956
685.249	0.0155289
685.328	0.0154505
685.406	0.0154533
685.484	0.0156585
685.562	0.0155335
685.640	0.0153834
685.718	0.0154958
685.796	0.0154816
685.874	0.0153717
685.953	0.0153121
686.031	0.0155196
686.109	0.0155620
686.187	0.0154758
686.265	0.0154482
686.343	0.0155750
686.421	0.0154898
686.499	0.0155006
686.578	0.0153793
686.656	0.0154742
686.734	0.0154665
686.812	0.0155563
686.890	0.0155499
686.968	0.0154857
687.046	0.0154412
687.124	0.0155341
687.203	0.0154704
687.281	0.0155202
687.359	0.0154426
687.437	0.0154999
687.515	0.0154514
687.593	0.0154198
687.671	0.0155127
687.749	0.0155371
687.828	0.0155333
687.906	0.0156787
687.984	0.0155569
688.062	0.0155356
688.140	0.0154330
688.218	0.0153853
688.296	0.0155148
688.374	0.0156205
688.453	0.0153641
688.531	0.0153186
688.609	0.0154945
688.687	0.0154649
688.765	0.0155655
688.843	0.0154886
688.921	0.0155633
688.999	0.0155471
689.078	0.0155563
689.156	0.0153966
689.234	0.0154564
689.312	0.0154852
689.390	0.0154427
689.468	0.0154760
689.546	0.0155725
689.624	0.0155220
689.703	0.0154207
689.781	0.0155916
689.859	0.0155597
689.937	0.0155339
690.015	0.0155788
690.093	0.0154123
690.171	0.0154921
690.249	0.0155989
690.328	0.0155215
690.406	0.0155725
690.484	0.0154728
690.562	0.0153117
690.640	0.0155629
690.718	0.0155177
690.796	0.0155193
690.874	0.0154963
690.953	0.0155077
691.031	0.0154865
691.109	0.0155558
691.187	0.0155498
691.265	0.0154395
691.343	0.0154669
691.421	0.0155187
691.499	0.0154500
691.578	0.0154707
691.656	0.0154836
691.734	0.0154617
691.812	0.0155051
691.890	0.0154484
691.968	0.0155284
692.046	0.0155888
692.124	0.0156349
692.203	0.0155515
692.281	0.0155074
692.359	0.0155059
692.437	0.0154348
692.515	0.0154339
692.593	0.0156135
692.671	0.0155240
692.749	0.0153415
692.828	0.0155318
692.906	0.0155740
692.984	0.0154057
693.062	0.0155549
693.140	0.0154721
693.218	0.0154102
693.296	0.0155531
693.374	0.0154719
693.453	0.0155489
693.531	0.0154388
693.609	0.0154823
693.687	0.0155133
693.765	0.0152998
693.843	0.0154747
693.921	0.0154578
693.999	0.0155083
694.078	0.0156203
694.156	0.0154675
694.234	0.0153606
694.312	0.0154375
694.390	0.0155790
694.468	0.0154623
694.546	0.0154105
694.624	0.0155368
694.703	0.0156019
694.781	0.0155679
694.859	0.0155763
694.937	0.0154825
695.015	0.0154504
695.093	0.0155132
695.171	0.0155348
695.249	0.0155627
695.328	0.0155701
695.406	0.0154462
695.484	0.0154480
695.562	0.0154413
695.640	0.0155222
695.718	0.0155286
695.796	0.0154809
695.874	0.0154386
695.953	0.0155180
696.031	0.0154398
696.109	0.0154016
696.187	0.0155135
696.265	0.0155109
696.343	0.0157050
696.421	0.0154367
696.499	0.0154797
696.578	0.0154803
696.656	0.0153876
696.734	0.0155313
696.812	0.0154896
696.890	0.0154046
696.968	0.0154753
697.046	0.0154557
697.124	0.0155028
697.203	0.0154637
697.281	0.0154395
697.359	0.0154916
697.437	0.0155924
697.515	0.0155148
697.593	0.0154990
697.671	0.0154118
697.749	0.0156319
697.828	0.0155519
697.906	0.0156647
697.984	0.0154392
698.062	0.0153846
698.140	0.0154465
698.218	0.0155466
698.296	0.0154945
698.374	0.0154789
698.453	0.0155394
698.531	0.0154201
698.609	0.0154752
698.687	0.0156004
698.765	0.0156190
698.843	0.0154785
698.921	0.0154800
698.999	0.0154427
699.078	0.0153488
699.156	0.0154952
699.234	0.0155403
699.312	0.0155814
699.390	0.0155639
699.468	0.0155293
699.546	0.0154814
699.624	0.0154725
699.703	0.0154720
699.781	0.0155451
699.859	0.0155319
699.937	0.0156113
700.015	0.0155048
700.093	0.0154857
700.171	0.0156078
700.249	0.0155026
700.328	0.0154044
700.406	0.0154403
700.484	0.0154826
700.562	0.0156684
700.640	0.0154798
700.718	0.0154986
700.796	0.0153117
700.874	0.0155332
700.953	0.0155315
701.031	0.0154729
701.109	0.0156123
701.187	0.0155042
701.265	0.0154572
701.343	0.0155015
701.421	0.0155167
701.499	0.0155170
701.578	0.0155598
701.656	0.0155449
701.734	0.0155505
701.812	0.0154634
701.890	0.0153683
701.968	0.0154917
702.046	0.0154036
702.124	0.0155542
702.203	0.0155021
702.281	0.0155156
702.359	0.0155956
702.437	0.0156588
702.515	0.0154182
702.593	0.0155378
702.671	0.0156090
702.749	0.0154179
702.828	0.0154876
702.906	0.0156115
702.984	0.0156046
703.062	0.0154569
703.140	0.0154750
703.218	0.0156017
703.296	0.0154762
703.374	0.0153496
703.453	0.0154636
703.531	0.0156405
703.609	0.0154618
703.687	0.0154202
703.765	0.0156116
703.843	0.0153904
703.921	0.0155527
703.999	0.0155908
704.078	0.0155068
704.156	0.0154321
704.234	0.0155699
704.312	0.0154703
704.390	0.0154567
704.468	0.0154870
704.546	0.0155304
704.624	0.0154320
704.703	0.0154943
704.781	0.0155540
704.859	0.0155048
704.937	0.0154408
705.015	0.0154838
705.093	0.0154489
705.171	0.0154537
705.249	0.0156458
705.328	0.0155099
705.406	0.0154841
705.484	0.0154013
705.562	0.0156248
705.640	0.0155059
705.718	0.0153732
705.796	0.0155085
705.874	0.0155865
705.953	0.0156171
706.031	0.0154872
706.109	0.0154706
706.187	0.0154286
706.265	0.0155985
706.343	0.0155044
706.421	0.0154332
706.499	0.0155077
706.578	0.0156017
706.656	0.0155492
706.734	0.0154417
706.812	0.0154003
706.890	0.0154924
706.968	0.0155737
707.046	0.0155447
707.124	0.0155653
707.203	0.0155269
707.281	0.0153907
707.359	0.0154582
707.437	0.0155364
707.515	0.0155418
707.593	0.0154343
707.671	0.0154697
707.749	0.0155029
707.828	0.0155108
707.906	0.0155291
707.984	0.0153609
708.062	0.0156348
708.140	0.0155332
708.218	0.0154566
708.296	0.0154925
708.374	0.0153576
708.453	0.0155546
708.531	0.0156161
708.609	0.0155417
708.687	0.0155640
708.765	0.0155257
708.843	0.0155368
708.921	0.0155153
708.999	0.0153057
709.078	0.0155667
709.156	0.0156250
709.234	0.0153796
709.312	0.0154129
709.390	0.0155103
709.468	0.0155014
709.546	0.0155721
709.624	0.0154202
709.703	0.0155202
709.781	0.0154061
709.859	0.0153785
709.937	0.0154922
710.015	0.0155114
710.093	0.0154434
710.171	0.0153998
710.249	0.0155260
710.328	0.0154667
710.406	0.0154041
710.484	0.0155179
710.562	0.0156252
710.640	0.0155122
710.718	0.0154974
710.796	0.0154648
710.874	0.0154774
710.953	0.0155724
711.031	0.0155151
711.109	0.0154345
711.187	0.0155531
711.265	0.0154832
711.343	0.0155978
711.421	0.0156583
711.499	0.0154266
711.578	0.0155566
711.656	0.0155518
711.734	0.0155299
711.812	0.0153436
711.890	0.0155424
711.968	0.0153828
712.046	0.0154597
712.124	0.0154919
712.203	0.0155567
712.281	0.0152766
712.359	0.0155222
712.437	0.0156266
712.515	0.0156283
712.593	0.0154987
712.671	0.0155054
712.749	0.0155468
712.828	0.0155031
712.906	0.0155099
712.984	0.0154948
713.062	0.0155658
713.140	0.0155083
713.218	0.0154301
713.296	0.0155003
713.374	0.0156261
713.453	0.0154765
713.531	0.0154247
713.609	0.0155212
713.687	0.0154865
713.765	0.0155721
713.843	0.0154495
713.921	0.0153631
713.999	0.0157034
714.078	0.0156389
714.156	0.0155937
714.234	0.0155704
714.312	0.0155721
714.390	0.0155457
714.468	0.0154810
714.546	0.0155137
714.624	0.0154305
714.703	0.0154594
714.781	0.0155067
714.859	0.0154751
714.937	0.0155199
715.015	0.0154942
715.093	0.0154576
715.171	0.0155331
715.249	0.0153690
715.328	0.0154790
715.406	0.0156055
715.484	0.0155439
715.562	0.0154628
715.640	0.0153754
715.718	0.0154604
715.796	0.0154307
715.874	0.0154600
715.953	0.0153850
716.031	0.0153957
716.109	0.0154003
716.187	0.0154618
716.265	0.0153907
716.343	0.0154643
716.421	0.0155772
716.499	0.0153932
716.578	0.0154153
716.656	0.0154617
716.734	0.0155653
716.812	0.0154128
716.890	0.0155032
716.968	0.0154733
717.046	0.0154200
717.124	0.0154659
717.203	0.0155254
717.281	0.0154807
717.359	0.0154504
717.437	0.0154357
717.515	0.0153990
717.593	0.0154554
717.671	0.0155716
717.749	0.0154552
717.828	0.0154424
717.906	0.0155190
717.984	0.0155108
718.062	0.0154064
718.140	0.0153712
718.218	0.0154848
718.296	0.0154503
718.374	0.0155615
718.453	0.0155686
718.531	0.0155247
718.609	0.0154272
718.687	0.0154357
718.765	0.0155608
718.843	0.0155363
718.921	0.0154278
718.999	0.0155190
719.078	0.0154344
719.156	0.0154736
719.234	0.0153680
719.312	0.0155405
719.390	0.0155027
719.468	0.0154755
719.546	0.0155608
719.624	0.0154239
719.703	0.0155252
719.781	0.0154378
719.859	0.0154192
719.937	0.0154337
720.015	0.0153939
720.093	0.0155492
720.171	0.0155426
720.249	0.0154887
720.328	0.0155492
720.406	0.0156252
720.484	0.0156171
720.562	0.0154445
720.640	0.0154923
720.718	0.0154639
720.796	0.0155398
720.874	0.0155498
720.953	0.0155006
721.031	0.0154359
721.109	0.0154887
721.187	0.0156918
721.265	0.0156048
721.343	0.0154865
721.421	0.0156596
721.499	0.0154780
721.578	0.0156602
721.656	0.0156219
721.734	0.0156434
721.812	0.0155872
721.890	0.0154847
721.968	0.0155279
722.046	0.0156358
722.124	0.0154639
722.203	0.0156648
722.281	0.0157508
722.359	0.0155283
722.437	0.0155843
722.515	0.0155914
722.593	0.0157196
722.671	0.0155525
722.749	0.0154740
722.828	0.0155470
722.906	0.0155434
722.984	0.0156155
723.062	0.0154725
723.140	0.0155551
723.218	0.0156269
723.296	0.0155580
723.374	0.0155350
723.453	0.0155038
723.531	0.0155601
723.609	0.0155910
723.687	0.0155257
723.765	0.0154839
723.843	0.0156100
723.921	0.0155250
723.999	0.0156161
724.078	0.0155111
724.156	0.0156203
724.234	0.0155503
724.312	0.0156116
724.390	0.0156277
724.468	0.0154216
724.546	0.0155998
724.624	0.0155054
724.703	0.0155036
724.781	0.0156728
724.859	0.0154677
724.937	0.0154826
725.015	0.0155825
725.093	0.0155132
725.171	0.0155807
725.249	0.0155658
725.328	0.0155652
725.406	0.0155354
725.484	0.0155433
725.562	0.0155075
725.640	0.0153506
725.718	0.0154276
725.796	0.0155828
725.874	0.0154681
725.953	0.0154552
726.031	0.0154470
726.109	0.0155400
726.187	0.0156120
726.265	0.0153841
726.343	0.0155595
726.421	0.0153968
726.499	0.0155115
726.578	0.0154790
726.656	0.0155861
726.734	0.0155077
726.812	0.0155321
726.890	0.0154398
726.968	0.0155662
727.046	0.0155862
727.124	0.0155206
727.203	0.0154780
727.281	0.0154671
727.359	0.0154005
727.437	0.0154552
727.515	0.0154626
727.593	0.0155007
727.671	0.0155088
727.749	0.0154996
727.828	0.0154282
727.906	0.0154127
727.984	0.0153778
728.062	0.0153776
728.140	0.0153792
728.218	0.0153035
728.296	0.0155110
728.374	0.0153206
728.453	0.0153798
728.531	0.0153302
728.609	0.0154764
728.687	0.0154322
728.765	0.0153890
728.843	0.0154353
728.921	0.0153760
728.999	0.0154491
729.078	0.0153897
729.156	0.0153998
729.234	0.0155747
729.312	0.0154234
729.390	0.0154501
729.468	0.0153551
729.546	0.0153102
729.624	0.0153876
729.703	0.0154763
729.781	0.0154532
729.859	0.0154013
729.937	0.0154335
730.015	0.0156068
730.093	0.0155460
730.171	0.0155054
730.249	0.0154897
730.328	0.0155098
730.406	0.0154793
730.484	0.0153430
730.562	0.0155528
730.640	0.0155661
730.718	0.0154345
730.796	0.0155109
730.874	0.0155064
730.953	0.0154739
731.031	0.0153838
731.109	0.0154559
731.187	0.0153434
731.265	0.0153732
731.343	0.0154128
731.421	0.0155421
731.499	0.0154418
731.578	0.0155445
731.656	0.0155854
731.734	0.0155058
731.812	0.0154255
731.890	0.0154499
731.968	0.0154887
732.046	0.0154609
732.124	0.0155885
732.203	0.0155434
732.281	0.0155421
732.359	0.0154109
732.437	0.0156585
732.515	0.0154761
732.593	0.0155359
732.671	0.0155592
732.749	0.0155389
732.828	0.0152846
732.906	0.0153692
732.984	0.0155531
733.062	0.0155521
733.140	0.0156042
733.218	0.0154258
733.296	0.0154732
733.374	0.0153654
733.453	0.0154842
733.531	0.0155666
733.609	0.0155765
733.687	0.0154734
733.765	0.0156581
733.843	0.0154514
733.921	0.0154564
733.999	0.0154721
734.078	0.0153964
734.156	0.0153786
734.234	0.0155161
734.312	0.0154076
734.390	0.0153876
734.468	0.0155799
734.546	0.0155421
734.624	0.0155337
734.703	0.0155916
734.781	0.0155429
734.859	0.0156151
734.937	0.0154004
735.015	0.0155078
735.093	0.0154649
735.171	0.0153975
735.249	0.0154319
735.328	0.0155017
735.406	0.0157561
735.484	0.0156139
735.562	0.0159357
735.640	0.0158262
735.718	0.0156056
735.796	0.0157027
735.874	0.0156373
735.953	0.0156089
736.031	0.0156003
736.109	0.0154799
736.187	0.0152948
736.265	0.0154256
736.343	0.0152926
736.421	0.0151967
736.499	0.0154604
736.578	0.0153528
736.656	0.0151994
736.734	0.0152729
736.812	0.0152172
736.890	0.0152486
736.968	0.0153706
737.046	0.0152871
737.124	0.0153168
737.203	0.0153740
737.281	0.0154594
737.359	0.0156018
737.437	0.0154691
737.515	0.0155944
737.593	0.0156707
737.671	0.0157177
737.749	0.0157025
737.828	0.0157025
737.906	0.0157148
737.984	0.0156580
738.062	0.0157781
738.140	0.0156963
738.218	0.0155902
738.296	0.0155920
738.374	0.0156154
738.453	0.0156459
738.531	0.0155474
738.609	0.0155237
738.687	0.0154891
738.765	0.0154494
738.843	0.0155031
738.921	0.0154610
738.999	0.0154006
739.078	0.0152048
739.156	0.0153803
739.234	0.0152912
739.312	0.0153258
739.390	0.0152527
739.468	0.0152289
739.546	0.0151725
739.624	0.0152181
739.703	0.0150832
739.781	0.0151038
739.859	0.0150182
739.937	0.0151701
740.015	0.0151438
740.093	0.0151280
740.171	0.0153271
740.249	0.0151617
740.328	0.0154482
740.406	0.0154995
740.484	0.0155492
740.562	0.0155916
740.640	0.0156594
740.718	0.0156818
740.796	0.0155815
740.874	0.0158696
740.953	0.0158260
741.031	0.0157339
741.109	0.0157721
741.187	0.0161173
741.265	0.0159781
741.343	0.0158566
741.421	0.0157240
741.499	0.0156925
741.578	0.0157207
741.656	0.0158834
741.734	0.0157085
741.812	0.0155654
741.890	0.0156786
741.968	0.0157185
742.046	0.0155811
742.124	0.0156464
742.203	0.0156061
742.281	0.0155843
742.359	0.0156512
742.437	0.0156890
742.515	0.0156936
742.593	0.0157535
742.671	0.0156926
742.749	0.0156540
742.828	0.0156373
742.906	0.0155239
742.984	0.0154887
743.062	0.0154435
743.140	0.0153780
743.218	0.0154339
743.296	0.0153986
743.374	0.0152781
743.453	0.0154113
743.531	0.0154810
743.609	0.0155680
743.687	0.0155811
743.765	0.0153445
743.843	0.0154597
743.921	0.0154097
743.999	0.0154623
744.078	0.0153912
744.156	0.0152482
744.234	0.0153362
744.312	0.0152324
744.390	0.0148882
744.468	0.0147334
744.546	0.0147611
744.624	0.0145442
744.703	0.0144440
744.781	0.0144690
744.859	0.0142841
744.937	0.0143170
745.015	0.0144594
745.093	0.0145947
745.171	0.0147498
745.249	0.0149739
745.328	0.0152714
745.406	0.0155587
745.484	0.0158852
745.562	0.0160606
745.640	0.0162174
745.718	0.0164759
745.796	0.0166354
745.874	0.0168226
745.953	0.0171276
746.031	0.0171210
746.109	0.0170761
746.187	0.0171947
746.265	0.0171877
746.343	0.0170219
746.421	0.0168798
746.499	0.0165839
746.578	0.0162337
746.656	0.0161223
746.734	0.0158984
746.812	0.0156672
746.890	0.0154359
746.968	0.0152065
747.046	0.0150888
747.124	0.0148885
747.203	0.0148543
747.281	0.0146042
747.359	0.0145892
747.437	0.0146257
747.515	0.0146764
747.593	0.0146510
747.671	0.0147676
747.749	0.0148637
747.828	0.0148639
747.906	0.0149120
747.984	0.0150948
748.062	0.0151113
748.140	0.0153391
748.218	0.0153253
748.296	0.0152309
748.374	0.0152969
748.453	0.0152344
748.531	0.0152712
748.609	0.0151054
748.687	0.0150365
748.765	0.0149014
748.843	0.0148402
748.921	0.0148962
748.999	0.0148745
749.078	0.0147166
749.156	0.0146511
749.234	0.0147486
749.312	0.0147929
749.390	0.0149985
749.468	0.0150993
749.546	0.0150613
749.624	0.0154999
749.703	0.0155922
749.781	0.0158129
749.859	0.0160287
749.937	0.0162744
750.015	0.0164951
750.093	0.0167345
750.171	0.0167742
750.249	0.0170169
750.328	0.0170348
750.406	0.0171082
750.484	0.0170880
750.562	0.0170039
750.640	0.0169578
750.718	0.0168795
750.796	0.0165929
750.874	0.0164236
750.953	0.0162281
751.031	0.0160004
751.109	0.0157896
751.187	0.0155688
751.265	0.0153838
751.343	0.0152255
751.421	0.0150329
751.499	0.0148211
751.578	0.0148307
751.656	0.0147048
751.734	0.0146458
751.812	0.0146210
751.890	0.0146754
751.968	0.0148138
752.046	0.0147252
752.124	0.0149253
752.203	0.0151709
752.281	0.0151499
752.359	0.0153217
752.437	0.0154338
752.515	0.0154421
752.593	0.0155686
752.671	0.0156307
752.749	0.0158323
752.828	0.0158648
752.906	0.0157503
752.984	0.0157804
753.062	0.0156873
753.140	0.0156755
753.218	0.0156155
753.296	0.0155404
753.374	0.0154519
753.453	0.0153056
753.531	0.0151775
753.609	0.0151369
753.687	0.0149632
753.765	0.0149916
753.843	0.0150118
753.921	0.0148969
753.999	0.0147957
754.078	0.0149133
754.156	0.0150109
754.234	0.0149817
754.312	0.0150678
754.390	0.0151830
754.468	0.0151962
754.546	0.0153795
754.624	0.0153803
754.703	0.0154910
754.781	0.0157111
754.859	0.0157636
754.937	0.0158684
755.015	0.0161359
755.093	0.0162617
755.171	0.0162044
755.249	0.0164469
755.328	0.0163337
755.406	0.0163381
755.484	0.0164246
755.562	0.0164085
755.640	0.0161979
755.718	0.0162093
755.796	0.0160851
755.874	0.0160693
755.953	0.0158057
756.031	0.0156842
756.109	0.0155689
756.187	0.0156144
756.265	0.0154196
756.343	0.0152371
756.421	0.0150790
756.499	0.0150795
756.578	0.0150447
756.656	0.0150315
756.734	0.0149197
756.812	0.0151980
756.890	0.0151663
756.968	0.0151377
757.046	0.0151295
757.124	0.0151319
757.203	0.0151024
757.281	0.0153198
757.359	0.0153388
757.437	0.0153997
757.515	0.0153742
757.593	0.0154028
757.671	0.0152216
757.749	0.0153111
757.828	0.0152329
757.906	0.0152460
757.984	0.0152950
758.062	0.0152557
758.140	0.0151585
758.218	0.0151759
758.296	0.0150578
758.374	0.0150348
758.453	0.0149787
758.531	0.0150645
758.609	0.0152188
758.687	0.0151640
758.765	0.0152029
758.843	0.0153483
758.921	0.0153661
758.999	0.0155563
759.078	0.0156020
759.156	0.0155634
759.234	0.0156260
759.312	0.0155857
759.390	0.0155614
759.468	0.0157471
759.546	0.0157632
759.624	0.0158341
759.703	0.0156834
759.781	0.0157624
759.859	0.0158167
759.937	0.0160277
760.015	0.0159875
760.093	0.0159987
760.171	0.0163943
760.249	0.0162473
760.328	0.0162263
760.406	0.0163065
760.484	0.0163924
760.562	0.0161874
760.640	0.0161233
760.718	0.0160874
760.796	0.0161266
760.874	0.0159489
760.953	0.0157698
761.031	0.0156247
761.109	0.0155801
761.187	0.0154014
761.265	0.0153632
761.343	0.0152589
761.421	0.0152788
761.499	0.0150885
761.578	0.0151014
761.656	0.0149728
761.734	0.0150236
761.812	0.0150782
761.890	0.0150515
761.968	0.0152445
762.046	0.0150852
762.124	0.0150845
762.203	0.0152300
762.281	0.0151818
762.359	0.0151901
762.437	0.0151129
762.515	0.0151553
762.593	0.0152175
762.671	0.0150603
762.749	0.0151251
762.828	0.0150562
762.906	0.0151160
762.984	0.0150314
763.062	0.0152335
763.140	0.0152274
763.218	0.0154327
763.296	0.0153863
763.374	0.0153873
763.453	0.0154632
763.531	0.0154512
763.609	0.0156242
763.687	0.0156091
763.765	0.0155775
763.843	0.0156271
763.921	0.0157923
763.999	0.0157983
764.078	0.0158379
764.156	0.0156980
764.234	0.0155475
764.312	0.0156525
764.390	0.0157958
764.468	0.0157353
764.546	0.0155725
764.624	0.0154629
764.703	0.0155619
764.781	0.0155854
764.859	0.0156551
764.937	0.0157539
765.015	0.0156202
765.093	0.0155785
765.171	0.0156904
765.249	0.0156496
765.328	0.0157412
765.406	0.0156762
765.484	0.0156244
765.562	0.0156866
765.640	0.0156626
765.718	0.0154594
765.796	0.0154558
765.874	0.0154868
765.953	0.0153196
766.031	0.0153881
766.109	0.0153757
766.187	0.0153050
766.265	0.0153916
766.343	0.0154850
766.421	0.0155147
766.499	0.0152672
766.578	0.0153830
766.656	0.0153255
766.734	0.0153114
766.812	0.0151543
766.890	0.0152280
766.968	0.0152332
767.046	0.0152654
767.124	0.0152631
767.203	0.0152510
767.281	0.0152894
767.359	0.0152251
767.437	0.0151725
767.515	0.0152377
767.593	0.0153501
767.671	0.0152118
767.749	0.0152857
767.828	0.0154141
767.906	0.0154816
767.984	0.0155635
768.062	0.0154792
768.140	0.0155886
768.218	0.0155283
768.296	0.0155382
768.374	0.0157052
768.453	0.0155593
768.531	0.0154053
768.609	0.0154333
768.687	0.0154805
768.765	0.0153288
768.843	0.0154368
768.921	0.0153375
768.999	0.0153684
769.078	0.0153157
769.156	0.0153262
769.234	0.0153362
769.312	0.0154491
769.390	0.0155803
769.468	0.0155858
769.546	0.0154924
769.624	0.0154764
769.703	0.0155598
769.781	0.0156688
769.859	0.0155865
769.937	0.0158212
770.015	0.0158381
770.093	0.0159525
770.171	0.0157513
770.249	0.0158173
770.328	0.0159174
770.406	0.0158185
770.484	0.0158064
770.562	0.0158974
770.640	0.0158213
770.718	0.0157533
770.796	0.0156944
770.874	0.0156837
770.953	0.0154247
771.031	0.0154920
771.109	0.0154177
771.187	0.0153694
771.265	0.0154114
771.343	0.0154285
771.421	0.0152966
771.499	0.0152007
771.578	0.0152609
771.656	0.0151781
771.734	0.0150857
771.812	0.0151875
771.890	0.0151349
771.968	0.0153117
772.046	0.0152137
772.124	0.0152979
772.203	0.0154028
772.281	0.0155047
772.359	0.0153421
772.437	0.0153869
772.515	0.0155036
772.593	0.0156222
772.671	0.0156620
772.749	0.0155428
772.828	0.0155450
772.906	0.0155544
772.984	0.0155599
773.062	0.0154904
773.140	0.0156052
773.218	0.0157381
773.296	0.0156438
773.374	0.0155106
773.453	0.0155083
773.531	0.0154485
773.609	0.0154919
773.687	0.0154371
773.765	0.0154850
773.843	0.0153883
773.921	0.0153644
773.999	0.0154515
774.078	0.0153543
774.156	0.0153264
774.234	0.0153606
774.312	0.0153283
774.390	0.0152998
774.468	0.0153169
774.546	0.0154501
774.624	0.0154649
774.703	0.0153045
774.781	0.0153387
774.859	0.0154723
774.937	0.0154725
775.015	0.0154454
775.093	0.0154467
775.171	0.0155201
775.249	0.0156532
775.328	0.0157139
775.406	0.0157558
775.484	0.0157807
775.562	0.0158863
775.640	0.0157685
775.718	0.0157560
775.796	0.0157836
775.874	0.0157163
775.953	0.0157681
776.031	0.0157378
776.109	0.0157629
776.187	0.0156980
776.265	0.0156107
776.343	0.0155679
776.421	0.0157452
776.499	0.0155261
776.578	0.0154913
776.656	0.0155772
776.734	0.0154947
776.812	0.0155009
776.890	0.0156106
776.968	0.0153873
777.046	0.0155860
777.124	0.0154213
777.203	0.0153817
777.281	0.0153461
777.359	0.0153960
777.437	0.0153306
777.515	0.0153181
777.593	0.0153391
777.671	0.0151153
777.749	0.0152162
777.828	0.0152694
777.906	0.0153088
777.984	0.0152227
778.062	0.0152608
778.140	0.0152504
778.218	0.0151816
778.296	0.0151599
778.374	0.0152776
778.453	0.0152452
778.531	0.0151854
778.609	0.0151168
778.687	0.0152748
778.765	0.0152640
778.843	0.0155456
778.921	0.0155402
778.999	0.0154733
779.078	0.0155991
779.156	0.0157381
779.234	0.0157167
779.312	0.0156689
779.390	0.0157051
779.468	0.0158733
779.546	0.0156280
779.624	0.0156755
779.703	0.0158052
779.781	0.0157591
779.859	0.0157941
779.937	0.0158633
780.015	0.0159212
780.093	0.0159805
780.171	0.0159969
780.249	0.0159496
780.328	0.0159559
780.406	0.0160280
780.484	0.0159824
780.562	0.0158985
780.640	0.0159346
780.718	0.0159025
780.796	0.0158524
780.874	0.0159923
780.953	0.0158279
781.031	0.0157468
781.109	0.0156166
781.187	0.0156229
781.265	0.0154540
781.343	0.0153305
781.421	0.0153831
781.499	0.0152693
781.578	0.0151955
781.656	0.0151100
781.734	0.0150775
781.812	0.0150373
781.890	0.0151124
781.968	0.0149965
782.046	0.0149987
782.124	0.0149644
782.203	0.0150844
782.281	0.0151000
782.359	0.0150726
782.437	0.0149756
782.515	0.0150363
782.593	0.0150951
782.671	0.0151865
782.749	0.0152804
782.828	0.0152316
782.906	0.0152521
782.984	0.0153806
783.062	0.0154086
783.140	0.0154659
783.218	0.0154286
783.296	0.0156373
783.374	0.0155930
783.453	0.0156685
783.531	0.0157075
783.609	0.0157066
783.687	0.0156648
783.765	0.0158368
783.843	0.0155861
783.921	0.0158270
783.999	0.0159093
784.078	0.0158391
784.156	0.0159171
784.234	0.0159406
784.312	0.0159538
784.390	0.0159705
784.468	0.0157620
784.546	0.0157984
784.624	0.0157698
784.703	0.0157999
784.781	0.0155769
784.859	0.0157825
784.937	0.0155049
785.015	0.0156345
785.093	0.0154429
785.171	0.0154093
785.249	0.0154204
785.328	0.0153777
785.406	0.0153355
785.484	0.0153379
785.562	0.0152148
785.640	0.0152464
785.718	0.0152963
785.796	0.0151670
785.874	0.0152173
785.953	0.0152236
786.031	0.0152058
786.109	0.0152476
786.187	0.0152401
786.265	0.0152802
786.343	0.0152272
786.421	0.0154039
786.499	0.0154247
786.578	0.0153249
786.656	0.0154379
786.734	0.0154269
786.812	0.0155686
786.890	0.0155560
786.968	0.0154614
787.046	0.0153972
787.124	0.0155949
787.203	0.0153470
787.281	0.0155225
787.359	0.0154708
787.437	0.0156192
787.515	0.0155386
787.593	0.0154710
787.671	0.0155160
787.749	0.0154876
787.828	0.0154745
787.906	0.0155904
787.984	0.0156052
788.062	0.0155134
788.140	0.0155123
788.218	0.0156234
788.296	0.0156619
788.374	0.0156930
788.453	0.0156713
788.531	0.0156477
788.609	0.0156583
788.687	0.0156949
788.765	0.0156631
788.843	0.0155894
788.921	0.0155918
788.999	0.0156093
789.078	0.0154711
789.156	0.0153945
789.234	0.0155131
789.312	0.0154973
789.390	0.0155343
789.468	0.0153024
789.546	0.0154527
789.624	0.0153370
789.703	0.0152725
789.781	0.0152148
789.859	0.0152914
789.937	0.0153262
790.015	0.0152337
790.093	0.0153866
790.171	0.0153179
790.249	0.0154346
790.328	0.0154874
790.406	0.0154652
790.484	0.0154428
790.562	0.0155773
790.640	0.0154890
790.718	0.0154818
790.796	0.0154813
790.874	0.0155981
790.953	0.0156332
791.031	0.0156059
791.109	0.0156431
791.187	0.0156426
791.265	0.0155959
791.343	0.0156818
791.421	0.0156577
791.499	0.0155533
791.578	0.0155927
791.656	0.0155688
791.734	0.0154895
791.812	0.0156461
791.890	0.0155135
791.968	0.0154633
792.046	0.0154121
792.124	0.0155448
792.203	0.0154408
792.281	0.0155286
792.359	0.0154422
792.437	0.0153997
792.515	0.0154848
792.593	0.0154183
792.671	0.0153622
792.749	0.0154798
792.828	0.0155060
792.906	0.0154636
792.984	0.0154292
793.062	0.0153198
793.140	0.0154471
793.218	0.0154474
793.296	0.0154461
793.374	0.0153377
793.453	0.0155167
793.531	0.0154220
793.609	0.0155006
793.687	0.0154037
793.765	0.0155094
793.843	0.0155367
793.921	0.0154860
793.999	0.0155095
794.078	0.0155200
794.156	0.0154839
794.234	0.0156306
794.312	0.0155637
794.390	0.0155761
794.468	0.0155299
794.546	0.0156052
794.624	0.0155812
794.703	0.0156387
794.781	0.0156689
794.859	0.0156065
794.937	0.0155849
795.015	0.0155245
795.093	0.0155309
795.171	0.0154666
795.249	0.0153738
795.328	0.0154454
795.406	0.0154617
795.484	0.0153827
795.562	0.0153625
795.640	0.0154780
795.718	0.0153551
795.796	0.0152940
795.874	0.0153655
795.953	0.0152870
796.031	0.0153076
796.109	0.0153111
796.187	0.0154970
796.265	0.0154264
796.343	0.0152862
796.421	0.0152252
796.499	0.0153632
796.578	0.0153531
796.656	0.0153964
796.734	0.0154440
796.812	0.0154855
796.890	0.0155557
796.968	0.0153851
797.046	0.0156480
797.124	0.0155776
797.203	0.0155325
797.281	0.0156845
797.359	0.0155106
797.437	0.0156052
797.515	0.0156171
797.593	0.0155732
797.671	0.0154474
797.749	0.0154050
797.828	0.0156348
797.906	0.0154952
797.984	0.0153376
798.062	0.0153044
798.140	0.0154257
798.218	0.0153651
798.296	0.0154436
798.374	0.0154426
798.453	0.0153802
798.531	0.0153155
798.609	0.0152067
798.687	0.0153851
798.765	0.0152937
798.843	0.0154260
798.921	0.0154148
798.999	0.0154256
799.078	0.0155227
799.156	0.0155729
799.234	0.0156699
799.312	0.0155035
799.390	0.0155112
799.468	0.0155347
799.546	0.0155991
799.624	0.0157753
799.703	0.0157938
799.781	0.0156912
799.859	0.0157161
799.937	0.0156724
800.015	0.0156184
800.093	0.0155154
800.171	0.0156690
800.249	0.0157114
800.328	0.0157097
800.406	0.0156483
800.484	0.0155023
800.562	0.0154874
800.640	0.0155289
800.718	0.0154948
800.796	0.0154129
800.874	0.0155249
800.953	0.0154102
801.031	0.0153445
801.109	0.0153639
801.187	0.0154239
801.265	0.0154311
801.343	0.0153228
801.421	0.0155106
801.499	0.0154820
801.578	0.0153214
801.656	0.0154143
801.734	0.0153207
801.812	0.0153303
801.890	0.0155047
801.968	0.0155064
802.046	0.0154443
802.124	0.0155396
802.203	0.0154896
802.281	0.0153619
802.359	0.0154645
802.437	0.0154294
802.515	0.0153413
802.593	0.0152999
802.671	0.0154871
802.749	0.0155224
802.828	0.0154368
802.906	0.0154363
802.984	0.0153490
803.062	0.0154660
803.140	0.0155773
803.218	0.0156465
803.296	0.0154292
803.374	0.0156475
803.453	0.0155996
803.531	0.0156197
803.609	0.0156849
803.687	0.0156106
803.765	0.0156124
803.843	0.0157185
803.921	0.0157397
803.999	0.0157069
804.078	0.0156680
804.156	0.0155829
804.234	0.0156729
804.312	0.0156059
804.390	0.0155827
804.468	0.0156635
804.546	0.0157304
804.624	0.0156858
804.703	0.0154310
804.781	0.0154446
804.859	0.0155093
804.937	0.0154226
805.015	0.0153627
805.093	0.0155086
805.171	0.0153796
805.249	0.0152777
805.328	0.0153103
805.406	0.0153563
805.484	0.0153477
805.562	0.0152843
805.640	0.0152339
805.718	0.0153037
805.796	0.0153273
805.874	0.0154196
805.953	0.0154464
806.031	0.0153305
806.109	0.0153790
806.187	0.0153783
806.265	0.0155193
806.343	0.0156503
806.421	0.0156352
806.499	0.0155117
806.578	0.0154816
806.656	0.0155566
806.734	0.0155332
806.812	0.0155231
806.890	0.0155740
806.968	0.0155861
807.046	0.0155219
807.124	0.0153851
807.203	0.0154319
807.281	0.0155100
807.359	0.0156590
807.437	0.0154468
807.515	0.0154532
807.593	0.0155910
807.671	0.0156172
807.749	0.0154078
807.828	0.0155736
807.906	0.0154829
807.984	0.0155328
808.062	0.0154590
808.140	0.0155235
808.218	0.0156940
808.296	0.0155762
808.374	0.0155429
808.453	0.0155701
808.531	0.0155538
808.609	0.0155621
808.687	0.0155484
808.765	0.0154465
808.843	0.0154378
808.921	0.0155262
808.999	0.0154127
809.078	0.0155771
809.156	0.0153516
809.234	0.0154095
809.312	0.0155576
809.390	0.0155462
809.468	0.0155116
809.546	0.0155206
809.624	0.0155392
809.703	0.0154393
809.781	0.0154271
809.859	0.0154984
809.937	0.0153765
810.015	0.0155045
810.093	0.0155764
810.171	0.0154958
810.249	0.0156168
810.328	0.0155605
810.406	0.0156915
810.484	0.0154415
810.562	0.0156015
810.640	0.0156074
810.718	0.0156202
810.796	0.0153915
810.874	0.0155215
810.953	0.0154084
811.031	0.0155172
811.109	0.0153893
811.187	0.0154023
811.265	0.0156776
811.343	0.0154394
811.421	0.0151830
811.499	0.0153424
811.578	0.0154415
811.656	0.0154145
811.734	0.0153224
811.812	0.0154801
811.890	0.0154177
811.968	0.0154343
812.046	0.0154722
812.124	0.0153518
812.203	0.0154578
812.281	0.0153773
812.359	0.0153712
812.437	0.0154709
812.515	0.0154913
812.593	0.0154736
812.671	0.0153463
812.749	0.0154142
812.828	0.0154398
812.906	0.0153446
812.984	0.0154420
813.062	0.0155434
813.140	0.0155553
813.218	0.0154588
813.296	0.0155592
813.374	0.0155547
813.453	0.0155958
813.531	0.0156130
813.609	0.0155917
813.687	0.0155172
813.765	0.0155576
813.843	0.0156807
813.921	0.0156190
813.999	0.0155973
814.078	0.0156346
814.156	0.0155254
814.234	0.0154334
814.312	0.0154830
814.390	0.0155926
814.468	0.0155695
814.546	0.0154673
814.624	0.0155609
814.703	0.0155180
814.781	0.0154983
814.859	0.0155442
814.937	0.0154144
815.015	0.0154868
815.093	0.0154839
815.171	0.0155223
815.249	0.0154968
815.328	0.0154326
815.406	0.0155271
815.484	0.0156193
815.562	0.0154448
815.640	0.0155175
815.718	0.0155362
815.796	0.0156091
815.874	0.0156038
815.953	0.0155273
816.031	0.0153928
816.109	0.0155342
816.187	0.0155246
816.265	0.0154644
816.343	0.0153438
816.421	0.0153236
816.499	0.0153756
816.578	0.0154269
816.656	0.0154292
816.734	0.0153371
816.812	0.0153483
816.890	0.0155009
816.968	0.0156153
817.046	0.0154965
817.124	0.0153373
817.203	0.0153268
817.281	0.0154404
817.359	0.0154456
817.437	0.0154440
817.515	0.0153936
817.593	0.0155209
817.671	0.0155434
817.749	0.0155389
817.828	0.0153478
817.906	0.0155193
817.984	0.0155532
818.062	0.0156808
818.140	0.0155599
818.218	0.0155266
818.296	0.0154800
818.374	0.0154446
818.453	0.0154842
818.531	0.0155096
818.609	0.0154342
818.687	0.0155401
818.765	0.0155462
818.843	0.0155628
818.921	0.0155821
818.999	0.0154866
819.078	0.0155180
819.156	0.0154671
819.234	0.0155204
819.312	0.0155326
819.390	0.0155515
819.468	0.0155215
819.546	0.0155592
819.624	0.0154945
819.703	0.0155602
819.781	0.0155080
819.859	0.0154781
819.937	0.0155361
820.015	0.0156235
820.093	0.0156238
820.171	0.0155012
820.249	0.0155682
820.328	0.0155665
820.406	0.0155941
820.484	0.0154892
820.562	0.0155141
820.640	0.0155726
820.718	0.0156533
820.796	0.0155601
820.874	0.0155660
820.953	0.0154846
821.031	0.0155183
821.109	0.0155224
821.187	0.0155569
821.265	0.0154950
821.343	0.0156018
821.421	0.0155868
821.499	0.0155132
821.578	0.0154082
821.656	0.0152992
821.734	0.0155605
821.812	0.0154552
821.890	0.0154816
821.968	0.0153217
822.046	0.0153321
822.124	0.0154626
822.203	0.0154875
822.281	0.0154692
822.359	0.0154979
822.437	0.0154901
822.515	0.0154145
822.593	0.0155917
822.671	0.0155539
822.749	0.0154249
822.828	0.0156371
822.906	0.0154304
822.984	0.0154915
823.062	0.0156462
823.140	0.0155793
823.218	0.0154963
823.296	0.0156782
823.374	0.0155663
823.453	0.0154516
823.531	0.0155138
823.609	0.0156771
823.687	0.0157486
823.765	0.0156680
823.843	0.0155006
823.921	0.0155742
823.999	0.0155307
824.078	0.0155093
824.156	0.0154051
824.234	0.0155692
824.312	0.0154529
824.390	0.0155494
824.468	0.0155643
824.546	0.0154283
824.624	0.0154353
824.703	0.0155153
824.781	0.0155530
824.859	0.0154446
824.937	0.0153623
825.015	0.0154041
825.093	0.0154992
825.171	0.0154564
825.249	0.0154095
825.328	0.0155318
825.406	0.0155106
825.484	0.0154375
825.562	0.0154589
825.640	0.0154790
825.718	0.0155096
825.796	0.0154047
825.874	0.0153797
825.953	0.0155250
826.031	0.0156276
826.109	0.0154509
826.187	0.0154623
826.265	0.0154397
826.343	0.0153680
826.421	0.0155346
826.499	0.0154564
826.578	0.0154904
826.656	0.0152688
826.734	0.0153854
826.812	0.0152569
826.890	0.0152895
826.968	0.0153493
827.046	0.0154606
827.124	0.0155156
827.203	0.0153934
827.281	0.0154159
827.359	0.0153862
827.437	0.0154553
827.515	0.0153593
827.593	0.0156695
827.671	0.0156466
827.749	0.0155762
827.828	0.0156826
827.906	0.0156185
827.984	0.0155934
828.062	0.0155956
828.140	0.0157364
828.218	0.0156786
828.296	0.0154999
828.374	0.0156278
828.453	0.0156945
828.531	0.0155886
828.609	0.0156321
828.687	0.0155278
828.765	0.0155889
828.843	0.0155588
828.921	0.0156281
828.999	0.0155059
829.078	0.0154443
829.156	0.0153327
829.234	0.0153309
829.312	0.0156243
829.390	0.0154213
829.468	0.0152383
829.546	0.0154110
829.624	0.0155740
829.703	0.0154962
829.781	0.0153280
829.859	0.0153550
829.937	0.0154459
830.015	0.0153620
830.093	0.0155156
830.171	0.0154315
830.249	0.0154794
830.328	0.0154536
830.406	0.0155041
830.484	0.0154359
830.562	0.0154788
830.640	0.0153952
830.718	0.0154284
830.796	0.0154841
830.874	0.0155137
830.953	0.0154856
831.031	0.0155123
831.109	0.0154074
831.187	0.0154533
831.265	0.0154910
831.343	0.0154617
831.421	0.0155312
831.499	0.0155092
831.578	0.0156220
831.656	0.0154685
831.734	0.0155121
831.812	0.0155862
831.890	0.0153941
831.968	0.0154572
832.046	0.0155504
832.124	0.0155170
832.203	0.0153996
832.281	0.0154753
832.359	0.0155851
832.437	0.0154595
832.515	0.0154552
832.593	0.0153838
832.671	0.0153950
832.749	0.0155290
832.828	0.0155236
832.906	0.0154272
832.984	0.0154112
833.062	0.0154845
833.140	0.0154961
833.218	0.0153815
833.296	0.0154399
833.374	0.0154652
833.453	0.0154720
833.531	0.0153514
833.609	0.0155621
833.687	0.0155478
833.765	0.0156847
833.843	0.0154848
833.921	0.0155762
833.999	0.0154755
834.078	0.0154864
834.156	0.0155684
834.234	0.0154980
834.312	0.0157143
834.390	0.0156449
834.468	0.0157613
834.546	0.0155727
834.624	0.0155268
834.703	0.0155539
834.781	0.0156014
834.859	0.0156268
834.937	0.0154455
835.015	0.0155370
835.093	0.0153823
835.171	0.0153423
835.249	0.0155168
835.328	0.0154794
835.406	0.0153632
835.484	0.0154646
835.562	0.0156859
835.640	0.0153806
835.718	0.0153552
835.796	0.0156218
835.874	0.0153940
835.953	0.0154433
836.031	0.0153168
836.109	0.0154202
836.187	0.0153199
836.265	0.0154115
836.343	0.0155047
836.421	0.0154633
836.499	0.0154711
836.578	0.0153943
836.656	0.0155671
836.734	0.0154626
836.812	0.0155502
836.890	0.0155743
836.968	0.0154722
837.046	0.0155264
837.124	0.0155585
837.203	0.0153965
837.281	0.0154111
837.359	0.0155302
837.437	0.0155455
837.515	0.0153882
837.593	0.0153696
837.671	0.0153590
837.749	0.0155018
837.828	0.0154411
837.906	0.0153484
837.984	0.0156178
838.062	0.0155453
838.140	0.0154716
838.218	0.0156787
838.296	0.0156000
838.374	0.0154620
838.453	0.0157241
838.531	0.0156186
838.609	0.0155492
838.687	0.0154473
838.765	0.0154369
838.843	0.0155902
838.921	0.0155484
838.999	0.0154939
839.078	0.0154222
839.156	0.0154001
839.234	0.0153687
839.312	0.0154014
839.390	0.0153893
839.468	0.0154398
839.546	0.0153671
839.624	0.0153857
839.703	0.0153015
839.781	0.0154939
839.859	0.0154146
839.937	0.0153696
840.015	0.0154025
840.093	0.0154533
840.171	0.0153698
840.249	0.0155199
840.328	0.0155588
840.406	0.0154191
840.484	0.0153680
840.562	0.0154723
840.640	0.0156075
840.718	0.0155628
840.796	0.0156042
840.874	0.0155979
840.953	0.0154282
841.031	0.0154503
841.109	0.0155173
841.187	0.0155691
841.265	0.0154037
841.343	0.0153957
841.421	0.0153516
841.499	0.0153400
841.578	0.0153793
841.656	0.0154093
841.734	0.0153648
841.812	0.0155444
841.890	0.0153576
841.968	0.0154108
842.046	0.0156257
842.124	0.0154824
842.203	0.0153849
842.281	0.0155934
842.359	0.0156426
842.437	0.0155428
842.515	0.0155460
842.593	0.0157555
842.671	0.0156227
842.749	0.0155549
842.828	0.0155629
842.906	0.0157564
842.984	0.0157318
843.062	0.0157047
843.140	0.0156749
843.218	0.0155260
843.296	0.0156915
843.374	0.0156548
843.453	0.0155271
843.531	0.0156325
843.609	0.0156553
843.687	0.0156097
843.765	0.0155437
843.843	0.0156232
843.921	0.0154621
843.999	0.0154991
844.078	0.0153908
844.156	0.0156321
844.234	0.0155656
844.312	0.0153901
844.390	0.0153869
844.468	0.0153545
844.546	0.0153991
844.624	0.0153694
844.703	0.0155069
844.781	0.0155501
844.859	0.0154243
844.937	0.0153910
845.015	0.0154160
845.093	0.0153738
845.171	0.0152962
845.249	0.0154985
845.328	0.0153692
845.406	0.0154484
845.484	0.0154843
845.562	0.0153393
845.640	0.0153440
845.718	0.0153809
845.796	0.0154252
845.874	0.0154243
845.953	0.0153374
846.031	0.0152647
846.109	0.0154589
846.187	0.0155447
846.265	0.0155862
846.343	0.0156077
846.421	0.0155797
846.499	0.0155795
846.578	0.0155837
846.656	0.0156754
846.734	0.0156516
846.812	0.0156228
846.890	0.0156466
846.968	0.0156277
847.046	0.0155794
847.124	0.0155464
847.203	0.0153872
847.281	0.0154160
847.359	0.0155659
847.437	0.0154802
847.515	0.0154124
847.593	0.0155521
847.671	0.0154984
847.749	0.0154075
847.828	0.0153968
847.906	0.0154435
847.984	0.0154055
848.062	0.0153840
848.140	0.0155112
848.218	0.0153858
848.296	0.0153835
848.374	0.0154841
848.453	0.0155050
848.531	0.0154461
848.609	0.0154001
848.687	0.0155256
848.765	0.0153977
848.843	0.0154768
848.921	0.0154340
848.999	0.0154272
849.078	0.0153114
849.156	0.0153970
849.234	0.0154792
849.312	0.0154131
849.390	0.0154297
849.468	0.0154024
849.546	0.0153819
849.624	0.0153410
849.703	0.0152238
849.781	0.0154102
849.859	0.0153278
849.937	0.0153754
850.015	0.0154169
850.093	0.0153426
850.171	0.0153483
850.249	0.0153477
850.328	0.0153765
850.406	0.0154402
850.484	0.0152769
850.562	0.0154015
850.640	0.0154175
850.718	0.0154337
850.796	0.0153748
850.874	0.0154227
850.953	0.0153194
851.031	0.0154476
851.109	0.0154768
851.187	0.0155637
851.265	0.0154061
851.343	0.0154218
851.421	0.0155089
851.499	0.0154961
851.578	0.0154828
851.656	0.0155737
851.734	0.0155903
851.812	0.0156273
851.890	0.0155538
851.968	0.0154562
852.046	0.0154819
852.124	0.0155296
852.203	0.0155014
852.281	0.0154787
852.359	0.0154759
852.437	0.0155870
852.515	0.0156396
852.593	0.0155721
852.671	0.0154543
852.749	0.0154320
852.828	0.0156467
852.906	0.0154359
852.984	0.0155792
853.062	0.0156142
853.140	0.0155956
853.218	0.0156592
853.296	0.0156000
853.374	0.0155093
853.453	0.0154128
853.531	0.0154508
853.609	0.0154659
853.687	0.0155374
853.765	0.0155614
853.843	0.0154507
853.921	0.0155796
853.999	0.0154291
854.078	0.0154276
854.156	0.0154470
854.234	0.0153636
854.312	0.0153836
854.390	0.0153466
854.468	0.0154902
854.546	0.0154166
854.624	0.0153465
854.703	0.0154016
854.781	0.0153156
854.859	0.0154565
854.937	0.0155389
855.015	0.0153201
855.093	0.0153191
855.171	0.0155643
855.249	0.0155055
855.328	0.0153694
855.406	0.0155349
855.484	0.0154912
855.562	0.0153857
855.640	0.0154112
855.718	0.0155356
855.796	0.0155653
855.874	0.0155950
855.953	0.0155293
856.031	0.0154601
856.109	0.0154054
856.187	0.0155859
856.265	0.0156721
856.343	0.0153993
856.421	0.0155488
856.499	0.0155186
856.578	0.0154797
856.656	0.0155525
856.734	0.0155390
856.812	0.0155527
856.890	0.0155093
856.968	0.0155334
857.046	0.0155689
857.124	0.0156630
857.203	0.0155714
857.281	0.0155472
857.359	0.0154490
857.437	0.0154328
857.515	0.0156648
857.593	0.0154734
857.671	0.0154897
857.749	0.0156068
857.828	0.0154879
857.906	0.0152510
857.984	0.0153783
858.062	0.0154758
858.140	0.0153989
858.218	0.0154318
858.296	0.0153541
858.374	0.0153661
858.453	0.0154419
858.531	0.0153960
858.609	0.0153161
858.687	0.0153715
858.765	0.0153971
858.843	0.0154123
858.921	0.0154355
858.999	0.0153075
859.078	0.0153296
859.156	0.0153838
859.234	0.0153534
859.312	0.0154362
859.390	0.0153839
859.468	0.0153105
859.546	0.0154691
859.624	0.0153113
859.703	0.0154953
859.781	0.0155370
859.859	0.0155777
859.937	0.0155317
860.015	0.0155341
860.093	0.0154758
860.171	0.0154779
860.249	0.0154896
860.328	0.0156108
860.406	0.0155864
860.484	0.0155003
860.562	0.0155335
860.640	0.0155099
860.718	0.0155196
860.796	0.0154567
860.874	0.0154380
860.953	0.0155547
861.031	0.0155707
861.109	0.0156631
861.187	0.0154992
861.265	0.0155389
861.343	0.0155785
861.421	0.0155808
861.499	0.0154805
861.578	0.0153933
861.656	0.0155614
861.734	0.0154814
861.812	0.0154119
861.890	0.0154688
861.968	0.0155113
862.046	0.0154707
862.124	0.0154509
862.203	0.0155636
862.281	0.0155437
862.359	0.0156023
862.437	0.0156178
862.515	0.0154623
862.593	0.0154836
862.671	0.0155550
862.749	0.0154675
862.828	0.0155348
862.906	0.0155006
862.984	0.0154039
863.062	0.0153992
863.140	0.0154338
863.218	0.0154642
863.296	0.0154581
863.374	0.0154068
863.453	0.0153843
863.531	0.0153738
863.609	0.0154552
863.687	0.0154635
863.765	0.0153249
863.843	0.0154323
863.921	0.0154996
863.999	0.0153932
864.078	0.0153600
864.156	0.0153699
864.234	0.0153452
864.312	0.0154759
864.390	0.0154795
864.468	0.0154168
864.546	0.0154143
864.624	0.0154745
864.703	0.0153957
864.781	0.0152921
864.859	0.0154191
864.937	0.0154008
865.015	0.0154752
865.093	0.0153809
865.171	0.0153991
865.249	0.0153007
865.328	0.0153177
865.406	0.0154982
865.484	0.0155693
865.562	0.0155264
865.640	0.0154027
865.718	0.0154697
865.796	0.0154391
865.874	0.0155058
865.953	0.0155273
866.031	0.0155892
866.109	0.0155854
866.187	0.0154696
866.265	0.0154096
866.343	0.0153557
866.421	0.0153980
866.499	0.0153939
866.578	0.0155167
866.656	0.0155009
866.734	0.0154145
866.812	0.0153689
866.890	0.0154833
866.968	0.0154185
867.046	0.0153752
867.124	0.0153659
867.203	0.0155833
867.281	0.0154222
867.359	0.0152406
867.437	0.0154938
867.515	0.0155022
867.593	0.0153196
867.671	0.0153030
867.749	0.0154487
867.828	0.0153696
867.906	0.0153278
867.984	0.0153333
868.062	0.0153858
868.140	0.0153395
868.218	0.0155345
868.296	0.0154353
868.374	0.0154295
868.453	0.0153518
868.531	0.0154137
868.609	0.0154330
868.687	0.0154386
868.765	0.0154356
868.843	0.0155316
868.921	0.0156263
868.999	0.0155247
869.078	0.0154189
869.156	0.0154397
869.234	0.0154684
869.312	0.0155251
869.390	0.0154918
869.468	0.0155881
869.546	0.0154840
869.624	0.0155727
869.703	0.0154723
869.781	0.0154339
869.859	0.0153712
869.937	0.0153432
870.015	0.0154607
870.093	0.0153395
870.171	0.0153902
870.249	0.0153685
870.328	0.0153770
870.406	0.0152482
870.484	0.0153593
870.562	0.0152545
870.640	0.0153906
870.718	0.0152883
870.796	0.0151599
870.874	0.0153721
870.953	0.0153307
871.031	0.0154443
871.109	0.0154395
871.187	0.0153935
871.265	0.0154218
871.343	0.0154989
871.421	0.0154454
871.499	0.0154676
871.578	0.0154628
871.656	0.0154762
871.734	0.0155746
871.812	0.0154194
871.890	0.0154572
871.968	0.0154449
872.046	0.0155025
872.124	0.0154931
872.203	0.0155476
872.281	0.0154773
872.359	0.0154787
872.437	0.0154214
872.515	0.0155051
872.593	0.0154541
872.671	0.0155208
872.749	0.0154867
872.828	0.0156023
872.906	0.0155971
872.984	0.0154921
873.062	0.0154704
873.140	0.0153939
873.218	0.0155212
873.296	0.0154290
873.374	0.0153542
873.453	0.0155101
873.531	0.0155572
873.609	0.0154040
873.687	0.0155164
873.765	0.0155681
873.843	0.0154192
873.921	0.0154552
873.999	0.0153548
874.078	0.0154214
874.156	0.0153934
874.234	0.0154624
874.312	0.0154855
874.390	0.0154910
874.468	0.0154134
874.546	0.0154058
874.624	0.0153893
874.703	0.0153740
874.781	0.0154057
874.859	0.0153502
874.937	0.0154017
875.015	0.0152858
875.093	0.0153317
875.171	0.0152563
875.249	0.0152608
875.328	0.0154176
875.406	0.0154697
875.484	0.0155730
875.562	0.0155062
875.640	0.0153883
875.718	0.0153859
875.796	0.0154707
875.874	0.0155618
875.953	0.0155132
876.031	0.0155712
876.109	0.0155245
876.187	0.0156339
876.265	0.0155791
876.343	0.0155433
876.421	0.0155199
876.499	0.0155534
876.578	0.0155225
876.656	0.0155347
876.734	0.0155762
876.812	0.0153715
876.890	0.0153664
876.968	0.0155164
877.046	0.0155506
877.124	0.0155713
877.203	0.0156280
877.281	0.0155602
877.359	0.0155051
877.437	0.0156576
877.515	0.0156834
877.593	0.0155483
877.671	0.0155138
877.749	0.0155088
877.828	0.0155279
877.906	0.0154008
877.984	0.0156010
878.062	0.0155505
878.140	0.0152637
878.218	0.0152438
878.296	0.0155383
878.374	0.0153528
878.453	0.0153992
878.531	0.0153999
878.609	0.0153381
878.687	0.0153446
878.765	0.0153545
878.843	0.0153114
878.921	0.0152404
878.999	0.0153738
879.078	0.0152728
879.156	0.0152872
879.234	0.0154417
879.312	0.0155174
879.390	0.0154043
879.468	0.0153246
879.546	0.0154789
879.624	0.0155465
879.703	0.0156297
879.781	0.0154358
879.859	0.0153320
879.937	0.0155799
880.015	0.0156311
880.093	0.0156557
880.171	0.0155167
880.249	0.0156483
880.328	0.0157108
880.406	0.0155657
880.484	0.0156851
880.562	0.0156584
880.640	0.0157618
880.718	0.0156882
880.796	0.0156702
880.874	0.0156786
880.953	0.0156953
881.031	0.0156696
881.109	0.0156447
881.187	0.0156589
881.265	0.0154055
881.343	0.0155402
881.421	0.0155375
881.499	0.0154657
881.578	0.0155402
881.656	0.0154042
881.734	0.0154729
881.812	0.0154186
881.890	0.0154034
881.968	0.0154955
882.046	0.0153257
882.124	0.0153979
882.203	0.0154227
882.281	0.0154627
882.359	0.0153848
882.437	0.0153150
882.515	0.0153444
882.593	0.0153097
882.671	0.0153107
882.749	0.0153963
882.828	0.0155251
882.906	0.0153975
882.984	0.0154080
883.062	0.0153815
883.140	0.0153642
883.218	0.0153671
883.296	0.0152630
883.374	0.0154599
883.453	0.0154912
883.531	0.0154411
883.609	0.0153232
883.687	0.0154677
883.765	0.0153661
883.843	0.0154028
883.921	0.0155337
883.999	0.0155100
884.078	0.0153654
884.156	0.0155679
884.234	0.0154676
884.312	0.0153439
884.390	0.0155571
884.468	0.0154826
884.546	0.0155930
884.624	0.0155082
884.703	0.0155933
884.781	0.0157281
884.859	0.0157142
884.937	0.0156322
885.015	0.0156832
885.093	0.0155659
885.171	0.0156024
885.249	0.0157343
885.328	0.0155137
885.406	0.0155268
885.484	0.0154264
885.562	0.0153506
885.640	0.0155372
885.718	0.0154952
885.796	0.0155483
885.874	0.0155500
885.953	0.0154172
886.031	0.0154634
886.109	0.0155242
886.187	0.0154289
886.265	0.0152941
886.343	0.0154699
886.421	0.0153451
886.499	0.0153859
886.578	0.0152592
886.656	0.0152744
886.734	0.0153674
886.812	0.0153399
886.890	0.0152523
886.968	0.0152575
887.046	0.0153117
887.124	0.0154275
887.203	0.0154319
887.281	0.0154695
887.359	0.0154871
887.437	0.0155432
887.515	0.0154413
887.593	0.0154951
887.671	0.0154318
887.749	0.0155460
887.828	0.0155699
887.906	0.0154856
887.984	0.0155142
888.062	0.0155221
888.140	0.0155473
888.218	0.0154566
888.296	0.0156016
888.374	0.0154078
888.453	0.0154718
888.531	0.0155558
888.609	0.0154699
888.687	0.0155106
888.765	0.0154837
888.843	0.0155618
888.921	0.0155746
888.999	0.0154774
889.078	0.0155434
889.156	0.0154937
889.234	0.0154213
889.312	0.0153830
889.390	0.0153897
889.468	0.0154895
889.546	0.0154044
889.624	0.0153261
889.703	0.0154021
889.781	0.0152367
889.859	0.0152868
889.937	0.0154129
890.015	0.0152868
890.093	0.0152285
890.171	0.0152509
890.249	0.0153628
890.328	0.0154563
890.406	0.0152333
890.484	0.0153413
890.562	0.0152899
890.640	0.0153357
890.718	0.0153924
890.796	0.0153916
890.874	0.0153591
890.953	0.0155298
891.031	0.0154817
891.109	0.0155572
891.187	0.0155377
891.265	0.0156382
891.343	0.0156228
891.421	0.0155865
891.499	0.0156027
891.578	0.0155554
891.656	0.0154633
891.734	0.0155343
891.812	0.0156693
891.890	0.0154903
891.968	0.0155677
892.046	0.0155894
892.124	0.0154459
892.203	0.0155318
892.281	0.0156809
892.359	0.0154837
892.437	0.0154095
892.515	0.0156287
892.593	0.0156490
892.671	0.0154588
892.749	0.0155395
892.828	0.0155473
892.906	0.0155595
892.984	0.0155167
893.062	0.0155399
893.140	0.0154250
893.218	0.0156461
893.296	0.0154974
893.374	0.0153847
893.453	0.0155293
893.531	0.0155647
893.609	0.0154335
893.687	0.0153345
893.765	0.0154487
893.843	0.0153971
893.921	0.0154451
893.999	0.0154606
894.078	0.0154507
894.156	0.0153015
894.234	0.0153879
894.312	0.0153610
894.390	0.0154242
894.468	0.0154494
894.546	0.0154150
894.624	0.0153736
894.703	0.0154532
894.781	0.0154420
894.859	0.0154642
894.937	0.0154611
895.015	0.0154417
895.093	0.0153771
895.171	0.0155545
895.249	0.0154674
895.328	0.0153865
895.406	0.0154533
895.484	0.0156738
895.562	0.0155787
895.640	0.0156701
895.718	0.0156382
895.796	0.0156135
895.874	0.0156787
895.953	0.0156149
896.031	0.0155087
896.109	0.0156210
896.187	0.0154837
896.265	0.0154488
896.343	0.0154581
896.421	0.0155370
896.499	0.0155836
896.578	0.0155600
896.656	0.0155093
896.734	0.0155820
896.812	0.0155659
896.890	0.0155669
896.968	0.0154568
897.046	0.0154959
897.124	0.0154700
897.203	0.0154630
897.281	0.0155654
897.359	0.0154658
897.437	0.0155955
897.515	0.0155059
897.593	0.0153719
897.671	0.0154005
897.749	0.0155404
897.828	0.0154363
897.906	0.0156314
897.984	0.0153516
898.062	0.0153516
898.140	0.0154099
898.218	0.0153869
898.296	0.0153106
898.374	0.0154514
898.453	0.0155228
898.531	0.0155134
898.609	0.0154436
898.687	0.0154207
898.765	0.0154319
898.843	0.0153844
898.921	0.0153859
898.999	0.0153529
899.078	0.0154200
899.156	0.0153935
899.234	0.0152859
899.312	0.0154150
899.390	0.0154221
899.468	0.0153764
899.546	0.0153252
899.624	0.0154655
899.703	0.0155126
899.781	0.0155887
899.859	0.0154815
899.937	0.0154768
900.015	0.0153981
900.093	0.0154256
900.171	0.0155532
900.249	0.0155232
900.328	0.0154227
900.406	0.0154309
900.484	0.0153630
900.562	0.0154363
900.640	0.0154446
900.718	0.0155225
900.796	0.0155113
900.874	0.0156343
900.953	0.0155396
901.031	0.0154234
901.109	0.0155343
901.187	0.0155172
901.265	0.0153616
901.343	0.0155500
901.421	0.0154733
901.499	0.0153887
901.578	0.0154389
901.656	0.0153385
901.734	0.0154961
901.812	0.0154552
901.890	0.0155363
901.968	0.0153867
902.046	0.0153510
902.124	0.0155524
902.203	0.0154685
902.281	0.0154496
902.359	0.0153956
902.437	0.0154651
902.515	0.0153474
902.593	0.0156390
902.671	0.0155795
902.749	0.0156102
902.828	0.0155346
902.906	0.0155303
902.984	0.0155061
903.062	0.0154369
903.140	0.0156386
903.218	0.0156004
903.296	0.0156196
903.374	0.0156121
903.453	0.0155202
903.531	0.0155251
903.609	0.0155694
903.687	0.0157104
903.765	0.0157139
903.843	0.0154844
903.921	0.0154593
903.999	0.0156578
904.078	0.0155705
904.156	0.0153806
904.234	0.0155567
904.312	0.0154356
904.390	0.0154907
904.468	0.0153928
904.546	0.0155357
904.624	0.0156071
904.703	0.0154106
904.781	0.0154680
904.859	0.0154517
904.937	0.0153006
905.015	0.0154155
905.093	0.0154445
905.171	0.0154839
905.249	0.0154697
905.328	0.0153888
905.406	0.0154717
905.484	0.0153628
905.562	0.0154338
905.640	0.0155051
905.718	0.0153284
905.796	0.0154518
905.874	0.0154910
905.953	0.0154902
906.031	0.0153773
906.109	0.0154076
906.187	0.0154691
906.265	0.0154732
906.343	0.0153950
906.421	0.0154919
906.499	0.0155372
906.578	0.0154980
906.656	0.0154410
906.734	0.0155673
906.812	0.0155064
906.890	0.0156144
906.968	0.0156083
907.046	0.0155047
907.124	0.0154910
907.203	0.0155024
907.281	0.0155515
907.359	0.0155775
907.437	0.0153824
907.515	0.0154683
907.593	0.0155291
907.671	0.0153614
907.749	0.0155607
907.828	0.0155022
907.906	0.0153724
907.984	0.0154638
908.062	0.0155147
908.140	0.0155657
908.218	0.0155050
908.296	0.0154196
908.374	0.0155545
908.453	0.0154911
908.531	0.0155889
908.609	0.0153870
908.687	0.0153597
908.765	0.0154188
908.843	0.0153686
908.921	0.0154832
908.999	0.0153443
909.078	0.0153427
909.156	0.0154073
909.234	0.0154274
909.312	0.0154947
909.390	0.0153880
909.468	0.0154334
909.546	0.0155037
909.624	0.0154152
909.703	0.0155630
909.781	0.0153986
909.859	0.0153315
909.937	0.0155050
910.015	0.0154719
910.093	0.0154353
910.171	0.0154283
910.249	0.0155650
910.328	0.0156369
910.406	0.0155064
910.484	0.0156874
910.562	0.0156194
910.640	0.0155014
910.718	0.0155614
910.796	0.0154980
910.874	0.0154002
910.953	0.0154967
911.031	0.0156544
911.109	0.0155468
911.187	0.0154628
911.265	0.0154632
911.343	0.0154379
911.421	0.0154476
911.499	0.0154661
911.578	0.0154753
911.656	0.0155354
911.734	0.0155658
911.812	0.0154054
911.890	0.0154977
911.968	0.0153901
912.046	0.0156332
912.124	0.0154578
912.203	0.0154421
912.281	0.0154707
912.359	0.0154408
912.437	0.0154148
912.515	0.0154748
912.593	0.0155080
912.671	0.0154215
912.749	0.0153892
912.828	0.0155123
912.906	0.0155707
912.984	0.0154469
913.062	0.0154121
913.140	0.0154299
913.218	0.0154379
913.296	0.0153856
913.374	0.0154605
913.453	0.0153165
913.531	0.0155128
913.609	0.0155421
913.687	0.0153624
913.765	0.0153235
913.843	0.0155325
913.921	0.0156641
913.999	0.0155264
914.078	0.0154829
914.156	0.0155503
914.234	0.0155108
914.312	0.0155240
914.390	0.0155312
914.468	0.0154482
914.546	0.0156656
914.624	0.0153638
914.703	0.0156016
914.781	0.0156086
914.859	0.0154746
914.937	0.0153800
915.015	0.0155381
915.093	0.0154758
915.171	0.0155514
915.249	0.0152750
915.328	0.0153441
915.406	0.0152886
915.484	0.0153857
915.562	0.0154604
915.640	0.0153411
915.718	0.0152623
915.796	0.0154254
915.874	0.0155186
915.953	0.0154497
916.031	0.0154777
916.109	0.0153928
916.187	0.0154697
916.265	0.0153737
916.343	0.0154134
916.421	0.0154901
916.499	0.0154646
916.578	0.0155465
916.656	0.0153064
916.734	0.0154353
916.812	0.0155365
916.890	0.0155779
916.968	0.0154732
917.046	0.0155328
917.124	0.0156012
917.203	0.0154148
917.281	0.0153832
917.359	0.0154985
917.437	0.0155495
917.515	0.0155448
917.593	0.0154869
917.671	0.0154081
917.749	0.0154209
917.828	0.0155721
917.906	0.0155381
917.984	0.0155745
918.062	0.0155961
918.140	0.0154279
918.218	0.0155076
918.296	0.0154840
918.374	0.0154376
918.453	0.0155019
918.531	0.0154860
918.609	0.0154702
918.687	0.0156070
918.765	0.0155489
918.843	0.0155775
918.921	0.0155199
918.999	0.0153748
919.078	0.0154108
919.156	0.0155345
919.234	0.0154986
919.312	0.0154450
919.390	0.0154974
919.468	0.0155017
919.546	0.0154281
919.624	0.0153995
919.703	0.0153539
919.781	0.0155064
919.859	0.0154850
919.937	0.0154804
