06/10/2022	18:42:09	Ver.	4.1	UNKNOWN
Optical Delay	600.015094	Delta X		0.078125	Sweeps	1	Scan Rate	0/0
Coordinates	Axis 1	NaN	Axis 2	NaN	Axis 3	NaN	Axis 4	NaN	Axis 5	NaN	Axis 6	0.000000
TX Power	0.000000	RX Power	0.000000

600.015	0.0165292
600.093	0.0165501
600.171	0.0164922
600.249	0.0164881
600.328	0.0164779
600.406	0.0164798
600.484	0.0165373
600.562	0.0164996
600.640	0.0164639
600.718	0.0165058
600.796	0.0165656
600.874	0.0166161
600.953	0.0166521
601.031	0.0164733
601.109	0.0165531
601.187	0.0164955
601.265	0.0163811
601.343	0.0164624
601.421	0.0165827
601.499	0.0165633
601.578	0.0165408
601.656	0.0165174
601.734	0.0164948
601.812	0.0164216
601.890	0.0164613
601.968	0.0166232
602.046	0.0164378
602.124	0.0164507
602.203	0.0165285
602.281	0.0164611
602.359	0.0165243
602.437	0.0165419
602.515	0.0165801
602.593	0.0166023
602.671	0.0165178
602.749	0.0165237
602.828	0.0165251
602.906	0.0165294
602.984	0.0165068
603.062	0.0165239
603.140	0.0164688
603.218	0.0166848
603.296	0.0164013
603.374	0.0164930
603.453	0.0164182
603.531	0.0165208
603.609	0.0165340
603.687	0.0164055
603.765	0.0164259
603.843	0.0164693
603.921	0.0164967
603.999	0.0163916
604.078	0.0164339
604.156	0.0164595
604.234	0.0164885
604.312	0.0165112
604.390	0.0165549
604.468	0.0165583
604.546	0.0165269
604.624	0.0164880
604.703	0.0163843
604.781	0.0164638
604.859	0.0164396
604.937	0.0162974
605.015	0.0164561
605.093	0.0166369
605.171	0.0164184
605.249	0.0164990
605.328	0.0165593
605.406	0.0163947
605.484	0.0165466
605.562	0.0167097
605.640	0.0165991
605.718	0.0165165
605.796	0.0164604
605.874	0.0165157
605.953	0.0164754
606.031	0.0165334
606.109	0.0166052
606.187	0.0164977
606.265	0.0164217
606.343	0.0164469
606.421	0.0164305
606.499	0.0165346
606.578	0.0165241
606.656	0.0165549
606.734	0.0164429
606.812	0.0165738
606.890	0.0165183
606.968	0.0165370
607.046	0.0165759
607.124	0.0165296
607.203	0.0164746
607.281	0.0164237
607.359	0.0165152
607.437	0.0165232
607.515	0.0164954
607.593	0.0165285
607.671	0.0165315
607.749	0.0165138
607.828	0.0165715
607.906	0.0165154
607.984	0.0164633
608.062	0.0165542
608.140	0.0165222
608.218	0.0165600
608.296	0.0164974
608.374	0.0164979
608.453	0.0166364
608.531	0.0165086
608.609	0.0165558
608.687	0.0165343
608.765	0.0164178
608.843	0.0165005
608.921	0.0166016
608.999	0.0166602
609.078	0.0164655
609.156	0.0165878
609.234	0.0163918
609.312	0.0164771
609.390	0.0167021
609.468	0.0164642
609.546	0.0164606
609.624	0.0164320
609.703	0.0166106
609.781	0.0164249
609.859	0.0166225
609.937	0.0164973
610.015	0.0164509
610.093	0.0165440
610.171	0.0165209
610.249	0.0164857
610.328	0.0165452
610.406	0.0164195
610.484	0.0166033
610.562	0.0164397
610.640	0.0164637
610.718	0.0166068
610.796	0.0166380
610.874	0.0164758
610.953	0.0164194
611.031	0.0165887
611.109	0.0165218
611.187	0.0166248
611.265	0.0165200
611.343	0.0165953
611.421	0.0165823
611.499	0.0164839
611.578	0.0164415
611.656	0.0164034
611.734	0.0166676
611.812	0.0166602
611.890	0.0166387
611.968	0.0166226
612.046	0.0165136
612.124	0.0164250
612.203	0.0164994
612.281	0.0166080
612.359	0.0164639
612.437	0.0165136
612.515	0.0164718
612.593	0.0164046
612.671	0.0165516
612.749	0.0165016
612.828	0.0165272
612.906	0.0165033
612.984	0.0166048
613.062	0.0165085
613.140	0.0164130
613.218	0.0164182
613.296	0.0165899
613.374	0.0165299
613.453	0.0165930
613.531	0.0164930
613.609	0.0165844
613.687	0.0164106
613.765	0.0164597
613.843	0.0163319
613.921	0.0165459
613.999	0.0165280
614.078	0.0164953
614.156	0.0164658
614.234	0.0165030
614.312	0.0165749
614.390	0.0165377
614.468	0.0164812
614.546	0.0166453
614.624	0.0164401
614.703	0.0164320
614.781	0.0164597
614.859	0.0166267
614.937	0.0165989
615.015	0.0164198
615.093	0.0164236
615.171	0.0164837
615.249	0.0164363
615.328	0.0165608
615.406	0.0165752
615.484	0.0165727
615.562	0.0165243
615.640	0.0163852
615.718	0.0165062
615.796	0.0164230
615.874	0.0164563
615.953	0.0165676
616.031	0.0165195
616.109	0.0165673
616.187	0.0164642
616.265	0.0165382
616.343	0.0166867
616.421	0.0165859
616.499	0.0165929
616.578	0.0165099
616.656	0.0164864
616.734	0.0165238
616.812	0.0164954
616.890	0.0164527
616.968	0.0164540
617.046	0.0165216
617.124	0.0164812
617.203	0.0165909
617.281	0.0166003
617.359	0.0165492
617.437	0.0165649
617.515	0.0165551
617.593	0.0165529
617.671	0.0163863
617.749	0.0164732
617.828	0.0165733
617.906	0.0165274
617.984	0.0165318
618.062	0.0164488
618.140	0.0165108
618.218	0.0165617
618.296	0.0164549
618.374	0.0165268
618.453	0.0164977
618.531	0.0165916
618.609	0.0163977
618.687	0.0166169
618.765	0.0165655
618.843	0.0163331
618.921	0.0163694
618.999	0.0163950
619.078	0.0166923
619.156	0.0166746
619.234	0.0165170
619.312	0.0166080
619.390	0.0165356
619.468	0.0164621
619.546	0.0164743
619.624	0.0164699
619.703	0.0165121
619.781	0.0164989
619.859	0.0165163
619.937	0.0165662
620.015	0.0165574
620.093	0.0165224
620.171	0.0165297
620.249	0.0164448
620.328	0.0165518
620.406	0.0164982
620.484	0.0163943
620.562	0.0165088
620.640	0.0164941
620.718	0.0164789
620.796	0.0164660
620.874	0.0165574
620.953	0.0165074
621.031	0.0164276
621.109	0.0164467
621.187	0.0166106
621.265	0.0165270
621.343	0.0164693
621.421	0.0164400
621.499	0.0164955
621.578	0.0164111
621.656	0.0164843
621.734	0.0163203
621.812	0.0165477
621.890	0.0165733
621.968	0.0164949
622.046	0.0165089
622.124	0.0163527
622.203	0.0164404
622.281	0.0164754
622.359	0.0164500
622.437	0.0165773
622.515	0.0165300
622.593	0.0163422
622.671	0.0165304
622.749	0.0165687
622.828	0.0164299
622.906	0.0165016
622.984	0.0163274
623.062	0.0164551
623.140	0.0165086
623.218	0.0167049
623.296	0.0164880
623.374	0.0165382
623.453	0.0164859
623.531	0.0164394
623.609	0.0165171
623.687	0.0164888
623.765	0.0165129
623.843	0.0164978
623.921	0.0163882
623.999	0.0165210
624.078	0.0165206
624.156	0.0165923
624.234	0.0164809
624.312	0.0165967
624.390	0.0165214
624.468	0.0164459
624.546	0.0166123
624.624	0.0164880
624.703	0.0165333
624.781	0.0165800
624.859	0.0164446
624.937	0.0166389
625.015	0.0165181
625.093	0.0164337
625.171	0.0164590
625.249	0.0165031
625.328	0.0167248
625.406	0.0165392
625.484	0.0165318
625.562	0.0165607
625.640	0.0164745
625.718	0.0163405
625.796	0.0165343
625.874	0.0164990
625.953	0.0164279
626.031	0.0165603
626.109	0.0166383
626.187	0.0163888
626.265	0.0165450
626.343	0.0164641
626.421	0.0165376
626.499	0.0164769
626.578	0.0163966
626.656	0.0164175
626.734	0.0164533
626.812	0.0165500
626.890	0.0165129
626.968	0.0165071
627.046	0.0166180
627.124	0.0164645
627.203	0.0165578
627.281	0.0165275
627.359	0.0165585
627.437	0.0165319
627.515	0.0164471
627.593	0.0165378
627.671	0.0165520
627.749	0.0165083
627.828	0.0164263
627.906	0.0165746
627.984	0.0163621
628.062	0.0164784
628.140	0.0164591
628.218	0.0164827
628.296	0.0165210
628.374	0.0165680
628.453	0.0163671
628.531	0.0164071
628.609	0.0163227
628.687	0.0165264
628.765	0.0165945
628.843	0.0164814
628.921	0.0165115
628.999	0.0165750
629.078	0.0164863
629.156	0.0164662
629.234	0.0166280
629.312	0.0166146
629.390	0.0165335
629.468	0.0165862
629.546	0.0165637
629.624	0.0164375
629.703	0.0165199
629.781	0.0165042
629.859	0.0165678
629.937	0.0164289
630.015	0.0164714
630.093	0.0163878
630.171	0.0165074
630.249	0.0166516
630.328	0.0164713
630.406	0.0165374
630.484	0.0164851
630.562	0.0165703
630.640	0.0165053
630.718	0.0164361
630.796	0.0165887
630.874	0.0164382
630.953	0.0165375
631.031	0.0165236
631.109	0.0164297
631.187	0.0165083
631.265	0.0165685
631.343	0.0165330
631.421	0.0163910
631.499	0.0164178
631.578	0.0166541
631.656	0.0166837
631.734	0.0165221
631.812	0.0165395
631.890	0.0165778
631.968	0.0165813
632.046	0.0165549
632.124	0.0165145
632.203	0.0166454
632.281	0.0163763
632.359	0.0164649
632.437	0.0165184
632.515	0.0165189
632.593	0.0165875
632.671	0.0165483
632.749	0.0163585
632.828	0.0164400
632.906	0.0164503
632.984	0.0163750
633.062	0.0163264
633.140	0.0164935
633.218	0.0165346
633.296	0.0165106
633.374	0.0164943
633.453	0.0164240
633.531	0.0165660
633.609	0.0165384
633.687	0.0164254
633.765	0.0164867
633.843	0.0165623
633.921	0.0165314
633.999	0.0164243
634.078	0.0165562
634.156	0.0165027
634.234	0.0164560
634.312	0.0165158
634.390	0.0164933
634.468	0.0165539
634.546	0.0166228
634.624	0.0164640
634.703	0.0166215
634.781	0.0164583
634.859	0.0165079
634.937	0.0164589
635.015	0.0165341
635.093	0.0166484
635.171	0.0165074
635.249	0.0165118
635.328	0.0165612
635.406	0.0165250
635.484	0.0166039
635.562	0.0164592
635.640	0.0165050
635.718	0.0164717
635.796	0.0165636
635.874	0.0165794
635.953	0.0165469
636.031	0.0164193
636.109	0.0165282
636.187	0.0164302
636.265	0.0164548
636.343	0.0165596
636.421	0.0165115
636.499	0.0163977
636.578	0.0165086
636.656	0.0165604
636.734	0.0165505
636.812	0.0165754
636.890	0.0164458
636.968	0.0164290
637.046	0.0164855
637.124	0.0164916
637.203	0.0164362
637.281	0.0165025
637.359	0.0166312
637.437	0.0165778
637.515	0.0163949
637.593	0.0165644
637.671	0.0165505
637.749	0.0164276
637.828	0.0164787
637.906	0.0164875
637.984	0.0164986
638.062	0.0164933
638.140	0.0165052
638.218	0.0164454
638.296	0.0164631
638.374	0.0166490
638.453	0.0165205
638.531	0.0164864
638.609	0.0163668
638.687	0.0165343
638.765	0.0163832
638.843	0.0164726
638.921	0.0165538
638.999	0.0166868
639.078	0.0165474
639.156	0.0164974
639.234	0.0164301
639.312	0.0165192
639.390	0.0164406
639.468	0.0164452
639.546	0.0164167
639.624	0.0163712
639.703	0.0164285
639.781	0.0166099
639.859	0.0164470
639.937	0.0165245
640.015	0.0165149
640.093	0.0164611
640.171	0.0165004
640.249	0.0165064
640.328	0.0164893
640.406	0.0164516
640.484	0.0164661
640.562	0.0164863
640.640	0.0165241
640.718	0.0165544
640.796	0.0165903
640.874	0.0164033
640.953	0.0164109
641.031	0.0164944
641.109	0.0165292
641.187	0.0164130
641.265	0.0165392
641.343	0.0165049
641.421	0.0164895
641.499	0.0164820
641.578	0.0164526
641.656	0.0164706
641.734	0.0166421
641.812	0.0164822
641.890	0.0165069
641.968	0.0165014
642.046	0.0164866
642.124	0.0165378
642.203	0.0165421
642.281	0.0165707
642.359	0.0165039
642.437	0.0165643
642.515	0.0165408
642.593	0.0166528
642.671	0.0165851
642.749	0.0165257
642.828	0.0164565
642.906	0.0165524
642.984	0.0164789
643.062	0.0164600
643.140	0.0165471
643.218	0.0163705
643.296	0.0164342
643.374	0.0164623
643.453	0.0166025
643.531	0.0165533
643.609	0.0165203
643.687	0.0165051
643.765	0.0164626
643.843	0.0165111
643.921	0.0165035
643.999	0.0164244
644.078	0.0165268
644.156	0.0164185
644.234	0.0164944
644.312	0.0164368
644.390	0.0164938
644.468	0.0165897
644.546	0.0165908
644.624	0.0166491
644.703	0.0165051
644.781	0.0164847
644.859	0.0165606
644.937	0.0165141
645.015	0.0166187
645.093	0.0165237
645.171	0.0165410
645.249	0.0166425
645.328	0.0164046
645.406	0.0164032
645.484	0.0164886
645.562	0.0164291
645.640	0.0165028
645.718	0.0165919
645.796	0.0164991
645.874	0.0164754
645.953	0.0165251
646.031	0.0166814
646.109	0.0165179
646.187	0.0164552
646.265	0.0164033
646.343	0.0165134
646.421	0.0165141
646.499	0.0165197
646.578	0.0165450
646.656	0.0165514
646.734	0.0165800
646.812	0.0164846
646.890	0.0166331
646.968	0.0165761
647.046	0.0164019
647.124	0.0164384
647.203	0.0165749
647.281	0.0164604
647.359	0.0164577
647.437	0.0164371
647.515	0.0164601
647.593	0.0164411
647.671	0.0164335
647.749	0.0164525
647.828	0.0165510
647.906	0.0164046
647.984	0.0164562
648.062	0.0165254
648.140	0.0166199
648.218	0.0166095
648.296	0.0166186
648.374	0.0164152
648.453	0.0163436
648.531	0.0164877
648.609	0.0164721
648.687	0.0165657
648.765	0.0164999
648.843	0.0165031
648.921	0.0166302
648.999	0.0164061
649.078	0.0164031
649.156	0.0165794
649.234	0.0164712
649.312	0.0165063
649.390	0.0164794
649.468	0.0164998
649.546	0.0165664
649.624	0.0165244
649.703	0.0164996
649.781	0.0165224
649.859	0.0164781
649.937	0.0164893
650.015	0.0165932
650.093	0.0163960
650.171	0.0164957
650.249	0.0166505
650.328	0.0166151
650.406	0.0166373
650.484	0.0165809
650.562	0.0166050
650.640	0.0164590
650.718	0.0165869
650.796	0.0165764
650.874	0.0165847
650.953	0.0165758
651.031	0.0165066
651.109	0.0164747
651.187	0.0166829
651.265	0.0165854
651.343	0.0166346
651.421	0.0165687
651.499	0.0164888
651.578	0.0166921
651.656	0.0167516
651.734	0.0167005
651.812	0.0164776
651.890	0.0165308
651.968	0.0166476
652.046	0.0165948
652.124	0.0166060
652.203	0.0166569
652.281	0.0165163
652.359	0.0165283
652.437	0.0166273
652.515	0.0165981
652.593	0.0165850
652.671	0.0166845
652.749	0.0165993
652.828	0.0165492
652.906	0.0166164
652.984	0.0166106
653.062	0.0164095
653.140	0.0165871
653.218	0.0167438
653.296	0.0165242
653.374	0.0166814
653.453	0.0167690
653.531	0.0165509
653.609	0.0165898
653.687	0.0165251
653.765	0.0165187
653.843	0.0165871
653.921	0.0165484
653.999	0.0165506
654.078	0.0166125
654.156	0.0164751
654.234	0.0164928
654.312	0.0165185
654.390	0.0165098
654.468	0.0166003
654.546	0.0166763
654.624	0.0165028
654.703	0.0164648
654.781	0.0165264
654.859	0.0164850
654.937	0.0165205
655.015	0.0165060
655.093	0.0164713
655.171	0.0165453
655.249	0.0166263
655.328	0.0165077
655.406	0.0165774
655.484	0.0164828
655.562	0.0165027
655.640	0.0165362
655.718	0.0164172
655.796	0.0165007
655.874	0.0165195
655.953	0.0163635
656.031	0.0164335
656.109	0.0164954
656.187	0.0165369
656.265	0.0163555
656.343	0.0164066
656.421	0.0163843
656.499	0.0164396
656.578	0.0164371
656.656	0.0163982
656.734	0.0163698
656.812	0.0164479
656.890	0.0165457
656.968	0.0163657
657.046	0.0165272
657.124	0.0164689
657.203	0.0164221
657.281	0.0163567
657.359	0.0164458
657.437	0.0165764
657.515	0.0164109
657.593	0.0165128
657.671	0.0164176
657.749	0.0164252
657.828	0.0164972
657.906	0.0164259
657.984	0.0165738
658.062	0.0165578
658.140	0.0166254
658.218	0.0163830
658.296	0.0163829
658.374	0.0164736
658.453	0.0165438
658.531	0.0164998
658.609	0.0163860
658.687	0.0165533
658.765	0.0164892
658.843	0.0164690
658.921	0.0163936
658.999	0.0165076
659.078	0.0164452
659.156	0.0164006
659.234	0.0165073
659.312	0.0163320
659.390	0.0163873
659.468	0.0164748
659.546	0.0164433
659.624	0.0165001
659.703	0.0164594
659.781	0.0164591
659.859	0.0165752
659.937	0.0164731
660.015	0.0164526
660.093	0.0165120
660.171	0.0166435
660.249	0.0164845
660.328	0.0164703
660.406	0.0165087
660.484	0.0165040
660.562	0.0163426
660.640	0.0165749
660.718	0.0164209
660.796	0.0165160
660.874	0.0165327
660.953	0.0165604
661.031	0.0165173
661.109	0.0165390
661.187	0.0165801
661.265	0.0165221
661.343	0.0165070
661.421	0.0165852
661.499	0.0165015
661.578	0.0165500
661.656	0.0164859
661.734	0.0163847
661.812	0.0164155
661.890	0.0166040
661.968	0.0164415
662.046	0.0164603
662.124	0.0164861
662.203	0.0164039
662.281	0.0164444
662.359	0.0165961
662.437	0.0164172
662.515	0.0163819
662.593	0.0164083
662.671	0.0165076
662.749	0.0164528
662.828	0.0164629
662.906	0.0165129
662.984	0.0164191
663.062	0.0164915
663.140	0.0163571
663.218	0.0165033
663.296	0.0166294
663.374	0.0165453
663.453	0.0164886
663.531	0.0164004
663.609	0.0163473
663.687	0.0164194
663.765	0.0164960
663.843	0.0164676
663.921	0.0164490
663.999	0.0165186
664.078	0.0165947
664.156	0.0165116
664.234	0.0162868
664.312	0.0165106
664.390	0.0163531
664.468	0.0164741
664.546	0.0163901
664.624	0.0163902
664.703	0.0165282
664.781	0.0164556
664.859	0.0165173
664.937	0.0164710
665.015	0.0164589
665.093	0.0165620
665.171	0.0165878
665.249	0.0164303
665.328	0.0165237
665.406	0.0166478
665.484	0.0165624
665.562	0.0164676
665.640	0.0165780
665.718	0.0164492
665.796	0.0164606
665.874	0.0166267
665.953	0.0164075
666.031	0.0165892
666.109	0.0165842
666.187	0.0165820
666.265	0.0164955
666.343	0.0165443
666.421	0.0166772
666.499	0.0165533
666.578	0.0165462
666.656	0.0165493
666.734	0.0164799
666.812	0.0165353
666.890	0.0166115
666.968	0.0166246
667.046	0.0166198
667.124	0.0164725
667.203	0.0165661
667.281	0.0165250
667.359	0.0166069
667.437	0.0165241
667.515	0.0165309
667.593	0.0165623
667.671	0.0167093
667.749	0.0165952
667.828	0.0166217
667.906	0.0165153
667.984	0.0166050
668.062	0.0165747
668.140	0.0167375
668.218	0.0165587
668.296	0.0166261
668.374	0.0166011
668.453	0.0164752
668.531	0.0164922
668.609	0.0166089
668.687	0.0166781
668.765	0.0165961
668.843	0.0165681
668.921	0.0166333
668.999	0.0164738
669.078	0.0166154
669.156	0.0166099
669.234	0.0167371
669.312	0.0165901
669.390	0.0166065
669.468	0.0167012
669.546	0.0165411
669.624	0.0165984
669.703	0.0165408
669.781	0.0165322
669.859	0.0166936
669.937	0.0166254
670.015	0.0166094
670.093	0.0165177
670.171	0.0165949
670.249	0.0168045
670.328	0.0166652
670.406	0.0164828
670.484	0.0165383
670.562	0.0166141
670.640	0.0165607
670.718	0.0166241
670.796	0.0167224
670.874	0.0166337
670.953	0.0165736
671.031	0.0167183
671.109	0.0166287
671.187	0.0165483
671.265	0.0165142
671.343	0.0165254
671.421	0.0165929
671.499	0.0165308
671.578	0.0165865
671.656	0.0166280
671.734	0.0166183
671.812	0.0164976
671.890	0.0165041
671.968	0.0165198
672.046	0.0165759
672.124	0.0165978
672.203	0.0164860
672.281	0.0166152
672.359	0.0165195
672.437	0.0165851
672.515	0.0165133
672.593	0.0165492
672.671	0.0166254
672.749	0.0164230
672.828	0.0164669
672.906	0.0165828
672.984	0.0165416
673.062	0.0167387
673.140	0.0165967
673.218	0.0165741
673.296	0.0165739
673.374	0.0165345
673.453	0.0165550
673.531	0.0164429
673.609	0.0165068
673.687	0.0165444
673.765	0.0166033
673.843	0.0164074
673.921	0.0164855
673.999	0.0167484
674.078	0.0165187
674.156	0.0165163
674.234	0.0165556
674.312	0.0165868
674.390	0.0164886
674.468	0.0165648
674.546	0.0165849
674.624	0.0166628
674.703	0.0166132
674.781	0.0167271
674.859	0.0166811
674.937	0.0166600
675.015	0.0166314
675.093	0.0165360
675.171	0.0164719
675.249	0.0165756
675.328	0.0166689
675.406	0.0165814
675.484	0.0166386
675.562	0.0166264
675.640	0.0164953
675.718	0.0165078
675.796	0.0163948
675.874	0.0165347
675.953	0.0165352
676.031	0.0164880
676.109	0.0165801
676.187	0.0164276
676.265	0.0166235
676.343	0.0165498
676.421	0.0165757
676.499	0.0165471
676.578	0.0164855
676.656	0.0165359
676.734	0.0164692
676.812	0.0164738
676.890	0.0165350
676.968	0.0165317
677.046	0.0165515
677.124	0.0165643
677.203	0.0165909
677.281	0.0164591
677.359	0.0165639
677.437	0.0164840
677.515	0.0165135
677.593	0.0164426
677.671	0.0164182
677.749	0.0165517
677.828	0.0165877
677.906	0.0164732
677.984	0.0163818
678.062	0.0166199
678.140	0.0164609
678.218	0.0164719
678.296	0.0164284
678.374	0.0164211
678.453	0.0165387
678.531	0.0164965
678.609	0.0163767
678.687	0.0164771
678.765	0.0164304
678.843	0.0164223
678.921	0.0165125
678.999	0.0165608
679.078	0.0165571
679.156	0.0166656
679.234	0.0165154
679.312	0.0164910
679.390	0.0164474
679.468	0.0165268
679.546	0.0164368
679.624	0.0164554
679.703	0.0166145
679.781	0.0165546
679.859	0.0165593
679.937	0.0164709
680.015	0.0164604
680.093	0.0164597
680.171	0.0165524
680.249	0.0164111
680.328	0.0165302
680.406	0.0164027
680.484	0.0164548
680.562	0.0164748
680.640	0.0164936
680.718	0.0165489
680.796	0.0164668
680.874	0.0164703
680.953	0.0165079
681.031	0.0165611
681.109	0.0165910
681.187	0.0166171
681.265	0.0164807
681.343	0.0164767
681.421	0.0165217
681.499	0.0165236
681.578	0.0163953
681.656	0.0164793
681.734	0.0166296
681.812	0.0164545
681.890	0.0164732
681.968	0.0164612
682.046	0.0164564
682.124	0.0163953
682.203	0.0165449
682.281	0.0165192
682.359	0.0163308
682.437	0.0164758
682.515	0.0166914
682.593	0.0165135
682.671	0.0165301
682.749	0.0164664
682.828	0.0164713
682.906	0.0164662
682.984	0.0164034
683.062	0.0165895
683.140	0.0163284
683.218	0.0163867
683.296	0.0164899
683.374	0.0165247
683.453	0.0165311
683.531	0.0163996
683.609	0.0163587
683.687	0.0164680
683.765	0.0164977
683.843	0.0164326
683.921	0.0164791
683.999	0.0164533
684.078	0.0165267
684.156	0.0165321
684.234	0.0164165
684.312	0.0163909
684.390	0.0164908
684.468	0.0165211
684.546	0.0164124
684.624	0.0164361
684.703	0.0165323
684.781	0.0165147
684.859	0.0164342
684.937	0.0165710
685.015	0.0163806
685.093	0.0162994
685.171	0.0164473
685.249	0.0165636
685.328	0.0164635
685.406	0.0163885
685.484	0.0163252
685.562	0.0164684
685.640	0.0165173
685.718	0.0164941
685.796	0.0165535
685.874	0.0164700
685.953	0.0164957
686.031	0.0163953
686.109	0.0165022
686.187	0.0165694
686.265	0.0164384
686.343	0.0165647
686.421	0.0163337
686.499	0.0165137
686.578	0.0165746
686.656	0.0165034
686.734	0.0164643
686.812	0.0164565
686.890	0.0164188
686.968	0.0165662
687.046	0.0164641
687.124	0.0163000
687.203	0.0163946
687.281	0.0165047
687.359	0.0164848
687.437	0.0165128
687.515	0.0165829
687.593	0.0163651
687.671	0.0165176
687.749	0.0164822
687.828	0.0165620
687.906	0.0165092
687.984	0.0164867
688.062	0.0164186
688.140	0.0164085
688.218	0.0165282
688.296	0.0165071
688.374	0.0164729
688.453	0.0163716
688.531	0.0164883
688.609	0.0165344
688.687	0.0165032
688.765	0.0165060
688.843	0.0165019
688.921	0.0167333
688.999	0.0165904
689.078	0.0164809
689.156	0.0164443
689.234	0.0164052
689.312	0.0163962
689.390	0.0166065
689.468	0.0165087
689.546	0.0165218
689.624	0.0165254
689.703	0.0165614
689.781	0.0164762
689.859	0.0164759
689.937	0.0165217
690.015	0.0164311
690.093	0.0165907
690.171	0.0165738
690.249	0.0166284
690.328	0.0165609
690.406	0.0165128
690.484	0.0166343
690.562	0.0164486
690.640	0.0165441
690.718	0.0166536
690.796	0.0163786
690.874	0.0164717
690.953	0.0165514
691.031	0.0165511
691.109	0.0165096
691.187	0.0165431
691.265	0.0165051
691.343	0.0165445
691.421	0.0167004
691.499	0.0166123
691.578	0.0164359
691.656	0.0164955
691.734	0.0166454
691.812	0.0165620
691.890	0.0165104
691.968	0.0165245
692.046	0.0164954
692.124	0.0165247
692.203	0.0166373
692.281	0.0165363
692.359	0.0164473
692.437	0.0165975
692.515	0.0163721
692.593	0.0165834
692.671	0.0166202
692.749	0.0165506
692.828	0.0164589
692.906	0.0165878
692.984	0.0164502
693.062	0.0164192
693.140	0.0166034
693.218	0.0164870
693.296	0.0165381
693.374	0.0166289
693.453	0.0165678
693.531	0.0164375
693.609	0.0165072
693.687	0.0165944
693.765	0.0164471
693.843	0.0164987
693.921	0.0165764
693.999	0.0165643
694.078	0.0165313
694.156	0.0163608
694.234	0.0165322
694.312	0.0165648
694.390	0.0166364
694.468	0.0165498
694.546	0.0164997
694.624	0.0165207
694.703	0.0165770
694.781	0.0165221
694.859	0.0165809
694.937	0.0164408
695.015	0.0164498
695.093	0.0166162
695.171	0.0165362
695.249	0.0164780
695.328	0.0166601
695.406	0.0163889
695.484	0.0166074
695.562	0.0165170
695.640	0.0165247
695.718	0.0164733
695.796	0.0165662
695.874	0.0164999
695.953	0.0164575
696.031	0.0165736
696.109	0.0164984
696.187	0.0166573
696.265	0.0165540
696.343	0.0166360
696.421	0.0166074
696.499	0.0165231
696.578	0.0164577
696.656	0.0165598
696.734	0.0165913
696.812	0.0164972
696.890	0.0165459
696.968	0.0165075
697.046	0.0165246
697.124	0.0166237
697.203	0.0165211
697.281	0.0164583
697.359	0.0164493
697.437	0.0164735
697.515	0.0164883
697.593	0.0165450
697.671	0.0164828
697.749	0.0166595
697.828	0.0165737
697.906	0.0165826
697.984	0.0164928
698.062	0.0164571
698.140	0.0165357
698.218	0.0165580
698.296	0.0166523
698.374	0.0165533
698.453	0.0164259
698.531	0.0165763
698.609	0.0165924
698.687	0.0165747
698.765	0.0164408
698.843	0.0165075
698.921	0.0165491
698.999	0.0164941
699.078	0.0164315
699.156	0.0165745
699.234	0.0166392
699.312	0.0164277
699.390	0.0165852
699.468	0.0164580
699.546	0.0164975
699.624	0.0166058
699.703	0.0166463
699.781	0.0166291
699.859	0.0164262
699.937	0.0165047
700.015	0.0165347
700.093	0.0165261
700.171	0.0165212
700.249	0.0165360
700.328	0.0165022
700.406	0.0165151
700.484	0.0164606
700.562	0.0164687
700.640	0.0164700
700.718	0.0164484
700.796	0.0165602
700.874	0.0165010
700.953	0.0164968
701.031	0.0165472
701.109	0.0165220
701.187	0.0164964
701.265	0.0165694
701.343	0.0165810
701.421	0.0165372
701.499	0.0165771
701.578	0.0164584
701.656	0.0165447
701.734	0.0165334
701.812	0.0163432
701.890	0.0166252
701.968	0.0165840
702.046	0.0166190
702.124	0.0165501
702.203	0.0164374
702.281	0.0164272
702.359	0.0163710
702.437	0.0165163
702.515	0.0164603
702.593	0.0165071
702.671	0.0166553
702.749	0.0165057
702.828	0.0165485
702.906	0.0165687
702.984	0.0164688
703.062	0.0164795
703.140	0.0164099
703.218	0.0164062
703.296	0.0165972
703.374	0.0166145
703.453	0.0164973
703.531	0.0164455
703.609	0.0164104
703.687	0.0166578
703.765	0.0164868
703.843	0.0164414
703.921	0.0164460
703.999	0.0166434
704.078	0.0165321
704.156	0.0164686
704.234	0.0165348
704.312	0.0166380
704.390	0.0165375
704.468	0.0164893
704.546	0.0165305
704.624	0.0165120
704.703	0.0163980
704.781	0.0164266
704.859	0.0164162
704.937	0.0163329
705.015	0.0165534
705.093	0.0164148
705.171	0.0164890
705.249	0.0166133
705.328	0.0164171
705.406	0.0164975
705.484	0.0165457
705.562	0.0164214
705.640	0.0164956
705.718	0.0165789
705.796	0.0165248
705.874	0.0164406
705.953	0.0163145
706.031	0.0164021
706.109	0.0163031
706.187	0.0163682
706.265	0.0164367
706.343	0.0165281
706.421	0.0164503
706.499	0.0164658
706.578	0.0163042
706.656	0.0163613
706.734	0.0164991
706.812	0.0164628
706.890	0.0165202
706.968	0.0164521
707.046	0.0164252
707.124	0.0164286
707.203	0.0164140
707.281	0.0163719
707.359	0.0163275
707.437	0.0165218
707.515	0.0164480
707.593	0.0164043
707.671	0.0163007
707.749	0.0164568
707.828	0.0162754
707.906	0.0164239
707.984	0.0164671
708.062	0.0164205
708.140	0.0164828
708.218	0.0165414
708.296	0.0165535
708.374	0.0165185
708.453	0.0164651
708.531	0.0165343
708.609	0.0165508
708.687	0.0163978
708.765	0.0164276
708.843	0.0165004
708.921	0.0166116
708.999	0.0164673
709.078	0.0165228
709.156	0.0164330
709.234	0.0165688
709.312	0.0165302
709.390	0.0164810
709.468	0.0163775
709.546	0.0164391
709.624	0.0164279
709.703	0.0163595
709.781	0.0165814
709.859	0.0166022
709.937	0.0165049
710.015	0.0164246
710.093	0.0163799
710.171	0.0165108
710.249	0.0164040
710.328	0.0164293
710.406	0.0164069
710.484	0.0164764
710.562	0.0164393
710.640	0.0164565
710.718	0.0166100
710.796	0.0164756
710.874	0.0165016
710.953	0.0163825
711.031	0.0166222
711.109	0.0164850
711.187	0.0164980
711.265	0.0164787
711.343	0.0164213
711.421	0.0165231
711.499	0.0166272
711.578	0.0165005
711.656	0.0165639
711.734	0.0164937
711.812	0.0166128
711.890	0.0164568
711.968	0.0164133
712.046	0.0165716
712.124	0.0164832
712.203	0.0165006
712.281	0.0165898
712.359	0.0166298
712.437	0.0165225
712.515	0.0164724
712.593	0.0164042
712.671	0.0164908
712.749	0.0166255
712.828	0.0165496
712.906	0.0165717
712.984	0.0165317
713.062	0.0165636
713.140	0.0165493
713.218	0.0165255
713.296	0.0164915
713.374	0.0164407
713.453	0.0165686
713.531	0.0165549
713.609	0.0165546
713.687	0.0165735
713.765	0.0165248
713.843	0.0165184
713.921	0.0165992
713.999	0.0166826
714.078	0.0165330
714.156	0.0164359
714.234	0.0166136
714.312	0.0165852
714.390	0.0166613
714.468	0.0164856
714.546	0.0164953
714.624	0.0165350
714.703	0.0165467
714.781	0.0166048
714.859	0.0165657
714.937	0.0165770
715.015	0.0165291
715.093	0.0165591
715.171	0.0165146
715.249	0.0165581
715.328	0.0166476
715.406	0.0164614
715.484	0.0163643
715.562	0.0164867
715.640	0.0165321
715.718	0.0165934
715.796	0.0165936
715.874	0.0165845
715.953	0.0164631
716.031	0.0165095
716.109	0.0165981
716.187	0.0164629
716.265	0.0165401
716.343	0.0166814
716.421	0.0166614
716.499	0.0165643
716.578	0.0165611
716.656	0.0166190
716.734	0.0165130
716.812	0.0163765
716.890	0.0165051
716.968	0.0165801
717.046	0.0164927
717.124	0.0164313
717.203	0.0163998
717.281	0.0163682
717.359	0.0165463
717.437	0.0165163
717.515	0.0164850
717.593	0.0166496
717.671	0.0164318
717.749	0.0165205
717.828	0.0163649
717.906	0.0165843
717.984	0.0166776
718.062	0.0163974
718.140	0.0166240
718.218	0.0165073
718.296	0.0165672
718.374	0.0165165
718.453	0.0165668
718.531	0.0166159
718.609	0.0164214
718.687	0.0164806
718.765	0.0165310
718.843	0.0166042
718.921	0.0165564
718.999	0.0165176
719.078	0.0165468
719.156	0.0165318
719.234	0.0163995
719.312	0.0167288
719.390	0.0166203
719.468	0.0165383
719.546	0.0165328
719.624	0.0164799
719.703	0.0165039
719.781	0.0164509
719.859	0.0164972
719.937	0.0165851
720.015	0.0164892
720.093	0.0165810
720.171	0.0165187
720.249	0.0165255
720.328	0.0164878
720.406	0.0165079
720.484	0.0165824
720.562	0.0165098
720.640	0.0165305
720.718	0.0164534
720.796	0.0165001
720.874	0.0165366
720.953	0.0164795
721.031	0.0165546
721.109	0.0163707
721.187	0.0164760
721.265	0.0164535
721.343	0.0164411
721.421	0.0164980
721.499	0.0165363
721.578	0.0165510
721.656	0.0166154
721.734	0.0165981
721.812	0.0164763
721.890	0.0163692
721.968	0.0164380
722.046	0.0163946
722.124	0.0165058
722.203	0.0165440
722.281	0.0165881
722.359	0.0164962
722.437	0.0164328
722.515	0.0164444
722.593	0.0166995
722.671	0.0164555
722.749	0.0164086
722.828	0.0165694
722.906	0.0164671
722.984	0.0165557
723.062	0.0165182
723.140	0.0164987
723.218	0.0166596
723.296	0.0164705
723.374	0.0163949
723.453	0.0165840
723.531	0.0165829
723.609	0.0164131
723.687	0.0164364
723.765	0.0164094
723.843	0.0165236
723.921	0.0165855
723.999	0.0165276
724.078	0.0165541
724.156	0.0165356
724.234	0.0164994
724.312	0.0165210
724.390	0.0164967
724.468	0.0165249
724.546	0.0163795
724.624	0.0164680
724.703	0.0164254
724.781	0.0165540
724.859	0.0164613
724.937	0.0165804
725.015	0.0164526
725.093	0.0164200
725.171	0.0166032
725.249	0.0165349
725.328	0.0164896
725.406	0.0165509
725.484	0.0163172
725.562	0.0165155
725.640	0.0163800
725.718	0.0163689
725.796	0.0163825
725.874	0.0164536
725.953	0.0163190
726.031	0.0164137
726.109	0.0163601
726.187	0.0163126
726.265	0.0163326
726.343	0.0164547
726.421	0.0163322
726.499	0.0165145
726.578	0.0163742
726.656	0.0165204
726.734	0.0165366
726.812	0.0165713
726.890	0.0166415
726.968	0.0167010
727.046	0.0166599
727.124	0.0167786
727.203	0.0168385
727.281	0.0169022
727.359	0.0168737
727.437	0.0170874
727.515	0.0169463
727.593	0.0168391
727.671	0.0170014
727.749	0.0169959
727.828	0.0167484
727.906	0.0167931
727.984	0.0166687
728.062	0.0167652
728.140	0.0166925
728.218	0.0165782
728.296	0.0165115
728.374	0.0163390
728.453	0.0162024
728.531	0.0160685
728.609	0.0159174
728.687	0.0155708
728.765	0.0154033
728.843	0.0154404
728.921	0.0154273
728.999	0.0153455
729.078	0.0153012
729.156	0.0154883
729.234	0.0155858
729.312	0.0158205
729.390	0.0160818
729.468	0.0161174
729.546	0.0164004
729.624	0.0167120
729.703	0.0169792
729.781	0.0173330
729.859	0.0174875
729.937	0.0175187
730.015	0.0176034
730.093	0.0176860
730.171	0.0174338
730.249	0.0172836
730.328	0.0171937
730.406	0.0171759
730.484	0.0170070
730.562	0.0168860
730.640	0.0166111
730.718	0.0165052
730.796	0.0163911
730.874	0.0165557
730.953	0.0163223
731.031	0.0163015
731.109	0.0163416
731.187	0.0165978
731.265	0.0167107
731.343	0.0168697
731.421	0.0170335
731.499	0.0173001
731.578	0.0173431
731.656	0.0176873
731.734	0.0175943
731.812	0.0178490
731.890	0.0178108
731.968	0.0177129
732.046	0.0175133
732.124	0.0173721
732.203	0.0170717
732.281	0.0167650
732.359	0.0164860
732.437	0.0160772
732.515	0.0156701
732.593	0.0154889
732.671	0.0151526
732.749	0.0148381
732.828	0.0146698
732.906	0.0146161
732.984	0.0144232
733.062	0.0144051
733.140	0.0141945
733.218	0.0141693
733.296	0.0142033
733.374	0.0145968
733.453	0.0146352
733.531	0.0147836
733.609	0.0150052
733.687	0.0153296
733.765	0.0155071
733.843	0.0159187
733.921	0.0163211
733.999	0.0165499
734.078	0.0171123
734.156	0.0174933
734.234	0.0178082
734.312	0.0181808
734.390	0.0186610
734.468	0.0187032
734.546	0.0189967
734.624	0.0192161
734.703	0.0192363
734.781	0.0193938
734.859	0.0191779
734.937	0.0189697
735.015	0.0187197
735.093	0.0184876
735.171	0.0182921
735.249	0.0180211
735.328	0.0174533
735.406	0.0170225
735.484	0.0168195
735.562	0.0164200
735.640	0.0160437
735.718	0.0158676
735.796	0.0156016
735.874	0.0155785
735.953	0.0152034
736.031	0.0151260
736.109	0.0152598
736.187	0.0150994
736.265	0.0154784
736.343	0.0157433
736.421	0.0158492
736.499	0.0161345
736.578	0.0161874
736.656	0.0165419
736.734	0.0164056
736.812	0.0162674
736.890	0.0163541
736.968	0.0162633
737.046	0.0160399
737.124	0.0159700
737.203	0.0157855
737.281	0.0157576
737.359	0.0157911
737.437	0.0155252
737.515	0.0156548
737.593	0.0157197
737.671	0.0158656
737.749	0.0157236
737.828	0.0158401
737.906	0.0158342
737.984	0.0159287
738.062	0.0161296
738.140	0.0161819
738.218	0.0162360
738.296	0.0162824
738.374	0.0165827
738.453	0.0166051
738.531	0.0165386
738.609	0.0165583
738.687	0.0165364
738.765	0.0164577
738.843	0.0164626
738.921	0.0164452
738.999	0.0163005
739.078	0.0161547
739.156	0.0161771
739.234	0.0163186
739.312	0.0163494
739.390	0.0162628
739.468	0.0164957
739.546	0.0167739
739.624	0.0169804
739.703	0.0171809
739.781	0.0176323
739.859	0.0179520
739.937	0.0184359
740.015	0.0191099
740.093	0.0190597
740.171	0.0194704
740.249	0.0197535
740.328	0.0196880
740.406	0.0194003
740.484	0.0192651
740.562	0.0186360
740.640	0.0179903
740.718	0.0175118
740.796	0.0167830
740.874	0.0161409
740.953	0.0153049
741.031	0.0148998
741.109	0.0145956
741.187	0.0140871
741.265	0.0141766
741.343	0.0142805
741.421	0.0143129
741.499	0.0145761
741.578	0.0148550
741.656	0.0150113
741.734	0.0153516
741.812	0.0156706
741.890	0.0158269
741.968	0.0158833
742.046	0.0159044
742.124	0.0158456
742.203	0.0159413
742.281	0.0159872
742.359	0.0159875
742.437	0.0157558
742.515	0.0158620
742.593	0.0156721
742.671	0.0158762
742.749	0.0158885
742.828	0.0159372
742.906	0.0162273
742.984	0.0162231
743.062	0.0165273
743.140	0.0166690
743.218	0.0167792
743.296	0.0167265
743.374	0.0168188
743.453	0.0167182
743.531	0.0167655
743.609	0.0167146
743.687	0.0166414
743.765	0.0166620
743.843	0.0164745
743.921	0.0165471
743.999	0.0166729
744.078	0.0165736
744.156	0.0167861
744.234	0.0167471
744.312	0.0169176
744.390	0.0170479
744.468	0.0172241
744.546	0.0174884
744.624	0.0177576
744.703	0.0179749
744.781	0.0180096
744.859	0.0181816
744.937	0.0183013
745.015	0.0182874
745.093	0.0182262
745.171	0.0182038
745.249	0.0180576
745.328	0.0178322
745.406	0.0176875
745.484	0.0173266
745.562	0.0170329
745.640	0.0166470
745.718	0.0162868
745.796	0.0159499
745.874	0.0156158
745.953	0.0154368
746.031	0.0153654
746.109	0.0154712
746.187	0.0153276
746.265	0.0152583
746.343	0.0151519
746.421	0.0153870
746.499	0.0153175
746.578	0.0151849
746.656	0.0153214
746.734	0.0152551
746.812	0.0150973
746.890	0.0152698
746.968	0.0151188
747.046	0.0153400
747.124	0.0155058
747.203	0.0155447
747.281	0.0158293
747.359	0.0158156
747.437	0.0160185
747.515	0.0162798
747.593	0.0164982
747.671	0.0165877
747.749	0.0166799
747.828	0.0170285
747.906	0.0171867
747.984	0.0170824
748.062	0.0171818
748.140	0.0171532
748.218	0.0174011
748.296	0.0171990
748.374	0.0170605
748.453	0.0171886
748.531	0.0173749
748.609	0.0173174
748.687	0.0171118
748.765	0.0171200
748.843	0.0172717
748.921	0.0170672
748.999	0.0171348
749.078	0.0171795
749.156	0.0171372
749.234	0.0171989
749.312	0.0171552
749.390	0.0170013
749.468	0.0171423
749.546	0.0169999
749.624	0.0170182
749.703	0.0168717
749.781	0.0168960
749.859	0.0167554
749.937	0.0166180
750.015	0.0167110
750.093	0.0166721
750.171	0.0166772
750.249	0.0164959
750.328	0.0165047
750.406	0.0167165
750.484	0.0166261
750.562	0.0164624
750.640	0.0164960
750.718	0.0165239
750.796	0.0164546
750.874	0.0163901
750.953	0.0162934
751.031	0.0161359
751.109	0.0160873
751.187	0.0158440
751.265	0.0157652
751.343	0.0155999
751.421	0.0155602
751.499	0.0156315
751.578	0.0154530
751.656	0.0155469
751.734	0.0154874
751.812	0.0155519
751.890	0.0156940
751.968	0.0156001
752.046	0.0158958
752.124	0.0159683
752.203	0.0160543
752.281	0.0162794
752.359	0.0165295
752.437	0.0166302
752.515	0.0166736
752.593	0.0167350
752.671	0.0167622
752.749	0.0166852
752.828	0.0166920
752.906	0.0166101
752.984	0.0165369
753.062	0.0166078
753.140	0.0166952
753.218	0.0165987
753.296	0.0165647
753.374	0.0167366
753.453	0.0167583
753.531	0.0168327
753.609	0.0168885
753.687	0.0169781
753.765	0.0170129
753.843	0.0171783
753.921	0.0172833
753.999	0.0175212
754.078	0.0175799
754.156	0.0174905
754.234	0.0174449
754.312	0.0173562
754.390	0.0172106
754.468	0.0170198
754.546	0.0168066
754.624	0.0165953
754.703	0.0165348
754.781	0.0164143
754.859	0.0164465
754.937	0.0163480
755.015	0.0163454
755.093	0.0164268
755.171	0.0165434
755.249	0.0165108
755.328	0.0166582
755.406	0.0166677
755.484	0.0167477
755.562	0.0168452
755.640	0.0168790
755.718	0.0165745
755.796	0.0166641
755.874	0.0165294
755.953	0.0163785
756.031	0.0163342
756.109	0.0161859
756.187	0.0158907
756.265	0.0156543
756.343	0.0156390
756.421	0.0154111
756.499	0.0155861
756.578	0.0154805
756.656	0.0154120
756.734	0.0154196
756.812	0.0155311
756.890	0.0155891
756.968	0.0157043
757.046	0.0158874
757.124	0.0160751
757.203	0.0158955
757.281	0.0160979
757.359	0.0161666
757.437	0.0162815
757.515	0.0161469
757.593	0.0163226
757.671	0.0164165
757.749	0.0167280
757.828	0.0167625
757.906	0.0170277
757.984	0.0170927
758.062	0.0169833
758.140	0.0173390
758.218	0.0174913
758.296	0.0174705
758.374	0.0176339
758.453	0.0176021
758.531	0.0177058
758.609	0.0176633
758.687	0.0173752
758.765	0.0172508
758.843	0.0172346
758.921	0.0171204
758.999	0.0168754
759.078	0.0168503
759.156	0.0166130
759.234	0.0164677
759.312	0.0162942
759.390	0.0162101
759.468	0.0161715
759.546	0.0159705
759.624	0.0160492
759.703	0.0158855
759.781	0.0157029
759.859	0.0158463
759.937	0.0158643
760.015	0.0158450
760.093	0.0157756
760.171	0.0159615
760.249	0.0160323
760.328	0.0163849
760.406	0.0163361
760.484	0.0163907
760.562	0.0165208
760.640	0.0166723
760.718	0.0167413
760.796	0.0168883
760.874	0.0168881
760.953	0.0167960
761.031	0.0168167
761.109	0.0168713
761.187	0.0165331
761.265	0.0163401
761.343	0.0163004
761.421	0.0161617
761.499	0.0159847
761.578	0.0157773
761.656	0.0158343
761.734	0.0155973
761.812	0.0157887
761.890	0.0155744
761.968	0.0156365
762.046	0.0156527
762.124	0.0156403
762.203	0.0156194
762.281	0.0156327
762.359	0.0156549
762.437	0.0158604
762.515	0.0159043
762.593	0.0162985
762.671	0.0164577
762.749	0.0168491
762.828	0.0169541
762.906	0.0173846
762.984	0.0177574
763.062	0.0180036
763.140	0.0182370
763.218	0.0182380
763.296	0.0184744
763.374	0.0183492
763.453	0.0184222
763.531	0.0183395
763.609	0.0181330
763.687	0.0179865
763.765	0.0178020
763.843	0.0173270
763.921	0.0171124
763.999	0.0169345
764.078	0.0167799
764.156	0.0167676
764.234	0.0164252
764.312	0.0161735
764.390	0.0159415
764.468	0.0157574
764.546	0.0155884
764.624	0.0154932
764.703	0.0151759
764.781	0.0151438
764.859	0.0150414
764.937	0.0148193
765.015	0.0148407
765.093	0.0149783
765.171	0.0150537
765.249	0.0150279
765.328	0.0150943
765.406	0.0153302
765.484	0.0154489
765.562	0.0155437
765.640	0.0157660
765.718	0.0158231
765.796	0.0161266
765.874	0.0163791
765.953	0.0163223
766.031	0.0167187
766.109	0.0168661
766.187	0.0168700
766.265	0.0170372
766.343	0.0171626
766.421	0.0170498
766.499	0.0171307
766.578	0.0171927
766.656	0.0171497
766.734	0.0172346
766.812	0.0171095
766.890	0.0169664
766.968	0.0168509
767.046	0.0168228
767.124	0.0168709
767.203	0.0164915
767.281	0.0165702
767.359	0.0166772
767.437	0.0166307
767.515	0.0164851
767.593	0.0167579
767.671	0.0166785
767.749	0.0167119
767.828	0.0167904
767.906	0.0171005
767.984	0.0172630
768.062	0.0172769
768.140	0.0175319
768.218	0.0174126
768.296	0.0175347
768.374	0.0177053
768.453	0.0174813
768.531	0.0174789
768.609	0.0174105
768.687	0.0172260
768.765	0.0169303
768.843	0.0169720
768.921	0.0169119
768.999	0.0165235
769.078	0.0163530
769.156	0.0162490
769.234	0.0163233
769.312	0.0162397
769.390	0.0160271
769.468	0.0157967
769.546	0.0156857
769.624	0.0156499
769.703	0.0155072
769.781	0.0153934
769.859	0.0154797
769.937	0.0154325
770.015	0.0155234
770.093	0.0155110
770.171	0.0156382
770.249	0.0156950
770.328	0.0157063
770.406	0.0158707
770.484	0.0159343
770.562	0.0160813
770.640	0.0161530
770.718	0.0162303
770.796	0.0162171
770.874	0.0161104
770.953	0.0162572
771.031	0.0162251
771.109	0.0161871
771.187	0.0162795
771.265	0.0161517
771.343	0.0161948
771.421	0.0161149
771.499	0.0161143
771.578	0.0160281
771.656	0.0160098
771.734	0.0162148
771.812	0.0164215
771.890	0.0164738
771.968	0.0168305
772.046	0.0168473
772.124	0.0170664
772.203	0.0173656
772.281	0.0176276
772.359	0.0177174
772.437	0.0178144
772.515	0.0179153
772.593	0.0181107
772.671	0.0181792
772.749	0.0181249
772.828	0.0182394
772.906	0.0183241
772.984	0.0182218
773.062	0.0181395
773.140	0.0178582
773.218	0.0178432
773.296	0.0177927
773.374	0.0176157
773.453	0.0176517
773.531	0.0176591
773.609	0.0175754
773.687	0.0176093
773.765	0.0177235
773.843	0.0176247
773.921	0.0175584
773.999	0.0173071
774.078	0.0171008
774.156	0.0169057
774.234	0.0166278
774.312	0.0163480
774.390	0.0160021
774.468	0.0155920
774.546	0.0152185
774.624	0.0147235
774.703	0.0143907
774.781	0.0141245
774.859	0.0136602
774.937	0.0134337
775.015	0.0134142
775.093	0.0133576
775.171	0.0133276
775.249	0.0133482
775.328	0.0135468
775.406	0.0137811
775.484	0.0138293
775.562	0.0142419
775.640	0.0147918
775.718	0.0150443
775.796	0.0153587
775.874	0.0156422
775.953	0.0160910
776.031	0.0165346
776.109	0.0167809
776.187	0.0169275
776.265	0.0173476
776.343	0.0172720
776.421	0.0175005
776.499	0.0175790
776.578	0.0176467
776.656	0.0178721
776.734	0.0179077
776.812	0.0178382
776.890	0.0180275
776.968	0.0181605
777.046	0.0182328
777.124	0.0183897
777.203	0.0184110
777.281	0.0183872
777.359	0.0185966
777.437	0.0185147
777.515	0.0183487
777.593	0.0183486
777.671	0.0184444
777.749	0.0181921
777.828	0.0180263
777.906	0.0177955
777.984	0.0177394
778.062	0.0177833
778.140	0.0174392
778.218	0.0173103
778.296	0.0173700
778.374	0.0171765
778.453	0.0172055
778.531	0.0172852
778.609	0.0170455
778.687	0.0168424
778.765	0.0168995
778.843	0.0167812
778.921	0.0168768
778.999	0.0167136
779.078	0.0165450
779.156	0.0163937
779.234	0.0161446
779.312	0.0160930
779.390	0.0159220
779.468	0.0156850
779.546	0.0154951
779.624	0.0154874
779.703	0.0152296
779.781	0.0151227
779.859	0.0149444
779.937	0.0150278
780.015	0.0147713
780.093	0.0146964
780.171	0.0146255
780.249	0.0145727
780.328	0.0143327
780.406	0.0143629
780.484	0.0141657
780.562	0.0143195
780.640	0.0144379
780.718	0.0144055
780.796	0.0144147
780.874	0.0146328
780.953	0.0148711
781.031	0.0149378
781.109	0.0152707
781.187	0.0153487
781.265	0.0156015
781.343	0.0156427
781.421	0.0159568
781.499	0.0161255
781.578	0.0163988
781.656	0.0164587
781.734	0.0166902
781.812	0.0169426
781.890	0.0169570
781.968	0.0173317
782.046	0.0176328
782.124	0.0176902
782.203	0.0180005
782.281	0.0181322
782.359	0.0184746
782.437	0.0187012
782.515	0.0188705
782.593	0.0190561
782.671	0.0191771
782.749	0.0191911
782.828	0.0192241
782.906	0.0192152
782.984	0.0191603
783.062	0.0190863
783.140	0.0188317
783.218	0.0187376
783.296	0.0185381
783.374	0.0183871
783.453	0.0180671
783.531	0.0180573
783.609	0.0178419
783.687	0.0177405
783.765	0.0177293
783.843	0.0175398
783.921	0.0171552
783.999	0.0172137
784.078	0.0170219
784.156	0.0168536
784.234	0.0167681
784.312	0.0166537
784.390	0.0165237
784.468	0.0165098
784.546	0.0163119
784.624	0.0161424
784.703	0.0158878
784.781	0.0157635
784.859	0.0156009
784.937	0.0152827
785.015	0.0148769
785.093	0.0147083
785.171	0.0144568
785.249	0.0140960
785.328	0.0140793
785.406	0.0139830
785.484	0.0137868
785.562	0.0136308
785.640	0.0135905
785.718	0.0134408
785.796	0.0133897
785.874	0.0133047
785.953	0.0135447
786.031	0.0134695
786.109	0.0134313
786.187	0.0134837
786.265	0.0135085
786.343	0.0135774
786.421	0.0137739
786.499	0.0139882
786.578	0.0140861
786.656	0.0146554
786.734	0.0151952
786.812	0.0155222
786.890	0.0159824
786.968	0.0164595
787.046	0.0169888
787.124	0.0174291
787.203	0.0180276
787.281	0.0184876
787.359	0.0189132
787.437	0.0192384
787.515	0.0194650
787.593	0.0197253
787.671	0.0200966
787.749	0.0201546
787.828	0.0202368
787.906	0.0202442
787.984	0.0201741
788.062	0.0201718
788.140	0.0201465
788.218	0.0198922
788.296	0.0196838
788.374	0.0195464
788.453	0.0193610
788.531	0.0193357
788.609	0.0189033
788.687	0.0186900
788.765	0.0186082
788.843	0.0184560
788.921	0.0180717
788.999	0.0178356
789.078	0.0176315
789.156	0.0172822
789.234	0.0169809
789.312	0.0167118
789.390	0.0164748
789.468	0.0162449
789.546	0.0158489
789.624	0.0156190
789.703	0.0153996
789.781	0.0150511
789.859	0.0148905
789.937	0.0145178
790.015	0.0143237
790.093	0.0142984
790.171	0.0143379
790.249	0.0140737
790.328	0.0139883
790.406	0.0141591
790.484	0.0141278
790.562	0.0140340
790.640	0.0142477
790.718	0.0144109
790.796	0.0144411
790.874	0.0143697
790.953	0.0144019
791.031	0.0144633
791.109	0.0144894
791.187	0.0144456
791.265	0.0145896
791.343	0.0146574
791.421	0.0145459
791.499	0.0145212
791.578	0.0146815
791.656	0.0147627
791.734	0.0149411
791.812	0.0147820
791.890	0.0149603
791.968	0.0149984
792.046	0.0151143
792.124	0.0154095
792.203	0.0156646
792.281	0.0157708
792.359	0.0161044
792.437	0.0164226
792.515	0.0167887
792.593	0.0170543
792.671	0.0176234
792.749	0.0180160
792.828	0.0186044
792.906	0.0189542
792.984	0.0192334
793.062	0.0196211
793.140	0.0201111
793.218	0.0202651
793.296	0.0204126
793.374	0.0205544
793.453	0.0208326
793.531	0.0206614
793.609	0.0205474
793.687	0.0204138
793.765	0.0202741
793.843	0.0199931
793.921	0.0195351
793.999	0.0191489
794.078	0.0188583
794.156	0.0182557
794.234	0.0179364
794.312	0.0175735
794.390	0.0171913
794.468	0.0169049
794.546	0.0165887
794.624	0.0162826
794.703	0.0159966
794.781	0.0157819
794.859	0.0156033
794.937	0.0155060
795.015	0.0151785
795.093	0.0150660
795.171	0.0149085
795.249	0.0148787
795.328	0.0147641
795.406	0.0147176
795.484	0.0145504
795.562	0.0146001
795.640	0.0145094
795.718	0.0144051
795.796	0.0143915
795.874	0.0143860
795.953	0.0145319
796.031	0.0145160
796.109	0.0147261
796.187	0.0149464
796.265	0.0150388
796.343	0.0152111
796.421	0.0154289
796.499	0.0154946
796.578	0.0156788
796.656	0.0158253
796.734	0.0158242
796.812	0.0159471
796.890	0.0160236
796.968	0.0159344
797.046	0.0158269
797.124	0.0157714
797.203	0.0157437
797.281	0.0156983
797.359	0.0156807
797.437	0.0154564
797.515	0.0153854
797.593	0.0155626
797.671	0.0155399
797.749	0.0157085
797.828	0.0156697
797.906	0.0157754
797.984	0.0160742
798.062	0.0162299
798.140	0.0165917
798.218	0.0168945
798.296	0.0172466
798.374	0.0175654
798.453	0.0178594
798.531	0.0181341
798.609	0.0183549
798.687	0.0186135
798.765	0.0188086
798.843	0.0190451
798.921	0.0191845
798.999	0.0192557
799.078	0.0193661
799.156	0.0193866
799.234	0.0193138
799.312	0.0192974
799.390	0.0192673
799.468	0.0191795
799.546	0.0189594
799.624	0.0187616
799.703	0.0185786
799.781	0.0183327
799.859	0.0181200
799.937	0.0177608
800.015	0.0174467
800.093	0.0171377
800.171	0.0168332
800.249	0.0164934
800.328	0.0163008
800.406	0.0160246
800.484	0.0157180
800.562	0.0155546
800.640	0.0154358
800.718	0.0154064
800.796	0.0151649
800.874	0.0151104
800.953	0.0149789
801.031	0.0151112
801.109	0.0151633
801.187	0.0150478
801.265	0.0148206
801.343	0.0148888
801.421	0.0148318
801.499	0.0148794
801.578	0.0149878
801.656	0.0149802
801.734	0.0150424
801.812	0.0151272
801.890	0.0150784
801.968	0.0152189
802.046	0.0152762
802.124	0.0154239
802.203	0.0155161
802.281	0.0156339
802.359	0.0157781
802.437	0.0157640
802.515	0.0159626
802.593	0.0160294
802.671	0.0162090
802.749	0.0163655
802.828	0.0165037
802.906	0.0165785
802.984	0.0165542
803.062	0.0164759
803.140	0.0165620
803.218	0.0164717
803.296	0.0164584
803.374	0.0162840
803.453	0.0164355
803.531	0.0164921
803.609	0.0164739
803.687	0.0164441
803.765	0.0163252
803.843	0.0164857
803.921	0.0164970
803.999	0.0165201
804.078	0.0164418
804.156	0.0166082
804.234	0.0168075
804.312	0.0170274
804.390	0.0170906
804.468	0.0173302
804.546	0.0174059
804.624	0.0173852
804.703	0.0175951
804.781	0.0175941
804.859	0.0177465
804.937	0.0177706
805.015	0.0179964
805.093	0.0181133
805.171	0.0181561
805.249	0.0181403
805.328	0.0181071
805.406	0.0181673
805.484	0.0179803
805.562	0.0179507
805.640	0.0178819
805.718	0.0177370
805.796	0.0176391
805.874	0.0175554
805.953	0.0173085
806.031	0.0170595
806.109	0.0168837
806.187	0.0168322
806.265	0.0166494
806.343	0.0161786
806.421	0.0163100
806.499	0.0162277
806.578	0.0159289
806.656	0.0158241
806.734	0.0157566
806.812	0.0155627
806.890	0.0153770
806.968	0.0152947
807.046	0.0152837
807.124	0.0152474
807.203	0.0149605
807.281	0.0150449
807.359	0.0151143
807.437	0.0151414
807.515	0.0153757
807.593	0.0153872
807.671	0.0154558
807.749	0.0156506
807.828	0.0156493
807.906	0.0156372
807.984	0.0158945
808.062	0.0159518
808.140	0.0158739
808.218	0.0159115
808.296	0.0159786
808.374	0.0160979
808.453	0.0161480
808.531	0.0162447
808.609	0.0161723
808.687	0.0161962
808.765	0.0163050
808.843	0.0162586
808.921	0.0162971
808.999	0.0164862
809.078	0.0162624
809.156	0.0163841
809.234	0.0164079
809.312	0.0162509
809.390	0.0164342
809.468	0.0163091
809.546	0.0164032
809.624	0.0165276
809.703	0.0164832
809.781	0.0165546
809.859	0.0167107
809.937	0.0167122
810.015	0.0168440
810.093	0.0169080
810.171	0.0168244
810.249	0.0170923
810.328	0.0169784
810.406	0.0171125
810.484	0.0173319
810.562	0.0173795
810.640	0.0174297
810.718	0.0173442
810.796	0.0174793
810.874	0.0173725
810.953	0.0174753
811.031	0.0174960
811.109	0.0174757
811.187	0.0175694
811.265	0.0175052
811.343	0.0174618
811.421	0.0175211
811.499	0.0175149
811.578	0.0174743
811.656	0.0176359
811.734	0.0174003
811.812	0.0173819
811.890	0.0173180
811.968	0.0171971
812.046	0.0172531
812.124	0.0171465
812.203	0.0169636
812.281	0.0168092
812.359	0.0167171
812.437	0.0165673
812.515	0.0163705
812.593	0.0161455
812.671	0.0160543
812.749	0.0158723
812.828	0.0155419
812.906	0.0153461
812.984	0.0153805
813.062	0.0152363
813.140	0.0150771
813.218	0.0150557
813.296	0.0150649
813.374	0.0151244
813.453	0.0152660
813.531	0.0152875
813.609	0.0152484
813.687	0.0154120
813.765	0.0157474
813.843	0.0157410
813.921	0.0159110
813.999	0.0159831
814.078	0.0160902
814.156	0.0162222
814.234	0.0162187
814.312	0.0164109
814.390	0.0164668
814.468	0.0164948
814.546	0.0163583
814.624	0.0162862
814.703	0.0163124
814.781	0.0163049
814.859	0.0163310
814.937	0.0162985
815.015	0.0162273
815.093	0.0163664
815.171	0.0164832
815.249	0.0163415
815.328	0.0166080
815.406	0.0165907
815.484	0.0165437
815.562	0.0169083
815.640	0.0168991
815.718	0.0170174
815.796	0.0169917
815.874	0.0171315
815.953	0.0172580
816.031	0.0171754
816.109	0.0171293
816.187	0.0171127
816.265	0.0170439
816.343	0.0170808
816.421	0.0170188
816.499	0.0168787
816.578	0.0169132
816.656	0.0168801
816.734	0.0167638
816.812	0.0167146
816.890	0.0167324
816.968	0.0165608
817.046	0.0167199
817.124	0.0165542
817.203	0.0165624
817.281	0.0167829
817.359	0.0168009
817.437	0.0170228
817.515	0.0171301
817.593	0.0170759
817.671	0.0170907
817.749	0.0170049
817.828	0.0173121
817.906	0.0171916
817.984	0.0173331
818.062	0.0173424
818.140	0.0172105
818.218	0.0172637
818.296	0.0170910
818.374	0.0169037
818.453	0.0168312
818.531	0.0166108
818.609	0.0164764
818.687	0.0162363
818.765	0.0161818
818.843	0.0160037
818.921	0.0157996
818.999	0.0158659
819.078	0.0156644
819.156	0.0155619
819.234	0.0156282
819.312	0.0157024
819.390	0.0157372
819.468	0.0158620
819.546	0.0157839
819.624	0.0157389
819.703	0.0158617
819.781	0.0159583
819.859	0.0159238
819.937	0.0161044
820.015	0.0161338
820.093	0.0161591
820.171	0.0161346
820.249	0.0161961
820.328	0.0161027
820.406	0.0163420
820.484	0.0163506
820.562	0.0163367
820.640	0.0163285
820.718	0.0162360
820.796	0.0163773
820.874	0.0164253
820.953	0.0164382
821.031	0.0165278
821.109	0.0167258
821.187	0.0167231
821.265	0.0167666
821.343	0.0169814
821.421	0.0170528
821.499	0.0170721
821.578	0.0171138
821.656	0.0170902
821.734	0.0171652
821.812	0.0172111
821.890	0.0171765
821.968	0.0171506
822.046	0.0171105
822.124	0.0169310
822.203	0.0167226
822.281	0.0167257
822.359	0.0165164
822.437	0.0163786
822.515	0.0163180
822.593	0.0160554
822.671	0.0160394
822.749	0.0162219
822.828	0.0159095
822.906	0.0160560
822.984	0.0161192
823.062	0.0161549
823.140	0.0162589
823.218	0.0164790
823.296	0.0166404
823.374	0.0166692
823.453	0.0166396
823.531	0.0167580
823.609	0.0168331
823.687	0.0169598
823.765	0.0169434
823.843	0.0170278
823.921	0.0169680
823.999	0.0169231
824.078	0.0170415
824.156	0.0170662
824.234	0.0171240
824.312	0.0169087
824.390	0.0168230
824.468	0.0169328
824.546	0.0168862
824.624	0.0169040
824.703	0.0166449
824.781	0.0166909
824.859	0.0165583
824.937	0.0165637
825.015	0.0165216
825.093	0.0164674
825.171	0.0163669
825.249	0.0164203
825.328	0.0163383
825.406	0.0161911
825.484	0.0161699
825.562	0.0163386
825.640	0.0160032
825.718	0.0159949
825.796	0.0161474
825.874	0.0161031
825.953	0.0160025
826.031	0.0160960
826.109	0.0162227
826.187	0.0160962
826.265	0.0161314
826.343	0.0160997
826.421	0.0160076
826.499	0.0159041
826.578	0.0159613
826.656	0.0161639
826.734	0.0161747
826.812	0.0161674
826.890	0.0162096
826.968	0.0161946
827.046	0.0166038
827.124	0.0165868
827.203	0.0167735
827.281	0.0167290
827.359	0.0169213
827.437	0.0170113
827.515	0.0169640
827.593	0.0170343
827.671	0.0169750
827.749	0.0170484
827.828	0.0168880
827.906	0.0167925
827.984	0.0167816
828.062	0.0166930
828.140	0.0166427
828.218	0.0164825
828.296	0.0164558
828.374	0.0163866
828.453	0.0162508
828.531	0.0161232
828.609	0.0162437
828.687	0.0163734
828.765	0.0162792
828.843	0.0163566
828.921	0.0163385
828.999	0.0165308
829.078	0.0166410
829.156	0.0165660
829.234	0.0166230
829.312	0.0167753
829.390	0.0169014
829.468	0.0166528
829.546	0.0167933
829.624	0.0167932
829.703	0.0169700
829.781	0.0168288
829.859	0.0170243
829.937	0.0169689
830.015	0.0168427
830.093	0.0169059
830.171	0.0168983
830.249	0.0168191
830.328	0.0169009
830.406	0.0169658
830.484	0.0167610
830.562	0.0167623
830.640	0.0166597
830.718	0.0167497
830.796	0.0165916
830.874	0.0166860
830.953	0.0165850
831.031	0.0166033
831.109	0.0165037
831.187	0.0165562
831.265	0.0165038
831.343	0.0165463
831.421	0.0165170
831.499	0.0165390
831.578	0.0164355
831.656	0.0164665
831.734	0.0163480
831.812	0.0164172
831.890	0.0163606
831.968	0.0164324
832.046	0.0164171
832.124	0.0162747
832.203	0.0163655
832.281	0.0162080
832.359	0.0161377
832.437	0.0162265
832.515	0.0161716
832.593	0.0161221
832.671	0.0161398
832.749	0.0163274
832.828	0.0162694
832.906	0.0164049
832.984	0.0164931
833.062	0.0164465
833.140	0.0164777
833.218	0.0165839
833.296	0.0166398
833.374	0.0166339
833.453	0.0166258
833.531	0.0166010
833.609	0.0167003
833.687	0.0166969
833.765	0.0166452
833.843	0.0168118
833.921	0.0166342
833.999	0.0166205
834.078	0.0166681
834.156	0.0166228
834.234	0.0167988
834.312	0.0166219
834.390	0.0165534
834.468	0.0166272
834.546	0.0165954
834.624	0.0166779
834.703	0.0164931
834.781	0.0164911
834.859	0.0165027
834.937	0.0165238
835.015	0.0164767
835.093	0.0165060
835.171	0.0163830
835.249	0.0164028
835.328	0.0162854
835.406	0.0164423
835.484	0.0163959
835.562	0.0163705
835.640	0.0163906
835.718	0.0164121
835.796	0.0164201
835.874	0.0163533
835.953	0.0164914
836.031	0.0166515
836.109	0.0166045
836.187	0.0167504
836.265	0.0164223
836.343	0.0167600
836.421	0.0167146
836.499	0.0167264
836.578	0.0167968
836.656	0.0167088
836.734	0.0166973
836.812	0.0167742
836.890	0.0166817
836.968	0.0168140
837.046	0.0168693
837.124	0.0169194
837.203	0.0169592
837.281	0.0169605
837.359	0.0169293
837.437	0.0170397
837.515	0.0170592
837.593	0.0169704
837.671	0.0170899
837.749	0.0169031
837.828	0.0168925
837.906	0.0167856
837.984	0.0165988
838.062	0.0165043
838.140	0.0163853
838.218	0.0163972
838.296	0.0162347
838.374	0.0162141
838.453	0.0159514
838.531	0.0160934
838.609	0.0163199
838.687	0.0162945
838.765	0.0162499
838.843	0.0161923
838.921	0.0161838
838.999	0.0162000
839.078	0.0162572
839.156	0.0162096
839.234	0.0161677
839.312	0.0162373
839.390	0.0163178
839.468	0.0161602
839.546	0.0162541
839.624	0.0162673
839.703	0.0164249
839.781	0.0163509
839.859	0.0162882
839.937	0.0162886
840.015	0.0161805
840.093	0.0162705
840.171	0.0162931
840.249	0.0162956
840.328	0.0165245
840.406	0.0164922
840.484	0.0164603
840.562	0.0163935
840.640	0.0164265
840.718	0.0164916
840.796	0.0165685
840.874	0.0164532
840.953	0.0165768
841.031	0.0164674
841.109	0.0166026
841.187	0.0165931
841.265	0.0165833
841.343	0.0166338
841.421	0.0167152
841.499	0.0165697
841.578	0.0166624
841.656	0.0167991
841.734	0.0168168
841.812	0.0168072
841.890	0.0170509
841.968	0.0169698
842.046	0.0169874
842.124	0.0169450
842.203	0.0170495
842.281	0.0170203
842.359	0.0170176
842.437	0.0168488
842.515	0.0169179
842.593	0.0169747
842.671	0.0167062
842.749	0.0166727
842.828	0.0166627
842.906	0.0168640
842.984	0.0166254
843.062	0.0165524
843.140	0.0165382
843.218	0.0165159
843.296	0.0165739
843.374	0.0164340
843.453	0.0164096
843.531	0.0164918
843.609	0.0164827
843.687	0.0163103
843.765	0.0164325
843.843	0.0165466
843.921	0.0162985
843.999	0.0164836
844.078	0.0165420
844.156	0.0164754
844.234	0.0165526
844.312	0.0165189
844.390	0.0165072
844.468	0.0165198
844.546	0.0164590
844.624	0.0164521
844.703	0.0163829
844.781	0.0163075
844.859	0.0164071
844.937	0.0164591
845.015	0.0163451
845.093	0.0162573
845.171	0.0162827
845.249	0.0160286
845.328	0.0160587
845.406	0.0161305
845.484	0.0160497
845.562	0.0160941
845.640	0.0160316
845.718	0.0160757
845.796	0.0161874
845.874	0.0160715
845.953	0.0162383
846.031	0.0163423
846.109	0.0163207
846.187	0.0164277
846.265	0.0164381
846.343	0.0166356
846.421	0.0166248
846.499	0.0166128
846.578	0.0167345
846.656	0.0168123
846.734	0.0167012
846.812	0.0167657
846.890	0.0168668
846.968	0.0167611
847.046	0.0167463
847.124	0.0167600
847.203	0.0165919
847.281	0.0165118
847.359	0.0166115
847.437	0.0165682
847.515	0.0163446
847.593	0.0164387
847.671	0.0163556
847.749	0.0164384
847.828	0.0165151
847.906	0.0165222
847.984	0.0165191
848.062	0.0166526
848.140	0.0166980
848.218	0.0165964
848.296	0.0167106
848.374	0.0167048
848.453	0.0166797
848.531	0.0166977
848.609	0.0167593
848.687	0.0168406
848.765	0.0166897
848.843	0.0166154
848.921	0.0166980
848.999	0.0166171
849.078	0.0165678
849.156	0.0164758
849.234	0.0164649
849.312	0.0164250
849.390	0.0164941
849.468	0.0164162
849.546	0.0163354
849.624	0.0164037
849.703	0.0164659
849.781	0.0165646
849.859	0.0165060
849.937	0.0165457
850.015	0.0166646
850.093	0.0167366
850.171	0.0166011
850.249	0.0167374
850.328	0.0167432
850.406	0.0167709
850.484	0.0167653
850.562	0.0167471
850.640	0.0167494
850.718	0.0166766
850.796	0.0164975
850.874	0.0165520
850.953	0.0166457
851.031	0.0166138
851.109	0.0165484
851.187	0.0164070
851.265	0.0165282
851.343	0.0164663
851.421	0.0163158
851.499	0.0163158
851.578	0.0162054
851.656	0.0161252
851.734	0.0160806
851.812	0.0162865
851.890	0.0161497
851.968	0.0163078
852.046	0.0163122
852.124	0.0164137
852.203	0.0163901
852.281	0.0166916
852.359	0.0166679
852.437	0.0167018
852.515	0.0167709
852.593	0.0169254
852.671	0.0170464
852.749	0.0169093
852.828	0.0168298
852.906	0.0168108
852.984	0.0168889
853.062	0.0168575
853.140	0.0166749
853.218	0.0166985
853.296	0.0167168
853.374	0.0165620
853.453	0.0164855
853.531	0.0163847
853.609	0.0165526
853.687	0.0163914
853.765	0.0163316
853.843	0.0163721
853.921	0.0163409
853.999	0.0162403
854.078	0.0162742
854.156	0.0163558
854.234	0.0164360
854.312	0.0161646
854.390	0.0162846
854.468	0.0161423
854.546	0.0163899
854.624	0.0161735
854.703	0.0162421
854.781	0.0161438
854.859	0.0162080
854.937	0.0163508
855.015	0.0162881
855.093	0.0162942
855.171	0.0164304
855.249	0.0166116
855.328	0.0165919
855.406	0.0167855
855.484	0.0167689
855.562	0.0168656
855.640	0.0168497
855.718	0.0170076
855.796	0.0171663
855.874	0.0170393
855.953	0.0170662
856.031	0.0171114
856.109	0.0170844
856.187	0.0171538
856.265	0.0170939
856.343	0.0172434
856.421	0.0171429
856.499	0.0170768
856.578	0.0169766
856.656	0.0169038
856.734	0.0169061
856.812	0.0167265
856.890	0.0165726
856.968	0.0166515
857.046	0.0165215
857.124	0.0164400
857.203	0.0163142
857.281	0.0163807
857.359	0.0162058
857.437	0.0162783
857.515	0.0162624
857.593	0.0161642
857.671	0.0162238
857.749	0.0162323
857.828	0.0161505
857.906	0.0162149
857.984	0.0161921
858.062	0.0162131
858.140	0.0162727
858.218	0.0162396
858.296	0.0161410
858.374	0.0162704
858.453	0.0163354
858.531	0.0164249
858.609	0.0163345
858.687	0.0162897
858.765	0.0162380
858.843	0.0164927
858.921	0.0165240
858.999	0.0164049
859.078	0.0166718
859.156	0.0166826
859.234	0.0165806
859.312	0.0168890
859.390	0.0169131
859.468	0.0168595
859.546	0.0167978
859.624	0.0169323
859.703	0.0170367
859.781	0.0168255
859.859	0.0170166
859.937	0.0170132
860.015	0.0169012
860.093	0.0168871
860.171	0.0168672
860.249	0.0167962
860.328	0.0166272
860.406	0.0165027
860.484	0.0164425
860.562	0.0163106
860.640	0.0162031
860.718	0.0161671
860.796	0.0160265
860.874	0.0160049
860.953	0.0161589
861.031	0.0160505
861.109	0.0159426
861.187	0.0160209
861.265	0.0161362
861.343	0.0161893
861.421	0.0161981
861.499	0.0162627
861.578	0.0162285
861.656	0.0163646
861.734	0.0165096
861.812	0.0166473
861.890	0.0164215
861.968	0.0164357
862.046	0.0165622
862.124	0.0164101
862.203	0.0166771
862.281	0.0165243
862.359	0.0166180
862.437	0.0165061
862.515	0.0165568
862.593	0.0167115
862.671	0.0166386
862.749	0.0167289
862.828	0.0167343
862.906	0.0168645
862.984	0.0168445
863.062	0.0166335
863.140	0.0167381
863.218	0.0168656
863.296	0.0168943
863.374	0.0167791
863.453	0.0168144
863.531	0.0166884
863.609	0.0167038
863.687	0.0166190
863.765	0.0167191
863.843	0.0167255
863.921	0.0167003
863.999	0.0166707
864.078	0.0167117
864.156	0.0167661
864.234	0.0166953
864.312	0.0166135
864.390	0.0166422
864.468	0.0167104
864.546	0.0166665
864.624	0.0165833
864.703	0.0165504
864.781	0.0164852
864.859	0.0165525
864.937	0.0164645
865.015	0.0164176
865.093	0.0163162
865.171	0.0162688
865.249	0.0160425
865.328	0.0162347
865.406	0.0161971
865.484	0.0160135
865.562	0.0160478
865.640	0.0161131
865.718	0.0161677
865.796	0.0160922
865.874	0.0162172
865.953	0.0161786
866.031	0.0161639
866.109	0.0163690
866.187	0.0161151
866.265	0.0161987
866.343	0.0164337
866.421	0.0163649
866.499	0.0164571
866.578	0.0165101
866.656	0.0164082
866.734	0.0165004
866.812	0.0165222
866.890	0.0166031
866.968	0.0166816
867.046	0.0166942
867.124	0.0167638
867.203	0.0167545
867.281	0.0167782
867.359	0.0168372
867.437	0.0168529
867.515	0.0168335
867.593	0.0167536
867.671	0.0169247
867.749	0.0169164
867.828	0.0168102
867.906	0.0168819
867.984	0.0169793
868.062	0.0168661
868.140	0.0166890
868.218	0.0165156
868.296	0.0165607
868.374	0.0166226
868.453	0.0166128
868.531	0.0166109
868.609	0.0164584
868.687	0.0165671
868.765	0.0165994
868.843	0.0165611
868.921	0.0164464
868.999	0.0165623
869.078	0.0165077
869.156	0.0165310
869.234	0.0164372
869.312	0.0164842
869.390	0.0165685
869.468	0.0165215
869.546	0.0165929
869.624	0.0165180
869.703	0.0165146
869.781	0.0166000
869.859	0.0166778
869.937	0.0165170
870.015	0.0165025
870.093	0.0164133
870.171	0.0165182
870.249	0.0165211
870.328	0.0165484
870.406	0.0167087
870.484	0.0165620
870.562	0.0165094
870.640	0.0164974
870.718	0.0165789
870.796	0.0165816
870.874	0.0163453
870.953	0.0162743
871.031	0.0163119
871.109	0.0162690
871.187	0.0163669
871.265	0.0162212
871.343	0.0162656
871.421	0.0161947
871.499	0.0160918
871.578	0.0160700
871.656	0.0158735
871.734	0.0159576
871.812	0.0160806
871.890	0.0159765
871.968	0.0159682
872.046	0.0159036
872.124	0.0158627
872.203	0.0159930
872.281	0.0159051
872.359	0.0160015
872.437	0.0160710
872.515	0.0162150
872.593	0.0161940
872.671	0.0164456
872.749	0.0164082
872.828	0.0164784
872.906	0.0165191
872.984	0.0168204
873.062	0.0168746
873.140	0.0169252
873.218	0.0172062
873.296	0.0171588
873.374	0.0170790
873.453	0.0172769
873.531	0.0173151
873.609	0.0172578
873.687	0.0173492
873.765	0.0172874
873.843	0.0171810
873.921	0.0170425
873.999	0.0170000
874.078	0.0170107
874.156	0.0169448
874.234	0.0169440
874.312	0.0169197
874.390	0.0168454
874.468	0.0165597
874.546	0.0166825
874.624	0.0167096
874.703	0.0166833
874.781	0.0166045
874.859	0.0165403
874.937	0.0166827
875.015	0.0166597
875.093	0.0167126
875.171	0.0166687
875.249	0.0165662
875.328	0.0165219
875.406	0.0165032
875.484	0.0165208
875.562	0.0164286
875.640	0.0164215
875.718	0.0162156
875.796	0.0161674
875.874	0.0162481
875.953	0.0161267
876.031	0.0162073
876.109	0.0160340
876.187	0.0159765
876.265	0.0159637
876.343	0.0161066
876.421	0.0160579
876.499	0.0160204
876.578	0.0161263
876.656	0.0161433
876.734	0.0161220
876.812	0.0161230
876.890	0.0160155
876.968	0.0161246
877.046	0.0160870
877.124	0.0161224
877.203	0.0161850
877.281	0.0160419
877.359	0.0161626
877.437	0.0162990
877.515	0.0162313
877.593	0.0162168
877.671	0.0162016
877.749	0.0160825
877.828	0.0162931
877.906	0.0164018
877.984	0.0163610
878.062	0.0163519
878.140	0.0164149
878.218	0.0165469
878.296	0.0165512
878.374	0.0166608
878.453	0.0167274
878.531	0.0168030
878.609	0.0169050
878.687	0.0169650
878.765	0.0169560
878.843	0.0169276
878.921	0.0171214
878.999	0.0169904
879.078	0.0171230
879.156	0.0172009
879.234	0.0173146
879.312	0.0172810
879.390	0.0172247
879.468	0.0171701
879.546	0.0172146
879.624	0.0171658
879.703	0.0170660
879.781	0.0170052
879.859	0.0169988
879.937	0.0169684
880.015	0.0169964
880.093	0.0168776
880.171	0.0168338
880.249	0.0165910
880.328	0.0166977
880.406	0.0166445
880.484	0.0165762
880.562	0.0165665
880.640	0.0166283
880.718	0.0165071
880.796	0.0163013
880.874	0.0163166
880.953	0.0163269
881.031	0.0162725
881.109	0.0161496
881.187	0.0163155
881.265	0.0161508
881.343	0.0161787
881.421	0.0162154
881.499	0.0160089
881.578	0.0161060
881.656	0.0160134
881.734	0.0158775
881.812	0.0158153
881.890	0.0159026
881.968	0.0158966
882.046	0.0159052
882.124	0.0157079
882.203	0.0157346
882.281	0.0158372
882.359	0.0158479
882.437	0.0157397
882.515	0.0157156
882.593	0.0160277
882.671	0.0158974
882.749	0.0159646
882.828	0.0160497
882.906	0.0160958
882.984	0.0160207
883.062	0.0161234
883.140	0.0162160
883.218	0.0163765
883.296	0.0163788
883.374	0.0164037
883.453	0.0164813
883.531	0.0166253
883.609	0.0165641
883.687	0.0166109
883.765	0.0167670
883.843	0.0167591
883.921	0.0167117
883.999	0.0167638
884.078	0.0169497
884.156	0.0169477
884.234	0.0170628
884.312	0.0170265
884.390	0.0170985
884.468	0.0171435
884.546	0.0172103
884.624	0.0171674
884.703	0.0172542
884.781	0.0172143
884.859	0.0172225
884.937	0.0172142
885.015	0.0171519
885.093	0.0171891
885.171	0.0172660
885.249	0.0171979
885.328	0.0171200
885.406	0.0171204
885.484	0.0170265
885.562	0.0170842
885.640	0.0169189
885.718	0.0168446
885.796	0.0170129
885.874	0.0168384
885.953	0.0167268
886.031	0.0166548
886.109	0.0166690
886.187	0.0166038
886.265	0.0163927
886.343	0.0164149
886.421	0.0162821
886.499	0.0161743
886.578	0.0161178
886.656	0.0161320
886.734	0.0161974
886.812	0.0160552
886.890	0.0160797
886.968	0.0159931
887.046	0.0158681
887.124	0.0158119
887.203	0.0158659
887.281	0.0158588
887.359	0.0158495
887.437	0.0157793
887.515	0.0157680
887.593	0.0157676
887.671	0.0157758
887.749	0.0158342
887.828	0.0158276
887.906	0.0159382
887.984	0.0158637
888.062	0.0159370
888.140	0.0160980
888.218	0.0160474
888.296	0.0161525
888.374	0.0162751
888.453	0.0163420
888.531	0.0163712
888.609	0.0162566
888.687	0.0164220
888.765	0.0165172
888.843	0.0165303
888.921	0.0167207
888.999	0.0166224
889.078	0.0166931
889.156	0.0168439
889.234	0.0168859
889.312	0.0169727
889.390	0.0168991
889.468	0.0170041
889.546	0.0170972
889.624	0.0170836
889.703	0.0170422
889.781	0.0172026
889.859	0.0172615
889.937	0.0171239
890.015	0.0171555
890.093	0.0171413
890.171	0.0171988
890.249	0.0171548
890.328	0.0170521
890.406	0.0170470
890.484	0.0170029
890.562	0.0169199
890.640	0.0170628
890.718	0.0168581
890.796	0.0168171
890.874	0.0167941
890.953	0.0168184
891.031	0.0166125
891.109	0.0165551
891.187	0.0166805
891.265	0.0166814
891.343	0.0166548
891.421	0.0165170
891.499	0.0165945
891.578	0.0164839
891.656	0.0164063
891.734	0.0163150
891.812	0.0162165
891.890	0.0162650
891.968	0.0162677
892.046	0.0161477
892.124	0.0162524
892.203	0.0160641
892.281	0.0161302
892.359	0.0161932
892.437	0.0161107
892.515	0.0159800
892.593	0.0160629
892.671	0.0161112
892.749	0.0161363
892.828	0.0160126
892.906	0.0160174
892.984	0.0159152
893.062	0.0158862
893.140	0.0160580
893.218	0.0160323
893.296	0.0160848
893.374	0.0159266
893.453	0.0161089
893.531	0.0160755
893.609	0.0160340
893.687	0.0160943
893.765	0.0160024
893.843	0.0161701
893.921	0.0161989
893.999	0.0161681
894.078	0.0162244
894.156	0.0164076
894.234	0.0164010
894.312	0.0164167
894.390	0.0165221
894.468	0.0166882
894.546	0.0166887
894.624	0.0168342
894.703	0.0168195
894.781	0.0168438
894.859	0.0169975
894.937	0.0170345
895.015	0.0170271
895.093	0.0170846
895.171	0.0171391
895.249	0.0170263
895.328	0.0170120
895.406	0.0171188
895.484	0.0171110
895.562	0.0170399
895.640	0.0170755
895.718	0.0170098
895.796	0.0168491
895.874	0.0168417
895.953	0.0169261
896.031	0.0169017
896.109	0.0168075
896.187	0.0167763
896.265	0.0167513
896.343	0.0167314
896.421	0.0166262
896.499	0.0165569
896.578	0.0166642
896.656	0.0165177
896.734	0.0164616
896.812	0.0164182
896.890	0.0164044
896.968	0.0164796
897.046	0.0163776
897.124	0.0162834
897.203	0.0162141
897.281	0.0163134
897.359	0.0162374
897.437	0.0162863
897.515	0.0162802
897.593	0.0161795
897.671	0.0162477
897.749	0.0162999
897.828	0.0161996
897.906	0.0160658
897.984	0.0161485
898.062	0.0162821
898.140	0.0162690
898.218	0.0162039
898.296	0.0161385
898.374	0.0160677
898.453	0.0159726
898.531	0.0161172
898.609	0.0160049
898.687	0.0161328
898.765	0.0159865
898.843	0.0161234
898.921	0.0160991
898.999	0.0162007
899.078	0.0161736
899.156	0.0161203
899.234	0.0162588
899.312	0.0162054
899.390	0.0163150
899.468	0.0163737
899.546	0.0164651
899.624	0.0163390
899.703	0.0165094
899.781	0.0164549
899.859	0.0166860
899.937	0.0167702
900.015	0.0166131
900.093	0.0166697
900.171	0.0167201
900.249	0.0166908
900.328	0.0166988
900.406	0.0167436
900.484	0.0166199
900.562	0.0167584
900.640	0.0168872
900.718	0.0168175
900.796	0.0166367
900.874	0.0167040
900.953	0.0169502
901.031	0.0167819
901.109	0.0167889
901.187	0.0166921
901.265	0.0168372
901.343	0.0166599
901.421	0.0166737
901.499	0.0167748
901.578	0.0168360
901.656	0.0166270
901.734	0.0167889
901.812	0.0166534
901.890	0.0166253
901.968	0.0165750
902.046	0.0166354
902.124	0.0165591
902.203	0.0165826
902.281	0.0166191
902.359	0.0166420
902.437	0.0166901
902.515	0.0165588
902.593	0.0165006
902.671	0.0164182
902.749	0.0165050
902.828	0.0164321
902.906	0.0165100
902.984	0.0165216
903.062	0.0163529
903.140	0.0163221
903.218	0.0163558
903.296	0.0164217
903.374	0.0163548
903.453	0.0163711
903.531	0.0162094
903.609	0.0162940
903.687	0.0163031
903.765	0.0162466
903.843	0.0161587
903.921	0.0162253
903.999	0.0161655
904.078	0.0162411
904.156	0.0162588
904.234	0.0162523
904.312	0.0164510
904.390	0.0164048
904.468	0.0163225
904.546	0.0164847
904.624	0.0163927
904.703	0.0163882
904.781	0.0164648
904.859	0.0164411
904.937	0.0163885
905.015	0.0164442
905.093	0.0164189
905.171	0.0166039
905.249	0.0165801
905.328	0.0165688
905.406	0.0167583
905.484	0.0166636
905.562	0.0165966
905.640	0.0165995
905.718	0.0168123
905.796	0.0167777
905.874	0.0167743
905.953	0.0167442
906.031	0.0167453
906.109	0.0165571
906.187	0.0165329
906.265	0.0166642
906.343	0.0166289
906.421	0.0166414
906.499	0.0166689
906.578	0.0163908
906.656	0.0164008
906.734	0.0166275
906.812	0.0164095
906.890	0.0164374
906.968	0.0164989
907.046	0.0163090
907.124	0.0162698
907.203	0.0163167
907.281	0.0163840
907.359	0.0163356
907.437	0.0164050
907.515	0.0163294
907.593	0.0163795
907.671	0.0164253
907.749	0.0163200
907.828	0.0164307
907.906	0.0164432
907.984	0.0164602
908.062	0.0164796
908.140	0.0164718
908.218	0.0166133
908.296	0.0165337
908.374	0.0166578
908.453	0.0166503
908.531	0.0167246
908.609	0.0167298
908.687	0.0167039
908.765	0.0167905
908.843	0.0168513
908.921	0.0169062
908.999	0.0167238
909.078	0.0167105
909.156	0.0167752
909.234	0.0167590
909.312	0.0167699
909.390	0.0166058
909.468	0.0165871
909.546	0.0165805
909.624	0.0165796
909.703	0.0166337
909.781	0.0165434
909.859	0.0164566
909.937	0.0165303
910.015	0.0165632
910.093	0.0164670
910.171	0.0166231
910.249	0.0164780
910.328	0.0165163
910.406	0.0165833
910.484	0.0164457
910.562	0.0165717
910.640	0.0167194
910.718	0.0166804
910.796	0.0165658
910.874	0.0166228
910.953	0.0165774
911.031	0.0165982
911.109	0.0165007
911.187	0.0165678
911.265	0.0165000
911.343	0.0165781
911.421	0.0164908
911.499	0.0164748
911.578	0.0163475
911.656	0.0163394
911.734	0.0163456
911.812	0.0163839
911.890	0.0163685
911.968	0.0163203
912.046	0.0164664
912.124	0.0163248
912.203	0.0165067
912.281	0.0164603
912.359	0.0163934
912.437	0.0164800
912.515	0.0165119
912.593	0.0164706
912.671	0.0165002
912.749	0.0164190
912.828	0.0163190
912.906	0.0163992
912.984	0.0164468
913.062	0.0164036
913.140	0.0163372
913.218	0.0164277
913.296	0.0166169
913.374	0.0165796
913.453	0.0165104
913.531	0.0165052
913.609	0.0165727
913.687	0.0164513
913.765	0.0165785
913.843	0.0166895
913.921	0.0167413
913.999	0.0167030
914.078	0.0165535
914.156	0.0166547
914.234	0.0166255
914.312	0.0169122
914.390	0.0166892
914.468	0.0167126
914.546	0.0166734
914.624	0.0166661
914.703	0.0167781
914.781	0.0168112
914.859	0.0166230
914.937	0.0167780
915.015	0.0167193
915.093	0.0165888
915.171	0.0167870
915.249	0.0166625
915.328	0.0167193
915.406	0.0167039
915.484	0.0166098
915.562	0.0167274
915.640	0.0165848
915.718	0.0165005
915.796	0.0165614
915.874	0.0166405
915.953	0.0165292
916.031	0.0166502
916.109	0.0164429
916.187	0.0164385
916.265	0.0164412
916.343	0.0162672
916.421	0.0162590
916.499	0.0164034
916.578	0.0164228
916.656	0.0163100
916.734	0.0162923
916.812	0.0163592
916.890	0.0164252
916.968	0.0164336
917.046	0.0163715
917.124	0.0162250
917.203	0.0161825
917.281	0.0163885
917.359	0.0163089
917.437	0.0163256
917.515	0.0164410
917.593	0.0163548
917.671	0.0163994
917.749	0.0163875
917.828	0.0163389
917.906	0.0164509
917.984	0.0163915
918.062	0.0162762
918.140	0.0164106
918.218	0.0164289
918.296	0.0164263
918.374	0.0165398
918.453	0.0164131
918.531	0.0164712
918.609	0.0163950
918.687	0.0164933
918.765	0.0164203
918.843	0.0164285
918.921	0.0163922
918.999	0.0163744
919.078	0.0164888
919.156	0.0164523
919.234	0.0165266
919.312	0.0163694
919.390	0.0165410
919.468	0.0167574
919.546	0.0165281
919.624	0.0166911
919.703	0.0167538
919.781	0.0165410
919.859	0.0166746
919.937	0.0167293
