06/10/2022	18:25:19	Ver.	4.1	UNKNOWN
Optical Delay	600.015094	Delta X		0.078125	Sweeps	1	Scan Rate	0/0
Coordinates	Axis 1	NaN	Axis 2	NaN	Axis 3	NaN	Axis 4	NaN	Axis 5	NaN	Axis 6	0.000000
TX Power	0.000000	RX Power	0.000000

600.015	0.0156739
600.093	0.0157150
600.171	0.0156889
600.249	0.0155919
600.328	0.0156155
600.406	0.0157307
600.484	0.0157545
600.562	0.0156970
600.640	0.0156110
600.718	0.0157255
600.796	0.0155843
600.874	0.0156432
600.953	0.0155602
601.031	0.0155533
601.109	0.0156743
601.187	0.0157162
601.265	0.0156822
601.343	0.0155798
601.421	0.0156122
601.499	0.0156933
601.578	0.0156388
601.656	0.0156423
601.734	0.0157512
601.812	0.0155622
601.890	0.0157862
601.968	0.0156660
602.046	0.0156406
602.124	0.0156431
602.203	0.0157009
602.281	0.0156537
602.359	0.0155544
602.437	0.0156679
602.515	0.0157221
602.593	0.0157030
602.671	0.0157367
602.749	0.0155837
602.828	0.0156998
602.906	0.0156958
602.984	0.0156600
603.062	0.0157151
603.140	0.0157339
603.218	0.0157964
603.296	0.0156183
603.374	0.0155946
603.453	0.0156686
603.531	0.0157527
603.609	0.0156823
603.687	0.0158077
603.765	0.0156674
603.843	0.0155703
603.921	0.0156035
603.999	0.0156541
604.078	0.0155870
604.156	0.0157452
604.234	0.0156682
604.312	0.0157247
604.390	0.0155656
604.468	0.0156365
604.546	0.0156776
604.624	0.0155761
604.703	0.0156624
604.781	0.0156649
604.859	0.0156063
604.937	0.0157027
605.015	0.0156200
605.093	0.0155551
605.171	0.0157840
605.249	0.0155701
605.328	0.0155805
605.406	0.0155707
605.484	0.0156997
605.562	0.0156791
605.640	0.0157082
605.718	0.0156670
605.796	0.0156284
605.874	0.0156929
605.953	0.0158085
606.031	0.0157447
606.109	0.0156522
606.187	0.0157293
606.265	0.0158304
606.343	0.0158011
606.421	0.0156960
606.499	0.0156155
606.578	0.0157173
606.656	0.0157321
606.734	0.0157089
606.812	0.0157663
606.890	0.0156392
606.968	0.0155256
607.046	0.0157162
607.124	0.0157972
607.203	0.0157331
607.281	0.0156441
607.359	0.0156899
607.437	0.0156643
607.515	0.0157043
607.593	0.0158816
607.671	0.0156028
607.749	0.0155535
607.828	0.0156977
607.906	0.0155875
607.984	0.0157342
608.062	0.0156192
608.140	0.0155740
608.218	0.0157775
608.296	0.0157826
608.374	0.0157999
608.453	0.0156862
608.531	0.0157821
608.609	0.0156073
608.687	0.0156174
608.765	0.0156460
608.843	0.0156973
608.921	0.0156195
608.999	0.0156934
609.078	0.0157717
609.156	0.0157117
609.234	0.0157132
609.312	0.0156318
609.390	0.0157684
609.468	0.0158138
609.546	0.0156742
609.624	0.0156341
609.703	0.0155385
609.781	0.0157357
609.859	0.0157382
609.937	0.0156589
610.015	0.0156709
610.093	0.0156937
610.171	0.0157255
610.249	0.0157107
610.328	0.0157345
610.406	0.0157270
610.484	0.0157644
610.562	0.0154765
610.640	0.0155212
610.718	0.0156197
610.796	0.0158747
610.874	0.0156866
610.953	0.0156017
611.031	0.0156947
611.109	0.0157874
611.187	0.0157807
611.265	0.0155624
611.343	0.0155779
611.421	0.0156104
611.499	0.0156771
611.578	0.0156731
611.656	0.0157034
611.734	0.0157805
611.812	0.0156285
611.890	0.0157247
611.968	0.0157671
612.046	0.0156004
612.124	0.0156318
612.203	0.0155620
612.281	0.0155932
612.359	0.0157445
612.437	0.0158581
612.515	0.0156725
612.593	0.0157741
612.671	0.0156316
612.749	0.0158302
612.828	0.0157584
612.906	0.0156400
612.984	0.0157007
613.062	0.0156367
613.140	0.0156749
613.218	0.0156653
613.296	0.0157140
613.374	0.0156216
613.453	0.0158101
613.531	0.0157777
613.609	0.0156087
613.687	0.0155379
613.765	0.0157118
613.843	0.0156953
613.921	0.0156291
613.999	0.0158116
614.078	0.0157981
614.156	0.0156937
614.234	0.0156558
614.312	0.0158318
614.390	0.0156908
614.468	0.0157095
614.546	0.0157235
614.624	0.0158088
614.703	0.0157229
614.781	0.0156631
614.859	0.0157478
614.937	0.0158292
615.015	0.0156408
615.093	0.0157600
615.171	0.0157500
615.249	0.0156773
615.328	0.0156747
615.406	0.0156260
615.484	0.0156950
615.562	0.0156990
615.640	0.0157231
615.718	0.0156638
615.796	0.0155643
615.874	0.0157169
615.953	0.0156527
616.031	0.0156886
616.109	0.0157329
616.187	0.0156812
616.265	0.0155357
616.343	0.0157980
616.421	0.0157416
616.499	0.0155883
616.578	0.0157779
616.656	0.0157329
616.734	0.0155993
616.812	0.0157165
616.890	0.0157082
616.968	0.0156686
617.046	0.0155822
617.124	0.0157547
617.203	0.0156754
617.281	0.0157053
617.359	0.0157073
617.437	0.0156750
617.515	0.0156537
617.593	0.0156149
617.671	0.0157588
617.749	0.0156509
617.828	0.0156925
617.906	0.0157008
617.984	0.0155965
618.062	0.0155637
618.140	0.0156444
618.218	0.0157462
618.296	0.0155975
618.374	0.0155369
618.453	0.0155959
618.531	0.0156607
618.609	0.0157261
618.687	0.0156623
618.765	0.0156606
618.843	0.0156934
618.921	0.0156485
618.999	0.0156212
619.078	0.0157463
619.156	0.0156808
619.234	0.0157323
619.312	0.0157009
619.390	0.0155641
619.468	0.0156116
619.546	0.0156493
619.624	0.0156339
619.703	0.0156474
619.781	0.0156646
619.859	0.0158001
619.937	0.0157993
620.015	0.0156904
620.093	0.0157420
620.171	0.0157825
620.249	0.0156104
620.328	0.0156441
620.406	0.0156524
620.484	0.0157724
620.562	0.0157145
620.640	0.0157586
620.718	0.0156815
620.796	0.0158335
620.874	0.0156516
620.953	0.0156962
621.031	0.0157911
621.109	0.0158623
621.187	0.0156575
621.265	0.0157854
621.343	0.0157150
621.421	0.0156818
621.499	0.0156641
621.578	0.0157793
621.656	0.0156686
621.734	0.0156576
621.812	0.0157877
621.890	0.0156722
621.968	0.0157955
622.046	0.0156222
622.124	0.0156580
622.203	0.0156967
622.281	0.0157185
622.359	0.0156765
622.437	0.0156812
622.515	0.0156053
622.593	0.0156400
622.671	0.0156665
622.749	0.0157627
622.828	0.0158280
622.906	0.0156653
622.984	0.0155537
623.062	0.0156667
623.140	0.0156246
623.218	0.0157507
623.296	0.0156300
623.374	0.0157500
623.453	0.0156248
623.531	0.0157695
623.609	0.0156264
623.687	0.0157537
623.765	0.0155961
623.843	0.0157107
623.921	0.0156342
623.999	0.0156232
624.078	0.0156738
624.156	0.0158296
624.234	0.0156791
624.312	0.0156704
624.390	0.0157011
624.468	0.0157240
624.546	0.0156431
624.624	0.0156180
624.703	0.0155922
624.781	0.0157317
624.859	0.0156840
624.937	0.0158199
625.015	0.0157233
625.093	0.0157259
625.171	0.0158260
625.249	0.0157296
625.328	0.0155189
625.406	0.0157071
625.484	0.0155695
625.562	0.0156668
625.640	0.0157253
625.718	0.0158254
625.796	0.0157320
625.874	0.0156100
625.953	0.0156560
626.031	0.0157024
626.109	0.0156947
626.187	0.0156559
626.265	0.0155285
626.343	0.0156833
626.421	0.0155527
626.499	0.0155522
626.578	0.0156174
626.656	0.0156297
626.734	0.0157486
626.812	0.0157303
626.890	0.0155905
626.968	0.0157626
627.046	0.0155630
627.124	0.0155596
627.203	0.0155463
627.281	0.0156411
627.359	0.0156730
627.437	0.0156770
627.515	0.0156595
627.593	0.0157410
627.671	0.0156172
627.749	0.0156760
627.828	0.0157928
627.906	0.0156306
627.984	0.0157908
628.062	0.0156612
628.140	0.0156870
628.218	0.0157147
628.296	0.0156375
628.374	0.0157867
628.453	0.0156112
628.531	0.0156366
628.609	0.0156870
628.687	0.0157179
628.765	0.0156388
628.843	0.0157150
628.921	0.0157488
628.999	0.0156518
629.078	0.0155652
629.156	0.0155299
629.234	0.0154839
629.312	0.0157497
629.390	0.0158514
629.468	0.0159060
629.546	0.0157611
629.624	0.0156713
629.703	0.0156802
629.781	0.0156297
629.859	0.0158079
629.937	0.0157780
630.015	0.0156284
630.093	0.0157623
630.171	0.0157574
630.249	0.0156756
630.328	0.0156526
630.406	0.0156603
630.484	0.0156576
630.562	0.0157181
630.640	0.0156973
630.718	0.0157228
630.796	0.0156924
630.874	0.0156762
630.953	0.0156985
631.031	0.0156344
631.109	0.0156577
631.187	0.0157246
631.265	0.0156463
631.343	0.0157310
631.421	0.0156149
631.499	0.0157095
631.578	0.0156551
631.656	0.0156274
631.734	0.0156013
631.812	0.0157449
631.890	0.0156323
631.968	0.0156554
632.046	0.0156642
632.124	0.0156733
632.203	0.0155886
632.281	0.0156915
632.359	0.0156814
632.437	0.0157334
632.515	0.0156795
632.593	0.0155257
632.671	0.0155935
632.749	0.0155450
632.828	0.0156454
632.906	0.0155930
632.984	0.0156586
633.062	0.0156585
633.140	0.0156947
633.218	0.0154748
633.296	0.0155734
633.374	0.0155717
633.453	0.0157005
633.531	0.0155729
633.609	0.0156636
633.687	0.0155940
633.765	0.0157000
633.843	0.0156480
633.921	0.0157003
633.999	0.0155465
634.078	0.0156747
634.156	0.0159011
634.234	0.0156905
634.312	0.0156263
634.390	0.0157108
634.468	0.0156991
634.546	0.0157784
634.624	0.0157607
634.703	0.0157019
634.781	0.0157083
634.859	0.0158266
634.937	0.0157646
635.015	0.0156839
635.093	0.0157478
635.171	0.0156779
635.249	0.0156554
635.328	0.0157210
635.406	0.0156017
635.484	0.0158185
635.562	0.0156927
635.640	0.0156390
635.718	0.0156194
635.796	0.0157694
635.874	0.0157137
635.953	0.0156841
636.031	0.0156447
636.109	0.0156712
636.187	0.0156704
636.265	0.0156330
636.343	0.0156876
636.421	0.0156725
636.499	0.0157301
636.578	0.0156755
636.656	0.0156499
636.734	0.0156230
636.812	0.0156521
636.890	0.0157672
636.968	0.0156516
637.046	0.0157594
637.124	0.0155830
637.203	0.0156365
637.281	0.0157032
637.359	0.0157344
637.437	0.0156780
637.515	0.0157118
637.593	0.0157626
637.671	0.0156992
637.749	0.0157388
637.828	0.0157074
637.906	0.0157586
637.984	0.0157479
638.062	0.0156185
638.140	0.0158839
638.218	0.0156860
638.296	0.0156886
638.374	0.0157040
638.453	0.0157427
638.531	0.0156051
638.609	0.0156572
638.687	0.0157977
638.765	0.0158516
638.843	0.0155563
638.921	0.0155793
638.999	0.0158045
639.078	0.0156217
639.156	0.0156203
639.234	0.0156531
639.312	0.0156416
639.390	0.0155711
639.468	0.0157343
639.546	0.0157359
639.624	0.0156549
639.703	0.0156657
639.781	0.0156663
639.859	0.0158348
639.937	0.0156752
640.015	0.0156207
640.093	0.0155978
640.171	0.0156446
640.249	0.0157130
640.328	0.0157191
640.406	0.0157009
640.484	0.0156367
640.562	0.0155843
640.640	0.0156400
640.718	0.0157156
640.796	0.0155493
640.874	0.0156435
640.953	0.0156158
641.031	0.0156770
641.109	0.0156725
641.187	0.0156714
641.265	0.0157185
641.343	0.0156382
641.421	0.0156159
641.499	0.0156380
641.578	0.0158021
641.656	0.0157178
641.734	0.0156510
641.812	0.0157138
641.890	0.0157002
641.968	0.0157375
642.046	0.0156774
642.124	0.0156409
642.203	0.0156885
642.281	0.0157876
642.359	0.0157627
642.437	0.0156577
642.515	0.0157313
642.593	0.0158186
642.671	0.0157579
642.749	0.0156681
642.828	0.0154517
642.906	0.0156193
642.984	0.0158228
643.062	0.0156418
643.140	0.0156712
643.218	0.0157020
643.296	0.0156811
643.374	0.0156184
643.453	0.0155434
643.531	0.0157243
643.609	0.0157319
643.687	0.0158035
643.765	0.0156679
643.843	0.0157143
643.921	0.0157805
643.999	0.0156821
644.078	0.0157192
644.156	0.0156891
644.234	0.0156902
644.312	0.0157278
644.390	0.0157130
644.468	0.0156860
644.546	0.0157374
644.624	0.0157605
644.703	0.0156072
644.781	0.0158248
644.859	0.0158116
644.937	0.0156951
645.015	0.0155998
645.093	0.0155462
645.171	0.0157350
645.249	0.0157528
645.328	0.0156416
645.406	0.0157708
645.484	0.0157004
645.562	0.0155964
645.640	0.0156606
645.718	0.0157314
645.796	0.0156646
645.874	0.0156126
645.953	0.0157725
646.031	0.0158341
646.109	0.0158089
646.187	0.0156557
646.265	0.0158504
646.343	0.0156413
646.421	0.0157467
646.499	0.0158234
646.578	0.0157954
646.656	0.0157432
646.734	0.0157159
646.812	0.0156670
646.890	0.0156493
646.968	0.0157389
647.046	0.0156752
647.124	0.0157135
647.203	0.0157542
647.281	0.0157429
647.359	0.0156975
647.437	0.0157573
647.515	0.0157101
647.593	0.0156496
647.671	0.0157411
647.749	0.0156907
647.828	0.0156528
647.906	0.0156563
647.984	0.0157183
648.062	0.0156754
648.140	0.0156951
648.218	0.0156387
648.296	0.0156989
648.374	0.0157648
648.453	0.0156894
648.531	0.0156167
648.609	0.0156636
648.687	0.0157086
648.765	0.0157027
648.843	0.0155891
648.921	0.0157838
648.999	0.0157430
649.078	0.0155893
649.156	0.0156224
649.234	0.0157195
649.312	0.0157253
649.390	0.0156616
649.468	0.0157064
649.546	0.0158315
649.624	0.0158348
649.703	0.0156651
649.781	0.0156822
649.859	0.0157220
649.937	0.0156903
650.015	0.0157099
650.093	0.0157377
650.171	0.0157647
650.249	0.0156958
650.328	0.0156435
650.406	0.0156924
650.484	0.0156969
650.562	0.0157694
650.640	0.0158050
650.718	0.0157757
650.796	0.0156425
650.874	0.0157144
650.953	0.0157955
651.031	0.0156597
651.109	0.0156881
651.187	0.0158485
651.265	0.0156544
651.343	0.0156796
651.421	0.0157066
651.499	0.0157255
651.578	0.0156942
651.656	0.0157679
651.734	0.0156511
651.812	0.0156594
651.890	0.0155604
651.968	0.0155423
652.046	0.0157128
652.124	0.0157280
652.203	0.0157567
652.281	0.0157500
652.359	0.0157539
652.437	0.0157243
652.515	0.0156087
652.593	0.0156536
652.671	0.0158167
652.749	0.0156836
652.828	0.0155526
652.906	0.0157278
652.984	0.0155759
653.062	0.0158040
653.140	0.0156883
653.218	0.0158095
653.296	0.0155801
653.374	0.0156029
653.453	0.0157407
653.531	0.0156512
653.609	0.0158189
653.687	0.0156915
653.765	0.0156777
653.843	0.0156889
653.921	0.0158096
653.999	0.0157422
654.078	0.0157885
654.156	0.0157219
654.234	0.0157015
654.312	0.0157003
654.390	0.0157777
654.468	0.0156285
654.546	0.0156181
654.624	0.0156517
654.703	0.0157874
654.781	0.0156047
654.859	0.0156384
654.937	0.0157579
655.015	0.0157220
655.093	0.0155804
655.171	0.0156475
655.249	0.0157648
655.328	0.0157774
655.406	0.0157327
655.484	0.0157033
655.562	0.0157169
655.640	0.0157082
655.718	0.0157844
655.796	0.0156856
655.874	0.0156699
655.953	0.0157923
656.031	0.0157911
656.109	0.0157127
656.187	0.0157547
656.265	0.0156537
656.343	0.0157012
656.421	0.0157454
656.499	0.0156602
656.578	0.0158160
656.656	0.0156310
656.734	0.0155862
656.812	0.0156968
656.890	0.0157157
656.968	0.0157711
657.046	0.0157738
657.124	0.0155956
657.203	0.0156739
657.281	0.0158028
657.359	0.0156154
657.437	0.0156679
657.515	0.0157745
657.593	0.0157042
657.671	0.0157884
657.749	0.0157270
657.828	0.0157159
657.906	0.0156900
657.984	0.0156595
658.062	0.0155907
658.140	0.0157710
658.218	0.0156238
658.296	0.0155408
658.374	0.0157033
658.453	0.0157311
658.531	0.0156523
658.609	0.0156572
658.687	0.0157041
658.765	0.0156830
658.843	0.0155100
658.921	0.0156940
658.999	0.0157113
659.078	0.0156011
659.156	0.0156172
659.234	0.0157442
659.312	0.0157878
659.390	0.0156083
659.468	0.0157330
659.546	0.0157066
659.624	0.0156664
659.703	0.0156748
659.781	0.0157112
659.859	0.0156792
659.937	0.0156905
660.015	0.0156001
660.093	0.0156192
660.171	0.0156886
660.249	0.0158109
660.328	0.0157011
660.406	0.0156422
660.484	0.0157012
660.562	0.0157370
660.640	0.0156832
660.718	0.0157262
660.796	0.0157590
660.874	0.0156834
660.953	0.0157115
661.031	0.0155593
661.109	0.0156911
661.187	0.0155652
661.265	0.0155753
661.343	0.0157959
661.421	0.0156624
661.499	0.0156060
661.578	0.0155858
661.656	0.0157009
661.734	0.0155898
661.812	0.0156734
661.890	0.0154888
661.968	0.0156998
662.046	0.0157109
662.124	0.0156953
662.203	0.0155111
662.281	0.0156454
662.359	0.0157742
662.437	0.0156963
662.515	0.0157051
662.593	0.0156884
662.671	0.0156470
662.749	0.0156437
662.828	0.0157455
662.906	0.0157847
662.984	0.0156261
663.062	0.0156310
663.140	0.0156879
663.218	0.0156252
663.296	0.0156570
663.374	0.0156026
663.453	0.0155972
663.531	0.0157405
663.609	0.0156835
663.687	0.0155961
663.765	0.0155944
663.843	0.0157635
663.921	0.0156735
663.999	0.0156766
664.078	0.0157576
664.156	0.0157295
664.234	0.0158611
664.312	0.0155212
664.390	0.0156199
664.468	0.0156528
664.546	0.0155961
664.624	0.0158015
664.703	0.0157789
664.781	0.0156152
664.859	0.0155759
664.937	0.0157217
665.015	0.0157269
665.093	0.0158134
665.171	0.0157223
665.249	0.0157479
665.328	0.0156020
665.406	0.0156446
665.484	0.0156647
665.562	0.0156566
665.640	0.0157602
665.718	0.0156354
665.796	0.0156747
665.874	0.0156802
665.953	0.0156726
666.031	0.0157356
666.109	0.0155830
666.187	0.0155632
666.265	0.0156291
666.343	0.0157024
666.421	0.0158251
666.499	0.0157068
666.578	0.0159260
666.656	0.0156989
666.734	0.0156470
666.812	0.0156412
666.890	0.0157406
666.968	0.0156979
667.046	0.0155969
667.124	0.0157425
667.203	0.0156947
667.281	0.0156859
667.359	0.0156348
667.437	0.0157491
667.515	0.0158595
667.593	0.0157455
667.671	0.0157191
667.749	0.0157706
667.828	0.0158103
667.906	0.0156744
667.984	0.0156966
668.062	0.0157302
668.140	0.0157542
668.218	0.0158221
668.296	0.0157936
668.374	0.0157253
668.453	0.0157635
668.531	0.0157941
668.609	0.0158384
668.687	0.0157965
668.765	0.0157143
668.843	0.0157362
668.921	0.0156553
668.999	0.0157520
669.078	0.0157887
669.156	0.0156862
669.234	0.0156597
669.312	0.0156381
669.390	0.0156877
669.468	0.0158004
669.546	0.0156771
669.624	0.0155492
669.703	0.0156725
669.781	0.0156078
669.859	0.0157224
669.937	0.0156810
670.015	0.0157628
670.093	0.0157731
670.171	0.0156035
670.249	0.0156435
670.328	0.0156667
670.406	0.0156004
670.484	0.0157796
670.562	0.0156696
670.640	0.0157198
670.718	0.0156756
670.796	0.0157228
670.874	0.0156604
670.953	0.0155789
671.031	0.0156961
671.109	0.0156234
671.187	0.0156711
671.265	0.0156877
671.343	0.0157639
671.421	0.0156924
671.499	0.0156485
671.578	0.0157497
671.656	0.0156786
671.734	0.0155945
671.812	0.0157343
671.890	0.0157662
671.968	0.0156982
672.046	0.0157315
672.124	0.0158029
672.203	0.0156351
672.281	0.0157359
672.359	0.0157013
672.437	0.0158533
672.515	0.0156685
672.593	0.0156319
672.671	0.0157237
672.749	0.0155815
672.828	0.0157501
672.906	0.0157589
672.984	0.0157718
673.062	0.0156695
673.140	0.0154570
673.218	0.0156345
673.296	0.0156539
673.374	0.0157574
673.453	0.0155814
673.531	0.0157094
673.609	0.0157255
673.687	0.0155194
673.765	0.0157322
673.843	0.0157416
673.921	0.0157210
673.999	0.0156813
674.078	0.0157140
674.156	0.0157602
674.234	0.0156442
674.312	0.0157065
674.390	0.0158302
674.468	0.0157915
674.546	0.0156933
674.624	0.0157371
674.703	0.0156477
674.781	0.0156664
674.859	0.0155647
674.937	0.0156363
675.015	0.0158144
675.093	0.0156377
675.171	0.0156331
675.249	0.0156412
675.328	0.0157092
675.406	0.0156615
675.484	0.0157610
675.562	0.0156116
675.640	0.0157399
675.718	0.0157208
675.796	0.0157368
675.874	0.0157956
675.953	0.0157465
676.031	0.0156483
676.109	0.0155470
676.187	0.0156097
676.265	0.0157032
676.343	0.0157269
676.421	0.0156194
676.499	0.0157175
676.578	0.0158150
676.656	0.0157011
676.734	0.0156861
676.812	0.0156468
676.890	0.0157192
676.968	0.0157140
677.046	0.0156716
677.124	0.0156487
677.203	0.0157334
677.281	0.0157101
677.359	0.0156623
677.437	0.0158099
677.515	0.0156940
677.593	0.0156215
677.671	0.0157481
677.749	0.0157761
677.828	0.0156458
677.906	0.0156527
677.984	0.0158287
678.062	0.0157006
678.140	0.0156843
678.218	0.0157430
678.296	0.0157029
678.374	0.0157228
678.453	0.0156999
678.531	0.0156116
678.609	0.0157771
678.687	0.0157983
678.765	0.0156486
678.843	0.0156966
678.921	0.0158079
678.999	0.0156438
679.078	0.0157673
679.156	0.0157101
679.234	0.0155898
679.312	0.0157502
679.390	0.0155990
679.468	0.0157007
679.546	0.0157496
679.624	0.0156942
679.703	0.0155901
679.781	0.0158199
679.859	0.0157403
679.937	0.0157658
680.015	0.0156626
680.093	0.0158348
680.171	0.0155595
680.249	0.0155957
680.328	0.0157558
680.406	0.0156094
680.484	0.0157171
680.562	0.0157217
680.640	0.0157249
680.718	0.0156895
680.796	0.0156593
680.874	0.0156045
680.953	0.0158186
681.031	0.0156091
681.109	0.0156631
681.187	0.0156937
681.265	0.0157462
681.343	0.0156524
681.421	0.0157633
681.499	0.0158025
681.578	0.0156295
681.656	0.0156969
681.734	0.0156976
681.812	0.0155704
681.890	0.0157793
681.968	0.0156989
682.046	0.0156499
682.124	0.0157433
682.203	0.0157837
682.281	0.0156876
682.359	0.0157973
682.437	0.0156621
682.515	0.0156764
682.593	0.0158192
682.671	0.0156385
682.749	0.0156359
682.828	0.0158313
682.906	0.0157125
682.984	0.0157201
683.062	0.0156898
683.140	0.0157650
683.218	0.0157808
683.296	0.0156312
683.374	0.0156134
683.453	0.0157503
683.531	0.0156211
683.609	0.0157845
683.687	0.0157745
683.765	0.0156696
683.843	0.0157204
683.921	0.0157358
683.999	0.0157103
684.078	0.0156169
684.156	0.0156432
684.234	0.0156808
684.312	0.0157086
684.390	0.0156994
684.468	0.0157291
684.546	0.0156617
684.624	0.0156613
684.703	0.0157690
684.781	0.0158171
684.859	0.0157201
684.937	0.0157220
685.015	0.0157259
685.093	0.0156493
685.171	0.0157243
685.249	0.0156530
685.328	0.0156014
685.406	0.0157864
685.484	0.0156809
685.562	0.0157253
685.640	0.0157455
685.718	0.0156773
685.796	0.0155968
685.874	0.0156430
685.953	0.0156844
686.031	0.0157126
686.109	0.0157719
686.187	0.0157732
686.265	0.0156682
686.343	0.0157493
686.421	0.0157099
686.499	0.0157308
686.578	0.0156292
686.656	0.0156591
686.734	0.0158340
686.812	0.0157068
686.890	0.0156035
686.968	0.0157262
687.046	0.0157083
687.124	0.0156471
687.203	0.0155963
687.281	0.0156597
687.359	0.0156285
687.437	0.0157451
687.515	0.0158385
687.593	0.0157007
687.671	0.0156232
687.749	0.0157072
687.828	0.0156290
687.906	0.0157776
687.984	0.0157883
688.062	0.0155493
688.140	0.0156028
688.218	0.0157629
688.296	0.0156332
688.374	0.0156254
688.453	0.0157349
688.531	0.0157230
688.609	0.0157352
688.687	0.0157226
688.765	0.0157600
688.843	0.0157442
688.921	0.0156950
688.999	0.0156451
689.078	0.0157383
689.156	0.0157560
689.234	0.0157343
689.312	0.0157162
689.390	0.0156980
689.468	0.0157741
689.546	0.0156001
689.624	0.0156342
689.703	0.0155672
689.781	0.0156979
689.859	0.0158134
689.937	0.0158093
690.015	0.0156300
690.093	0.0156810
690.171	0.0157142
690.249	0.0156666
690.328	0.0157884
690.406	0.0156097
690.484	0.0157925
690.562	0.0158554
690.640	0.0157690
690.718	0.0156708
690.796	0.0156648
690.874	0.0157903
690.953	0.0155772
691.031	0.0156216
691.109	0.0157325
691.187	0.0156080
691.265	0.0157315
691.343	0.0156954
691.421	0.0156755
691.499	0.0157083
691.578	0.0155495
691.656	0.0157870
691.734	0.0157648
691.812	0.0157173
691.890	0.0156171
691.968	0.0157066
692.046	0.0157934
692.124	0.0157748
692.203	0.0157294
692.281	0.0157567
692.359	0.0156686
692.437	0.0157593
692.515	0.0157834
692.593	0.0157600
692.671	0.0156598
692.749	0.0157667
692.828	0.0156711
692.906	0.0155132
692.984	0.0156542
693.062	0.0158109
693.140	0.0157604
693.218	0.0157326
693.296	0.0156593
693.374	0.0158103
693.453	0.0156992
693.531	0.0155720
693.609	0.0156236
693.687	0.0157156
693.765	0.0156827
693.843	0.0157391
693.921	0.0156626
693.999	0.0157137
694.078	0.0157040
694.156	0.0157378
694.234	0.0156649
694.312	0.0156861
694.390	0.0157113
694.468	0.0156152
694.546	0.0157154
694.624	0.0156670
694.703	0.0157120
694.781	0.0157677
694.859	0.0156979
694.937	0.0156925
695.015	0.0156362
695.093	0.0156502
695.171	0.0155419
695.249	0.0156838
695.328	0.0157803
695.406	0.0157840
695.484	0.0157108
695.562	0.0156413
695.640	0.0157776
695.718	0.0157786
695.796	0.0156789
695.874	0.0157071
695.953	0.0157550
696.031	0.0156078
696.109	0.0156628
696.187	0.0157670
696.265	0.0157603
696.343	0.0157748
696.421	0.0156553
696.499	0.0156239
696.578	0.0157060
696.656	0.0157584
696.734	0.0156758
696.812	0.0157436
696.890	0.0157330
696.968	0.0157114
697.046	0.0158212
697.124	0.0157000
697.203	0.0157143
697.281	0.0156654
697.359	0.0156293
697.437	0.0156423
697.515	0.0156902
697.593	0.0157539
697.671	0.0156640
697.749	0.0157718
697.828	0.0157210
697.906	0.0157446
697.984	0.0156061
698.062	0.0156981
698.140	0.0158360
698.218	0.0156757
698.296	0.0156486
698.374	0.0155976
698.453	0.0157939
698.531	0.0156823
698.609	0.0157584
698.687	0.0157894
698.765	0.0158116
698.843	0.0156110
698.921	0.0156782
698.999	0.0157074
699.078	0.0157767
699.156	0.0157577
699.234	0.0156686
699.312	0.0157315
699.390	0.0157448
699.468	0.0156940
699.546	0.0159547
699.624	0.0158249
699.703	0.0157108
699.781	0.0157580
699.859	0.0158086
699.937	0.0157001
700.015	0.0156155
700.093	0.0156672
700.171	0.0157751
700.249	0.0156641
700.328	0.0157780
700.406	0.0157361
700.484	0.0155014
700.562	0.0155249
700.640	0.0157794
700.718	0.0157456
700.796	0.0156407
700.874	0.0156694
700.953	0.0156404
701.031	0.0156620
701.109	0.0157831
701.187	0.0157790
701.265	0.0157794
701.343	0.0156377
701.421	0.0157677
701.499	0.0157451
701.578	0.0155676
701.656	0.0155811
701.734	0.0157149
701.812	0.0156044
701.890	0.0157176
701.968	0.0157601
702.046	0.0157635
702.124	0.0157138
702.203	0.0158437
702.281	0.0155333
702.359	0.0156951
702.437	0.0158296
702.515	0.0157137
702.593	0.0157211
702.671	0.0156770
702.749	0.0155685
702.828	0.0155500
702.906	0.0157195
702.984	0.0158405
703.062	0.0156869
703.140	0.0155665
703.218	0.0156888
703.296	0.0157895
703.374	0.0156558
703.453	0.0157304
703.531	0.0157121
703.609	0.0157243
703.687	0.0156059
703.765	0.0157531
703.843	0.0157024
703.921	0.0157368
703.999	0.0158031
704.078	0.0157796
704.156	0.0157091
704.234	0.0158128
704.312	0.0157471
704.390	0.0155936
704.468	0.0156422
704.546	0.0158403
704.624	0.0158008
704.703	0.0155799
704.781	0.0156272
704.859	0.0157384
704.937	0.0157588
705.015	0.0156444
705.093	0.0157900
705.171	0.0157847
705.249	0.0156213
705.328	0.0156815
705.406	0.0157353
705.484	0.0157385
705.562	0.0156291
705.640	0.0157946
705.718	0.0156712
705.796	0.0156664
705.874	0.0156726
705.953	0.0155434
706.031	0.0157534
706.109	0.0157982
706.187	0.0156919
706.265	0.0158683
706.343	0.0155877
706.421	0.0156287
706.499	0.0156186
706.578	0.0155882
706.656	0.0156332
706.734	0.0155820
706.812	0.0156892
706.890	0.0156824
706.968	0.0156113
707.046	0.0157843
707.124	0.0158347
707.203	0.0157517
707.281	0.0157060
707.359	0.0156895
707.437	0.0156475
707.515	0.0156644
707.593	0.0157013
707.671	0.0158482
707.749	0.0157896
707.828	0.0157106
707.906	0.0155579
707.984	0.0156924
708.062	0.0157095
708.140	0.0157815
708.218	0.0158501
708.296	0.0156408
708.374	0.0156190
708.453	0.0157589
708.531	0.0157121
708.609	0.0157428
708.687	0.0157446
708.765	0.0157784
708.843	0.0156378
708.921	0.0155747
708.999	0.0156850
709.078	0.0156639
709.156	0.0157403
709.234	0.0157330
709.312	0.0156464
709.390	0.0156052
709.468	0.0155318
709.546	0.0157380
709.624	0.0157885
709.703	0.0155775
709.781	0.0157098
709.859	0.0158177
709.937	0.0157430
710.015	0.0156289
710.093	0.0157422
710.171	0.0156798
710.249	0.0157716
710.328	0.0157141
710.406	0.0157203
710.484	0.0157044
710.562	0.0156921
710.640	0.0157522
710.718	0.0158327
710.796	0.0156936
710.874	0.0156450
710.953	0.0155759
711.031	0.0157287
711.109	0.0155869
711.187	0.0157104
711.265	0.0157729
711.343	0.0156336
711.421	0.0157780
711.499	0.0155331
711.578	0.0157246
711.656	0.0157656
711.734	0.0157449
711.812	0.0158376
711.890	0.0156580
711.968	0.0156231
712.046	0.0157845
712.124	0.0157318
712.203	0.0156738
712.281	0.0156209
712.359	0.0156116
712.437	0.0157340
712.515	0.0155247
712.593	0.0156247
712.671	0.0157769
712.749	0.0157200
712.828	0.0156905
712.906	0.0155914
712.984	0.0156785
713.062	0.0157768
713.140	0.0157691
713.218	0.0156521
713.296	0.0154953
713.374	0.0155659
713.453	0.0156314
713.531	0.0158110
713.609	0.0157352
713.687	0.0157344
713.765	0.0156582
713.843	0.0154313
713.921	0.0156618
713.999	0.0156725
714.078	0.0157314
714.156	0.0155293
714.234	0.0157321
714.312	0.0155798
714.390	0.0156835
714.468	0.0157449
714.546	0.0156728
714.624	0.0156966
714.703	0.0156303
714.781	0.0154919
714.859	0.0156358
714.937	0.0156362
715.015	0.0155318
715.093	0.0158054
715.171	0.0158517
715.249	0.0155377
715.328	0.0157343
715.406	0.0157664
715.484	0.0155292
715.562	0.0156060
715.640	0.0155272
715.718	0.0155766
715.796	0.0158109
715.874	0.0156444
715.953	0.0156105
716.031	0.0155309
716.109	0.0156157
716.187	0.0159082
716.265	0.0156815
716.343	0.0154884
716.421	0.0157413
716.499	0.0157544
716.578	0.0156929
716.656	0.0156244
716.734	0.0157009
716.812	0.0155824
716.890	0.0157664
716.968	0.0155682
717.046	0.0156181
717.124	0.0155745
717.203	0.0155641
717.281	0.0156371
717.359	0.0156551
717.437	0.0157505
717.515	0.0156214
717.593	0.0156170
717.671	0.0156409
717.749	0.0157327
717.828	0.0158430
717.906	0.0157259
717.984	0.0156372
718.062	0.0157421
718.140	0.0157146
718.218	0.0156406
718.296	0.0156734
718.374	0.0155798
718.453	0.0157127
718.531	0.0155748
718.609	0.0157285
718.687	0.0157500
718.765	0.0156180
718.843	0.0157451
718.921	0.0156418
718.999	0.0156528
719.078	0.0156939
719.156	0.0154970
719.234	0.0157105
719.312	0.0158726
719.390	0.0156518
719.468	0.0156127
719.546	0.0158154
719.624	0.0157575
719.703	0.0158026
719.781	0.0156445
719.859	0.0155952
719.937	0.0157786
720.015	0.0156541
720.093	0.0156879
720.171	0.0156060
720.249	0.0156218
720.328	0.0155939
720.406	0.0157112
720.484	0.0156490
720.562	0.0158096
720.640	0.0157343
720.718	0.0157635
720.796	0.0158035
720.874	0.0157169
720.953	0.0158169
721.031	0.0157430
721.109	0.0157253
721.187	0.0157365
721.265	0.0157648
721.343	0.0157066
721.421	0.0155703
721.499	0.0157049
721.578	0.0157812
721.656	0.0157541
721.734	0.0157944
721.812	0.0156525
721.890	0.0159187
721.968	0.0157958
722.046	0.0157341
722.124	0.0157254
722.203	0.0157787
722.281	0.0159071
722.359	0.0156614
722.437	0.0156956
722.515	0.0157102
722.593	0.0156541
722.671	0.0158456
722.749	0.0158285
722.828	0.0157156
722.906	0.0157555
722.984	0.0158261
723.062	0.0157163
723.140	0.0156583
723.218	0.0157968
723.296	0.0158324
723.374	0.0156760
723.453	0.0156760
723.531	0.0158548
723.609	0.0156923
723.687	0.0158169
723.765	0.0158006
723.843	0.0157583
723.921	0.0157297
723.999	0.0158558
724.078	0.0157774
724.156	0.0157702
724.234	0.0157079
724.312	0.0157578
724.390	0.0157484
724.468	0.0157751
724.546	0.0158259
724.624	0.0158266
724.703	0.0156483
724.781	0.0157777
724.859	0.0156633
724.937	0.0157227
725.015	0.0157546
725.093	0.0159752
725.171	0.0157020
725.249	0.0155325
725.328	0.0156989
725.406	0.0157259
725.484	0.0157272
725.562	0.0156016
725.640	0.0156866
725.718	0.0157515
725.796	0.0157209
725.874	0.0157233
725.953	0.0157326
726.031	0.0157660
726.109	0.0155392
726.187	0.0155711
726.265	0.0156721
726.343	0.0157514
726.421	0.0157149
726.499	0.0157733
726.578	0.0156091
726.656	0.0155301
726.734	0.0157444
726.812	0.0157815
726.890	0.0156259
726.968	0.0156287
727.046	0.0156110
727.124	0.0157260
727.203	0.0157365
727.281	0.0155600
727.359	0.0156961
727.437	0.0156336
727.515	0.0157418
727.593	0.0156046
727.671	0.0156123
727.749	0.0156928
727.828	0.0156755
727.906	0.0157491
727.984	0.0157088
728.062	0.0156628
728.140	0.0156389
728.218	0.0155553
728.296	0.0155965
728.374	0.0157424
728.453	0.0155540
728.531	0.0157285
728.609	0.0156343
728.687	0.0155137
728.765	0.0155159
728.843	0.0156273
728.921	0.0155836
728.999	0.0156523
729.078	0.0156382
729.156	0.0156242
729.234	0.0155739
729.312	0.0155509
729.390	0.0155728
729.468	0.0156263
729.546	0.0154788
729.624	0.0157433
729.703	0.0157130
729.781	0.0155786
729.859	0.0156609
729.937	0.0155693
730.015	0.0156389
730.093	0.0155899
730.171	0.0156654
730.249	0.0156790
730.328	0.0157395
730.406	0.0156731
730.484	0.0157617
730.562	0.0156334
730.640	0.0156139
730.718	0.0156488
730.796	0.0157906
730.874	0.0156560
730.953	0.0155839
731.031	0.0155876
731.109	0.0157737
731.187	0.0157838
731.265	0.0155884
731.343	0.0156356
731.421	0.0156001
731.499	0.0156841
731.578	0.0157298
731.656	0.0156489
731.734	0.0157872
731.812	0.0156990
731.890	0.0157246
731.968	0.0157491
732.046	0.0157430
732.124	0.0157687
732.203	0.0157515
732.281	0.0156020
732.359	0.0156683
732.437	0.0158102
732.515	0.0157015
732.593	0.0156403
732.671	0.0158191
732.749	0.0156911
732.828	0.0156882
732.906	0.0158151
732.984	0.0156531
733.062	0.0156947
733.140	0.0156298
733.218	0.0156813
733.296	0.0156834
733.374	0.0157079
733.453	0.0157800
733.531	0.0157269
733.609	0.0157810
733.687	0.0154668
733.765	0.0155862
733.843	0.0157086
733.921	0.0156751
733.999	0.0156607
734.078	0.0156176
734.156	0.0157124
734.234	0.0158389
734.312	0.0158349
734.390	0.0158256
734.468	0.0159838
734.546	0.0159589
734.624	0.0157756
734.703	0.0158311
734.781	0.0156068
734.859	0.0156930
734.937	0.0156773
735.015	0.0154986
735.093	0.0154550
735.171	0.0154462
735.249	0.0155358
735.328	0.0154710
735.406	0.0155926
735.484	0.0158928
735.562	0.0158121
735.640	0.0159798
735.718	0.0160361
735.796	0.0157508
735.874	0.0158265
735.953	0.0157384
736.031	0.0155729
736.109	0.0156854
736.187	0.0154972
736.265	0.0155841
736.343	0.0155515
736.421	0.0155429
736.499	0.0157172
736.578	0.0157153
736.656	0.0160603
736.734	0.0158620
736.812	0.0156796
736.890	0.0157110
736.968	0.0157281
737.046	0.0155860
737.124	0.0156811
737.203	0.0154897
737.281	0.0155257
737.359	0.0153783
737.437	0.0154999
737.515	0.0154627
737.593	0.0154763
737.671	0.0155354
737.749	0.0155369
737.828	0.0153345
737.906	0.0154813
737.984	0.0155382
738.062	0.0154764
738.140	0.0154957
738.218	0.0156193
738.296	0.0156864
738.374	0.0156899
738.453	0.0158099
738.531	0.0159464
738.609	0.0159816
738.687	0.0159516
738.765	0.0159599
738.843	0.0160954
738.921	0.0161757
738.999	0.0161456
739.078	0.0161330
739.156	0.0159834
739.234	0.0161528
739.312	0.0160226
739.390	0.0159357
739.468	0.0158266
739.546	0.0157806
739.624	0.0157258
739.703	0.0157246
739.781	0.0155663
739.859	0.0153142
739.937	0.0152878
740.015	0.0151641
740.093	0.0152839
740.171	0.0151524
740.249	0.0152615
740.328	0.0151749
740.406	0.0152352
740.484	0.0150582
740.562	0.0150632
740.640	0.0149798
740.718	0.0149838
740.796	0.0150877
740.874	0.0150933
740.953	0.0150782
741.031	0.0150607
741.109	0.0153091
741.187	0.0153736
741.265	0.0157876
741.343	0.0158115
741.421	0.0158328
741.499	0.0159991
741.578	0.0162794
741.656	0.0163811
741.734	0.0163721
741.812	0.0163409
741.890	0.0165716
741.968	0.0165072
742.046	0.0164786
742.124	0.0164952
742.203	0.0164109
742.281	0.0164172
742.359	0.0164464
742.437	0.0162923
742.515	0.0160847
742.593	0.0159510
742.671	0.0158641
742.749	0.0156572
742.828	0.0154790
742.906	0.0153191
742.984	0.0152168
743.062	0.0153503
743.140	0.0154460
743.218	0.0155272
743.296	0.0154868
743.374	0.0155257
743.453	0.0155352
743.531	0.0154307
743.609	0.0156769
743.687	0.0156293
743.765	0.0155391
743.843	0.0154340
743.921	0.0155698
743.999	0.0156615
744.078	0.0155991
744.156	0.0156370
744.234	0.0157204
744.312	0.0156010
744.390	0.0157259
744.468	0.0156161
744.546	0.0153909
744.624	0.0153739
744.703	0.0152238
744.781	0.0150148
744.859	0.0150654
744.937	0.0149328
745.015	0.0148070
745.093	0.0146525
745.171	0.0148393
745.249	0.0144664
745.328	0.0144763
745.406	0.0146572
745.484	0.0147179
745.562	0.0147472
745.640	0.0149785
745.718	0.0152720
745.796	0.0153452
745.874	0.0155743
745.953	0.0157919
746.031	0.0160766
746.109	0.0164111
746.187	0.0166475
746.265	0.0169189
746.343	0.0171239
746.421	0.0170525
746.499	0.0171369
746.578	0.0173244
746.656	0.0173470
746.734	0.0172470
746.812	0.0171754
746.890	0.0170641
746.968	0.0169488
747.046	0.0167651
747.124	0.0167066
747.203	0.0164398
747.281	0.0162082
747.359	0.0159912
747.437	0.0158289
747.515	0.0155428
747.593	0.0152793
747.671	0.0151536
747.749	0.0150331
747.828	0.0148708
747.906	0.0145510
747.984	0.0146094
748.062	0.0146413
748.140	0.0147685
748.218	0.0147322
748.296	0.0146803
748.374	0.0148177
748.453	0.0150627
748.531	0.0150391
748.609	0.0151605
748.687	0.0153387
748.765	0.0154988
748.843	0.0154280
748.921	0.0156288
748.999	0.0157201
749.078	0.0155376
749.156	0.0155708
749.234	0.0156232
749.312	0.0156499
749.390	0.0153507
749.468	0.0150898
749.546	0.0149426
749.624	0.0150285
749.703	0.0148907
749.781	0.0147590
749.859	0.0148425
749.937	0.0150586
750.015	0.0151888
750.093	0.0151917
750.171	0.0154223
750.249	0.0157265
750.328	0.0159451
750.406	0.0163480
750.484	0.0164386
750.562	0.0169308
750.640	0.0171016
750.718	0.0173097
750.796	0.0174025
750.874	0.0174428
750.953	0.0176317
751.031	0.0173727
751.109	0.0172234
751.187	0.0170648
751.265	0.0170005
751.343	0.0165578
751.421	0.0164365
751.499	0.0161347
751.578	0.0157912
751.656	0.0154606
751.734	0.0153365
751.812	0.0151318
751.890	0.0150187
751.968	0.0148884
752.046	0.0148063
752.124	0.0149104
752.203	0.0150158
752.281	0.0148129
752.359	0.0150180
752.437	0.0150872
752.515	0.0151959
752.593	0.0153556
752.671	0.0154944
752.749	0.0156316
752.828	0.0156201
752.906	0.0156480
752.984	0.0158872
753.062	0.0159380
753.140	0.0158348
753.218	0.0158012
753.296	0.0158557
753.374	0.0156834
753.453	0.0156551
753.531	0.0156538
753.609	0.0154886
753.687	0.0154916
753.765	0.0154896
753.843	0.0153778
753.921	0.0152822
753.999	0.0153322
754.078	0.0151167
754.156	0.0151251
754.234	0.0151772
754.312	0.0152027
754.390	0.0151353
754.468	0.0150784
754.546	0.0151968
754.624	0.0151836
754.703	0.0152953
754.781	0.0153005
754.859	0.0154643
754.937	0.0153857
755.015	0.0154327
755.093	0.0155884
755.171	0.0155269
755.249	0.0158115
755.328	0.0158244
755.406	0.0160326
755.484	0.0162497
755.562	0.0162123
755.640	0.0162801
755.718	0.0163748
755.796	0.0164760
755.874	0.0164458
755.953	0.0164502
756.031	0.0163600
756.109	0.0163255
756.187	0.0163037
756.265	0.0162163
756.343	0.0161260
756.421	0.0160664
756.499	0.0159402
756.578	0.0160353
756.656	0.0157724
756.734	0.0157056
756.812	0.0156148
756.890	0.0155965
756.968	0.0154719
757.046	0.0154627
757.124	0.0154138
757.203	0.0154238
757.281	0.0153780
757.359	0.0152631
757.437	0.0155234
757.515	0.0155176
757.593	0.0153960
757.671	0.0153463
757.749	0.0155051
757.828	0.0153566
757.906	0.0154046
757.984	0.0154292
758.062	0.0152015
758.140	0.0152802
758.218	0.0152939
758.296	0.0151520
758.374	0.0151334
758.453	0.0150045
758.531	0.0149022
758.609	0.0149504
758.687	0.0150298
758.765	0.0149442
758.843	0.0149485
758.921	0.0150047
758.999	0.0151609
759.078	0.0153170
759.156	0.0152627
759.234	0.0152200
759.312	0.0156009
759.390	0.0156749
759.468	0.0157257
759.546	0.0157713
759.624	0.0158497
759.703	0.0159178
759.781	0.0159249
759.859	0.0158596
759.937	0.0160923
760.015	0.0161823
760.093	0.0161909
760.171	0.0163828
760.249	0.0162040
760.328	0.0163943
760.406	0.0164340
760.484	0.0163522
760.562	0.0164763
760.640	0.0165359
760.718	0.0164889
760.796	0.0165947
760.874	0.0165326
760.953	0.0164745
761.031	0.0163869
761.109	0.0163992
761.187	0.0163363
761.265	0.0161508
761.343	0.0160930
761.421	0.0159393
761.499	0.0157713
761.578	0.0156664
761.656	0.0156297
761.734	0.0153867
761.812	0.0151925
761.890	0.0151132
761.968	0.0151219
762.046	0.0150201
762.124	0.0149772
762.203	0.0149760
762.281	0.0149045
762.359	0.0149881
762.437	0.0148540
762.515	0.0150684
762.593	0.0150632
762.671	0.0150690
762.749	0.0152971
762.828	0.0153034
762.906	0.0154114
762.984	0.0155006
763.062	0.0155701
763.140	0.0156055
763.218	0.0156265
763.296	0.0157913
763.374	0.0157030
763.453	0.0159033
763.531	0.0159856
763.609	0.0158876
763.687	0.0158894
763.765	0.0157944
763.843	0.0158806
763.921	0.0159405
763.999	0.0158102
764.078	0.0157639
764.156	0.0158542
764.234	0.0158871
764.312	0.0157713
764.390	0.0156390
764.468	0.0158188
764.546	0.0157839
764.624	0.0157507
764.703	0.0156887
764.781	0.0155427
764.859	0.0154975
764.937	0.0155096
765.015	0.0155293
765.093	0.0152981
765.171	0.0153426
765.249	0.0154050
765.328	0.0153631
765.406	0.0155329
765.484	0.0157388
765.562	0.0158318
765.640	0.0159141
765.718	0.0160327
765.796	0.0161377
765.874	0.0161719
765.953	0.0161092
766.031	0.0161726
766.109	0.0162325
766.187	0.0160788
766.265	0.0160383
766.343	0.0159557
766.421	0.0158753
766.499	0.0156548
766.578	0.0155503
766.656	0.0155383
766.734	0.0153601
766.812	0.0153828
766.890	0.0152805
766.968	0.0152245
767.046	0.0152396
767.124	0.0152941
767.203	0.0153574
767.281	0.0152212
767.359	0.0151637
767.437	0.0151895
767.515	0.0153527
767.593	0.0155035
767.671	0.0154134
767.749	0.0155138
767.828	0.0155835
767.906	0.0155856
767.984	0.0157903
768.062	0.0157027
768.140	0.0156234
768.218	0.0156782
768.296	0.0156013
768.374	0.0155077
768.453	0.0157279
768.531	0.0158571
768.609	0.0157101
768.687	0.0156156
768.765	0.0157638
768.843	0.0156943
768.921	0.0156559
768.999	0.0157287
769.078	0.0158282
769.156	0.0157001
769.234	0.0157475
769.312	0.0158666
769.390	0.0157977
769.468	0.0158343
769.546	0.0158926
769.624	0.0157069
769.703	0.0156419
769.781	0.0158033
769.859	0.0156602
769.937	0.0157345
770.015	0.0155585
770.093	0.0154974
770.171	0.0154655
770.249	0.0155575
770.328	0.0155885
770.406	0.0156359
770.484	0.0155997
770.562	0.0156248
770.640	0.0158056
770.718	0.0157923
770.796	0.0158806
770.874	0.0159537
770.953	0.0161828
771.031	0.0161651
771.109	0.0160719
771.187	0.0159521
771.265	0.0159834
771.343	0.0158799
771.421	0.0157504
771.499	0.0158116
771.578	0.0156974
771.656	0.0154839
771.734	0.0156113
771.812	0.0156324
771.890	0.0153792
771.968	0.0154147
772.046	0.0152663
772.124	0.0152644
772.203	0.0154668
772.281	0.0154531
772.359	0.0153456
772.437	0.0154237
772.515	0.0155043
772.593	0.0154622
772.671	0.0154581
772.749	0.0156438
772.828	0.0157278
772.906	0.0157586
772.984	0.0158091
773.062	0.0157773
773.140	0.0158640
773.218	0.0157496
773.296	0.0157227
773.374	0.0157891
773.453	0.0156457
773.531	0.0158419
773.609	0.0157087
773.687	0.0156274
773.765	0.0157851
773.843	0.0158127
773.921	0.0157870
773.999	0.0156943
774.078	0.0156338
774.156	0.0155630
774.234	0.0156432
774.312	0.0156328
774.390	0.0156310
774.468	0.0156158
774.546	0.0155852
774.624	0.0155666
774.703	0.0154964
774.781	0.0155235
774.859	0.0155878
774.937	0.0153983
775.015	0.0154958
775.093	0.0155355
775.171	0.0155025
775.249	0.0153831
775.328	0.0155242
775.406	0.0154903
775.484	0.0154391
775.562	0.0153790
775.640	0.0155334
775.718	0.0157592
775.796	0.0156489
775.874	0.0156473
775.953	0.0158296
776.031	0.0158110
776.109	0.0160204
776.187	0.0159623
776.265	0.0159751
776.343	0.0159705
776.421	0.0160402
776.499	0.0160237
776.578	0.0161361
776.656	0.0160555
776.734	0.0161093
776.812	0.0159663
776.890	0.0160265
776.968	0.0160709
777.046	0.0159584
777.124	0.0159538
777.203	0.0159803
777.281	0.0158497
777.359	0.0158043
777.437	0.0156402
777.515	0.0154980
777.593	0.0155780
777.671	0.0156942
777.749	0.0156019
777.828	0.0153026
777.906	0.0153734
777.984	0.0156236
778.062	0.0152985
778.140	0.0151878
778.218	0.0151413
778.296	0.0151847
778.374	0.0154368
778.453	0.0153370
778.531	0.0151758
778.609	0.0154156
778.687	0.0153726
778.765	0.0153332
778.843	0.0154802
778.921	0.0154678
778.999	0.0155318
779.078	0.0155125
779.156	0.0156908
779.234	0.0156165
779.312	0.0155172
779.390	0.0155222
779.468	0.0156506
779.546	0.0158684
779.624	0.0157060
779.703	0.0157778
779.781	0.0156789
779.859	0.0159024
779.937	0.0159273
780.015	0.0158223
780.093	0.0158922
780.171	0.0159477
780.249	0.0160127
780.328	0.0159496
780.406	0.0160076
780.484	0.0159796
780.562	0.0159747
780.640	0.0159378
780.718	0.0159978
780.796	0.0159750
780.874	0.0159902
780.953	0.0159352
781.031	0.0161076
781.109	0.0160247
781.187	0.0160378
781.265	0.0160525
781.343	0.0159810
781.421	0.0161724
781.499	0.0160468
781.578	0.0159386
781.656	0.0158788
781.734	0.0158997
781.812	0.0157069
781.890	0.0156797
781.968	0.0156564
782.046	0.0155042
782.124	0.0155330
782.203	0.0153896
782.281	0.0153874
782.359	0.0153239
782.437	0.0153286
782.515	0.0153261
782.593	0.0153358
782.671	0.0151310
782.749	0.0151154
782.828	0.0152114
782.906	0.0151573
782.984	0.0152097
783.062	0.0152464
783.140	0.0152779
783.218	0.0153741
783.296	0.0153053
783.374	0.0154099
783.453	0.0154266
783.531	0.0156082
783.609	0.0155847
783.687	0.0155272
783.765	0.0155792
783.843	0.0156490
783.921	0.0158031
783.999	0.0158712
784.078	0.0158392
784.156	0.0158311
784.234	0.0158053
784.312	0.0159009
784.390	0.0158723
784.468	0.0159351
784.546	0.0160824
784.624	0.0159654
784.703	0.0160207
784.781	0.0159690
784.859	0.0160285
784.937	0.0158617
785.015	0.0160036
785.093	0.0157778
785.171	0.0159904
785.249	0.0157891
785.328	0.0157674
785.406	0.0159782
785.484	0.0158209
785.562	0.0157484
785.640	0.0157426
785.718	0.0156267
785.796	0.0157247
785.874	0.0157431
785.953	0.0157717
786.031	0.0157147
786.109	0.0156309
786.187	0.0156587
786.265	0.0155894
786.343	0.0155227
786.421	0.0156010
786.499	0.0155365
786.578	0.0156873
786.656	0.0154822
786.734	0.0154439
786.812	0.0156255
786.890	0.0154679
786.968	0.0154763
787.046	0.0153984
787.124	0.0155286
787.203	0.0153834
787.281	0.0155173
787.359	0.0155676
787.437	0.0155982
787.515	0.0156385
787.593	0.0154440
787.671	0.0156858
787.749	0.0156579
787.828	0.0157045
787.906	0.0156966
787.984	0.0157220
788.062	0.0155290
788.140	0.0156591
788.218	0.0158352
788.296	0.0157465
788.374	0.0155022
788.453	0.0156158
788.531	0.0157255
788.609	0.0155807
788.687	0.0156012
788.765	0.0156227
788.843	0.0157153
788.921	0.0158279
788.999	0.0157275
789.078	0.0155649
789.156	0.0157992
789.234	0.0158539
789.312	0.0159244
789.390	0.0158442
789.468	0.0157884
789.546	0.0157801
789.624	0.0158758
789.703	0.0156959
789.781	0.0157675
789.859	0.0157955
789.937	0.0158017
790.015	0.0158579
790.093	0.0156545
790.171	0.0157851
790.249	0.0156320
790.328	0.0155725
790.406	0.0155170
790.484	0.0156518
790.562	0.0157162
790.640	0.0153630
790.718	0.0155512
790.796	0.0157436
790.874	0.0155343
790.953	0.0154516
791.031	0.0155272
791.109	0.0155868
791.187	0.0155511
791.265	0.0155473
791.343	0.0156090
791.421	0.0156190
791.499	0.0155602
791.578	0.0156022
791.656	0.0156555
791.734	0.0156396
791.812	0.0157184
791.890	0.0157129
791.968	0.0156306
792.046	0.0157373
792.124	0.0157504
792.203	0.0157633
792.281	0.0157790
792.359	0.0157576
792.437	0.0157143
792.515	0.0155655
792.593	0.0158527
792.671	0.0157875
792.749	0.0157050
792.828	0.0157586
792.906	0.0157408
792.984	0.0156460
793.062	0.0157018
793.140	0.0157053
793.218	0.0155408
793.296	0.0155442
793.374	0.0155855
793.453	0.0156188
793.531	0.0156664
793.609	0.0155139
793.687	0.0156857
793.765	0.0156705
793.843	0.0155397
793.921	0.0156470
793.999	0.0156113
794.078	0.0155788
794.156	0.0155031
794.234	0.0155318
794.312	0.0155627
794.390	0.0156408
794.468	0.0156160
794.546	0.0156636
794.624	0.0157844
794.703	0.0156406
794.781	0.0157323
794.859	0.0158673
794.937	0.0157086
795.015	0.0157588
795.093	0.0156726
795.171	0.0156216
795.249	0.0156551
795.328	0.0158718
795.406	0.0157908
795.484	0.0158176
795.562	0.0157859
795.640	0.0158458
795.718	0.0156664
795.796	0.0156667
795.874	0.0155769
795.953	0.0156469
796.031	0.0156022
796.109	0.0156500
796.187	0.0155787
796.265	0.0156402
796.343	0.0155184
796.421	0.0155362
796.499	0.0153866
796.578	0.0156628
796.656	0.0156572
796.734	0.0157111
796.812	0.0157937
796.890	0.0157162
796.968	0.0156221
797.046	0.0156293
797.124	0.0157117
797.203	0.0157410
797.281	0.0158208
797.359	0.0156480
797.437	0.0157623
797.515	0.0156970
797.593	0.0155127
797.671	0.0156361
797.749	0.0156993
797.828	0.0157733
797.906	0.0157117
797.984	0.0156211
798.062	0.0156813
798.140	0.0157578
798.218	0.0156361
798.296	0.0157150
798.374	0.0158639
798.453	0.0156684
798.531	0.0156509
798.609	0.0156216
798.687	0.0155769
798.765	0.0155830
798.843	0.0157848
798.921	0.0157143
798.999	0.0156851
799.078	0.0156361
799.156	0.0156576
799.234	0.0157240
799.312	0.0156137
799.390	0.0156755
799.468	0.0157152
799.546	0.0157024
799.624	0.0156772
799.703	0.0157945
799.781	0.0156463
799.859	0.0157021
799.937	0.0158025
800.015	0.0156660
800.093	0.0157601
800.171	0.0157935
800.249	0.0158350
800.328	0.0159067
800.406	0.0157578
800.484	0.0157063
800.562	0.0157975
800.640	0.0156864
800.718	0.0155284
800.796	0.0156283
800.874	0.0156583
800.953	0.0157375
801.031	0.0158762
801.109	0.0157705
801.187	0.0157581
801.265	0.0155405
801.343	0.0157210
801.421	0.0157960
801.499	0.0155699
801.578	0.0157674
801.656	0.0157256
801.734	0.0157562
801.812	0.0157829
801.890	0.0157014
801.968	0.0157793
802.046	0.0157139
802.124	0.0157079
802.203	0.0157413
802.281	0.0157494
802.359	0.0156429
802.437	0.0157871
802.515	0.0156076
802.593	0.0156657
802.671	0.0156971
802.749	0.0156203
802.828	0.0156688
802.906	0.0155308
802.984	0.0155974
803.062	0.0156748
803.140	0.0155846
803.218	0.0154964
803.296	0.0154630
803.374	0.0155045
803.453	0.0155152
803.531	0.0155763
803.609	0.0155009
803.687	0.0155622
803.765	0.0157008
803.843	0.0156918
803.921	0.0157055
803.999	0.0159019
804.078	0.0158244
804.156	0.0158148
804.234	0.0158403
804.312	0.0159521
804.390	0.0158991
804.468	0.0158266
804.546	0.0159949
804.624	0.0160220
804.703	0.0159953
804.781	0.0158858
804.859	0.0157870
804.937	0.0157649
805.015	0.0159159
805.093	0.0159547
805.171	0.0158865
805.249	0.0158461
805.328	0.0158283
805.406	0.0156779
805.484	0.0157227
805.562	0.0155885
805.640	0.0155482
805.718	0.0156011
805.796	0.0155689
805.874	0.0156133
805.953	0.0156256
806.031	0.0155848
806.109	0.0154513
806.187	0.0155042
806.265	0.0155428
806.343	0.0155876
806.421	0.0155994
806.499	0.0155591
806.578	0.0156046
806.656	0.0155414
806.734	0.0155953
806.812	0.0156641
806.890	0.0157343
806.968	0.0157793
807.046	0.0157291
807.124	0.0156963
807.203	0.0156565
807.281	0.0157487
807.359	0.0156163
807.437	0.0157413
807.515	0.0157312
807.593	0.0156397
807.671	0.0156509
807.749	0.0155877
807.828	0.0156030
807.906	0.0156265
807.984	0.0156874
808.062	0.0155200
808.140	0.0156271
808.218	0.0157691
808.296	0.0155691
808.374	0.0155389
808.453	0.0157211
808.531	0.0157342
808.609	0.0156615
808.687	0.0156326
808.765	0.0156884
808.843	0.0156380
808.921	0.0156201
808.999	0.0157706
809.078	0.0157854
809.156	0.0156777
809.234	0.0157483
809.312	0.0157415
809.390	0.0156289
809.468	0.0156454
809.546	0.0158375
809.624	0.0157529
809.703	0.0157881
809.781	0.0156083
809.859	0.0156468
809.937	0.0157437
810.015	0.0158949
810.093	0.0157120
810.171	0.0156802
810.249	0.0158340
810.328	0.0156254
810.406	0.0157455
810.484	0.0157050
810.562	0.0156140
810.640	0.0156586
810.718	0.0157385
810.796	0.0157214
810.874	0.0156927
810.953	0.0157090
811.031	0.0158389
811.109	0.0157718
811.187	0.0156342
811.265	0.0155110
811.343	0.0156306
811.421	0.0155814
811.499	0.0157226
811.578	0.0156369
811.656	0.0156827
811.734	0.0156458
811.812	0.0156971
811.890	0.0157684
811.968	0.0155989
812.046	0.0155634
812.124	0.0156075
812.203	0.0155692
812.281	0.0155957
812.359	0.0155721
812.437	0.0156214
812.515	0.0155450
812.593	0.0156741
812.671	0.0155640
812.749	0.0156049
812.828	0.0155303
812.906	0.0157975
812.984	0.0156940
813.062	0.0156507
813.140	0.0156062
813.218	0.0157410
813.296	0.0155936
813.374	0.0156305
813.453	0.0157368
813.531	0.0157803
813.609	0.0156527
813.687	0.0156516
813.765	0.0156820
813.843	0.0156264
813.921	0.0157491
813.999	0.0157455
814.078	0.0156183
814.156	0.0156788
814.234	0.0156932
814.312	0.0156998
814.390	0.0157186
814.468	0.0156647
814.546	0.0157252
814.624	0.0158257
814.703	0.0157011
814.781	0.0157030
814.859	0.0156879
814.937	0.0157876
815.015	0.0155994
815.093	0.0158288
815.171	0.0157606
815.249	0.0157103
815.328	0.0156668
815.406	0.0156725
815.484	0.0157740
815.562	0.0157474
815.640	0.0157082
815.718	0.0157830
815.796	0.0154807
815.874	0.0156130
815.953	0.0155384
816.031	0.0156823
816.109	0.0157182
816.187	0.0156679
816.265	0.0156154
816.343	0.0155966
816.421	0.0157035
816.499	0.0156889
816.578	0.0156341
816.656	0.0156817
816.734	0.0158146
816.812	0.0156861
816.890	0.0156432
816.968	0.0155462
817.046	0.0154778
817.124	0.0157594
817.203	0.0155887
817.281	0.0157047
817.359	0.0157295
817.437	0.0156503
817.515	0.0156976
817.593	0.0156148
817.671	0.0156253
817.749	0.0156658
817.828	0.0157806
817.906	0.0157162
817.984	0.0156466
818.062	0.0156704
818.140	0.0155389
818.218	0.0157425
818.296	0.0157349
818.374	0.0156741
818.453	0.0156924
818.531	0.0158582
818.609	0.0155999
818.687	0.0156673
818.765	0.0157220
818.843	0.0156568
818.921	0.0157232
818.999	0.0158482
819.078	0.0157533
819.156	0.0156984
819.234	0.0157468
819.312	0.0156551
819.390	0.0156735
819.468	0.0158336
819.546	0.0156155
819.624	0.0156454
819.703	0.0157678
819.781	0.0158228
819.859	0.0157895
819.937	0.0156180
820.015	0.0156950
820.093	0.0157227
820.171	0.0154976
820.249	0.0156069
820.328	0.0156839
820.406	0.0157705
820.484	0.0156823
820.562	0.0158168
820.640	0.0157558
820.718	0.0159152
820.796	0.0157561
820.874	0.0157967
820.953	0.0158526
821.031	0.0157883
821.109	0.0156832
821.187	0.0156764
821.265	0.0157269
821.343	0.0156640
821.421	0.0157949
821.499	0.0156242
821.578	0.0155410
821.656	0.0157211
821.734	0.0157100
821.812	0.0157843
821.890	0.0155948
821.968	0.0156319
822.046	0.0155716
822.124	0.0154973
822.203	0.0155650
822.281	0.0155916
822.359	0.0155848
822.437	0.0156120
822.515	0.0155194
822.593	0.0154997
822.671	0.0156198
822.749	0.0155902
822.828	0.0155116
822.906	0.0156606
822.984	0.0155550
823.062	0.0155899
823.140	0.0156274
823.218	0.0156783
823.296	0.0155998
823.374	0.0155387
823.453	0.0157285
823.531	0.0155780
823.609	0.0157036
823.687	0.0156552
823.765	0.0156746
823.843	0.0157294
823.921	0.0158081
823.999	0.0157047
824.078	0.0158637
824.156	0.0158096
824.234	0.0157298
824.312	0.0157574
824.390	0.0157806
824.468	0.0157758
824.546	0.0157650
824.624	0.0157839
824.703	0.0157438
824.781	0.0157269
824.859	0.0157700
824.937	0.0157232
825.015	0.0157184
825.093	0.0157948
825.171	0.0157239
825.249	0.0156205
825.328	0.0157625
825.406	0.0155994
825.484	0.0155449
825.562	0.0157664
825.640	0.0154897
825.718	0.0155819
825.796	0.0156156
825.874	0.0155511
825.953	0.0155103
826.031	0.0155684
826.109	0.0157114
826.187	0.0157114
826.265	0.0156907
826.343	0.0156429
826.421	0.0155663
826.499	0.0155327
826.578	0.0156335
826.656	0.0156776
826.734	0.0156371
826.812	0.0156989
826.890	0.0156611
826.968	0.0154501
827.046	0.0156243
827.124	0.0155704
827.203	0.0156698
827.281	0.0155158
827.359	0.0155824
827.437	0.0155972
827.515	0.0156467
827.593	0.0155672
827.671	0.0155627
827.749	0.0157191
827.828	0.0156033
827.906	0.0156129
827.984	0.0156262
828.062	0.0156870
828.140	0.0155262
828.218	0.0156504
828.296	0.0156351
828.374	0.0157991
828.453	0.0157901
828.531	0.0158791
828.609	0.0157137
828.687	0.0158302
828.765	0.0158653
828.843	0.0158672
828.921	0.0158754
828.999	0.0158233
829.078	0.0158209
829.156	0.0159164
829.234	0.0157600
829.312	0.0158064
829.390	0.0157222
829.468	0.0156098
829.546	0.0157578
829.624	0.0156251
829.703	0.0155716
829.781	0.0156052
829.859	0.0157289
829.937	0.0156109
830.015	0.0156719
830.093	0.0156861
830.171	0.0156341
830.249	0.0155174
830.328	0.0155463
830.406	0.0155112
830.484	0.0156954
830.562	0.0156361
830.640	0.0156036
830.718	0.0156253
830.796	0.0155595
830.874	0.0156329
830.953	0.0156709
831.031	0.0158022
831.109	0.0156485
831.187	0.0155898
831.265	0.0156918
831.343	0.0157550
831.421	0.0157173
831.499	0.0156086
831.578	0.0156784
831.656	0.0156390
831.734	0.0157161
831.812	0.0156223
831.890	0.0155743
831.968	0.0157056
832.046	0.0156004
832.124	0.0156609
832.203	0.0156487
832.281	0.0156754
832.359	0.0156664
832.437	0.0155987
832.515	0.0156161
832.593	0.0157633
832.671	0.0156339
832.749	0.0156327
832.828	0.0157216
832.906	0.0157333
832.984	0.0158203
833.062	0.0157401
833.140	0.0156252
833.218	0.0155920
833.296	0.0157140
833.374	0.0155158
833.453	0.0157607
833.531	0.0157509
833.609	0.0157513
833.687	0.0157130
833.765	0.0155937
833.843	0.0158210
833.921	0.0156969
833.999	0.0157252
834.078	0.0157178
834.156	0.0156327
834.234	0.0157278
834.312	0.0157823
834.390	0.0156661
834.468	0.0157221
834.546	0.0156526
834.624	0.0156483
834.703	0.0155713
834.781	0.0156742
834.859	0.0156298
834.937	0.0157050
835.015	0.0155803
835.093	0.0156979
835.171	0.0157967
835.249	0.0159025
835.328	0.0157377
835.406	0.0158505
835.484	0.0158791
835.562	0.0157354
835.640	0.0157500
835.718	0.0158038
835.796	0.0158754
835.874	0.0158076
835.953	0.0158036
836.031	0.0156730
836.109	0.0157782
836.187	0.0156610
836.265	0.0156309
836.343	0.0156836
836.421	0.0156682
836.499	0.0155432
836.578	0.0156315
836.656	0.0156749
836.734	0.0156355
836.812	0.0156167
836.890	0.0155869
836.968	0.0154917
837.046	0.0154948
837.124	0.0155656
837.203	0.0155293
837.281	0.0154562
837.359	0.0156331
837.437	0.0156750
837.515	0.0156288
837.593	0.0156081
837.671	0.0156813
837.749	0.0156945
837.828	0.0156584
837.906	0.0157418
837.984	0.0157018
838.062	0.0156021
838.140	0.0156333
838.218	0.0156453
838.296	0.0157751
838.374	0.0156944
838.453	0.0156017
838.531	0.0157381
838.609	0.0155901
838.687	0.0157157
838.765	0.0157871
838.843	0.0157470
838.921	0.0156837
838.999	0.0156619
839.078	0.0158546
839.156	0.0157602
839.234	0.0158018
839.312	0.0157659
839.390	0.0158083
839.468	0.0157420
839.546	0.0156714
839.624	0.0157658
839.703	0.0157460
839.781	0.0157248
839.859	0.0155415
839.937	0.0156636
840.015	0.0156667
840.093	0.0156158
840.171	0.0156356
840.249	0.0155956
840.328	0.0156065
840.406	0.0155583
840.484	0.0156154
840.562	0.0154739
840.640	0.0156033
840.718	0.0154995
840.796	0.0156061
840.874	0.0156290
840.953	0.0155806
841.031	0.0155713
841.109	0.0155889
841.187	0.0156446
841.265	0.0155299
841.343	0.0156477
841.421	0.0156997
841.499	0.0157005
841.578	0.0157373
841.656	0.0156777
841.734	0.0155160
841.812	0.0157360
841.890	0.0157491
841.968	0.0158103
842.046	0.0157088
842.124	0.0156462
842.203	0.0157114
842.281	0.0155180
842.359	0.0156122
842.437	0.0156293
842.515	0.0154597
842.593	0.0157513
842.671	0.0156339
842.749	0.0155961
842.828	0.0156940
842.906	0.0156620
842.984	0.0155984
843.062	0.0155341
843.140	0.0156868
843.218	0.0157602
843.296	0.0157440
843.374	0.0157447
843.453	0.0157262
843.531	0.0157526
843.609	0.0158885
843.687	0.0159479
843.765	0.0159264
843.843	0.0160039
843.921	0.0160564
843.999	0.0158859
844.078	0.0159386
844.156	0.0158394
844.234	0.0158668
844.312	0.0158445
844.390	0.0158883
844.468	0.0158898
844.546	0.0158659
844.624	0.0156590
844.703	0.0157033
844.781	0.0156104
844.859	0.0155458
844.937	0.0155873
845.015	0.0155582
845.093	0.0155486
845.171	0.0155880
845.249	0.0154648
845.328	0.0155328
845.406	0.0155817
845.484	0.0154262
845.562	0.0153786
845.640	0.0156061
845.718	0.0154307
845.796	0.0155138
845.874	0.0154852
845.953	0.0155795
846.031	0.0158330
846.109	0.0156464
846.187	0.0157275
846.265	0.0156372
846.343	0.0156277
846.421	0.0156637
846.499	0.0156079
846.578	0.0156918
846.656	0.0158916
846.734	0.0158163
846.812	0.0156747
846.890	0.0156442
846.968	0.0156975
847.046	0.0156425
847.124	0.0156267
847.203	0.0157941
847.281	0.0157086
847.359	0.0156586
847.437	0.0158041
847.515	0.0157504
847.593	0.0155863
847.671	0.0156475
847.749	0.0156107
847.828	0.0157138
847.906	0.0156633
847.984	0.0157343
848.062	0.0157400
848.140	0.0156715
848.218	0.0156435
848.296	0.0156812
848.374	0.0157482
848.453	0.0158370
848.531	0.0156415
848.609	0.0156981
848.687	0.0156742
848.765	0.0156875
848.843	0.0156995
848.921	0.0156694
848.999	0.0155523
849.078	0.0158070
849.156	0.0157658
849.234	0.0156471
849.312	0.0156429
849.390	0.0156108
849.468	0.0155016
849.546	0.0156290
849.624	0.0156049
849.703	0.0156406
849.781	0.0154546
849.859	0.0156246
849.937	0.0155672
850.015	0.0155231
850.093	0.0154534
850.171	0.0155731
850.249	0.0156238
850.328	0.0155753
850.406	0.0155400
850.484	0.0156645
850.562	0.0156140
850.640	0.0156609
850.718	0.0156918
850.796	0.0156230
850.874	0.0155865
850.953	0.0156992
851.031	0.0157094
851.109	0.0156853
851.187	0.0157903
851.265	0.0155877
851.343	0.0156962
851.421	0.0156626
851.499	0.0156694
851.578	0.0157155
851.656	0.0157286
851.734	0.0157417
851.812	0.0158553
851.890	0.0156641
851.968	0.0157140
852.046	0.0157632
852.124	0.0157130
852.203	0.0157182
852.281	0.0156750
852.359	0.0157227
852.437	0.0156344
852.515	0.0156422
852.593	0.0157626
852.671	0.0156325
852.749	0.0156894
852.828	0.0157804
852.906	0.0157280
852.984	0.0157507
853.062	0.0157277
853.140	0.0156696
853.218	0.0158100
853.296	0.0158833
853.374	0.0159135
853.453	0.0159625
853.531	0.0159748
853.609	0.0158472
853.687	0.0159383
853.765	0.0158844
853.843	0.0158096
853.921	0.0160237
853.999	0.0159362
854.078	0.0157422
854.156	0.0158131
854.234	0.0156754
854.312	0.0158205
854.390	0.0157826
854.468	0.0156572
854.546	0.0156454
854.624	0.0157031
854.703	0.0156214
854.781	0.0156004
854.859	0.0155630
854.937	0.0155979
855.015	0.0156500
855.093	0.0156822
855.171	0.0157684
855.249	0.0155693
855.328	0.0155242
855.406	0.0156604
855.484	0.0157597
855.562	0.0156612
855.640	0.0156097
855.718	0.0156431
855.796	0.0158199
855.874	0.0157401
855.953	0.0156812
856.031	0.0157558
856.109	0.0157599
856.187	0.0157804
856.265	0.0158698
856.343	0.0157680
856.421	0.0156622
856.499	0.0156201
856.578	0.0157834
856.656	0.0157484
856.734	0.0158096
856.812	0.0158825
856.890	0.0156405
856.968	0.0158681
857.046	0.0157799
857.124	0.0158411
857.203	0.0158628
857.281	0.0157623
857.359	0.0159515
857.437	0.0158521
857.515	0.0158286
857.593	0.0157267
857.671	0.0159098
857.749	0.0158018
857.828	0.0157074
857.906	0.0157851
857.984	0.0158200
858.062	0.0157058
858.140	0.0157102
858.218	0.0157114
858.296	0.0156082
858.374	0.0157877
858.453	0.0155739
858.531	0.0158291
858.609	0.0155640
858.687	0.0155453
858.765	0.0155159
858.843	0.0156091
858.921	0.0155587
858.999	0.0155007
859.078	0.0155929
859.156	0.0155463
859.234	0.0155161
859.312	0.0156126
859.390	0.0155676
859.468	0.0156219
859.546	0.0156499
859.624	0.0155801
859.703	0.0156149
859.781	0.0156484
859.859	0.0156760
859.937	0.0157752
860.015	0.0156528
860.093	0.0156953
860.171	0.0156435
860.249	0.0155656
860.328	0.0156091
860.406	0.0156062
860.484	0.0157075
860.562	0.0157043
860.640	0.0157010
860.718	0.0157255
860.796	0.0157690
860.874	0.0158354
860.953	0.0158755
861.031	0.0157800
861.109	0.0159325
861.187	0.0158011
861.265	0.0156686
861.343	0.0156793
861.421	0.0157223
861.499	0.0157542
861.578	0.0156907
861.656	0.0156503
861.734	0.0157110
861.812	0.0157609
861.890	0.0157369
861.968	0.0156086
862.046	0.0156350
862.124	0.0156332
862.203	0.0156258
862.281	0.0158412
862.359	0.0155670
862.437	0.0156418
862.515	0.0157024
862.593	0.0156530
862.671	0.0156178
862.749	0.0157450
862.828	0.0157092
862.906	0.0156924
862.984	0.0157372
863.062	0.0156194
863.140	0.0155940
863.218	0.0155104
863.296	0.0155233
863.374	0.0156991
863.453	0.0156364
863.531	0.0156068
863.609	0.0156836
863.687	0.0156042
863.765	0.0156250
863.843	0.0156229
863.921	0.0157250
863.999	0.0156129
864.078	0.0156035
864.156	0.0157111
864.234	0.0157903
864.312	0.0156804
864.390	0.0157336
864.468	0.0156886
864.546	0.0155354
864.624	0.0157276
864.703	0.0157690
864.781	0.0156148
864.859	0.0156720
864.937	0.0156265
865.015	0.0155863
865.093	0.0157992
865.171	0.0158167
865.249	0.0156782
865.328	0.0156889
865.406	0.0156002
865.484	0.0157175
865.562	0.0157519
865.640	0.0157230
865.718	0.0156235
865.796	0.0158403
865.874	0.0155913
865.953	0.0157204
866.031	0.0156956
866.109	0.0157844
866.187	0.0156557
866.265	0.0156908
866.343	0.0157328
866.421	0.0155101
866.499	0.0156194
866.578	0.0156013
866.656	0.0156641
866.734	0.0156845
866.812	0.0156960
866.890	0.0155920
866.968	0.0156469
867.046	0.0155418
867.124	0.0156758
867.203	0.0157507
867.281	0.0155812
867.359	0.0155067
867.437	0.0155873
867.515	0.0156430
867.593	0.0155250
867.671	0.0157417
867.749	0.0156076
867.828	0.0156360
867.906	0.0156702
867.984	0.0155902
868.062	0.0157045
868.140	0.0156644
868.218	0.0155704
868.296	0.0155145
868.374	0.0156046
868.453	0.0156570
868.531	0.0156400
868.609	0.0156413
868.687	0.0155946
868.765	0.0155150
868.843	0.0157563
868.921	0.0158301
868.999	0.0156339
869.078	0.0156847
869.156	0.0157864
869.234	0.0158416
869.312	0.0156044
869.390	0.0156527
869.468	0.0157323
869.546	0.0156784
869.624	0.0157541
869.703	0.0156990
869.781	0.0156097
869.859	0.0158059
869.937	0.0157082
870.015	0.0156390
870.093	0.0155161
870.171	0.0156908
870.249	0.0157174
870.328	0.0156742
870.406	0.0155865
870.484	0.0156344
870.562	0.0155286
870.640	0.0157420
870.718	0.0156582
870.796	0.0154034
870.874	0.0155977
870.953	0.0156063
871.031	0.0156385
871.109	0.0157254
871.187	0.0156182
871.265	0.0157256
871.343	0.0156151
871.421	0.0156956
871.499	0.0156090
871.578	0.0155142
871.656	0.0155952
871.734	0.0156566
871.812	0.0157000
871.890	0.0156304
871.968	0.0157310
872.046	0.0156944
872.124	0.0155804
872.203	0.0156104
872.281	0.0157091
872.359	0.0156263
872.437	0.0156635
872.515	0.0156955
872.593	0.0158225
872.671	0.0157296
872.749	0.0156762
872.828	0.0158543
872.906	0.0157077
872.984	0.0158339
873.062	0.0156597
873.140	0.0157984
873.218	0.0157603
873.296	0.0156319
873.374	0.0159424
873.453	0.0156706
873.531	0.0157409
873.609	0.0156541
873.687	0.0158066
873.765	0.0159933
873.843	0.0157226
873.921	0.0157229
873.999	0.0157185
874.078	0.0157598
874.156	0.0157218
874.234	0.0157360
874.312	0.0157523
874.390	0.0158711
874.468	0.0157635
874.546	0.0157520
874.624	0.0156823
874.703	0.0154986
874.781	0.0156423
874.859	0.0157294
874.937	0.0155417
875.015	0.0156377
875.093	0.0157550
875.171	0.0155537
875.249	0.0156056
875.328	0.0154980
875.406	0.0155191
875.484	0.0154999
875.562	0.0156887
875.640	0.0154379
875.718	0.0156223
875.796	0.0156236
875.874	0.0156447
875.953	0.0156436
876.031	0.0155224
876.109	0.0155972
876.187	0.0155655
876.265	0.0156858
876.343	0.0157478
876.421	0.0155652
876.499	0.0157001
876.578	0.0157214
876.656	0.0156898
876.734	0.0157925
876.812	0.0157799
876.890	0.0156622
876.968	0.0158138
877.046	0.0157941
877.124	0.0157972
877.203	0.0157273
877.281	0.0157906
877.359	0.0158049
877.437	0.0156882
877.515	0.0158617
877.593	0.0157686
877.671	0.0158986
877.749	0.0159290
877.828	0.0157165
877.906	0.0157807
877.984	0.0156837
878.062	0.0156358
878.140	0.0158076
878.218	0.0157174
878.296	0.0155685
878.374	0.0156896
878.453	0.0156093
878.531	0.0155618
878.609	0.0156402
878.687	0.0155769
878.765	0.0156461
878.843	0.0155195
878.921	0.0155489
878.999	0.0156148
879.078	0.0155232
879.156	0.0156527
879.234	0.0156923
879.312	0.0156115
879.390	0.0157110
879.468	0.0156264
879.546	0.0156355
879.624	0.0156680
879.703	0.0156078
879.781	0.0155608
879.859	0.0156720
879.937	0.0156389
880.015	0.0157133
880.093	0.0157713
880.171	0.0158318
880.249	0.0158046
880.328	0.0156103
880.406	0.0157641
880.484	0.0158541
880.562	0.0158943
880.640	0.0157356
880.718	0.0158937
880.796	0.0158624
880.874	0.0159090
880.953	0.0158721
881.031	0.0159453
881.109	0.0159736
881.187	0.0160104
881.265	0.0158600
881.343	0.0159184
881.421	0.0158517
881.499	0.0158823
881.578	0.0159492
881.656	0.0158669
881.734	0.0157245
881.812	0.0158159
881.890	0.0157966
881.968	0.0158063
882.046	0.0156242
882.124	0.0156165
882.203	0.0156329
882.281	0.0157188
882.359	0.0156612
882.437	0.0155589
882.515	0.0156370
882.593	0.0156596
882.671	0.0156165
882.749	0.0155572
882.828	0.0154824
882.906	0.0155718
882.984	0.0156384
883.062	0.0156133
883.140	0.0157397
883.218	0.0156239
883.296	0.0156078
883.374	0.0156619
883.453	0.0158237
883.531	0.0156293
883.609	0.0157136
883.687	0.0157066
883.765	0.0156853
883.843	0.0157310
883.921	0.0157497
883.999	0.0158475
884.078	0.0157478
884.156	0.0156689
884.234	0.0157394
884.312	0.0158335
884.390	0.0158047
884.468	0.0157067
884.546	0.0156495
884.624	0.0156293
884.703	0.0157571
884.781	0.0157632
884.859	0.0157294
884.937	0.0157213
885.015	0.0157970
885.093	0.0157809
885.171	0.0158251
885.249	0.0158575
885.328	0.0158041
885.406	0.0158578
885.484	0.0158475
885.562	0.0157313
885.640	0.0157516
885.718	0.0158423
885.796	0.0158429
885.874	0.0158311
885.953	0.0159292
886.031	0.0158712
886.109	0.0158195
886.187	0.0157589
886.265	0.0158201
886.343	0.0157056
886.421	0.0157379
886.499	0.0157029
886.578	0.0157097
886.656	0.0156084
886.734	0.0157182
886.812	0.0156664
886.890	0.0156918
886.968	0.0156425
887.046	0.0156992
887.124	0.0156425
887.203	0.0155625
887.281	0.0156561
887.359	0.0156161
887.437	0.0155779
887.515	0.0154336
887.593	0.0157425
887.671	0.0157623
887.749	0.0156387
887.828	0.0156338
887.906	0.0156686
887.984	0.0157649
888.062	0.0157873
888.140	0.0157810
888.218	0.0157828
888.296	0.0156685
888.374	0.0156908
888.453	0.0157291
888.531	0.0158224
888.609	0.0158920
888.687	0.0157229
888.765	0.0157303
888.843	0.0157250
888.921	0.0157783
888.999	0.0157222
889.078	0.0156776
889.156	0.0158207
889.234	0.0156531
889.312	0.0156632
889.390	0.0157348
889.468	0.0156685
889.546	0.0157878
889.624	0.0156484
889.703	0.0155539
889.781	0.0156891
889.859	0.0156272
889.937	0.0155521
890.015	0.0155396
890.093	0.0156633
890.171	0.0157504
890.249	0.0155330
890.328	0.0155941
890.406	0.0156499
890.484	0.0155382
890.562	0.0154618
890.640	0.0155827
890.718	0.0156527
890.796	0.0156551
890.874	0.0154987
890.953	0.0155695
891.031	0.0155848
891.109	0.0155445
891.187	0.0156476
891.265	0.0155774
891.343	0.0156749
891.421	0.0156992
891.499	0.0157028
891.578	0.0158081
891.656	0.0157362
891.734	0.0157236
891.812	0.0158058
891.890	0.0157804
891.968	0.0158759
892.046	0.0157761
892.124	0.0159407
892.203	0.0159209
892.281	0.0157671
892.359	0.0158509
892.437	0.0159207
892.515	0.0159171
892.593	0.0157079
892.671	0.0156633
892.749	0.0156930
892.828	0.0157776
892.906	0.0156923
892.984	0.0156060
893.062	0.0157520
893.140	0.0156902
893.218	0.0157409
893.296	0.0158361
893.374	0.0157242
893.453	0.0156378
893.531	0.0155248
893.609	0.0156929
893.687	0.0156369
893.765	0.0157745
893.843	0.0157176
893.921	0.0156399
893.999	0.0154493
894.078	0.0156548
894.156	0.0156577
894.234	0.0156805
894.312	0.0156588
894.390	0.0156240
894.468	0.0154868
894.546	0.0156088
894.624	0.0156405
894.703	0.0156266
894.781	0.0156183
894.859	0.0157097
894.937	0.0155950
895.015	0.0155751
895.093	0.0155520
895.171	0.0156370
895.249	0.0156911
895.328	0.0157011
895.406	0.0158069
895.484	0.0156809
895.562	0.0156286
895.640	0.0157005
895.718	0.0158338
895.796	0.0158185
895.874	0.0158411
895.953	0.0158393
896.031	0.0157361
896.109	0.0158007
896.187	0.0158887
896.265	0.0158688
896.343	0.0158076
896.421	0.0158070
896.499	0.0157826
896.578	0.0156836
896.656	0.0157921
896.734	0.0157932
896.812	0.0157821
896.890	0.0158814
896.968	0.0157668
897.046	0.0157285
897.124	0.0158492
897.203	0.0157048
897.281	0.0158012
897.359	0.0155556
897.437	0.0157466
897.515	0.0157697
897.593	0.0156024
897.671	0.0156957
897.749	0.0157825
897.828	0.0156572
897.906	0.0156950
897.984	0.0157912
898.062	0.0157080
898.140	0.0156498
898.218	0.0157213
898.296	0.0156419
898.374	0.0156476
898.453	0.0155793
898.531	0.0157796
898.609	0.0155685
898.687	0.0156760
898.765	0.0156664
898.843	0.0156642
898.921	0.0156475
898.999	0.0156316
899.078	0.0156787
899.156	0.0157140
899.234	0.0156480
899.312	0.0156812
899.390	0.0156490
899.468	0.0156483
899.546	0.0155992
899.624	0.0157841
899.703	0.0157214
899.781	0.0156676
899.859	0.0157559
899.937	0.0156438
900.015	0.0156277
900.093	0.0156911
900.171	0.0156437
900.249	0.0156641
900.328	0.0155815
900.406	0.0157883
900.484	0.0157510
900.562	0.0156792
900.640	0.0157128
900.718	0.0157269
900.796	0.0156542
900.874	0.0155753
900.953	0.0157188
901.031	0.0155787
901.109	0.0156807
901.187	0.0156567
901.265	0.0155740
901.343	0.0157561
901.421	0.0157142
901.499	0.0157104
901.578	0.0156754
901.656	0.0157106
901.734	0.0157900
901.812	0.0157285
901.890	0.0155867
901.968	0.0156013
902.046	0.0156371
902.124	0.0158273
902.203	0.0156902
902.281	0.0156464
902.359	0.0156141
902.437	0.0157321
902.515	0.0156156
902.593	0.0156985
902.671	0.0158678
902.749	0.0155910
902.828	0.0156661
902.906	0.0156759
902.984	0.0155600
903.062	0.0155412
903.140	0.0157404
903.218	0.0157227
903.296	0.0156689
903.374	0.0157552
903.453	0.0155139
903.531	0.0157069
903.609	0.0156906
903.687	0.0156409
903.765	0.0157986
903.843	0.0159370
903.921	0.0159341
903.999	0.0157323
904.078	0.0155686
904.156	0.0157977
904.234	0.0158266
904.312	0.0157478
904.390	0.0158311
904.468	0.0156683
904.546	0.0158260
904.624	0.0156374
904.703	0.0156702
904.781	0.0156765
904.859	0.0157921
904.937	0.0156478
905.015	0.0156999
905.093	0.0156693
905.171	0.0156671
905.249	0.0156464
905.328	0.0156699
905.406	0.0157754
905.484	0.0155801
905.562	0.0156699
905.640	0.0155312
905.718	0.0158273
905.796	0.0157743
905.874	0.0156881
905.953	0.0157971
906.031	0.0156846
906.109	0.0158080
906.187	0.0157233
906.265	0.0156721
906.343	0.0157521
906.421	0.0156725
906.499	0.0158230
906.578	0.0158303
906.656	0.0156951
906.734	0.0156519
906.812	0.0157587
906.890	0.0157486
906.968	0.0157248
907.046	0.0157404
907.124	0.0156983
907.203	0.0157346
907.281	0.0157461
907.359	0.0157423
907.437	0.0157096
907.515	0.0155692
907.593	0.0156326
907.671	0.0156721
907.749	0.0157339
907.828	0.0157789
907.906	0.0157547
907.984	0.0157227
908.062	0.0156278
908.140	0.0157130
908.218	0.0157063
908.296	0.0157670
908.374	0.0155963
908.453	0.0156944
908.531	0.0157370
908.609	0.0158041
908.687	0.0158041
908.765	0.0156229
908.843	0.0156483
908.921	0.0156841
908.999	0.0156434
909.078	0.0156654
909.156	0.0157253
909.234	0.0157053
909.312	0.0155551
909.390	0.0156261
909.468	0.0156352
909.546	0.0155440
909.624	0.0155800
909.703	0.0157016
909.781	0.0156399
909.859	0.0157241
909.937	0.0156520
910.015	0.0158000
910.093	0.0156758
910.171	0.0156235
910.249	0.0158038
910.328	0.0157880
910.406	0.0158008
910.484	0.0158164
910.562	0.0158053
910.640	0.0157300
910.718	0.0157524
910.796	0.0157893
910.874	0.0156517
910.953	0.0156495
911.031	0.0158131
911.109	0.0156667
911.187	0.0157701
911.265	0.0157190
911.343	0.0156579
911.421	0.0157348
911.499	0.0156933
911.578	0.0157662
911.656	0.0156666
911.734	0.0155764
911.812	0.0157215
911.890	0.0157533
911.968	0.0155190
912.046	0.0157045
912.124	0.0157861
912.203	0.0155915
912.281	0.0155755
912.359	0.0158344
912.437	0.0157289
912.515	0.0157150
912.593	0.0157685
912.671	0.0156247
912.749	0.0157677
912.828	0.0156675
912.906	0.0157859
912.984	0.0157659
913.062	0.0156902
913.140	0.0156370
913.218	0.0155120
913.296	0.0156661
913.374	0.0156785
913.453	0.0157169
913.531	0.0156395
913.609	0.0156499
913.687	0.0156944
913.765	0.0156594
913.843	0.0157956
913.921	0.0156760
913.999	0.0157316
914.078	0.0156953
914.156	0.0156720
914.234	0.0157954
914.312	0.0156439
914.390	0.0155868
914.468	0.0157127
914.546	0.0157035
914.624	0.0157285
914.703	0.0158046
914.781	0.0156613
914.859	0.0156988
914.937	0.0156161
915.015	0.0156169
915.093	0.0157127
915.171	0.0155996
915.249	0.0155465
915.328	0.0156684
915.406	0.0157063
915.484	0.0155894
915.562	0.0156855
915.640	0.0156332
915.718	0.0157063
915.796	0.0155726
915.874	0.0156528
915.953	0.0157105
916.031	0.0156972
916.109	0.0155978
916.187	0.0156062
916.265	0.0155124
916.343	0.0156532
916.421	0.0155680
916.499	0.0157005
916.578	0.0155003
916.656	0.0156667
916.734	0.0157400
916.812	0.0156518
916.890	0.0155730
916.968	0.0157856
917.046	0.0156738
917.124	0.0158008
917.203	0.0156198
917.281	0.0157024
917.359	0.0156736
917.437	0.0156062
917.515	0.0157793
917.593	0.0156315
917.671	0.0157089
917.749	0.0156893
917.828	0.0157653
917.906	0.0155748
917.984	0.0158046
918.062	0.0156850
918.140	0.0156975
918.218	0.0157098
918.296	0.0158074
918.374	0.0156583
918.453	0.0157560
918.531	0.0157261
918.609	0.0156918
918.687	0.0156908
918.765	0.0157045
918.843	0.0156798
918.921	0.0157346
918.999	0.0156722
919.078	0.0156277
919.156	0.0156883
919.234	0.0156689
919.312	0.0157112
919.390	0.0156615
919.468	0.0156524
919.546	0.0157193
919.624	0.0157464
919.703	0.0158071
919.781	0.0157835
919.859	0.0156297
919.937	0.0157612
