06/10/2022	18:43:10	Ver.	4.1	UNKNOWN
Optical Delay	600.015094	Delta X		0.078125	Sweeps	1	Scan Rate	0/0
Coordinates	Axis 1	NaN	Axis 2	NaN	Axis 3	NaN	Axis 4	NaN	Axis 5	NaN	Axis 6	0.000000
TX Power	0.000000	RX Power	0.000000

600.015	0.0162882
600.093	0.0163559
600.171	0.0162151
600.249	0.0162399
600.328	0.0163075
600.406	0.0164255
600.484	0.0162729
600.562	0.0162648
600.640	0.0161188
600.718	0.0161240
600.796	0.0162933
600.874	0.0163155
600.953	0.0162544
601.031	0.0163184
601.109	0.0162498
601.187	0.0161866
601.265	0.0163354
601.343	0.0161260
601.421	0.0162473
601.499	0.0162270
601.578	0.0162701
601.656	0.0160686
601.734	0.0161304
601.812	0.0163050
601.890	0.0164330
601.968	0.0163013
602.046	0.0161350
602.124	0.0161572
602.203	0.0161309
602.281	0.0163544
602.359	0.0162664
602.437	0.0161416
602.515	0.0163135
602.593	0.0163398
602.671	0.0160872
602.749	0.0161600
602.828	0.0163440
602.906	0.0163358
602.984	0.0162378
603.062	0.0163078
603.140	0.0162605
603.218	0.0161694
603.296	0.0162363
603.374	0.0162464
603.453	0.0162406
603.531	0.0161480
603.609	0.0162029
603.687	0.0163721
603.765	0.0163930
603.843	0.0162346
603.921	0.0161921
603.999	0.0161179
604.078	0.0162658
604.156	0.0163403
604.234	0.0162339
604.312	0.0162364
604.390	0.0162235
604.468	0.0162047
604.546	0.0163375
604.624	0.0162510
604.703	0.0163727
604.781	0.0163477
604.859	0.0163729
604.937	0.0163499
605.015	0.0162857
605.093	0.0162067
605.171	0.0161448
605.249	0.0161866
605.328	0.0163459
605.406	0.0162113
605.484	0.0162429
605.562	0.0163187
605.640	0.0162478
605.718	0.0162070
605.796	0.0164440
605.874	0.0162513
605.953	0.0161668
606.031	0.0161905
606.109	0.0162636
606.187	0.0163447
606.265	0.0161836
606.343	0.0161987
606.421	0.0162606
606.499	0.0162488
606.578	0.0162358
606.656	0.0162561
606.734	0.0164182
606.812	0.0163560
606.890	0.0161651
606.968	0.0162753
607.046	0.0162536
607.124	0.0162414
607.203	0.0161339
607.281	0.0162446
607.359	0.0162910
607.437	0.0162887
607.515	0.0163238
607.593	0.0161987
607.671	0.0161851
607.749	0.0161051
607.828	0.0161572
607.906	0.0163062
607.984	0.0162012
608.062	0.0161431
608.140	0.0162923
608.218	0.0163518
608.296	0.0163728
608.374	0.0163399
608.453	0.0162090
608.531	0.0161631
608.609	0.0164063
608.687	0.0162342
608.765	0.0163326
608.843	0.0161827
608.921	0.0163016
608.999	0.0163617
609.078	0.0163483
609.156	0.0162127
609.234	0.0162843
609.312	0.0163223
609.390	0.0161461
609.468	0.0162614
609.546	0.0162323
609.624	0.0162593
609.703	0.0163717
609.781	0.0163126
609.859	0.0161694
609.937	0.0162711
610.015	0.0163933
610.093	0.0162303
610.171	0.0161507
610.249	0.0162268
610.328	0.0163847
610.406	0.0163120
610.484	0.0162642
610.562	0.0162989
610.640	0.0162090
610.718	0.0162656
610.796	0.0161997
610.874	0.0160870
610.953	0.0162594
611.031	0.0161588
611.109	0.0163261
611.187	0.0162655
611.265	0.0162655
611.343	0.0162117
611.421	0.0162479
611.499	0.0163764
611.578	0.0161644
611.656	0.0161594
611.734	0.0163889
611.812	0.0162737
611.890	0.0162756
611.968	0.0162420
612.046	0.0162841
612.124	0.0164034
612.203	0.0162450
612.281	0.0162337
612.359	0.0162476
612.437	0.0162766
612.515	0.0162392
612.593	0.0163221
612.671	0.0161567
612.749	0.0161411
612.828	0.0161769
612.906	0.0162180
612.984	0.0163610
613.062	0.0162979
613.140	0.0162540
613.218	0.0162338
613.296	0.0161930
613.374	0.0161148
613.453	0.0162372
613.531	0.0162443
613.609	0.0161989
613.687	0.0162246
613.765	0.0162152
613.843	0.0162022
613.921	0.0164006
613.999	0.0162934
614.078	0.0162380
614.156	0.0161684
614.234	0.0161704
614.312	0.0162312
614.390	0.0162151
614.468	0.0163204
614.546	0.0162129
614.624	0.0163045
614.703	0.0161645
614.781	0.0162387
614.859	0.0163029
614.937	0.0162028
615.015	0.0162597
615.093	0.0163148
615.171	0.0162607
615.249	0.0162933
615.328	0.0163482
615.406	0.0161647
615.484	0.0162338
615.562	0.0161596
615.640	0.0162023
615.718	0.0161074
615.796	0.0162445
615.874	0.0162649
615.953	0.0163258
616.031	0.0163380
616.109	0.0162656
616.187	0.0162785
616.265	0.0162164
616.343	0.0162260
616.421	0.0163377
616.499	0.0162762
616.578	0.0162489
616.656	0.0161111
616.734	0.0162449
616.812	0.0161428
616.890	0.0162479
616.968	0.0162272
617.046	0.0162634
617.124	0.0163103
617.203	0.0162036
617.281	0.0160343
617.359	0.0161848
617.437	0.0162912
617.515	0.0162373
617.593	0.0163508
617.671	0.0163511
617.749	0.0161846
617.828	0.0161949
617.906	0.0161478
617.984	0.0162939
618.062	0.0161374
618.140	0.0162611
618.218	0.0162665
618.296	0.0163277
618.374	0.0162481
618.453	0.0162150
618.531	0.0163217
618.609	0.0161915
618.687	0.0160670
618.765	0.0162988
618.843	0.0162370
618.921	0.0161031
618.999	0.0161541
619.078	0.0162988
619.156	0.0162785
619.234	0.0163199
619.312	0.0160973
619.390	0.0160437
619.468	0.0161126
619.546	0.0162046
619.624	0.0162701
619.703	0.0162261
619.781	0.0162717
619.859	0.0164021
619.937	0.0162359
620.015	0.0162012
620.093	0.0162720
620.171	0.0162543
620.249	0.0163984
620.328	0.0163049
620.406	0.0163054
620.484	0.0163397
620.562	0.0161973
620.640	0.0162434
620.718	0.0162952
620.796	0.0162423
620.874	0.0162360
620.953	0.0163217
621.031	0.0161138
621.109	0.0162767
621.187	0.0161187
621.265	0.0161564
621.343	0.0163198
621.421	0.0161954
621.499	0.0162340
621.578	0.0162079
621.656	0.0161769
621.734	0.0162127
621.812	0.0162331
621.890	0.0161337
621.968	0.0163165
622.046	0.0162789
622.124	0.0161565
622.203	0.0160529
622.281	0.0162448
622.359	0.0163042
622.437	0.0161018
622.515	0.0163162
622.593	0.0163021
622.671	0.0162048
622.749	0.0161510
622.828	0.0161761
622.906	0.0162451
622.984	0.0163160
623.062	0.0162617
623.140	0.0162230
623.218	0.0163091
623.296	0.0163127
623.374	0.0162652
623.453	0.0162951
623.531	0.0161871
623.609	0.0160560
623.687	0.0163094
623.765	0.0163349
623.843	0.0162123
623.921	0.0162044
623.999	0.0162547
624.078	0.0162666
624.156	0.0164030
624.234	0.0160925
624.312	0.0162473
624.390	0.0162359
624.468	0.0162650
624.546	0.0162744
624.624	0.0163216
624.703	0.0162224
624.781	0.0161986
624.859	0.0161709
624.937	0.0162430
625.015	0.0163309
625.093	0.0163302
625.171	0.0161386
625.249	0.0163208
625.328	0.0162203
625.406	0.0162206
625.484	0.0163209
625.562	0.0162434
625.640	0.0163028
625.718	0.0162917
625.796	0.0162093
625.874	0.0163786
625.953	0.0162885
626.031	0.0160996
626.109	0.0162254
626.187	0.0162289
626.265	0.0161683
626.343	0.0163066
626.421	0.0162750
626.499	0.0161758
626.578	0.0162687
626.656	0.0163240
626.734	0.0161468
626.812	0.0163232
626.890	0.0162935
626.968	0.0163929
627.046	0.0162242
627.124	0.0162065
627.203	0.0161247
627.281	0.0162377
627.359	0.0162189
627.437	0.0163554
627.515	0.0162226
627.593	0.0162281
627.671	0.0162219
627.749	0.0162581
627.828	0.0164322
627.906	0.0162093
627.984	0.0162104
628.062	0.0162486
628.140	0.0161682
628.218	0.0162955
628.296	0.0162491
628.374	0.0162935
628.453	0.0162865
628.531	0.0162951
628.609	0.0163381
628.687	0.0162222
628.765	0.0162141
628.843	0.0163244
628.921	0.0162669
628.999	0.0163125
629.078	0.0162914
629.156	0.0162564
629.234	0.0163420
629.312	0.0162934
629.390	0.0162634
629.468	0.0162878
629.546	0.0162479
629.624	0.0163430
629.703	0.0163563
629.781	0.0162265
629.859	0.0162805
629.937	0.0162666
630.015	0.0162857
630.093	0.0162212
630.171	0.0163922
630.249	0.0163023
630.328	0.0163525
630.406	0.0162936
630.484	0.0163203
630.562	0.0163459
630.640	0.0162569
630.718	0.0164200
630.796	0.0162196
630.874	0.0163271
630.953	0.0163906
631.031	0.0162403
631.109	0.0162433
631.187	0.0162792
631.265	0.0164194
631.343	0.0163821
631.421	0.0162943
631.499	0.0163606
631.578	0.0163195
631.656	0.0163274
631.734	0.0162836
631.812	0.0161898
631.890	0.0164102
631.968	0.0162789
632.046	0.0163068
632.124	0.0162513
632.203	0.0163297
632.281	0.0162973
632.359	0.0161507
632.437	0.0164153
632.515	0.0163721
632.593	0.0162099
632.671	0.0163271
632.749	0.0163216
632.828	0.0163593
632.906	0.0163454
632.984	0.0162789
633.062	0.0163372
633.140	0.0163673
633.218	0.0162940
633.296	0.0162982
633.374	0.0162291
633.453	0.0162042
633.531	0.0162449
633.609	0.0162871
633.687	0.0162625
633.765	0.0164555
633.843	0.0162893
633.921	0.0163842
633.999	0.0163998
634.078	0.0163344
634.156	0.0162591
634.234	0.0161944
634.312	0.0163293
634.390	0.0163727
634.468	0.0163038
634.546	0.0162622
634.624	0.0163667
634.703	0.0162502
634.781	0.0162782
634.859	0.0162395
634.937	0.0162394
635.015	0.0163139
635.093	0.0164224
635.171	0.0163158
635.249	0.0163280
635.328	0.0164079
635.406	0.0162020
635.484	0.0162672
635.562	0.0162362
635.640	0.0164713
635.718	0.0163424
635.796	0.0162708
635.874	0.0162295
635.953	0.0161434
636.031	0.0163740
636.109	0.0164346
636.187	0.0163916
636.265	0.0162016
636.343	0.0162953
636.421	0.0164019
636.499	0.0163525
636.578	0.0163300
636.656	0.0164473
636.734	0.0163339
636.812	0.0163918
636.890	0.0163660
636.968	0.0162946
637.046	0.0162218
637.124	0.0162344
637.203	0.0163753
637.281	0.0163537
637.359	0.0162738
637.437	0.0162798
637.515	0.0162062
637.593	0.0162054
637.671	0.0164169
637.749	0.0164740
637.828	0.0162340
637.906	0.0163605
637.984	0.0160406
638.062	0.0163426
638.140	0.0162217
638.218	0.0161574
638.296	0.0162259
638.374	0.0161587
638.453	0.0161121
638.531	0.0162872
638.609	0.0161108
638.687	0.0160902
638.765	0.0163358
638.843	0.0163062
638.921	0.0161136
638.999	0.0160688
639.078	0.0161218
639.156	0.0160657
639.234	0.0162046
639.312	0.0161793
639.390	0.0161853
639.468	0.0162459
639.546	0.0162072
639.624	0.0162738
639.703	0.0160174
639.781	0.0162535
639.859	0.0163081
639.937	0.0160699
640.015	0.0163560
640.093	0.0161189
640.171	0.0160982
640.249	0.0159828
640.328	0.0161266
640.406	0.0162006
640.484	0.0162590
640.562	0.0161177
640.640	0.0160609
640.718	0.0162566
640.796	0.0160413
640.874	0.0160503
640.953	0.0161196
641.031	0.0163006
641.109	0.0162461
641.187	0.0162125
641.265	0.0161853
641.343	0.0161813
641.421	0.0163200
641.499	0.0162490
641.578	0.0161833
641.656	0.0162435
641.734	0.0162149
641.812	0.0161328
641.890	0.0162180
641.968	0.0163246
642.046	0.0162076
642.124	0.0162308
642.203	0.0161818
642.281	0.0163154
642.359	0.0162904
642.437	0.0162753
642.515	0.0161453
642.593	0.0161591
642.671	0.0163268
642.749	0.0162327
642.828	0.0161372
642.906	0.0162446
642.984	0.0163129
643.062	0.0162479
643.140	0.0162652
643.218	0.0161406
643.296	0.0162177
643.374	0.0162016
643.453	0.0162381
643.531	0.0162689
643.609	0.0162165
643.687	0.0161042
643.765	0.0162975
643.843	0.0161934
643.921	0.0161971
643.999	0.0161217
644.078	0.0162076
644.156	0.0162019
644.234	0.0161803
644.312	0.0161829
644.390	0.0161909
644.468	0.0161983
644.546	0.0160665
644.624	0.0162197
644.703	0.0162819
644.781	0.0160994
644.859	0.0161587
644.937	0.0162163
645.015	0.0162125
645.093	0.0161349
645.171	0.0160993
645.249	0.0161167
645.328	0.0161578
645.406	0.0162177
645.484	0.0162744
645.562	0.0160825
645.640	0.0162822
645.718	0.0161192
645.796	0.0162607
645.874	0.0161298
645.953	0.0163036
646.031	0.0161857
646.109	0.0162167
646.187	0.0163604
646.265	0.0160555
646.343	0.0160665
646.421	0.0163573
646.499	0.0162631
646.578	0.0162730
646.656	0.0161860
646.734	0.0162241
646.812	0.0161767
646.890	0.0161381
646.968	0.0162646
647.046	0.0162694
647.124	0.0162266
647.203	0.0160559
647.281	0.0161328
647.359	0.0162794
647.437	0.0161157
647.515	0.0161967
647.593	0.0162252
647.671	0.0163535
647.749	0.0162663
647.828	0.0163390
647.906	0.0163174
647.984	0.0162495
648.062	0.0163087
648.140	0.0164672
648.218	0.0162544
648.296	0.0163265
648.374	0.0163636
648.453	0.0163721
648.531	0.0163255
648.609	0.0160985
648.687	0.0163165
648.765	0.0163559
648.843	0.0162696
648.921	0.0162761
648.999	0.0162551
649.078	0.0163503
649.156	0.0163096
649.234	0.0163631
649.312	0.0163005
649.390	0.0163136
649.468	0.0162471
649.546	0.0164981
649.624	0.0164388
649.703	0.0163773
649.781	0.0164009
649.859	0.0162992
649.937	0.0163158
650.015	0.0162098
650.093	0.0163486
650.171	0.0163412
650.249	0.0164085
650.328	0.0164439
650.406	0.0162943
650.484	0.0163564
650.562	0.0163612
650.640	0.0162852
650.718	0.0164186
650.796	0.0163554
650.874	0.0164449
650.953	0.0164090
651.031	0.0164810
651.109	0.0163973
651.187	0.0163293
651.265	0.0163672
651.343	0.0163739
651.421	0.0164442
651.499	0.0163566
651.578	0.0163019
651.656	0.0163940
651.734	0.0164373
651.812	0.0162909
651.890	0.0163835
651.968	0.0164443
652.046	0.0163420
652.124	0.0164402
652.203	0.0164211
652.281	0.0164037
652.359	0.0162382
652.437	0.0163295
652.515	0.0163152
652.593	0.0163554
652.671	0.0163418
652.749	0.0163195
652.828	0.0163457
652.906	0.0164369
652.984	0.0163721
653.062	0.0163660
653.140	0.0161846
653.218	0.0164648
653.296	0.0164010
653.374	0.0164525
653.453	0.0161385
653.531	0.0163139
653.609	0.0163100
653.687	0.0162717
653.765	0.0160834
653.843	0.0161476
653.921	0.0162409
653.999	0.0163044
654.078	0.0162804
654.156	0.0164288
654.234	0.0163229
654.312	0.0163759
654.390	0.0162928
654.468	0.0163227
654.546	0.0163741
654.624	0.0163025
654.703	0.0162960
654.781	0.0163004
654.859	0.0164851
654.937	0.0162998
655.015	0.0163137
655.093	0.0162960
655.171	0.0163290
655.249	0.0163985
655.328	0.0163065
655.406	0.0163407
655.484	0.0162881
655.562	0.0163520
655.640	0.0162527
655.718	0.0163581
655.796	0.0163945
655.874	0.0164631
655.953	0.0163303
656.031	0.0162702
656.109	0.0162196
656.187	0.0163920
656.265	0.0161786
656.343	0.0162766
656.421	0.0162931
656.499	0.0163897
656.578	0.0161672
656.656	0.0164433
656.734	0.0163331
656.812	0.0162551
656.890	0.0162717
656.968	0.0162150
657.046	0.0161975
657.124	0.0163344
657.203	0.0162905
657.281	0.0162564
657.359	0.0164034
657.437	0.0161696
657.515	0.0163534
657.593	0.0163393
657.671	0.0161266
657.749	0.0161567
657.828	0.0164021
657.906	0.0162522
657.984	0.0163763
658.062	0.0164189
658.140	0.0163336
658.218	0.0163564
658.296	0.0163463
658.374	0.0163036
658.453	0.0163029
658.531	0.0162812
658.609	0.0161916
658.687	0.0162832
658.765	0.0163186
658.843	0.0163951
658.921	0.0162269
658.999	0.0163058
659.078	0.0162784
659.156	0.0162070
659.234	0.0162996
659.312	0.0162504
659.390	0.0162076
659.468	0.0163175
659.546	0.0163300
659.624	0.0162920
659.703	0.0161599
659.781	0.0161354
659.859	0.0162560
659.937	0.0162481
660.015	0.0163537
660.093	0.0162254
660.171	0.0163165
660.249	0.0161921
660.328	0.0162468
660.406	0.0162126
660.484	0.0162458
660.562	0.0161502
660.640	0.0162096
660.718	0.0162101
660.796	0.0162125
660.874	0.0162646
660.953	0.0161803
661.031	0.0161707
661.109	0.0162177
661.187	0.0163608
661.265	0.0162342
661.343	0.0161845
661.421	0.0161870
661.499	0.0162540
661.578	0.0161926
661.656	0.0163028
661.734	0.0162553
661.812	0.0160813
661.890	0.0162876
661.968	0.0162925
662.046	0.0161904
662.124	0.0161952
662.203	0.0163316
662.281	0.0163187
662.359	0.0162220
662.437	0.0163183
662.515	0.0162888
662.593	0.0161819
662.671	0.0162247
662.749	0.0163058
662.828	0.0162601
662.906	0.0163323
662.984	0.0162611
663.062	0.0161174
663.140	0.0162387
663.218	0.0163028
663.296	0.0163743
663.374	0.0162990
663.453	0.0160845
663.531	0.0161780
663.609	0.0163210
663.687	0.0161894
663.765	0.0161228
663.843	0.0161561
663.921	0.0161290
663.999	0.0162725
664.078	0.0162187
664.156	0.0161677
664.234	0.0162163
664.312	0.0160651
664.390	0.0162023
664.468	0.0161886
664.546	0.0161785
664.624	0.0162925
664.703	0.0162514
664.781	0.0162140
664.859	0.0160705
664.937	0.0160925
665.015	0.0162442
665.093	0.0162004
665.171	0.0161407
665.249	0.0162112
665.328	0.0162640
665.406	0.0162695
665.484	0.0161181
665.562	0.0162778
665.640	0.0162359
665.718	0.0162989
665.796	0.0162529
665.874	0.0162986
665.953	0.0160667
666.031	0.0162551
666.109	0.0162180
666.187	0.0162976
666.265	0.0161584
666.343	0.0161725
666.421	0.0163167
666.499	0.0161057
666.578	0.0161208
666.656	0.0161572
666.734	0.0162363
666.812	0.0162370
666.890	0.0162994
666.968	0.0163963
667.046	0.0161238
667.124	0.0162605
667.203	0.0161797
667.281	0.0160923
667.359	0.0162318
667.437	0.0162585
667.515	0.0162789
667.593	0.0161709
667.671	0.0161197
667.749	0.0162914
667.828	0.0162511
667.906	0.0162133
667.984	0.0162366
668.062	0.0162794
668.140	0.0161306
668.218	0.0161214
668.296	0.0161338
668.374	0.0162279
668.453	0.0162483
668.531	0.0161707
668.609	0.0162485
668.687	0.0162585
668.765	0.0162650
668.843	0.0161900
668.921	0.0160226
668.999	0.0160911
669.078	0.0163793
669.156	0.0163481
669.234	0.0162975
669.312	0.0162402
669.390	0.0162907
669.468	0.0160702
669.546	0.0160809
669.624	0.0163136
669.703	0.0162257
669.781	0.0161623
669.859	0.0161993
669.937	0.0161544
670.015	0.0162484
670.093	0.0161987
670.171	0.0160836
670.249	0.0163772
670.328	0.0162053
670.406	0.0161110
670.484	0.0162641
670.562	0.0162161
670.640	0.0162246
670.718	0.0163738
670.796	0.0163676
670.874	0.0162069
670.953	0.0163867
671.031	0.0162349
671.109	0.0162267
671.187	0.0162352
671.265	0.0162265
671.343	0.0162867
671.421	0.0162524
671.499	0.0162001
671.578	0.0162174
671.656	0.0162457
671.734	0.0162727
671.812	0.0162688
671.890	0.0162912
671.968	0.0163557
672.046	0.0162520
672.124	0.0163287
672.203	0.0163720
672.281	0.0162451
672.359	0.0163050
672.437	0.0162917
672.515	0.0163998
672.593	0.0163230
672.671	0.0162654
672.749	0.0162286
672.828	0.0163875
672.906	0.0161964
672.984	0.0162554
673.062	0.0164027
673.140	0.0163270
673.218	0.0163151
673.296	0.0162830
673.374	0.0161895
673.453	0.0163241
673.531	0.0163235
673.609	0.0162700
673.687	0.0162167
673.765	0.0162130
673.843	0.0162955
673.921	0.0163039
673.999	0.0162835
674.078	0.0163987
674.156	0.0162951
674.234	0.0162542
674.312	0.0162443
674.390	0.0164743
674.468	0.0164097
674.546	0.0164689
674.624	0.0161752
674.703	0.0162243
674.781	0.0162350
674.859	0.0161795
674.937	0.0162952
675.015	0.0163025
675.093	0.0163078
675.171	0.0161447
675.249	0.0162646
675.328	0.0162749
675.406	0.0163303
675.484	0.0162279
675.562	0.0163974
675.640	0.0163013
675.718	0.0161862
675.796	0.0163684
675.874	0.0163591
675.953	0.0163390
676.031	0.0162021
676.109	0.0162586
676.187	0.0163553
676.265	0.0163239
676.343	0.0161438
676.421	0.0162782
676.499	0.0162005
676.578	0.0163217
676.656	0.0162888
676.734	0.0163104
676.812	0.0161972
676.890	0.0163774
676.968	0.0163036
677.046	0.0161600
677.124	0.0161275
677.203	0.0163927
677.281	0.0163499
677.359	0.0161510
677.437	0.0162786
677.515	0.0160887
677.593	0.0163139
677.671	0.0162651
677.749	0.0163480
677.828	0.0163692
677.906	0.0163163
677.984	0.0162164
678.062	0.0161996
678.140	0.0162803
678.218	0.0161712
678.296	0.0163017
678.374	0.0162511
678.453	0.0162816
678.531	0.0161945
678.609	0.0161516
678.687	0.0163358
678.765	0.0163093
678.843	0.0163013
678.921	0.0162962
678.999	0.0163567
679.078	0.0162921
679.156	0.0162144
679.234	0.0162144
679.312	0.0163741
679.390	0.0163204
679.468	0.0162914
679.546	0.0162211
679.624	0.0161962
679.703	0.0162420
679.781	0.0162370
679.859	0.0162728
679.937	0.0162248
680.015	0.0163162
680.093	0.0162664
680.171	0.0162549
680.249	0.0162071
680.328	0.0163657
680.406	0.0160933
680.484	0.0162450
680.562	0.0162487
680.640	0.0162414
680.718	0.0162553
680.796	0.0162878
680.874	0.0163201
680.953	0.0163766
681.031	0.0163689
681.109	0.0164230
681.187	0.0162358
681.265	0.0161922
681.343	0.0162281
681.421	0.0162855
681.499	0.0163648
681.578	0.0164288
681.656	0.0162435
681.734	0.0161938
681.812	0.0162720
681.890	0.0163432
681.968	0.0162324
682.046	0.0161954
682.124	0.0163440
682.203	0.0162029
682.281	0.0162151
682.359	0.0163540
682.437	0.0163477
682.515	0.0160639
682.593	0.0162815
682.671	0.0163142
682.749	0.0163170
682.828	0.0162187
682.906	0.0163810
682.984	0.0164319
683.062	0.0163146
683.140	0.0161619
683.218	0.0162392
683.296	0.0162529
683.374	0.0162610
683.453	0.0161829
683.531	0.0162326
683.609	0.0161549
683.687	0.0163481
683.765	0.0163268
683.843	0.0162092
683.921	0.0161098
683.999	0.0162170
684.078	0.0162249
684.156	0.0160896
684.234	0.0162608
684.312	0.0163357
684.390	0.0161883
684.468	0.0162590
684.546	0.0163040
684.624	0.0162064
684.703	0.0161115
684.781	0.0161871
684.859	0.0162579
684.937	0.0162132
685.015	0.0161502
685.093	0.0162910
685.171	0.0162073
685.249	0.0161056
685.328	0.0160829
685.406	0.0162636
685.484	0.0163091
685.562	0.0162938
685.640	0.0162313
685.718	0.0162302
685.796	0.0163567
685.874	0.0161781
685.953	0.0161755
686.031	0.0163329
686.109	0.0162519
686.187	0.0160578
686.265	0.0162448
686.343	0.0162718
686.421	0.0162917
686.499	0.0162183
686.578	0.0162523
686.656	0.0161502
686.734	0.0161961
686.812	0.0161738
686.890	0.0163585
686.968	0.0163479
687.046	0.0160712
687.124	0.0162018
687.203	0.0163103
687.281	0.0162870
687.359	0.0162513
687.437	0.0161551
687.515	0.0161565
687.593	0.0161425
687.671	0.0162902
687.749	0.0162592
687.828	0.0162669
687.906	0.0163249
687.984	0.0162971
688.062	0.0159839
688.140	0.0161253
688.218	0.0161156
688.296	0.0161309
688.374	0.0163112
688.453	0.0161775
688.531	0.0162144
688.609	0.0162530
688.687	0.0162474
688.765	0.0162863
688.843	0.0162112
688.921	0.0161751
688.999	0.0161938
689.078	0.0161790
689.156	0.0162613
689.234	0.0162697
689.312	0.0162323
689.390	0.0162127
689.468	0.0161258
689.546	0.0161376
689.624	0.0162548
689.703	0.0162367
689.781	0.0161986
689.859	0.0162219
689.937	0.0161977
690.015	0.0162802
690.093	0.0162737
690.171	0.0162293
690.249	0.0161861
690.328	0.0162514
690.406	0.0164030
690.484	0.0163189
690.562	0.0160941
690.640	0.0161512
690.718	0.0161994
690.796	0.0163285
690.874	0.0162152
690.953	0.0162799
691.031	0.0162505
691.109	0.0162747
691.187	0.0162417
691.265	0.0161829
691.343	0.0161124
691.421	0.0160815
691.499	0.0161049
691.578	0.0162334
691.656	0.0163521
691.734	0.0162234
691.812	0.0162035
691.890	0.0161517
691.968	0.0162295
692.046	0.0163757
692.124	0.0163268
692.203	0.0161490
692.281	0.0162707
692.359	0.0162114
692.437	0.0161433
692.515	0.0162406
692.593	0.0161654
692.671	0.0162214
692.749	0.0162399
692.828	0.0162553
692.906	0.0162673
692.984	0.0161633
693.062	0.0161601
693.140	0.0161681
693.218	0.0162875
693.296	0.0163103
693.374	0.0162406
693.453	0.0163494
693.531	0.0162688
693.609	0.0161971
693.687	0.0161694
693.765	0.0161607
693.843	0.0162394
693.921	0.0163905
693.999	0.0163531
694.078	0.0162530
694.156	0.0161828
694.234	0.0162428
694.312	0.0162766
694.390	0.0162425
694.468	0.0161815
694.546	0.0162695
694.624	0.0162586
694.703	0.0162226
694.781	0.0162754
694.859	0.0163493
694.937	0.0162727
695.015	0.0163056
695.093	0.0162720
695.171	0.0161699
695.249	0.0161545
695.328	0.0163506
695.406	0.0162659
695.484	0.0160939
695.562	0.0161882
695.640	0.0162112
695.718	0.0163020
695.796	0.0162830
695.874	0.0162429
695.953	0.0162697
696.031	0.0162971
696.109	0.0163704
696.187	0.0162521
696.265	0.0161929
696.343	0.0162054
696.421	0.0162484
696.499	0.0163261
696.578	0.0162193
696.656	0.0162336
696.734	0.0161908
696.812	0.0163060
696.890	0.0162365
696.968	0.0162414
697.046	0.0161699
697.124	0.0161061
697.203	0.0163140
697.281	0.0162753
697.359	0.0162078
697.437	0.0163228
697.515	0.0162498
697.593	0.0163583
697.671	0.0162826
697.749	0.0161339
697.828	0.0163206
697.906	0.0162804
697.984	0.0162481
698.062	0.0162984
698.140	0.0163628
698.218	0.0162850
698.296	0.0163131
698.374	0.0162814
698.453	0.0162916
698.531	0.0162605
698.609	0.0163778
698.687	0.0162576
698.765	0.0163392
698.843	0.0162471
698.921	0.0163076
698.999	0.0163464
699.078	0.0162399
699.156	0.0162096
699.234	0.0161878
699.312	0.0162084
699.390	0.0162215
699.468	0.0163052
699.546	0.0163712
699.624	0.0162067
699.703	0.0163512
699.781	0.0162444
699.859	0.0161112
699.937	0.0163354
700.015	0.0161617
700.093	0.0163377
700.171	0.0162187
700.249	0.0161227
700.328	0.0161562
700.406	0.0163074
700.484	0.0161980
700.562	0.0163216
700.640	0.0162067
700.718	0.0163081
700.796	0.0162974
700.874	0.0162530
700.953	0.0162653
701.031	0.0161665
701.109	0.0162029
701.187	0.0162598
701.265	0.0160472
701.343	0.0163326
701.421	0.0162931
701.499	0.0163974
701.578	0.0162749
701.656	0.0161335
701.734	0.0162477
701.812	0.0162203
701.890	0.0162029
701.968	0.0162068
702.046	0.0163409
702.124	0.0162816
702.203	0.0162117
702.281	0.0161540
702.359	0.0161273
702.437	0.0163097
702.515	0.0164127
702.593	0.0162574
702.671	0.0162710
702.749	0.0162253
702.828	0.0162549
702.906	0.0162226
702.984	0.0161962
703.062	0.0162048
703.140	0.0163615
703.218	0.0162125
703.296	0.0161173
703.374	0.0162067
703.453	0.0163451
703.531	0.0163096
703.609	0.0162455
703.687	0.0161947
703.765	0.0161638
703.843	0.0163222
703.921	0.0163039
703.999	0.0163434
704.078	0.0161517
704.156	0.0162891
704.234	0.0162355
704.312	0.0162869
704.390	0.0163815
704.468	0.0163880
704.546	0.0162872
704.624	0.0161682
704.703	0.0162751
704.781	0.0162807
704.859	0.0162188
704.937	0.0162441
705.015	0.0161948
705.093	0.0161306
705.171	0.0163013
705.249	0.0162818
705.328	0.0163099
705.406	0.0162179
705.484	0.0161269
705.562	0.0161756
705.640	0.0161956
705.718	0.0162316
705.796	0.0162302
705.874	0.0161237
705.953	0.0162592
706.031	0.0162379
706.109	0.0162544
706.187	0.0161461
706.265	0.0161713
706.343	0.0162818
706.421	0.0162342
706.499	0.0161774
706.578	0.0160994
706.656	0.0163969
706.734	0.0162820
706.812	0.0162525
706.890	0.0161647
706.968	0.0162589
707.046	0.0162407
707.124	0.0162860
707.203	0.0163625
707.281	0.0162585
707.359	0.0161690
707.437	0.0161512
707.515	0.0161604
707.593	0.0162982
707.671	0.0163216
707.749	0.0163169
707.828	0.0162249
707.906	0.0161602
707.984	0.0163055
708.062	0.0162147
708.140	0.0163256
708.218	0.0162288
708.296	0.0161778
708.374	0.0163637
708.453	0.0164346
708.531	0.0162697
708.609	0.0162221
708.687	0.0162286
708.765	0.0162417
708.843	0.0163158
708.921	0.0163078
708.999	0.0161939
709.078	0.0161365
709.156	0.0161844
709.234	0.0162951
709.312	0.0162732
709.390	0.0162729
709.468	0.0162174
709.546	0.0161904
709.624	0.0162733
709.703	0.0162572
709.781	0.0162902
709.859	0.0162859
709.937	0.0162532
710.015	0.0162317
710.093	0.0160504
710.171	0.0161930
710.249	0.0162581
710.328	0.0163699
710.406	0.0162408
710.484	0.0162946
710.562	0.0161579
710.640	0.0161764
710.718	0.0162663
710.796	0.0163205
710.874	0.0162249
710.953	0.0162471
711.031	0.0162627
711.109	0.0161763
711.187	0.0162698
711.265	0.0162511
711.343	0.0162251
711.421	0.0163203
711.499	0.0162508
711.578	0.0161222
711.656	0.0161978
711.734	0.0163055
711.812	0.0162481
711.890	0.0161983
711.968	0.0162299
712.046	0.0162334
712.124	0.0162497
712.203	0.0161591
712.281	0.0161904
712.359	0.0163029
712.437	0.0163001
712.515	0.0162964
712.593	0.0162530
712.671	0.0163104
712.749	0.0161434
712.828	0.0162367
712.906	0.0163195
712.984	0.0163090
713.062	0.0162991
713.140	0.0163455
713.218	0.0164041
713.296	0.0162061
713.374	0.0162612
713.453	0.0163055
713.531	0.0162368
713.609	0.0163783
713.687	0.0163795
713.765	0.0162292
713.843	0.0162064
713.921	0.0162453
713.999	0.0163332
714.078	0.0163757
714.156	0.0163913
714.234	0.0163432
714.312	0.0164153
714.390	0.0163311
714.468	0.0163565
714.546	0.0162523
714.624	0.0162920
714.703	0.0163157
714.781	0.0163828
714.859	0.0162929
714.937	0.0162098
715.015	0.0163721
715.093	0.0162379
715.171	0.0163673
715.249	0.0163582
715.328	0.0162981
715.406	0.0164067
715.484	0.0162528
715.562	0.0162381
715.640	0.0162449
715.718	0.0163644
715.796	0.0162119
715.874	0.0161475
715.953	0.0162823
716.031	0.0162671
716.109	0.0162929
716.187	0.0162708
716.265	0.0162029
716.343	0.0161967
716.421	0.0162920
716.499	0.0162885
716.578	0.0161935
716.656	0.0161983
716.734	0.0162799
716.812	0.0163012
716.890	0.0161262
716.968	0.0160884
717.046	0.0161640
717.124	0.0161340
717.203	0.0162769
717.281	0.0163671
717.359	0.0161936
717.437	0.0163004
717.515	0.0162560
717.593	0.0163036
717.671	0.0162394
717.749	0.0162294
717.828	0.0163125
717.906	0.0162439
717.984	0.0162815
718.062	0.0162701
718.140	0.0163422
718.218	0.0162835
718.296	0.0160529
718.374	0.0161556
718.453	0.0162049
718.531	0.0163186
718.609	0.0163425
718.687	0.0162482
718.765	0.0163148
718.843	0.0162218
718.921	0.0162561
718.999	0.0163280
719.078	0.0162516
719.156	0.0163749
719.234	0.0162666
719.312	0.0163040
719.390	0.0162823
719.468	0.0163528
719.546	0.0163242
719.624	0.0162289
719.703	0.0163391
719.781	0.0162352
719.859	0.0160639
719.937	0.0163628
720.015	0.0161365
720.093	0.0162720
720.171	0.0163628
720.249	0.0161131
720.328	0.0162683
720.406	0.0163226
720.484	0.0162392
720.562	0.0163027
720.640	0.0163465
720.718	0.0162919
720.796	0.0162303
720.874	0.0162224
720.953	0.0163222
721.031	0.0164117
721.109	0.0163013
721.187	0.0163383
721.265	0.0162169
721.343	0.0163129
721.421	0.0162822
721.499	0.0161049
721.578	0.0161269
721.656	0.0160929
721.734	0.0161716
721.812	0.0163329
721.890	0.0163139
721.968	0.0162109
722.046	0.0161573
722.124	0.0161744
722.203	0.0163134
722.281	0.0162570
722.359	0.0162011
722.437	0.0162864
722.515	0.0163506
722.593	0.0162273
722.671	0.0162225
722.749	0.0160863
722.828	0.0161121
722.906	0.0161472
722.984	0.0161915
723.062	0.0161245
723.140	0.0162086
723.218	0.0161469
723.296	0.0161076
723.374	0.0160822
723.453	0.0160884
723.531	0.0159646
723.609	0.0162080
723.687	0.0162177
723.765	0.0162206
723.843	0.0162221
723.921	0.0161742
723.999	0.0164465
724.078	0.0164367
724.156	0.0164997
724.234	0.0165805
724.312	0.0166150
724.390	0.0164824
724.468	0.0167319
724.546	0.0166476
724.624	0.0164842
724.703	0.0166727
724.781	0.0166477
724.859	0.0166864
724.937	0.0165389
725.015	0.0165266
725.093	0.0164538
725.171	0.0164161
725.249	0.0164129
725.328	0.0162135
725.406	0.0161169
725.484	0.0160428
725.562	0.0158313
725.640	0.0156406
725.718	0.0154519
725.796	0.0154263
725.874	0.0152014
725.953	0.0152515
726.031	0.0152808
726.109	0.0152475
726.187	0.0153722
726.265	0.0153976
726.343	0.0157501
726.421	0.0157528
726.499	0.0160630
726.578	0.0162160
726.656	0.0164847
726.734	0.0167732
726.812	0.0167606
726.890	0.0169789
726.968	0.0170232
727.046	0.0170953
727.124	0.0171442
727.203	0.0172086
727.281	0.0171753
727.359	0.0169128
727.437	0.0167265
727.515	0.0167672
727.593	0.0166512
727.671	0.0165105
727.749	0.0163912
727.828	0.0161781
727.906	0.0160956
727.984	0.0158856
728.062	0.0159825
728.140	0.0159171
728.218	0.0158894
728.296	0.0160690
728.374	0.0161447
728.453	0.0160342
728.531	0.0163600
728.609	0.0165931
728.687	0.0167778
728.765	0.0168103
728.843	0.0168977
728.921	0.0171096
728.999	0.0171651
729.078	0.0172375
729.156	0.0172114
729.234	0.0169766
729.312	0.0168717
729.390	0.0165786
729.468	0.0162595
729.546	0.0159550
729.624	0.0156506
729.703	0.0153999
729.781	0.0152384
729.859	0.0150302
729.937	0.0149384
730.015	0.0147749
730.093	0.0146886
730.171	0.0147466
730.249	0.0146652
730.328	0.0148161
730.406	0.0147021
730.484	0.0150387
730.562	0.0149155
730.640	0.0151469
730.718	0.0152489
730.796	0.0155217
730.874	0.0155717
730.953	0.0156165
731.031	0.0158625
731.109	0.0160831
731.187	0.0164796
731.265	0.0169145
731.343	0.0172094
731.421	0.0174702
731.499	0.0179469
731.578	0.0182761
731.656	0.0182593
731.734	0.0183956
731.812	0.0186224
731.890	0.0184222
731.968	0.0185561
732.046	0.0181999
732.124	0.0179142
732.203	0.0178302
732.281	0.0174071
732.359	0.0172163
732.437	0.0168029
732.515	0.0165464
732.593	0.0161801
732.671	0.0160189
732.749	0.0155184
732.828	0.0153709
732.906	0.0148282
732.984	0.0148269
733.062	0.0146274
733.140	0.0144933
733.218	0.0144661
733.296	0.0145683
733.374	0.0147423
733.453	0.0149841
733.531	0.0153683
733.609	0.0156853
733.687	0.0160586
733.765	0.0163789
733.843	0.0167748
733.921	0.0169096
733.999	0.0170432
734.078	0.0171944
734.156	0.0173740
734.234	0.0172519
734.312	0.0173662
734.390	0.0171078
734.468	0.0170994
734.546	0.0170172
734.624	0.0168777
734.703	0.0167336
734.781	0.0165751
734.859	0.0162235
734.937	0.0160829
735.015	0.0157610
735.093	0.0155142
735.171	0.0152894
735.249	0.0150986
735.328	0.0150808
735.406	0.0150056
735.484	0.0148416
735.562	0.0147108
735.640	0.0147002
735.718	0.0146678
735.796	0.0146852
735.874	0.0146592
735.953	0.0149062
736.031	0.0149898
736.109	0.0151913
736.187	0.0154755
736.265	0.0156705
736.343	0.0159483
736.421	0.0161800
736.499	0.0165009
736.578	0.0166178
736.656	0.0170221
736.734	0.0174903
736.812	0.0177512
736.890	0.0179646
736.968	0.0184461
737.046	0.0188159
737.124	0.0190331
737.203	0.0191859
737.281	0.0192832
737.359	0.0193417
737.437	0.0192549
737.515	0.0189935
737.593	0.0186343
737.671	0.0182912
737.749	0.0176116
737.828	0.0169508
737.906	0.0164200
737.984	0.0158308
738.062	0.0153821
738.140	0.0149558
738.218	0.0145818
738.296	0.0142458
738.374	0.0142447
738.453	0.0144820
738.531	0.0146500
738.609	0.0148066
738.687	0.0149162
738.765	0.0151276
738.843	0.0151949
738.921	0.0153486
738.999	0.0156424
739.078	0.0157442
739.156	0.0155924
739.234	0.0155359
739.312	0.0156871
739.390	0.0157786
739.468	0.0156582
739.546	0.0155415
739.624	0.0155717
739.703	0.0155735
739.781	0.0155911
739.859	0.0155912
739.937	0.0156762
740.015	0.0158261
740.093	0.0160104
740.171	0.0162486
740.249	0.0163290
740.328	0.0164078
740.406	0.0165205
740.484	0.0165526
740.562	0.0165704
740.640	0.0166054
740.718	0.0165774
740.796	0.0165245
740.874	0.0165784
740.953	0.0165880
741.031	0.0163062
741.109	0.0164474
741.187	0.0164584
741.265	0.0164780
741.343	0.0163419
741.421	0.0163734
741.499	0.0164822
741.578	0.0166428
741.656	0.0167363
741.734	0.0167280
741.812	0.0170023
741.890	0.0169412
741.968	0.0173021
742.046	0.0174722
742.124	0.0175143
742.203	0.0177662
742.281	0.0178040
742.359	0.0176330
742.437	0.0175198
742.515	0.0173893
742.593	0.0172028
742.671	0.0169745
742.749	0.0167789
742.828	0.0164166
742.906	0.0161593
742.984	0.0159426
743.062	0.0158002
743.140	0.0157597
743.218	0.0153996
743.296	0.0153390
743.374	0.0151586
743.453	0.0151500
743.531	0.0152627
743.609	0.0149763
743.687	0.0148649
743.765	0.0149316
743.843	0.0149566
743.921	0.0151083
743.999	0.0150716
744.078	0.0153082
744.156	0.0154465
744.234	0.0157161
744.312	0.0159073
744.390	0.0159167
744.468	0.0162096
744.546	0.0163255
744.624	0.0164048
744.703	0.0165474
744.781	0.0164316
744.859	0.0165785
744.937	0.0165074
745.015	0.0165304
745.093	0.0163595
745.171	0.0163748
745.249	0.0162513
745.328	0.0161998
745.406	0.0162538
745.484	0.0162589
745.562	0.0161333
745.640	0.0161295
745.718	0.0162597
745.796	0.0162857
745.874	0.0164770
745.953	0.0166346
746.031	0.0167677
746.109	0.0169989
746.187	0.0170917
746.265	0.0172581
746.343	0.0172402
746.421	0.0172954
746.499	0.0173851
746.578	0.0173795
746.656	0.0172581
746.734	0.0171703
746.812	0.0169246
746.890	0.0168604
746.968	0.0167815
747.046	0.0165987
747.124	0.0162374
747.203	0.0161241
747.281	0.0160143
747.359	0.0158824
747.437	0.0156921
747.515	0.0157452
747.593	0.0157944
747.671	0.0158113
747.749	0.0158923
747.828	0.0160997
747.906	0.0161874
747.984	0.0162370
748.062	0.0161731
748.140	0.0162355
748.218	0.0161387
748.296	0.0162738
748.374	0.0161379
748.453	0.0159061
748.531	0.0158680
748.609	0.0159315
748.687	0.0155798
748.765	0.0154642
748.843	0.0155150
748.921	0.0153781
748.999	0.0153060
749.078	0.0153801
749.156	0.0154724
749.234	0.0156092
749.312	0.0155959
749.390	0.0156583
749.468	0.0159605
749.546	0.0158784
749.624	0.0161075
749.703	0.0162726
749.781	0.0163008
749.859	0.0163116
749.937	0.0163234
750.015	0.0163175
750.093	0.0162650
750.171	0.0163952
750.249	0.0163927
750.328	0.0164005
750.406	0.0165055
750.484	0.0163978
750.562	0.0164098
750.640	0.0165131
750.718	0.0165880
750.796	0.0167949
750.874	0.0168691
750.953	0.0169143
751.031	0.0170042
751.109	0.0170160
751.187	0.0171645
751.265	0.0170913
751.343	0.0171098
751.421	0.0170332
751.499	0.0169521
751.578	0.0167088
751.656	0.0165511
751.734	0.0164562
751.812	0.0165009
751.890	0.0162392
751.968	0.0162951
752.046	0.0162009
752.124	0.0161563
752.203	0.0162516
752.281	0.0162949
752.359	0.0160333
752.437	0.0162513
752.515	0.0162205
752.593	0.0161722
752.671	0.0163017
752.749	0.0162037
752.828	0.0162267
752.906	0.0162919
752.984	0.0161465
753.062	0.0159316
753.140	0.0159181
753.218	0.0158299
753.296	0.0159355
753.374	0.0156641
753.453	0.0156606
753.531	0.0157203
753.609	0.0156759
753.687	0.0158508
753.765	0.0157524
753.843	0.0157584
753.921	0.0158537
753.999	0.0159805
754.078	0.0160342
754.156	0.0162042
754.234	0.0161839
754.312	0.0162322
754.390	0.0164556
754.468	0.0163618
754.546	0.0163991
754.624	0.0164671
754.703	0.0164178
754.781	0.0165119
754.859	0.0162878
754.937	0.0161368
755.015	0.0162114
755.093	0.0160107
755.171	0.0160876
755.249	0.0161203
755.328	0.0162672
755.406	0.0160708
755.484	0.0161362
755.562	0.0161973
755.640	0.0163237
755.718	0.0164145
755.796	0.0165374
755.874	0.0166669
755.953	0.0167024
756.031	0.0168523
756.109	0.0170409
756.187	0.0169849
756.265	0.0168201
756.343	0.0167688
756.421	0.0167566
756.499	0.0166691
756.578	0.0165413
756.656	0.0164390
756.734	0.0160757
756.812	0.0160834
756.890	0.0160400
756.968	0.0157613
757.046	0.0156422
757.124	0.0157220
757.203	0.0158367
757.281	0.0157526
757.359	0.0158423
757.437	0.0156309
757.515	0.0157871
757.593	0.0159421
757.671	0.0160163
757.749	0.0162841
757.828	0.0161890
757.906	0.0162642
757.984	0.0163380
758.062	0.0165179
758.140	0.0164769
758.218	0.0163833
758.296	0.0164940
758.374	0.0165628
758.453	0.0164506
758.531	0.0165833
758.609	0.0166193
758.687	0.0165662
758.765	0.0163573
758.843	0.0165253
758.921	0.0164065
758.999	0.0164700
759.078	0.0163091
759.156	0.0161688
759.234	0.0160833
759.312	0.0160260
759.390	0.0158025
759.468	0.0157856
759.546	0.0157989
759.624	0.0156802
759.703	0.0156577
759.781	0.0156611
759.859	0.0156741
759.937	0.0157510
760.015	0.0157464
760.093	0.0158781
760.171	0.0159097
760.249	0.0160122
760.328	0.0161009
760.406	0.0161274
760.484	0.0161067
760.562	0.0161714
760.640	0.0162360
760.718	0.0163055
760.796	0.0163129
760.874	0.0163673
760.953	0.0163887
761.031	0.0163214
761.109	0.0166376
761.187	0.0167580
761.265	0.0169701
761.343	0.0170032
761.421	0.0170091
761.499	0.0170136
761.578	0.0171375
761.656	0.0171005
761.734	0.0170033
761.812	0.0169353
761.890	0.0169607
761.968	0.0167606
762.046	0.0165930
762.124	0.0162846
762.203	0.0161655
762.281	0.0161234
762.359	0.0158726
762.437	0.0157536
762.515	0.0156750
762.593	0.0154987
762.671	0.0155114
762.749	0.0153679
762.828	0.0153544
762.906	0.0153735
762.984	0.0155816
763.062	0.0155189
763.140	0.0157610
763.218	0.0156870
763.296	0.0160989
763.374	0.0160638
763.453	0.0162510
763.531	0.0163386
763.609	0.0163561
763.687	0.0166332
763.765	0.0166481
763.843	0.0165137
763.921	0.0167101
763.999	0.0166988
764.078	0.0167905
764.156	0.0168143
764.234	0.0167653
764.312	0.0168558
764.390	0.0169441
764.468	0.0167533
764.546	0.0167943
764.624	0.0166844
764.703	0.0166587
764.781	0.0166509
764.859	0.0164024
764.937	0.0164142
765.015	0.0161764
765.093	0.0159783
765.171	0.0156654
765.249	0.0155191
765.328	0.0153989
765.406	0.0151292
765.484	0.0148897
765.562	0.0147238
765.640	0.0145647
765.718	0.0145437
765.796	0.0144194
765.874	0.0145220
765.953	0.0144113
766.031	0.0144707
766.109	0.0148376
766.187	0.0151402
766.265	0.0154774
766.343	0.0157333
766.421	0.0163998
766.499	0.0168707
766.578	0.0174651
766.656	0.0178265
766.734	0.0181863
766.812	0.0186570
766.890	0.0185790
766.968	0.0190143
767.046	0.0188435
767.124	0.0187308
767.203	0.0187351
767.281	0.0186284
767.359	0.0182349
767.437	0.0179037
767.515	0.0175492
767.593	0.0173565
767.671	0.0169292
767.749	0.0167036
767.828	0.0163979
767.906	0.0160310
767.984	0.0157676
768.062	0.0154916
768.140	0.0151765
768.218	0.0151134
768.296	0.0150591
768.374	0.0149466
768.453	0.0149184
768.531	0.0149149
768.609	0.0148701
768.687	0.0151974
768.765	0.0152485
768.843	0.0153632
768.921	0.0154710
768.999	0.0153967
769.078	0.0156333
769.156	0.0157246
769.234	0.0156547
769.312	0.0155815
769.390	0.0156942
769.468	0.0158797
769.546	0.0159250
769.624	0.0159146
769.703	0.0160967
769.781	0.0160634
769.859	0.0161037
769.937	0.0162877
770.015	0.0160784
770.093	0.0162523
770.171	0.0164018
770.249	0.0162415
770.328	0.0162873
770.406	0.0163728
770.484	0.0163102
770.562	0.0164048
770.640	0.0166958
770.718	0.0165619
770.796	0.0165202
770.874	0.0166132
770.953	0.0165441
771.031	0.0163440
771.109	0.0164352
771.187	0.0165585
771.265	0.0166262
771.343	0.0165540
771.421	0.0166976
771.499	0.0167325
771.578	0.0168030
771.656	0.0167902
771.734	0.0167604
771.812	0.0168118
771.890	0.0166370
771.968	0.0167043
772.046	0.0166064
772.124	0.0166357
772.203	0.0166016
772.281	0.0165234
772.359	0.0166695
772.437	0.0163985
772.515	0.0164372
772.593	0.0166525
772.671	0.0167300
772.749	0.0167079
772.828	0.0167293
772.906	0.0167525
772.984	0.0168226
773.062	0.0167019
773.140	0.0167597
773.218	0.0165647
773.296	0.0164527
773.374	0.0163285
773.453	0.0161436
773.531	0.0161025
773.609	0.0159428
773.687	0.0157890
773.765	0.0157597
773.843	0.0156570
773.921	0.0156703
773.999	0.0155240
774.078	0.0156012
774.156	0.0156638
774.234	0.0157413
774.312	0.0156390
774.390	0.0157401
774.468	0.0158336
774.546	0.0159232
774.624	0.0158778
774.703	0.0157487
774.781	0.0158995
774.859	0.0161840
774.937	0.0161294
775.015	0.0160016
775.093	0.0160723
775.171	0.0160123
775.249	0.0159394
775.328	0.0158880
775.406	0.0159319
775.484	0.0157621
775.562	0.0156207
775.640	0.0157141
775.718	0.0154786
775.796	0.0156812
775.874	0.0156071
775.953	0.0155240
776.031	0.0155869
776.109	0.0156538
776.187	0.0155760
776.265	0.0157567
776.343	0.0156113
776.421	0.0156678
776.499	0.0159402
776.578	0.0160332
776.656	0.0161616
776.734	0.0163377
776.812	0.0165948
776.890	0.0168704
776.968	0.0169624
777.046	0.0172716
777.124	0.0174741
777.203	0.0178157
777.281	0.0179052
777.359	0.0180032
777.437	0.0179839
777.515	0.0181481
777.593	0.0181568
777.671	0.0180804
777.749	0.0179401
777.828	0.0178683
777.906	0.0176958
777.984	0.0175618
778.062	0.0172956
778.140	0.0171320
778.218	0.0168003
778.296	0.0167101
778.374	0.0166521
778.453	0.0164667
778.531	0.0160258
778.609	0.0161678
778.687	0.0160535
778.765	0.0161509
778.843	0.0161275
778.921	0.0161983
778.999	0.0162276
779.078	0.0162640
779.156	0.0163264
779.234	0.0161866
779.312	0.0159402
779.390	0.0160276
779.468	0.0160400
779.546	0.0158627
779.624	0.0153478
779.703	0.0150945
779.781	0.0147626
779.859	0.0145401
779.937	0.0143748
780.015	0.0142992
780.093	0.0142357
780.171	0.0140826
780.249	0.0141700
780.328	0.0143829
780.406	0.0145051
780.484	0.0147638
780.562	0.0149170
780.640	0.0152619
780.718	0.0154089
780.796	0.0157853
780.874	0.0159879
780.953	0.0162056
781.031	0.0162709
781.109	0.0164651
781.187	0.0164349
781.265	0.0165216
781.343	0.0166351
781.421	0.0166227
781.499	0.0167723
781.578	0.0167397
781.656	0.0168778
781.734	0.0169744
781.812	0.0168871
781.890	0.0171431
781.968	0.0171937
782.046	0.0171449
782.124	0.0171682
782.203	0.0173354
782.281	0.0173811
782.359	0.0173239
782.437	0.0172869
782.515	0.0173462
782.593	0.0173936
782.671	0.0173738
782.749	0.0174577
782.828	0.0174744
782.906	0.0172993
782.984	0.0173038
783.062	0.0172859
783.140	0.0174054
783.218	0.0173891
783.296	0.0173319
783.374	0.0172681
783.453	0.0171742
783.531	0.0171582
783.609	0.0171680
783.687	0.0170101
783.765	0.0169303
783.843	0.0168086
783.921	0.0167399
783.999	0.0166296
784.078	0.0164033
784.156	0.0161991
784.234	0.0159182
784.312	0.0158204
784.390	0.0154474
784.468	0.0153086
784.546	0.0152235
784.624	0.0148813
784.703	0.0149123
784.781	0.0147960
784.859	0.0148580
784.937	0.0147453
785.015	0.0148485
785.093	0.0148557
785.171	0.0149662
785.249	0.0151585
785.328	0.0151593
785.406	0.0152546
785.484	0.0151518
785.562	0.0152028
785.640	0.0153143
785.718	0.0152859
785.796	0.0152396
785.874	0.0150322
785.953	0.0151279
786.031	0.0150587
786.109	0.0148743
786.187	0.0149687
786.265	0.0150557
786.343	0.0150269
786.421	0.0149548
786.499	0.0150883
786.578	0.0152601
786.656	0.0154442
786.734	0.0155824
786.812	0.0158485
786.890	0.0159138
786.968	0.0161501
787.046	0.0164690
787.124	0.0166757
787.203	0.0168641
787.281	0.0170074
787.359	0.0172486
787.437	0.0174055
787.515	0.0176247
787.593	0.0179935
787.671	0.0178352
787.749	0.0180055
787.828	0.0182157
787.906	0.0181236
787.984	0.0181419
788.062	0.0181463
788.140	0.0181322
788.218	0.0180462
788.296	0.0179961
788.374	0.0179996
788.453	0.0178899
788.531	0.0177179
788.609	0.0174124
788.687	0.0173852
788.765	0.0172025
788.843	0.0170373
788.921	0.0169105
788.999	0.0168328
789.078	0.0165409
789.156	0.0166331
789.234	0.0165044
789.312	0.0164401
789.390	0.0164480
789.468	0.0164784
789.546	0.0165029
789.624	0.0163754
789.703	0.0165567
789.781	0.0166565
789.859	0.0166464
789.937	0.0166041
790.015	0.0166002
790.093	0.0165472
790.171	0.0164095
790.249	0.0164240
790.328	0.0162101
790.406	0.0159181
790.484	0.0156584
790.562	0.0155149
790.640	0.0152624
790.718	0.0149961
790.796	0.0146162
790.874	0.0145483
790.953	0.0142091
791.031	0.0140999
791.109	0.0139586
791.187	0.0139062
791.265	0.0137368
791.343	0.0139585
791.421	0.0140913
791.499	0.0139050
791.578	0.0139615
791.656	0.0139240
791.734	0.0141125
791.812	0.0141345
791.890	0.0141338
791.968	0.0143257
792.046	0.0143468
792.124	0.0146186
792.203	0.0146989
792.281	0.0148705
792.359	0.0151697
792.437	0.0154144
792.515	0.0156343
792.593	0.0161011
792.671	0.0164443
792.749	0.0168452
792.828	0.0172269
792.906	0.0176810
792.984	0.0179777
793.062	0.0183910
793.140	0.0189040
793.218	0.0191911
793.296	0.0194338
793.374	0.0194081
793.453	0.0195887
793.531	0.0196249
793.609	0.0196355
793.687	0.0195609
793.765	0.0193448
793.843	0.0193420
793.921	0.0189993
793.999	0.0189130
794.078	0.0185532
794.156	0.0184647
794.234	0.0183623
794.312	0.0180104
794.390	0.0179075
794.468	0.0177569
794.546	0.0176237
794.624	0.0173667
794.703	0.0171485
794.781	0.0169489
794.859	0.0164896
794.937	0.0164310
795.015	0.0161677
795.093	0.0159008
795.171	0.0155948
795.249	0.0153769
795.328	0.0151528
795.406	0.0147916
795.484	0.0147135
795.562	0.0147141
795.640	0.0146431
795.718	0.0143921
795.796	0.0143094
795.874	0.0144037
795.953	0.0142526
796.031	0.0143172
796.109	0.0143670
796.187	0.0143265
796.265	0.0144794
796.343	0.0144944
796.421	0.0145378
796.499	0.0147242
796.578	0.0147215
796.656	0.0148071
796.734	0.0148385
796.812	0.0148537
796.890	0.0147868
796.968	0.0148847
797.046	0.0147506
797.124	0.0147421
797.203	0.0146838
797.281	0.0148196
797.359	0.0148271
797.437	0.0148566
797.515	0.0148803
797.593	0.0149997
797.671	0.0150095
797.749	0.0151331
797.828	0.0152357
797.906	0.0157188
797.984	0.0157943
798.062	0.0159302
798.140	0.0162433
798.218	0.0163053
798.296	0.0168904
798.374	0.0172084
798.453	0.0173418
798.531	0.0177431
798.609	0.0180472
798.687	0.0185022
798.765	0.0186848
798.843	0.0187104
798.921	0.0191681
798.999	0.0193282
799.078	0.0196570
799.156	0.0196043
799.234	0.0198524
799.312	0.0196004
799.390	0.0194844
799.468	0.0193308
799.546	0.0192546
799.624	0.0189945
799.703	0.0186983
799.781	0.0183213
799.859	0.0181322
799.937	0.0176515
800.015	0.0173261
800.093	0.0170087
800.171	0.0167303
800.249	0.0165192
800.328	0.0161669
800.406	0.0159583
800.484	0.0157297
800.562	0.0156367
800.640	0.0155529
800.718	0.0154762
800.796	0.0152602
800.874	0.0151316
800.953	0.0149774
801.031	0.0149854
801.109	0.0147791
801.187	0.0145905
801.265	0.0147205
801.343	0.0144822
801.421	0.0145808
801.499	0.0145392
801.578	0.0143148
801.656	0.0143388
801.734	0.0144351
801.812	0.0144804
801.890	0.0146488
801.968	0.0146535
802.046	0.0147527
802.124	0.0149700
802.203	0.0151468
802.281	0.0153663
802.359	0.0155219
802.437	0.0155348
802.515	0.0156973
802.593	0.0158676
802.671	0.0158813
802.749	0.0159201
802.828	0.0160590
802.906	0.0159680
802.984	0.0158428
803.062	0.0158572
803.140	0.0158485
803.218	0.0158637
803.296	0.0155945
803.374	0.0156220
803.453	0.0156666
803.531	0.0156541
803.609	0.0156151
803.687	0.0154710
803.765	0.0155530
803.843	0.0157333
803.921	0.0156728
803.999	0.0159061
804.078	0.0162683
804.156	0.0163611
804.234	0.0164905
804.312	0.0168375
804.390	0.0171114
804.468	0.0173778
804.546	0.0176185
804.624	0.0179529
804.703	0.0181628
804.781	0.0182927
804.859	0.0185761
804.937	0.0188245
805.015	0.0189118
805.093	0.0190077
805.171	0.0188537
805.249	0.0189618
805.328	0.0189427
805.406	0.0188310
805.484	0.0185889
805.562	0.0185047
805.640	0.0183173
805.718	0.0179675
805.796	0.0176318
805.874	0.0173312
805.953	0.0168925
806.031	0.0166616
806.109	0.0163461
806.187	0.0159951
806.265	0.0159275
806.343	0.0155825
806.421	0.0152437
806.499	0.0151508
806.578	0.0149534
806.656	0.0147783
806.734	0.0147270
806.812	0.0147193
806.890	0.0144102
806.968	0.0146090
807.046	0.0147088
807.124	0.0146497
807.203	0.0146325
807.281	0.0145993
807.359	0.0146146
807.437	0.0146405
807.515	0.0147338
807.593	0.0146792
807.671	0.0147456
807.749	0.0149091
807.828	0.0148017
807.906	0.0150477
807.984	0.0151693
808.062	0.0153144
808.140	0.0153819
808.218	0.0156012
808.296	0.0158372
808.374	0.0160278
808.453	0.0160834
808.531	0.0162395
808.609	0.0164708
808.687	0.0164542
808.765	0.0164252
808.843	0.0165195
808.921	0.0163245
808.999	0.0164507
809.078	0.0165864
809.156	0.0164148
809.234	0.0162108
809.312	0.0162125
809.390	0.0161066
809.468	0.0161217
809.546	0.0160477
809.624	0.0159045
809.703	0.0158657
809.781	0.0159618
809.859	0.0160057
809.937	0.0161588
810.015	0.0162572
810.093	0.0163093
810.171	0.0164998
810.249	0.0167624
810.328	0.0168556
810.406	0.0170320
810.484	0.0171030
810.562	0.0173331
810.640	0.0173905
810.718	0.0175171
810.796	0.0176914
810.874	0.0179003
810.953	0.0178010
811.031	0.0180077
811.109	0.0180957
811.187	0.0182074
811.265	0.0181602
811.343	0.0181417
811.421	0.0181956
811.499	0.0180355
811.578	0.0178298
811.656	0.0178209
811.734	0.0176528
811.812	0.0174164
811.890	0.0171528
811.968	0.0170177
812.046	0.0166840
812.124	0.0165114
812.203	0.0162948
812.281	0.0158278
812.359	0.0156999
812.437	0.0153152
812.515	0.0150802
812.593	0.0149558
812.671	0.0147077
812.749	0.0147465
812.828	0.0144928
812.906	0.0145187
812.984	0.0146686
813.062	0.0146571
813.140	0.0147102
813.218	0.0146099
813.296	0.0149236
813.374	0.0150359
813.453	0.0150724
813.531	0.0152007
813.609	0.0152323
813.687	0.0153992
813.765	0.0156085
813.843	0.0156701
813.921	0.0159822
813.999	0.0159795
814.078	0.0159354
814.156	0.0160802
814.234	0.0163562
814.312	0.0164727
814.390	0.0164098
814.468	0.0165775
814.546	0.0165035
814.624	0.0167052
814.703	0.0167513
814.781	0.0167054
814.859	0.0167629
814.937	0.0167516
815.015	0.0166167
815.093	0.0164373
815.171	0.0163567
815.249	0.0163552
815.328	0.0161497
815.406	0.0162650
815.484	0.0163071
815.562	0.0161053
815.640	0.0161759
815.718	0.0160855
815.796	0.0161816
815.874	0.0160972
815.953	0.0159249
816.031	0.0159998
816.109	0.0160889
816.187	0.0162176
816.265	0.0161830
816.343	0.0163427
816.421	0.0164182
816.499	0.0163898
816.578	0.0165931
816.656	0.0166969
816.734	0.0167085
816.812	0.0168501
816.890	0.0170758
816.968	0.0171294
817.046	0.0173348
817.124	0.0174985
817.203	0.0175758
817.281	0.0176881
817.359	0.0178345
817.437	0.0178083
817.515	0.0178637
817.593	0.0178055
817.671	0.0178168
817.749	0.0178529
817.828	0.0176414
817.906	0.0174203
817.984	0.0170599
818.062	0.0169707
818.140	0.0168662
818.218	0.0165117
818.296	0.0163402
818.374	0.0159522
818.453	0.0156487
818.531	0.0155325
818.609	0.0151986
818.687	0.0151941
818.765	0.0151365
818.843	0.0149093
818.921	0.0147826
818.999	0.0148824
819.078	0.0148547
819.156	0.0148611
819.234	0.0150784
819.312	0.0150197
819.390	0.0150848
819.468	0.0153154
819.546	0.0153396
819.624	0.0153272
819.703	0.0154909
819.781	0.0157752
819.859	0.0159296
819.937	0.0158939
820.015	0.0160324
820.093	0.0159711
820.171	0.0160982
820.249	0.0163637
820.328	0.0164409
820.406	0.0164128
820.484	0.0163475
820.562	0.0163767
820.640	0.0163525
820.718	0.0163500
820.796	0.0164683
820.874	0.0164755
820.953	0.0164409
821.031	0.0165294
821.109	0.0165187
821.187	0.0164152
821.265	0.0164314
821.343	0.0163161
821.421	0.0164417
821.499	0.0162643
821.578	0.0162930
821.656	0.0162653
821.734	0.0160950
821.812	0.0161974
821.890	0.0160842
821.968	0.0160066
822.046	0.0161143
822.124	0.0161416
822.203	0.0159238
822.281	0.0160175
822.359	0.0159503
822.437	0.0160909
822.515	0.0161637
822.593	0.0160460
822.671	0.0160081
822.749	0.0162822
822.828	0.0164333
822.906	0.0165580
822.984	0.0165556
823.062	0.0167725
823.140	0.0168427
823.218	0.0169693
823.296	0.0170084
823.374	0.0171616
823.453	0.0172494
823.531	0.0172987
823.609	0.0173976
823.687	0.0174325
823.765	0.0174641
823.843	0.0173427
823.921	0.0175089
823.999	0.0174046
824.078	0.0172158
824.156	0.0171191
824.234	0.0169900
824.312	0.0166954
824.390	0.0166267
824.468	0.0164899
824.546	0.0162760
824.624	0.0161175
824.703	0.0158929
824.781	0.0157609
824.859	0.0155376
824.937	0.0155060
825.015	0.0155344
825.093	0.0151472
825.171	0.0151987
825.249	0.0150948
825.328	0.0151783
825.406	0.0150542
825.484	0.0150024
825.562	0.0151316
825.640	0.0152947
825.718	0.0151836
825.796	0.0152747
825.874	0.0152912
825.953	0.0154245
826.031	0.0156524
826.109	0.0156939
826.187	0.0158488
826.265	0.0159693
826.343	0.0160452
826.421	0.0161060
826.499	0.0162451
826.578	0.0162245
826.656	0.0163522
826.734	0.0164602
826.812	0.0165639
826.890	0.0165352
826.968	0.0165300
827.046	0.0167591
827.124	0.0166432
827.203	0.0165878
827.281	0.0164378
827.359	0.0165351
827.437	0.0164217
827.515	0.0164133
827.593	0.0162767
827.671	0.0162105
827.749	0.0160770
827.828	0.0161839
827.906	0.0160208
827.984	0.0160110
828.062	0.0159100
828.140	0.0159615
828.218	0.0158684
828.296	0.0158324
828.374	0.0159556
828.453	0.0159439
828.531	0.0161108
828.609	0.0160756
828.687	0.0159472
828.765	0.0161089
828.843	0.0162794
828.921	0.0163847
828.999	0.0163226
829.078	0.0165795
829.156	0.0166260
829.234	0.0168027
829.312	0.0168224
829.390	0.0168995
829.468	0.0169124
829.546	0.0170403
829.624	0.0170203
829.703	0.0172224
829.781	0.0171555
829.859	0.0171485
829.937	0.0173225
830.015	0.0171748
830.093	0.0170615
830.171	0.0170827
830.249	0.0170932
830.328	0.0169376
830.406	0.0168468
830.484	0.0167735
830.562	0.0165066
830.640	0.0164494
830.718	0.0163322
830.796	0.0161073
830.874	0.0161725
830.953	0.0159073
831.031	0.0157486
831.109	0.0158360
831.187	0.0157206
831.265	0.0156693
831.343	0.0154242
831.421	0.0156210
831.499	0.0154534
831.578	0.0153581
831.656	0.0155135
831.734	0.0154616
831.812	0.0156537
831.890	0.0153286
831.968	0.0155662
832.046	0.0155746
832.124	0.0158116
832.203	0.0157937
832.281	0.0159053
832.359	0.0159705
832.437	0.0160669
832.515	0.0159709
832.593	0.0160883
832.671	0.0162612
832.749	0.0161774
832.828	0.0162590
832.906	0.0163538
832.984	0.0164267
833.062	0.0163282
833.140	0.0163993
833.218	0.0163206
833.296	0.0163013
833.374	0.0163049
833.453	0.0163425
833.531	0.0163704
833.609	0.0161370
833.687	0.0161165
833.765	0.0160565
833.843	0.0161505
833.921	0.0162002
833.999	0.0161176
834.078	0.0160682
834.156	0.0161497
834.234	0.0161767
834.312	0.0162212
834.390	0.0163464
834.468	0.0162857
834.546	0.0163647
834.624	0.0164711
834.703	0.0166227
834.781	0.0167973
834.859	0.0167283
834.937	0.0166705
835.015	0.0166878
835.093	0.0168523
835.171	0.0168005
835.249	0.0167776
835.328	0.0168502
835.406	0.0168536
835.484	0.0167733
835.562	0.0167792
835.640	0.0167630
835.718	0.0168330
835.796	0.0168760
835.874	0.0170193
835.953	0.0168015
836.031	0.0168216
836.109	0.0169473
836.187	0.0167986
836.265	0.0168078
836.343	0.0167240
836.421	0.0166399
836.499	0.0167529
836.578	0.0166066
836.656	0.0163525
836.734	0.0163580
836.812	0.0164527
836.890	0.0161505
836.968	0.0161806
837.046	0.0159562
837.124	0.0159136
837.203	0.0157688
837.281	0.0156751
837.359	0.0156176
837.437	0.0155730
837.515	0.0154332
837.593	0.0152975
837.671	0.0154861
837.749	0.0155399
837.828	0.0155217
837.906	0.0154132
837.984	0.0153650
838.062	0.0154794
838.140	0.0154691
838.218	0.0155367
838.296	0.0156682
838.374	0.0158949
838.453	0.0159383
838.531	0.0160688
838.609	0.0162237
838.687	0.0163997
838.765	0.0164645
838.843	0.0165942
838.921	0.0165711
838.999	0.0166676
839.078	0.0169530
839.156	0.0169554
839.234	0.0168330
839.312	0.0168612
839.390	0.0168006
839.468	0.0167253
839.546	0.0165765
839.624	0.0166808
839.703	0.0164223
839.781	0.0162595
839.859	0.0163202
839.937	0.0162122
840.015	0.0161252
840.093	0.0160221
840.171	0.0161874
840.249	0.0160003
840.328	0.0160620
840.406	0.0160690
840.484	0.0161887
840.562	0.0162300
840.640	0.0162830
840.718	0.0162804
840.796	0.0163116
840.874	0.0164988
840.953	0.0166463
841.031	0.0166251
841.109	0.0164943
841.187	0.0164620
841.265	0.0164349
841.343	0.0164207
841.421	0.0163622
841.499	0.0162650
841.578	0.0163638
841.656	0.0162640
841.734	0.0164120
841.812	0.0165067
841.890	0.0163728
841.968	0.0163845
842.046	0.0164038
842.124	0.0164729
842.203	0.0164797
842.281	0.0163293
842.359	0.0165721
842.437	0.0164709
842.515	0.0162305
842.593	0.0162261
842.671	0.0162694
842.749	0.0162727
842.828	0.0162312
842.906	0.0161131
842.984	0.0162052
843.062	0.0161274
843.140	0.0159146
843.218	0.0159213
843.296	0.0161522
843.374	0.0160256
843.453	0.0159644
843.531	0.0158510
843.609	0.0159200
843.687	0.0159603
843.765	0.0159977
843.843	0.0160382
843.921	0.0160758
843.999	0.0161573
844.078	0.0160400
844.156	0.0160075
844.234	0.0159592
844.312	0.0160267
844.390	0.0161181
844.468	0.0159479
844.546	0.0160958
844.624	0.0163001
844.703	0.0163058
844.781	0.0162371
844.859	0.0162729
844.937	0.0163713
845.015	0.0164571
845.093	0.0163812
845.171	0.0164930
845.249	0.0164162
845.328	0.0165333
845.406	0.0162305
845.484	0.0162088
845.562	0.0160828
845.640	0.0160883
845.718	0.0159976
845.796	0.0159732
845.874	0.0159795
845.953	0.0159232
846.031	0.0159740
846.109	0.0159331
846.187	0.0160484
846.265	0.0160510
846.343	0.0162146
846.421	0.0162251
846.499	0.0163512
846.578	0.0164089
846.656	0.0164957
846.734	0.0166370
846.812	0.0165469
846.890	0.0167849
846.968	0.0166721
847.046	0.0164704
847.124	0.0164829
847.203	0.0164762
847.281	0.0164916
847.359	0.0163508
847.437	0.0163421
847.515	0.0163382
847.593	0.0162939
847.671	0.0163381
847.749	0.0162642
847.828	0.0163497
847.906	0.0164292
847.984	0.0163454
848.062	0.0163788
848.140	0.0164796
848.218	0.0164371
848.296	0.0165255
848.374	0.0163585
848.453	0.0163835
848.531	0.0164822
848.609	0.0161826
848.687	0.0162280
848.765	0.0161561
848.843	0.0162321
848.921	0.0161889
848.999	0.0160888
849.078	0.0161125
849.156	0.0160449
849.234	0.0159364
849.312	0.0158669
849.390	0.0159942
849.468	0.0160289
849.546	0.0160936
849.624	0.0161399
849.703	0.0162787
849.781	0.0161768
849.859	0.0161370
849.937	0.0164156
850.015	0.0163795
850.093	0.0163976
850.171	0.0163859
850.249	0.0165211
850.328	0.0165639
850.406	0.0165012
850.484	0.0165099
850.562	0.0164240
850.640	0.0164673
850.718	0.0166474
850.796	0.0164967
850.874	0.0164986
850.953	0.0164220
851.031	0.0162722
851.109	0.0162238
851.187	0.0162380
851.265	0.0161537
851.343	0.0159540
851.421	0.0160098
851.499	0.0159830
851.578	0.0158829
851.656	0.0158537
851.734	0.0158025
851.812	0.0156213
851.890	0.0157417
851.968	0.0157083
852.046	0.0156946
852.124	0.0157712
852.203	0.0157506
852.281	0.0157740
852.359	0.0159501
852.437	0.0161545
852.515	0.0161414
852.593	0.0162934
852.671	0.0163286
852.749	0.0165282
852.828	0.0165852
852.906	0.0168005
852.984	0.0169025
853.062	0.0168274
853.140	0.0168260
853.218	0.0168196
853.296	0.0168276
853.374	0.0170029
853.453	0.0168044
853.531	0.0167225
853.609	0.0166593
853.687	0.0167790
853.765	0.0166017
853.843	0.0164793
853.921	0.0166014
853.999	0.0163586
854.078	0.0162806
854.156	0.0163124
854.234	0.0162563
854.312	0.0160962
854.390	0.0160973
854.468	0.0159823
854.546	0.0159357
854.624	0.0159697
854.703	0.0157362
854.781	0.0156598
854.859	0.0155676
854.937	0.0155722
855.015	0.0156342
855.093	0.0156790
855.171	0.0156413
855.249	0.0155945
855.328	0.0156243
855.406	0.0158142
855.484	0.0156126
855.562	0.0158874
855.640	0.0159126
855.718	0.0159520
855.796	0.0160592
855.874	0.0162745
855.953	0.0162283
856.031	0.0164689
856.109	0.0165571
856.187	0.0165585
856.265	0.0166793
856.343	0.0168929
856.421	0.0168748
856.499	0.0169078
856.578	0.0170443
856.656	0.0171212
856.734	0.0171291
856.812	0.0170747
856.890	0.0169733
856.968	0.0169759
857.046	0.0168966
857.124	0.0166787
857.203	0.0166142
857.281	0.0165025
857.359	0.0164367
857.437	0.0162782
857.515	0.0162434
857.593	0.0159793
857.671	0.0159663
857.749	0.0160171
857.828	0.0158832
857.906	0.0159530
857.984	0.0158379
858.062	0.0157736
858.140	0.0158701
858.218	0.0158263
858.296	0.0158614
858.374	0.0159030
858.453	0.0160856
858.531	0.0160504
858.609	0.0160935
858.687	0.0160752
858.765	0.0162511
858.843	0.0161855
858.921	0.0161472
858.999	0.0162321
859.078	0.0161674
859.156	0.0162202
859.234	0.0161897
859.312	0.0162634
859.390	0.0162450
859.468	0.0163586
859.546	0.0163775
859.624	0.0162359
859.703	0.0165060
859.781	0.0163733
859.859	0.0164017
859.937	0.0165285
860.015	0.0165888
860.093	0.0165497
860.171	0.0164545
860.249	0.0165324
860.328	0.0165143
860.406	0.0163924
860.484	0.0164449
860.562	0.0163235
860.640	0.0161323
860.718	0.0161468
860.796	0.0162022
860.874	0.0159572
860.953	0.0159041
861.031	0.0160262
861.109	0.0158627
861.187	0.0160028
861.265	0.0160347
861.343	0.0159608
861.421	0.0158644
861.499	0.0158023
861.578	0.0158530
861.656	0.0161263
861.734	0.0159442
861.812	0.0160535
861.890	0.0160725
861.968	0.0161598
862.046	0.0161813
862.124	0.0163631
862.203	0.0163194
862.281	0.0162627
862.359	0.0164242
862.437	0.0163797
862.515	0.0165286
862.593	0.0163964
862.671	0.0166142
862.749	0.0165189
862.828	0.0165457
862.906	0.0164503
862.984	0.0165489
863.062	0.0165418
863.140	0.0165509
863.218	0.0164902
863.296	0.0164442
863.374	0.0164227
863.453	0.0165595
863.531	0.0164334
863.609	0.0165828
863.687	0.0166614
863.765	0.0168185
863.843	0.0165799
863.921	0.0166623
863.999	0.0166250
864.078	0.0166150
864.156	0.0165324
864.234	0.0165240
864.312	0.0165353
864.390	0.0164888
864.468	0.0162640
864.546	0.0162428
864.624	0.0162990
864.703	0.0162114
864.781	0.0160101
864.859	0.0161089
864.937	0.0159890
865.015	0.0158775
865.093	0.0157942
865.171	0.0157864
865.249	0.0156421
865.328	0.0159818
865.406	0.0158992
865.484	0.0159247
865.562	0.0159285
865.640	0.0159335
865.718	0.0159717
865.796	0.0159563
865.874	0.0159131
865.953	0.0159676
866.031	0.0160410
866.109	0.0160023
866.187	0.0159138
866.265	0.0161691
866.343	0.0161166
866.421	0.0161169
866.499	0.0160306
866.578	0.0160291
866.656	0.0161687
866.734	0.0162133
866.812	0.0160437
866.890	0.0160479
866.968	0.0160809
867.046	0.0161671
867.124	0.0161619
867.203	0.0161199
867.281	0.0162508
867.359	0.0162180
867.437	0.0161893
867.515	0.0162897
867.593	0.0163425
867.671	0.0164177
867.749	0.0165370
867.828	0.0165536
867.906	0.0164566
867.984	0.0165102
868.062	0.0165430
868.140	0.0164353
868.218	0.0165214
868.296	0.0167706
868.374	0.0167664
868.453	0.0167120
868.531	0.0167768
868.609	0.0167242
868.687	0.0168669
868.765	0.0169189
868.843	0.0168623
868.921	0.0168307
868.999	0.0168404
869.078	0.0167902
869.156	0.0167127
869.234	0.0166848
869.312	0.0165936
869.390	0.0166065
869.468	0.0164030
869.546	0.0164941
869.624	0.0165170
869.703	0.0164150
869.781	0.0163608
869.859	0.0163502
869.937	0.0163582
870.015	0.0163158
870.093	0.0163203
870.171	0.0162129
870.249	0.0162403
870.328	0.0161473
870.406	0.0162326
870.484	0.0161391
870.562	0.0160191
870.640	0.0159462
870.718	0.0160004
870.796	0.0158610
870.874	0.0159142
870.953	0.0158878
871.031	0.0157645
871.109	0.0157199
871.187	0.0156767
871.265	0.0158376
871.343	0.0157649
871.421	0.0157617
871.499	0.0160659
871.578	0.0159869
871.656	0.0160014
871.734	0.0159376
871.812	0.0159244
871.890	0.0159973
871.968	0.0160159
872.046	0.0161867
872.124	0.0161832
872.203	0.0161411
872.281	0.0162512
872.359	0.0163627
872.437	0.0162901
872.515	0.0163877
872.593	0.0163274
872.671	0.0164233
872.749	0.0164861
872.828	0.0164305
872.906	0.0164633
872.984	0.0164940
873.062	0.0166589
873.140	0.0163626
873.218	0.0163783
873.296	0.0165183
873.374	0.0165336
873.453	0.0164492
873.531	0.0165127
873.609	0.0165556
873.687	0.0166066
873.765	0.0165606
873.843	0.0164644
873.921	0.0163631
873.999	0.0164544
874.078	0.0163472
874.156	0.0163919
874.234	0.0165007
874.312	0.0163824
874.390	0.0165837
874.468	0.0165848
874.546	0.0164886
874.624	0.0165635
874.703	0.0164568
874.781	0.0166714
874.859	0.0165429
874.937	0.0165419
875.015	0.0164711
875.093	0.0164926
875.171	0.0164048
875.249	0.0165200
875.328	0.0163552
875.406	0.0163976
875.484	0.0163358
875.562	0.0163419
875.640	0.0163480
875.718	0.0162540
875.796	0.0163885
875.874	0.0163147
875.953	0.0162994
876.031	0.0162200
876.109	0.0162425
876.187	0.0161698
876.265	0.0161287
876.343	0.0160905
876.421	0.0159771
876.499	0.0159846
876.578	0.0159431
876.656	0.0159370
876.734	0.0157681
876.812	0.0157887
876.890	0.0157074
876.968	0.0156839
877.046	0.0156791
877.124	0.0158368
877.203	0.0158147
877.281	0.0158257
877.359	0.0157836
877.437	0.0158543
877.515	0.0158689
877.593	0.0160054
877.671	0.0160300
877.749	0.0160063
877.828	0.0161053
877.906	0.0160780
877.984	0.0162089
878.062	0.0162691
878.140	0.0163244
878.218	0.0162749
878.296	0.0163249
878.374	0.0163059
878.453	0.0165593
878.531	0.0166581
878.609	0.0166817
878.687	0.0165472
878.765	0.0166409
878.843	0.0168358
878.921	0.0167602
878.999	0.0169328
879.078	0.0167809
879.156	0.0167334
879.234	0.0168683
879.312	0.0168546
879.390	0.0165701
879.468	0.0167363
879.546	0.0167550
879.624	0.0165601
879.703	0.0164230
879.781	0.0164433
879.859	0.0164381
879.937	0.0162556
880.015	0.0162433
880.093	0.0163000
880.171	0.0162380
880.249	0.0161226
880.328	0.0161790
880.406	0.0160841
880.484	0.0161781
880.562	0.0161268
880.640	0.0160418
880.718	0.0160745
880.796	0.0160500
880.874	0.0162124
880.953	0.0159803
881.031	0.0159193
881.109	0.0160371
881.187	0.0160355
881.265	0.0159981
881.343	0.0159484
881.421	0.0159303
881.499	0.0159553
881.578	0.0160616
881.656	0.0160036
881.734	0.0159679
881.812	0.0159675
881.890	0.0160316
881.968	0.0160656
882.046	0.0161555
882.124	0.0161293
882.203	0.0161719
882.281	0.0161742
882.359	0.0161987
882.437	0.0162280
882.515	0.0161057
882.593	0.0161689
882.671	0.0162999
882.749	0.0161387
882.828	0.0161846
882.906	0.0161462
882.984	0.0161166
883.062	0.0162076
883.140	0.0162099
883.218	0.0161432
883.296	0.0161726
883.374	0.0162700
883.453	0.0162817
883.531	0.0162151
883.609	0.0163394
883.687	0.0162378
883.765	0.0162587
883.843	0.0162983
883.921	0.0162557
883.999	0.0164323
884.078	0.0163914
884.156	0.0162885
884.234	0.0164835
884.312	0.0164462
884.390	0.0164545
884.468	0.0163341
884.546	0.0165208
884.624	0.0164330
884.703	0.0164715
884.781	0.0164340
884.859	0.0166185
884.937	0.0165192
885.015	0.0165617
885.093	0.0166140
885.171	0.0165755
885.249	0.0166037
885.328	0.0164612
885.406	0.0165562
885.484	0.0164204
885.562	0.0164118
885.640	0.0163624
885.718	0.0163428
885.796	0.0162755
885.874	0.0164200
885.953	0.0163511
886.031	0.0160951
886.109	0.0161452
886.187	0.0160806
886.265	0.0162109
886.343	0.0160416
886.421	0.0160197
886.499	0.0160705
886.578	0.0160667
886.656	0.0159618
886.734	0.0160436
886.812	0.0158635
886.890	0.0160569
886.968	0.0159642
887.046	0.0160824
887.124	0.0160100
887.203	0.0159038
887.281	0.0161459
887.359	0.0161671
887.437	0.0161343
887.515	0.0159837
887.593	0.0160915
887.671	0.0160596
887.749	0.0159386
887.828	0.0160967
887.906	0.0162975
887.984	0.0161297
888.062	0.0161539
888.140	0.0160735
888.218	0.0162554
888.296	0.0161960
888.374	0.0161398
888.453	0.0163310
888.531	0.0162226
888.609	0.0161317
888.687	0.0161401
888.765	0.0160872
888.843	0.0162909
888.921	0.0162278
888.999	0.0164005
889.078	0.0162820
889.156	0.0163777
889.234	0.0163994
889.312	0.0164160
889.390	0.0164656
889.468	0.0165569
889.546	0.0165217
889.624	0.0165657
889.703	0.0165981
889.781	0.0166545
889.859	0.0166037
889.937	0.0165670
890.015	0.0167587
890.093	0.0166696
890.171	0.0165887
890.249	0.0167481
890.328	0.0166630
890.406	0.0166379
890.484	0.0165649
890.562	0.0165877
890.640	0.0166442
890.718	0.0165797
890.796	0.0165230
890.874	0.0166295
890.953	0.0165818
891.031	0.0163908
891.109	0.0164392
891.187	0.0164009
891.265	0.0161879
891.343	0.0162745
891.421	0.0163093
891.499	0.0162518
891.578	0.0161031
891.656	0.0161304
891.734	0.0160450
891.812	0.0159543
891.890	0.0161127
891.968	0.0159413
892.046	0.0160223
892.124	0.0159468
892.203	0.0159068
892.281	0.0160185
892.359	0.0159477
892.437	0.0159128
892.515	0.0159236
892.593	0.0158906
892.671	0.0159303
892.749	0.0159000
892.828	0.0159608
892.906	0.0160007
892.984	0.0159541
893.062	0.0160992
893.140	0.0160909
893.218	0.0160949
893.296	0.0159994
893.374	0.0162447
893.453	0.0161864
893.531	0.0160632
893.609	0.0162305
893.687	0.0163605
893.765	0.0161940
893.843	0.0162132
893.921	0.0162484
893.999	0.0162997
894.078	0.0163902
894.156	0.0162831
894.234	0.0163904
894.312	0.0165071
894.390	0.0163363
894.468	0.0164954
894.546	0.0162867
894.624	0.0165131
894.703	0.0163659
894.781	0.0164067
894.859	0.0164075
894.937	0.0165273
895.015	0.0165797
895.093	0.0166074
895.171	0.0165810
895.249	0.0164967
895.328	0.0167267
895.406	0.0166426
895.484	0.0166553
895.562	0.0167439
895.640	0.0165641
895.718	0.0166144
895.796	0.0168411
895.874	0.0167404
895.953	0.0166759
896.031	0.0165755
896.109	0.0166871
896.187	0.0166548
896.265	0.0165669
896.343	0.0166502
896.421	0.0164484
896.499	0.0164897
896.578	0.0164587
896.656	0.0163583
896.734	0.0164882
896.812	0.0163600
896.890	0.0163624
896.968	0.0161982
897.046	0.0162313
897.124	0.0162280
897.203	0.0160722
897.281	0.0160168
897.359	0.0159689
897.437	0.0159698
897.515	0.0157703
897.593	0.0158530
897.671	0.0157366
897.749	0.0157577
897.828	0.0156810
897.906	0.0156020
897.984	0.0156303
898.062	0.0158583
898.140	0.0157993
898.218	0.0155900
898.296	0.0156696
898.374	0.0156818
898.453	0.0156480
898.531	0.0158714
898.609	0.0159753
898.687	0.0158469
898.765	0.0159953
898.843	0.0160717
898.921	0.0159869
898.999	0.0161839
899.078	0.0161119
899.156	0.0160603
899.234	0.0162053
899.312	0.0163719
899.390	0.0163026
899.468	0.0162119
899.546	0.0163943
899.624	0.0162640
899.703	0.0163941
899.781	0.0164695
899.859	0.0166311
899.937	0.0165243
900.015	0.0165429
900.093	0.0165382
900.171	0.0166014
900.249	0.0165585
900.328	0.0165052
900.406	0.0166156
900.484	0.0164527
900.562	0.0165724
900.640	0.0166351
900.718	0.0164114
900.796	0.0163556
900.874	0.0162514
900.953	0.0162924
901.031	0.0164114
901.109	0.0163383
901.187	0.0163464
901.265	0.0164109
901.343	0.0163701
901.421	0.0162410
901.499	0.0164058
901.578	0.0164641
901.656	0.0165628
901.734	0.0164849
901.812	0.0165874
901.890	0.0164453
901.968	0.0165941
902.046	0.0165366
902.124	0.0164901
902.203	0.0164969
902.281	0.0164937
902.359	0.0165103
902.437	0.0163958
902.515	0.0163594
902.593	0.0164000
902.671	0.0163559
902.749	0.0164033
902.828	0.0164118
902.906	0.0162229
902.984	0.0162774
903.062	0.0162201
903.140	0.0160899
903.218	0.0161557
903.296	0.0158604
903.374	0.0158195
903.453	0.0159548
903.531	0.0159076
903.609	0.0158607
903.687	0.0158000
903.765	0.0157485
903.843	0.0156449
903.921	0.0156900
903.999	0.0156359
904.078	0.0155396
904.156	0.0157280
904.234	0.0156181
904.312	0.0157373
904.390	0.0158124
904.468	0.0157414
904.546	0.0159891
904.624	0.0159560
904.703	0.0159148
904.781	0.0161837
904.859	0.0162626
904.937	0.0160977
905.015	0.0161990
905.093	0.0162437
905.171	0.0162639
905.249	0.0164735
905.328	0.0164526
905.406	0.0164703
905.484	0.0164916
905.562	0.0165929
905.640	0.0165948
905.718	0.0165157
905.796	0.0165015
905.874	0.0164506
905.953	0.0165455
906.031	0.0163934
906.109	0.0165751
906.187	0.0165878
906.265	0.0166386
906.343	0.0165332
906.421	0.0166853
906.499	0.0165820
906.578	0.0164695
906.656	0.0165502
906.734	0.0164775
906.812	0.0165365
906.890	0.0165749
906.968	0.0163819
907.046	0.0164603
907.124	0.0164220
907.203	0.0165139
907.281	0.0164005
907.359	0.0164978
907.437	0.0164793
907.515	0.0163857
907.593	0.0163765
907.671	0.0165021
907.749	0.0164928
907.828	0.0164169
907.906	0.0165009
907.984	0.0165081
908.062	0.0162782
908.140	0.0162846
908.218	0.0163263
908.296	0.0163309
908.374	0.0160894
908.453	0.0162390
908.531	0.0163139
908.609	0.0160041
908.687	0.0162041
908.765	0.0159798
908.843	0.0161064
908.921	0.0161768
908.999	0.0160251
909.078	0.0160532
909.156	0.0160547
909.234	0.0160122
909.312	0.0158997
909.390	0.0159829
909.468	0.0160968
909.546	0.0159779
909.624	0.0161092
909.703	0.0161790
909.781	0.0160902
909.859	0.0160355
909.937	0.0160677
910.015	0.0162104
910.093	0.0160874
910.171	0.0162054
910.249	0.0160526
910.328	0.0161298
910.406	0.0161395
910.484	0.0162035
910.562	0.0162634
910.640	0.0162538
910.718	0.0162719
910.796	0.0164576
910.874	0.0163500
910.953	0.0162711
911.031	0.0164336
911.109	0.0163128
911.187	0.0163835
911.265	0.0163496
911.343	0.0163052
911.421	0.0164445
911.499	0.0163863
911.578	0.0164809
911.656	0.0163887
911.734	0.0163819
911.812	0.0163623
911.890	0.0163585
911.968	0.0164542
912.046	0.0162488
912.124	0.0163611
912.203	0.0163422
912.281	0.0163896
912.359	0.0163749
912.437	0.0163863
912.515	0.0164526
912.593	0.0164864
912.671	0.0164197
912.749	0.0163787
912.828	0.0163629
912.906	0.0163396
912.984	0.0164150
913.062	0.0165981
913.140	0.0164376
913.218	0.0164468
913.296	0.0164623
913.374	0.0164036
913.453	0.0163303
913.531	0.0163018
913.609	0.0164131
913.687	0.0164543
913.765	0.0164156
913.843	0.0164188
913.921	0.0164193
913.999	0.0163667
914.078	0.0164372
914.156	0.0164912
914.234	0.0162985
914.312	0.0164521
914.390	0.0164460
914.468	0.0163712
914.546	0.0164786
914.624	0.0164182
914.703	0.0162688
914.781	0.0163958
914.859	0.0162876
914.937	0.0161972
915.015	0.0162657
915.093	0.0161060
915.171	0.0160855
915.249	0.0160486
915.328	0.0160752
915.406	0.0161371
915.484	0.0160905
915.562	0.0160039
915.640	0.0161150
915.718	0.0161629
915.796	0.0160483
915.874	0.0160621
915.953	0.0159731
916.031	0.0160414
916.109	0.0160087
916.187	0.0160277
916.265	0.0160718
916.343	0.0161991
916.421	0.0161932
916.499	0.0161110
916.578	0.0161126
916.656	0.0162070
916.734	0.0162894
916.812	0.0162015
916.890	0.0161209
916.968	0.0161721
917.046	0.0161446
917.124	0.0161174
917.203	0.0162198
917.281	0.0163612
917.359	0.0160999
917.437	0.0162097
917.515	0.0162205
917.593	0.0163067
917.671	0.0162585
917.749	0.0161998
917.828	0.0161787
917.906	0.0162181
917.984	0.0162131
918.062	0.0163373
918.140	0.0162353
918.218	0.0162075
918.296	0.0163572
918.374	0.0162695
918.453	0.0164004
918.531	0.0163071
918.609	0.0161765
918.687	0.0161288
918.765	0.0162051
918.843	0.0161095
918.921	0.0162307
918.999	0.0162297
919.078	0.0161620
919.156	0.0161193
919.234	0.0161935
919.312	0.0161276
919.390	0.0162289
919.468	0.0162738
919.546	0.0161646
919.624	0.0163811
919.703	0.0164030
919.781	0.0164715
919.859	0.0164349
919.937	0.0164609
