06/10/2022	18:46:05	Ver.	4.1	UNKNOWN
Optical Delay	600.015094	Delta X		0.078125	Sweeps	1	Scan Rate	0/0
Coordinates	Axis 1	NaN	Axis 2	NaN	Axis 3	NaN	Axis 4	NaN	Axis 5	NaN	Axis 6	0.000000
TX Power	0.000000	RX Power	0.000000

600.015	0.0163428
600.093	0.0164336
600.171	0.0164217
600.249	0.0164290
600.328	0.0163710
600.406	0.0163920
600.484	0.0162749
600.562	0.0163714
600.640	0.0164305
600.718	0.0163707
600.796	0.0163772
600.874	0.0163074
600.953	0.0165524
601.031	0.0164570
601.109	0.0164281
601.187	0.0162766
601.265	0.0162524
601.343	0.0164189
601.421	0.0163637
601.499	0.0163103
601.578	0.0162259
601.656	0.0162778
601.734	0.0163428
601.812	0.0162885
601.890	0.0162894
601.968	0.0163786
602.046	0.0164219
602.124	0.0163887
602.203	0.0162542
602.281	0.0163781
602.359	0.0163763
602.437	0.0162363
602.515	0.0163186
602.593	0.0162794
602.671	0.0162215
602.749	0.0162196
602.828	0.0163380
602.906	0.0165026
602.984	0.0163836
603.062	0.0164282
603.140	0.0163033
603.218	0.0163997
603.296	0.0163403
603.374	0.0163680
603.453	0.0163525
603.531	0.0163737
603.609	0.0164416
603.687	0.0162783
603.765	0.0161988
603.843	0.0162755
603.921	0.0163417
603.999	0.0163434
604.078	0.0162246
604.156	0.0163608
604.234	0.0163686
604.312	0.0163644
604.390	0.0162151
604.468	0.0162943
604.546	0.0164056
604.624	0.0164002
604.703	0.0163259
604.781	0.0163365
604.859	0.0164118
604.937	0.0163757
605.015	0.0163724
605.093	0.0163680
605.171	0.0163236
605.249	0.0163898
605.328	0.0162289
605.406	0.0163115
605.484	0.0163898
605.562	0.0164796
605.640	0.0163326
605.718	0.0163419
605.796	0.0163055
605.874	0.0164818
605.953	0.0163599
606.031	0.0163491
606.109	0.0162714
606.187	0.0164435
606.265	0.0162545
606.343	0.0162907
606.421	0.0164801
606.499	0.0163606
606.578	0.0162760
606.656	0.0162949
606.734	0.0163834
606.812	0.0164030
606.890	0.0163195
606.968	0.0163155
607.046	0.0163307
607.124	0.0163068
607.203	0.0163394
607.281	0.0163123
607.359	0.0161920
607.437	0.0163180
607.515	0.0163437
607.593	0.0162370
607.671	0.0163448
607.749	0.0162327
607.828	0.0164394
607.906	0.0163748
607.984	0.0163401
608.062	0.0163499
608.140	0.0162981
608.218	0.0163735
608.296	0.0162925
608.374	0.0163143
608.453	0.0164354
608.531	0.0162724
608.609	0.0164681
608.687	0.0163414
608.765	0.0161947
608.843	0.0163499
608.921	0.0162969
608.999	0.0162914
609.078	0.0163298
609.156	0.0162802
609.234	0.0163770
609.312	0.0164093
609.390	0.0163120
609.468	0.0163774
609.546	0.0162321
609.624	0.0164505
609.703	0.0165140
609.781	0.0163473
609.859	0.0163746
609.937	0.0163184
610.015	0.0164173
610.093	0.0162741
610.171	0.0163460
610.249	0.0164898
610.328	0.0163071
610.406	0.0164085
610.484	0.0161678
610.562	0.0163039
610.640	0.0163106
610.718	0.0162234
610.796	0.0165065
610.874	0.0164674
610.953	0.0164106
611.031	0.0163995
611.109	0.0163333
611.187	0.0163148
611.265	0.0163939
611.343	0.0163213
611.421	0.0163332
611.499	0.0163009
611.578	0.0163004
611.656	0.0162199
611.734	0.0163769
611.812	0.0162956
611.890	0.0162614
611.968	0.0164275
612.046	0.0163823
612.124	0.0164018
612.203	0.0162919
612.281	0.0163623
612.359	0.0163906
612.437	0.0163113
612.515	0.0164049
612.593	0.0163005
612.671	0.0163186
612.749	0.0163873
612.828	0.0164542
612.906	0.0161903
612.984	0.0164874
613.062	0.0164555
613.140	0.0164780
613.218	0.0163865
613.296	0.0163554
613.374	0.0163605
613.453	0.0163212
613.531	0.0163168
613.609	0.0163663
613.687	0.0162903
613.765	0.0161468
613.843	0.0162528
613.921	0.0163209
613.999	0.0161465
614.078	0.0164143
614.156	0.0164040
614.234	0.0163664
614.312	0.0162598
614.390	0.0162631
614.468	0.0164022
614.546	0.0163718
614.624	0.0163256
614.703	0.0163991
614.781	0.0161927
614.859	0.0164487
614.937	0.0163879
615.015	0.0162223
615.093	0.0164629
615.171	0.0163826
615.249	0.0163790
615.328	0.0163117
615.406	0.0162782
615.484	0.0163933
615.562	0.0162315
615.640	0.0163053
615.718	0.0162847
615.796	0.0162938
615.874	0.0162684
615.953	0.0163422
616.031	0.0163815
616.109	0.0162450
616.187	0.0163171
616.265	0.0162766
616.343	0.0162875
616.421	0.0163143
616.499	0.0164246
616.578	0.0163150
616.656	0.0163743
616.734	0.0165453
616.812	0.0164075
616.890	0.0162908
616.968	0.0163304
617.046	0.0162949
617.124	0.0162341
617.203	0.0164180
617.281	0.0164214
617.359	0.0163000
617.437	0.0162307
617.515	0.0162930
617.593	0.0163908
617.671	0.0164436
617.749	0.0162767
617.828	0.0163696
617.906	0.0162950
617.984	0.0163588
618.062	0.0163271
618.140	0.0163350
618.218	0.0164383
618.296	0.0162756
618.374	0.0163737
618.453	0.0164372
618.531	0.0162720
618.609	0.0164956
618.687	0.0164548
618.765	0.0161441
618.843	0.0162470
618.921	0.0163796
618.999	0.0164845
619.078	0.0165077
619.156	0.0163685
619.234	0.0163145
619.312	0.0164377
619.390	0.0162890
619.468	0.0164105
619.546	0.0164088
619.624	0.0162570
619.703	0.0162154
619.781	0.0164961
619.859	0.0162876
619.937	0.0163232
620.015	0.0164117
620.093	0.0163457
620.171	0.0164175
620.249	0.0161967
620.328	0.0163345
620.406	0.0163570
620.484	0.0163956
620.562	0.0162585
620.640	0.0163332
620.718	0.0164741
620.796	0.0164127
620.874	0.0162582
620.953	0.0163122
621.031	0.0162440
621.109	0.0163487
621.187	0.0163789
621.265	0.0165415
621.343	0.0164466
621.421	0.0164942
621.499	0.0164998
621.578	0.0164194
621.656	0.0163987
621.734	0.0163400
621.812	0.0163412
621.890	0.0163430
621.968	0.0165226
622.046	0.0162818
622.124	0.0163705
622.203	0.0163845
622.281	0.0164909
622.359	0.0162988
622.437	0.0164890
622.515	0.0163271
622.593	0.0164568
622.671	0.0164274
622.749	0.0163729
622.828	0.0164980
622.906	0.0162514
622.984	0.0163491
623.062	0.0163665
623.140	0.0163306
623.218	0.0164816
623.296	0.0164442
623.374	0.0163380
623.453	0.0162843
623.531	0.0164361
623.609	0.0163434
623.687	0.0164288
623.765	0.0163508
623.843	0.0163853
623.921	0.0164215
623.999	0.0164007
624.078	0.0164821
624.156	0.0163068
624.234	0.0163484
624.312	0.0163438
624.390	0.0163183
624.468	0.0163567
624.546	0.0164317
624.624	0.0163998
624.703	0.0163386
624.781	0.0162650
624.859	0.0163422
624.937	0.0163550
625.015	0.0163370
625.093	0.0163048
625.171	0.0163279
625.249	0.0164120
625.328	0.0164091
625.406	0.0164199
625.484	0.0162354
625.562	0.0163614
625.640	0.0162746
625.718	0.0163367
625.796	0.0164180
625.874	0.0162095
625.953	0.0163416
626.031	0.0162005
626.109	0.0163322
626.187	0.0161698
626.265	0.0162466
626.343	0.0161951
626.421	0.0162640
626.499	0.0161402
626.578	0.0162599
626.656	0.0162786
626.734	0.0162778
626.812	0.0161915
626.890	0.0162144
626.968	0.0161720
627.046	0.0162238
627.124	0.0163490
627.203	0.0162141
627.281	0.0162816
627.359	0.0163029
627.437	0.0162330
627.515	0.0162083
627.593	0.0162894
627.671	0.0163146
627.749	0.0160971
627.828	0.0162012
627.906	0.0163885
627.984	0.0162444
628.062	0.0161164
628.140	0.0162498
628.218	0.0163044
628.296	0.0162958
628.374	0.0162994
628.453	0.0163227
628.531	0.0162037
628.609	0.0163008
628.687	0.0162973
628.765	0.0162734
628.843	0.0161876
628.921	0.0163820
628.999	0.0163711
629.078	0.0162147
629.156	0.0162373
629.234	0.0162757
629.312	0.0162270
629.390	0.0161958
629.468	0.0162614
629.546	0.0162271
629.624	0.0163967
629.703	0.0162926
629.781	0.0161073
629.859	0.0161630
629.937	0.0162466
630.015	0.0162386
630.093	0.0163054
630.171	0.0163276
630.249	0.0161559
630.328	0.0161324
630.406	0.0161018
630.484	0.0162774
630.562	0.0163235
630.640	0.0163134
630.718	0.0161993
630.796	0.0162305
630.874	0.0161760
630.953	0.0163560
631.031	0.0162819
631.109	0.0162998
631.187	0.0162603
631.265	0.0163473
631.343	0.0161294
631.421	0.0162643
631.499	0.0162361
631.578	0.0163437
631.656	0.0162862
631.734	0.0163895
631.812	0.0163605
631.890	0.0163022
631.968	0.0162901
632.046	0.0162864
632.124	0.0161770
632.203	0.0162579
632.281	0.0164149
632.359	0.0162332
632.437	0.0163277
632.515	0.0163287
632.593	0.0160749
632.671	0.0162473
632.749	0.0162204
632.828	0.0163219
632.906	0.0163283
632.984	0.0161929
633.062	0.0163148
633.140	0.0161414
633.218	0.0162057
633.296	0.0162104
633.374	0.0161892
633.453	0.0163537
633.531	0.0162939
633.609	0.0162154
633.687	0.0164539
633.765	0.0162693
633.843	0.0161793
633.921	0.0163343
633.999	0.0164078
634.078	0.0163485
634.156	0.0163141
634.234	0.0163293
634.312	0.0162965
634.390	0.0162813
634.468	0.0162522
634.546	0.0163624
634.624	0.0162138
634.703	0.0161887
634.781	0.0163779
634.859	0.0163524
634.937	0.0163580
635.015	0.0163160
635.093	0.0162872
635.171	0.0163081
635.249	0.0163325
635.328	0.0163254
635.406	0.0164101
635.484	0.0163231
635.562	0.0162429
635.640	0.0163320
635.718	0.0163940
635.796	0.0165888
635.874	0.0163660
635.953	0.0163702
636.031	0.0163509
636.109	0.0162508
636.187	0.0163511
636.265	0.0163477
636.343	0.0162128
636.421	0.0164304
636.499	0.0164474
636.578	0.0163727
636.656	0.0164143
636.734	0.0164068
636.812	0.0164851
636.890	0.0165621
636.968	0.0164442
637.046	0.0163757
637.124	0.0163549
637.203	0.0165038
637.281	0.0164194
637.359	0.0164892
637.437	0.0164463
637.515	0.0162242
637.593	0.0163081
637.671	0.0163908
637.749	0.0166289
637.828	0.0164622
637.906	0.0164407
637.984	0.0162424
638.062	0.0165022
638.140	0.0163023
638.218	0.0163634
638.296	0.0163152
638.374	0.0164500
638.453	0.0164931
638.531	0.0163956
638.609	0.0165244
638.687	0.0163082
638.765	0.0163869
638.843	0.0163911
638.921	0.0163611
638.999	0.0164284
639.078	0.0164082
639.156	0.0164714
639.234	0.0164167
639.312	0.0163900
639.390	0.0164082
639.468	0.0164844
639.546	0.0163442
639.624	0.0162864
639.703	0.0163580
639.781	0.0162685
639.859	0.0164533
639.937	0.0165715
640.015	0.0163254
640.093	0.0162522
640.171	0.0163282
640.249	0.0164645
640.328	0.0163945
640.406	0.0163795
640.484	0.0162649
640.562	0.0162988
640.640	0.0163889
640.718	0.0163232
640.796	0.0163488
640.874	0.0163930
640.953	0.0163690
641.031	0.0164103
641.109	0.0163866
641.187	0.0163674
641.265	0.0164904
641.343	0.0164617
641.421	0.0163826
641.499	0.0163254
641.578	0.0162859
641.656	0.0162806
641.734	0.0163922
641.812	0.0164774
641.890	0.0163759
641.968	0.0163496
642.046	0.0163342
642.124	0.0163107
642.203	0.0164376
642.281	0.0163351
642.359	0.0163515
642.437	0.0163000
642.515	0.0163422
642.593	0.0163416
642.671	0.0163451
642.749	0.0162699
642.828	0.0163139
642.906	0.0163932
642.984	0.0164594
643.062	0.0163466
643.140	0.0164137
643.218	0.0163349
643.296	0.0164142
643.374	0.0164727
643.453	0.0164481
643.531	0.0165111
643.609	0.0162556
643.687	0.0162428
643.765	0.0163223
643.843	0.0163836
643.921	0.0163753
643.999	0.0164225
644.078	0.0164117
644.156	0.0164423
644.234	0.0163842
644.312	0.0164147
644.390	0.0162775
644.468	0.0164321
644.546	0.0163742
644.624	0.0164055
644.703	0.0164946
644.781	0.0164865
644.859	0.0163457
644.937	0.0164064
645.015	0.0163906
645.093	0.0162400
645.171	0.0162811
645.249	0.0163625
645.328	0.0162161
645.406	0.0162759
645.484	0.0162453
645.562	0.0163496
645.640	0.0163659
645.718	0.0164732
645.796	0.0163399
645.874	0.0163986
645.953	0.0163190
646.031	0.0161259
646.109	0.0163696
646.187	0.0163713
646.265	0.0163144
646.343	0.0162618
646.421	0.0163990
646.499	0.0162578
646.578	0.0163033
646.656	0.0163492
646.734	0.0163741
646.812	0.0162545
646.890	0.0164069
646.968	0.0163032
647.046	0.0162580
647.124	0.0162196
647.203	0.0162338
647.281	0.0163398
647.359	0.0161663
647.437	0.0162822
647.515	0.0164048
647.593	0.0162508
647.671	0.0162665
647.749	0.0162760
647.828	0.0162237
647.906	0.0162304
647.984	0.0163163
648.062	0.0162944
648.140	0.0162348
648.218	0.0162411
648.296	0.0163281
648.374	0.0162722
648.453	0.0163600
648.531	0.0163889
648.609	0.0164400
648.687	0.0161034
648.765	0.0162074
648.843	0.0162057
648.921	0.0164699
648.999	0.0163450
649.078	0.0163091
649.156	0.0162951
649.234	0.0162846
649.312	0.0161684
649.390	0.0162800
649.468	0.0162881
649.546	0.0163220
649.624	0.0162190
649.703	0.0162794
649.781	0.0164486
649.859	0.0163927
649.937	0.0161797
650.015	0.0164536
650.093	0.0163590
650.171	0.0162730
650.249	0.0162594
650.328	0.0162896
650.406	0.0162789
650.484	0.0162431
650.562	0.0162925
650.640	0.0162849
650.718	0.0163325
650.796	0.0163273
650.874	0.0162061
650.953	0.0163457
651.031	0.0162769
651.109	0.0163445
651.187	0.0165021
651.265	0.0163817
651.343	0.0162575
651.421	0.0162334
651.499	0.0163554
651.578	0.0164671
651.656	0.0163724
651.734	0.0161811
651.812	0.0163239
651.890	0.0162611
651.968	0.0162372
652.046	0.0161900
652.124	0.0162600
652.203	0.0162659
652.281	0.0163384
652.359	0.0161491
652.437	0.0163503
652.515	0.0162907
652.593	0.0162437
652.671	0.0163215
652.749	0.0162482
652.828	0.0163302
652.906	0.0162995
652.984	0.0162702
653.062	0.0164001
653.140	0.0163561
653.218	0.0162280
653.296	0.0163288
653.374	0.0162640
653.453	0.0162589
653.531	0.0163405
653.609	0.0164262
653.687	0.0163560
653.765	0.0163106
653.843	0.0162679
653.921	0.0162457
653.999	0.0163303
654.078	0.0162917
654.156	0.0164006
654.234	0.0161761
654.312	0.0161809
654.390	0.0163085
654.468	0.0162957
654.546	0.0162130
654.624	0.0163345
654.703	0.0162731
654.781	0.0161749
654.859	0.0161933
654.937	0.0162793
655.015	0.0162406
655.093	0.0163519
655.171	0.0164045
655.249	0.0163799
655.328	0.0163033
655.406	0.0161753
655.484	0.0163808
655.562	0.0164562
655.640	0.0162892
655.718	0.0164171
655.796	0.0163364
655.874	0.0162961
655.953	0.0164492
656.031	0.0163499
656.109	0.0163098
656.187	0.0162489
656.265	0.0163427
656.343	0.0162372
656.421	0.0162589
656.499	0.0164456
656.578	0.0163382
656.656	0.0162212
656.734	0.0163427
656.812	0.0163918
656.890	0.0162872
656.968	0.0163369
657.046	0.0162753
657.124	0.0163935
657.203	0.0163205
657.281	0.0161951
657.359	0.0162778
657.437	0.0164951
657.515	0.0162979
657.593	0.0162416
657.671	0.0163470
657.749	0.0163093
657.828	0.0162523
657.906	0.0163800
657.984	0.0164017
658.062	0.0163237
658.140	0.0163052
658.218	0.0163898
658.296	0.0163590
658.374	0.0163287
658.453	0.0163065
658.531	0.0164840
658.609	0.0163163
658.687	0.0164496
658.765	0.0164339
658.843	0.0163279
658.921	0.0163092
658.999	0.0164374
659.078	0.0164764
659.156	0.0162868
659.234	0.0163478
659.312	0.0163622
659.390	0.0163777
659.468	0.0164450
659.546	0.0164038
659.624	0.0163417
659.703	0.0163209
659.781	0.0165051
659.859	0.0163197
659.937	0.0163586
660.015	0.0164983
660.093	0.0164601
660.171	0.0164731
660.249	0.0163264
660.328	0.0163476
660.406	0.0163145
660.484	0.0165013
660.562	0.0164053
660.640	0.0162287
660.718	0.0163316
660.796	0.0163564
660.874	0.0164152
660.953	0.0163828
661.031	0.0164339
661.109	0.0163651
661.187	0.0163946
661.265	0.0163332
661.343	0.0163058
661.421	0.0163840
661.499	0.0163622
661.578	0.0164334
661.656	0.0161813
661.734	0.0163338
661.812	0.0164403
661.890	0.0163519
661.968	0.0162990
662.046	0.0163478
662.124	0.0163074
662.203	0.0163287
662.281	0.0163959
662.359	0.0162991
662.437	0.0162646
662.515	0.0163490
662.593	0.0164746
662.671	0.0163219
662.749	0.0162544
662.828	0.0163467
662.906	0.0163319
662.984	0.0164771
663.062	0.0163354
663.140	0.0163052
663.218	0.0162775
663.296	0.0165102
663.374	0.0163862
663.453	0.0163332
663.531	0.0162962
663.609	0.0164175
663.687	0.0163279
663.765	0.0161869
663.843	0.0164052
663.921	0.0165228
663.999	0.0163921
664.078	0.0164022
664.156	0.0164527
664.234	0.0163690
664.312	0.0163390
664.390	0.0163678
664.468	0.0163096
664.546	0.0164097
664.624	0.0163493
664.703	0.0164955
664.781	0.0163657
664.859	0.0164156
664.937	0.0163249
665.015	0.0162598
665.093	0.0163342
665.171	0.0164285
665.249	0.0163603
665.328	0.0163663
665.406	0.0163461
665.484	0.0165183
665.562	0.0163863
665.640	0.0163892
665.718	0.0163462
665.796	0.0165619
665.874	0.0164117
665.953	0.0163199
666.031	0.0163322
666.109	0.0163010
666.187	0.0163483
666.265	0.0163448
666.343	0.0163701
666.421	0.0162816
666.499	0.0162646
666.578	0.0164500
666.656	0.0163873
666.734	0.0163628
666.812	0.0162906
666.890	0.0163979
666.968	0.0163511
667.046	0.0164896
667.124	0.0162387
667.203	0.0162761
667.281	0.0164613
667.359	0.0163734
667.437	0.0163187
667.515	0.0163862
667.593	0.0163162
667.671	0.0164388
667.749	0.0164133
667.828	0.0162652
667.906	0.0164497
667.984	0.0164023
668.062	0.0164700
668.140	0.0163413
668.218	0.0163443
668.296	0.0164950
668.374	0.0163703
668.453	0.0164259
668.531	0.0163132
668.609	0.0162318
668.687	0.0163419
668.765	0.0164493
668.843	0.0162984
668.921	0.0163142
668.999	0.0163783
669.078	0.0163940
669.156	0.0163637
669.234	0.0163877
669.312	0.0163306
669.390	0.0164100
669.468	0.0164227
669.546	0.0163149
669.624	0.0163020
669.703	0.0163114
669.781	0.0163639
669.859	0.0163416
669.937	0.0163481
670.015	0.0163938
670.093	0.0163811
670.171	0.0162956
670.249	0.0163284
670.328	0.0163087
670.406	0.0162986
670.484	0.0163513
670.562	0.0162186
670.640	0.0162789
670.718	0.0162830
670.796	0.0163536
670.874	0.0164339
670.953	0.0163603
671.031	0.0163292
671.109	0.0163288
671.187	0.0163087
671.265	0.0164694
671.343	0.0161652
671.421	0.0163196
671.499	0.0163726
671.578	0.0163109
671.656	0.0163744
671.734	0.0164206
671.812	0.0162923
671.890	0.0163588
671.968	0.0163416
672.046	0.0163921
672.124	0.0162561
672.203	0.0165042
672.281	0.0163907
672.359	0.0162534
672.437	0.0162762
672.515	0.0163852
672.593	0.0164082
672.671	0.0164026
672.749	0.0162527
672.828	0.0162941
672.906	0.0164742
672.984	0.0164088
673.062	0.0164455
673.140	0.0163943
673.218	0.0163686
673.296	0.0164037
673.374	0.0164204
673.453	0.0163166
673.531	0.0161989
673.609	0.0162540
673.687	0.0164014
673.765	0.0164011
673.843	0.0164280
673.921	0.0163918
673.999	0.0162859
674.078	0.0163033
674.156	0.0162885
674.234	0.0163753
674.312	0.0163976
674.390	0.0164179
674.468	0.0162984
674.546	0.0163226
674.624	0.0162949
674.703	0.0163331
674.781	0.0162704
674.859	0.0162802
674.937	0.0162965
675.015	0.0162872
675.093	0.0162777
675.171	0.0162571
675.249	0.0165137
675.328	0.0164783
675.406	0.0163002
675.484	0.0163219
675.562	0.0161969
675.640	0.0163203
675.718	0.0162958
675.796	0.0163206
675.874	0.0162424
675.953	0.0162999
676.031	0.0163705
676.109	0.0161948
676.187	0.0163864
676.265	0.0162797
676.343	0.0163248
676.421	0.0162752
676.499	0.0162682
676.578	0.0162565
676.656	0.0164246
676.734	0.0164108
676.812	0.0164044
676.890	0.0164243
676.968	0.0163819
677.046	0.0163657
677.124	0.0163827
677.203	0.0163488
677.281	0.0163688
677.359	0.0162852
677.437	0.0162930
677.515	0.0163876
677.593	0.0163790
677.671	0.0162137
677.749	0.0163854
677.828	0.0162807
677.906	0.0162083
677.984	0.0163853
678.062	0.0163795
678.140	0.0164049
678.218	0.0164416
678.296	0.0164371
678.374	0.0161987
678.453	0.0162864
678.531	0.0162486
678.609	0.0164442
678.687	0.0164439
678.765	0.0163963
678.843	0.0163978
678.921	0.0162530
678.999	0.0163282
679.078	0.0163329
679.156	0.0162006
679.234	0.0164902
679.312	0.0164807
679.390	0.0163995
679.468	0.0164393
679.546	0.0163148
679.624	0.0163304
679.703	0.0163314
679.781	0.0163549
679.859	0.0163386
679.937	0.0162736
680.015	0.0163674
680.093	0.0162655
680.171	0.0163719
680.249	0.0163361
680.328	0.0163305
680.406	0.0164173
680.484	0.0164108
680.562	0.0162971
680.640	0.0164530
680.718	0.0163197
680.796	0.0161896
680.874	0.0162170
680.953	0.0162997
681.031	0.0163477
681.109	0.0162524
681.187	0.0163210
681.265	0.0163422
681.343	0.0163437
681.421	0.0162363
681.499	0.0164027
681.578	0.0163123
681.656	0.0162309
681.734	0.0162283
681.812	0.0162806
681.890	0.0163192
681.968	0.0164275
682.046	0.0162713
682.124	0.0162735
682.203	0.0164484
682.281	0.0162643
682.359	0.0162163
682.437	0.0164825
682.515	0.0165009
682.593	0.0163589
682.671	0.0162891
682.749	0.0162959
682.828	0.0162981
682.906	0.0162608
682.984	0.0163402
683.062	0.0162765
683.140	0.0162697
683.218	0.0163823
683.296	0.0164258
683.374	0.0162981
683.453	0.0162747
683.531	0.0162255
683.609	0.0161807
683.687	0.0163566
683.765	0.0163875
683.843	0.0163790
683.921	0.0163444
683.999	0.0163191
684.078	0.0163257
684.156	0.0163406
684.234	0.0164165
684.312	0.0164149
684.390	0.0165219
684.468	0.0162650
684.546	0.0164819
684.624	0.0165102
684.703	0.0163813
684.781	0.0163282
684.859	0.0162318
684.937	0.0164351
685.015	0.0163219
685.093	0.0163562
685.171	0.0163606
685.249	0.0164996
685.328	0.0162688
685.406	0.0162518
685.484	0.0164291
685.562	0.0163847
685.640	0.0163480
685.718	0.0162344
685.796	0.0164124
685.874	0.0163684
685.953	0.0164552
686.031	0.0163301
686.109	0.0163544
686.187	0.0163118
686.265	0.0163853
686.343	0.0162352
686.421	0.0163203
686.499	0.0163632
686.578	0.0163006
686.656	0.0163583
686.734	0.0163443
686.812	0.0163223
686.890	0.0164305
686.968	0.0161864
687.046	0.0162395
687.124	0.0164105
687.203	0.0163351
687.281	0.0164241
687.359	0.0164484
687.437	0.0163551
687.515	0.0163121
687.593	0.0163110
687.671	0.0162331
687.749	0.0163058
687.828	0.0164170
687.906	0.0163494
687.984	0.0162206
688.062	0.0164717
688.140	0.0164344
688.218	0.0161794
688.296	0.0163259
688.374	0.0163026
688.453	0.0162405
688.531	0.0164359
688.609	0.0163746
688.687	0.0163750
688.765	0.0163679
688.843	0.0161798
688.921	0.0163853
688.999	0.0163879
689.078	0.0163487
689.156	0.0164945
689.234	0.0164253
689.312	0.0163522
689.390	0.0163204
689.468	0.0162894
689.546	0.0162907
689.624	0.0164264
689.703	0.0164987
689.781	0.0165393
689.859	0.0163461
689.937	0.0163671
690.015	0.0163129
690.093	0.0164219
690.171	0.0163281
690.249	0.0162186
690.328	0.0164305
690.406	0.0162849
690.484	0.0163743
690.562	0.0162402
690.640	0.0164180
690.718	0.0164815
690.796	0.0163353
690.874	0.0164003
690.953	0.0163175
691.031	0.0164000
691.109	0.0164170
691.187	0.0163127
691.265	0.0163435
691.343	0.0163045
691.421	0.0163182
691.499	0.0162527
691.578	0.0163576
691.656	0.0163332
691.734	0.0162634
691.812	0.0164533
691.890	0.0164317
691.968	0.0163478
692.046	0.0162869
692.124	0.0163317
692.203	0.0162279
692.281	0.0163893
692.359	0.0164799
692.437	0.0163503
692.515	0.0163454
692.593	0.0163750
692.671	0.0164829
692.749	0.0163265
692.828	0.0162379
692.906	0.0164056
692.984	0.0163547
693.062	0.0162136
693.140	0.0164043
693.218	0.0163284
693.296	0.0161967
693.374	0.0164041
693.453	0.0163932
693.531	0.0162749
693.609	0.0164442
693.687	0.0162993
693.765	0.0163651
693.843	0.0164454
693.921	0.0163303
693.999	0.0162968
694.078	0.0163007
694.156	0.0162816
694.234	0.0162991
694.312	0.0164801
694.390	0.0161430
694.468	0.0161705
694.546	0.0164120
694.624	0.0164336
694.703	0.0163665
694.781	0.0163303
694.859	0.0163017
694.937	0.0163108
695.015	0.0164056
695.093	0.0163278
695.171	0.0163603
695.249	0.0164046
695.328	0.0163379
695.406	0.0162164
695.484	0.0162666
695.562	0.0163660
695.640	0.0163995
695.718	0.0164471
695.796	0.0164233
695.874	0.0163089
695.953	0.0162555
696.031	0.0165149
696.109	0.0164350
696.187	0.0163087
696.265	0.0163174
696.343	0.0163161
696.421	0.0163496
696.499	0.0162949
696.578	0.0163716
696.656	0.0163533
696.734	0.0162595
696.812	0.0163858
696.890	0.0162838
696.968	0.0163564
697.046	0.0163213
697.124	0.0163597
697.203	0.0164165
697.281	0.0164084
697.359	0.0163996
697.437	0.0164157
697.515	0.0162607
697.593	0.0162313
697.671	0.0163406
697.749	0.0162978
697.828	0.0163375
697.906	0.0163994
697.984	0.0164137
698.062	0.0163869
698.140	0.0164903
698.218	0.0162930
698.296	0.0163363
698.374	0.0163585
698.453	0.0163707
698.531	0.0163718
698.609	0.0163333
698.687	0.0163399
698.765	0.0162994
698.843	0.0161686
698.921	0.0163467
698.999	0.0163064
699.078	0.0164477
699.156	0.0164594
699.234	0.0163580
699.312	0.0163874
699.390	0.0163361
699.468	0.0163414
699.546	0.0164236
699.624	0.0164700
699.703	0.0164062
699.781	0.0164367
699.859	0.0163012
699.937	0.0164057
700.015	0.0164191
700.093	0.0164451
700.171	0.0164027
700.249	0.0162662
700.328	0.0163745
700.406	0.0164034
700.484	0.0164017
700.562	0.0164707
700.640	0.0163870
700.718	0.0163341
700.796	0.0162999
700.874	0.0163422
700.953	0.0163490
701.031	0.0163992
701.109	0.0164245
701.187	0.0162946
701.265	0.0164298
701.343	0.0164529
701.421	0.0164468
701.499	0.0165087
701.578	0.0163548
701.656	0.0163353
701.734	0.0163554
701.812	0.0162591
701.890	0.0163817
701.968	0.0163786
702.046	0.0163120
702.124	0.0163730
702.203	0.0163429
702.281	0.0163242
702.359	0.0163831
702.437	0.0162943
702.515	0.0166059
702.593	0.0163937
702.671	0.0163380
702.749	0.0164197
702.828	0.0164124
702.906	0.0163191
702.984	0.0163707
703.062	0.0163120
703.140	0.0163139
703.218	0.0165272
703.296	0.0162151
703.374	0.0164137
703.453	0.0163432
703.531	0.0163383
703.609	0.0163130
703.687	0.0163935
703.765	0.0164379
703.843	0.0163966
703.921	0.0162712
703.999	0.0162902
704.078	0.0163717
704.156	0.0161950
704.234	0.0163050
704.312	0.0163477
704.390	0.0162283
704.468	0.0164194
704.546	0.0162779
704.624	0.0164983
704.703	0.0165405
704.781	0.0164053
704.859	0.0162201
704.937	0.0162835
705.015	0.0163338
705.093	0.0163389
705.171	0.0163401
705.249	0.0163757
705.328	0.0164619
705.406	0.0163541
705.484	0.0163398
705.562	0.0162466
705.640	0.0163580
705.718	0.0162816
705.796	0.0163791
705.874	0.0162844
705.953	0.0164592
706.031	0.0162756
706.109	0.0164056
706.187	0.0163013
706.265	0.0162069
706.343	0.0163837
706.421	0.0163872
706.499	0.0162709
706.578	0.0162537
706.656	0.0164025
706.734	0.0163632
706.812	0.0163579
706.890	0.0163555
706.968	0.0164111
707.046	0.0163851
707.124	0.0162540
707.203	0.0162524
707.281	0.0163391
707.359	0.0162635
707.437	0.0162436
707.515	0.0163760
707.593	0.0164149
707.671	0.0162634
707.749	0.0163644
707.828	0.0163844
707.906	0.0165565
707.984	0.0162951
708.062	0.0164022
708.140	0.0164292
708.218	0.0162351
708.296	0.0163184
708.374	0.0162597
708.453	0.0163306
708.531	0.0163824
708.609	0.0164936
708.687	0.0163184
708.765	0.0164471
708.843	0.0162778
708.921	0.0163039
708.999	0.0164114
709.078	0.0162726
709.156	0.0163485
709.234	0.0163132
709.312	0.0163448
709.390	0.0163316
709.468	0.0162371
709.546	0.0161472
709.624	0.0163410
709.703	0.0163811
709.781	0.0162838
709.859	0.0162601
709.937	0.0163420
710.015	0.0162382
710.093	0.0163976
710.171	0.0163866
710.249	0.0163900
710.328	0.0161670
710.406	0.0162854
710.484	0.0164332
710.562	0.0162626
710.640	0.0162095
710.718	0.0163825
710.796	0.0162072
710.874	0.0163438
710.953	0.0162243
711.031	0.0163996
711.109	0.0163800
711.187	0.0163931
711.265	0.0163177
711.343	0.0163123
711.421	0.0161913
711.499	0.0163339
711.578	0.0164043
711.656	0.0163158
711.734	0.0164044
711.812	0.0164126
711.890	0.0164114
711.968	0.0163073
712.046	0.0163226
712.124	0.0163045
712.203	0.0163531
712.281	0.0164302
712.359	0.0163179
712.437	0.0163992
712.515	0.0163698
712.593	0.0163594
712.671	0.0162559
712.749	0.0163441
712.828	0.0164205
712.906	0.0162764
712.984	0.0162998
713.062	0.0164738
713.140	0.0162761
713.218	0.0162447
713.296	0.0163245
713.374	0.0163377
713.453	0.0162672
713.531	0.0165625
713.609	0.0163302
713.687	0.0162988
713.765	0.0161983
713.843	0.0162348
713.921	0.0164240
713.999	0.0162608
714.078	0.0162357
714.156	0.0163966
714.234	0.0164151
714.312	0.0163817
714.390	0.0163315
714.468	0.0163806
714.546	0.0163826
714.624	0.0162989
714.703	0.0161955
714.781	0.0163140
714.859	0.0163715
714.937	0.0162628
715.015	0.0164286
715.093	0.0163307
715.171	0.0163776
715.249	0.0164434
715.328	0.0164485
715.406	0.0163607
715.484	0.0163637
715.562	0.0164620
715.640	0.0164089
715.718	0.0164363
715.796	0.0162866
715.874	0.0162382
715.953	0.0162556
716.031	0.0164498
716.109	0.0161757
716.187	0.0163824
716.265	0.0163913
716.343	0.0162057
716.421	0.0163570
716.499	0.0165199
716.578	0.0162719
716.656	0.0162374
716.734	0.0163396
716.812	0.0163240
716.890	0.0164275
716.968	0.0162813
717.046	0.0162843
717.124	0.0162904
717.203	0.0163100
717.281	0.0165736
717.359	0.0163779
717.437	0.0163078
717.515	0.0162395
717.593	0.0162611
717.671	0.0163571
717.749	0.0163590
717.828	0.0163905
717.906	0.0162625
717.984	0.0162218
718.062	0.0164357
718.140	0.0164717
718.218	0.0163467
718.296	0.0163416
718.374	0.0164423
718.453	0.0163318
718.531	0.0162640
718.609	0.0164683
718.687	0.0162693
718.765	0.0163744
718.843	0.0163020
718.921	0.0163476
718.999	0.0163916
719.078	0.0163223
719.156	0.0163589
719.234	0.0163750
719.312	0.0162446
719.390	0.0162812
719.468	0.0163882
719.546	0.0162677
719.624	0.0162967
719.703	0.0163268
719.781	0.0163049
719.859	0.0162987
719.937	0.0163470
720.015	0.0162304
720.093	0.0163010
720.171	0.0164089
720.249	0.0164425
720.328	0.0163301
720.406	0.0163601
720.484	0.0162717
720.562	0.0163992
720.640	0.0164310
720.718	0.0164750
720.796	0.0165269
720.874	0.0165027
720.953	0.0166463
721.031	0.0166305
721.109	0.0165440
721.187	0.0164787
721.265	0.0164508
721.343	0.0164419
721.421	0.0164799
721.499	0.0163049
721.578	0.0163247
721.656	0.0163063
721.734	0.0163165
721.812	0.0162650
721.890	0.0161388
721.968	0.0160113
722.046	0.0160579
722.124	0.0159794
722.203	0.0159098
722.281	0.0159695
722.359	0.0159480
722.437	0.0159392
722.515	0.0158114
722.593	0.0160168
722.671	0.0159734
722.749	0.0161392
722.828	0.0161883
722.906	0.0161805
722.984	0.0161755
723.062	0.0162228
723.140	0.0164267
723.218	0.0165361
723.296	0.0165655
723.374	0.0166492
723.453	0.0168127
723.531	0.0168046
723.609	0.0168145
723.687	0.0167324
723.765	0.0167909
723.843	0.0167335
723.921	0.0166163
723.999	0.0164946
724.078	0.0165976
724.156	0.0165912
724.234	0.0163380
724.312	0.0164152
724.390	0.0165048
724.468	0.0162762
724.546	0.0163044
724.624	0.0162476
724.703	0.0161826
724.781	0.0162402
724.859	0.0161889
724.937	0.0161216
725.015	0.0161475
725.093	0.0163397
725.171	0.0161936
725.249	0.0159560
725.328	0.0162569
725.406	0.0162514
725.484	0.0163058
725.562	0.0162703
725.640	0.0163420
725.718	0.0162572
725.796	0.0162835
725.874	0.0162162
725.953	0.0161756
726.031	0.0161244
726.109	0.0159389
726.187	0.0160099
726.265	0.0158576
726.343	0.0159583
726.421	0.0158549
726.499	0.0158974
726.578	0.0160546
726.656	0.0158481
726.734	0.0160482
726.812	0.0160174
726.890	0.0161533
726.968	0.0161002
727.046	0.0162670
727.124	0.0163012
727.203	0.0163797
727.281	0.0163111
727.359	0.0166115
727.437	0.0166124
727.515	0.0168375
727.593	0.0169177
727.671	0.0169234
727.749	0.0170764
727.828	0.0171042
727.906	0.0172735
727.984	0.0173015
728.062	0.0172763
728.140	0.0172602
728.218	0.0172356
728.296	0.0171758
728.374	0.0169982
728.453	0.0169822
728.531	0.0169060
728.609	0.0166535
728.687	0.0165345
728.765	0.0164014
728.843	0.0159948
728.921	0.0158421
728.999	0.0157222
729.078	0.0155011
729.156	0.0153796
729.234	0.0151456
729.312	0.0150098
729.390	0.0148837
729.468	0.0147361
729.546	0.0146913
729.624	0.0145701
729.703	0.0147667
729.781	0.0149256
729.859	0.0149759
729.937	0.0152211
730.015	0.0154273
730.093	0.0156518
730.171	0.0160572
730.249	0.0162872
730.328	0.0166854
730.406	0.0168269
730.484	0.0171532
730.562	0.0174081
730.640	0.0175497
730.718	0.0175529
730.796	0.0177508
730.874	0.0181043
730.953	0.0179708
731.031	0.0181058
731.109	0.0181620
731.187	0.0179918
731.265	0.0180074
731.343	0.0178601
731.421	0.0175264
731.499	0.0173125
731.578	0.0170721
731.656	0.0169069
731.734	0.0166718
731.812	0.0163561
731.890	0.0160418
731.968	0.0158072
732.046	0.0156802
732.124	0.0153305
732.203	0.0151666
732.281	0.0149529
732.359	0.0149252
732.437	0.0147376
732.515	0.0149562
732.593	0.0148092
732.671	0.0146602
732.749	0.0149143
732.828	0.0149236
732.906	0.0150349
732.984	0.0151411
733.062	0.0152254
733.140	0.0153629
733.218	0.0156335
733.296	0.0157832
733.374	0.0159087
733.453	0.0160501
733.531	0.0162487
733.609	0.0164642
733.687	0.0165097
733.765	0.0166109
733.843	0.0168562
733.921	0.0167574
733.999	0.0170794
734.078	0.0170426
734.156	0.0168969
734.234	0.0170041
734.312	0.0171099
734.390	0.0169859
734.468	0.0170307
734.546	0.0171027
734.624	0.0171993
734.703	0.0170894
734.781	0.0171906
734.859	0.0172655
734.937	0.0172897
735.015	0.0172821
735.093	0.0172536
735.171	0.0172803
735.249	0.0171152
735.328	0.0171653
735.406	0.0170933
735.484	0.0167646
735.562	0.0167249
735.640	0.0165115
735.718	0.0163503
735.796	0.0162143
735.874	0.0161121
735.953	0.0159853
736.031	0.0158786
736.109	0.0156823
736.187	0.0155490
736.265	0.0156377
736.343	0.0154853
736.421	0.0154140
736.499	0.0154524
736.578	0.0154057
736.656	0.0153600
736.734	0.0153580
736.812	0.0153814
736.890	0.0154857
736.968	0.0156460
737.046	0.0155733
737.124	0.0157184
737.203	0.0157644
737.281	0.0158411
737.359	0.0161933
737.437	0.0160720
737.515	0.0162000
737.593	0.0163237
737.671	0.0165154
737.749	0.0165828
737.828	0.0167364
737.906	0.0167036
737.984	0.0167433
738.062	0.0169238
738.140	0.0169854
738.218	0.0169109
738.296	0.0168130
738.374	0.0168890
738.453	0.0169198
738.531	0.0169044
738.609	0.0168105
738.687	0.0166118
738.765	0.0165217
738.843	0.0163712
738.921	0.0164493
738.999	0.0162742
739.078	0.0163408
739.156	0.0163078
739.234	0.0162732
739.312	0.0163092
739.390	0.0162737
739.468	0.0164029
739.546	0.0164938
739.624	0.0165104
739.703	0.0166330
739.781	0.0165274
739.859	0.0166163
739.937	0.0166441
740.015	0.0167874
740.093	0.0166219
740.171	0.0166135
740.249	0.0166862
740.328	0.0166504
740.406	0.0166547
740.484	0.0164839
740.562	0.0165082
740.640	0.0164126
740.718	0.0165558
740.796	0.0165559
740.874	0.0165402
740.953	0.0164951
741.031	0.0164258
741.109	0.0162497
741.187	0.0162809
741.265	0.0163044
741.343	0.0161717
741.421	0.0161515
741.499	0.0160640
741.578	0.0158792
741.656	0.0158298
741.734	0.0159451
741.812	0.0156336
741.890	0.0157527
741.968	0.0159567
742.046	0.0157044
742.124	0.0157235
742.203	0.0157663
742.281	0.0158560
742.359	0.0159811
742.437	0.0159791
742.515	0.0159116
742.593	0.0160842
742.671	0.0161211
742.749	0.0162907
742.828	0.0163827
742.906	0.0163634
742.984	0.0164017
743.062	0.0165170
743.140	0.0163721
743.218	0.0165511
743.296	0.0165222
743.374	0.0164605
743.453	0.0164429
743.531	0.0165039
743.609	0.0166563
743.687	0.0164700
743.765	0.0166134
743.843	0.0164220
743.921	0.0166053
743.999	0.0165429
744.078	0.0166289
744.156	0.0166010
744.234	0.0167963
744.312	0.0169356
744.390	0.0168901
744.468	0.0168961
744.546	0.0168130
744.624	0.0169869
744.703	0.0169126
744.781	0.0168394
744.859	0.0169643
744.937	0.0168350
745.015	0.0167177
745.093	0.0167455
745.171	0.0165743
745.249	0.0164843
745.328	0.0163406
745.406	0.0163858
745.484	0.0161937
745.562	0.0161369
745.640	0.0160754
745.718	0.0160028
745.796	0.0156879
745.874	0.0158930
745.953	0.0157397
746.031	0.0158372
746.109	0.0158255
746.187	0.0157690
746.265	0.0158167
746.343	0.0157983
746.421	0.0158450
746.499	0.0158759
746.578	0.0159027
746.656	0.0159571
746.734	0.0158972
746.812	0.0161459
746.890	0.0162203
746.968	0.0161967
747.046	0.0162468
747.124	0.0162164
747.203	0.0160963
747.281	0.0162977
747.359	0.0163486
747.437	0.0162632
747.515	0.0162223
747.593	0.0160214
747.671	0.0161243
747.749	0.0160989
747.828	0.0161541
747.906	0.0161769
747.984	0.0162154
748.062	0.0161781
748.140	0.0163490
748.218	0.0164187
748.296	0.0163453
748.374	0.0164880
748.453	0.0167100
748.531	0.0168416
748.609	0.0168166
748.687	0.0169355
748.765	0.0169745
748.843	0.0170550
748.921	0.0170299
748.999	0.0170138
749.078	0.0169881
749.156	0.0168196
749.234	0.0168116
749.312	0.0167336
749.390	0.0167863
749.468	0.0165450
749.546	0.0164583
749.624	0.0162582
749.703	0.0162476
749.781	0.0163132
749.859	0.0162300
749.937	0.0163386
750.015	0.0163082
750.093	0.0162103
750.171	0.0163754
750.249	0.0161327
750.328	0.0161344
750.406	0.0161015
750.484	0.0160999
750.562	0.0161021
750.640	0.0162640
750.718	0.0162308
750.796	0.0161263
750.874	0.0159745
750.953	0.0160005
751.031	0.0159941
751.109	0.0161518
751.187	0.0160395
751.265	0.0160449
751.343	0.0162520
751.421	0.0160240
751.499	0.0160919
751.578	0.0161054
751.656	0.0160961
751.734	0.0161691
751.812	0.0162566
751.890	0.0161915
751.968	0.0161390
752.046	0.0161258
752.124	0.0160212
752.203	0.0161284
752.281	0.0160632
752.359	0.0161287
752.437	0.0161808
752.515	0.0160287
752.593	0.0160349
752.671	0.0161482
752.749	0.0160239
752.828	0.0161182
752.906	0.0161927
752.984	0.0162678
753.062	0.0163390
753.140	0.0164931
753.218	0.0165741
753.296	0.0165955
753.374	0.0167549
753.453	0.0168176
753.531	0.0165559
753.609	0.0167828
753.687	0.0167549
753.765	0.0167814
753.843	0.0167984
753.921	0.0167734
753.999	0.0168948
754.078	0.0168561
754.156	0.0166875
754.234	0.0167900
754.312	0.0167498
754.390	0.0166319
754.468	0.0167727
754.546	0.0165275
754.624	0.0163858
754.703	0.0165015
754.781	0.0163667
754.859	0.0161668
754.937	0.0162818
755.015	0.0161114
755.093	0.0160081
755.171	0.0160490
755.249	0.0160314
755.328	0.0158681
755.406	0.0157864
755.484	0.0157121
755.562	0.0156760
755.640	0.0156312
755.718	0.0155306
755.796	0.0156078
755.874	0.0156389
755.953	0.0157211
756.031	0.0156686
756.109	0.0157845
756.187	0.0159226
756.265	0.0161095
756.343	0.0161113
756.421	0.0162765
756.499	0.0164845
756.578	0.0164696
756.656	0.0164342
756.734	0.0165693
756.812	0.0166248
756.890	0.0166000
756.968	0.0166860
757.046	0.0165557
757.124	0.0167204
757.203	0.0167525
757.281	0.0166777
757.359	0.0165529
757.437	0.0166031
757.515	0.0166206
757.593	0.0164371
757.671	0.0163008
757.749	0.0162930
757.828	0.0165218
757.906	0.0163399
757.984	0.0162789
758.062	0.0163242
758.140	0.0163600
758.218	0.0163506
758.296	0.0163363
758.374	0.0163866
758.453	0.0165591
758.531	0.0165028
758.609	0.0164667
758.687	0.0166600
758.765	0.0167158
758.843	0.0167238
758.921	0.0167255
758.999	0.0166264
759.078	0.0166201
759.156	0.0165662
759.234	0.0163262
759.312	0.0162401
759.390	0.0162601
759.468	0.0161818
759.546	0.0160207
759.624	0.0158824
759.703	0.0158175
759.781	0.0157519
759.859	0.0158193
759.937	0.0156881
760.015	0.0157514
760.093	0.0158508
760.171	0.0160476
760.249	0.0159492
760.328	0.0158794
760.406	0.0159731
760.484	0.0160588
760.562	0.0160347
760.640	0.0159445
760.718	0.0160701
760.796	0.0162525
760.874	0.0162160
760.953	0.0162838
761.031	0.0164167
761.109	0.0163756
761.187	0.0166086
761.265	0.0166650
761.343	0.0167918
761.421	0.0167908
761.499	0.0167965
761.578	0.0169418
761.656	0.0170960
761.734	0.0169894
761.812	0.0171126
761.890	0.0172243
761.968	0.0171708
762.046	0.0171427
762.124	0.0169437
762.203	0.0169509
762.281	0.0167688
762.359	0.0165903
762.437	0.0163239
762.515	0.0162217
762.593	0.0160431
762.671	0.0159052
762.749	0.0158929
762.828	0.0157102
762.906	0.0155223
762.984	0.0156425
763.062	0.0157190
763.140	0.0156320
763.218	0.0157549
763.296	0.0157869
763.374	0.0159570
763.453	0.0159064
763.531	0.0159068
763.609	0.0159622
763.687	0.0160432
763.765	0.0160416
763.843	0.0160593
763.921	0.0159989
763.999	0.0160526
764.078	0.0159871
764.156	0.0161095
764.234	0.0160086
764.312	0.0160815
764.390	0.0161034
764.468	0.0161685
764.546	0.0163098
764.624	0.0164645
764.703	0.0167303
764.781	0.0169917
764.859	0.0169463
764.937	0.0171365
765.015	0.0172314
765.093	0.0172725
765.171	0.0174149
765.249	0.0175304
765.328	0.0175176
765.406	0.0175145
765.484	0.0172926
765.562	0.0172549
765.640	0.0171138
765.718	0.0168534
765.796	0.0166933
765.874	0.0164066
765.953	0.0161569
766.031	0.0159361
766.109	0.0156870
766.187	0.0155891
766.265	0.0153487
766.343	0.0152863
766.421	0.0150974
766.499	0.0149904
766.578	0.0150634
766.656	0.0151859
766.734	0.0152736
766.812	0.0153414
766.890	0.0155649
766.968	0.0156667
767.046	0.0157866
767.124	0.0159319
767.203	0.0159634
767.281	0.0162129
767.359	0.0162903
767.437	0.0163154
767.515	0.0164180
767.593	0.0165789
767.671	0.0167921
767.749	0.0169918
767.828	0.0171175
767.906	0.0171932
767.984	0.0173142
768.062	0.0174937
768.140	0.0175745
768.218	0.0177834
768.296	0.0176812
768.374	0.0177422
768.453	0.0177297
768.531	0.0177038
768.609	0.0175953
768.687	0.0174851
768.765	0.0174037
768.843	0.0170912
768.921	0.0169176
768.999	0.0166760
769.078	0.0164017
769.156	0.0159466
769.234	0.0156728
769.312	0.0153709
769.390	0.0152370
769.468	0.0146471
769.546	0.0144199
769.624	0.0144017
769.703	0.0143307
769.781	0.0142254
769.859	0.0141676
769.937	0.0142519
770.015	0.0144051
770.093	0.0147910
770.171	0.0149451
770.249	0.0152612
770.328	0.0155441
770.406	0.0160531
770.484	0.0161975
770.562	0.0163697
770.640	0.0166002
770.718	0.0167805
770.796	0.0168822
770.874	0.0170164
770.953	0.0171855
771.031	0.0172369
771.109	0.0172461
771.187	0.0173739
771.265	0.0174902
771.343	0.0177362
771.421	0.0176184
771.499	0.0174599
771.578	0.0177608
771.656	0.0177202
771.734	0.0175411
771.812	0.0176075
771.890	0.0175530
771.968	0.0173734
772.046	0.0172322
772.124	0.0169627
772.203	0.0167005
772.281	0.0167127
772.359	0.0163671
772.437	0.0161371
772.515	0.0162222
772.593	0.0160591
772.671	0.0157629
772.749	0.0157465
772.828	0.0155455
772.906	0.0155186
772.984	0.0154889
773.062	0.0155791
773.140	0.0155232
773.218	0.0156839
773.296	0.0156275
773.374	0.0157694
773.453	0.0158163
773.531	0.0160275
773.609	0.0160783
773.687	0.0159206
773.765	0.0163218
773.843	0.0162044
773.921	0.0162318
773.999	0.0162360
774.078	0.0163362
774.156	0.0162634
774.234	0.0161075
774.312	0.0160697
774.390	0.0158994
774.468	0.0159833
774.546	0.0159539
774.624	0.0158258
774.703	0.0158186
774.781	0.0157679
774.859	0.0157391
774.937	0.0157409
775.015	0.0156792
775.093	0.0158541
775.171	0.0158252
775.249	0.0159188
775.328	0.0159792
775.406	0.0160657
775.484	0.0162763
775.562	0.0165709
775.640	0.0166175
775.718	0.0166978
775.796	0.0168229
775.874	0.0168439
775.953	0.0168340
776.031	0.0169658
776.109	0.0168417
776.187	0.0168449
776.265	0.0168578
776.343	0.0169152
776.421	0.0169820
776.499	0.0170183
776.578	0.0170039
776.656	0.0170635
776.734	0.0170017
776.812	0.0170664
776.890	0.0170982
776.968	0.0171038
777.046	0.0169482
777.124	0.0168628
777.203	0.0167205
777.281	0.0165097
777.359	0.0163940
777.437	0.0162925
777.515	0.0161272
777.593	0.0162202
777.671	0.0162321
777.749	0.0160458
777.828	0.0160448
777.906	0.0160600
777.984	0.0160788
778.062	0.0160115
778.140	0.0160538
778.218	0.0160258
778.296	0.0161833
778.374	0.0164246
778.453	0.0163034
778.531	0.0163518
778.609	0.0164314
778.687	0.0163196
778.765	0.0162579
778.843	0.0162399
778.921	0.0162051
778.999	0.0162703
779.078	0.0162244
779.156	0.0161161
779.234	0.0160410
779.312	0.0160417
779.390	0.0159396
779.468	0.0159987
779.546	0.0159279
779.624	0.0159937
779.703	0.0163032
779.781	0.0161677
779.859	0.0162332
779.937	0.0163892
780.015	0.0164808
780.093	0.0165431
780.171	0.0164958
780.249	0.0164972
780.328	0.0163078
780.406	0.0161550
780.484	0.0161044
780.562	0.0159950
780.640	0.0159467
780.718	0.0157571
780.796	0.0155597
780.874	0.0155713
780.953	0.0155753
781.031	0.0155280
781.109	0.0155967
781.187	0.0155948
781.265	0.0155100
781.343	0.0155476
781.421	0.0157458
781.499	0.0158840
781.578	0.0160019
781.656	0.0161269
781.734	0.0163819
781.812	0.0164963
781.890	0.0168411
781.968	0.0169473
782.046	0.0171898
782.124	0.0173902
782.203	0.0175684
782.281	0.0178007
782.359	0.0176976
782.437	0.0178952
782.515	0.0179668
782.593	0.0179913
782.671	0.0177295
782.749	0.0176923
782.828	0.0176468
782.906	0.0173241
782.984	0.0171301
783.062	0.0169077
783.140	0.0167999
783.218	0.0164738
783.296	0.0164231
783.374	0.0161423
783.453	0.0160715
783.531	0.0155932
783.609	0.0156802
783.687	0.0154957
783.765	0.0153876
783.843	0.0153049
783.921	0.0156115
783.999	0.0155556
784.078	0.0158250
784.156	0.0161226
784.234	0.0162351
784.312	0.0163959
784.390	0.0166611
784.468	0.0168197
784.546	0.0169551
784.624	0.0170895
784.703	0.0171040
784.781	0.0169315
784.859	0.0167658
784.937	0.0164420
785.015	0.0162217
785.093	0.0159590
785.171	0.0156079
785.249	0.0153108
785.328	0.0149287
785.406	0.0147160
785.484	0.0145313
785.562	0.0143827
785.640	0.0142943
785.718	0.0143224
785.796	0.0144334
785.874	0.0146694
785.953	0.0149555
786.031	0.0150172
786.109	0.0152255
786.187	0.0155479
786.265	0.0158720
786.343	0.0160324
786.421	0.0162004
786.499	0.0165238
786.578	0.0167092
786.656	0.0168993
786.734	0.0172271
786.812	0.0172801
786.890	0.0174014
786.968	0.0174558
787.046	0.0174880
787.124	0.0174580
787.203	0.0173356
787.281	0.0173515
787.359	0.0170613
787.437	0.0170765
787.515	0.0170889
787.593	0.0168524
787.671	0.0167508
787.749	0.0167896
787.828	0.0167331
787.906	0.0168167
787.984	0.0168865
788.062	0.0169662
788.140	0.0170367
788.218	0.0171931
788.296	0.0171531
788.374	0.0172703
788.453	0.0173522
788.531	0.0173471
788.609	0.0172639
788.687	0.0173227
788.765	0.0171881
788.843	0.0171229
788.921	0.0171706
788.999	0.0169753
789.078	0.0169369
789.156	0.0168430
789.234	0.0165465
789.312	0.0164553
789.390	0.0162257
789.468	0.0159946
789.546	0.0159023
789.624	0.0156054
789.703	0.0155998
789.781	0.0153955
789.859	0.0151309
789.937	0.0152160
790.015	0.0149812
790.093	0.0148363
790.171	0.0148545
790.249	0.0149139
790.328	0.0148676
790.406	0.0148716
790.484	0.0149589
790.562	0.0150332
790.640	0.0151025
790.718	0.0152119
790.796	0.0153738
790.874	0.0156665
790.953	0.0156155
791.031	0.0159288
791.109	0.0159985
791.187	0.0162218
791.265	0.0162723
791.343	0.0163525
791.421	0.0162643
791.499	0.0165066
791.578	0.0164667
791.656	0.0162383
791.734	0.0161087
791.812	0.0161032
791.890	0.0161664
791.968	0.0161057
792.046	0.0160509
792.124	0.0160423
792.203	0.0161004
792.281	0.0159997
792.359	0.0162000
792.437	0.0162791
792.515	0.0162831
792.593	0.0165988
792.671	0.0167686
792.749	0.0167977
792.828	0.0170375
792.906	0.0172410
792.984	0.0174435
793.062	0.0175386
793.140	0.0175893
793.218	0.0176057
793.296	0.0177097
793.374	0.0178989
793.453	0.0175715
793.531	0.0174210
793.609	0.0174223
793.687	0.0170590
793.765	0.0170013
793.843	0.0169879
793.921	0.0165165
793.999	0.0162865
794.078	0.0163417
794.156	0.0160873
794.234	0.0160347
794.312	0.0158286
794.390	0.0157962
794.468	0.0156747
794.546	0.0156639
794.624	0.0158288
794.703	0.0158034
794.781	0.0159830
794.859	0.0159098
794.937	0.0159510
795.015	0.0159693
795.093	0.0162910
795.171	0.0162064
795.249	0.0162334
795.328	0.0164594
795.406	0.0165011
795.484	0.0165413
795.562	0.0166972
795.640	0.0166049
795.718	0.0168044
795.796	0.0166741
795.874	0.0166417
795.953	0.0165556
796.031	0.0164513
796.109	0.0164056
796.187	0.0162305
796.265	0.0162086
796.343	0.0161509
796.421	0.0160263
796.499	0.0159867
796.578	0.0158933
796.656	0.0158959
796.734	0.0158196
796.812	0.0157217
796.890	0.0158271
796.968	0.0157603
797.046	0.0156332
797.124	0.0156532
797.203	0.0155072
797.281	0.0153445
797.359	0.0152483
797.437	0.0151839
797.515	0.0151545
797.593	0.0151730
797.671	0.0151675
797.749	0.0153136
797.828	0.0152461
797.906	0.0154066
797.984	0.0155367
798.062	0.0155556
798.140	0.0159003
798.218	0.0161246
798.296	0.0162055
798.374	0.0163168
798.453	0.0167246
798.531	0.0166068
798.609	0.0168133
798.687	0.0170035
798.765	0.0171310
798.843	0.0170408
798.921	0.0170392
798.999	0.0170934
799.078	0.0169373
799.156	0.0171460
799.234	0.0171345
799.312	0.0171069
799.390	0.0171448
799.468	0.0174981
799.546	0.0175737
799.624	0.0176009
799.703	0.0176206
799.781	0.0177065
799.859	0.0178819
799.937	0.0179954
800.015	0.0177681
800.093	0.0179921
800.171	0.0178615
800.249	0.0177468
800.328	0.0176471
800.406	0.0173862
800.484	0.0173901
800.562	0.0170770
800.640	0.0167223
800.718	0.0167322
800.796	0.0166553
800.874	0.0164405
800.953	0.0162205
801.031	0.0162666
801.109	0.0162383
801.187	0.0160313
801.265	0.0158904
801.343	0.0158286
801.421	0.0159049
801.499	0.0157553
801.578	0.0158308
801.656	0.0158192
801.734	0.0155467
801.812	0.0156745
801.890	0.0155511
801.968	0.0155380
802.046	0.0155184
802.124	0.0154130
802.203	0.0153189
802.281	0.0152374
802.359	0.0151505
802.437	0.0150124
802.515	0.0149632
802.593	0.0149017
802.671	0.0148341
802.749	0.0146696
802.828	0.0148779
802.906	0.0146886
802.984	0.0147697
803.062	0.0148428
803.140	0.0147598
803.218	0.0149465
803.296	0.0148532
803.374	0.0149678
803.453	0.0150830
803.531	0.0151824
803.609	0.0153496
803.687	0.0155020
803.765	0.0157831
803.843	0.0159347
803.921	0.0160392
803.999	0.0163462
804.078	0.0165508
804.156	0.0167419
804.234	0.0171021
804.312	0.0174950
804.390	0.0175633
804.468	0.0178110
804.546	0.0180040
804.624	0.0180704
804.703	0.0182706
804.781	0.0184837
804.859	0.0184370
804.937	0.0185108
805.015	0.0184333
805.093	0.0185747
805.171	0.0185059
805.249	0.0183335
805.328	0.0183127
805.406	0.0181813
805.484	0.0180871
805.562	0.0178853
805.640	0.0175877
805.718	0.0172826
805.796	0.0172241
805.874	0.0169055
805.953	0.0168250
806.031	0.0167133
806.109	0.0164666
806.187	0.0164266
806.265	0.0162656
806.343	0.0159815
806.421	0.0158556
806.499	0.0157581
806.578	0.0155749
806.656	0.0156157
806.734	0.0153612
806.812	0.0153886
806.890	0.0153175
806.968	0.0151917
807.046	0.0150492
807.124	0.0149673
807.203	0.0148466
807.281	0.0150638
807.359	0.0149174
807.437	0.0147475
807.515	0.0149610
807.593	0.0151018
807.671	0.0151850
807.749	0.0151994
807.828	0.0153237
807.906	0.0154355
807.984	0.0156723
808.062	0.0158206
808.140	0.0158378
808.218	0.0160390
808.296	0.0161615
808.374	0.0162502
808.453	0.0162547
808.531	0.0164220
808.609	0.0164357
808.687	0.0164106
808.765	0.0163023
808.843	0.0162453
808.921	0.0161938
808.999	0.0160162
809.078	0.0159317
809.156	0.0157435
809.234	0.0157784
809.312	0.0156006
809.390	0.0154369
809.468	0.0155034
809.546	0.0153771
809.624	0.0155592
809.703	0.0155009
809.781	0.0155524
809.859	0.0155342
809.937	0.0156954
810.015	0.0159454
810.093	0.0161784
810.171	0.0162377
810.249	0.0166029
810.328	0.0169317
810.406	0.0171040
810.484	0.0173495
810.562	0.0176383
810.640	0.0178949
810.718	0.0180276
810.796	0.0181754
810.874	0.0182667
810.953	0.0184791
811.031	0.0184458
811.109	0.0183730
811.187	0.0183659
811.265	0.0181693
811.343	0.0179465
811.421	0.0179105
811.499	0.0177554
811.578	0.0174123
811.656	0.0171798
811.734	0.0169585
811.812	0.0167249
811.890	0.0165498
811.968	0.0163815
812.046	0.0163655
812.124	0.0162379
812.203	0.0161262
812.281	0.0160904
812.359	0.0160722
812.437	0.0159876
812.515	0.0158589
812.593	0.0157742
812.671	0.0156194
812.749	0.0155428
812.828	0.0155136
812.906	0.0154229
812.984	0.0152840
813.062	0.0151884
813.140	0.0152486
813.218	0.0150562
813.296	0.0151177
813.374	0.0150837
813.453	0.0151504
813.531	0.0152110
813.609	0.0152827
813.687	0.0152954
813.765	0.0153645
813.843	0.0153508
813.921	0.0154321
813.999	0.0155730
814.078	0.0158247
814.156	0.0156689
814.234	0.0159241
814.312	0.0160408
814.390	0.0162141
814.468	0.0162405
814.546	0.0163371
814.624	0.0163197
814.703	0.0163286
814.781	0.0164365
814.859	0.0164230
814.937	0.0164548
815.015	0.0163026
815.093	0.0163895
815.171	0.0164922
815.249	0.0162763
815.328	0.0163000
815.406	0.0161158
815.484	0.0162026
815.562	0.0160142
815.640	0.0161017
815.718	0.0160444
815.796	0.0158443
815.874	0.0159844
815.953	0.0159156
816.031	0.0160338
816.109	0.0162400
816.187	0.0162012
816.265	0.0164851
816.343	0.0165173
816.421	0.0166580
816.499	0.0168726
816.578	0.0169855
816.656	0.0172871
816.734	0.0173375
816.812	0.0176343
816.890	0.0177902
816.968	0.0179399
817.046	0.0179961
817.124	0.0181101
817.203	0.0182388
817.281	0.0180618
817.359	0.0180978
817.437	0.0179459
817.515	0.0177513
817.593	0.0176291
817.671	0.0176503
817.749	0.0173699
817.828	0.0173694
817.906	0.0168451
817.984	0.0166586
818.062	0.0163840
818.140	0.0162160
818.218	0.0159010
818.296	0.0157531
818.374	0.0155991
818.453	0.0155273
818.531	0.0152878
818.609	0.0153148
818.687	0.0151073
818.765	0.0152099
818.843	0.0152267
818.921	0.0151441
818.999	0.0151374
819.078	0.0152678
819.156	0.0152958
819.234	0.0152539
819.312	0.0152899
819.390	0.0153917
819.468	0.0154321
819.546	0.0154321
819.624	0.0156094
819.703	0.0157467
819.781	0.0157474
819.859	0.0157349
819.937	0.0158627
820.015	0.0159829
820.093	0.0159356
820.171	0.0161417
820.249	0.0164148
820.328	0.0162618
820.406	0.0162916
820.484	0.0165071
820.562	0.0165453
820.640	0.0166163
820.718	0.0168215
820.796	0.0168006
820.874	0.0168072
820.953	0.0167640
821.031	0.0166611
821.109	0.0168842
821.187	0.0168741
821.265	0.0166625
821.343	0.0165910
821.421	0.0165213
821.499	0.0165384
821.578	0.0164525
821.656	0.0163036
821.734	0.0162941
821.812	0.0162925
821.890	0.0161096
821.968	0.0161861
822.046	0.0160601
822.124	0.0159994
822.203	0.0158781
822.281	0.0159126
822.359	0.0161337
822.437	0.0163306
822.515	0.0163087
822.593	0.0162968
822.671	0.0164342
822.749	0.0167993
822.828	0.0168893
822.906	0.0170910
822.984	0.0172253
823.062	0.0174455
823.140	0.0175298
823.218	0.0176382
823.296	0.0176785
823.374	0.0177639
823.453	0.0179084
823.531	0.0178697
823.609	0.0177681
823.687	0.0176806
823.765	0.0175780
823.843	0.0175129
823.921	0.0172038
823.999	0.0170341
824.078	0.0168346
824.156	0.0164561
824.234	0.0162791
824.312	0.0161295
824.390	0.0159879
824.468	0.0157558
824.546	0.0154399
824.624	0.0154347
824.703	0.0152923
824.781	0.0153384
824.859	0.0152338
824.937	0.0153209
825.015	0.0152090
825.093	0.0151724
825.171	0.0151299
825.249	0.0152679
825.328	0.0153014
825.406	0.0153951
825.484	0.0153448
825.562	0.0153967
825.640	0.0155623
825.718	0.0156889
825.796	0.0157510
825.874	0.0157692
825.953	0.0159657
826.031	0.0160794
826.109	0.0159819
826.187	0.0162394
826.265	0.0163409
826.343	0.0165343
826.421	0.0165539
826.499	0.0165742
826.578	0.0167318
826.656	0.0167243
826.734	0.0168179
826.812	0.0169288
826.890	0.0170159
826.968	0.0169097
827.046	0.0169700
827.124	0.0169861
827.203	0.0167807
827.281	0.0168005
827.359	0.0167642
827.437	0.0166174
827.515	0.0165099
827.593	0.0163766
827.671	0.0162692
827.749	0.0162782
827.828	0.0162648
827.906	0.0161231
827.984	0.0160580
828.062	0.0160571
828.140	0.0159838
828.218	0.0160288
828.296	0.0161012
828.374	0.0162128
828.453	0.0161253
828.531	0.0162763
828.609	0.0162700
828.687	0.0162778
828.765	0.0166033
828.843	0.0165855
828.921	0.0166202
828.999	0.0169022
829.078	0.0170367
829.156	0.0169518
829.234	0.0170779
829.312	0.0171999
829.390	0.0173934
829.468	0.0174109
829.546	0.0174943
829.624	0.0174277
829.703	0.0173904
829.781	0.0173681
829.859	0.0173792
829.937	0.0171968
830.015	0.0169247
830.093	0.0169612
830.171	0.0168778
830.249	0.0165971
830.328	0.0164360
830.406	0.0161404
830.484	0.0160813
830.562	0.0159379
830.640	0.0155476
830.718	0.0154124
830.796	0.0153660
830.874	0.0153091
830.953	0.0151512
831.031	0.0151689
831.109	0.0152134
831.187	0.0151655
831.265	0.0152105
831.343	0.0153981
831.421	0.0154996
831.499	0.0157193
831.578	0.0157751
831.656	0.0159681
831.734	0.0160337
831.812	0.0162395
831.890	0.0163486
831.968	0.0163309
832.046	0.0164413
832.124	0.0166309
832.203	0.0165187
832.281	0.0165993
832.359	0.0166389
832.437	0.0166803
832.515	0.0167140
832.593	0.0167085
832.671	0.0167260
832.749	0.0167530
832.828	0.0168386
832.906	0.0169512
832.984	0.0168416
833.062	0.0168386
833.140	0.0168322
833.218	0.0167783
833.296	0.0167316
833.374	0.0167026
833.453	0.0167180
833.531	0.0163486
833.609	0.0164484
833.687	0.0162912
833.765	0.0161963
833.843	0.0158996
833.921	0.0157941
833.999	0.0156164
834.078	0.0155293
834.156	0.0154751
834.234	0.0155025
834.312	0.0155144
834.390	0.0154350
834.468	0.0154230
834.546	0.0156175
834.624	0.0156564
834.703	0.0157278
834.781	0.0158366
834.859	0.0160400
834.937	0.0163062
835.015	0.0164053
835.093	0.0166117
835.171	0.0167220
835.249	0.0168907
835.328	0.0171473
835.406	0.0172271
835.484	0.0173080
835.562	0.0173652
835.640	0.0176000
835.718	0.0176680
835.796	0.0176806
835.874	0.0176784
835.953	0.0177174
836.031	0.0176628
836.109	0.0177732
836.187	0.0175523
836.265	0.0174813
836.343	0.0173440
836.421	0.0173189
836.499	0.0169361
836.578	0.0167388
836.656	0.0166526
836.734	0.0163678
836.812	0.0161773
836.890	0.0160966
836.968	0.0158981
837.046	0.0155853
837.124	0.0154606
837.203	0.0154601
837.281	0.0153211
837.359	0.0154395
837.437	0.0153478
837.515	0.0152903
837.593	0.0152969
837.671	0.0154115
837.749	0.0154694
837.828	0.0155911
837.906	0.0154934
837.984	0.0157511
838.062	0.0157034
838.140	0.0158636
838.218	0.0161107
838.296	0.0161629
838.374	0.0161054
838.453	0.0162344
838.531	0.0163133
838.609	0.0164342
838.687	0.0164972
838.765	0.0165710
838.843	0.0166623
838.921	0.0167126
838.999	0.0166486
839.078	0.0167476
839.156	0.0167559
839.234	0.0167818
839.312	0.0166353
839.390	0.0166620
839.468	0.0164109
839.546	0.0164794
839.624	0.0164290
839.703	0.0162514
839.781	0.0161469
839.859	0.0161539
839.937	0.0160615
840.015	0.0158927
840.093	0.0159798
840.171	0.0159505
840.249	0.0156831
840.328	0.0156849
840.406	0.0157240
840.484	0.0157993
840.562	0.0158434
840.640	0.0158576
840.718	0.0157904
840.796	0.0160066
840.874	0.0161555
840.953	0.0163413
841.031	0.0163497
841.109	0.0163347
841.187	0.0165504
841.265	0.0167409
841.343	0.0168082
841.421	0.0167696
841.499	0.0168904
841.578	0.0171709
841.656	0.0171719
841.734	0.0172218
841.812	0.0172534
841.890	0.0172636
841.968	0.0172131
842.046	0.0172586
842.124	0.0173624
842.203	0.0172858
842.281	0.0169627
842.359	0.0171432
842.437	0.0170753
842.515	0.0169442
842.593	0.0167229
842.671	0.0167141
842.749	0.0166463
842.828	0.0164272
842.906	0.0164909
842.984	0.0163306
843.062	0.0161102
843.140	0.0160383
843.218	0.0159143
843.296	0.0157223
843.374	0.0158813
843.453	0.0156961
843.531	0.0156191
843.609	0.0155029
843.687	0.0155692
843.765	0.0155476
843.843	0.0156705
843.921	0.0156575
843.999	0.0156168
844.078	0.0157549
844.156	0.0157583
844.234	0.0159241
844.312	0.0160940
844.390	0.0160981
844.468	0.0161660
844.546	0.0162386
844.624	0.0163018
844.703	0.0162203
844.781	0.0162811
844.859	0.0163039
844.937	0.0163020
845.015	0.0164129
845.093	0.0164029
845.171	0.0164903
845.249	0.0165664
845.328	0.0162863
845.406	0.0164764
845.484	0.0164067
845.562	0.0164012
845.640	0.0164755
845.718	0.0163901
845.796	0.0165459
845.874	0.0163783
845.953	0.0163531
846.031	0.0162283
846.109	0.0162598
846.187	0.0162691
846.265	0.0163040
846.343	0.0163378
846.421	0.0163290
846.499	0.0162015
846.578	0.0162902
846.656	0.0162137
846.734	0.0161234
846.812	0.0162920
846.890	0.0163914
846.968	0.0164348
847.046	0.0163975
847.124	0.0164483
847.203	0.0165347
847.281	0.0165854
847.359	0.0167201
847.437	0.0167259
847.515	0.0166965
847.593	0.0167242
847.671	0.0168250
847.749	0.0167636
847.828	0.0166675
847.906	0.0167962
847.984	0.0168078
848.062	0.0167511
848.140	0.0167885
848.218	0.0166498
848.296	0.0166311
848.374	0.0166370
848.453	0.0165687
848.531	0.0165466
848.609	0.0165000
848.687	0.0164246
848.765	0.0163074
848.843	0.0162856
848.921	0.0162772
848.999	0.0162135
849.078	0.0160387
849.156	0.0161665
849.234	0.0160059
849.312	0.0159867
849.390	0.0160944
849.468	0.0159480
849.546	0.0160387
849.624	0.0158902
849.703	0.0160160
849.781	0.0160400
849.859	0.0160872
849.937	0.0159657
850.015	0.0161178
850.093	0.0161324
850.171	0.0162401
850.249	0.0161798
850.328	0.0160947
850.406	0.0161209
850.484	0.0162393
850.562	0.0162955
850.640	0.0161553
850.718	0.0161838
850.796	0.0161198
850.874	0.0161840
850.953	0.0161933
851.031	0.0161626
851.109	0.0162228
851.187	0.0162488
851.265	0.0162882
851.343	0.0162856
851.421	0.0162569
851.499	0.0161989
851.578	0.0162102
851.656	0.0164228
851.734	0.0166089
851.812	0.0163696
851.890	0.0164970
851.968	0.0164474
852.046	0.0164328
852.124	0.0163164
852.203	0.0162698
852.281	0.0163702
852.359	0.0164714
852.437	0.0164331
852.515	0.0164522
852.593	0.0165512
852.671	0.0165138
852.749	0.0163984
852.828	0.0165487
852.906	0.0165036
852.984	0.0163869
853.062	0.0165435
853.140	0.0164965
853.218	0.0165491
853.296	0.0166235
853.374	0.0166395
853.453	0.0165077
853.531	0.0165974
853.609	0.0165591
853.687	0.0166309
853.765	0.0165325
853.843	0.0166006
853.921	0.0166425
853.999	0.0165775
854.078	0.0164021
854.156	0.0166747
854.234	0.0166766
854.312	0.0165730
854.390	0.0164074
854.468	0.0162891
854.546	0.0163714
854.624	0.0162860
854.703	0.0164004
854.781	0.0163356
854.859	0.0163037
854.937	0.0161804
855.015	0.0162699
855.093	0.0162705
855.171	0.0161250
855.249	0.0160194
855.328	0.0161618
855.406	0.0161790
855.484	0.0160911
855.562	0.0161967
855.640	0.0162424
855.718	0.0160780
855.796	0.0161783
855.874	0.0162280
855.953	0.0162930
856.031	0.0162827
856.109	0.0163852
856.187	0.0164503
856.265	0.0162222
856.343	0.0161810
856.421	0.0163602
856.499	0.0164226
856.578	0.0163731
856.656	0.0163213
856.734	0.0163039
856.812	0.0163797
856.890	0.0164281
856.968	0.0163332
857.046	0.0163010
857.124	0.0162234
857.203	0.0163223
857.281	0.0164064
857.359	0.0162791
857.437	0.0162057
857.515	0.0163474
857.593	0.0163525
857.671	0.0163549
857.749	0.0161014
857.828	0.0162490
857.906	0.0162945
857.984	0.0163589
858.062	0.0164375
858.140	0.0165116
858.218	0.0164709
858.296	0.0165476
858.374	0.0166099
858.453	0.0166470
858.531	0.0165126
858.609	0.0166223
858.687	0.0166633
858.765	0.0165633
858.843	0.0165736
858.921	0.0166227
858.999	0.0164781
859.078	0.0164057
859.156	0.0164114
859.234	0.0164916
859.312	0.0164435
859.390	0.0163838
859.468	0.0163440
859.546	0.0163390
859.624	0.0163322
859.703	0.0163541
859.781	0.0163076
859.859	0.0162639
859.937	0.0162878
860.015	0.0162753
860.093	0.0163215
860.171	0.0163307
860.249	0.0163184
860.328	0.0163247
860.406	0.0163715
860.484	0.0162988
860.562	0.0164210
860.640	0.0163340
860.718	0.0163829
860.796	0.0162307
860.874	0.0164514
860.953	0.0164273
861.031	0.0163428
861.109	0.0162559
861.187	0.0163675
861.265	0.0164480
861.343	0.0163058
861.421	0.0163050
861.499	0.0162959
861.578	0.0163743
861.656	0.0163097
861.734	0.0164000
861.812	0.0164856
861.890	0.0163674
861.968	0.0164164
862.046	0.0164218
862.124	0.0165285
862.203	0.0164874
862.281	0.0164932
862.359	0.0165630
862.437	0.0163988
862.515	0.0163574
862.593	0.0164801
862.671	0.0163655
862.749	0.0163830
862.828	0.0162818
862.906	0.0163110
862.984	0.0162238
863.062	0.0162736
863.140	0.0163358
863.218	0.0161128
863.296	0.0162347
863.374	0.0160000
863.453	0.0161669
863.531	0.0161179
863.609	0.0160828
863.687	0.0160088
863.765	0.0160759
863.843	0.0160540
863.921	0.0160496
863.999	0.0162456
864.078	0.0160506
864.156	0.0162695
864.234	0.0162676
864.312	0.0164571
864.390	0.0164908
864.468	0.0164245
864.546	0.0165915
864.624	0.0167077
864.703	0.0166440
864.781	0.0167197
864.859	0.0167529
864.937	0.0169006
865.015	0.0167792
865.093	0.0168634
865.171	0.0169369
865.249	0.0167820
865.328	0.0168304
865.406	0.0166118
865.484	0.0167506
865.562	0.0165437
865.640	0.0163174
865.718	0.0163270
865.796	0.0160827
865.874	0.0159684
865.953	0.0159460
866.031	0.0160479
866.109	0.0160086
866.187	0.0158781
866.265	0.0158888
866.343	0.0158031
866.421	0.0158466
866.499	0.0159904
866.578	0.0158911
866.656	0.0159328
866.734	0.0160172
866.812	0.0161175
866.890	0.0161137
866.968	0.0162045
867.046	0.0159827
867.124	0.0160307
867.203	0.0162712
867.281	0.0162085
867.359	0.0161191
867.437	0.0161896
867.515	0.0163381
867.593	0.0160692
867.671	0.0161265
867.749	0.0163294
867.828	0.0163069
867.906	0.0163233
867.984	0.0163745
868.062	0.0164731
868.140	0.0164687
868.218	0.0165733
868.296	0.0166953
868.374	0.0166296
868.453	0.0166647
868.531	0.0167310
868.609	0.0169497
868.687	0.0167358
868.765	0.0168108
868.843	0.0168562
868.921	0.0167528
868.999	0.0165897
869.078	0.0166058
869.156	0.0165580
869.234	0.0164545
869.312	0.0165131
869.390	0.0163335
869.468	0.0163548
869.546	0.0161847
869.624	0.0162786
869.703	0.0162220
869.781	0.0162007
869.859	0.0160289
869.937	0.0158749
870.015	0.0159903
870.093	0.0160027
870.171	0.0161110
870.249	0.0161409
870.328	0.0160435
870.406	0.0160582
870.484	0.0161864
870.562	0.0161902
870.640	0.0163049
870.718	0.0162188
870.796	0.0163888
870.874	0.0165638
870.953	0.0164427
871.031	0.0166103
871.109	0.0166353
871.187	0.0165481
871.265	0.0165646
871.343	0.0166783
871.421	0.0165865
871.499	0.0165538
871.578	0.0166373
871.656	0.0166130
871.734	0.0164057
871.812	0.0164354
871.890	0.0164323
871.968	0.0162432
872.046	0.0164103
872.124	0.0161050
872.203	0.0162427
872.281	0.0160310
872.359	0.0161319
872.437	0.0162381
872.515	0.0160478
872.593	0.0160423
872.671	0.0160499
872.749	0.0162243
872.828	0.0161947
872.906	0.0161528
872.984	0.0162827
873.062	0.0162733
873.140	0.0163935
873.218	0.0161891
873.296	0.0161448
873.374	0.0163662
873.453	0.0163866
873.531	0.0163062
873.609	0.0162566
873.687	0.0162990
873.765	0.0162366
873.843	0.0163036
873.921	0.0163574
873.999	0.0164350
874.078	0.0163828
874.156	0.0164417
874.234	0.0164151
874.312	0.0164928
874.390	0.0165195
874.468	0.0165536
874.546	0.0166569
874.624	0.0165101
874.703	0.0166689
874.781	0.0166592
874.859	0.0167989
874.937	0.0166113
875.015	0.0167182
875.093	0.0166559
875.171	0.0166400
875.249	0.0165081
875.328	0.0164480
875.406	0.0164851
875.484	0.0164861
875.562	0.0163080
875.640	0.0160686
875.718	0.0161794
875.796	0.0160722
875.874	0.0158884
875.953	0.0159592
876.031	0.0158532
876.109	0.0158959
876.187	0.0159400
876.265	0.0159688
876.343	0.0158903
876.421	0.0161919
876.499	0.0161114
876.578	0.0162229
876.656	0.0162447
876.734	0.0163818
876.812	0.0164645
876.890	0.0164439
876.968	0.0165095
877.046	0.0165916
877.124	0.0166992
877.203	0.0166483
877.281	0.0168391
877.359	0.0168180
877.437	0.0168742
877.515	0.0167130
877.593	0.0167807
877.671	0.0168185
877.749	0.0166791
877.828	0.0167072
877.906	0.0164453
877.984	0.0165463
878.062	0.0163962
878.140	0.0163706
878.218	0.0163583
878.296	0.0163591
878.374	0.0161479
878.453	0.0161389
878.531	0.0162598
878.609	0.0161194
878.687	0.0161574
878.765	0.0163770
878.843	0.0162648
878.921	0.0163110
878.999	0.0163570
879.078	0.0163484
879.156	0.0164212
879.234	0.0164404
879.312	0.0165562
879.390	0.0165628
879.468	0.0164710
879.546	0.0165183
879.624	0.0164001
879.703	0.0163051
879.781	0.0167166
879.859	0.0165571
879.937	0.0163111
880.015	0.0164204
880.093	0.0163049
880.171	0.0163162
880.249	0.0161927
880.328	0.0162210
880.406	0.0163166
880.484	0.0162457
880.562	0.0163839
880.640	0.0164270
880.718	0.0163728
880.796	0.0165739
880.874	0.0166545
880.953	0.0165347
881.031	0.0166330
881.109	0.0165481
881.187	0.0165247
881.265	0.0165225
881.343	0.0164997
881.421	0.0163181
881.499	0.0164112
881.578	0.0162789
881.656	0.0162833
881.734	0.0161002
881.812	0.0159987
881.890	0.0158857
881.968	0.0159173
882.046	0.0158802
882.124	0.0159000
882.203	0.0157182
882.281	0.0156790
882.359	0.0157892
882.437	0.0157330
882.515	0.0157385
882.593	0.0157777
882.671	0.0159105
882.749	0.0159834
882.828	0.0158414
882.906	0.0162215
882.984	0.0163387
883.062	0.0165611
883.140	0.0165038
883.218	0.0167353
883.296	0.0167793
883.374	0.0168799
883.453	0.0170747
883.531	0.0170525
883.609	0.0170455
883.687	0.0171943
883.765	0.0170551
883.843	0.0170602
883.921	0.0169204
883.999	0.0168168
884.078	0.0168752
884.156	0.0168110
884.234	0.0166153
884.312	0.0164720
884.390	0.0162936
884.468	0.0163205
884.546	0.0163552
884.624	0.0162628
884.703	0.0161217
884.781	0.0163232
884.859	0.0161144
884.937	0.0161483
885.015	0.0161505
885.093	0.0161378
885.171	0.0162103
885.249	0.0162018
885.328	0.0163163
885.406	0.0161819
885.484	0.0163007
885.562	0.0164259
885.640	0.0162697
885.718	0.0163523
885.796	0.0162282
885.874	0.0163480
885.953	0.0163856
886.031	0.0162211
886.109	0.0162012
886.187	0.0160750
886.265	0.0160786
886.343	0.0161137
886.421	0.0160588
886.499	0.0158790
886.578	0.0160310
886.656	0.0161124
886.734	0.0160494
886.812	0.0159953
886.890	0.0159799
886.968	0.0161437
887.046	0.0161017
887.124	0.0161426
887.203	0.0161580
887.281	0.0163369
887.359	0.0163361
887.437	0.0162458
887.515	0.0163146
887.593	0.0163742
887.671	0.0163528
887.749	0.0163741
887.828	0.0162241
887.906	0.0162849
887.984	0.0161821
888.062	0.0161111
888.140	0.0161007
888.218	0.0160374
888.296	0.0159043
888.374	0.0158407
888.453	0.0158059
888.531	0.0158419
888.609	0.0157970
888.687	0.0157343
888.765	0.0159133
888.843	0.0157540
888.921	0.0160326
888.999	0.0160040
889.078	0.0161304
889.156	0.0163309
889.234	0.0165318
889.312	0.0166045
889.390	0.0167262
889.468	0.0168006
889.546	0.0169143
889.624	0.0171915
889.703	0.0171652
889.781	0.0171855
889.859	0.0170699
889.937	0.0172489
890.015	0.0171700
890.093	0.0171394
890.171	0.0171852
890.249	0.0169873
890.328	0.0168903
890.406	0.0168739
890.484	0.0167459
890.562	0.0167287
890.640	0.0164523
890.718	0.0163628
890.796	0.0163087
890.874	0.0162564
890.953	0.0161216
891.031	0.0160987
891.109	0.0161040
891.187	0.0160185
891.265	0.0160449
891.343	0.0160592
891.421	0.0160715
891.499	0.0160524
891.578	0.0159516
891.656	0.0159978
891.734	0.0159941
891.812	0.0159853
891.890	0.0160269
891.968	0.0160365
892.046	0.0160796
892.124	0.0161765
892.203	0.0162386
892.281	0.0162292
892.359	0.0161312
892.437	0.0160963
892.515	0.0163102
892.593	0.0163512
892.671	0.0164567
892.749	0.0163560
892.828	0.0162917
892.906	0.0162844
892.984	0.0163636
893.062	0.0164746
893.140	0.0163102
893.218	0.0163726
893.296	0.0164806
893.374	0.0163411
893.453	0.0163244
893.531	0.0163183
893.609	0.0163757
893.687	0.0162724
893.765	0.0163317
893.843	0.0163322
893.921	0.0164275
893.999	0.0160406
894.078	0.0160906
894.156	0.0160764
894.234	0.0160512
894.312	0.0159995
894.390	0.0159360
894.468	0.0158183
894.546	0.0157581
894.624	0.0157165
894.703	0.0157967
894.781	0.0159042
894.859	0.0157191
894.937	0.0157227
895.015	0.0159966
895.093	0.0159613
895.171	0.0159074
895.249	0.0162197
895.328	0.0162654
895.406	0.0164078
895.484	0.0165036
895.562	0.0165985
895.640	0.0167868
895.718	0.0170437
895.796	0.0171520
895.874	0.0171647
895.953	0.0171268
896.031	0.0173165
896.109	0.0174863
896.187	0.0173503
896.265	0.0173418
896.343	0.0174990
896.421	0.0172754
896.499	0.0171584
896.578	0.0171416
896.656	0.0171006
896.734	0.0169739
896.812	0.0167815
896.890	0.0165900
896.968	0.0164726
897.046	0.0163808
897.124	0.0164569
897.203	0.0162706
897.281	0.0162556
897.359	0.0161254
897.437	0.0161256
897.515	0.0161213
897.593	0.0160550
897.671	0.0160805
897.749	0.0159155
897.828	0.0160831
897.906	0.0160777
897.984	0.0159856
898.062	0.0159888
898.140	0.0161224
898.218	0.0160159
898.296	0.0159993
898.374	0.0159972
898.453	0.0159976
898.531	0.0159309
898.609	0.0161291
898.687	0.0158710
898.765	0.0159200
898.843	0.0159865
898.921	0.0159415
898.999	0.0160606
899.078	0.0160419
899.156	0.0161512
899.234	0.0160775
899.312	0.0162737
899.390	0.0160889
899.468	0.0162166
899.546	0.0163033
899.624	0.0162437
899.703	0.0163404
899.781	0.0163742
899.859	0.0163936
899.937	0.0163499
900.015	0.0163478
900.093	0.0163272
900.171	0.0162406
900.249	0.0163633
900.328	0.0163853
900.406	0.0162199
900.484	0.0161991
900.562	0.0162515
900.640	0.0162225
900.718	0.0161657
900.796	0.0162566
900.874	0.0161823
900.953	0.0163873
901.031	0.0162604
901.109	0.0162616
901.187	0.0163591
901.265	0.0162132
901.343	0.0164682
901.421	0.0163535
901.499	0.0165018
901.578	0.0166780
901.656	0.0165923
901.734	0.0165750
901.812	0.0167419
901.890	0.0169341
901.968	0.0170421
902.046	0.0170805
902.124	0.0171373
902.203	0.0172277
902.281	0.0172115
902.359	0.0172535
902.437	0.0171922
902.515	0.0173313
902.593	0.0172465
902.671	0.0170796
902.749	0.0170975
902.828	0.0169197
902.906	0.0168439
902.984	0.0167865
903.062	0.0166312
903.140	0.0165333
903.218	0.0164925
903.296	0.0163692
903.374	0.0161468
903.453	0.0161069
903.531	0.0160068
903.609	0.0158569
903.687	0.0159863
903.765	0.0157796
903.843	0.0159803
903.921	0.0159253
903.999	0.0158060
904.078	0.0157577
904.156	0.0158268
904.234	0.0157996
904.312	0.0159720
904.390	0.0160756
904.468	0.0158716
904.546	0.0157400
904.624	0.0159138
904.703	0.0159721
904.781	0.0160156
904.859	0.0159852
904.937	0.0159692
905.015	0.0159963
905.093	0.0161294
905.171	0.0160790
905.249	0.0161755
905.328	0.0161958
905.406	0.0162039
905.484	0.0163651
905.562	0.0162585
905.640	0.0164426
905.718	0.0162025
905.796	0.0164102
905.874	0.0165415
905.953	0.0164581
906.031	0.0164396
906.109	0.0164754
906.187	0.0166251
906.265	0.0164915
906.343	0.0165311
906.421	0.0164777
906.499	0.0165243
906.578	0.0165123
906.656	0.0164756
906.734	0.0165006
906.812	0.0165709
906.890	0.0165261
906.968	0.0164124
907.046	0.0164797
907.124	0.0164196
907.203	0.0164314
907.281	0.0164307
907.359	0.0163908
907.437	0.0164809
907.515	0.0163109
907.593	0.0163943
907.671	0.0164977
907.749	0.0164919
907.828	0.0163410
907.906	0.0164212
907.984	0.0166668
908.062	0.0165839
908.140	0.0166870
908.218	0.0167052
908.296	0.0166512
908.374	0.0165975
908.453	0.0168086
908.531	0.0168044
908.609	0.0166808
908.687	0.0167252
908.765	0.0168143
908.843	0.0167229
908.921	0.0166948
908.999	0.0167033
909.078	0.0166667
909.156	0.0165073
909.234	0.0165247
909.312	0.0163583
909.390	0.0163562
909.468	0.0162959
909.546	0.0162370
909.624	0.0160969
909.703	0.0161363
909.781	0.0160983
909.859	0.0159417
909.937	0.0159207
910.015	0.0158673
910.093	0.0157827
910.171	0.0157727
910.249	0.0158252
910.328	0.0157803
910.406	0.0158871
910.484	0.0158765
910.562	0.0158824
910.640	0.0159095
910.718	0.0158910
910.796	0.0159075
910.874	0.0158888
910.953	0.0160075
911.031	0.0159084
911.109	0.0159975
911.187	0.0160525
911.265	0.0161673
911.343	0.0162108
911.421	0.0162277
911.499	0.0163348
911.578	0.0163244
911.656	0.0164589
911.734	0.0164451
911.812	0.0165148
911.890	0.0163910
911.968	0.0165524
912.046	0.0165756
912.124	0.0165833
912.203	0.0166646
912.281	0.0167262
912.359	0.0166730
912.437	0.0165919
912.515	0.0166175
912.593	0.0165790
912.671	0.0165701
912.749	0.0165291
912.828	0.0164664
912.906	0.0166042
912.984	0.0164626
913.062	0.0163396
913.140	0.0164764
913.218	0.0163750
913.296	0.0162681
913.374	0.0162896
913.453	0.0162364
913.531	0.0163459
913.609	0.0161918
913.687	0.0163271
913.765	0.0162907
913.843	0.0161550
913.921	0.0162595
913.999	0.0159827
914.078	0.0162364
914.156	0.0163036
914.234	0.0163572
914.312	0.0164732
914.390	0.0163768
914.468	0.0164180
914.546	0.0164783
914.624	0.0165234
914.703	0.0166766
914.781	0.0167650
914.859	0.0167365
914.937	0.0166534
915.015	0.0168307
915.093	0.0166254
915.171	0.0167746
915.249	0.0167298
915.328	0.0165937
915.406	0.0165295
915.484	0.0164426
915.562	0.0163862
915.640	0.0163678
915.718	0.0161699
915.796	0.0163175
915.874	0.0160688
915.953	0.0159135
916.031	0.0158440
916.109	0.0158727
916.187	0.0159673
916.265	0.0159745
916.343	0.0158374
916.421	0.0158119
916.499	0.0160159
916.578	0.0159640
916.656	0.0158882
916.734	0.0161061
916.812	0.0160376
916.890	0.0160972
916.968	0.0159991
917.046	0.0160078
917.124	0.0160764
917.203	0.0160696
917.281	0.0161987
917.359	0.0162403
917.437	0.0162996
917.515	0.0162894
917.593	0.0163119
917.671	0.0162171
917.749	0.0161553
917.828	0.0162979
917.906	0.0164077
917.984	0.0163813
918.062	0.0162509
918.140	0.0164933
918.218	0.0163810
918.296	0.0163741
918.374	0.0164445
918.453	0.0163162
918.531	0.0162633
918.609	0.0164655
918.687	0.0164854
918.765	0.0164112
918.843	0.0165406
918.921	0.0164845
918.999	0.0163610
919.078	0.0164554
919.156	0.0165510
919.234	0.0165052
919.312	0.0164412
919.390	0.0163887
919.468	0.0163490
919.546	0.0163553
919.624	0.0163438
919.703	0.0161783
919.781	0.0162943
919.859	0.0163473
919.937	0.0164287
