06/10/2022	18:48:00	Ver.	4.1	UNKNOWN
Optical Delay	600.015094	Delta X		0.078125	Sweeps	1	Scan Rate	0/0
Coordinates	Axis 1	NaN	Axis 2	NaN	Axis 3	NaN	Axis 4	NaN	Axis 5	NaN	Axis 6	0.000000
TX Power	0.000000	RX Power	0.000000

600.015	0.0164334
600.093	0.0163671
600.171	0.0164681
600.249	0.0165162
600.328	0.0165250
600.406	0.0163667
600.484	0.0163869
600.562	0.0164838
600.640	0.0166280
600.718	0.0165176
600.796	0.0163930
600.874	0.0165017
600.953	0.0163960
601.031	0.0164635
601.109	0.0163981
601.187	0.0164426
601.265	0.0165523
601.343	0.0166129
601.421	0.0165641
601.499	0.0165374
601.578	0.0164671
601.656	0.0164950
601.734	0.0165718
601.812	0.0165395
601.890	0.0166548
601.968	0.0166162
602.046	0.0164955
602.124	0.0166651
602.203	0.0165533
602.281	0.0166291
602.359	0.0166862
602.437	0.0166537
602.515	0.0165004
602.593	0.0166151
602.671	0.0166152
602.749	0.0166000
602.828	0.0166496
602.906	0.0166055
602.984	0.0166045
603.062	0.0166461
603.140	0.0166245
603.218	0.0166737
603.296	0.0166804
603.374	0.0165422
603.453	0.0166791
603.531	0.0166313
603.609	0.0166588
603.687	0.0165579
603.765	0.0165373
603.843	0.0166164
603.921	0.0167215
603.999	0.0167010
604.078	0.0166991
604.156	0.0166682
604.234	0.0166415
604.312	0.0167744
604.390	0.0166660
604.468	0.0165046
604.546	0.0165720
604.624	0.0164929
604.703	0.0166686
604.781	0.0166463
604.859	0.0166124
604.937	0.0163869
605.015	0.0167281
605.093	0.0165523
605.171	0.0167023
605.249	0.0165020
605.328	0.0165514
605.406	0.0166420
605.484	0.0167219
605.562	0.0165929
605.640	0.0164606
605.718	0.0165252
605.796	0.0165091
605.874	0.0164416
605.953	0.0166294
606.031	0.0166534
606.109	0.0165910
606.187	0.0165021
606.265	0.0165172
606.343	0.0165282
606.421	0.0164574
606.499	0.0165253
606.578	0.0164587
606.656	0.0165902
606.734	0.0165959
606.812	0.0165144
606.890	0.0165253
606.968	0.0165549
607.046	0.0166484
607.124	0.0165648
607.203	0.0164855
607.281	0.0164462
607.359	0.0164965
607.437	0.0164666
607.515	0.0164860
607.593	0.0166859
607.671	0.0165767
607.749	0.0164909
607.828	0.0164478
607.906	0.0164874
607.984	0.0166197
608.062	0.0166114
608.140	0.0165216
608.218	0.0165195
608.296	0.0166013
608.374	0.0165873
608.453	0.0164040
608.531	0.0165147
608.609	0.0165373
608.687	0.0165703
608.765	0.0165773
608.843	0.0165923
608.921	0.0165652
608.999	0.0165557
609.078	0.0166167
609.156	0.0165415
609.234	0.0165296
609.312	0.0166473
609.390	0.0166845
609.468	0.0165958
609.546	0.0167185
609.624	0.0165927
609.703	0.0165303
609.781	0.0165530
609.859	0.0165631
609.937	0.0165205
610.015	0.0165848
610.093	0.0164658
610.171	0.0166386
610.249	0.0166020
610.328	0.0165984
610.406	0.0163783
610.484	0.0165980
610.562	0.0165426
610.640	0.0165374
610.718	0.0165688
610.796	0.0166408
610.874	0.0165495
610.953	0.0165578
611.031	0.0165453
611.109	0.0166940
611.187	0.0165738
611.265	0.0166078
611.343	0.0166188
611.421	0.0165548
611.499	0.0165614
611.578	0.0165637
611.656	0.0165195
611.734	0.0165133
611.812	0.0164555
611.890	0.0165915
611.968	0.0164739
612.046	0.0165575
612.124	0.0164771
612.203	0.0163651
612.281	0.0163010
612.359	0.0164134
612.437	0.0165273
612.515	0.0164737
612.593	0.0165375
612.671	0.0166461
612.749	0.0164951
612.828	0.0165064
612.906	0.0164122
612.984	0.0164668
613.062	0.0164732
613.140	0.0163721
613.218	0.0165608
613.296	0.0165172
613.374	0.0163427
613.453	0.0164437
613.531	0.0164787
613.609	0.0166016
613.687	0.0166295
613.765	0.0165721
613.843	0.0164374
613.921	0.0164618
613.999	0.0165399
614.078	0.0164941
614.156	0.0164416
614.234	0.0165015
614.312	0.0164280
614.390	0.0163848
614.468	0.0164725
614.546	0.0164954
614.624	0.0165032
614.703	0.0164078
614.781	0.0165127
614.859	0.0165512
614.937	0.0164278
615.015	0.0164915
615.093	0.0165325
615.171	0.0165553
615.249	0.0164642
615.328	0.0165681
615.406	0.0164503
615.484	0.0164293
615.562	0.0164047
615.640	0.0164444
615.718	0.0165204
615.796	0.0164723
615.874	0.0164473
615.953	0.0165095
616.031	0.0165630
616.109	0.0165389
616.187	0.0163815
616.265	0.0164831
616.343	0.0164576
616.421	0.0163692
616.499	0.0164434
616.578	0.0165059
616.656	0.0165039
616.734	0.0163037
616.812	0.0163464
616.890	0.0164291
616.968	0.0163839
617.046	0.0165134
617.124	0.0165788
617.203	0.0165149
617.281	0.0164423
617.359	0.0165884
617.437	0.0164931
617.515	0.0164456
617.593	0.0164212
617.671	0.0165088
617.749	0.0164112
617.828	0.0165138
617.906	0.0164468
617.984	0.0164455
618.062	0.0164606
618.140	0.0165357
618.218	0.0166219
618.296	0.0163922
618.374	0.0165124
618.453	0.0165112
618.531	0.0165757
618.609	0.0165247
618.687	0.0164964
618.765	0.0164791
618.843	0.0165419
618.921	0.0164645
618.999	0.0165176
619.078	0.0164569
619.156	0.0163670
619.234	0.0165561
619.312	0.0165190
619.390	0.0164059
619.468	0.0164622
619.546	0.0164555
619.624	0.0164266
619.703	0.0164291
619.781	0.0165331
619.859	0.0165758
619.937	0.0164377
620.015	0.0164344
620.093	0.0165121
620.171	0.0165063
620.249	0.0164464
620.328	0.0164973
620.406	0.0165261
620.484	0.0163501
620.562	0.0163570
620.640	0.0165045
620.718	0.0164690
620.796	0.0164809
620.874	0.0163950
620.953	0.0164080
621.031	0.0165111
621.109	0.0164436
621.187	0.0165087
621.265	0.0164555
621.343	0.0165665
621.421	0.0164665
621.499	0.0164156
621.578	0.0164313
621.656	0.0165452
621.734	0.0166399
621.812	0.0165149
621.890	0.0165367
621.968	0.0164929
622.046	0.0164011
622.124	0.0164290
622.203	0.0164722
622.281	0.0164874
622.359	0.0165186
622.437	0.0165237
622.515	0.0165185
622.593	0.0164962
622.671	0.0164864
622.749	0.0164335
622.828	0.0165473
622.906	0.0164826
622.984	0.0167277
623.062	0.0165791
623.140	0.0165583
623.218	0.0165671
623.296	0.0165054
623.374	0.0165050
623.453	0.0165450
623.531	0.0165430
623.609	0.0164423
623.687	0.0164664
623.765	0.0164606
623.843	0.0165407
623.921	0.0164804
623.999	0.0165129
624.078	0.0164252
624.156	0.0165665
624.234	0.0165420
624.312	0.0164982
624.390	0.0164590
624.468	0.0165088
624.546	0.0165776
624.624	0.0164492
624.703	0.0167645
624.781	0.0165189
624.859	0.0164918
624.937	0.0164459
625.015	0.0165076
625.093	0.0164111
625.171	0.0165349
625.249	0.0165646
625.328	0.0165497
625.406	0.0164928
625.484	0.0165580
625.562	0.0165434
625.640	0.0165556
625.718	0.0166142
625.796	0.0165382
625.874	0.0165504
625.953	0.0163397
626.031	0.0163733
626.109	0.0165827
626.187	0.0165054
626.265	0.0165983
626.343	0.0164713
626.421	0.0166666
626.499	0.0164457
626.578	0.0165397
626.656	0.0165504
626.734	0.0166154
626.812	0.0167506
626.890	0.0165237
626.968	0.0165708
627.046	0.0164845
627.124	0.0165086
627.203	0.0164664
627.281	0.0165198
627.359	0.0165681
627.437	0.0164735
627.515	0.0165032
627.593	0.0166331
627.671	0.0164893
627.749	0.0165909
627.828	0.0165245
627.906	0.0164291
627.984	0.0165497
628.062	0.0165632
628.140	0.0163624
628.218	0.0164314
628.296	0.0164595
628.374	0.0165138
628.453	0.0164828
628.531	0.0164265
628.609	0.0164922
628.687	0.0164736
628.765	0.0165770
628.843	0.0164542
628.921	0.0164652
628.999	0.0164929
629.078	0.0165410
629.156	0.0165417
629.234	0.0165271
629.312	0.0164143
629.390	0.0163976
629.468	0.0165918
629.546	0.0164198
629.624	0.0164487
629.703	0.0166724
629.781	0.0165691
629.859	0.0164610
629.937	0.0166045
630.015	0.0165143
630.093	0.0165205
630.171	0.0166595
630.249	0.0165516
630.328	0.0166515
630.406	0.0165627
630.484	0.0165885
630.562	0.0164525
630.640	0.0166035
630.718	0.0166135
630.796	0.0165997
630.874	0.0166021
630.953	0.0165828
631.031	0.0165717
631.109	0.0164753
631.187	0.0166154
631.265	0.0167758
631.343	0.0165291
631.421	0.0167467
631.499	0.0165573
631.578	0.0164921
631.656	0.0165107
631.734	0.0166163
631.812	0.0164964
631.890	0.0167399
631.968	0.0164862
632.046	0.0164208
632.124	0.0166718
632.203	0.0165970
632.281	0.0166953
632.359	0.0166019
632.437	0.0165495
632.515	0.0165514
632.593	0.0166120
632.671	0.0165884
632.749	0.0164961
632.828	0.0165611
632.906	0.0164212
632.984	0.0166248
633.062	0.0165110
633.140	0.0165365
633.218	0.0166113
633.296	0.0166297
633.374	0.0165473
633.453	0.0165059
633.531	0.0166684
633.609	0.0165305
633.687	0.0165552
633.765	0.0164658
633.843	0.0164854
633.921	0.0165607
633.999	0.0166881
634.078	0.0166916
634.156	0.0165461
634.234	0.0166546
634.312	0.0165237
634.390	0.0165145
634.468	0.0166354
634.546	0.0165144
634.624	0.0165925
634.703	0.0165296
634.781	0.0166682
634.859	0.0163769
634.937	0.0165755
635.015	0.0167459
635.093	0.0164697
635.171	0.0166350
635.249	0.0165658
635.328	0.0164731
635.406	0.0164204
635.484	0.0164728
635.562	0.0166333
635.640	0.0164117
635.718	0.0165107
635.796	0.0165697
635.874	0.0164683
635.953	0.0164429
636.031	0.0165295
636.109	0.0165665
636.187	0.0163042
636.265	0.0164172
636.343	0.0164731
636.421	0.0165134
636.499	0.0164758
636.578	0.0163955
636.656	0.0164674
636.734	0.0164972
636.812	0.0164638
636.890	0.0163907
636.968	0.0164202
637.046	0.0164799
637.124	0.0164804
637.203	0.0164174
637.281	0.0164277
637.359	0.0164859
637.437	0.0165162
637.515	0.0166213
637.593	0.0164567
637.671	0.0162978
637.749	0.0164818
637.828	0.0165112
637.906	0.0165542
637.984	0.0164300
638.062	0.0164723
638.140	0.0165796
638.218	0.0165241
638.296	0.0165786
638.374	0.0165383
638.453	0.0165350
638.531	0.0164252
638.609	0.0163673
638.687	0.0165318
638.765	0.0165208
638.843	0.0165666
638.921	0.0166020
638.999	0.0165634
639.078	0.0164008
639.156	0.0164694
639.234	0.0163594
639.312	0.0164999
639.390	0.0164710
639.468	0.0164280
639.546	0.0163973
639.624	0.0164999
639.703	0.0164354
639.781	0.0164947
639.859	0.0165209
639.937	0.0163615
640.015	0.0164756
640.093	0.0165547
640.171	0.0166080
640.249	0.0163892
640.328	0.0164542
640.406	0.0163815
640.484	0.0164173
640.562	0.0166650
640.640	0.0164295
640.718	0.0164426
640.796	0.0164214
640.874	0.0164919
640.953	0.0164259
641.031	0.0163849
641.109	0.0164519
641.187	0.0164396
641.265	0.0163019
641.343	0.0164604
641.421	0.0164527
641.499	0.0165582
641.578	0.0164885
641.656	0.0165637
641.734	0.0165302
641.812	0.0164176
641.890	0.0165353
641.968	0.0163480
642.046	0.0164919
642.124	0.0164570
642.203	0.0164527
642.281	0.0163781
642.359	0.0164024
642.437	0.0163937
642.515	0.0164958
642.593	0.0164826
642.671	0.0164553
642.749	0.0163672
642.828	0.0164664
642.906	0.0163911
642.984	0.0163590
643.062	0.0164307
643.140	0.0164174
643.218	0.0164596
643.296	0.0163474
643.374	0.0164558
643.453	0.0164802
643.531	0.0164865
643.609	0.0165060
643.687	0.0164180
643.765	0.0165084
643.843	0.0166940
643.921	0.0164483
643.999	0.0165234
644.078	0.0164916
644.156	0.0165004
644.234	0.0164805
644.312	0.0164744
644.390	0.0165051
644.468	0.0165633
644.546	0.0166568
644.624	0.0166046
644.703	0.0166113
644.781	0.0164971
644.859	0.0164337
644.937	0.0166165
645.015	0.0166274
645.093	0.0165452
645.171	0.0165265
645.249	0.0164422
645.328	0.0166193
645.406	0.0165248
645.484	0.0166448
645.562	0.0166798
645.640	0.0165321
645.718	0.0164683
645.796	0.0165530
645.874	0.0166198
645.953	0.0164960
646.031	0.0165741
646.109	0.0164558
646.187	0.0166194
646.265	0.0165726
646.343	0.0165511
646.421	0.0164699
646.499	0.0165420
646.578	0.0165015
646.656	0.0165714
646.734	0.0164586
646.812	0.0165120
646.890	0.0164828
646.968	0.0164870
647.046	0.0165272
647.124	0.0164813
647.203	0.0165567
647.281	0.0165321
647.359	0.0164763
647.437	0.0164318
647.515	0.0164147
647.593	0.0164468
647.671	0.0164926
647.749	0.0165249
647.828	0.0164465
647.906	0.0164736
647.984	0.0164548
648.062	0.0164850
648.140	0.0164899
648.218	0.0165040
648.296	0.0164218
648.374	0.0165326
648.453	0.0164872
648.531	0.0164027
648.609	0.0165558
648.687	0.0166125
648.765	0.0165176
648.843	0.0164935
648.921	0.0164230
648.999	0.0165632
649.078	0.0164929
649.156	0.0165391
649.234	0.0166019
649.312	0.0165530
649.390	0.0163804
649.468	0.0164691
649.546	0.0165720
649.624	0.0165326
649.703	0.0165331
649.781	0.0165742
649.859	0.0164572
649.937	0.0165675
650.015	0.0165648
650.093	0.0164728
650.171	0.0164655
650.249	0.0165559
650.328	0.0165486
650.406	0.0165349
650.484	0.0165927
650.562	0.0165597
650.640	0.0166300
650.718	0.0165292
650.796	0.0164103
650.874	0.0165593
650.953	0.0165420
651.031	0.0165164
651.109	0.0165585
651.187	0.0166525
651.265	0.0165675
651.343	0.0165600
651.421	0.0165615
651.499	0.0164931
651.578	0.0165582
651.656	0.0166055
651.734	0.0164996
651.812	0.0166124
651.890	0.0164767
651.968	0.0165977
652.046	0.0165732
652.124	0.0164655
652.203	0.0165154
652.281	0.0164552
652.359	0.0167243
652.437	0.0166103
652.515	0.0165015
652.593	0.0165261
652.671	0.0165481
652.749	0.0164846
652.828	0.0165768
652.906	0.0165102
652.984	0.0164103
653.062	0.0165607
653.140	0.0166348
653.218	0.0164285
653.296	0.0164906
653.374	0.0166363
653.453	0.0165907
653.531	0.0164612
653.609	0.0164710
653.687	0.0165440
653.765	0.0164796
653.843	0.0165179
653.921	0.0166347
653.999	0.0166901
654.078	0.0165144
654.156	0.0164082
654.234	0.0165069
654.312	0.0164433
654.390	0.0166051
654.468	0.0164994
654.546	0.0164433
654.624	0.0165883
654.703	0.0164951
654.781	0.0165467
654.859	0.0165417
654.937	0.0165434
655.015	0.0164200
655.093	0.0166181
655.171	0.0165375
655.249	0.0164653
655.328	0.0164710
655.406	0.0165003
655.484	0.0165702
655.562	0.0165600
655.640	0.0164273
655.718	0.0164565
655.796	0.0164854
655.874	0.0163935
655.953	0.0163762
656.031	0.0164360
656.109	0.0164607
656.187	0.0165923
656.265	0.0163943
656.343	0.0164305
656.421	0.0165253
656.499	0.0164809
656.578	0.0164304
656.656	0.0164079
656.734	0.0164160
656.812	0.0163393
656.890	0.0164993
656.968	0.0164548
657.046	0.0165539
657.124	0.0164881
657.203	0.0162635
657.281	0.0164394
657.359	0.0164713
657.437	0.0165204
657.515	0.0164314
657.593	0.0165018
657.671	0.0165565
657.749	0.0165186
657.828	0.0166005
657.906	0.0165577
657.984	0.0164464
658.062	0.0165350
658.140	0.0165269
658.218	0.0165472
658.296	0.0164868
658.374	0.0165126
658.453	0.0164805
658.531	0.0165316
658.609	0.0165692
658.687	0.0164859
658.765	0.0164281
658.843	0.0165411
658.921	0.0164853
658.999	0.0165736
659.078	0.0165073
659.156	0.0166505
659.234	0.0165649
659.312	0.0165360
659.390	0.0165207
659.468	0.0164691
659.546	0.0163911
659.624	0.0165443
659.703	0.0164631
659.781	0.0163814
659.859	0.0164941
659.937	0.0165218
660.015	0.0165630
660.093	0.0165351
660.171	0.0164745
660.249	0.0163853
660.328	0.0164496
660.406	0.0164825
660.484	0.0164587
660.562	0.0165407
660.640	0.0163602
660.718	0.0164906
660.796	0.0163978
660.874	0.0164080
660.953	0.0165324
661.031	0.0166301
661.109	0.0164555
661.187	0.0164873
661.265	0.0165447
661.343	0.0165059
661.421	0.0164562
661.499	0.0164468
661.578	0.0165758
661.656	0.0165823
661.734	0.0164500
661.812	0.0164303
661.890	0.0165495
661.968	0.0165183
662.046	0.0165378
662.124	0.0164137
662.203	0.0164129
662.281	0.0165535
662.359	0.0165860
662.437	0.0165985
662.515	0.0164230
662.593	0.0165180
662.671	0.0165516
662.749	0.0163794
662.828	0.0164698
662.906	0.0165443
662.984	0.0164434
663.062	0.0163964
663.140	0.0165840
663.218	0.0165733
663.296	0.0165285
663.374	0.0164902
663.453	0.0165032
663.531	0.0164811
663.609	0.0165215
663.687	0.0165665
663.765	0.0165333
663.843	0.0164702
663.921	0.0164895
663.999	0.0164908
664.078	0.0165990
664.156	0.0165434
664.234	0.0165411
664.312	0.0165668
664.390	0.0164637
664.468	0.0165391
664.546	0.0165327
664.624	0.0164957
664.703	0.0166060
664.781	0.0165194
664.859	0.0164057
664.937	0.0165826
665.015	0.0165683
665.093	0.0165285
665.171	0.0165448
665.249	0.0166447
665.328	0.0165790
665.406	0.0165788
665.484	0.0165547
665.562	0.0165057
665.640	0.0165577
665.718	0.0165202
665.796	0.0165721
665.874	0.0165752
665.953	0.0165855
666.031	0.0165777
666.109	0.0165558
666.187	0.0165579
666.265	0.0165983
666.343	0.0166285
666.421	0.0166120
666.499	0.0164156
666.578	0.0164938
666.656	0.0165654
666.734	0.0165855
666.812	0.0166515
666.890	0.0166084
666.968	0.0163806
667.046	0.0164529
667.124	0.0165365
667.203	0.0166087
667.281	0.0164906
667.359	0.0165495
667.437	0.0165950
667.515	0.0164819
667.593	0.0165137
667.671	0.0164605
667.749	0.0166421
667.828	0.0166154
667.906	0.0164793
667.984	0.0165074
668.062	0.0165601
668.140	0.0164008
668.218	0.0164648
668.296	0.0165706
668.374	0.0164927
668.453	0.0164960
668.531	0.0164983
668.609	0.0166229
668.687	0.0166520
668.765	0.0166322
668.843	0.0164082
668.921	0.0165144
668.999	0.0165260
669.078	0.0164835
669.156	0.0164831
669.234	0.0166273
669.312	0.0166116
669.390	0.0165400
669.468	0.0164955
669.546	0.0164388
669.624	0.0164682
669.703	0.0164497
669.781	0.0165810
669.859	0.0164913
669.937	0.0166469
670.015	0.0164425
670.093	0.0165228
670.171	0.0164880
670.249	0.0164703
670.328	0.0166413
670.406	0.0164629
670.484	0.0165170
670.562	0.0165320
670.640	0.0164470
670.718	0.0165005
670.796	0.0165125
670.874	0.0166009
670.953	0.0164098
671.031	0.0163784
671.109	0.0165364
671.187	0.0164688
671.265	0.0165437
671.343	0.0165269
671.421	0.0165482
671.499	0.0166338
671.578	0.0166225
671.656	0.0164578
671.734	0.0165193
671.812	0.0164029
671.890	0.0165092
671.968	0.0164288
672.046	0.0165469
672.124	0.0165378
672.203	0.0165515
672.281	0.0164288
672.359	0.0165820
672.437	0.0166367
672.515	0.0164639
672.593	0.0164170
672.671	0.0165611
672.749	0.0166096
672.828	0.0167477
672.906	0.0165143
672.984	0.0165014
673.062	0.0165225
673.140	0.0164173
673.218	0.0165022
673.296	0.0166235
673.374	0.0165449
673.453	0.0165508
673.531	0.0164417
673.609	0.0165903
673.687	0.0165577
673.765	0.0165165
673.843	0.0165215
673.921	0.0164447
673.999	0.0165036
674.078	0.0165732
674.156	0.0164738
674.234	0.0165533
674.312	0.0165041
674.390	0.0165423
674.468	0.0164646
674.546	0.0164684
674.624	0.0163435
674.703	0.0166353
674.781	0.0166522
674.859	0.0164863
674.937	0.0165600
675.015	0.0165251
675.093	0.0164883
675.171	0.0165446
675.249	0.0164735
675.328	0.0165680
675.406	0.0165312
675.484	0.0164060
675.562	0.0164360
675.640	0.0164979
675.718	0.0165854
675.796	0.0165365
675.874	0.0164790
675.953	0.0163980
676.031	0.0165823
676.109	0.0164500
676.187	0.0164725
676.265	0.0165602
676.343	0.0164005
676.421	0.0165432
676.499	0.0165070
676.578	0.0164859
676.656	0.0164363
676.734	0.0164525
676.812	0.0164658
676.890	0.0164332
676.968	0.0164815
677.046	0.0164944
677.124	0.0164938
677.203	0.0166404
677.281	0.0164716
677.359	0.0164540
677.437	0.0164891
677.515	0.0165593
677.593	0.0165005
677.671	0.0166043
677.749	0.0164532
677.828	0.0164502
677.906	0.0164623
677.984	0.0165302
678.062	0.0165508
678.140	0.0165789
678.218	0.0165841
678.296	0.0165992
678.374	0.0165498
678.453	0.0166241
678.531	0.0164910
678.609	0.0163279
678.687	0.0164669
678.765	0.0164724
678.843	0.0165234
678.921	0.0163628
678.999	0.0165025
679.078	0.0165121
679.156	0.0163097
679.234	0.0165060
679.312	0.0165917
679.390	0.0164720
679.468	0.0165333
679.546	0.0165777
679.624	0.0166376
679.703	0.0164539
679.781	0.0166365
679.859	0.0165713
679.937	0.0164652
680.015	0.0164479
680.093	0.0165398
680.171	0.0165264
680.249	0.0164631
680.328	0.0163873
680.406	0.0165134
680.484	0.0166630
680.562	0.0164786
680.640	0.0163359
680.718	0.0164626
680.796	0.0165900
680.874	0.0165511
680.953	0.0164455
681.031	0.0164738
681.109	0.0166099
681.187	0.0164616
681.265	0.0164999
681.343	0.0166622
681.421	0.0165663
681.499	0.0165870
681.578	0.0165505
681.656	0.0165138
681.734	0.0166237
681.812	0.0165118
681.890	0.0165721
681.968	0.0166336
682.046	0.0165999
682.124	0.0166376
682.203	0.0166579
682.281	0.0163957
682.359	0.0164925
682.437	0.0165523
682.515	0.0165132
682.593	0.0165578
682.671	0.0167066
682.749	0.0165392
682.828	0.0165270
682.906	0.0165234
682.984	0.0165515
683.062	0.0164337
683.140	0.0166322
683.218	0.0165163
683.296	0.0162957
683.374	0.0165466
683.453	0.0165451
683.531	0.0165424
683.609	0.0164819
683.687	0.0165840
683.765	0.0163799
683.843	0.0164796
683.921	0.0166057
683.999	0.0166338
684.078	0.0164782
684.156	0.0164172
684.234	0.0164872
684.312	0.0165393
684.390	0.0165736
684.468	0.0164110
684.546	0.0165704
684.624	0.0166525
684.703	0.0165500
684.781	0.0165562
684.859	0.0164964
684.937	0.0164446
685.015	0.0164561
685.093	0.0165434
685.171	0.0165606
685.249	0.0164778
685.328	0.0164755
685.406	0.0165770
685.484	0.0165805
685.562	0.0165480
685.640	0.0165443
685.718	0.0164931
685.796	0.0165332
685.874	0.0166725
685.953	0.0164645
686.031	0.0164129
686.109	0.0162775
686.187	0.0166264
686.265	0.0165959
686.343	0.0165967
686.421	0.0164767
686.499	0.0164377
686.578	0.0166582
686.656	0.0164250
686.734	0.0164517
686.812	0.0165681
686.890	0.0165208
686.968	0.0165653
687.046	0.0165137
687.124	0.0164692
687.203	0.0165494
687.281	0.0165055
687.359	0.0164957
687.437	0.0166263
687.515	0.0166373
687.593	0.0164659
687.671	0.0164978
687.749	0.0166077
687.828	0.0165410
687.906	0.0165395
687.984	0.0165313
688.062	0.0166012
688.140	0.0166899
688.218	0.0164366
688.296	0.0164033
688.374	0.0166246
688.453	0.0165654
688.531	0.0165778
688.609	0.0165631
688.687	0.0165759
688.765	0.0164504
688.843	0.0165572
688.921	0.0167081
688.999	0.0164267
689.078	0.0165091
689.156	0.0165524
689.234	0.0166215
689.312	0.0166232
689.390	0.0165057
689.468	0.0165060
689.546	0.0165781
689.624	0.0164907
689.703	0.0165128
689.781	0.0166766
689.859	0.0164600
689.937	0.0165649
690.015	0.0164831
690.093	0.0165645
690.171	0.0165648
690.249	0.0164738
690.328	0.0166538
690.406	0.0166101
690.484	0.0165071
690.562	0.0165527
690.640	0.0164662
690.718	0.0166273
690.796	0.0165987
690.874	0.0164788
690.953	0.0166586
691.031	0.0166048
691.109	0.0166222
691.187	0.0165385
691.265	0.0165819
691.343	0.0166687
691.421	0.0165480
691.499	0.0166636
691.578	0.0164998
691.656	0.0164496
691.734	0.0165439
691.812	0.0166404
691.890	0.0166741
691.968	0.0165261
692.046	0.0165899
692.124	0.0165849
692.203	0.0165570
692.281	0.0164453
692.359	0.0166702
692.437	0.0165845
692.515	0.0164613
692.593	0.0164752
692.671	0.0165973
692.749	0.0165044
692.828	0.0165153
692.906	0.0166213
692.984	0.0164957
693.062	0.0164845
693.140	0.0164802
693.218	0.0165881
693.296	0.0165440
693.374	0.0165107
693.453	0.0164469
693.531	0.0164939
693.609	0.0165327
693.687	0.0165176
693.765	0.0164801
693.843	0.0164323
693.921	0.0166557
693.999	0.0165138
694.078	0.0165019
694.156	0.0164822
694.234	0.0166497
694.312	0.0166339
694.390	0.0164414
694.468	0.0165053
694.546	0.0165798
694.624	0.0166343
694.703	0.0165299
694.781	0.0166801
694.859	0.0164229
694.937	0.0164417
695.015	0.0164037
695.093	0.0165002
695.171	0.0166508
695.249	0.0164718
695.328	0.0165134
695.406	0.0164420
695.484	0.0163698
695.562	0.0163567
695.640	0.0164042
695.718	0.0165062
695.796	0.0164967
695.874	0.0164933
695.953	0.0165232
696.031	0.0164432
696.109	0.0164739
696.187	0.0164753
696.265	0.0164459
696.343	0.0165996
696.421	0.0164058
696.499	0.0164314
696.578	0.0165189
696.656	0.0164265
696.734	0.0166627
696.812	0.0163995
696.890	0.0164659
696.968	0.0164761
697.046	0.0165144
697.124	0.0164574
697.203	0.0165289
697.281	0.0164967
697.359	0.0164289
697.437	0.0165383
697.515	0.0165699
697.593	0.0165143
697.671	0.0163451
697.749	0.0164428
697.828	0.0164998
697.906	0.0164858
697.984	0.0165117
698.062	0.0164457
698.140	0.0165459
698.218	0.0165964
698.296	0.0165852
698.374	0.0165472
698.453	0.0165481
698.531	0.0165397
698.609	0.0163950
698.687	0.0166274
698.765	0.0165018
698.843	0.0166994
698.921	0.0165517
698.999	0.0164960
699.078	0.0165318
699.156	0.0164703
699.234	0.0166711
699.312	0.0164465
699.390	0.0164737
699.468	0.0165870
699.546	0.0165111
699.624	0.0164722
699.703	0.0164841
699.781	0.0165023
699.859	0.0164713
699.937	0.0165161
700.015	0.0166734
700.093	0.0164713
700.171	0.0165849
700.249	0.0165149
700.328	0.0164117
700.406	0.0165973
700.484	0.0166159
700.562	0.0164987
700.640	0.0165276
700.718	0.0165302
700.796	0.0164983
700.874	0.0165498
700.953	0.0165420
701.031	0.0165163
701.109	0.0165658
701.187	0.0165787
701.265	0.0166035
701.343	0.0166161
701.421	0.0163891
701.499	0.0165388
701.578	0.0165900
701.656	0.0165941
701.734	0.0166700
701.812	0.0166700
701.890	0.0166430
701.968	0.0165177
702.046	0.0164769
702.124	0.0165913
702.203	0.0165869
702.281	0.0164660
702.359	0.0164229
702.437	0.0165514
702.515	0.0166592
702.593	0.0163827
702.671	0.0165150
702.749	0.0165450
702.828	0.0165396
702.906	0.0164900
702.984	0.0164922
703.062	0.0165796
703.140	0.0164396
703.218	0.0164635
703.296	0.0164873
703.374	0.0166558
703.453	0.0164370
703.531	0.0164073
703.609	0.0165726
703.687	0.0166732
703.765	0.0163657
703.843	0.0166161
703.921	0.0166977
703.999	0.0166692
704.078	0.0165402
704.156	0.0164994
704.234	0.0165513
704.312	0.0164849
704.390	0.0163871
704.468	0.0166321
704.546	0.0165734
704.624	0.0165547
704.703	0.0165891
704.781	0.0165227
704.859	0.0165659
704.937	0.0164317
705.015	0.0165597
705.093	0.0166819
705.171	0.0167031
705.249	0.0166126
705.328	0.0164867
705.406	0.0166387
705.484	0.0165292
705.562	0.0166727
705.640	0.0166321
705.718	0.0164919
705.796	0.0165604
705.874	0.0166504
705.953	0.0165831
706.031	0.0165128
706.109	0.0165554
706.187	0.0165165
706.265	0.0166350
706.343	0.0165482
706.421	0.0165237
706.499	0.0165133
706.578	0.0165739
706.656	0.0166465
706.734	0.0165981
706.812	0.0165707
706.890	0.0165359
706.968	0.0165376
707.046	0.0165867
707.124	0.0166158
707.203	0.0165772
707.281	0.0164351
707.359	0.0166096
707.437	0.0166150
707.515	0.0164812
707.593	0.0164651
707.671	0.0166812
707.749	0.0165434
707.828	0.0164948
707.906	0.0164949
707.984	0.0165182
708.062	0.0165671
708.140	0.0165184
708.218	0.0165660
708.296	0.0166761
708.374	0.0164394
708.453	0.0164019
708.531	0.0165027
708.609	0.0164752
708.687	0.0165276
708.765	0.0166462
708.843	0.0165607
708.921	0.0166255
708.999	0.0164652
709.078	0.0163703
709.156	0.0165450
709.234	0.0165213
709.312	0.0165997
709.390	0.0166022
709.468	0.0165666
709.546	0.0165451
709.624	0.0165769
709.703	0.0166566
709.781	0.0164347
709.859	0.0164017
709.937	0.0165551
710.015	0.0165258
710.093	0.0164722
710.171	0.0165379
710.249	0.0165309
710.328	0.0163291
710.406	0.0165018
710.484	0.0165974
710.562	0.0165157
710.640	0.0164221
710.718	0.0165470
710.796	0.0165534
710.874	0.0165690
710.953	0.0165054
711.031	0.0163800
711.109	0.0163577
711.187	0.0164004
711.265	0.0164246
711.343	0.0165340
711.421	0.0163959
711.499	0.0164246
711.578	0.0164765
711.656	0.0164718
711.734	0.0163788
711.812	0.0164529
711.890	0.0164450
711.968	0.0162775
712.046	0.0163065
712.124	0.0165578
712.203	0.0163943
712.281	0.0163380
712.359	0.0162739
712.437	0.0164388
712.515	0.0165611
712.593	0.0163960
712.671	0.0164648
712.749	0.0165508
712.828	0.0165798
712.906	0.0165984
712.984	0.0164619
713.062	0.0165397
713.140	0.0165042
713.218	0.0165560
713.296	0.0165169
713.374	0.0164645
713.453	0.0164158
713.531	0.0165992
713.609	0.0165494
713.687	0.0165302
713.765	0.0165423
713.843	0.0164566
713.921	0.0164265
713.999	0.0165138
714.078	0.0164589
714.156	0.0162809
714.234	0.0164993
714.312	0.0165578
714.390	0.0164911
714.468	0.0164787
714.546	0.0164562
714.624	0.0165543
714.703	0.0165735
714.781	0.0165942
714.859	0.0165443
714.937	0.0166278
715.015	0.0166914
715.093	0.0166229
715.171	0.0166692
715.249	0.0165659
715.328	0.0165576
715.406	0.0167037
715.484	0.0165644
715.562	0.0165843
715.640	0.0166646
715.718	0.0165996
715.796	0.0165765
715.874	0.0166367
715.953	0.0164179
716.031	0.0164376
716.109	0.0164481
716.187	0.0163665
716.265	0.0163676
716.343	0.0163314
716.421	0.0162430
716.499	0.0163006
716.578	0.0163571
716.656	0.0161742
716.734	0.0163089
716.812	0.0162001
716.890	0.0162543
716.968	0.0164252
717.046	0.0162705
717.124	0.0164308
717.203	0.0165118
717.281	0.0163548
717.359	0.0164696
717.437	0.0165455
717.515	0.0166936
717.593	0.0165206
717.671	0.0167127
717.749	0.0167156
717.828	0.0167547
717.906	0.0166907
717.984	0.0166806
718.062	0.0167229
718.140	0.0168145
718.218	0.0168844
718.296	0.0167049
718.374	0.0167215
718.453	0.0167157
718.531	0.0167503
718.609	0.0165231
718.687	0.0164816
718.765	0.0165208
718.843	0.0165720
718.921	0.0164848
718.999	0.0163641
719.078	0.0165977
719.156	0.0164673
719.234	0.0164828
719.312	0.0164531
719.390	0.0164884
719.468	0.0163078
719.546	0.0163630
719.624	0.0165031
719.703	0.0164347
719.781	0.0165136
719.859	0.0164993
719.937	0.0165784
720.015	0.0165378
720.093	0.0165547
720.171	0.0164149
720.249	0.0164137
720.328	0.0164178
720.406	0.0163968
720.484	0.0162090
720.562	0.0161785
720.640	0.0162980
720.718	0.0162583
720.796	0.0161833
720.874	0.0162352
720.953	0.0162976
721.031	0.0162910
721.109	0.0163715
721.187	0.0165513
721.265	0.0164590
721.343	0.0163879
721.421	0.0164769
721.499	0.0165323
721.578	0.0165908
721.656	0.0167800
721.734	0.0167491
721.812	0.0168237
721.890	0.0167974
721.968	0.0168518
722.046	0.0170509
722.124	0.0170429
722.203	0.0169415
722.281	0.0172083
722.359	0.0171932
722.437	0.0171088
722.515	0.0171278
722.593	0.0172491
722.671	0.0173773
722.749	0.0171103
722.828	0.0171192
722.906	0.0170234
722.984	0.0170620
723.062	0.0168665
723.140	0.0166873
723.218	0.0165286
723.296	0.0162551
723.374	0.0162297
723.453	0.0159836
723.531	0.0156858
723.609	0.0155987
723.687	0.0153653
723.765	0.0153681
723.843	0.0152142
723.921	0.0151161
723.999	0.0151831
724.078	0.0151409
724.156	0.0153699
724.234	0.0155578
724.312	0.0155508
724.390	0.0158247
724.468	0.0160906
724.546	0.0164003
724.624	0.0165950
724.703	0.0169215
724.781	0.0171712
724.859	0.0173562
724.937	0.0173717
725.015	0.0176354
725.093	0.0177126
725.171	0.0178114
725.249	0.0178584
725.328	0.0178419
725.406	0.0179575
725.484	0.0178745
725.562	0.0176094
725.640	0.0175777
725.718	0.0175825
725.796	0.0174075
725.874	0.0173206
725.953	0.0167651
726.031	0.0167853
726.109	0.0165984
726.187	0.0164864
726.265	0.0162983
726.343	0.0160950
726.421	0.0160239
726.499	0.0158870
726.578	0.0158456
726.656	0.0158065
726.734	0.0158875
726.812	0.0156870
726.890	0.0157362
726.968	0.0155812
727.046	0.0157596
727.124	0.0158313
727.203	0.0158069
727.281	0.0159832
727.359	0.0161669
727.437	0.0161201
727.515	0.0161252
727.593	0.0162514
727.671	0.0162371
727.749	0.0163207
727.828	0.0162064
727.906	0.0164047
727.984	0.0164021
728.062	0.0164267
728.140	0.0162336
728.218	0.0161472
728.296	0.0163828
728.374	0.0164095
728.453	0.0164136
728.531	0.0165428
728.609	0.0166316
728.687	0.0165524
728.765	0.0166995
728.843	0.0168639
728.921	0.0170248
728.999	0.0170649
729.078	0.0171479
729.156	0.0174971
729.234	0.0174216
729.312	0.0175478
729.390	0.0177744
729.468	0.0176764
729.546	0.0176385
729.624	0.0176497
729.703	0.0176827
729.781	0.0173477
729.859	0.0171772
729.937	0.0172207
730.015	0.0171318
730.093	0.0167929
730.171	0.0164021
730.249	0.0163152
730.328	0.0161640
730.406	0.0160616
730.484	0.0158529
730.562	0.0157729
730.640	0.0156499
730.718	0.0156402
730.796	0.0154776
730.874	0.0154218
730.953	0.0154132
731.031	0.0155527
731.109	0.0156376
731.187	0.0157016
731.265	0.0159129
731.343	0.0160685
731.421	0.0161875
731.499	0.0164252
731.578	0.0163859
731.656	0.0165592
731.734	0.0167963
731.812	0.0168304
731.890	0.0168690
731.968	0.0169904
732.046	0.0169702
732.124	0.0169549
732.203	0.0168866
732.281	0.0169114
732.359	0.0168374
732.437	0.0169358
732.515	0.0167802
732.593	0.0166190
732.671	0.0165038
732.749	0.0163934
732.828	0.0163332
732.906	0.0163250
732.984	0.0162093
733.062	0.0163323
733.140	0.0163355
733.218	0.0163931
733.296	0.0163541
733.374	0.0164921
733.453	0.0164204
733.531	0.0164771
733.609	0.0165358
733.687	0.0167464
733.765	0.0167551
733.843	0.0167196
733.921	0.0167592
733.999	0.0169194
734.078	0.0166696
734.156	0.0166651
734.234	0.0167546
734.312	0.0166769
734.390	0.0165601
734.468	0.0165926
734.546	0.0165455
734.624	0.0163012
734.703	0.0164950
734.781	0.0164796
734.859	0.0163256
734.937	0.0163214
735.015	0.0164693
735.093	0.0163516
735.171	0.0164028
735.249	0.0163403
735.328	0.0164342
735.406	0.0165428
735.484	0.0165601
735.562	0.0163660
735.640	0.0165438
735.718	0.0166271
735.796	0.0166624
735.874	0.0167406
735.953	0.0166484
736.031	0.0167010
736.109	0.0168462
736.187	0.0167785
736.265	0.0166667
736.343	0.0166013
736.421	0.0164995
736.499	0.0165135
736.578	0.0163622
736.656	0.0163861
736.734	0.0162813
736.812	0.0162811
736.890	0.0161750
736.968	0.0162568
737.046	0.0161069
737.124	0.0160110
737.203	0.0160452
737.281	0.0160478
737.359	0.0158611
737.437	0.0158769
737.515	0.0158373
737.593	0.0156787
737.671	0.0157007
737.749	0.0158664
737.828	0.0158894
737.906	0.0160169
737.984	0.0159014
738.062	0.0160770
738.140	0.0161170
738.218	0.0164192
738.296	0.0162985
738.374	0.0164232
738.453	0.0166904
738.531	0.0168233
738.609	0.0168151
738.687	0.0169271
738.765	0.0169512
738.843	0.0170305
738.921	0.0171310
738.999	0.0172344
739.078	0.0170968
739.156	0.0172057
739.234	0.0170403
739.312	0.0170855
739.390	0.0170177
739.468	0.0169615
739.546	0.0170285
739.624	0.0170238
739.703	0.0168521
739.781	0.0165421
739.859	0.0166639
739.937	0.0166492
740.015	0.0165887
740.093	0.0164009
740.171	0.0163750
740.249	0.0163745
740.328	0.0163037
740.406	0.0162158
740.484	0.0161462
740.562	0.0160442
740.640	0.0159883
740.718	0.0159338
740.796	0.0159237
740.874	0.0158101
740.953	0.0157989
741.031	0.0158216
741.109	0.0159953
741.187	0.0157395
741.265	0.0159329
741.343	0.0162119
741.421	0.0161320
741.499	0.0160471
741.578	0.0161781
741.656	0.0163496
741.734	0.0162245
741.812	0.0164977
741.890	0.0164648
741.968	0.0165283
742.046	0.0164400
742.124	0.0166826
742.203	0.0166327
742.281	0.0167142
742.359	0.0166450
742.437	0.0167157
742.515	0.0165694
742.593	0.0165181
742.671	0.0165758
742.749	0.0165307
742.828	0.0164318
742.906	0.0163889
742.984	0.0163369
743.062	0.0163577
743.140	0.0163877
743.218	0.0163535
743.296	0.0164555
743.374	0.0164412
743.453	0.0165404
743.531	0.0165810
743.609	0.0167049
743.687	0.0169855
743.765	0.0169064
743.843	0.0170028
743.921	0.0169605
743.999	0.0169455
744.078	0.0170567
744.156	0.0170283
744.234	0.0169172
744.312	0.0170006
744.390	0.0169022
744.468	0.0167815
744.546	0.0167033
744.624	0.0166223
744.703	0.0165269
744.781	0.0162804
744.859	0.0163899
744.937	0.0163967
745.015	0.0162997
745.093	0.0162863
745.171	0.0161635
745.249	0.0161832
745.328	0.0162930
745.406	0.0162486
745.484	0.0163653
745.562	0.0163358
745.640	0.0163073
745.718	0.0164439
745.796	0.0165236
745.874	0.0165741
745.953	0.0165036
746.031	0.0164467
746.109	0.0165215
746.187	0.0166871
746.265	0.0163868
746.343	0.0162688
746.421	0.0162934
746.499	0.0163136
746.578	0.0163474
746.656	0.0163383
746.734	0.0162707
746.812	0.0162914
746.890	0.0164529
746.968	0.0164930
747.046	0.0165086
747.124	0.0163269
747.203	0.0165813
747.281	0.0164886
747.359	0.0165178
747.437	0.0164410
747.515	0.0164388
747.593	0.0165218
747.671	0.0166552
747.749	0.0164976
747.828	0.0165337
747.906	0.0165893
747.984	0.0167311
748.062	0.0165671
748.140	0.0165870
748.218	0.0165846
748.296	0.0166476
748.374	0.0166367
748.453	0.0164848
748.531	0.0166568
748.609	0.0167438
748.687	0.0168900
748.765	0.0167449
748.843	0.0167543
748.921	0.0168430
748.999	0.0167474
749.078	0.0166689
749.156	0.0166595
749.234	0.0165979
749.312	0.0165573
749.390	0.0165582
749.468	0.0163667
749.546	0.0165372
749.624	0.0163383
749.703	0.0164616
749.781	0.0164093
749.859	0.0163155
749.937	0.0163347
750.015	0.0162667
750.093	0.0162939
750.171	0.0162984
750.249	0.0162328
750.328	0.0161349
750.406	0.0162303
750.484	0.0162868
750.562	0.0162399
750.640	0.0163692
750.718	0.0163026
750.796	0.0161746
750.874	0.0164123
750.953	0.0163357
751.031	0.0164339
751.109	0.0166300
751.187	0.0164967
751.265	0.0163587
751.343	0.0164359
751.421	0.0164667
751.499	0.0164694
751.578	0.0165769
751.656	0.0164833
751.734	0.0166154
751.812	0.0166293
751.890	0.0166100
751.968	0.0165218
752.046	0.0165057
752.124	0.0165182
752.203	0.0164512
752.281	0.0165059
752.359	0.0165085
752.437	0.0163879
752.515	0.0164775
752.593	0.0164606
752.671	0.0164420
752.749	0.0165217
752.828	0.0165621
752.906	0.0165115
752.984	0.0163307
753.062	0.0164913
753.140	0.0165357
753.218	0.0164008
753.296	0.0163248
753.374	0.0164926
753.453	0.0163868
753.531	0.0163632
753.609	0.0163309
753.687	0.0163610
753.765	0.0163221
753.843	0.0162688
753.921	0.0162540
753.999	0.0163161
754.078	0.0162302
754.156	0.0163025
754.234	0.0162079
754.312	0.0162595
754.390	0.0163039
754.468	0.0163910
754.546	0.0163723
754.624	0.0164433
754.703	0.0165009
754.781	0.0163504
754.859	0.0163845
754.937	0.0165459
755.015	0.0166201
755.093	0.0169264
755.171	0.0167970
755.249	0.0167292
755.328	0.0167787
755.406	0.0167691
755.484	0.0167497
755.562	0.0167819
755.640	0.0167654
755.718	0.0166148
755.796	0.0166074
755.874	0.0165322
755.953	0.0165450
756.031	0.0163187
756.109	0.0162404
756.187	0.0163615
756.265	0.0162351
756.343	0.0163757
756.421	0.0162897
756.499	0.0162173
756.578	0.0161768
756.656	0.0162355
756.734	0.0162035
756.812	0.0162418
756.890	0.0162890
756.968	0.0163689
757.046	0.0164635
757.124	0.0164693
757.203	0.0164240
757.281	0.0163928
757.359	0.0165185
757.437	0.0165339
757.515	0.0165774
757.593	0.0165555
757.671	0.0166264
757.749	0.0164957
757.828	0.0165762
757.906	0.0164722
757.984	0.0163705
758.062	0.0164380
758.140	0.0163683
758.218	0.0163908
758.296	0.0161761
758.374	0.0161009
758.453	0.0161540
758.531	0.0161150
758.609	0.0162195
758.687	0.0162959
758.765	0.0161926
758.843	0.0163542
758.921	0.0162987
758.999	0.0164411
759.078	0.0165869
759.156	0.0166879
759.234	0.0167710
759.312	0.0169232
759.390	0.0170391
759.468	0.0171143
759.546	0.0172023
759.624	0.0172083
759.703	0.0170266
759.781	0.0171185
759.859	0.0171008
759.937	0.0168465
760.015	0.0167580
760.093	0.0167040
760.171	0.0166259
760.249	0.0165083
760.328	0.0163605
760.406	0.0162509
760.484	0.0163258
760.562	0.0160902
760.640	0.0160035
760.718	0.0160950
760.796	0.0161358
760.874	0.0160393
760.953	0.0160552
761.031	0.0161324
761.109	0.0160382
761.187	0.0161185
761.265	0.0161221
761.343	0.0161274
761.421	0.0161280
761.499	0.0161415
761.578	0.0163644
761.656	0.0164074
761.734	0.0162351
761.812	0.0164363
761.890	0.0164240
761.968	0.0165662
762.046	0.0166333
762.124	0.0166817
762.203	0.0168923
762.281	0.0169666
762.359	0.0171139
762.437	0.0172127
762.515	0.0171441
762.593	0.0173418
762.671	0.0173178
762.749	0.0173015
762.828	0.0171835
762.906	0.0172145
762.984	0.0171445
763.062	0.0170245
763.140	0.0167699
763.218	0.0168280
763.296	0.0167031
763.374	0.0166911
763.453	0.0165246
763.531	0.0163553
763.609	0.0161851
763.687	0.0162383
763.765	0.0161076
763.843	0.0159567
763.921	0.0159121
763.999	0.0159755
764.078	0.0159190
764.156	0.0157604
764.234	0.0159896
764.312	0.0159416
764.390	0.0161811
764.468	0.0160915
764.546	0.0161613
764.624	0.0162391
764.703	0.0163719
764.781	0.0162979
764.859	0.0164886
764.937	0.0165440
765.015	0.0163812
765.093	0.0164417
765.171	0.0166428
765.249	0.0165514
765.328	0.0166517
765.406	0.0168111
765.484	0.0168804
765.562	0.0168578
765.640	0.0167546
765.718	0.0168249
765.796	0.0168468
765.874	0.0169159
765.953	0.0170036
766.031	0.0169195
766.109	0.0169684
766.187	0.0170591
766.265	0.0168420
766.343	0.0168230
766.421	0.0169579
766.499	0.0168422
766.578	0.0170639
766.656	0.0169240
766.734	0.0168494
766.812	0.0169436
766.890	0.0169493
766.968	0.0169198
767.046	0.0168919
767.124	0.0167828
767.203	0.0166792
767.281	0.0165481
767.359	0.0166081
767.437	0.0163669
767.515	0.0164333
767.593	0.0163387
767.671	0.0162281
767.749	0.0161417
767.828	0.0158648
767.906	0.0157190
767.984	0.0155335
768.062	0.0157481
768.140	0.0155365
768.218	0.0153823
768.296	0.0153985
768.374	0.0153118
768.453	0.0153214
768.531	0.0153058
768.609	0.0154433
768.687	0.0156898
768.765	0.0156506
768.843	0.0157826
768.921	0.0160519
768.999	0.0162814
769.078	0.0165960
769.156	0.0169487
769.234	0.0172507
769.312	0.0174178
769.390	0.0176379
769.468	0.0177045
769.546	0.0177795
769.624	0.0178297
769.703	0.0179161
769.781	0.0179093
769.859	0.0178446
769.937	0.0177039
770.015	0.0174582
770.093	0.0173687
770.171	0.0171433
770.249	0.0169062
770.328	0.0166819
770.406	0.0164724
770.484	0.0166620
770.562	0.0164304
770.640	0.0163461
770.718	0.0162655
770.796	0.0162159
770.874	0.0160035
770.953	0.0160792
771.031	0.0162074
771.109	0.0159605
771.187	0.0160604
771.265	0.0160130
771.343	0.0161152
771.421	0.0159195
771.499	0.0156860
771.578	0.0158498
771.656	0.0156460
771.734	0.0156233
771.812	0.0155955
771.890	0.0154762
771.968	0.0156307
772.046	0.0157997
772.124	0.0154754
772.203	0.0157489
772.281	0.0160682
772.359	0.0159919
772.437	0.0162443
772.515	0.0165581
772.593	0.0167208
772.671	0.0167627
772.749	0.0171140
772.828	0.0173309
772.906	0.0175043
772.984	0.0176562
773.062	0.0177396
773.140	0.0178353
773.218	0.0179273
773.296	0.0179752
773.374	0.0179124
773.453	0.0177790
773.531	0.0177225
773.609	0.0176751
773.687	0.0174804
773.765	0.0173824
773.843	0.0171897
773.921	0.0168129
773.999	0.0165271
774.078	0.0164368
774.156	0.0161402
774.234	0.0158387
774.312	0.0157440
774.390	0.0155957
774.468	0.0153545
774.546	0.0151083
774.624	0.0150407
774.703	0.0150150
774.781	0.0150602
774.859	0.0150746
774.937	0.0149730
775.015	0.0151279
775.093	0.0153346
775.171	0.0152951
775.249	0.0153205
775.328	0.0154327
775.406	0.0156780
775.484	0.0158054
775.562	0.0157702
775.640	0.0158360
775.718	0.0160577
775.796	0.0159840
775.874	0.0161717
775.953	0.0162933
776.031	0.0165387
776.109	0.0168490
776.187	0.0169937
776.265	0.0172500
776.343	0.0174542
776.421	0.0175789
776.499	0.0179459
776.578	0.0181789
776.656	0.0182346
776.734	0.0183960
776.812	0.0185031
776.890	0.0184016
776.968	0.0184087
777.046	0.0181502
777.124	0.0181948
777.203	0.0178564
777.281	0.0176087
777.359	0.0173826
777.437	0.0171066
777.515	0.0168168
777.593	0.0167179
777.671	0.0165541
777.749	0.0163068
777.828	0.0160935
777.906	0.0160403
777.984	0.0158519
778.062	0.0158177
778.140	0.0157951
778.218	0.0155834
778.296	0.0155956
778.374	0.0155263
778.453	0.0153893
778.531	0.0152500
778.609	0.0151040
778.687	0.0151244
778.765	0.0150874
778.843	0.0149975
778.921	0.0149290
778.999	0.0150334
779.078	0.0149915
779.156	0.0150858
779.234	0.0151311
779.312	0.0152937
779.390	0.0154516
779.468	0.0157433
779.546	0.0158453
779.624	0.0159664
779.703	0.0162524
779.781	0.0165549
779.859	0.0167924
779.937	0.0169952
780.015	0.0170050
780.093	0.0172149
780.171	0.0173045
780.249	0.0175146
780.328	0.0176644
780.406	0.0174673
780.484	0.0174657
780.562	0.0175169
780.640	0.0176781
780.718	0.0176013
780.796	0.0175312
780.874	0.0175449
780.953	0.0173251
781.031	0.0174407
781.109	0.0173212
781.187	0.0174572
781.265	0.0173505
781.343	0.0173383
781.421	0.0171468
781.499	0.0170650
781.578	0.0167770
781.656	0.0166653
781.734	0.0165817
781.812	0.0164061
781.890	0.0162811
781.968	0.0161260
782.046	0.0160784
782.124	0.0159709
782.203	0.0158412
782.281	0.0156830
782.359	0.0157101
782.437	0.0159183
782.515	0.0157853
782.593	0.0158413
782.671	0.0158872
782.749	0.0159097
782.828	0.0159972
782.906	0.0161150
782.984	0.0162568
783.062	0.0164124
783.140	0.0165158
783.218	0.0167460
783.296	0.0167212
783.374	0.0166925
783.453	0.0168671
783.531	0.0167388
783.609	0.0168658
783.687	0.0169447
783.765	0.0168879
783.843	0.0167971
783.921	0.0166770
783.999	0.0167524
784.078	0.0165342
784.156	0.0164452
784.234	0.0164384
784.312	0.0164037
784.390	0.0163428
784.468	0.0160991
784.546	0.0160723
784.624	0.0160876
784.703	0.0160105
784.781	0.0161524
784.859	0.0161993
784.937	0.0161214
785.015	0.0163734
785.093	0.0163685
785.171	0.0163524
785.249	0.0165991
785.328	0.0164683
785.406	0.0165129
785.484	0.0166261
785.562	0.0167520
785.640	0.0167641
785.718	0.0168089
785.796	0.0165029
785.874	0.0165766
785.953	0.0165540
786.031	0.0163841
786.109	0.0163544
786.187	0.0164429
786.265	0.0161902
786.343	0.0160980
786.421	0.0162287
786.499	0.0163078
786.578	0.0163911
786.656	0.0164258
786.734	0.0164597
786.812	0.0163615
786.890	0.0165553
786.968	0.0166929
787.046	0.0167120
787.124	0.0167898
787.203	0.0167364
787.281	0.0168901
787.359	0.0169709
787.437	0.0169992
787.515	0.0170229
787.593	0.0168456
787.671	0.0169600
787.749	0.0169725
787.828	0.0170918
787.906	0.0171350
787.984	0.0169913
788.062	0.0168766
788.140	0.0169117
788.218	0.0167850
788.296	0.0168871
788.374	0.0167924
788.453	0.0168382
788.531	0.0168829
788.609	0.0168426
788.687	0.0168588
788.765	0.0168271
788.843	0.0168546
788.921	0.0167229
788.999	0.0167865
789.078	0.0165719
789.156	0.0165407
789.234	0.0163584
789.312	0.0161697
789.390	0.0160383
789.468	0.0159236
789.546	0.0158148
789.624	0.0155867
789.703	0.0156801
789.781	0.0154897
789.859	0.0156383
789.937	0.0155688
790.015	0.0154718
790.093	0.0157295
790.171	0.0158552
790.249	0.0158212
790.328	0.0157993
790.406	0.0158879
790.484	0.0161936
790.562	0.0160772
790.640	0.0163741
790.718	0.0162594
790.796	0.0163619
790.874	0.0166064
790.953	0.0165024
791.031	0.0165231
791.109	0.0166687
791.187	0.0168480
791.265	0.0168039
791.343	0.0168061
791.421	0.0167905
791.499	0.0167858
791.578	0.0169153
791.656	0.0169548
791.734	0.0168658
791.812	0.0170085
791.890	0.0168839
791.968	0.0169621
792.046	0.0169537
792.124	0.0168221
792.203	0.0168878
792.281	0.0168105
792.359	0.0169699
792.437	0.0169232
792.515	0.0169057
792.593	0.0166672
792.671	0.0165511
792.749	0.0165157
792.828	0.0165144
792.906	0.0164421
792.984	0.0162368
793.062	0.0163435
793.140	0.0162523
793.218	0.0162543
793.296	0.0164245
793.374	0.0163976
793.453	0.0163885
793.531	0.0165369
793.609	0.0165345
793.687	0.0165874
793.765	0.0166182
793.843	0.0166505
793.921	0.0168807
793.999	0.0169061
794.078	0.0170199
794.156	0.0169147
794.234	0.0169241
794.312	0.0170997
794.390	0.0169814
794.468	0.0170319
794.546	0.0168530
794.624	0.0169257
794.703	0.0168352
794.781	0.0168513
794.859	0.0169012
794.937	0.0168904
795.015	0.0169076
795.093	0.0169299
795.171	0.0169099
795.249	0.0169033
795.328	0.0170102
795.406	0.0167537
795.484	0.0166225
795.562	0.0164891
795.640	0.0164690
795.718	0.0164191
795.796	0.0161496
795.874	0.0158968
795.953	0.0157400
796.031	0.0156556
796.109	0.0154728
796.187	0.0154277
796.265	0.0152052
796.343	0.0151279
796.421	0.0151797
796.499	0.0151392
796.578	0.0150484
796.656	0.0151532
796.734	0.0151792
796.812	0.0151106
796.890	0.0151513
796.968	0.0153331
797.046	0.0155122
797.124	0.0157284
797.203	0.0156925
797.281	0.0157942
797.359	0.0160783
797.437	0.0161876
797.515	0.0163680
797.593	0.0167129
797.671	0.0168909
797.749	0.0170198
797.828	0.0171075
797.906	0.0172322
797.984	0.0174820
798.062	0.0175738
798.140	0.0175430
798.218	0.0175698
798.296	0.0177062
798.374	0.0175343
798.453	0.0177146
798.531	0.0176744
798.609	0.0176115
798.687	0.0175914
798.765	0.0175103
798.843	0.0174603
798.921	0.0174851
798.999	0.0171928
799.078	0.0171605
799.156	0.0171255
799.234	0.0170641
799.312	0.0169393
799.390	0.0169307
799.468	0.0166967
799.546	0.0167730
799.624	0.0166989
799.703	0.0167822
799.781	0.0168331
799.859	0.0165454
799.937	0.0165793
800.015	0.0164215
800.093	0.0163501
800.171	0.0162796
800.249	0.0162440
800.328	0.0162082
800.406	0.0161553
800.484	0.0162211
800.562	0.0161159
800.640	0.0161018
800.718	0.0163468
800.796	0.0162917
800.874	0.0163720
800.953	0.0163966
801.031	0.0164399
801.109	0.0166749
801.187	0.0165428
801.265	0.0165757
801.343	0.0165388
801.421	0.0164206
801.499	0.0163846
801.578	0.0162359
801.656	0.0162403
801.734	0.0161619
801.812	0.0161102
801.890	0.0161054
801.968	0.0160445
802.046	0.0159597
802.124	0.0158443
802.203	0.0158051
802.281	0.0156571
802.359	0.0155880
802.437	0.0158065
802.515	0.0155655
802.593	0.0156319
802.671	0.0156963
802.749	0.0156425
802.828	0.0157950
802.906	0.0159277
802.984	0.0160442
803.062	0.0160598
803.140	0.0162507
803.218	0.0162792
803.296	0.0164186
803.374	0.0164964
803.453	0.0164348
803.531	0.0167198
803.609	0.0167544
803.687	0.0167009
803.765	0.0168363
803.843	0.0167904
803.921	0.0168177
803.999	0.0168592
804.078	0.0169484
804.156	0.0170682
804.234	0.0170085
804.312	0.0170610
804.390	0.0168938
804.468	0.0170341
804.546	0.0170258
804.624	0.0171557
804.703	0.0173145
804.781	0.0172710
804.859	0.0171529
804.937	0.0171452
805.015	0.0173595
805.093	0.0173350
805.171	0.0173000
805.249	0.0172354
805.328	0.0173040
805.406	0.0173325
805.484	0.0172432
805.562	0.0170838
805.640	0.0172257
805.718	0.0169019
805.796	0.0168622
805.874	0.0168230
805.953	0.0167130
806.031	0.0167225
806.109	0.0165668
806.187	0.0162907
806.265	0.0162107
806.343	0.0161345
806.421	0.0160527
806.499	0.0159864
806.578	0.0158497
806.656	0.0157102
806.734	0.0157056
806.812	0.0155929
806.890	0.0154441
806.968	0.0155164
807.046	0.0155579
807.124	0.0154852
807.203	0.0155643
807.281	0.0156280
807.359	0.0156675
807.437	0.0158160
807.515	0.0158383
807.593	0.0160677
807.671	0.0161855
807.749	0.0163471
807.828	0.0163626
807.906	0.0165384
807.984	0.0165625
808.062	0.0164880
808.140	0.0166672
808.218	0.0166500
808.296	0.0167831
808.374	0.0166747
808.453	0.0166888
808.531	0.0165797
808.609	0.0166268
808.687	0.0163823
808.765	0.0165022
808.843	0.0164232
808.921	0.0163224
808.999	0.0162481
809.078	0.0162672
809.156	0.0160745
809.234	0.0161884
809.312	0.0161964
809.390	0.0164524
809.468	0.0165215
809.546	0.0167240
809.624	0.0165851
809.703	0.0166424
809.781	0.0167596
809.859	0.0169016
809.937	0.0169803
810.015	0.0170953
810.093	0.0170206
810.171	0.0171401
810.249	0.0169933
810.328	0.0170287
810.406	0.0170901
810.484	0.0170597
810.562	0.0170468
810.640	0.0169253
810.718	0.0170345
810.796	0.0168021
810.874	0.0168262
810.953	0.0166518
811.031	0.0165017
811.109	0.0167618
811.187	0.0166324
811.265	0.0164680
811.343	0.0165166
811.421	0.0165394
811.499	0.0165357
811.578	0.0165864
811.656	0.0164533
811.734	0.0164648
811.812	0.0165545
811.890	0.0164503
811.968	0.0166219
812.046	0.0163665
812.124	0.0165617
812.203	0.0164884
812.281	0.0163506
812.359	0.0162009
812.437	0.0161912
812.515	0.0161954
812.593	0.0163202
812.671	0.0161882
812.749	0.0161478
812.828	0.0162449
812.906	0.0162557
812.984	0.0162794
813.062	0.0164405
813.140	0.0164586
813.218	0.0164314
813.296	0.0165282
813.374	0.0164272
813.453	0.0165456
813.531	0.0166243
813.609	0.0165157
813.687	0.0165989
813.765	0.0163864
813.843	0.0164450
813.921	0.0163039
813.999	0.0162032
814.078	0.0161030
814.156	0.0160416
814.234	0.0160354
814.312	0.0159944
814.390	0.0160910
814.468	0.0160278
814.546	0.0160710
814.624	0.0159724
814.703	0.0161037
814.781	0.0162083
814.859	0.0162452
814.937	0.0161086
815.015	0.0162056
815.093	0.0161142
815.171	0.0160590
815.249	0.0160915
815.328	0.0160176
815.406	0.0159966
815.484	0.0160858
815.562	0.0159092
815.640	0.0158908
815.718	0.0160506
815.796	0.0160748
815.874	0.0161037
815.953	0.0161478
816.031	0.0161977
816.109	0.0163979
816.187	0.0164214
816.265	0.0165436
816.343	0.0167501
816.421	0.0167664
816.499	0.0168736
816.578	0.0170383
816.656	0.0171423
816.734	0.0172932
816.812	0.0173299
816.890	0.0173750
816.968	0.0175359
817.046	0.0175222
817.124	0.0173857
817.203	0.0175859
817.281	0.0173765
817.359	0.0174551
817.437	0.0173937
817.515	0.0174338
817.593	0.0174158
817.671	0.0172227
817.749	0.0172273
817.828	0.0171127
817.906	0.0170639
817.984	0.0171543
818.062	0.0169682
818.140	0.0170225
818.218	0.0168179
818.296	0.0167773
818.374	0.0166145
818.453	0.0167017
818.531	0.0164581
818.609	0.0163943
818.687	0.0163049
818.765	0.0160285
818.843	0.0161841
818.921	0.0160106
818.999	0.0159494
819.078	0.0158457
819.156	0.0157676
819.234	0.0158492
819.312	0.0159805
819.390	0.0158469
819.468	0.0157584
819.546	0.0158726
819.624	0.0159924
819.703	0.0160390
819.781	0.0159727
819.859	0.0158489
819.937	0.0160741
820.015	0.0159249
820.093	0.0160027
820.171	0.0159459
820.249	0.0158998
820.328	0.0158793
820.406	0.0159921
820.484	0.0160130
820.562	0.0159836
820.640	0.0159645
820.718	0.0159595
820.796	0.0160702
820.874	0.0160950
820.953	0.0160266
821.031	0.0161549
821.109	0.0161102
821.187	0.0162492
821.265	0.0162912
821.343	0.0163218
821.421	0.0163660
821.499	0.0164056
821.578	0.0162717
821.656	0.0164880
821.734	0.0165099
821.812	0.0166784
821.890	0.0165112
821.968	0.0166814
822.046	0.0167984
822.124	0.0167952
822.203	0.0170438
822.281	0.0170749
822.359	0.0172371
822.437	0.0172605
822.515	0.0173344
822.593	0.0174146
822.671	0.0175123
822.749	0.0175599
822.828	0.0176780
822.906	0.0176058
822.984	0.0176112
823.062	0.0177362
823.140	0.0177216
823.218	0.0177008
823.296	0.0174812
823.374	0.0175519
823.453	0.0174914
823.531	0.0173201
823.609	0.0172266
823.687	0.0173404
823.765	0.0170313
823.843	0.0170115
823.921	0.0169341
823.999	0.0166602
824.078	0.0165390
824.156	0.0165472
824.234	0.0165038
824.312	0.0163864
824.390	0.0162628
824.468	0.0159373
824.546	0.0161398
824.624	0.0158963
824.703	0.0157053
824.781	0.0157745
824.859	0.0156258
824.937	0.0155151
825.015	0.0154572
825.093	0.0154236
825.171	0.0153675
825.249	0.0154973
825.328	0.0154728
825.406	0.0155971
825.484	0.0155949
825.562	0.0157365
825.640	0.0158109
825.718	0.0158991
825.796	0.0159926
825.874	0.0161802
825.953	0.0162466
826.031	0.0163682
826.109	0.0164746
826.187	0.0164896
826.265	0.0165379
826.343	0.0165089
826.421	0.0166634
826.499	0.0166990
826.578	0.0167152
826.656	0.0165090
826.734	0.0167417
826.812	0.0167408
826.890	0.0167879
826.968	0.0168494
827.046	0.0167263
827.124	0.0169276
827.203	0.0169616
827.281	0.0167159
827.359	0.0167321
827.437	0.0169337
827.515	0.0168388
827.593	0.0167865
827.671	0.0168036
827.749	0.0165585
827.828	0.0165405
827.906	0.0164025
827.984	0.0162260
828.062	0.0161126
828.140	0.0161058
828.218	0.0159965
828.296	0.0160239
828.374	0.0162224
828.453	0.0161220
828.531	0.0161684
828.609	0.0162768
828.687	0.0163934
828.765	0.0165897
828.843	0.0167054
828.921	0.0167258
828.999	0.0170294
829.078	0.0170901
829.156	0.0171535
829.234	0.0172687
829.312	0.0172948
829.390	0.0173198
829.468	0.0173669
829.546	0.0173941
829.624	0.0173686
829.703	0.0173633
829.781	0.0172121
829.859	0.0171690
829.937	0.0170866
830.015	0.0170579
830.093	0.0167046
830.171	0.0166787
830.249	0.0164828
830.328	0.0163601
830.406	0.0163889
830.484	0.0163266
830.562	0.0163048
830.640	0.0160750
830.718	0.0161190
830.796	0.0161593
830.874	0.0160464
830.953	0.0160715
831.031	0.0161291
831.109	0.0162315
831.187	0.0159272
831.265	0.0158791
831.343	0.0158507
831.421	0.0158128
831.499	0.0158644
831.578	0.0157836
831.656	0.0158486
831.734	0.0157869
831.812	0.0157889
831.890	0.0158243
831.968	0.0158018
832.046	0.0157258
832.124	0.0159175
832.203	0.0160760
832.281	0.0160632
832.359	0.0160686
832.437	0.0161207
832.515	0.0159766
832.593	0.0161629
832.671	0.0162917
832.749	0.0162470
832.828	0.0163784
832.906	0.0163879
832.984	0.0164928
833.062	0.0167274
833.140	0.0166230
833.218	0.0165382
833.296	0.0167542
833.374	0.0167757
833.453	0.0168261
833.531	0.0166957
833.609	0.0167800
833.687	0.0167220
833.765	0.0167989
833.843	0.0167347
833.921	0.0166853
833.999	0.0166553
834.078	0.0165559
834.156	0.0166880
834.234	0.0165900
834.312	0.0165638
834.390	0.0164870
834.468	0.0164376
834.546	0.0165159
834.624	0.0164928
834.703	0.0164896
834.781	0.0163855
834.859	0.0166730
834.937	0.0165680
835.015	0.0164983
835.093	0.0166734
835.171	0.0166926
835.249	0.0167280
835.328	0.0166926
835.406	0.0168755
835.484	0.0169273
835.562	0.0170068
835.640	0.0172549
835.718	0.0172390
835.796	0.0171672
835.874	0.0172855
835.953	0.0173471
836.031	0.0172307
836.109	0.0173537
836.187	0.0173087
836.265	0.0171618
836.343	0.0170686
836.421	0.0169776
836.499	0.0168013
836.578	0.0169518
836.656	0.0166373
836.734	0.0165228
836.812	0.0163818
836.890	0.0161090
836.968	0.0160110
837.046	0.0161125
837.124	0.0158757
837.203	0.0158354
837.281	0.0157853
837.359	0.0157992
837.437	0.0156052
837.515	0.0155856
837.593	0.0157375
837.671	0.0156058
837.749	0.0155997
837.828	0.0156243
837.906	0.0156001
837.984	0.0157655
838.062	0.0157178
838.140	0.0156301
838.218	0.0157674
838.296	0.0160402
838.374	0.0161011
838.453	0.0161587
838.531	0.0161707
838.609	0.0163471
838.687	0.0164455
838.765	0.0165490
838.843	0.0166280
838.921	0.0167471
838.999	0.0166962
839.078	0.0167368
839.156	0.0167467
839.234	0.0168078
839.312	0.0168227
839.390	0.0168469
839.468	0.0169325
839.546	0.0167902
839.624	0.0169553
839.703	0.0168488
839.781	0.0167412
839.859	0.0167793
839.937	0.0166819
840.015	0.0165394
840.093	0.0168056
840.171	0.0166277
840.249	0.0166614
840.328	0.0164939
840.406	0.0164920
840.484	0.0163969
840.562	0.0163635
840.640	0.0164635
840.718	0.0163865
840.796	0.0164571
840.874	0.0164133
840.953	0.0164762
841.031	0.0164693
841.109	0.0163826
841.187	0.0163918
841.265	0.0165219
841.343	0.0166035
841.421	0.0167133
841.499	0.0168616
841.578	0.0166194
841.656	0.0168224
841.734	0.0169010
841.812	0.0171562
841.890	0.0170662
841.968	0.0172164
842.046	0.0173302
842.124	0.0172147
842.203	0.0171741
842.281	0.0172548
842.359	0.0171828
842.437	0.0170891
842.515	0.0171141
842.593	0.0169680
842.671	0.0168506
842.749	0.0167827
842.828	0.0166285
842.906	0.0165659
842.984	0.0164126
843.062	0.0162968
843.140	0.0162372
843.218	0.0162298
843.296	0.0160802
843.374	0.0160212
843.453	0.0161268
843.531	0.0159606
843.609	0.0159818
843.687	0.0160716
843.765	0.0161427
843.843	0.0160302
843.921	0.0160202
843.999	0.0160928
844.078	0.0160667
844.156	0.0160559
844.234	0.0164069
844.312	0.0163289
844.390	0.0162828
844.468	0.0163296
844.546	0.0163293
844.624	0.0164474
844.703	0.0164108
844.781	0.0164453
844.859	0.0166037
844.937	0.0166592
845.015	0.0167017
845.093	0.0166553
845.171	0.0166910
845.249	0.0168941
845.328	0.0165972
845.406	0.0167470
845.484	0.0167181
845.562	0.0167429
845.640	0.0166661
845.718	0.0166901
845.796	0.0166211
845.874	0.0166919
845.953	0.0166867
846.031	0.0166402
846.109	0.0164754
846.187	0.0166131
846.265	0.0165881
846.343	0.0165794
846.421	0.0165555
846.499	0.0166562
846.578	0.0164465
846.656	0.0164262
846.734	0.0165000
846.812	0.0163310
846.890	0.0164714
846.968	0.0163812
847.046	0.0162716
847.124	0.0163373
847.203	0.0163187
847.281	0.0163325
847.359	0.0164507
847.437	0.0164281
847.515	0.0164420
847.593	0.0164935
847.671	0.0164948
847.749	0.0166570
847.828	0.0165562
847.906	0.0167699
847.984	0.0168531
848.062	0.0168432
848.140	0.0168632
848.218	0.0169830
848.296	0.0170869
848.374	0.0171593
848.453	0.0170938
848.531	0.0171162
848.609	0.0171175
848.687	0.0170983
848.765	0.0170354
848.843	0.0171511
848.921	0.0170171
848.999	0.0169975
849.078	0.0169160
849.156	0.0166338
849.234	0.0167130
849.312	0.0166980
849.390	0.0166661
849.468	0.0164720
849.546	0.0164053
849.624	0.0161961
849.703	0.0160926
849.781	0.0161123
849.859	0.0160426
849.937	0.0158997
850.015	0.0157397
850.093	0.0158820
850.171	0.0157800
850.249	0.0156637
850.328	0.0157269
850.406	0.0159212
850.484	0.0160474
850.562	0.0159913
850.640	0.0159373
850.718	0.0161515
850.796	0.0161732
850.874	0.0161945
850.953	0.0162801
851.031	0.0163314
851.109	0.0163752
851.187	0.0165478
851.265	0.0166817
851.343	0.0166697
851.421	0.0167646
851.499	0.0166544
851.578	0.0168350
851.656	0.0170037
851.734	0.0169549
851.812	0.0168488
851.890	0.0170071
851.968	0.0168345
852.046	0.0168385
852.124	0.0168347
852.203	0.0169075
852.281	0.0167583
852.359	0.0167987
852.437	0.0165192
852.515	0.0164684
852.593	0.0165220
852.671	0.0163671
852.749	0.0163140
852.828	0.0164784
852.906	0.0164004
852.984	0.0164716
853.062	0.0163226
853.140	0.0163149
853.218	0.0162966
853.296	0.0162289
853.374	0.0161614
853.453	0.0161779
853.531	0.0161282
853.609	0.0163197
853.687	0.0162702
853.765	0.0162959
853.843	0.0162352
853.921	0.0163795
853.999	0.0163538
854.078	0.0164919
854.156	0.0165031
854.234	0.0165437
854.312	0.0167177
854.390	0.0167071
854.468	0.0165205
854.546	0.0170149
854.624	0.0169184
854.703	0.0168362
854.781	0.0169347
854.859	0.0169257
854.937	0.0169007
855.015	0.0169714
855.093	0.0169161
855.171	0.0169839
855.249	0.0169468
855.328	0.0166914
855.406	0.0167997
855.484	0.0168977
855.562	0.0168028
855.640	0.0167553
855.718	0.0166264
855.796	0.0166775
855.874	0.0164453
855.953	0.0164290
856.031	0.0163638
856.109	0.0164251
856.187	0.0163403
856.265	0.0162227
856.343	0.0161231
856.421	0.0160514
856.499	0.0160451
856.578	0.0160581
856.656	0.0159669
856.734	0.0161914
856.812	0.0159187
856.890	0.0161314
856.968	0.0161358
857.046	0.0159698
857.124	0.0159808
857.203	0.0160281
857.281	0.0160218
857.359	0.0161225
857.437	0.0162072
857.515	0.0161863
857.593	0.0162576
857.671	0.0164969
857.749	0.0163207
857.828	0.0164040
857.906	0.0166876
857.984	0.0167001
858.062	0.0167369
858.140	0.0167789
858.218	0.0168784
858.296	0.0169730
858.374	0.0169212
858.453	0.0167803
858.531	0.0168391
858.609	0.0167982
858.687	0.0168130
858.765	0.0169920
858.843	0.0166691
858.921	0.0168157
858.999	0.0167847
859.078	0.0167015
859.156	0.0167698
859.234	0.0165186
859.312	0.0165114
859.390	0.0165008
859.468	0.0165170
859.546	0.0164729
859.624	0.0165243
859.703	0.0164804
859.781	0.0162589
859.859	0.0163445
859.937	0.0162951
860.015	0.0161981
860.093	0.0161560
860.171	0.0162666
860.249	0.0162682
860.328	0.0161110
860.406	0.0162284
860.484	0.0162677
860.562	0.0164341
860.640	0.0162652
860.718	0.0162397
860.796	0.0164848
860.874	0.0164293
860.953	0.0165814
861.031	0.0164809
861.109	0.0165756
861.187	0.0167126
861.265	0.0166595
861.343	0.0166901
861.421	0.0167270
861.499	0.0168923
861.578	0.0168419
861.656	0.0169291
861.734	0.0169271
861.812	0.0169894
861.890	0.0171245
861.968	0.0169699
862.046	0.0169758
862.124	0.0168964
862.203	0.0167453
862.281	0.0167319
862.359	0.0169011
862.437	0.0165984
862.515	0.0165658
862.593	0.0164782
862.671	0.0165277
862.749	0.0164035
862.828	0.0162630
862.906	0.0162724
862.984	0.0160934
863.062	0.0161422
863.140	0.0159834
863.218	0.0160958
863.296	0.0160243
863.374	0.0160123
863.453	0.0161763
863.531	0.0161752
863.609	0.0162334
863.687	0.0163394
863.765	0.0164069
863.843	0.0163924
863.921	0.0165436
863.999	0.0165701
864.078	0.0165447
864.156	0.0165880
864.234	0.0167254
864.312	0.0166267
864.390	0.0165352
864.468	0.0166325
864.546	0.0166576
864.624	0.0166883
864.703	0.0165800
864.781	0.0165768
864.859	0.0165066
864.937	0.0166422
865.015	0.0165033
865.093	0.0166098
865.171	0.0166219
865.249	0.0165447
865.328	0.0165631
865.406	0.0166393
865.484	0.0166950
865.562	0.0167221
865.640	0.0166557
865.718	0.0167369
865.796	0.0167699
865.874	0.0167319
865.953	0.0167200
866.031	0.0166745
866.109	0.0167184
866.187	0.0167272
866.265	0.0167844
866.343	0.0167307
866.421	0.0166192
866.499	0.0164761
866.578	0.0163974
866.656	0.0164536
866.734	0.0163614
866.812	0.0165840
866.890	0.0165134
866.968	0.0164130
867.046	0.0164784
867.124	0.0165382
867.203	0.0166072
867.281	0.0165706
867.359	0.0165475
867.437	0.0166665
867.515	0.0166897
867.593	0.0167030
867.671	0.0167473
867.749	0.0168133
867.828	0.0168668
867.906	0.0168250
867.984	0.0168173
868.062	0.0169274
868.140	0.0170539
868.218	0.0170914
868.296	0.0169035
868.374	0.0169416
868.453	0.0167806
868.531	0.0167505
868.609	0.0167639
868.687	0.0166921
868.765	0.0167236
868.843	0.0165861
868.921	0.0163427
868.999	0.0164940
869.078	0.0163347
869.156	0.0162923
869.234	0.0162003
869.312	0.0162456
869.390	0.0160814
869.468	0.0161642
869.546	0.0161724
869.624	0.0161977
869.703	0.0161526
869.781	0.0162569
869.859	0.0161391
869.937	0.0162286
870.015	0.0162749
870.093	0.0163641
870.171	0.0163515
870.249	0.0165960
870.328	0.0165388
870.406	0.0164719
870.484	0.0165960
870.562	0.0166048
870.640	0.0167277
870.718	0.0165615
870.796	0.0166542
870.874	0.0166585
870.953	0.0166925
871.031	0.0167755
871.109	0.0167638
871.187	0.0167069
871.265	0.0166518
871.343	0.0167154
871.421	0.0168298
871.499	0.0165385
871.578	0.0166229
871.656	0.0166103
871.734	0.0164885
871.812	0.0165123
871.890	0.0164253
871.968	0.0163934
872.046	0.0163599
872.124	0.0164423
872.203	0.0164734
872.281	0.0164294
872.359	0.0163997
872.437	0.0163364
872.515	0.0163477
872.593	0.0164350
872.671	0.0165072
872.749	0.0163839
872.828	0.0163789
872.906	0.0164134
872.984	0.0166238
873.062	0.0164239
873.140	0.0164764
873.218	0.0164833
873.296	0.0164470
873.374	0.0166415
873.453	0.0166723
873.531	0.0167416
873.609	0.0167112
873.687	0.0166704
873.765	0.0166878
873.843	0.0167896
873.921	0.0168355
873.999	0.0166652
874.078	0.0167543
874.156	0.0167110
874.234	0.0165948
874.312	0.0167846
874.390	0.0167538
874.468	0.0167691
874.546	0.0165721
874.624	0.0167109
874.703	0.0167896
874.781	0.0165558
874.859	0.0164842
874.937	0.0164332
875.015	0.0166401
875.093	0.0164182
875.171	0.0164277
875.249	0.0163239
875.328	0.0161627
875.406	0.0161977
875.484	0.0162536
875.562	0.0161331
875.640	0.0158583
875.718	0.0159049
875.796	0.0161507
875.874	0.0159503
875.953	0.0159914
876.031	0.0159268
876.109	0.0159846
876.187	0.0159638
876.265	0.0159904
876.343	0.0159954
876.421	0.0160854
876.499	0.0163078
876.578	0.0163221
876.656	0.0163138
876.734	0.0164421
876.812	0.0166199
876.890	0.0167301
876.968	0.0165923
877.046	0.0166050
877.124	0.0167027
877.203	0.0168974
877.281	0.0167501
877.359	0.0167625
877.437	0.0169691
877.515	0.0168821
877.593	0.0168744
877.671	0.0168785
877.749	0.0168947
877.828	0.0167979
877.906	0.0166596
877.984	0.0167708
878.062	0.0166991
878.140	0.0165666
878.218	0.0166766
878.296	0.0166241
878.374	0.0165458
878.453	0.0164777
878.531	0.0163882
878.609	0.0164500
878.687	0.0163245
878.765	0.0163554
878.843	0.0163400
878.921	0.0162833
878.999	0.0162524
879.078	0.0160458
879.156	0.0161259
879.234	0.0161338
879.312	0.0160354
879.390	0.0160622
879.468	0.0160106
879.546	0.0161338
879.624	0.0160754
879.703	0.0159914
879.781	0.0161463
879.859	0.0159982
879.937	0.0160310
880.015	0.0161939
880.093	0.0161604
880.171	0.0162878
880.249	0.0163533
880.328	0.0164820
880.406	0.0165014
880.484	0.0165921
880.562	0.0166730
880.640	0.0165115
880.718	0.0167303
880.796	0.0167138
880.874	0.0166915
880.953	0.0167049
881.031	0.0167934
881.109	0.0169090
881.187	0.0167519
881.265	0.0167967
881.343	0.0168896
881.421	0.0165984
881.499	0.0167450
881.578	0.0167702
881.656	0.0167590
881.734	0.0167422
881.812	0.0165715
881.890	0.0165386
881.968	0.0166470
882.046	0.0166567
882.124	0.0165813
882.203	0.0164604
882.281	0.0165804
882.359	0.0165932
882.437	0.0164015
882.515	0.0163205
882.593	0.0163519
882.671	0.0163064
882.749	0.0162890
882.828	0.0164153
882.906	0.0163645
882.984	0.0162673
883.062	0.0161925
883.140	0.0162334
883.218	0.0162984
883.296	0.0162338
883.374	0.0163216
883.453	0.0162472
883.531	0.0163722
883.609	0.0163405
883.687	0.0163563
883.765	0.0163434
883.843	0.0163440
883.921	0.0165092
883.999	0.0164445
884.078	0.0165305
884.156	0.0165475
884.234	0.0165927
884.312	0.0166908
884.390	0.0167226
884.468	0.0168785
884.546	0.0167504
884.624	0.0168121
884.703	0.0168005
884.781	0.0168784
884.859	0.0168552
884.937	0.0167521
885.015	0.0169140
885.093	0.0166947
885.171	0.0167345
885.249	0.0167668
885.328	0.0167104
885.406	0.0166314
885.484	0.0165369
885.562	0.0166840
885.640	0.0164631
885.718	0.0164892
885.796	0.0163834
885.874	0.0162848
885.953	0.0163023
886.031	0.0163770
886.109	0.0163899
886.187	0.0163992
886.265	0.0164359
886.343	0.0164102
886.421	0.0163680
886.499	0.0165343
886.578	0.0165808
886.656	0.0166291
886.734	0.0167063
886.812	0.0167472
886.890	0.0167327
886.968	0.0167052
887.046	0.0168288
887.124	0.0169843
887.203	0.0168405
887.281	0.0168446
887.359	0.0168810
887.437	0.0168238
887.515	0.0168829
887.593	0.0168675
887.671	0.0168729
887.749	0.0168797
887.828	0.0167907
887.906	0.0168188
887.984	0.0166733
888.062	0.0166755
888.140	0.0167010
888.218	0.0166582
888.296	0.0167657
888.374	0.0165926
888.453	0.0165816
888.531	0.0165796
888.609	0.0166158
888.687	0.0165196
888.765	0.0164445
888.843	0.0165649
888.921	0.0165436
888.999	0.0163789
889.078	0.0164564
889.156	0.0164487
889.234	0.0163884
889.312	0.0163638
889.390	0.0163157
889.468	0.0164154
889.546	0.0162724
889.624	0.0163010
889.703	0.0163087
889.781	0.0163500
889.859	0.0163046
889.937	0.0163445
890.015	0.0164777
890.093	0.0163934
890.171	0.0163854
890.249	0.0164771
890.328	0.0165377
890.406	0.0165831
890.484	0.0164822
890.562	0.0166311
890.640	0.0166857
890.718	0.0166929
890.796	0.0166445
890.874	0.0166437
890.953	0.0166822
891.031	0.0167130
891.109	0.0167339
891.187	0.0169003
891.265	0.0167652
891.343	0.0167803
891.421	0.0167530
891.499	0.0168048
891.578	0.0168004
891.656	0.0167875
891.734	0.0166769
891.812	0.0167903
891.890	0.0167509
891.968	0.0166846
892.046	0.0166352
892.124	0.0165448
892.203	0.0165891
892.281	0.0166622
892.359	0.0165130
892.437	0.0166386
892.515	0.0167147
892.593	0.0166344
892.671	0.0165502
892.749	0.0165317
892.828	0.0163644
892.906	0.0164455
892.984	0.0165396
893.062	0.0164699
893.140	0.0165237
893.218	0.0165066
893.296	0.0165649
893.374	0.0166534
893.453	0.0163847
893.531	0.0165430
893.609	0.0165202
893.687	0.0166197
893.765	0.0166325
893.843	0.0164252
893.921	0.0165288
893.999	0.0165091
894.078	0.0163839
894.156	0.0166219
894.234	0.0165207
894.312	0.0165203
894.390	0.0165610
894.468	0.0164861
894.546	0.0163249
894.624	0.0166005
894.703	0.0166207
894.781	0.0164977
894.859	0.0163997
894.937	0.0165030
895.015	0.0165257
895.093	0.0165327
895.171	0.0164342
895.249	0.0167017
895.328	0.0165406
895.406	0.0164556
895.484	0.0164786
895.562	0.0165029
895.640	0.0164911
895.718	0.0163898
895.796	0.0163710
895.874	0.0163837
895.953	0.0162286
896.031	0.0163384
896.109	0.0163239
896.187	0.0161182
896.265	0.0163300
896.343	0.0162869
896.421	0.0162170
896.499	0.0161651
896.578	0.0163120
896.656	0.0163030
896.734	0.0163052
896.812	0.0162390
896.890	0.0163794
896.968	0.0162737
897.046	0.0163990
897.124	0.0162869
897.203	0.0165525
897.281	0.0164931
897.359	0.0165477
897.437	0.0166177
897.515	0.0165600
897.593	0.0165850
897.671	0.0166032
897.749	0.0165434
897.828	0.0166714
897.906	0.0167904
897.984	0.0165882
898.062	0.0166235
898.140	0.0166099
898.218	0.0167306
898.296	0.0165464
898.374	0.0166333
898.453	0.0167202
898.531	0.0166106
898.609	0.0165395
898.687	0.0163920
898.765	0.0163927
898.843	0.0164279
898.921	0.0164071
898.999	0.0164061
899.078	0.0165100
899.156	0.0163765
899.234	0.0163670
899.312	0.0163142
899.390	0.0163700
899.468	0.0163185
899.546	0.0164153
899.624	0.0163422
899.703	0.0163791
899.781	0.0164709
899.859	0.0163534
899.937	0.0164121
900.015	0.0164794
900.093	0.0165345
900.171	0.0162729
900.249	0.0163848
900.328	0.0164844
900.406	0.0164768
900.484	0.0164651
900.562	0.0165887
900.640	0.0165513
900.718	0.0166477
900.796	0.0165174
900.874	0.0165358
900.953	0.0164575
901.031	0.0165822
901.109	0.0165603
901.187	0.0164762
901.265	0.0165299
901.343	0.0165063
901.421	0.0165776
901.499	0.0166416
901.578	0.0165631
901.656	0.0165434
901.734	0.0165633
901.812	0.0165013
901.890	0.0165555
901.968	0.0164285
902.046	0.0166116
902.124	0.0164674
902.203	0.0164808
902.281	0.0164957
902.359	0.0165806
902.437	0.0166040
902.515	0.0164376
902.593	0.0164800
902.671	0.0164768
902.749	0.0164002
902.828	0.0163875
902.906	0.0162911
902.984	0.0162987
903.062	0.0162573
903.140	0.0165088
903.218	0.0164369
903.296	0.0161485
903.374	0.0162889
903.453	0.0162879
903.531	0.0163216
903.609	0.0163010
903.687	0.0162684
903.765	0.0163335
903.843	0.0162307
903.921	0.0163868
903.999	0.0164242
904.078	0.0163571
904.156	0.0163329
904.234	0.0163231
904.312	0.0164224
904.390	0.0163787
904.468	0.0164108
904.546	0.0164666
904.624	0.0164967
904.703	0.0164249
904.781	0.0165293
904.859	0.0164899
904.937	0.0164235
905.015	0.0165677
905.093	0.0166103
905.171	0.0167122
905.249	0.0166997
905.328	0.0165095
905.406	0.0166063
905.484	0.0165686
905.562	0.0166402
905.640	0.0165616
905.718	0.0165641
905.796	0.0165327
905.874	0.0165710
905.953	0.0165289
906.031	0.0166134
906.109	0.0165118
906.187	0.0165582
906.265	0.0165672
906.343	0.0165422
906.421	0.0165105
906.499	0.0164895
906.578	0.0164964
906.656	0.0165305
906.734	0.0165508
906.812	0.0164923
906.890	0.0163698
906.968	0.0164867
907.046	0.0166489
907.124	0.0164939
907.203	0.0165160
907.281	0.0165419
907.359	0.0166300
907.437	0.0166635
907.515	0.0164824
907.593	0.0164812
907.671	0.0166186
907.749	0.0165574
907.828	0.0165470
907.906	0.0166199
907.984	0.0166293
908.062	0.0166882
908.140	0.0165466
908.218	0.0166656
908.296	0.0165880
908.374	0.0164970
908.453	0.0165817
908.531	0.0166896
908.609	0.0165651
908.687	0.0165880
908.765	0.0164209
908.843	0.0165509
908.921	0.0164211
908.999	0.0164339
909.078	0.0164600
909.156	0.0165807
909.234	0.0165208
909.312	0.0163783
909.390	0.0163448
909.468	0.0163193
909.546	0.0165006
909.624	0.0164685
909.703	0.0164489
909.781	0.0164101
909.859	0.0165098
909.937	0.0163291
910.015	0.0163976
910.093	0.0164716
910.171	0.0163000
910.249	0.0164170
910.328	0.0165220
910.406	0.0165102
910.484	0.0164860
910.562	0.0164293
910.640	0.0165772
910.718	0.0164556
910.796	0.0165380
910.874	0.0165527
910.953	0.0163925
911.031	0.0165984
911.109	0.0166464
911.187	0.0165534
911.265	0.0166706
911.343	0.0166560
911.421	0.0167547
911.499	0.0167173
911.578	0.0166686
911.656	0.0167158
911.734	0.0167107
911.812	0.0165789
911.890	0.0166019
911.968	0.0167154
912.046	0.0165539
912.124	0.0165591
912.203	0.0165916
912.281	0.0166764
912.359	0.0166155
912.437	0.0166484
912.515	0.0166182
912.593	0.0166100
912.671	0.0164787
912.749	0.0165435
912.828	0.0164812
912.906	0.0165918
912.984	0.0164275
913.062	0.0164577
913.140	0.0167247
913.218	0.0165609
913.296	0.0165192
913.374	0.0165976
913.453	0.0165717
913.531	0.0165091
913.609	0.0166180
913.687	0.0166289
913.765	0.0167439
913.843	0.0167293
913.921	0.0166058
913.999	0.0167598
914.078	0.0166513
914.156	0.0167184
914.234	0.0166882
914.312	0.0168085
914.390	0.0165487
914.468	0.0165672
914.546	0.0166570
914.624	0.0166816
914.703	0.0166403
914.781	0.0165238
914.859	0.0164741
914.937	0.0166282
915.015	0.0166982
915.093	0.0165317
915.171	0.0165343
915.249	0.0166201
915.328	0.0165446
915.406	0.0164582
915.484	0.0166560
915.562	0.0166444
915.640	0.0164227
915.718	0.0165590
915.796	0.0165737
915.874	0.0164606
915.953	0.0164677
916.031	0.0165406
916.109	0.0166005
916.187	0.0164848
916.265	0.0165417
916.343	0.0164241
916.421	0.0164681
916.499	0.0164132
916.578	0.0162892
916.656	0.0162034
916.734	0.0162981
916.812	0.0162669
916.890	0.0162469
916.968	0.0163228
917.046	0.0162537
917.124	0.0163205
917.203	0.0161340
917.281	0.0162527
917.359	0.0162975
917.437	0.0162665
917.515	0.0161774
917.593	0.0161945
917.671	0.0163541
917.749	0.0162174
917.828	0.0164194
917.906	0.0164957
917.984	0.0165715
918.062	0.0164550
918.140	0.0166925
918.218	0.0167171
918.296	0.0165817
918.374	0.0167154
918.453	0.0167616
918.531	0.0166516
918.609	0.0168151
918.687	0.0167219
918.765	0.0167533
918.843	0.0167184
918.921	0.0168196
918.999	0.0166536
919.078	0.0166314
919.156	0.0167830
919.234	0.0166894
919.312	0.0165894
919.390	0.0165582
919.468	0.0166537
919.546	0.0167190
919.624	0.0165105
919.703	0.0166910
919.781	0.0166234
919.859	0.0166712
919.937	0.0167328
