06/10/2022	18:48:15	Ver.	4.1	UNKNOWN
Optical Delay	600.015094	Delta X		0.078125	Sweeps	1	Scan Rate	0/0
Coordinates	Axis 1	NaN	Axis 2	NaN	Axis 3	NaN	Axis 4	NaN	Axis 5	NaN	Axis 6	0.000000
TX Power	0.000000	RX Power	0.000000

600.015	0.0163858
600.093	0.0162716
600.171	0.0162248
600.249	0.0162962
600.328	0.0163198
600.406	0.0163503
600.484	0.0162820
600.562	0.0161515
600.640	0.0163406
600.718	0.0163126
600.796	0.0163016
600.874	0.0163391
600.953	0.0163589
601.031	0.0163181
601.109	0.0163155
601.187	0.0162074
601.265	0.0164317
601.343	0.0162754
601.421	0.0162963
601.499	0.0161986
601.578	0.0164072
601.656	0.0163647
601.734	0.0162843
601.812	0.0162840
601.890	0.0163128
601.968	0.0163813
602.046	0.0162467
602.124	0.0162623
602.203	0.0162521
602.281	0.0163466
602.359	0.0163850
602.437	0.0162428
602.515	0.0164421
602.593	0.0163804
602.671	0.0162438
602.749	0.0163090
602.828	0.0161366
602.906	0.0161472
602.984	0.0163760
603.062	0.0162948
603.140	0.0163230
603.218	0.0164152
603.296	0.0163046
603.374	0.0162815
603.453	0.0163324
603.531	0.0162899
603.609	0.0162898
603.687	0.0163578
603.765	0.0162650
603.843	0.0161605
603.921	0.0163301
603.999	0.0162987
604.078	0.0162986
604.156	0.0164449
604.234	0.0162817
604.312	0.0161691
604.390	0.0162779
604.468	0.0163327
604.546	0.0162997
604.624	0.0164341
604.703	0.0163896
604.781	0.0162582
604.859	0.0161852
604.937	0.0164079
605.015	0.0164558
605.093	0.0163055
605.171	0.0162582
605.249	0.0162875
605.328	0.0162925
605.406	0.0162023
605.484	0.0163235
605.562	0.0163243
605.640	0.0163098
605.718	0.0163747
605.796	0.0162846
605.874	0.0162637
605.953	0.0163654
606.031	0.0163539
606.109	0.0163194
606.187	0.0162948
606.265	0.0163486
606.343	0.0163754
606.421	0.0162930
606.499	0.0163397
606.578	0.0162634
606.656	0.0162754
606.734	0.0161652
606.812	0.0162003
606.890	0.0162464
606.968	0.0162659
607.046	0.0162035
607.124	0.0164072
607.203	0.0163144
607.281	0.0161771
607.359	0.0163284
607.437	0.0162335
607.515	0.0162532
607.593	0.0163023
607.671	0.0162325
607.749	0.0162682
607.828	0.0163955
607.906	0.0163117
607.984	0.0161988
608.062	0.0163245
608.140	0.0161236
608.218	0.0161018
608.296	0.0163633
608.374	0.0161835
608.453	0.0162338
608.531	0.0161660
608.609	0.0162633
608.687	0.0161473
608.765	0.0161948
608.843	0.0161503
608.921	0.0160730
608.999	0.0162884
609.078	0.0161208
609.156	0.0162196
609.234	0.0162189
609.312	0.0161771
609.390	0.0162006
609.468	0.0160883
609.546	0.0161687
609.624	0.0162097
609.703	0.0162569
609.781	0.0162576
609.859	0.0161221
609.937	0.0162171
610.015	0.0161402
610.093	0.0161177
610.171	0.0162332
610.249	0.0162110
610.328	0.0162133
610.406	0.0162518
610.484	0.0161218
610.562	0.0162067
610.640	0.0161987
610.718	0.0161835
610.796	0.0161845
610.874	0.0162743
610.953	0.0162071
611.031	0.0162113
611.109	0.0161504
611.187	0.0160647
611.265	0.0162149
611.343	0.0162144
611.421	0.0161266
611.499	0.0163441
611.578	0.0161975
611.656	0.0161861
611.734	0.0161117
611.812	0.0161941
611.890	0.0161617
611.968	0.0161788
612.046	0.0161823
612.124	0.0160213
612.203	0.0161724
612.281	0.0162646
612.359	0.0162331
612.437	0.0162865
612.515	0.0162395
612.593	0.0161900
612.671	0.0161404
612.749	0.0162290
612.828	0.0161623
612.906	0.0161709
612.984	0.0162349
613.062	0.0161237
613.140	0.0163129
613.218	0.0161887
613.296	0.0161607
613.374	0.0161131
613.453	0.0161584
613.531	0.0160507
613.609	0.0161359
613.687	0.0162666
613.765	0.0161437
613.843	0.0161499
613.921	0.0161998
613.999	0.0161478
614.078	0.0162073
614.156	0.0162059
614.234	0.0160852
614.312	0.0162729
614.390	0.0163731
614.468	0.0162496
614.546	0.0161996
614.624	0.0163035
614.703	0.0161945
614.781	0.0161405
614.859	0.0161673
614.937	0.0162186
615.015	0.0162337
615.093	0.0160274
615.171	0.0162219
615.249	0.0163268
615.328	0.0161914
615.406	0.0160859
615.484	0.0162598
615.562	0.0162170
615.640	0.0161095
615.718	0.0162114
615.796	0.0162356
615.874	0.0163683
615.953	0.0162710
616.031	0.0161684
616.109	0.0160887
616.187	0.0159416
616.265	0.0162481
616.343	0.0162431
616.421	0.0162524
616.499	0.0161327
616.578	0.0161212
616.656	0.0162630
616.734	0.0163379
616.812	0.0161535
616.890	0.0162131
616.968	0.0163621
617.046	0.0161827
617.124	0.0161304
617.203	0.0161129
617.281	0.0162583
617.359	0.0163145
617.437	0.0160662
617.515	0.0161510
617.593	0.0162473
617.671	0.0161507
617.749	0.0161701
617.828	0.0162156
617.906	0.0161724
617.984	0.0162485
618.062	0.0161840
618.140	0.0161586
618.218	0.0161894
618.296	0.0162157
618.374	0.0162342
618.453	0.0162080
618.531	0.0162196
618.609	0.0162336
618.687	0.0162816
618.765	0.0162527
618.843	0.0161918
618.921	0.0161580
618.999	0.0162808
619.078	0.0163372
619.156	0.0162144
619.234	0.0163059
619.312	0.0162450
619.390	0.0162705
619.468	0.0162296
619.546	0.0163348
619.624	0.0162045
619.703	0.0162555
619.781	0.0163143
619.859	0.0162033
619.937	0.0163345
620.015	0.0162719
620.093	0.0162953
620.171	0.0163144
620.249	0.0162851
620.328	0.0162622
620.406	0.0162384
620.484	0.0162743
620.562	0.0162258
620.640	0.0162660
620.718	0.0161735
620.796	0.0163097
620.874	0.0162976
620.953	0.0164017
621.031	0.0162578
621.109	0.0163361
621.187	0.0163726
621.265	0.0163066
621.343	0.0163155
621.421	0.0163799
621.499	0.0161702
621.578	0.0162012
621.656	0.0163538
621.734	0.0163318
621.812	0.0162251
621.890	0.0162196
621.968	0.0163195
622.046	0.0162890
622.124	0.0163148
622.203	0.0162071
622.281	0.0162627
622.359	0.0161934
622.437	0.0162936
622.515	0.0163896
622.593	0.0163333
622.671	0.0163254
622.749	0.0162383
622.828	0.0162478
622.906	0.0162556
622.984	0.0162140
623.062	0.0161937
623.140	0.0162388
623.218	0.0162249
623.296	0.0162789
623.374	0.0162865
623.453	0.0161994
623.531	0.0162627
623.609	0.0163091
623.687	0.0162187
623.765	0.0162377
623.843	0.0162779
623.921	0.0162352
623.999	0.0161622
624.078	0.0161968
624.156	0.0161904
624.234	0.0162170
624.312	0.0161859
624.390	0.0162731
624.468	0.0161306
624.546	0.0162721
624.624	0.0163517
624.703	0.0162616
624.781	0.0163638
624.859	0.0160999
624.937	0.0161240
625.015	0.0162547
625.093	0.0163212
625.171	0.0163387
625.249	0.0162591
625.328	0.0164143
625.406	0.0163095
625.484	0.0162482
625.562	0.0162160
625.640	0.0162801
625.718	0.0163434
625.796	0.0164184
625.874	0.0163774
625.953	0.0163085
626.031	0.0163676
626.109	0.0163284
626.187	0.0162197
626.265	0.0163735
626.343	0.0163877
626.421	0.0163328
626.499	0.0163287
626.578	0.0161720
626.656	0.0162451
626.734	0.0163927
626.812	0.0162868
626.890	0.0163926
626.968	0.0164539
627.046	0.0164114
627.124	0.0162955
627.203	0.0164260
627.281	0.0162583
627.359	0.0162605
627.437	0.0162921
627.515	0.0164157
627.593	0.0163124
627.671	0.0163029
627.749	0.0162358
627.828	0.0162314
627.906	0.0163905
627.984	0.0161969
628.062	0.0163241
628.140	0.0162756
628.218	0.0163301
628.296	0.0162922
628.374	0.0163504
628.453	0.0163515
628.531	0.0162576
628.609	0.0163885
628.687	0.0163007
628.765	0.0162533
628.843	0.0163217
628.921	0.0163489
628.999	0.0162149
629.078	0.0161948
629.156	0.0162624
629.234	0.0162024
629.312	0.0161766
629.390	0.0162831
629.468	0.0163390
629.546	0.0163100
629.624	0.0162606
629.703	0.0162805
629.781	0.0161898
629.859	0.0162743
629.937	0.0163741
630.015	0.0162296
630.093	0.0161967
630.171	0.0163031
630.249	0.0162180
630.328	0.0161378
630.406	0.0163512
630.484	0.0162511
630.562	0.0163054
630.640	0.0161639
630.718	0.0161084
630.796	0.0161713
630.874	0.0162361
630.953	0.0161893
631.031	0.0162321
631.109	0.0161523
631.187	0.0160496
631.265	0.0162437
631.343	0.0162826
631.421	0.0160441
631.499	0.0161367
631.578	0.0161361
631.656	0.0163736
631.734	0.0163436
631.812	0.0161920
631.890	0.0161131
631.968	0.0162311
632.046	0.0161825
632.124	0.0161365
632.203	0.0162547
632.281	0.0163443
632.359	0.0161871
632.437	0.0162562
632.515	0.0162978
632.593	0.0162365
632.671	0.0162276
632.749	0.0162807
632.828	0.0162509
632.906	0.0162872
632.984	0.0161567
633.062	0.0162462
633.140	0.0162885
633.218	0.0162115
633.296	0.0165405
633.374	0.0162325
633.453	0.0161572
633.531	0.0160530
633.609	0.0162635
633.687	0.0161547
633.765	0.0161596
633.843	0.0163506
633.921	0.0162781
633.999	0.0162225
634.078	0.0162661
634.156	0.0161595
634.234	0.0161744
634.312	0.0162032
634.390	0.0163029
634.468	0.0162093
634.546	0.0161591
634.624	0.0162472
634.703	0.0163438
634.781	0.0161363
634.859	0.0162228
634.937	0.0163757
635.015	0.0160951
635.093	0.0162267
635.171	0.0161884
635.249	0.0162227
635.328	0.0162244
635.406	0.0162588
635.484	0.0164011
635.562	0.0162074
635.640	0.0160893
635.718	0.0161510
635.796	0.0161515
635.874	0.0163172
635.953	0.0161196
636.031	0.0160200
636.109	0.0162456
636.187	0.0162924
636.265	0.0161490
636.343	0.0162071
636.421	0.0163560
636.499	0.0161279
636.578	0.0161732
636.656	0.0162135
636.734	0.0161526
636.812	0.0161872
636.890	0.0162025
636.968	0.0160309
637.046	0.0162601
637.124	0.0162640
637.203	0.0162325
637.281	0.0161623
637.359	0.0161248
637.437	0.0161278
637.515	0.0162819
637.593	0.0161817
637.671	0.0161749
637.749	0.0161585
637.828	0.0162944
637.906	0.0161869
637.984	0.0162945
638.062	0.0162607
638.140	0.0161560
638.218	0.0161803
638.296	0.0161832
638.374	0.0161759
638.453	0.0161742
638.531	0.0162637
638.609	0.0161600
638.687	0.0161393
638.765	0.0161369
638.843	0.0162625
638.921	0.0163606
638.999	0.0161699
639.078	0.0160751
639.156	0.0162710
639.234	0.0162150
639.312	0.0162057
639.390	0.0161660
639.468	0.0162148
639.546	0.0161321
639.624	0.0162472
639.703	0.0161649
639.781	0.0161835
639.859	0.0162249
639.937	0.0162575
640.015	0.0162563
640.093	0.0161946
640.171	0.0162502
640.249	0.0162865
640.328	0.0162728
640.406	0.0163702
640.484	0.0162476
640.562	0.0161678
640.640	0.0162658
640.718	0.0163909
640.796	0.0162556
640.874	0.0163457
640.953	0.0163027
641.031	0.0163876
641.109	0.0163255
641.187	0.0161543
641.265	0.0162566
641.343	0.0163714
641.421	0.0164935
641.499	0.0163409
641.578	0.0163423
641.656	0.0163583
641.734	0.0164283
641.812	0.0162545
641.890	0.0162453
641.968	0.0164387
642.046	0.0161409
642.124	0.0162313
642.203	0.0163046
642.281	0.0162811
642.359	0.0162112
642.437	0.0162355
642.515	0.0161859
642.593	0.0162075
642.671	0.0161721
642.749	0.0162182
642.828	0.0161256
642.906	0.0162183
642.984	0.0162123
643.062	0.0162143
643.140	0.0162470
643.218	0.0162166
643.296	0.0161197
643.374	0.0160990
643.453	0.0163297
643.531	0.0162097
643.609	0.0163315
643.687	0.0161461
643.765	0.0161375
643.843	0.0161842
643.921	0.0163144
643.999	0.0162397
644.078	0.0163320
644.156	0.0163294
644.234	0.0162723
644.312	0.0163248
644.390	0.0162443
644.468	0.0163322
644.546	0.0162407
644.624	0.0161779
644.703	0.0162527
644.781	0.0162096
644.859	0.0163353
644.937	0.0163335
645.015	0.0162170
645.093	0.0162180
645.171	0.0162464
645.249	0.0163103
645.328	0.0161449
645.406	0.0164399
645.484	0.0163360
645.562	0.0162538
645.640	0.0163195
645.718	0.0162775
645.796	0.0162136
645.874	0.0163432
645.953	0.0163803
646.031	0.0162341
646.109	0.0162527
646.187	0.0163290
646.265	0.0162791
646.343	0.0163596
646.421	0.0163015
646.499	0.0163757
646.578	0.0163921
646.656	0.0163770
646.734	0.0163766
646.812	0.0163097
646.890	0.0162370
646.968	0.0163595
647.046	0.0164163
647.124	0.0162297
647.203	0.0162999
647.281	0.0162883
647.359	0.0163393
647.437	0.0163611
647.515	0.0163555
647.593	0.0161937
647.671	0.0161879
647.749	0.0164520
647.828	0.0162502
647.906	0.0162778
647.984	0.0163866
648.062	0.0163025
648.140	0.0162685
648.218	0.0161920
648.296	0.0162375
648.374	0.0162322
648.453	0.0163499
648.531	0.0163926
648.609	0.0162428
648.687	0.0161073
648.765	0.0163126
648.843	0.0162664
648.921	0.0162442
648.999	0.0162331
649.078	0.0163855
649.156	0.0163370
649.234	0.0162429
649.312	0.0163015
649.390	0.0161551
649.468	0.0163152
649.546	0.0162559
649.624	0.0164136
649.703	0.0163028
649.781	0.0162108
649.859	0.0163125
649.937	0.0164293
650.015	0.0162498
650.093	0.0162740
650.171	0.0162747
650.249	0.0162517
650.328	0.0162375
650.406	0.0163184
650.484	0.0163426
650.562	0.0162238
650.640	0.0162659
650.718	0.0162319
650.796	0.0162255
650.874	0.0163151
650.953	0.0162043
651.031	0.0162024
651.109	0.0161443
651.187	0.0163222
651.265	0.0161740
651.343	0.0161340
651.421	0.0161862
651.499	0.0161995
651.578	0.0161872
651.656	0.0162321
651.734	0.0161012
651.812	0.0161609
651.890	0.0161882
651.968	0.0161519
652.046	0.0160861
652.124	0.0161764
652.203	0.0162423
652.281	0.0161563
652.359	0.0162111
652.437	0.0161485
652.515	0.0162276
652.593	0.0161265
652.671	0.0162777
652.749	0.0161205
652.828	0.0161257
652.906	0.0161807
652.984	0.0162425
653.062	0.0163141
653.140	0.0162740
653.218	0.0162331
653.296	0.0161803
653.374	0.0161321
653.453	0.0163316
653.531	0.0161459
653.609	0.0162066
653.687	0.0162551
653.765	0.0162701
653.843	0.0162270
653.921	0.0161868
653.999	0.0163586
654.078	0.0163805
654.156	0.0162110
654.234	0.0162044
654.312	0.0161594
654.390	0.0163168
654.468	0.0163922
654.546	0.0162994
654.624	0.0162180
654.703	0.0161112
654.781	0.0163116
654.859	0.0163018
654.937	0.0161172
655.015	0.0162503
655.093	0.0161302
655.171	0.0163058
655.249	0.0162840
655.328	0.0161696
655.406	0.0162206
655.484	0.0162911
655.562	0.0162836
655.640	0.0162091
655.718	0.0163013
655.796	0.0162073
655.874	0.0161057
655.953	0.0162172
656.031	0.0163673
656.109	0.0163360
656.187	0.0162733
656.265	0.0162766
656.343	0.0161669
656.421	0.0162723
656.499	0.0162633
656.578	0.0163241
656.656	0.0162710
656.734	0.0162832
656.812	0.0162005
656.890	0.0163008
656.968	0.0162249
657.046	0.0161742
657.124	0.0162319
657.203	0.0162002
657.281	0.0164020
657.359	0.0162788
657.437	0.0162505
657.515	0.0162027
657.593	0.0163552
657.671	0.0161784
657.749	0.0162151
657.828	0.0161343
657.906	0.0162576
657.984	0.0162543
658.062	0.0161962
658.140	0.0161769
658.218	0.0163110
658.296	0.0160850
658.374	0.0162829
658.453	0.0163062
658.531	0.0163088
658.609	0.0161220
658.687	0.0161026
658.765	0.0162984
658.843	0.0161950
658.921	0.0161889
658.999	0.0162965
659.078	0.0161711
659.156	0.0162374
659.234	0.0161847
659.312	0.0163757
659.390	0.0162752
659.468	0.0162906
659.546	0.0162484
659.624	0.0161821
659.703	0.0163327
659.781	0.0163968
659.859	0.0162962
659.937	0.0163079
660.015	0.0163327
660.093	0.0163364
660.171	0.0162373
660.249	0.0161881
660.328	0.0162917
660.406	0.0162803
660.484	0.0162810
660.562	0.0163529
660.640	0.0163266
660.718	0.0162471
660.796	0.0162507
660.874	0.0163480
660.953	0.0163191
661.031	0.0162965
661.109	0.0163680
661.187	0.0164008
661.265	0.0162574
661.343	0.0162646
661.421	0.0163476
661.499	0.0163770
661.578	0.0162566
661.656	0.0163393
661.734	0.0162973
661.812	0.0162936
661.890	0.0162726
661.968	0.0162318
662.046	0.0163062
662.124	0.0162937
662.203	0.0162737
662.281	0.0163075
662.359	0.0162437
662.437	0.0163142
662.515	0.0162989
662.593	0.0163058
662.671	0.0162218
662.749	0.0162133
662.828	0.0162819
662.906	0.0161714
662.984	0.0164426
663.062	0.0163029
663.140	0.0162310
663.218	0.0161466
663.296	0.0162224
663.374	0.0163683
663.453	0.0161434
663.531	0.0162722
663.609	0.0163377
663.687	0.0161194
663.765	0.0163502
663.843	0.0162952
663.921	0.0162996
663.999	0.0161240
664.078	0.0163924
664.156	0.0163033
664.234	0.0162550
664.312	0.0163235
664.390	0.0162814
664.468	0.0161973
664.546	0.0163770
664.624	0.0163124
664.703	0.0163319
664.781	0.0161444
664.859	0.0162774
664.937	0.0164472
665.015	0.0161474
665.093	0.0161648
665.171	0.0161914
665.249	0.0163215
665.328	0.0162974
665.406	0.0163396
665.484	0.0161625
665.562	0.0162546
665.640	0.0161681
665.718	0.0162944
665.796	0.0163477
665.874	0.0164105
665.953	0.0164156
666.031	0.0163097
666.109	0.0161266
666.187	0.0162453
666.265	0.0164074
666.343	0.0163234
666.421	0.0162492
666.499	0.0162423
666.578	0.0162172
666.656	0.0161354
666.734	0.0163792
666.812	0.0164745
666.890	0.0162119
666.968	0.0162470
667.046	0.0162225
667.124	0.0162061
667.203	0.0162360
667.281	0.0163000
667.359	0.0163512
667.437	0.0162955
667.515	0.0163167
667.593	0.0163597
667.671	0.0162946
667.749	0.0162188
667.828	0.0161858
667.906	0.0163532
667.984	0.0161890
668.062	0.0162472
668.140	0.0163758
668.218	0.0163441
668.296	0.0161245
668.374	0.0161951
668.453	0.0161753
668.531	0.0161743
668.609	0.0163188
668.687	0.0162394
668.765	0.0162404
668.843	0.0163389
668.921	0.0162683
668.999	0.0162260
669.078	0.0162666
669.156	0.0161751
669.234	0.0161404
669.312	0.0161922
669.390	0.0161982
669.468	0.0161332
669.546	0.0163685
669.624	0.0162290
669.703	0.0162116
669.781	0.0162132
669.859	0.0160720
669.937	0.0161795
670.015	0.0163035
670.093	0.0161371
670.171	0.0163444
670.249	0.0162685
670.328	0.0162384
670.406	0.0163060
670.484	0.0162414
670.562	0.0161526
670.640	0.0162438
670.718	0.0161436
670.796	0.0162385
670.874	0.0162106
670.953	0.0161830
671.031	0.0162928
671.109	0.0162588
671.187	0.0162765
671.265	0.0162276
671.343	0.0162808
671.421	0.0163590
671.499	0.0161944
671.578	0.0162415
671.656	0.0162664
671.734	0.0162943
671.812	0.0163141
671.890	0.0162804
671.968	0.0162818
672.046	0.0162016
672.124	0.0162708
672.203	0.0162051
672.281	0.0161217
672.359	0.0163283
672.437	0.0162585
672.515	0.0162460
672.593	0.0163311
672.671	0.0161845
672.749	0.0162598
672.828	0.0162912
672.906	0.0164360
672.984	0.0162284
673.062	0.0161722
673.140	0.0161632
673.218	0.0163400
673.296	0.0163306
673.374	0.0161631
673.453	0.0163213
673.531	0.0162143
673.609	0.0162795
673.687	0.0161716
673.765	0.0164045
673.843	0.0163103
673.921	0.0162363
673.999	0.0161783
674.078	0.0162327
674.156	0.0163016
674.234	0.0161739
674.312	0.0161321
674.390	0.0162915
674.468	0.0161749
674.546	0.0162157
674.624	0.0161650
674.703	0.0162647
674.781	0.0163000
674.859	0.0162806
674.937	0.0161301
675.015	0.0162045
675.093	0.0161534
675.171	0.0162395
675.249	0.0162226
675.328	0.0161551
675.406	0.0160909
675.484	0.0162225
675.562	0.0162586
675.640	0.0162791
675.718	0.0161783
675.796	0.0161680
675.874	0.0162563
675.953	0.0162402
676.031	0.0163000
676.109	0.0162428
676.187	0.0162511
676.265	0.0162831
676.343	0.0163654
676.421	0.0163017
676.499	0.0162035
676.578	0.0162185
676.656	0.0162503
676.734	0.0162266
676.812	0.0163229
676.890	0.0164184
676.968	0.0164210
677.046	0.0162373
677.124	0.0162485
677.203	0.0163084
677.281	0.0162454
677.359	0.0162302
677.437	0.0162477
677.515	0.0164564
677.593	0.0162881
677.671	0.0162386
677.749	0.0161824
677.828	0.0161887
677.906	0.0162798
677.984	0.0161536
678.062	0.0161512
678.140	0.0163317
678.218	0.0162493
678.296	0.0162313
678.374	0.0162019
678.453	0.0161442
678.531	0.0161978
678.609	0.0161890
678.687	0.0162147
678.765	0.0163493
678.843	0.0162309
678.921	0.0161020
678.999	0.0163721
679.078	0.0162885
679.156	0.0162962
679.234	0.0162310
679.312	0.0163194
679.390	0.0162573
679.468	0.0162385
679.546	0.0162260
679.624	0.0162121
679.703	0.0162284
679.781	0.0162335
679.859	0.0162663
679.937	0.0160893
680.015	0.0163117
680.093	0.0162408
680.171	0.0162675
680.249	0.0161117
680.328	0.0163136
680.406	0.0163438
680.484	0.0162826
680.562	0.0163052
680.640	0.0162353
680.718	0.0162138
680.796	0.0162278
680.874	0.0162704
680.953	0.0163112
681.031	0.0163048
681.109	0.0163204
681.187	0.0162650
681.265	0.0162666
681.343	0.0161844
681.421	0.0162997
681.499	0.0162967
681.578	0.0163522
681.656	0.0163441
681.734	0.0162614
681.812	0.0162693
681.890	0.0162466
681.968	0.0163857
682.046	0.0164082
682.124	0.0163126
682.203	0.0162792
682.281	0.0161979
682.359	0.0163046
682.437	0.0162674
682.515	0.0162571
682.593	0.0161730
682.671	0.0163147
682.749	0.0163223
682.828	0.0163567
682.906	0.0163173
682.984	0.0161835
683.062	0.0163570
683.140	0.0163227
683.218	0.0163497
683.296	0.0163191
683.374	0.0162538
683.453	0.0163283
683.531	0.0162135
683.609	0.0163093
683.687	0.0163651
683.765	0.0163226
683.843	0.0162622
683.921	0.0162101
683.999	0.0163792
684.078	0.0161829
684.156	0.0161165
684.234	0.0162833
684.312	0.0163842
684.390	0.0163671
684.468	0.0161230
684.546	0.0163429
684.624	0.0163522
684.703	0.0161415
684.781	0.0163932
684.859	0.0162138
684.937	0.0162792
685.015	0.0163930
685.093	0.0163345
685.171	0.0161505
685.249	0.0161124
685.328	0.0162917
685.406	0.0162325
685.484	0.0162811
685.562	0.0162108
685.640	0.0163461
685.718	0.0162610
685.796	0.0162311
685.874	0.0163009
685.953	0.0163203
686.031	0.0162769
686.109	0.0163169
686.187	0.0163017
686.265	0.0161520
686.343	0.0163168
686.421	0.0162844
686.499	0.0162872
686.578	0.0163353
686.656	0.0161687
686.734	0.0162479
686.812	0.0163583
686.890	0.0163534
686.968	0.0162927
687.046	0.0164104
687.124	0.0162119
687.203	0.0163032
687.281	0.0163165
687.359	0.0160962
687.437	0.0163186
687.515	0.0162333
687.593	0.0162660
687.671	0.0162164
687.749	0.0162769
687.828	0.0163595
687.906	0.0163210
687.984	0.0163437
688.062	0.0162176
688.140	0.0162568
688.218	0.0163457
688.296	0.0161987
688.374	0.0162521
688.453	0.0163457
688.531	0.0162370
688.609	0.0163093
688.687	0.0163096
688.765	0.0162374
688.843	0.0163516
688.921	0.0162997
688.999	0.0163554
689.078	0.0162548
689.156	0.0162418
689.234	0.0162100
689.312	0.0163317
689.390	0.0163310
689.468	0.0162483
689.546	0.0161958
689.624	0.0162593
689.703	0.0161210
689.781	0.0162969
689.859	0.0162916
689.937	0.0162503
690.015	0.0161317
690.093	0.0162475
690.171	0.0163747
690.249	0.0162661
690.328	0.0163300
690.406	0.0161058
690.484	0.0162373
690.562	0.0161715
690.640	0.0162101
690.718	0.0162985
690.796	0.0162439
690.874	0.0160315
690.953	0.0161631
691.031	0.0162614
691.109	0.0161172
691.187	0.0162954
691.265	0.0161823
691.343	0.0161031
691.421	0.0161124
691.499	0.0161749
691.578	0.0162455
691.656	0.0162311
691.734	0.0162614
691.812	0.0160847
691.890	0.0162193
691.968	0.0162690
692.046	0.0162856
692.124	0.0161742
692.203	0.0162044
692.281	0.0161379
692.359	0.0162452
692.437	0.0162804
692.515	0.0161482
692.593	0.0161501
692.671	0.0161903
692.749	0.0163047
692.828	0.0160852
692.906	0.0160976
692.984	0.0161150
693.062	0.0162196
693.140	0.0162054
693.218	0.0161988
693.296	0.0162077
693.374	0.0162105
693.453	0.0162083
693.531	0.0162461
693.609	0.0161214
693.687	0.0162402
693.765	0.0162238
693.843	0.0162831
693.921	0.0160833
693.999	0.0162593
694.078	0.0163368
694.156	0.0162898
694.234	0.0162028
694.312	0.0162665
694.390	0.0162366
694.468	0.0162246
694.546	0.0162936
694.624	0.0161902
694.703	0.0163084
694.781	0.0162649
694.859	0.0162289
694.937	0.0163012
695.015	0.0162172
695.093	0.0163005
695.171	0.0161052
695.249	0.0161980
695.328	0.0162852
695.406	0.0161635
695.484	0.0161790
695.562	0.0162207
695.640	0.0162573
695.718	0.0162606
695.796	0.0163560
695.874	0.0163303
695.953	0.0161658
696.031	0.0162712
696.109	0.0161857
696.187	0.0162114
696.265	0.0162873
696.343	0.0162251
696.421	0.0162905
696.499	0.0163007
696.578	0.0162877
696.656	0.0162072
696.734	0.0161835
696.812	0.0163084
696.890	0.0162222
696.968	0.0162325
697.046	0.0163385
697.124	0.0163264
697.203	0.0161704
697.281	0.0163567
697.359	0.0162905
697.437	0.0162439
697.515	0.0162743
697.593	0.0163154
697.671	0.0162671
697.749	0.0164488
697.828	0.0162759
697.906	0.0163360
697.984	0.0162548
698.062	0.0160760
698.140	0.0161683
698.218	0.0162839
698.296	0.0163589
698.374	0.0162872
698.453	0.0162664
698.531	0.0163417
698.609	0.0163417
698.687	0.0161345
698.765	0.0161286
698.843	0.0162330
698.921	0.0162600
698.999	0.0161703
699.078	0.0162820
699.156	0.0162821
699.234	0.0162038
699.312	0.0162389
699.390	0.0160608
699.468	0.0162538
699.546	0.0162762
699.624	0.0162299
699.703	0.0162292
699.781	0.0161409
699.859	0.0162560
699.937	0.0162338
700.015	0.0162099
700.093	0.0162109
700.171	0.0162278
700.249	0.0164536
700.328	0.0161691
700.406	0.0162614
700.484	0.0162881
700.562	0.0161470
700.640	0.0162691
700.718	0.0162795
700.796	0.0161095
700.874	0.0162151
700.953	0.0163223
701.031	0.0162359
701.109	0.0161621
701.187	0.0163396
701.265	0.0163712
701.343	0.0163185
701.421	0.0162397
701.499	0.0161904
701.578	0.0162225
701.656	0.0162302
701.734	0.0163499
701.812	0.0162633
701.890	0.0162479
701.968	0.0162063
702.046	0.0161472
702.124	0.0162756
702.203	0.0163056
702.281	0.0164021
702.359	0.0162785
702.437	0.0163423
702.515	0.0162007
702.593	0.0161867
702.671	0.0161640
702.749	0.0161882
702.828	0.0162926
702.906	0.0164230
702.984	0.0162131
703.062	0.0162290
703.140	0.0162421
703.218	0.0164354
703.296	0.0163239
703.374	0.0163593
703.453	0.0161769
703.531	0.0162032
703.609	0.0163163
703.687	0.0162613
703.765	0.0161626
703.843	0.0161620
703.921	0.0162373
703.999	0.0163156
704.078	0.0162283
704.156	0.0163488
704.234	0.0162267
704.312	0.0161739
704.390	0.0163311
704.468	0.0163899
704.546	0.0163528
704.624	0.0162962
704.703	0.0162131
704.781	0.0161629
704.859	0.0163879
704.937	0.0162643
705.015	0.0161888
705.093	0.0161778
705.171	0.0162997
705.249	0.0162836
705.328	0.0164199
705.406	0.0163696
705.484	0.0162904
705.562	0.0163457
705.640	0.0162536
705.718	0.0162365
705.796	0.0162846
705.874	0.0162038
705.953	0.0163346
706.031	0.0162141
706.109	0.0162679
706.187	0.0161662
706.265	0.0161611
706.343	0.0163046
706.421	0.0162778
706.499	0.0162720
706.578	0.0161720
706.656	0.0162287
706.734	0.0163225
706.812	0.0161214
706.890	0.0162016
706.968	0.0161529
707.046	0.0161684
707.124	0.0161478
707.203	0.0161803
707.281	0.0161539
707.359	0.0160674
707.437	0.0161993
707.515	0.0162675
707.593	0.0161713
707.671	0.0162551
707.749	0.0161081
707.828	0.0162857
707.906	0.0162206
707.984	0.0160207
708.062	0.0161761
708.140	0.0161345
708.218	0.0163124
708.296	0.0163564
708.374	0.0162550
708.453	0.0163223
708.531	0.0162276
708.609	0.0161808
708.687	0.0162389
708.765	0.0162613
708.843	0.0161103
708.921	0.0161763
708.999	0.0162675
709.078	0.0162524
709.156	0.0161281
709.234	0.0163371
709.312	0.0161740
709.390	0.0162753
709.468	0.0162620
709.546	0.0163067
709.624	0.0162442
709.703	0.0162817
709.781	0.0162455
709.859	0.0162810
709.937	0.0160519
710.015	0.0162526
710.093	0.0162925
710.171	0.0161095
710.249	0.0162657
710.328	0.0162325
710.406	0.0162877
710.484	0.0163000
710.562	0.0161931
710.640	0.0163020
710.718	0.0162019
710.796	0.0161958
710.874	0.0162261
710.953	0.0162018
711.031	0.0161530
711.109	0.0162177
711.187	0.0163242
711.265	0.0161604
711.343	0.0163213
711.421	0.0161970
711.499	0.0160710
711.578	0.0163013
711.656	0.0162879
711.734	0.0162637
711.812	0.0161120
711.890	0.0161481
711.968	0.0163475
712.046	0.0163149
712.124	0.0162256
712.203	0.0162263
712.281	0.0162803
712.359	0.0162786
712.437	0.0163796
712.515	0.0162314
712.593	0.0159655
712.671	0.0162339
712.749	0.0162458
712.828	0.0163625
712.906	0.0161700
712.984	0.0161565
713.062	0.0162005
713.140	0.0161031
713.218	0.0161553
713.296	0.0162094
713.374	0.0161491
713.453	0.0161739
713.531	0.0161893
713.609	0.0161904
713.687	0.0162412
713.765	0.0161648
713.843	0.0162106
713.921	0.0162500
713.999	0.0161794
714.078	0.0162726
714.156	0.0162993
714.234	0.0163654
714.312	0.0163213
714.390	0.0163174
714.468	0.0162754
714.546	0.0163248
714.624	0.0163407
714.703	0.0164810
714.781	0.0162538
714.859	0.0163425
714.937	0.0164217
715.015	0.0163589
715.093	0.0163118
715.171	0.0163390
715.249	0.0163449
715.328	0.0163143
715.406	0.0163898
715.484	0.0162857
715.562	0.0161309
715.640	0.0161284
715.718	0.0161910
715.796	0.0159248
715.874	0.0160754
715.953	0.0161642
716.031	0.0161372
716.109	0.0160445
716.187	0.0161232
716.265	0.0160822
716.343	0.0161449
716.421	0.0161966
716.499	0.0160878
716.578	0.0162553
716.656	0.0162691
716.734	0.0161533
716.812	0.0162756
716.890	0.0162045
716.968	0.0162915
717.046	0.0164259
717.124	0.0164350
717.203	0.0163455
717.281	0.0163978
717.359	0.0163324
717.437	0.0163744
717.515	0.0165194
717.593	0.0165255
717.671	0.0163708
717.749	0.0163486
717.828	0.0163153
717.906	0.0163157
717.984	0.0163622
718.062	0.0163316
718.140	0.0163336
718.218	0.0161966
718.296	0.0162662
718.374	0.0161904
718.453	0.0162312
718.531	0.0161127
718.609	0.0162203
718.687	0.0160930
718.765	0.0160547
718.843	0.0159486
718.921	0.0162264
718.999	0.0162400
719.078	0.0162073
719.156	0.0161652
719.234	0.0162522
719.312	0.0161647
719.390	0.0162536
719.468	0.0162106
719.546	0.0161636
719.624	0.0162013
719.703	0.0161916
719.781	0.0159586
719.859	0.0159634
719.937	0.0159200
720.015	0.0159066
720.093	0.0158791
720.171	0.0159859
720.249	0.0158685
720.328	0.0160702
720.406	0.0158830
720.484	0.0160686
720.562	0.0160956
720.640	0.0161403
720.718	0.0161743
720.796	0.0162965
720.874	0.0162045
720.953	0.0163487
721.031	0.0162708
721.109	0.0164874
721.187	0.0163745
721.265	0.0165224
721.343	0.0166343
721.421	0.0166364
721.499	0.0165871
721.578	0.0167351
721.656	0.0168060
721.734	0.0168635
721.812	0.0167934
721.890	0.0168628
721.968	0.0167999
722.046	0.0168990
722.124	0.0169460
722.203	0.0169013
722.281	0.0169867
722.359	0.0169074
722.437	0.0167624
722.515	0.0167490
722.593	0.0164764
722.671	0.0162871
722.749	0.0162897
722.828	0.0159953
722.906	0.0157530
722.984	0.0155741
723.062	0.0153429
723.140	0.0152451
723.218	0.0151315
723.296	0.0148673
723.374	0.0148763
723.453	0.0148317
723.531	0.0149480
723.609	0.0150547
723.687	0.0151089
723.765	0.0154185
723.843	0.0155917
723.921	0.0158642
723.999	0.0160506
724.078	0.0162714
724.156	0.0164321
724.234	0.0165974
724.312	0.0167990
724.390	0.0170750
724.468	0.0172213
724.546	0.0173460
724.624	0.0174146
724.703	0.0172971
724.781	0.0174081
724.859	0.0174348
724.937	0.0176386
725.015	0.0173942
725.093	0.0174772
725.171	0.0173189
725.249	0.0172590
725.328	0.0169553
725.406	0.0165855
725.484	0.0164613
725.562	0.0164758
725.640	0.0163253
725.718	0.0160631
725.796	0.0159177
725.874	0.0157649
725.953	0.0157102
726.031	0.0156629
726.109	0.0155502
726.187	0.0155637
726.265	0.0154836
726.343	0.0155038
726.421	0.0155433
726.499	0.0155521
726.578	0.0156323
726.656	0.0157465
726.734	0.0158022
726.812	0.0156759
726.890	0.0158999
726.968	0.0158495
727.046	0.0158034
727.124	0.0160689
727.203	0.0161553
727.281	0.0159960
727.359	0.0161629
727.437	0.0159955
727.515	0.0160363
727.593	0.0158480
727.671	0.0160057
727.749	0.0160257
727.828	0.0160479
727.906	0.0161829
727.984	0.0161486
728.062	0.0161928
728.140	0.0161765
728.218	0.0163424
728.296	0.0165217
728.374	0.0166973
728.453	0.0168472
728.531	0.0167386
728.609	0.0169607
728.687	0.0172160
728.765	0.0171851
728.843	0.0173150
728.921	0.0173782
728.999	0.0174234
729.078	0.0172560
729.156	0.0172966
729.234	0.0173760
729.312	0.0171735
729.390	0.0170556
729.468	0.0168489
729.546	0.0166109
729.624	0.0165070
729.703	0.0163165
729.781	0.0161095
729.859	0.0158979
729.937	0.0158047
730.015	0.0154877
730.093	0.0153117
730.171	0.0153780
730.249	0.0153390
730.328	0.0152307
730.406	0.0153091
730.484	0.0152094
730.562	0.0152953
730.640	0.0153765
730.718	0.0155022
730.796	0.0155335
730.874	0.0157770
730.953	0.0160024
731.031	0.0160708
731.109	0.0162172
731.187	0.0163797
731.265	0.0164414
731.343	0.0165034
731.421	0.0166008
731.499	0.0166567
731.578	0.0166926
731.656	0.0167218
731.734	0.0166208
731.812	0.0165456
731.890	0.0165930
731.968	0.0165125
732.046	0.0164182
732.124	0.0163230
732.203	0.0161697
732.281	0.0161530
732.359	0.0160154
732.437	0.0160347
732.515	0.0160107
732.593	0.0159631
732.671	0.0159035
732.749	0.0161008
732.828	0.0160321
732.906	0.0161491
732.984	0.0161221
733.062	0.0163089
733.140	0.0162486
733.218	0.0164220
733.296	0.0163583
733.374	0.0163984
733.453	0.0163604
733.531	0.0163953
733.609	0.0164297
733.687	0.0163752
733.765	0.0164048
733.843	0.0162582
733.921	0.0164438
733.999	0.0163008
734.078	0.0161691
734.156	0.0162073
734.234	0.0161984
734.312	0.0161184
734.390	0.0160656
734.468	0.0161684
734.546	0.0161174
734.624	0.0162556
734.703	0.0162595
734.781	0.0160762
734.859	0.0163050
734.937	0.0163173
735.015	0.0162350
735.093	0.0163468
735.171	0.0164425
735.249	0.0165927
735.328	0.0163609
735.406	0.0165995
735.484	0.0166304
735.562	0.0165548
735.640	0.0166221
735.718	0.0166226
735.796	0.0165031
735.874	0.0164236
735.953	0.0166293
736.031	0.0164449
736.109	0.0162691
736.187	0.0162369
736.265	0.0162251
736.343	0.0161166
736.421	0.0159829
736.499	0.0159761
736.578	0.0158667
736.656	0.0157158
736.734	0.0159231
736.812	0.0157048
736.890	0.0156577
736.968	0.0157126
737.046	0.0156538
737.124	0.0156255
737.203	0.0155821
737.281	0.0156680
737.359	0.0154077
737.437	0.0157032
737.515	0.0157913
737.593	0.0158721
737.671	0.0159832
737.749	0.0160995
737.828	0.0162318
737.906	0.0163787
737.984	0.0164547
738.062	0.0164719
738.140	0.0166653
738.218	0.0168100
738.296	0.0168600
738.374	0.0168842
738.453	0.0169767
738.531	0.0170175
738.609	0.0170364
738.687	0.0169099
738.765	0.0171277
738.843	0.0170745
738.921	0.0168580
738.999	0.0168710
739.078	0.0167959
739.156	0.0166376
739.234	0.0167869
739.312	0.0166772
739.390	0.0165160
739.468	0.0164188
739.546	0.0164299
739.624	0.0161044
739.703	0.0161574
739.781	0.0162223
739.859	0.0159267
739.937	0.0159763
740.015	0.0158823
740.093	0.0156664
740.171	0.0157719
740.249	0.0158174
740.328	0.0159393
740.406	0.0157938
740.484	0.0157291
740.562	0.0157204
740.640	0.0158604
740.718	0.0159755
740.796	0.0159410
740.874	0.0158945
740.953	0.0158520
741.031	0.0160638
741.109	0.0161707
741.187	0.0162559
741.265	0.0161867
741.343	0.0161646
741.421	0.0163171
741.499	0.0165114
741.578	0.0165193
741.656	0.0164268
741.734	0.0164309
741.812	0.0165295
741.890	0.0164713
741.968	0.0164224
742.046	0.0163407
742.124	0.0163420
742.203	0.0162715
742.281	0.0162573
742.359	0.0161757
742.437	0.0162163
742.515	0.0161343
742.593	0.0162060
742.671	0.0162742
742.749	0.0162262
742.828	0.0163854
742.906	0.0162318
742.984	0.0163317
743.062	0.0163872
743.140	0.0163699
743.218	0.0165432
743.296	0.0166119
743.374	0.0165740
743.453	0.0166424
743.531	0.0167280
743.609	0.0167519
743.687	0.0166335
743.765	0.0166243
743.843	0.0165907
743.921	0.0166532
743.999	0.0164146
744.078	0.0163506
744.156	0.0162460
744.234	0.0162178
744.312	0.0161445
744.390	0.0161333
744.468	0.0158630
744.546	0.0159454
744.624	0.0159927
744.703	0.0157876
744.781	0.0158536
744.859	0.0159903
744.937	0.0159552
745.015	0.0161625
745.093	0.0162013
745.171	0.0161616
745.249	0.0160999
745.328	0.0162349
745.406	0.0161823
745.484	0.0162504
745.562	0.0162364
745.640	0.0163093
745.718	0.0163631
745.796	0.0163486
745.874	0.0162773
745.953	0.0162607
746.031	0.0161766
746.109	0.0159405
746.187	0.0160587
746.265	0.0161436
746.343	0.0160516
746.421	0.0159633
746.499	0.0161226
746.578	0.0159930
746.656	0.0160841
746.734	0.0159851
746.812	0.0160872
746.890	0.0161048
746.968	0.0161166
747.046	0.0161467
747.124	0.0160337
747.203	0.0161477
747.281	0.0163667
747.359	0.0162370
747.437	0.0161752
747.515	0.0163010
747.593	0.0163169
747.671	0.0163621
747.749	0.0164268
747.828	0.0162537
747.906	0.0163422
747.984	0.0164919
748.062	0.0163520
748.140	0.0163268
748.218	0.0164577
748.296	0.0165248
748.374	0.0163696
748.453	0.0164442
748.531	0.0162931
748.609	0.0164534
748.687	0.0164532
748.765	0.0164294
748.843	0.0163539
748.921	0.0162942
748.999	0.0161964
749.078	0.0163257
749.156	0.0161615
749.234	0.0160697
749.312	0.0161465
749.390	0.0161551
749.468	0.0160645
749.546	0.0160712
749.624	0.0159412
749.703	0.0159819
749.781	0.0159583
749.859	0.0160343
749.937	0.0159324
750.015	0.0160302
750.093	0.0160212
750.171	0.0160395
750.249	0.0158871
750.328	0.0160857
750.406	0.0159991
750.484	0.0160203
750.562	0.0161568
750.640	0.0162681
750.718	0.0160801
750.796	0.0160695
750.874	0.0163949
750.953	0.0162019
751.031	0.0162923
751.109	0.0164291
751.187	0.0164709
751.265	0.0164875
751.343	0.0163148
751.421	0.0163408
751.499	0.0162703
751.578	0.0163955
751.656	0.0163761
751.734	0.0163073
751.812	0.0162199
751.890	0.0163099
751.968	0.0162939
752.046	0.0162445
752.124	0.0162560
752.203	0.0163853
752.281	0.0162383
752.359	0.0161247
752.437	0.0161354
752.515	0.0162067
752.593	0.0162357
752.671	0.0161941
752.749	0.0161243
752.828	0.0161089
752.906	0.0161353
752.984	0.0161057
753.062	0.0160616
753.140	0.0161575
753.218	0.0160749
753.296	0.0159581
753.374	0.0160441
753.453	0.0159283
753.531	0.0158912
753.609	0.0159536
753.687	0.0159126
753.765	0.0159653
753.843	0.0160745
753.921	0.0159897
753.999	0.0160948
754.078	0.0162054
754.156	0.0162936
754.234	0.0163206
754.312	0.0161885
754.390	0.0162380
754.468	0.0163240
754.546	0.0165148
754.624	0.0163319
754.703	0.0164248
754.781	0.0164565
754.859	0.0162122
754.937	0.0162907
755.015	0.0162708
755.093	0.0162035
755.171	0.0162519
755.249	0.0164419
755.328	0.0164649
755.406	0.0164606
755.484	0.0164881
755.562	0.0164474
755.640	0.0164271
755.718	0.0163494
755.796	0.0164872
755.874	0.0163770
755.953	0.0163241
756.031	0.0163548
756.109	0.0164682
756.187	0.0161040
756.265	0.0161735
756.343	0.0161959
756.421	0.0161860
756.499	0.0160529
756.578	0.0159375
756.656	0.0159100
756.734	0.0159215
756.812	0.0158902
756.890	0.0157681
756.968	0.0159523
757.046	0.0160034
757.124	0.0160163
757.203	0.0161782
757.281	0.0162910
757.359	0.0163148
757.437	0.0163874
757.515	0.0165351
757.593	0.0165678
757.671	0.0165817
757.749	0.0166460
757.828	0.0165558
757.906	0.0164294
757.984	0.0165728
758.062	0.0165663
758.140	0.0164945
758.218	0.0164851
758.296	0.0165200
758.374	0.0164827
758.453	0.0164539
758.531	0.0163168
758.609	0.0163428
758.687	0.0163355
758.765	0.0162984
758.843	0.0162176
758.921	0.0161085
758.999	0.0160921
759.078	0.0161938
759.156	0.0161810
759.234	0.0163204
759.312	0.0162505
759.390	0.0162092
759.468	0.0163641
759.546	0.0162981
759.624	0.0163409
759.703	0.0164877
759.781	0.0166331
759.859	0.0163873
759.937	0.0163617
760.015	0.0164883
760.093	0.0165569
760.171	0.0163924
760.249	0.0163342
760.328	0.0164100
760.406	0.0165233
760.484	0.0163054
760.562	0.0160876
760.640	0.0160262
760.718	0.0159698
760.796	0.0158485
760.874	0.0159326
760.953	0.0157987
761.031	0.0158351
761.109	0.0157774
761.187	0.0159275
761.265	0.0157501
761.343	0.0157606
761.421	0.0158196
761.499	0.0158327
761.578	0.0157980
761.656	0.0159474
761.734	0.0161415
761.812	0.0160072
761.890	0.0162254
761.968	0.0161555
762.046	0.0161858
762.124	0.0165176
762.203	0.0165858
762.281	0.0166294
762.359	0.0166031
762.437	0.0167390
762.515	0.0168964
762.593	0.0168977
762.671	0.0170166
762.749	0.0170650
762.828	0.0168997
762.906	0.0170851
762.984	0.0170926
763.062	0.0169025
763.140	0.0167506
763.218	0.0165829
763.296	0.0165549
763.374	0.0163020
763.453	0.0161889
763.531	0.0160718
763.609	0.0160295
763.687	0.0158405
763.765	0.0156914
763.843	0.0156884
763.921	0.0156476
763.999	0.0156931
764.078	0.0155309
764.156	0.0154324
764.234	0.0154642
764.312	0.0156104
764.390	0.0155643
764.468	0.0155927
764.546	0.0155276
764.624	0.0157037
764.703	0.0157449
764.781	0.0158112
764.859	0.0158497
764.937	0.0161726
765.015	0.0160742
765.093	0.0163324
765.171	0.0164049
765.249	0.0164658
765.328	0.0165408
765.406	0.0165170
765.484	0.0166321
765.562	0.0166013
765.640	0.0166663
765.718	0.0168201
765.796	0.0166702
765.874	0.0167731
765.953	0.0168661
766.031	0.0167008
766.109	0.0167229
766.187	0.0168050
766.265	0.0168091
766.343	0.0167118
766.421	0.0166042
766.499	0.0166853
766.578	0.0167438
766.656	0.0165489
766.734	0.0165922
766.812	0.0165060
766.890	0.0165621
766.968	0.0165667
767.046	0.0164971
767.124	0.0164743
767.203	0.0163852
767.281	0.0164231
767.359	0.0163421
767.437	0.0163360
767.515	0.0162710
767.593	0.0161076
767.671	0.0160525
767.749	0.0161014
767.828	0.0160964
767.906	0.0159248
767.984	0.0159028
768.062	0.0158546
768.140	0.0157759
768.218	0.0157443
768.296	0.0156825
768.374	0.0157635
768.453	0.0154987
768.531	0.0153001
768.609	0.0152366
768.687	0.0151684
768.765	0.0150718
768.843	0.0150478
768.921	0.0150357
768.999	0.0150356
769.078	0.0150382
769.156	0.0152889
769.234	0.0153925
769.312	0.0158595
769.390	0.0162093
769.468	0.0165778
769.546	0.0167789
769.624	0.0171074
769.703	0.0173478
769.781	0.0174972
769.859	0.0177441
769.937	0.0179795
770.015	0.0180582
770.093	0.0179514
770.171	0.0178378
770.249	0.0177986
770.328	0.0177333
770.406	0.0173045
770.484	0.0169835
770.562	0.0167368
770.640	0.0164640
770.718	0.0163132
770.796	0.0161882
770.874	0.0158744
770.953	0.0156812
771.031	0.0157182
771.109	0.0155194
771.187	0.0153918
771.265	0.0155685
771.343	0.0155967
771.421	0.0155249
771.499	0.0155368
771.578	0.0155894
771.656	0.0156083
771.734	0.0157557
771.812	0.0157117
771.890	0.0157205
771.968	0.0157693
772.046	0.0156444
772.124	0.0156136
772.203	0.0155682
772.281	0.0155832
772.359	0.0155280
772.437	0.0155104
772.515	0.0155255
772.593	0.0156578
772.671	0.0156434
772.749	0.0157919
772.828	0.0159392
772.906	0.0161760
772.984	0.0162729
773.062	0.0165065
773.140	0.0167471
773.218	0.0169881
773.296	0.0170496
773.374	0.0171027
773.453	0.0173411
773.531	0.0174212
773.609	0.0175020
773.687	0.0175388
773.765	0.0175539
773.843	0.0175027
773.921	0.0175967
773.999	0.0174058
774.078	0.0174224
774.156	0.0172655
774.234	0.0169692
774.312	0.0168833
774.390	0.0166757
774.468	0.0163067
774.546	0.0162119
774.624	0.0161052
774.703	0.0157150
774.781	0.0154332
774.859	0.0153243
774.937	0.0151398
775.015	0.0149979
775.093	0.0149882
775.171	0.0147879
775.249	0.0148251
775.328	0.0148440
775.406	0.0148923
775.484	0.0149514
775.562	0.0150476
775.640	0.0149954
775.718	0.0151320
775.796	0.0152642
775.874	0.0154341
775.953	0.0153283
776.031	0.0154742
776.109	0.0155605
776.187	0.0156738
776.265	0.0158343
776.343	0.0160147
776.421	0.0162379
776.499	0.0163260
776.578	0.0167253
776.656	0.0169143
776.734	0.0170257
776.812	0.0172552
776.890	0.0175623
776.968	0.0177111
777.046	0.0180441
777.124	0.0180742
777.203	0.0180851
777.281	0.0181805
777.359	0.0180907
777.437	0.0180613
777.515	0.0178678
777.593	0.0178650
777.671	0.0177805
777.749	0.0172704
777.828	0.0170941
777.906	0.0169214
777.984	0.0167274
778.062	0.0163541
778.140	0.0161555
778.218	0.0159248
778.296	0.0157772
778.374	0.0156282
778.453	0.0154549
778.531	0.0153584
778.609	0.0151858
778.687	0.0148999
778.765	0.0150786
778.843	0.0150113
778.921	0.0148469
778.999	0.0147327
779.078	0.0148744
779.156	0.0147942
779.234	0.0146673
779.312	0.0145441
779.390	0.0145931
779.468	0.0147038
779.546	0.0146543
779.624	0.0148841
779.703	0.0147854
779.781	0.0149937
779.859	0.0152517
779.937	0.0153735
780.015	0.0157143
780.093	0.0159010
780.171	0.0162137
780.249	0.0165494
780.328	0.0167626
780.406	0.0170731
780.484	0.0171568
780.562	0.0173403
780.640	0.0175016
780.718	0.0176266
780.796	0.0176709
780.874	0.0176243
780.953	0.0176895
781.031	0.0176386
781.109	0.0176407
781.187	0.0176912
781.265	0.0175708
781.343	0.0173930
781.421	0.0173888
781.499	0.0173638
781.578	0.0173451
781.656	0.0170735
781.734	0.0170732
781.812	0.0168943
781.890	0.0168652
781.968	0.0167266
782.046	0.0165352
782.124	0.0164636
782.203	0.0162600
782.281	0.0159867
782.359	0.0158669
782.437	0.0157317
782.515	0.0156151
782.593	0.0153348
782.671	0.0152947
782.749	0.0152013
782.828	0.0152970
782.906	0.0154819
782.984	0.0152244
783.062	0.0152523
783.140	0.0155048
783.218	0.0154849
783.296	0.0155016
783.374	0.0155247
783.453	0.0157154
783.531	0.0158138
783.609	0.0158498
783.687	0.0158356
783.765	0.0161420
783.843	0.0163454
783.921	0.0163280
783.999	0.0164884
784.078	0.0165436
784.156	0.0166611
784.234	0.0167435
784.312	0.0166346
784.390	0.0166979
784.468	0.0167500
784.546	0.0165014
784.624	0.0164616
784.703	0.0163154
784.781	0.0161767
784.859	0.0162708
784.937	0.0160274
785.015	0.0160008
785.093	0.0160758
785.171	0.0158774
785.249	0.0158381
785.328	0.0160027
785.406	0.0159212
785.484	0.0160855
785.562	0.0161797
785.640	0.0160553
785.718	0.0162551
785.796	0.0161948
785.874	0.0163282
785.953	0.0163705
786.031	0.0164640
786.109	0.0164684
786.187	0.0165926
786.265	0.0165411
786.343	0.0165606
786.421	0.0165420
786.499	0.0165395
786.578	0.0162668
786.656	0.0164091
786.734	0.0162475
786.812	0.0161671
786.890	0.0161626
786.968	0.0160571
787.046	0.0161829
787.124	0.0161108
787.203	0.0161179
787.281	0.0159763
787.359	0.0159509
787.437	0.0162827
787.515	0.0163892
787.593	0.0164597
787.671	0.0164418
787.749	0.0167078
787.828	0.0168604
787.906	0.0168959
787.984	0.0168934
788.062	0.0169952
788.140	0.0168736
788.218	0.0169767
788.296	0.0168951
788.374	0.0169101
788.453	0.0168674
788.531	0.0167484
788.609	0.0168633
788.687	0.0166441
788.765	0.0164388
788.843	0.0164173
788.921	0.0165176
788.999	0.0165706
789.078	0.0164309
789.156	0.0163062
789.234	0.0163612
789.312	0.0162388
789.390	0.0162720
789.468	0.0161596
789.546	0.0159780
789.624	0.0159036
789.703	0.0161265
789.781	0.0162135
789.859	0.0157446
789.937	0.0157896
790.015	0.0158295
790.093	0.0156611
790.171	0.0155466
790.249	0.0154916
790.328	0.0154484
790.406	0.0154251
790.484	0.0153944
790.562	0.0154339
790.640	0.0153091
790.718	0.0155135
790.796	0.0154948
790.874	0.0157735
790.953	0.0157214
791.031	0.0159332
791.109	0.0160003
791.187	0.0161668
791.265	0.0162514
791.343	0.0163578
791.421	0.0164714
791.499	0.0164068
791.578	0.0165320
791.656	0.0165109
791.734	0.0164987
791.812	0.0165139
791.890	0.0165762
791.968	0.0164353
792.046	0.0163846
792.124	0.0164597
792.203	0.0165472
792.281	0.0164436
792.359	0.0164586
792.437	0.0165197
792.515	0.0165186
792.593	0.0165336
792.671	0.0165356
792.749	0.0163275
792.828	0.0165424
792.906	0.0166122
792.984	0.0165208
793.062	0.0165049
793.140	0.0163288
793.218	0.0163423
793.296	0.0164783
793.374	0.0163753
793.453	0.0163387
793.531	0.0163769
793.609	0.0162440
793.687	0.0162569
793.765	0.0161968
793.843	0.0161205
793.921	0.0162749
793.999	0.0160775
794.078	0.0161277
794.156	0.0162579
794.234	0.0160603
794.312	0.0160505
794.390	0.0161382
794.468	0.0161869
794.546	0.0159925
794.624	0.0159776
794.703	0.0162537
794.781	0.0161963
794.859	0.0162479
794.937	0.0163089
795.015	0.0164865
795.093	0.0166027
795.171	0.0165148
795.249	0.0165882
795.328	0.0168896
795.406	0.0169018
795.484	0.0169456
795.562	0.0168881
795.640	0.0168663
795.718	0.0168434
795.796	0.0168306
795.874	0.0166927
795.953	0.0165462
796.031	0.0164974
796.109	0.0163210
796.187	0.0162270
796.265	0.0161504
796.343	0.0160046
796.421	0.0159305
796.499	0.0156675
796.578	0.0155013
796.656	0.0154958
796.734	0.0154095
796.812	0.0150903
796.890	0.0151592
796.968	0.0151414
797.046	0.0151712
797.124	0.0150323
797.203	0.0149482
797.281	0.0150404
797.359	0.0151254
797.437	0.0150224
797.515	0.0153838
797.593	0.0154759
797.671	0.0155485
797.749	0.0157186
797.828	0.0160168
797.906	0.0161697
797.984	0.0163129
798.062	0.0163778
798.140	0.0166706
798.218	0.0166139
798.296	0.0169234
798.374	0.0170384
798.453	0.0170586
798.531	0.0171873
798.609	0.0172588
798.687	0.0172423
798.765	0.0172967
798.843	0.0173403
798.921	0.0173688
798.999	0.0173505
799.078	0.0173199
799.156	0.0174595
799.234	0.0171863
799.312	0.0172167
799.390	0.0169785
799.468	0.0169746
799.546	0.0168828
799.624	0.0168423
799.703	0.0169090
799.781	0.0164368
799.859	0.0163997
799.937	0.0164081
800.015	0.0162194
800.093	0.0162206
800.171	0.0161244
800.249	0.0159443
800.328	0.0157817
800.406	0.0158170
800.484	0.0158236
800.562	0.0156528
800.640	0.0156212
800.718	0.0157637
800.796	0.0158315
800.874	0.0159912
800.953	0.0160986
801.031	0.0160029
801.109	0.0160743
801.187	0.0160111
801.265	0.0162804
801.343	0.0161078
801.421	0.0159921
801.499	0.0159901
801.578	0.0158887
801.656	0.0160073
801.734	0.0159550
801.812	0.0160385
801.890	0.0158067
801.968	0.0158052
802.046	0.0158206
802.124	0.0157350
802.203	0.0157433
802.281	0.0159025
802.359	0.0156121
802.437	0.0155970
802.515	0.0156116
802.593	0.0154762
802.671	0.0155762
802.749	0.0155148
802.828	0.0155409
802.906	0.0155910
802.984	0.0155321
803.062	0.0155412
803.140	0.0154767
803.218	0.0157367
803.296	0.0157101
803.374	0.0159347
803.453	0.0158317
803.531	0.0160650
803.609	0.0160455
803.687	0.0162290
803.765	0.0164120
803.843	0.0163773
803.921	0.0164444
803.999	0.0165369
804.078	0.0164626
804.156	0.0167036
804.234	0.0167661
804.312	0.0166759
804.390	0.0168946
804.468	0.0168407
804.546	0.0167835
804.624	0.0169314
804.703	0.0169621
804.781	0.0169141
804.859	0.0168362
804.937	0.0169096
805.015	0.0168976
805.093	0.0169754
805.171	0.0168991
805.249	0.0167551
805.328	0.0168576
805.406	0.0169052
805.484	0.0169156
805.562	0.0170013
805.640	0.0168139
805.718	0.0167516
805.796	0.0167569
805.874	0.0166057
805.953	0.0165636
806.031	0.0165935
806.109	0.0165499
806.187	0.0162677
806.265	0.0163185
806.343	0.0161615
806.421	0.0160474
806.499	0.0161465
806.578	0.0158430
806.656	0.0158571
806.734	0.0157899
806.812	0.0156773
806.890	0.0156772
806.968	0.0153723
807.046	0.0153821
807.124	0.0153662
807.203	0.0152587
807.281	0.0153419
807.359	0.0153495
807.437	0.0152726
807.515	0.0152220
807.593	0.0153391
807.671	0.0154082
807.749	0.0153760
807.828	0.0154561
807.906	0.0154832
807.984	0.0155692
808.062	0.0157276
808.140	0.0158193
808.218	0.0159779
808.296	0.0158521
808.374	0.0160069
808.453	0.0160236
808.531	0.0162965
808.609	0.0160933
808.687	0.0163306
808.765	0.0163120
808.843	0.0161731
808.921	0.0163857
808.999	0.0164806
809.078	0.0163766
809.156	0.0161459
809.234	0.0162914
809.312	0.0163539
809.390	0.0163075
809.468	0.0160635
809.546	0.0160862
809.624	0.0160801
809.703	0.0163691
809.781	0.0161563
809.859	0.0161964
809.937	0.0164040
810.015	0.0163765
810.093	0.0163937
810.171	0.0166161
810.249	0.0165799
810.328	0.0165977
810.406	0.0167921
810.484	0.0169355
810.562	0.0167970
810.640	0.0167760
810.718	0.0169381
810.796	0.0169437
810.874	0.0169369
810.953	0.0169606
811.031	0.0167982
811.109	0.0168023
811.187	0.0167831
811.265	0.0167252
811.343	0.0166393
811.421	0.0166524
811.499	0.0163738
811.578	0.0163213
811.656	0.0162510
811.734	0.0161213
811.812	0.0161138
811.890	0.0161021
811.968	0.0160355
812.046	0.0159216
812.124	0.0158521
812.203	0.0159624
812.281	0.0159589
812.359	0.0158633
812.437	0.0159921
812.515	0.0159818
812.593	0.0160372
812.671	0.0160054
812.749	0.0160181
812.828	0.0159222
812.906	0.0160965
812.984	0.0160416
813.062	0.0161834
813.140	0.0159666
813.218	0.0159473
813.296	0.0159888
813.374	0.0159409
813.453	0.0158513
813.531	0.0158527
813.609	0.0158930
813.687	0.0157738
813.765	0.0158256
813.843	0.0159415
813.921	0.0159336
813.999	0.0160225
814.078	0.0162643
814.156	0.0160490
814.234	0.0162443
814.312	0.0163618
814.390	0.0163620
814.468	0.0164493
814.546	0.0162847
814.624	0.0163199
814.703	0.0160624
814.781	0.0162474
814.859	0.0162748
814.937	0.0162749
815.015	0.0162197
815.093	0.0160552
815.171	0.0160554
815.249	0.0160421
815.328	0.0160112
815.406	0.0161311
815.484	0.0161419
815.562	0.0159290
815.640	0.0159856
815.718	0.0160825
815.796	0.0160455
815.874	0.0159701
815.953	0.0161169
816.031	0.0161720
816.109	0.0160201
816.187	0.0160757
816.265	0.0160793
816.343	0.0161191
816.421	0.0161400
816.499	0.0162804
816.578	0.0164486
816.656	0.0163567
816.734	0.0165141
816.812	0.0164044
816.890	0.0164262
816.968	0.0166415
817.046	0.0166287
817.124	0.0167419
817.203	0.0167953
817.281	0.0168372
817.359	0.0169371
817.437	0.0168927
817.515	0.0169505
817.593	0.0169950
817.671	0.0170541
817.749	0.0171445
817.828	0.0169743
817.906	0.0170506
817.984	0.0169702
818.062	0.0170234
818.140	0.0168484
818.218	0.0168600
818.296	0.0168680
818.374	0.0167161
818.453	0.0166060
818.531	0.0168173
818.609	0.0164886
818.687	0.0163420
818.765	0.0164210
818.843	0.0163300
818.921	0.0160677
818.999	0.0158642
819.078	0.0160326
819.156	0.0160771
819.234	0.0157693
819.312	0.0158279
819.390	0.0157515
819.468	0.0156770
819.546	0.0156380
819.624	0.0156591
819.703	0.0156848
819.781	0.0158154
819.859	0.0157738
819.937	0.0156454
820.015	0.0157433
820.093	0.0158737
820.171	0.0157975
820.249	0.0158321
820.328	0.0159310
820.406	0.0159228
820.484	0.0159001
820.562	0.0160906
820.640	0.0158278
820.718	0.0159415
820.796	0.0158244
820.874	0.0158742
820.953	0.0157660
821.031	0.0156751
821.109	0.0156752
821.187	0.0156784
821.265	0.0157505
821.343	0.0156062
821.421	0.0157664
821.499	0.0156255
821.578	0.0158268
821.656	0.0159233
821.734	0.0160472
821.812	0.0160416
821.890	0.0161481
821.968	0.0162565
822.046	0.0163143
822.124	0.0165108
822.203	0.0165374
822.281	0.0168450
822.359	0.0168148
822.437	0.0168672
822.515	0.0169113
822.593	0.0169355
822.671	0.0169901
822.749	0.0172184
822.828	0.0170892
822.906	0.0172037
822.984	0.0171873
823.062	0.0172609
823.140	0.0171870
823.218	0.0172674
823.296	0.0173233
823.374	0.0171593
823.453	0.0171841
823.531	0.0172115
823.609	0.0170969
823.687	0.0171072
823.765	0.0169768
823.843	0.0168597
823.921	0.0168794
823.999	0.0166740
824.078	0.0165425
824.156	0.0165916
824.234	0.0164694
824.312	0.0161055
824.390	0.0161143
824.468	0.0160132
824.546	0.0159780
824.624	0.0159151
824.703	0.0158102
824.781	0.0156750
824.859	0.0155748
824.937	0.0155482
825.015	0.0155079
825.093	0.0154538
825.171	0.0152454
825.249	0.0154001
825.328	0.0153807
825.406	0.0152480
825.484	0.0153914
825.562	0.0154410
825.640	0.0154047
825.718	0.0154548
825.796	0.0155537
825.874	0.0156226
825.953	0.0156614
826.031	0.0157857
826.109	0.0159547
826.187	0.0158475
826.265	0.0159332
826.343	0.0159528
826.421	0.0159126
826.499	0.0162163
826.578	0.0161624
826.656	0.0161045
826.734	0.0163599
826.812	0.0161746
826.890	0.0160651
826.968	0.0162390
827.046	0.0161085
827.124	0.0160214
827.203	0.0161343
827.281	0.0161752
827.359	0.0161273
827.437	0.0159841
827.515	0.0159885
827.593	0.0161415
827.671	0.0161761
827.749	0.0161631
827.828	0.0163535
827.906	0.0161286
827.984	0.0160028
828.062	0.0161487
828.140	0.0161476
828.218	0.0161536
828.296	0.0162041
828.374	0.0160672
828.453	0.0161085
828.531	0.0160847
828.609	0.0161148
828.687	0.0162070
828.765	0.0162932
828.843	0.0162374
828.921	0.0161657
828.999	0.0162378
829.078	0.0163561
829.156	0.0164265
829.234	0.0166412
829.312	0.0167225
829.390	0.0167693
829.468	0.0168356
829.546	0.0169881
829.624	0.0170218
829.703	0.0169933
829.781	0.0170847
829.859	0.0172489
829.937	0.0172688
830.015	0.0171809
830.093	0.0169920
830.171	0.0169000
830.249	0.0169223
830.328	0.0166701
830.406	0.0165591
830.484	0.0164644
830.562	0.0164179
830.640	0.0162077
830.718	0.0160262
830.796	0.0159499
830.874	0.0159783
830.953	0.0158652
831.031	0.0159595
831.109	0.0158624
831.187	0.0156563
831.265	0.0157430
831.343	0.0157365
831.421	0.0156033
831.499	0.0156244
831.578	0.0157338
831.656	0.0155960
831.734	0.0157806
831.812	0.0156367
831.890	0.0157499
831.968	0.0156799
832.046	0.0157880
832.124	0.0158051
832.203	0.0157314
832.281	0.0157028
832.359	0.0158558
832.437	0.0157371
832.515	0.0158363
832.593	0.0156860
832.671	0.0158093
832.749	0.0156747
832.828	0.0159212
832.906	0.0158250
832.984	0.0159459
833.062	0.0161048
833.140	0.0160750
833.218	0.0160751
833.296	0.0162379
833.374	0.0163709
833.453	0.0163897
833.531	0.0163557
833.609	0.0164719
833.687	0.0165652
833.765	0.0165580
833.843	0.0164021
833.921	0.0165358
833.999	0.0165520
834.078	0.0164190
834.156	0.0163085
834.234	0.0161945
834.312	0.0162138
834.390	0.0161166
834.468	0.0159901
834.546	0.0157972
834.624	0.0159751
834.703	0.0159558
834.781	0.0159321
834.859	0.0161210
834.937	0.0160795
835.015	0.0160111
835.093	0.0161819
835.171	0.0161897
835.249	0.0163881
835.328	0.0164349
835.406	0.0165395
835.484	0.0166196
835.562	0.0167886
835.640	0.0168764
835.718	0.0169132
835.796	0.0169483
835.874	0.0171976
835.953	0.0169990
836.031	0.0170305
836.109	0.0169170
836.187	0.0171024
836.265	0.0172318
836.343	0.0168862
836.421	0.0169350
836.499	0.0167030
836.578	0.0166309
836.656	0.0164587
836.734	0.0163490
836.812	0.0163734
836.890	0.0162104
836.968	0.0161848
837.046	0.0160845
837.124	0.0160231
837.203	0.0158536
837.281	0.0158266
837.359	0.0157565
837.437	0.0158852
837.515	0.0155653
837.593	0.0156683
837.671	0.0155243
837.749	0.0157299
837.828	0.0155445
837.906	0.0154148
837.984	0.0156760
838.062	0.0155154
838.140	0.0155098
838.218	0.0156136
838.296	0.0154015
838.374	0.0156119
838.453	0.0157320
838.531	0.0157388
838.609	0.0158315
838.687	0.0159912
838.765	0.0161749
838.843	0.0161903
838.921	0.0162398
838.999	0.0163579
839.078	0.0164626
839.156	0.0165840
839.234	0.0166226
839.312	0.0165934
839.390	0.0165675
839.468	0.0166587
839.546	0.0165043
839.624	0.0165486
839.703	0.0166449
839.781	0.0166742
839.859	0.0165852
839.937	0.0164166
840.015	0.0164820
840.093	0.0164320
840.171	0.0164751
840.249	0.0164932
840.328	0.0163454
840.406	0.0162224
840.484	0.0163467
840.562	0.0163683
840.640	0.0163744
840.718	0.0163425
840.796	0.0162227
840.874	0.0161756
840.953	0.0163934
841.031	0.0161001
841.109	0.0163638
841.187	0.0163670
841.265	0.0162547
841.343	0.0162846
841.421	0.0162246
841.499	0.0164387
841.578	0.0163988
841.656	0.0163754
841.734	0.0163858
841.812	0.0164733
841.890	0.0165561
841.968	0.0164668
842.046	0.0165160
842.124	0.0168075
842.203	0.0167435
842.281	0.0166402
842.359	0.0167271
842.437	0.0167883
842.515	0.0167040
842.593	0.0167723
842.671	0.0167156
842.749	0.0166662
842.828	0.0165518
842.906	0.0165542
842.984	0.0163963
843.062	0.0162583
843.140	0.0162952
843.218	0.0159996
843.296	0.0159268
843.374	0.0158230
843.453	0.0158549
843.531	0.0157431
843.609	0.0156473
843.687	0.0157967
843.765	0.0157133
843.843	0.0155816
843.921	0.0156410
843.999	0.0156555
844.078	0.0156853
844.156	0.0158005
844.234	0.0160268
844.312	0.0158130
844.390	0.0158509
844.468	0.0159247
844.546	0.0158667
844.624	0.0160210
844.703	0.0162257
844.781	0.0159618
844.859	0.0161682
844.937	0.0160995
845.015	0.0159618
845.093	0.0160025
845.171	0.0162083
845.249	0.0162376
845.328	0.0161954
845.406	0.0160846
845.484	0.0162362
845.562	0.0161880
845.640	0.0161977
845.718	0.0163240
845.796	0.0162778
845.874	0.0162651
845.953	0.0162759
846.031	0.0164791
846.109	0.0164841
846.187	0.0163809
846.265	0.0164427
846.343	0.0163894
846.421	0.0165343
846.499	0.0164736
846.578	0.0163320
846.656	0.0166230
846.734	0.0165195
846.812	0.0165714
846.890	0.0164944
846.968	0.0164444
847.046	0.0162390
847.124	0.0161578
847.203	0.0161044
847.281	0.0159385
847.359	0.0160692
847.437	0.0161354
847.515	0.0158663
847.593	0.0159197
847.671	0.0159270
847.749	0.0159911
847.828	0.0160861
847.906	0.0160474
847.984	0.0161533
848.062	0.0161820
848.140	0.0163908
848.218	0.0163830
848.296	0.0165984
848.374	0.0164310
848.453	0.0166446
848.531	0.0167670
848.609	0.0168085
848.687	0.0168230
848.765	0.0167961
848.843	0.0167231
848.921	0.0167934
848.999	0.0167860
849.078	0.0167528
849.156	0.0165341
849.234	0.0164415
849.312	0.0163915
849.390	0.0162537
849.468	0.0161666
849.546	0.0160682
849.624	0.0158955
849.703	0.0158379
849.781	0.0157403
849.859	0.0156277
849.937	0.0156525
850.015	0.0156464
850.093	0.0156961
850.171	0.0156264
850.249	0.0155866
850.328	0.0156248
850.406	0.0157256
850.484	0.0157919
850.562	0.0155901
850.640	0.0157851
850.718	0.0160340
850.796	0.0159150
850.874	0.0158672
850.953	0.0159344
851.031	0.0161405
851.109	0.0160917
851.187	0.0161977
851.265	0.0161049
851.343	0.0161691
851.421	0.0163383
851.499	0.0163244
851.578	0.0162335
851.656	0.0163020
851.734	0.0164314
851.812	0.0163580
851.890	0.0164049
851.968	0.0164876
852.046	0.0163361
852.124	0.0162657
852.203	0.0163059
852.281	0.0163955
852.359	0.0162573
852.437	0.0162798
852.515	0.0162350
852.593	0.0162295
852.671	0.0163307
852.749	0.0163161
852.828	0.0162724
852.906	0.0162544
852.984	0.0162256
853.062	0.0162402
853.140	0.0160942
853.218	0.0161353
853.296	0.0161683
853.374	0.0160357
853.453	0.0162151
853.531	0.0160309
853.609	0.0159937
853.687	0.0158695
853.765	0.0159419
853.843	0.0160632
853.921	0.0160105
853.999	0.0159387
854.078	0.0159778
854.156	0.0160716
854.234	0.0160671
854.312	0.0162015
854.390	0.0162669
854.468	0.0163082
854.546	0.0164288
854.624	0.0163558
854.703	0.0163427
854.781	0.0166261
854.859	0.0168294
854.937	0.0167087
855.015	0.0166518
855.093	0.0166627
855.171	0.0166035
855.249	0.0166656
855.328	0.0167200
855.406	0.0167529
855.484	0.0165710
855.562	0.0165389
855.640	0.0166038
855.718	0.0166019
855.796	0.0165285
855.874	0.0163167
855.953	0.0162280
856.031	0.0162020
856.109	0.0161703
856.187	0.0162498
856.265	0.0160564
856.343	0.0159095
856.421	0.0157793
856.499	0.0157918
856.578	0.0155762
856.656	0.0157399
856.734	0.0156850
856.812	0.0155598
856.890	0.0156183
856.968	0.0156861
857.046	0.0158127
857.124	0.0157718
857.203	0.0159025
857.281	0.0157949
857.359	0.0158388
857.437	0.0160236
857.515	0.0160268
857.593	0.0160564
857.671	0.0161565
857.749	0.0162212
857.828	0.0162103
857.906	0.0162184
857.984	0.0161601
858.062	0.0164626
858.140	0.0165228
858.218	0.0165804
858.296	0.0163960
858.374	0.0164650
858.453	0.0166127
858.531	0.0166759
858.609	0.0165604
858.687	0.0167127
858.765	0.0166978
858.843	0.0166518
858.921	0.0165913
858.999	0.0165250
859.078	0.0165871
859.156	0.0164248
859.234	0.0163293
859.312	0.0163416
859.390	0.0162720
859.468	0.0162847
859.546	0.0161462
859.624	0.0161423
859.703	0.0161457
859.781	0.0161365
859.859	0.0159689
859.937	0.0159267
860.015	0.0159971
860.093	0.0158318
860.171	0.0159409
860.249	0.0158112
860.328	0.0159329
860.406	0.0158896
860.484	0.0159951
860.562	0.0159528
860.640	0.0161175
860.718	0.0159624
860.796	0.0160826
860.874	0.0161164
860.953	0.0162244
861.031	0.0163612
861.109	0.0163853
861.187	0.0162934
861.265	0.0163911
861.343	0.0164899
861.421	0.0164172
861.499	0.0165274
861.578	0.0164308
861.656	0.0166425
861.734	0.0165926
861.812	0.0165359
861.890	0.0167648
861.968	0.0167482
862.046	0.0167957
862.124	0.0166753
862.203	0.0168099
862.281	0.0168716
862.359	0.0166045
862.437	0.0166337
862.515	0.0166348
862.593	0.0165546
862.671	0.0163724
862.749	0.0164021
862.828	0.0162596
862.906	0.0162604
862.984	0.0161374
863.062	0.0160104
863.140	0.0159272
863.218	0.0157141
863.296	0.0158061
863.374	0.0156618
863.453	0.0157216
863.531	0.0158810
863.609	0.0157040
863.687	0.0158965
863.765	0.0158984
863.843	0.0157867
863.921	0.0159170
863.999	0.0158038
864.078	0.0160198
864.156	0.0161984
864.234	0.0161709
864.312	0.0163548
864.390	0.0162542
864.468	0.0162904
864.546	0.0162901
864.624	0.0164441
864.703	0.0164745
864.781	0.0165440
864.859	0.0164498
864.937	0.0164724
865.015	0.0163988
865.093	0.0163267
865.171	0.0165092
865.249	0.0162926
865.328	0.0163174
865.406	0.0163365
865.484	0.0162044
865.562	0.0161481
865.640	0.0161378
865.718	0.0161308
865.796	0.0161726
865.874	0.0161008
865.953	0.0161863
866.031	0.0161954
866.109	0.0161238
866.187	0.0162336
866.265	0.0161625
866.343	0.0161465
866.421	0.0162034
866.499	0.0160428
866.578	0.0163123
866.656	0.0160407
866.734	0.0162495
866.812	0.0163638
866.890	0.0159856
866.968	0.0161113
867.046	0.0162225
867.124	0.0161833
867.203	0.0162583
867.281	0.0161838
867.359	0.0162590
867.437	0.0163122
867.515	0.0163654
867.593	0.0164993
867.671	0.0165040
867.749	0.0164650
867.828	0.0164864
867.906	0.0164339
867.984	0.0163947
868.062	0.0165469
868.140	0.0164934
868.218	0.0165469
868.296	0.0163987
868.374	0.0164493
868.453	0.0165092
868.531	0.0163054
868.609	0.0163853
868.687	0.0164468
868.765	0.0164184
868.843	0.0162582
868.921	0.0161993
868.999	0.0161774
869.078	0.0159538
869.156	0.0159811
869.234	0.0159285
869.312	0.0159084
869.390	0.0158254
869.468	0.0157086
869.546	0.0156421
869.624	0.0155811
869.703	0.0157136
869.781	0.0156901
869.859	0.0156454
869.937	0.0157373
870.015	0.0156633
870.093	0.0157562
870.171	0.0157078
870.249	0.0159742
870.328	0.0160883
870.406	0.0160909
870.484	0.0162319
870.562	0.0162383
870.640	0.0162359
870.718	0.0163452
870.796	0.0162689
870.874	0.0164403
870.953	0.0163869
871.031	0.0165225
871.109	0.0165378
871.187	0.0165437
871.265	0.0165747
871.343	0.0165421
871.421	0.0164460
871.499	0.0164379
871.578	0.0164931
871.656	0.0163845
871.734	0.0164722
871.812	0.0164132
871.890	0.0162933
871.968	0.0163422
872.046	0.0162051
872.124	0.0162374
872.203	0.0162589
872.281	0.0162468
872.359	0.0162794
872.437	0.0162154
872.515	0.0162016
872.593	0.0161807
872.671	0.0161961
872.749	0.0161796
872.828	0.0160676
872.906	0.0161252
872.984	0.0161771
873.062	0.0160265
873.140	0.0159454
873.218	0.0160281
873.296	0.0161241
873.374	0.0160270
873.453	0.0159959
873.531	0.0159868
873.609	0.0161155
873.687	0.0161168
873.765	0.0160896
873.843	0.0161021
873.921	0.0161266
873.999	0.0160614
874.078	0.0161643
874.156	0.0163470
874.234	0.0162084
874.312	0.0162598
874.390	0.0163442
874.468	0.0163115
874.546	0.0164091
874.624	0.0164896
874.703	0.0165031
874.781	0.0164120
874.859	0.0164794
874.937	0.0164526
875.015	0.0165162
875.093	0.0165913
875.171	0.0164731
875.249	0.0163000
875.328	0.0162486
875.406	0.0161683
875.484	0.0160789
875.562	0.0159068
875.640	0.0160269
875.718	0.0157756
875.796	0.0157674
875.874	0.0157791
875.953	0.0155343
876.031	0.0156017
876.109	0.0156917
876.187	0.0154279
876.265	0.0155064
876.343	0.0155499
876.421	0.0158070
876.499	0.0157540
876.578	0.0157275
876.656	0.0158142
876.734	0.0158519
876.812	0.0159369
876.890	0.0161220
876.968	0.0161562
877.046	0.0162804
877.124	0.0163690
877.203	0.0163168
877.281	0.0163665
877.359	0.0166429
877.437	0.0164984
877.515	0.0165536
877.593	0.0166335
877.671	0.0166524
877.749	0.0165651
877.828	0.0165328
877.906	0.0166122
877.984	0.0166005
878.062	0.0164671
878.140	0.0164255
878.218	0.0166367
878.296	0.0165782
878.374	0.0165520
878.453	0.0165673
878.531	0.0164080
878.609	0.0164346
878.687	0.0163851
878.765	0.0164140
878.843	0.0162354
878.921	0.0163388
878.999	0.0162785
879.078	0.0163599
879.156	0.0163013
879.234	0.0161894
879.312	0.0160512
879.390	0.0160626
879.468	0.0160316
879.546	0.0158830
879.624	0.0159080
879.703	0.0159051
879.781	0.0158042
879.859	0.0158365
879.937	0.0158231
880.015	0.0158278
880.093	0.0158440
880.171	0.0158797
880.249	0.0159329
880.328	0.0159759
880.406	0.0161832
880.484	0.0160239
880.562	0.0159409
880.640	0.0161248
880.718	0.0161767
880.796	0.0162996
880.874	0.0163007
880.953	0.0164608
881.031	0.0163215
881.109	0.0165749
881.187	0.0166622
881.265	0.0166351
881.343	0.0166264
881.421	0.0166013
881.499	0.0167445
881.578	0.0166853
881.656	0.0166621
881.734	0.0167515
881.812	0.0165382
881.890	0.0165305
881.968	0.0164214
882.046	0.0165435
882.124	0.0162987
882.203	0.0163673
882.281	0.0163396
882.359	0.0162721
882.437	0.0162347
882.515	0.0161310
882.593	0.0159995
882.671	0.0160419
882.749	0.0160500
882.828	0.0159803
882.906	0.0160879
882.984	0.0160105
883.062	0.0160918
883.140	0.0160300
883.218	0.0160045
883.296	0.0161093
883.374	0.0160752
883.453	0.0161433
883.531	0.0160352
883.609	0.0161332
883.687	0.0161276
883.765	0.0161518
883.843	0.0162710
883.921	0.0162656
883.999	0.0162304
884.078	0.0162727
884.156	0.0163523
884.234	0.0163918
884.312	0.0164586
884.390	0.0163482
884.468	0.0163795
884.546	0.0164703
884.624	0.0164323
884.703	0.0163680
884.781	0.0164779
884.859	0.0164835
884.937	0.0164319
885.015	0.0164575
885.093	0.0165234
885.171	0.0163883
885.249	0.0164107
885.328	0.0165240
885.406	0.0164896
885.484	0.0163956
885.562	0.0165024
885.640	0.0163712
885.718	0.0162913
885.796	0.0163824
885.874	0.0162872
885.953	0.0162516
886.031	0.0162003
886.109	0.0160856
886.187	0.0162435
886.265	0.0160753
886.343	0.0160050
886.421	0.0160941
886.499	0.0160840
886.578	0.0162009
886.656	0.0161629
886.734	0.0162249
886.812	0.0161900
886.890	0.0161474
886.968	0.0162776
887.046	0.0164208
887.124	0.0163866
887.203	0.0164924
887.281	0.0164628
887.359	0.0165381
887.437	0.0163796
887.515	0.0165018
887.593	0.0165543
887.671	0.0166286
887.749	0.0164185
887.828	0.0164873
887.906	0.0165730
887.984	0.0166615
888.062	0.0165673
888.140	0.0164362
888.218	0.0165133
888.296	0.0162701
888.374	0.0164495
888.453	0.0163637
888.531	0.0163824
888.609	0.0164652
888.687	0.0163209
888.765	0.0162318
888.843	0.0161928
888.921	0.0159808
888.999	0.0159596
889.078	0.0158316
889.156	0.0161668
889.234	0.0159550
889.312	0.0158651
889.390	0.0157854
889.468	0.0158515
889.546	0.0158862
889.624	0.0157831
889.703	0.0158816
889.781	0.0158433
889.859	0.0157945
889.937	0.0158947
890.015	0.0158585
890.093	0.0159547
890.171	0.0158955
890.249	0.0159961
890.328	0.0160870
890.406	0.0160388
890.484	0.0160883
890.562	0.0162877
890.640	0.0161741
890.718	0.0161102
890.796	0.0161642
890.874	0.0162978
890.953	0.0163036
891.031	0.0162857
891.109	0.0163789
891.187	0.0163671
891.265	0.0162956
891.343	0.0162995
891.421	0.0164314
891.499	0.0163340
891.578	0.0162617
891.656	0.0162685
891.734	0.0160889
891.812	0.0162622
891.890	0.0163398
891.968	0.0161720
892.046	0.0162263
892.124	0.0161829
892.203	0.0161203
892.281	0.0160310
892.359	0.0161471
892.437	0.0160279
892.515	0.0161097
892.593	0.0160212
892.671	0.0160487
892.749	0.0160954
892.828	0.0160326
892.906	0.0160239
892.984	0.0160090
893.062	0.0159965
893.140	0.0160133
893.218	0.0159875
893.296	0.0161735
893.374	0.0162004
893.453	0.0161316
893.531	0.0160870
893.609	0.0162560
893.687	0.0162810
893.765	0.0163129
893.843	0.0162733
893.921	0.0162026
893.999	0.0162782
894.078	0.0162623
894.156	0.0163381
894.234	0.0163063
894.312	0.0163734
894.390	0.0162701
894.468	0.0162703
894.546	0.0163242
894.624	0.0163415
894.703	0.0162958
894.781	0.0163507
894.859	0.0163271
894.937	0.0163455
895.015	0.0164633
895.093	0.0164046
895.171	0.0164172
895.249	0.0164358
895.328	0.0163277
895.406	0.0162490
895.484	0.0162833
895.562	0.0162877
895.640	0.0163098
895.718	0.0162784
895.796	0.0160360
895.874	0.0161372
895.953	0.0161282
896.031	0.0160459
896.109	0.0159772
896.187	0.0160372
896.265	0.0159220
896.343	0.0159372
896.421	0.0161097
896.499	0.0159604
896.578	0.0159909
896.656	0.0159082
896.734	0.0159340
896.812	0.0160305
896.890	0.0159727
896.968	0.0160740
897.046	0.0160864
897.124	0.0160982
897.203	0.0161478
897.281	0.0160667
897.359	0.0162025
897.437	0.0161713
897.515	0.0162225
897.593	0.0161224
897.671	0.0161874
897.749	0.0161072
897.828	0.0161985
897.906	0.0162817
897.984	0.0163425
898.062	0.0162683
898.140	0.0161282
898.218	0.0163356
898.296	0.0163350
898.374	0.0162578
898.453	0.0161378
898.531	0.0161535
898.609	0.0161697
898.687	0.0161174
898.765	0.0160696
898.843	0.0161092
898.921	0.0161277
898.999	0.0160865
899.078	0.0159303
899.156	0.0160241
899.234	0.0158443
899.312	0.0159029
899.390	0.0160085
899.468	0.0159983
899.546	0.0160241
899.624	0.0159463
899.703	0.0160970
899.781	0.0162585
899.859	0.0163032
899.937	0.0162360
900.015	0.0162909
900.093	0.0164055
900.171	0.0164111
900.249	0.0163518
900.328	0.0161991
900.406	0.0164494
900.484	0.0163568
900.562	0.0162970
900.640	0.0162214
900.718	0.0164498
900.796	0.0163792
900.874	0.0163538
900.953	0.0162171
901.031	0.0163198
901.109	0.0163898
901.187	0.0163624
901.265	0.0162840
901.343	0.0163883
901.421	0.0163940
901.499	0.0162886
901.578	0.0163155
901.656	0.0163149
901.734	0.0162208
901.812	0.0164478
901.890	0.0163591
901.968	0.0163152
902.046	0.0162486
902.124	0.0161858
902.203	0.0161444
902.281	0.0161117
902.359	0.0162919
902.437	0.0162450
902.515	0.0162762
902.593	0.0161087
902.671	0.0162720
902.749	0.0161604
902.828	0.0160439
902.906	0.0161128
902.984	0.0160604
903.062	0.0160580
903.140	0.0161280
903.218	0.0160062
903.296	0.0160223
903.374	0.0161672
903.453	0.0161334
903.531	0.0160201
903.609	0.0158778
903.687	0.0161404
903.765	0.0161405
903.843	0.0160133
903.921	0.0160223
903.999	0.0161940
904.078	0.0160106
904.156	0.0160903
904.234	0.0160260
904.312	0.0159536
904.390	0.0161294
904.468	0.0161151
904.546	0.0160534
904.624	0.0161346
904.703	0.0161487
904.781	0.0161989
904.859	0.0162627
904.937	0.0162713
905.015	0.0162806
905.093	0.0162790
905.171	0.0163641
905.249	0.0163592
905.328	0.0162385
905.406	0.0163444
905.484	0.0162657
905.562	0.0162523
905.640	0.0162699
905.718	0.0162333
905.796	0.0162553
905.874	0.0161362
905.953	0.0163666
906.031	0.0162778
906.109	0.0162772
906.187	0.0163931
906.265	0.0163960
906.343	0.0164288
906.421	0.0163062
906.499	0.0163369
906.578	0.0163674
906.656	0.0163974
906.734	0.0161954
906.812	0.0163065
906.890	0.0163850
906.968	0.0162261
907.046	0.0162966
907.124	0.0163694
907.203	0.0164214
907.281	0.0164246
907.359	0.0163288
907.437	0.0162926
907.515	0.0163673
907.593	0.0163549
907.671	0.0163737
907.749	0.0164660
907.828	0.0164258
907.906	0.0163305
907.984	0.0164941
908.062	0.0162557
908.140	0.0163634
908.218	0.0163229
908.296	0.0164301
908.374	0.0162965
908.453	0.0162000
908.531	0.0161120
908.609	0.0162915
908.687	0.0163132
908.765	0.0162028
908.843	0.0162933
908.921	0.0162506
908.999	0.0162009
909.078	0.0161735
909.156	0.0161922
909.234	0.0162079
909.312	0.0161472
909.390	0.0163335
909.468	0.0162281
909.546	0.0162267
909.624	0.0161091
909.703	0.0161790
909.781	0.0162093
909.859	0.0162849
909.937	0.0162041
910.015	0.0162284
910.093	0.0162197
910.171	0.0162260
910.249	0.0161364
910.328	0.0162260
910.406	0.0161095
910.484	0.0161308
910.562	0.0162806
910.640	0.0162399
910.718	0.0161802
910.796	0.0161995
910.874	0.0162156
910.953	0.0163036
911.031	0.0163837
911.109	0.0163107
911.187	0.0163410
911.265	0.0164302
911.343	0.0163290
911.421	0.0163216
911.499	0.0163110
911.578	0.0162213
911.656	0.0163052
911.734	0.0161850
911.812	0.0161456
911.890	0.0161405
911.968	0.0163728
912.046	0.0163990
912.124	0.0162638
912.203	0.0161279
912.281	0.0162343
912.359	0.0161377
912.437	0.0162177
912.515	0.0162032
912.593	0.0161925
912.671	0.0162994
912.749	0.0163947
912.828	0.0162302
912.906	0.0163059
912.984	0.0162675
913.062	0.0164034
913.140	0.0164063
913.218	0.0163366
913.296	0.0163599
913.374	0.0162863
913.453	0.0162411
913.531	0.0161711
913.609	0.0163227
913.687	0.0164561
913.765	0.0163924
913.843	0.0162771
913.921	0.0163087
913.999	0.0163383
914.078	0.0164685
914.156	0.0164161
914.234	0.0163744
914.312	0.0165512
914.390	0.0162489
914.468	0.0163831
914.546	0.0163503
914.624	0.0163667
914.703	0.0164404
914.781	0.0164386
914.859	0.0164671
914.937	0.0164352
915.015	0.0164498
915.093	0.0164732
915.171	0.0165244
915.249	0.0164590
915.328	0.0165125
915.406	0.0166741
915.484	0.0166499
915.562	0.0164278
915.640	0.0165084
915.718	0.0164601
915.796	0.0163697
915.874	0.0164166
915.953	0.0164606
916.031	0.0164072
916.109	0.0162740
916.187	0.0162792
916.265	0.0162728
916.343	0.0162392
916.421	0.0163290
916.499	0.0161492
916.578	0.0161574
916.656	0.0162306
916.734	0.0162112
916.812	0.0160968
916.890	0.0159942
916.968	0.0159927
917.046	0.0160130
917.124	0.0159863
917.203	0.0160831
917.281	0.0158929
917.359	0.0159939
917.437	0.0160023
917.515	0.0160201
917.593	0.0158812
917.671	0.0160273
917.749	0.0161362
917.828	0.0160220
917.906	0.0159222
917.984	0.0160296
918.062	0.0161396
918.140	0.0161224
918.218	0.0162455
918.296	0.0162000
918.374	0.0163136
918.453	0.0163056
918.531	0.0163651
918.609	0.0163251
918.687	0.0163999
918.765	0.0166095
918.843	0.0164629
918.921	0.0165015
918.999	0.0164887
919.078	0.0165158
919.156	0.0166566
919.234	0.0167355
919.312	0.0165818
919.390	0.0166447
919.468	0.0166213
919.546	0.0165598
919.624	0.0165179
919.703	0.0165380
919.781	0.0167937
919.859	0.0166215
919.937	0.0165816
