06/10/2022	18:48:55	Ver.	4.1	UNKNOWN
Optical Delay	600.015094	Delta X		0.078125	Sweeps	1	Scan Rate	0/0
Coordinates	Axis 1	NaN	Axis 2	NaN	Axis 3	NaN	Axis 4	NaN	Axis 5	NaN	Axis 6	0.000000
TX Power	0.000000	RX Power	0.000000

600.015	0.0163851
600.093	0.0163066
600.171	0.0163245
600.249	0.0162994
600.328	0.0164100
600.406	0.0163080
600.484	0.0164638
600.562	0.0162878
600.640	0.0161903
600.718	0.0163488
600.796	0.0164452
600.874	0.0162634
600.953	0.0164738
601.031	0.0163776
601.109	0.0162573
601.187	0.0165113
601.265	0.0162917
601.343	0.0162605
601.421	0.0163456
601.499	0.0164101
601.578	0.0164281
601.656	0.0163195
601.734	0.0163177
601.812	0.0163580
601.890	0.0163390
601.968	0.0163757
602.046	0.0163750
602.124	0.0164642
602.203	0.0162983
602.281	0.0164559
602.359	0.0164214
602.437	0.0163530
602.515	0.0163745
602.593	0.0164220
602.671	0.0163826
602.749	0.0163348
602.828	0.0164149
602.906	0.0163345
602.984	0.0163207
603.062	0.0164468
603.140	0.0163253
603.218	0.0162929
603.296	0.0165993
603.374	0.0164971
603.453	0.0163986
603.531	0.0163344
603.609	0.0163817
603.687	0.0165575
603.765	0.0165331
603.843	0.0163827
603.921	0.0163795
603.999	0.0164478
604.078	0.0163441
604.156	0.0163983
604.234	0.0165644
604.312	0.0164244
604.390	0.0163889
604.468	0.0165572
604.546	0.0164726
604.624	0.0164455
604.703	0.0165125
604.781	0.0164359
604.859	0.0164393
604.937	0.0165778
605.015	0.0164904
605.093	0.0164766
605.171	0.0165001
605.249	0.0165152
605.328	0.0164963
605.406	0.0164886
605.484	0.0164387
605.562	0.0164804
605.640	0.0165646
605.718	0.0164875
605.796	0.0163895
605.874	0.0163462
605.953	0.0163240
606.031	0.0164352
606.109	0.0165574
606.187	0.0163783
606.265	0.0165101
606.343	0.0164911
606.421	0.0163186
606.499	0.0164550
606.578	0.0164156
606.656	0.0164497
606.734	0.0163784
606.812	0.0164244
606.890	0.0164219
606.968	0.0164221
607.046	0.0165048
607.124	0.0165307
607.203	0.0163100
607.281	0.0164743
607.359	0.0165087
607.437	0.0164133
607.515	0.0163676
607.593	0.0164139
607.671	0.0165455
607.749	0.0163795
607.828	0.0163799
607.906	0.0164108
607.984	0.0165936
608.062	0.0163712
608.140	0.0163370
608.218	0.0165987
608.296	0.0165198
608.374	0.0164362
608.453	0.0164214
608.531	0.0163898
608.609	0.0165841
608.687	0.0165013
608.765	0.0163506
608.843	0.0165046
608.921	0.0164491
608.999	0.0164481
609.078	0.0164927
609.156	0.0163766
609.234	0.0164225
609.312	0.0164675
609.390	0.0164198
609.468	0.0164742
609.546	0.0164911
609.624	0.0164185
609.703	0.0164194
609.781	0.0163149
609.859	0.0165293
609.937	0.0164836
610.015	0.0165186
610.093	0.0164535
610.171	0.0164696
610.249	0.0165146
610.328	0.0165928
610.406	0.0165458
610.484	0.0164963
610.562	0.0164412
610.640	0.0165819
610.718	0.0164598
610.796	0.0164962
610.874	0.0164835
610.953	0.0164102
611.031	0.0164280
611.109	0.0165395
611.187	0.0166183
611.265	0.0166466
611.343	0.0165639
611.421	0.0164679
611.499	0.0164738
611.578	0.0163924
611.656	0.0165074
611.734	0.0165178
611.812	0.0165718
611.890	0.0164984
611.968	0.0165670
612.046	0.0165441
612.124	0.0165818
612.203	0.0165837
612.281	0.0165664
612.359	0.0165255
612.437	0.0164767
612.515	0.0165616
612.593	0.0165983
612.671	0.0165083
612.749	0.0164455
612.828	0.0164584
612.906	0.0165089
612.984	0.0164577
613.062	0.0164286
613.140	0.0163312
613.218	0.0165879
613.296	0.0164424
613.374	0.0164306
613.453	0.0163608
613.531	0.0163224
613.609	0.0166498
613.687	0.0165775
613.765	0.0164343
613.843	0.0163244
613.921	0.0164695
613.999	0.0164304
614.078	0.0164690
614.156	0.0164843
614.234	0.0165434
614.312	0.0164642
614.390	0.0164468
614.468	0.0165162
614.546	0.0164311
614.624	0.0164007
614.703	0.0166267
614.781	0.0165577
614.859	0.0164093
614.937	0.0163686
615.015	0.0163062
615.093	0.0164809
615.171	0.0164045
615.249	0.0164899
615.328	0.0164077
615.406	0.0164725
615.484	0.0164207
615.562	0.0164145
615.640	0.0163040
615.718	0.0163880
615.796	0.0164996
615.874	0.0165839
615.953	0.0165762
616.031	0.0163525
616.109	0.0164770
616.187	0.0165128
616.265	0.0163747
616.343	0.0164444
616.421	0.0163018
616.499	0.0164479
616.578	0.0164603
616.656	0.0164809
616.734	0.0165079
616.812	0.0162182
616.890	0.0163960
616.968	0.0165176
617.046	0.0163228
617.124	0.0163979
617.203	0.0163810
617.281	0.0164915
617.359	0.0164364
617.437	0.0163730
617.515	0.0163338
617.593	0.0164096
617.671	0.0164523
617.749	0.0164124
617.828	0.0163621
617.906	0.0163918
617.984	0.0166357
618.062	0.0164445
618.140	0.0163515
618.218	0.0165040
618.296	0.0164349
618.374	0.0164190
618.453	0.0164507
618.531	0.0163737
618.609	0.0163888
618.687	0.0164412
618.765	0.0163579
618.843	0.0164472
618.921	0.0164069
618.999	0.0163265
619.078	0.0163352
619.156	0.0163729
619.234	0.0163926
619.312	0.0164433
619.390	0.0164039
619.468	0.0163657
619.546	0.0164994
619.624	0.0164506
619.703	0.0164061
619.781	0.0164422
619.859	0.0163495
619.937	0.0163998
620.015	0.0164315
620.093	0.0163712
620.171	0.0163398
620.249	0.0163049
620.328	0.0163456
620.406	0.0163066
620.484	0.0163413
620.562	0.0162804
620.640	0.0164219
620.718	0.0163818
620.796	0.0163316
620.874	0.0163809
620.953	0.0164571
621.031	0.0162977
621.109	0.0163087
621.187	0.0165853
621.265	0.0163993
621.343	0.0164169
621.421	0.0162783
621.499	0.0163618
621.578	0.0164199
621.656	0.0163478
621.734	0.0163151
621.812	0.0163633
621.890	0.0163992
621.968	0.0164058
622.046	0.0163734
622.124	0.0163929
622.203	0.0163290
622.281	0.0163578
622.359	0.0165389
622.437	0.0164639
622.515	0.0163379
622.593	0.0163234
622.671	0.0164852
622.749	0.0164898
622.828	0.0163810
622.906	0.0163532
622.984	0.0164311
623.062	0.0164676
623.140	0.0164222
623.218	0.0163805
623.296	0.0164986
623.374	0.0164185
623.453	0.0165227
623.531	0.0164537
623.609	0.0165351
623.687	0.0165361
623.765	0.0164172
623.843	0.0162943
623.921	0.0165445
623.999	0.0165109
624.078	0.0162582
624.156	0.0164753
624.234	0.0163922
624.312	0.0163467
624.390	0.0164288
624.468	0.0164632
624.546	0.0163674
624.624	0.0163871
624.703	0.0163176
624.781	0.0163616
624.859	0.0162849
624.937	0.0165041
625.015	0.0164154
625.093	0.0163522
625.171	0.0164944
625.249	0.0163962
625.328	0.0162854
625.406	0.0164481
625.484	0.0164407
625.562	0.0165400
625.640	0.0163128
625.718	0.0164346
625.796	0.0163222
625.874	0.0163786
625.953	0.0164424
626.031	0.0164114
626.109	0.0163609
626.187	0.0164090
626.265	0.0164709
626.343	0.0165188
626.421	0.0164455
626.499	0.0163480
626.578	0.0164399
626.656	0.0163988
626.734	0.0164581
626.812	0.0163539
626.890	0.0163533
626.968	0.0164497
627.046	0.0163699
627.124	0.0164463
627.203	0.0164523
627.281	0.0162798
627.359	0.0163514
627.437	0.0164105
627.515	0.0165623
627.593	0.0162563
627.671	0.0163935
627.749	0.0162713
627.828	0.0163396
627.906	0.0164618
627.984	0.0163107
628.062	0.0164178
628.140	0.0163453
628.218	0.0163731
628.296	0.0163518
628.374	0.0164175
628.453	0.0164700
628.531	0.0164059
628.609	0.0163459
628.687	0.0163711
628.765	0.0162710
628.843	0.0164001
628.921	0.0164629
628.999	0.0164922
629.078	0.0162915
629.156	0.0162106
629.234	0.0165225
629.312	0.0163917
629.390	0.0165040
629.468	0.0165289
629.546	0.0163978
629.624	0.0165516
629.703	0.0163794
629.781	0.0164675
629.859	0.0165180
629.937	0.0164581
630.015	0.0163050
630.093	0.0164548
630.171	0.0164735
630.249	0.0165670
630.328	0.0164477
630.406	0.0163963
630.484	0.0164129
630.562	0.0163704
630.640	0.0165055
630.718	0.0163660
630.796	0.0165499
630.874	0.0164735
630.953	0.0163536
631.031	0.0165067
631.109	0.0165212
631.187	0.0163376
631.265	0.0165549
631.343	0.0164271
631.421	0.0164434
631.499	0.0165472
631.578	0.0164693
631.656	0.0165858
631.734	0.0165781
631.812	0.0165249
631.890	0.0163916
631.968	0.0163509
632.046	0.0164706
632.124	0.0165312
632.203	0.0165305
632.281	0.0163334
632.359	0.0164941
632.437	0.0166814
632.515	0.0164520
632.593	0.0164900
632.671	0.0163938
632.749	0.0163736
632.828	0.0164799
632.906	0.0163330
632.984	0.0164793
633.062	0.0164870
633.140	0.0163411
633.218	0.0163922
633.296	0.0165553
633.374	0.0164636
633.453	0.0164202
633.531	0.0163979
633.609	0.0164603
633.687	0.0164244
633.765	0.0164511
633.843	0.0164208
633.921	0.0166187
633.999	0.0164019
634.078	0.0164594
634.156	0.0164587
634.234	0.0164983
634.312	0.0165007
634.390	0.0164200
634.468	0.0163739
634.546	0.0165260
634.624	0.0163804
634.703	0.0164825
634.781	0.0164046
634.859	0.0163078
634.937	0.0163849
635.015	0.0164550
635.093	0.0163546
635.171	0.0164701
635.249	0.0164486
635.328	0.0164330
635.406	0.0164457
635.484	0.0163835
635.562	0.0162917
635.640	0.0164510
635.718	0.0163661
635.796	0.0162767
635.874	0.0164450
635.953	0.0163380
636.031	0.0164780
636.109	0.0163771
636.187	0.0163392
636.265	0.0164337
636.343	0.0163824
636.421	0.0164586
636.499	0.0163633
636.578	0.0162470
636.656	0.0163251
636.734	0.0162933
636.812	0.0164257
636.890	0.0163808
636.968	0.0165120
637.046	0.0163679
637.124	0.0164008
637.203	0.0163004
637.281	0.0163547
637.359	0.0165149
637.437	0.0163023
637.515	0.0164101
637.593	0.0163886
637.671	0.0163477
637.749	0.0163842
637.828	0.0164984
637.906	0.0162737
637.984	0.0164211
638.062	0.0164392
638.140	0.0164703
638.218	0.0163194
638.296	0.0164744
638.374	0.0163712
638.453	0.0165753
638.531	0.0164536
638.609	0.0164858
638.687	0.0163997
638.765	0.0164066
638.843	0.0164033
638.921	0.0164366
638.999	0.0162809
639.078	0.0163200
639.156	0.0164108
639.234	0.0165134
639.312	0.0165124
639.390	0.0165009
639.468	0.0164040
639.546	0.0164316
639.624	0.0164526
639.703	0.0163750
639.781	0.0163877
639.859	0.0163861
639.937	0.0165257
640.015	0.0163132
640.093	0.0164462
640.171	0.0163627
640.249	0.0164999
640.328	0.0162339
640.406	0.0164124
640.484	0.0162771
640.562	0.0163584
640.640	0.0165633
640.718	0.0163599
640.796	0.0164124
640.874	0.0164138
640.953	0.0163891
641.031	0.0163176
641.109	0.0164210
641.187	0.0163665
641.265	0.0163522
641.343	0.0162229
641.421	0.0163641
641.499	0.0164489
641.578	0.0163679
641.656	0.0164025
641.734	0.0163746
641.812	0.0162512
641.890	0.0163226
641.968	0.0164596
642.046	0.0163813
642.124	0.0163857
642.203	0.0162778
642.281	0.0163040
642.359	0.0162727
642.437	0.0163719
642.515	0.0164716
642.593	0.0164263
642.671	0.0163650
642.749	0.0163741
642.828	0.0165189
642.906	0.0163580
642.984	0.0162843
643.062	0.0164744
643.140	0.0163568
643.218	0.0163042
643.296	0.0164010
643.374	0.0164008
643.453	0.0163839
643.531	0.0164046
643.609	0.0164243
643.687	0.0164004
643.765	0.0164467
643.843	0.0163079
643.921	0.0164521
643.999	0.0166485
644.078	0.0165489
644.156	0.0164279
644.234	0.0163753
644.312	0.0164758
644.390	0.0165474
644.468	0.0163930
644.546	0.0165253
644.624	0.0163642
644.703	0.0164202
644.781	0.0164458
644.859	0.0163469
644.937	0.0164432
645.015	0.0164957
645.093	0.0164427
645.171	0.0164240
645.249	0.0164749
645.328	0.0164617
645.406	0.0164323
645.484	0.0164399
645.562	0.0165667
645.640	0.0164104
645.718	0.0163915
645.796	0.0164830
645.874	0.0165083
645.953	0.0164050
646.031	0.0162764
646.109	0.0164449
646.187	0.0164611
646.265	0.0164395
646.343	0.0164281
646.421	0.0165405
646.499	0.0165010
646.578	0.0164664
646.656	0.0164320
646.734	0.0164671
646.812	0.0165302
646.890	0.0164841
646.968	0.0163634
647.046	0.0165911
647.124	0.0164872
647.203	0.0165009
647.281	0.0164218
647.359	0.0164052
647.437	0.0164658
647.515	0.0164923
647.593	0.0165720
647.671	0.0162966
647.749	0.0164874
647.828	0.0165668
647.906	0.0164760
647.984	0.0164259
648.062	0.0164960
648.140	0.0164331
648.218	0.0163696
648.296	0.0165905
648.374	0.0163854
648.453	0.0164449
648.531	0.0165198
648.609	0.0164507
648.687	0.0163905
648.765	0.0165984
648.843	0.0165877
648.921	0.0164696
648.999	0.0164752
649.078	0.0164344
649.156	0.0164050
649.234	0.0164172
649.312	0.0165056
649.390	0.0164424
649.468	0.0165797
649.546	0.0164239
649.624	0.0164787
649.703	0.0165601
649.781	0.0163858
649.859	0.0164370
649.937	0.0165339
650.015	0.0165228
650.093	0.0163962
650.171	0.0164841
650.249	0.0165449
650.328	0.0164496
650.406	0.0164053
650.484	0.0165163
650.562	0.0164568
650.640	0.0164494
650.718	0.0164051
650.796	0.0163410
650.874	0.0165458
650.953	0.0165279
651.031	0.0164681
651.109	0.0164533
651.187	0.0164330
651.265	0.0165268
651.343	0.0165008
651.421	0.0164398
651.499	0.0165279
651.578	0.0165504
651.656	0.0165057
651.734	0.0163284
651.812	0.0163469
651.890	0.0164731
651.968	0.0163491
652.046	0.0163914
652.124	0.0165246
652.203	0.0164067
652.281	0.0164735
652.359	0.0165058
652.437	0.0164172
652.515	0.0163849
652.593	0.0165051
652.671	0.0164548
652.749	0.0166350
652.828	0.0163886
652.906	0.0164120
652.984	0.0164857
653.062	0.0164973
653.140	0.0165340
653.218	0.0164672
653.296	0.0166309
653.374	0.0162372
653.453	0.0164575
653.531	0.0163792
653.609	0.0164458
653.687	0.0164250
653.765	0.0163212
653.843	0.0165086
653.921	0.0163567
653.999	0.0163803
654.078	0.0164773
654.156	0.0163374
654.234	0.0164897
654.312	0.0164622
654.390	0.0164364
654.468	0.0162985
654.546	0.0165508
654.624	0.0163834
654.703	0.0165141
654.781	0.0164330
654.859	0.0164239
654.937	0.0164271
655.015	0.0164407
655.093	0.0164130
655.171	0.0165071
655.249	0.0163843
655.328	0.0162884
655.406	0.0166676
655.484	0.0164498
655.562	0.0163942
655.640	0.0163794
655.718	0.0163377
655.796	0.0163776
655.874	0.0164812
655.953	0.0163936
656.031	0.0163247
656.109	0.0164881
656.187	0.0164177
656.265	0.0163921
656.343	0.0164158
656.421	0.0164266
656.499	0.0163995
656.578	0.0163097
656.656	0.0163941
656.734	0.0164533
656.812	0.0164113
656.890	0.0163262
656.968	0.0165929
657.046	0.0164112
657.124	0.0163231
657.203	0.0163313
657.281	0.0165337
657.359	0.0163988
657.437	0.0164378
657.515	0.0164352
657.593	0.0164754
657.671	0.0163818
657.749	0.0165780
657.828	0.0163374
657.906	0.0163970
657.984	0.0165352
658.062	0.0163208
658.140	0.0164908
658.218	0.0163013
658.296	0.0163429
658.374	0.0163757
658.453	0.0163493
658.531	0.0164578
658.609	0.0164820
658.687	0.0164625
658.765	0.0163136
658.843	0.0163808
658.921	0.0164091
658.999	0.0163541
659.078	0.0162843
659.156	0.0163351
659.234	0.0164152
659.312	0.0164302
659.390	0.0164515
659.468	0.0163717
659.546	0.0165025
659.624	0.0163769
659.703	0.0165432
659.781	0.0164616
659.859	0.0164343
659.937	0.0163409
660.015	0.0162714
660.093	0.0163947
660.171	0.0164168
660.249	0.0164117
660.328	0.0165537
660.406	0.0164613
660.484	0.0163920
660.562	0.0163749
660.640	0.0163634
660.718	0.0164005
660.796	0.0163385
660.874	0.0163445
660.953	0.0164890
661.031	0.0163833
661.109	0.0164730
661.187	0.0163728
661.265	0.0165118
661.343	0.0164695
661.421	0.0164707
661.499	0.0165482
661.578	0.0164652
661.656	0.0164003
661.734	0.0164529
661.812	0.0163749
661.890	0.0164954
661.968	0.0164751
662.046	0.0163537
662.124	0.0164357
662.203	0.0165565
662.281	0.0163970
662.359	0.0163057
662.437	0.0164866
662.515	0.0163376
662.593	0.0164051
662.671	0.0163747
662.749	0.0164426
662.828	0.0162859
662.906	0.0163110
662.984	0.0165827
663.062	0.0164973
663.140	0.0165168
663.218	0.0163309
663.296	0.0163960
663.374	0.0165102
663.453	0.0163177
663.531	0.0163673
663.609	0.0164559
663.687	0.0162962
663.765	0.0162458
663.843	0.0164402
663.921	0.0163958
663.999	0.0164507
664.078	0.0163436
664.156	0.0163858
664.234	0.0163768
664.312	0.0163409
664.390	0.0163881
664.468	0.0162537
664.546	0.0164448
664.624	0.0165253
664.703	0.0162836
664.781	0.0163790
664.859	0.0163526
664.937	0.0164584
665.015	0.0163152
665.093	0.0164206
665.171	0.0164768
665.249	0.0163554
665.328	0.0163414
665.406	0.0164886
665.484	0.0164326
665.562	0.0164346
665.640	0.0162861
665.718	0.0163911
665.796	0.0164146
665.874	0.0163934
665.953	0.0163906
666.031	0.0163433
666.109	0.0164615
666.187	0.0164098
666.265	0.0163749
666.343	0.0164751
666.421	0.0164176
666.499	0.0163829
666.578	0.0164639
666.656	0.0164340
666.734	0.0164956
666.812	0.0162873
666.890	0.0164557
666.968	0.0165492
667.046	0.0165025
667.124	0.0164359
667.203	0.0164569
667.281	0.0164267
667.359	0.0164434
667.437	0.0165020
667.515	0.0164754
667.593	0.0165298
667.671	0.0164032
667.749	0.0164381
667.828	0.0165457
667.906	0.0164902
667.984	0.0165438
668.062	0.0165034
668.140	0.0164349
668.218	0.0164041
668.296	0.0163938
668.374	0.0164654
668.453	0.0164086
668.531	0.0165152
668.609	0.0165072
668.687	0.0164301
668.765	0.0164178
668.843	0.0164601
668.921	0.0165901
668.999	0.0164555
669.078	0.0162662
669.156	0.0164544
669.234	0.0164285
669.312	0.0164231
669.390	0.0163930
669.468	0.0164047
669.546	0.0164388
669.624	0.0163943
669.703	0.0164568
669.781	0.0165363
669.859	0.0163850
669.937	0.0163558
670.015	0.0164091
670.093	0.0164175
670.171	0.0165018
670.249	0.0163885
670.328	0.0164533
670.406	0.0164339
670.484	0.0164225
670.562	0.0163733
670.640	0.0163982
670.718	0.0164201
670.796	0.0164252
670.874	0.0163550
670.953	0.0165847
671.031	0.0165748
671.109	0.0163303
671.187	0.0164688
671.265	0.0164507
671.343	0.0164472
671.421	0.0164314
671.499	0.0163939
671.578	0.0163700
671.656	0.0164889
671.734	0.0164072
671.812	0.0164476
671.890	0.0165440
671.968	0.0163737
672.046	0.0163763
672.124	0.0163425
672.203	0.0164780
672.281	0.0163818
672.359	0.0165047
672.437	0.0164880
672.515	0.0164326
672.593	0.0164330
672.671	0.0163116
672.749	0.0164990
672.828	0.0164227
672.906	0.0163313
672.984	0.0164577
673.062	0.0164453
673.140	0.0164274
673.218	0.0163092
673.296	0.0164426
673.374	0.0164782
673.453	0.0164474
673.531	0.0165874
673.609	0.0163467
673.687	0.0163375
673.765	0.0167377
673.843	0.0165190
673.921	0.0164068
673.999	0.0164686
674.078	0.0164609
674.156	0.0162888
674.234	0.0163934
674.312	0.0166196
674.390	0.0163725
674.468	0.0163834
674.546	0.0164580
674.624	0.0165578
674.703	0.0165009
674.781	0.0163752
674.859	0.0164214
674.937	0.0164719
675.015	0.0164104
675.093	0.0163748
675.171	0.0165559
675.249	0.0164996
675.328	0.0164999
675.406	0.0165003
675.484	0.0164799
675.562	0.0165684
675.640	0.0163589
675.718	0.0163539
675.796	0.0162566
675.874	0.0165372
675.953	0.0163495
676.031	0.0164393
676.109	0.0164065
676.187	0.0163031
676.265	0.0164663
676.343	0.0164053
676.421	0.0164253
676.499	0.0163229
676.578	0.0164249
676.656	0.0164994
676.734	0.0164883
676.812	0.0162730
676.890	0.0161931
676.968	0.0163677
677.046	0.0164636
677.124	0.0165161
677.203	0.0163783
677.281	0.0162958
677.359	0.0163331
677.437	0.0165060
677.515	0.0163758
677.593	0.0162758
677.671	0.0163202
677.749	0.0165347
677.828	0.0163305
677.906	0.0163757
677.984	0.0164407
678.062	0.0164555
678.140	0.0164537
678.218	0.0163681
678.296	0.0163979
678.374	0.0164671
678.453	0.0163597
678.531	0.0164419
678.609	0.0164773
678.687	0.0163770
678.765	0.0162735
678.843	0.0163754
678.921	0.0165723
678.999	0.0163692
679.078	0.0163866
679.156	0.0164830
679.234	0.0163745
679.312	0.0164776
679.390	0.0164067
679.468	0.0163781
679.546	0.0163049
679.624	0.0165807
679.703	0.0164055
679.781	0.0164317
679.859	0.0164478
679.937	0.0163728
680.015	0.0164799
680.093	0.0164604
680.171	0.0164607
680.249	0.0164372
680.328	0.0164389
680.406	0.0165141
680.484	0.0165636
680.562	0.0163589
680.640	0.0164397
680.718	0.0163753
680.796	0.0164851
680.874	0.0163966
680.953	0.0164184
681.031	0.0165350
681.109	0.0165893
681.187	0.0163493
681.265	0.0165439
681.343	0.0164825
681.421	0.0164576
681.499	0.0165269
681.578	0.0165048
681.656	0.0163287
681.734	0.0164027
681.812	0.0163762
681.890	0.0165252
681.968	0.0165359
682.046	0.0164005
682.124	0.0162743
682.203	0.0165037
682.281	0.0163947
682.359	0.0164528
682.437	0.0163385
682.515	0.0162359
682.593	0.0164980
682.671	0.0165270
682.749	0.0163828
682.828	0.0163892
682.906	0.0164263
682.984	0.0163932
683.062	0.0164030
683.140	0.0163745
683.218	0.0163049
683.296	0.0164526
683.374	0.0164465
683.453	0.0163840
683.531	0.0164022
683.609	0.0163762
683.687	0.0164827
683.765	0.0164914
683.843	0.0163849
683.921	0.0163976
683.999	0.0164628
684.078	0.0166091
684.156	0.0163580
684.234	0.0165478
684.312	0.0163876
684.390	0.0164696
684.468	0.0164904
684.546	0.0165402
684.624	0.0164458
684.703	0.0163998
684.781	0.0164835
684.859	0.0163743
684.937	0.0163920
685.015	0.0164059
685.093	0.0163409
685.171	0.0164460
685.249	0.0163560
685.328	0.0164111
685.406	0.0163586
685.484	0.0163385
685.562	0.0165011
685.640	0.0164944
685.718	0.0163608
685.796	0.0163609
685.874	0.0165726
685.953	0.0164948
686.031	0.0165144
686.109	0.0165125
686.187	0.0164261
686.265	0.0164301
686.343	0.0163831
686.421	0.0164372
686.499	0.0164230
686.578	0.0164092
686.656	0.0164091
686.734	0.0164499
686.812	0.0164974
686.890	0.0164092
686.968	0.0164064
687.046	0.0163405
687.124	0.0163767
687.203	0.0164218
687.281	0.0164342
687.359	0.0163486
687.437	0.0164834
687.515	0.0164944
687.593	0.0164640
687.671	0.0164581
687.749	0.0164370
687.828	0.0163895
687.906	0.0164450
687.984	0.0164503
688.062	0.0164257
688.140	0.0164304
688.218	0.0163601
688.296	0.0164332
688.374	0.0164401
688.453	0.0163298
688.531	0.0164978
688.609	0.0164968
688.687	0.0164885
688.765	0.0165173
688.843	0.0163448
688.921	0.0164902
688.999	0.0164774
689.078	0.0164997
689.156	0.0164588
689.234	0.0164806
689.312	0.0163284
689.390	0.0165999
689.468	0.0165541
689.546	0.0163848
689.624	0.0163881
689.703	0.0164088
689.781	0.0163689
689.859	0.0165451
689.937	0.0166464
690.015	0.0163864
690.093	0.0164066
690.171	0.0163670
690.249	0.0164494
690.328	0.0164711
690.406	0.0162891
690.484	0.0163627
690.562	0.0165732
690.640	0.0164583
690.718	0.0164011
690.796	0.0163799
690.874	0.0163481
690.953	0.0164199
691.031	0.0163235
691.109	0.0164178
691.187	0.0163725
691.265	0.0163460
691.343	0.0164740
691.421	0.0164056
691.499	0.0165103
691.578	0.0164002
691.656	0.0162966
691.734	0.0162605
691.812	0.0164050
691.890	0.0164755
691.968	0.0165043
692.046	0.0163585
692.124	0.0163965
692.203	0.0165235
692.281	0.0162447
692.359	0.0162424
692.437	0.0164110
692.515	0.0165258
692.593	0.0164948
692.671	0.0163074
692.749	0.0164644
692.828	0.0164298
692.906	0.0163329
692.984	0.0164184
693.062	0.0165407
693.140	0.0163514
693.218	0.0163665
693.296	0.0163203
693.374	0.0163789
693.453	0.0164166
693.531	0.0166168
693.609	0.0164748
693.687	0.0163910
693.765	0.0164716
693.843	0.0165009
693.921	0.0165347
693.999	0.0164635
694.078	0.0163159
694.156	0.0164156
694.234	0.0164473
694.312	0.0163493
694.390	0.0163091
694.468	0.0164931
694.546	0.0165374
694.624	0.0164481
694.703	0.0164752
694.781	0.0165021
694.859	0.0164829
694.937	0.0165535
695.015	0.0164101
695.093	0.0164614
695.171	0.0164044
695.249	0.0163769
695.328	0.0164922
695.406	0.0164585
695.484	0.0162305
695.562	0.0163840
695.640	0.0163595
695.718	0.0163764
695.796	0.0164272
695.874	0.0162666
695.953	0.0164852
696.031	0.0164195
696.109	0.0162482
696.187	0.0164414
696.265	0.0164149
696.343	0.0164920
696.421	0.0164458
696.499	0.0163380
696.578	0.0164715
696.656	0.0163777
696.734	0.0164073
696.812	0.0164283
696.890	0.0165032
696.968	0.0162858
697.046	0.0163136
697.124	0.0163620
697.203	0.0164168
697.281	0.0164304
697.359	0.0164024
697.437	0.0163083
697.515	0.0162214
697.593	0.0165191
697.671	0.0165412
697.749	0.0163809
697.828	0.0164305
697.906	0.0166022
697.984	0.0164380
698.062	0.0164075
698.140	0.0164444
698.218	0.0164559
698.296	0.0163438
698.374	0.0163593
698.453	0.0163581
698.531	0.0163852
698.609	0.0163834
698.687	0.0164644
698.765	0.0163418
698.843	0.0163943
698.921	0.0163941
698.999	0.0163344
699.078	0.0164296
699.156	0.0165121
699.234	0.0164949
699.312	0.0164375
699.390	0.0164285
699.468	0.0164980
699.546	0.0163818
699.624	0.0162215
699.703	0.0163387
699.781	0.0164050
699.859	0.0164657
699.937	0.0164864
700.015	0.0162668
700.093	0.0165530
700.171	0.0165304
700.249	0.0162849
700.328	0.0163603
700.406	0.0164433
700.484	0.0164164
700.562	0.0163875
700.640	0.0163887
700.718	0.0163751
700.796	0.0164070
700.874	0.0163997
700.953	0.0163708
701.031	0.0164204
701.109	0.0164423
701.187	0.0165421
701.265	0.0165790
701.343	0.0164117
701.421	0.0164705
701.499	0.0164094
701.578	0.0164312
701.656	0.0165225
701.734	0.0163470
701.812	0.0164732
701.890	0.0165282
701.968	0.0163967
702.046	0.0163011
702.124	0.0162939
702.203	0.0163786
702.281	0.0163066
702.359	0.0164274
702.437	0.0164081
702.515	0.0164182
702.593	0.0162809
702.671	0.0164041
702.749	0.0162879
702.828	0.0163522
702.906	0.0164406
702.984	0.0163734
703.062	0.0163380
703.140	0.0162513
703.218	0.0163515
703.296	0.0163356
703.374	0.0163407
703.453	0.0163077
703.531	0.0163905
703.609	0.0163242
703.687	0.0164576
703.765	0.0164349
703.843	0.0163976
703.921	0.0164678
703.999	0.0164183
704.078	0.0163712
704.156	0.0163815
704.234	0.0164100
704.312	0.0165600
704.390	0.0164256
704.468	0.0163951
704.546	0.0164227
704.624	0.0164504
704.703	0.0165930
704.781	0.0164432
704.859	0.0162955
704.937	0.0163641
705.015	0.0164764
705.093	0.0164687
705.171	0.0164011
705.249	0.0163569
705.328	0.0164398
705.406	0.0164336
705.484	0.0164796
705.562	0.0165795
705.640	0.0165175
705.718	0.0164895
705.796	0.0163792
705.874	0.0164522
705.953	0.0164979
706.031	0.0165244
706.109	0.0163940
706.187	0.0164888
706.265	0.0164270
706.343	0.0164470
706.421	0.0163593
706.499	0.0163824
706.578	0.0164626
706.656	0.0163882
706.734	0.0163918
706.812	0.0165791
706.890	0.0163026
706.968	0.0163544
707.046	0.0164111
707.124	0.0163784
707.203	0.0165029
707.281	0.0164558
707.359	0.0163728
707.437	0.0163951
707.515	0.0163207
707.593	0.0164030
707.671	0.0164349
707.749	0.0165750
707.828	0.0165360
707.906	0.0164240
707.984	0.0163615
708.062	0.0164988
708.140	0.0164516
708.218	0.0163420
708.296	0.0165279
708.374	0.0163939
708.453	0.0163110
708.531	0.0165025
708.609	0.0165099
708.687	0.0163032
708.765	0.0163383
708.843	0.0165632
708.921	0.0164455
708.999	0.0163135
709.078	0.0164779
709.156	0.0163924
709.234	0.0164464
709.312	0.0163489
709.390	0.0164542
709.468	0.0164907
709.546	0.0165763
709.624	0.0164796
709.703	0.0163360
709.781	0.0166010
709.859	0.0165400
709.937	0.0164857
710.015	0.0162967
710.093	0.0164602
710.171	0.0164360
710.249	0.0165629
710.328	0.0164565
710.406	0.0164210
710.484	0.0164169
710.562	0.0164091
710.640	0.0163179
710.718	0.0162844
710.796	0.0163626
710.874	0.0165224
710.953	0.0163645
711.031	0.0163563
711.109	0.0164040
711.187	0.0163083
711.265	0.0163095
711.343	0.0163490
711.421	0.0164993
711.499	0.0164828
711.578	0.0163360
711.656	0.0164090
711.734	0.0165253
711.812	0.0165298
711.890	0.0164439
711.968	0.0164931
712.046	0.0164939
712.124	0.0164207
712.203	0.0163861
712.281	0.0166161
712.359	0.0165175
712.437	0.0164831
712.515	0.0165054
712.593	0.0165852
712.671	0.0164816
712.749	0.0163946
712.828	0.0164754
712.906	0.0164577
712.984	0.0165266
713.062	0.0164838
713.140	0.0163396
713.218	0.0162865
713.296	0.0164976
713.374	0.0163232
713.453	0.0163528
713.531	0.0163489
713.609	0.0162807
713.687	0.0163321
713.765	0.0163739
713.843	0.0162305
713.921	0.0162269
713.999	0.0162350
714.078	0.0163081
714.156	0.0164626
714.234	0.0162150
714.312	0.0163880
714.390	0.0164838
714.468	0.0165140
714.546	0.0163956
714.624	0.0164198
714.703	0.0163643
714.781	0.0163209
714.859	0.0163923
714.937	0.0164864
715.015	0.0166945
715.093	0.0164215
715.171	0.0165303
715.249	0.0166556
715.328	0.0164277
715.406	0.0164306
715.484	0.0165374
715.562	0.0164455
715.640	0.0165321
715.718	0.0166589
715.796	0.0163876
715.874	0.0164215
715.953	0.0163689
716.031	0.0163902
716.109	0.0164064
716.187	0.0164191
716.265	0.0165117
716.343	0.0164253
716.421	0.0164488
716.499	0.0164219
716.578	0.0162624
716.656	0.0164259
716.734	0.0164379
716.812	0.0163335
716.890	0.0163737
716.968	0.0164312
717.046	0.0160998
717.124	0.0162063
717.203	0.0160542
717.281	0.0161253
717.359	0.0162571
717.437	0.0161356
717.515	0.0163254
717.593	0.0163060
717.671	0.0161981
717.749	0.0161543
717.828	0.0162363
717.906	0.0163564
717.984	0.0162056
718.062	0.0163506
718.140	0.0163401
718.218	0.0163097
718.296	0.0162828
718.374	0.0164525
718.453	0.0163528
718.531	0.0162258
718.609	0.0164255
718.687	0.0165062
718.765	0.0165578
718.843	0.0164901
718.921	0.0165736
718.999	0.0166299
719.078	0.0166090
719.156	0.0166142
719.234	0.0168327
719.312	0.0166986
719.390	0.0168136
719.468	0.0167767
719.546	0.0168092
719.624	0.0168210
719.703	0.0168047
719.781	0.0168033
719.859	0.0169173
719.937	0.0167037
720.015	0.0167873
720.093	0.0166061
720.171	0.0164070
720.249	0.0163445
720.328	0.0164119
720.406	0.0160548
720.484	0.0160154
720.562	0.0161417
720.640	0.0160377
720.718	0.0157864
720.796	0.0157541
720.874	0.0157472
720.953	0.0157510
721.031	0.0156946
721.109	0.0156586
721.187	0.0158501
721.265	0.0158736
721.343	0.0158207
721.421	0.0158941
721.499	0.0160518
721.578	0.0162241
721.656	0.0163036
721.734	0.0163994
721.812	0.0164434
721.890	0.0166111
721.968	0.0167715
722.046	0.0167081
722.124	0.0167434
722.203	0.0170306
722.281	0.0170261
722.359	0.0170083
722.437	0.0170035
722.515	0.0170754
722.593	0.0169727
722.671	0.0170526
722.749	0.0169078
722.828	0.0168802
722.906	0.0169609
722.984	0.0168038
723.062	0.0167207
723.140	0.0166272
723.218	0.0165813
723.296	0.0165541
723.374	0.0165033
723.453	0.0163524
723.531	0.0162406
723.609	0.0162916
723.687	0.0161904
723.765	0.0162550
723.843	0.0160789
723.921	0.0160297
723.999	0.0161057
724.078	0.0161475
724.156	0.0160548
724.234	0.0161559
724.312	0.0162068
724.390	0.0160883
724.468	0.0159398
724.546	0.0161046
724.624	0.0161659
724.703	0.0159554
724.781	0.0160662
724.859	0.0161316
724.937	0.0160095
725.015	0.0162108
725.093	0.0161710
725.171	0.0162208
725.249	0.0161058
725.328	0.0162326
725.406	0.0162549
725.484	0.0162218
725.562	0.0162272
725.640	0.0164399
725.718	0.0164405
725.796	0.0166165
725.874	0.0165421
725.953	0.0166055
726.031	0.0167297
726.109	0.0169691
726.187	0.0168534
726.265	0.0169538
726.343	0.0169834
726.421	0.0172363
726.499	0.0171859
726.578	0.0170515
726.656	0.0171322
726.734	0.0170646
726.812	0.0170143
726.890	0.0169501
726.968	0.0168900
727.046	0.0169146
727.124	0.0167834
727.203	0.0167657
727.281	0.0165777
727.359	0.0165214
727.437	0.0163414
727.515	0.0162089
727.593	0.0162556
727.671	0.0161008
727.749	0.0160929
727.828	0.0160788
727.906	0.0160200
727.984	0.0158595
728.062	0.0160074
728.140	0.0159307
728.218	0.0158586
728.296	0.0159869
728.374	0.0160699
728.453	0.0159382
728.531	0.0161588
728.609	0.0162260
728.687	0.0162536
728.765	0.0164287
728.843	0.0164384
728.921	0.0164553
728.999	0.0165211
729.078	0.0164848
729.156	0.0166837
729.234	0.0166718
729.312	0.0165173
729.390	0.0165349
729.468	0.0165934
729.546	0.0166029
729.624	0.0165819
729.703	0.0166203
729.781	0.0166068
729.859	0.0165475
729.937	0.0165480
730.015	0.0165290
730.093	0.0165553
730.171	0.0165304
730.249	0.0163212
730.328	0.0163757
730.406	0.0164914
730.484	0.0165070
730.562	0.0164848
730.640	0.0163304
730.718	0.0164562
730.796	0.0165160
730.874	0.0164037
730.953	0.0165651
731.031	0.0164926
731.109	0.0166193
731.187	0.0165457
731.265	0.0164715
731.343	0.0165247
731.421	0.0164830
731.499	0.0164692
731.578	0.0164839
731.656	0.0164787
731.734	0.0165411
731.812	0.0165563
731.890	0.0162985
731.968	0.0163959
732.046	0.0163792
732.124	0.0163656
732.203	0.0163795
732.281	0.0163347
732.359	0.0162520
732.437	0.0162336
732.515	0.0163577
732.593	0.0163853
732.671	0.0164215
732.749	0.0164218
732.828	0.0163275
732.906	0.0164160
732.984	0.0165015
733.062	0.0165429
733.140	0.0165015
733.218	0.0165324
733.296	0.0164867
733.374	0.0165349
733.453	0.0165562
733.531	0.0166171
733.609	0.0164973
733.687	0.0165997
733.765	0.0164432
733.843	0.0165382
733.921	0.0165736
733.999	0.0163976
734.078	0.0164710
734.156	0.0164738
734.234	0.0163067
734.312	0.0163505
734.390	0.0162022
734.468	0.0160750
734.546	0.0160981
734.624	0.0161121
734.703	0.0160686
734.781	0.0160345
734.859	0.0159717
734.937	0.0160590
735.015	0.0160820
735.093	0.0160269
735.171	0.0158955
735.249	0.0159664
735.328	0.0159377
735.406	0.0161919
735.484	0.0160642
735.562	0.0159936
735.640	0.0162510
735.718	0.0162724
735.796	0.0162691
735.874	0.0165782
735.953	0.0166431
736.031	0.0164926
736.109	0.0167420
736.187	0.0167721
736.265	0.0168584
736.343	0.0169562
736.421	0.0169470
736.499	0.0169520
736.578	0.0170245
736.656	0.0169819
736.734	0.0169928
736.812	0.0169580
736.890	0.0168623
736.968	0.0168706
737.046	0.0167599
737.124	0.0167741
737.203	0.0165331
737.281	0.0165037
737.359	0.0163805
737.437	0.0163490
737.515	0.0163550
737.593	0.0162227
737.671	0.0160845
737.749	0.0160254
737.828	0.0161079
737.906	0.0160542
737.984	0.0159990
738.062	0.0160203
738.140	0.0160503
738.218	0.0160522
738.296	0.0159938
738.374	0.0160341
738.453	0.0161219
738.531	0.0161217
738.609	0.0162460
738.687	0.0162590
738.765	0.0163303
738.843	0.0162413
738.921	0.0165231
738.999	0.0164827
739.078	0.0164308
739.156	0.0164090
739.234	0.0165279
739.312	0.0165372
739.390	0.0164581
739.468	0.0165093
739.546	0.0163260
739.624	0.0166079
739.703	0.0164608
739.781	0.0164236
739.859	0.0164972
739.937	0.0165079
740.015	0.0164817
740.093	0.0163582
740.171	0.0164771
740.249	0.0165653
740.328	0.0163080
740.406	0.0164011
740.484	0.0163831
740.562	0.0164402
740.640	0.0165400
740.718	0.0164979
740.796	0.0166228
740.874	0.0167579
740.953	0.0165079
741.031	0.0166164
741.109	0.0166866
741.187	0.0167769
741.265	0.0168084
741.343	0.0167889
741.421	0.0167036
741.499	0.0167231
741.578	0.0167467
741.656	0.0167129
741.734	0.0167827
741.812	0.0165858
741.890	0.0165876
741.968	0.0165424
742.046	0.0164899
742.124	0.0165475
742.203	0.0165037
742.281	0.0164913
742.359	0.0164735
742.437	0.0163068
742.515	0.0163465
742.593	0.0161962
742.671	0.0163330
742.749	0.0165327
742.828	0.0162622
742.906	0.0162768
742.984	0.0162708
743.062	0.0164174
743.140	0.0165140
743.218	0.0164532
743.296	0.0164658
743.374	0.0164435
743.453	0.0163577
743.531	0.0165482
743.609	0.0164611
743.687	0.0165409
743.765	0.0164640
743.843	0.0165385
743.921	0.0164838
743.999	0.0164331
744.078	0.0164453
744.156	0.0163770
744.234	0.0165191
744.312	0.0163088
744.390	0.0164502
744.468	0.0164534
744.546	0.0164065
744.624	0.0165695
744.703	0.0165470
744.781	0.0162788
744.859	0.0165155
744.937	0.0165089
745.015	0.0165010
745.093	0.0163804
745.171	0.0165438
745.249	0.0166304
745.328	0.0166086
745.406	0.0164964
745.484	0.0165216
745.562	0.0165681
745.640	0.0166166
745.718	0.0165382
745.796	0.0167323
745.874	0.0165499
745.953	0.0165966
746.031	0.0166531
746.109	0.0164994
746.187	0.0164493
746.265	0.0164888
746.343	0.0165263
746.421	0.0163973
746.499	0.0164840
746.578	0.0164281
746.656	0.0164946
746.734	0.0164339
746.812	0.0165048
746.890	0.0164998
746.968	0.0164751
747.046	0.0163869
747.124	0.0164150
747.203	0.0164423
747.281	0.0165633
747.359	0.0164509
747.437	0.0163490
747.515	0.0163152
747.593	0.0163213
747.671	0.0165095
747.749	0.0163383
747.828	0.0163236
747.906	0.0163837
747.984	0.0163342
748.062	0.0163232
748.140	0.0162968
748.218	0.0164428
748.296	0.0163504
748.374	0.0161806
748.453	0.0163801
748.531	0.0163848
748.609	0.0163821
748.687	0.0164047
748.765	0.0163066
748.843	0.0164353
748.921	0.0163326
748.999	0.0165951
749.078	0.0164974
749.156	0.0165125
749.234	0.0164845
749.312	0.0164342
749.390	0.0165446
749.468	0.0165361
749.546	0.0165034
749.624	0.0164552
749.703	0.0165118
749.781	0.0166238
749.859	0.0165108
749.937	0.0165049
750.015	0.0164577
750.093	0.0165136
750.171	0.0164166
750.249	0.0163998
750.328	0.0164021
750.406	0.0163890
750.484	0.0164120
750.562	0.0164265
750.640	0.0164960
750.718	0.0164610
750.796	0.0163763
750.874	0.0163968
750.953	0.0164764
751.031	0.0165366
751.109	0.0164360
751.187	0.0163734
751.265	0.0163178
751.343	0.0164127
751.421	0.0163902
751.499	0.0163290
751.578	0.0164140
751.656	0.0165394
751.734	0.0165234
751.812	0.0165190
751.890	0.0165060
751.968	0.0164679
752.046	0.0165002
752.124	0.0165695
752.203	0.0164801
752.281	0.0164978
752.359	0.0165295
752.437	0.0165024
752.515	0.0163914
752.593	0.0164011
752.671	0.0163299
752.749	0.0163645
752.828	0.0164690
752.906	0.0165170
752.984	0.0164316
753.062	0.0163514
753.140	0.0164688
753.218	0.0162879
753.296	0.0162684
753.374	0.0164576
753.453	0.0163657
753.531	0.0164468
753.609	0.0163874
753.687	0.0164261
753.765	0.0161539
753.843	0.0162835
753.921	0.0162492
753.999	0.0163368
754.078	0.0162718
754.156	0.0164303
754.234	0.0161939
754.312	0.0163023
754.390	0.0163188
754.468	0.0162753
754.546	0.0163097
754.624	0.0162643
754.703	0.0161402
754.781	0.0161383
754.859	0.0161800
754.937	0.0163095
755.015	0.0163486
755.093	0.0162360
755.171	0.0162280
755.249	0.0164719
755.328	0.0164671
755.406	0.0164478
755.484	0.0164886
755.562	0.0165504
755.640	0.0164651
755.718	0.0165931
755.796	0.0165351
755.874	0.0166628
755.953	0.0165514
756.031	0.0165567
756.109	0.0165539
756.187	0.0164783
756.265	0.0164623
756.343	0.0164861
756.421	0.0164501
756.499	0.0164756
756.578	0.0162945
756.656	0.0161598
756.734	0.0163571
756.812	0.0163632
756.890	0.0162777
756.968	0.0163593
757.046	0.0163491
757.124	0.0163882
757.203	0.0165215
757.281	0.0164439
757.359	0.0164355
757.437	0.0165452
757.515	0.0164636
757.593	0.0166179
757.671	0.0165427
757.749	0.0165660
757.828	0.0165909
757.906	0.0167106
757.984	0.0164555
758.062	0.0165309
758.140	0.0164262
758.218	0.0163818
758.296	0.0163226
758.374	0.0163180
758.453	0.0162307
758.531	0.0162185
758.609	0.0162301
758.687	0.0159770
758.765	0.0159012
758.843	0.0159793
758.921	0.0159679
758.999	0.0158466
759.078	0.0158263
759.156	0.0159709
759.234	0.0159687
759.312	0.0160927
759.390	0.0161974
759.468	0.0160959
759.546	0.0163986
759.624	0.0164678
759.703	0.0165561
759.781	0.0166824
759.859	0.0167756
759.937	0.0168701
760.015	0.0169288
760.093	0.0167750
760.171	0.0169885
760.249	0.0170606
760.328	0.0169461
760.406	0.0168262
760.484	0.0168894
760.562	0.0168024
760.640	0.0167609
760.718	0.0166326
760.796	0.0165197
760.874	0.0165021
760.953	0.0164053
761.031	0.0164826
761.109	0.0162080
761.187	0.0162543
761.265	0.0160236
761.343	0.0162175
761.421	0.0159859
761.499	0.0159189
761.578	0.0160932
761.656	0.0158922
761.734	0.0160971
761.812	0.0160211
761.890	0.0159846
761.968	0.0161584
762.046	0.0160605
762.124	0.0161414
762.203	0.0162512
762.281	0.0162922
762.359	0.0162477
762.437	0.0164038
762.515	0.0167519
762.593	0.0167057
762.671	0.0167076
762.749	0.0168295
762.828	0.0168954
762.906	0.0169143
762.984	0.0168287
763.062	0.0171049
763.140	0.0170068
763.218	0.0169205
763.296	0.0169084
763.374	0.0167929
763.453	0.0166628
763.531	0.0164375
763.609	0.0165408
763.687	0.0162804
763.765	0.0162054
763.843	0.0160141
763.921	0.0160291
763.999	0.0160695
764.078	0.0160262
764.156	0.0158736
764.234	0.0159506
764.312	0.0159778
764.390	0.0160813
764.468	0.0160754
764.546	0.0160493
764.624	0.0159330
764.703	0.0161610
764.781	0.0161353
764.859	0.0160533
764.937	0.0161773
765.015	0.0162821
765.093	0.0162302
765.171	0.0161518
765.249	0.0161851
765.328	0.0165112
765.406	0.0165736
765.484	0.0167157
765.562	0.0165826
765.640	0.0166722
765.718	0.0167408
765.796	0.0168231
765.874	0.0168168
765.953	0.0168430
766.031	0.0169549
766.109	0.0169626
766.187	0.0167187
766.265	0.0166779
766.343	0.0166307
766.421	0.0166842
766.499	0.0166946
766.578	0.0166082
766.656	0.0165400
766.734	0.0163926
766.812	0.0164877
766.890	0.0164014
766.968	0.0162617
767.046	0.0164073
767.124	0.0162352
767.203	0.0161883
767.281	0.0163268
767.359	0.0162079
767.437	0.0162482
767.515	0.0162543
767.593	0.0163361
767.671	0.0162744
767.749	0.0162753
767.828	0.0162318
767.906	0.0163158
767.984	0.0164333
768.062	0.0164800
768.140	0.0165090
768.218	0.0163432
768.296	0.0163792
768.374	0.0164364
768.453	0.0163942
768.531	0.0164033
768.609	0.0163800
768.687	0.0163669
768.765	0.0162854
768.843	0.0161924
768.921	0.0159936
768.999	0.0159908
769.078	0.0159123
769.156	0.0158631
769.234	0.0156920
769.312	0.0156980
769.390	0.0158214
769.468	0.0156417
769.546	0.0158652
769.624	0.0158684
769.703	0.0159446
769.781	0.0163405
769.859	0.0164688
769.937	0.0167011
770.015	0.0170467
770.093	0.0171806
770.171	0.0174380
770.249	0.0176456
770.328	0.0178888
770.406	0.0179561
770.484	0.0178847
770.562	0.0180758
770.640	0.0178696
770.718	0.0177157
770.796	0.0176598
770.874	0.0174610
770.953	0.0174232
771.031	0.0169680
771.109	0.0167583
771.187	0.0166016
771.265	0.0163923
771.343	0.0161182
771.421	0.0158466
771.499	0.0158228
771.578	0.0157175
771.656	0.0155075
771.734	0.0153326
771.812	0.0154150
771.890	0.0153896
771.968	0.0153930
772.046	0.0153311
772.124	0.0155614
772.203	0.0157246
772.281	0.0156319
772.359	0.0157871
772.437	0.0159464
772.515	0.0160712
772.593	0.0160204
772.671	0.0161495
772.749	0.0160686
772.828	0.0161147
772.906	0.0162780
772.984	0.0163982
773.062	0.0163881
773.140	0.0164662
773.218	0.0165390
773.296	0.0165003
773.374	0.0165588
773.453	0.0168089
773.531	0.0168449
773.609	0.0169218
773.687	0.0169907
773.765	0.0170351
773.843	0.0171159
773.921	0.0171709
773.999	0.0172066
774.078	0.0173279
774.156	0.0174059
774.234	0.0174712
774.312	0.0175127
774.390	0.0173484
774.468	0.0173615
774.546	0.0172781
774.624	0.0171854
774.703	0.0170916
774.781	0.0171143
774.859	0.0168095
774.937	0.0166903
775.015	0.0165243
775.093	0.0163541
775.171	0.0161983
775.249	0.0158849
775.328	0.0157843
775.406	0.0156644
775.484	0.0154205
775.562	0.0154808
775.640	0.0153828
775.718	0.0153268
775.796	0.0152600
775.874	0.0152927
775.953	0.0154195
776.031	0.0153848
776.109	0.0154740
776.187	0.0155495
776.265	0.0155670
776.343	0.0155840
776.421	0.0156531
776.499	0.0157625
776.578	0.0159178
776.656	0.0159425
776.734	0.0161333
776.812	0.0161381
776.890	0.0163885
776.968	0.0165212
777.046	0.0164901
777.124	0.0166537
777.203	0.0168507
777.281	0.0169798
777.359	0.0171986
777.437	0.0172527
777.515	0.0175764
777.593	0.0173951
777.671	0.0177288
777.749	0.0178291
777.828	0.0178709
777.906	0.0180566
777.984	0.0180245
778.062	0.0179525
778.140	0.0179561
778.218	0.0178370
778.296	0.0176417
778.374	0.0176501
778.453	0.0174050
778.531	0.0171987
778.609	0.0169627
778.687	0.0167198
778.765	0.0164665
778.843	0.0161878
778.921	0.0159552
778.999	0.0157932
779.078	0.0157152
779.156	0.0153362
779.234	0.0152719
779.312	0.0151246
779.390	0.0150588
779.468	0.0151580
779.546	0.0150643
779.624	0.0149418
779.703	0.0148739
779.781	0.0148988
779.859	0.0148994
779.937	0.0149934
780.015	0.0151118
780.093	0.0152767
780.171	0.0152528
780.249	0.0153051
780.328	0.0155164
780.406	0.0157415
780.484	0.0158102
780.562	0.0158486
780.640	0.0161423
780.718	0.0163644
780.796	0.0167609
780.874	0.0169246
780.953	0.0170735
781.031	0.0173193
781.109	0.0174931
781.187	0.0178275
781.265	0.0177760
781.343	0.0179192
781.421	0.0181035
781.499	0.0180834
781.578	0.0180814
781.656	0.0181192
781.734	0.0178088
781.812	0.0180197
781.890	0.0179051
781.968	0.0178120
782.046	0.0175883
782.124	0.0174220
782.203	0.0174010
782.281	0.0173249
782.359	0.0169437
782.437	0.0168248
782.515	0.0168421
782.593	0.0165595
782.671	0.0163795
782.749	0.0163805
782.828	0.0161645
782.906	0.0159995
782.984	0.0156741
783.062	0.0155013
783.140	0.0153830
783.218	0.0153561
783.296	0.0153114
783.374	0.0150374
783.453	0.0149621
783.531	0.0150378
783.609	0.0150512
783.687	0.0149646
783.765	0.0149754
783.843	0.0150917
783.921	0.0151665
783.999	0.0154177
784.078	0.0153534
784.156	0.0154658
784.234	0.0157240
784.312	0.0158754
784.390	0.0160827
784.468	0.0162717
784.546	0.0163309
784.624	0.0166671
784.703	0.0168642
784.781	0.0169599
784.859	0.0170768
784.937	0.0171246
785.015	0.0172374
785.093	0.0172299
785.171	0.0172092
785.249	0.0172899
785.328	0.0174123
785.406	0.0174324
785.484	0.0172385
785.562	0.0173123
785.640	0.0171941
785.718	0.0171267
785.796	0.0169785
785.874	0.0169588
785.953	0.0167635
786.031	0.0166798
786.109	0.0166847
786.187	0.0164719
786.265	0.0165011
786.343	0.0166381
786.421	0.0165557
786.499	0.0165899
786.578	0.0164926
786.656	0.0164486
786.734	0.0164108
786.812	0.0165581
786.890	0.0165797
786.968	0.0164959
787.046	0.0164507
787.124	0.0163658
787.203	0.0163251
787.281	0.0163010
787.359	0.0161864
787.437	0.0161497
787.515	0.0160828
787.593	0.0160870
787.671	0.0159023
787.749	0.0158929
787.828	0.0159399
787.906	0.0158253
787.984	0.0158131
788.062	0.0160412
788.140	0.0160803
788.218	0.0159383
788.296	0.0161530
788.374	0.0162465
788.453	0.0163411
788.531	0.0165788
788.609	0.0166833
788.687	0.0168883
788.765	0.0168550
788.843	0.0168837
788.921	0.0169743
788.999	0.0169908
789.078	0.0169593
789.156	0.0168969
789.234	0.0168314
789.312	0.0168887
789.390	0.0166437
789.468	0.0167455
789.546	0.0166523
789.624	0.0164995
789.703	0.0163340
789.781	0.0164098
789.859	0.0164377
789.937	0.0161942
790.015	0.0160784
790.093	0.0161830
790.171	0.0161299
790.249	0.0159516
790.328	0.0160378
790.406	0.0159786
790.484	0.0159795
790.562	0.0159693
790.640	0.0160042
790.718	0.0159241
790.796	0.0159745
790.874	0.0159255
790.953	0.0159948
791.031	0.0161687
791.109	0.0160709
791.187	0.0160368
791.265	0.0162227
791.343	0.0160482
791.421	0.0160836
791.499	0.0161453
791.578	0.0161317
791.656	0.0162768
791.734	0.0162287
791.812	0.0162890
791.890	0.0163871
791.968	0.0163905
792.046	0.0164429
792.124	0.0165308
792.203	0.0165735
792.281	0.0164790
792.359	0.0167134
792.437	0.0168414
792.515	0.0168330
792.593	0.0168846
792.671	0.0170076
792.749	0.0168851
792.828	0.0170589
792.906	0.0169944
792.984	0.0170612
793.062	0.0170432
793.140	0.0170409
793.218	0.0169324
793.296	0.0169283
793.374	0.0169173
793.453	0.0167076
793.531	0.0166701
793.609	0.0165469
793.687	0.0164037
793.765	0.0166485
793.843	0.0164775
793.921	0.0164328
793.999	0.0164358
794.078	0.0162327
794.156	0.0162904
794.234	0.0161593
794.312	0.0161027
794.390	0.0160945
794.468	0.0160575
794.546	0.0160478
794.624	0.0162067
794.703	0.0160948
794.781	0.0161291
794.859	0.0162727
794.937	0.0161909
795.015	0.0160813
795.093	0.0162178
795.171	0.0161838
795.249	0.0162563
795.328	0.0160014
795.406	0.0158914
795.484	0.0160143
795.562	0.0160620
795.640	0.0159521
795.718	0.0161493
795.796	0.0161647
795.874	0.0161462
795.953	0.0162404
796.031	0.0163387
796.109	0.0163535
796.187	0.0163863
796.265	0.0164558
796.343	0.0164181
796.421	0.0165037
796.499	0.0165033
796.578	0.0166055
796.656	0.0166680
796.734	0.0165397
796.812	0.0164828
796.890	0.0165266
796.968	0.0165605
797.046	0.0164032
797.124	0.0163837
797.203	0.0163449
797.281	0.0163802
797.359	0.0162846
797.437	0.0161284
797.515	0.0161920
797.593	0.0162587
797.671	0.0161558
797.749	0.0162132
797.828	0.0161245
797.906	0.0161659
797.984	0.0162474
798.062	0.0163113
798.140	0.0161774
798.218	0.0161250
798.296	0.0162759
798.374	0.0162266
798.453	0.0163166
798.531	0.0162475
798.609	0.0164044
798.687	0.0165051
798.765	0.0165892
798.843	0.0164216
798.921	0.0165221
798.999	0.0167841
799.078	0.0167191
799.156	0.0168079
799.234	0.0169010
799.312	0.0169166
799.390	0.0169905
799.468	0.0170112
799.546	0.0170517
799.624	0.0170992
799.703	0.0169279
799.781	0.0171178
799.859	0.0169509
799.937	0.0169761
800.015	0.0170477
800.093	0.0168792
800.171	0.0168732
800.249	0.0167796
800.328	0.0165907
800.406	0.0166838
800.484	0.0167404
800.562	0.0164959
800.640	0.0165917
800.718	0.0164878
800.796	0.0163088
800.874	0.0164487
800.953	0.0163224
801.031	0.0161023
801.109	0.0161444
801.187	0.0161058
801.265	0.0160012
801.343	0.0159718
801.421	0.0158231
801.499	0.0158025
801.578	0.0156620
801.656	0.0156464
801.734	0.0156601
801.812	0.0156799
801.890	0.0155125
801.968	0.0155001
802.046	0.0157018
802.124	0.0158760
802.203	0.0157177
802.281	0.0157825
802.359	0.0160310
802.437	0.0160720
802.515	0.0161464
802.593	0.0162313
802.671	0.0163910
802.749	0.0163816
802.828	0.0164063
802.906	0.0164230
802.984	0.0165755
803.062	0.0163985
803.140	0.0164922
803.218	0.0166969
803.296	0.0164552
803.374	0.0164730
803.453	0.0166676
803.531	0.0166450
803.609	0.0168319
803.687	0.0168421
803.765	0.0166718
803.843	0.0168148
803.921	0.0168266
803.999	0.0167524
804.078	0.0167176
804.156	0.0166706
804.234	0.0165414
804.312	0.0165834
804.390	0.0164610
804.468	0.0164367
804.546	0.0165070
804.624	0.0165761
804.703	0.0166035
804.781	0.0166664
804.859	0.0168055
804.937	0.0169204
805.015	0.0171309
805.093	0.0170283
805.171	0.0170249
805.249	0.0171133
805.328	0.0172589
805.406	0.0172272
805.484	0.0171890
805.562	0.0171358
805.640	0.0171284
805.718	0.0170925
805.796	0.0169470
805.874	0.0170322
805.953	0.0168147
806.031	0.0167699
806.109	0.0165692
806.187	0.0165298
806.265	0.0163914
806.343	0.0163962
806.421	0.0163336
806.499	0.0162881
806.578	0.0162392
806.656	0.0162935
806.734	0.0161584
806.812	0.0162326
806.890	0.0161633
806.968	0.0162376
807.046	0.0163461
807.124	0.0161895
807.203	0.0161934
807.281	0.0161674
807.359	0.0161185
807.437	0.0161497
807.515	0.0160239
807.593	0.0159375
807.671	0.0158268
807.749	0.0158565
807.828	0.0157567
807.906	0.0156921
807.984	0.0157372
808.062	0.0157394
808.140	0.0156389
808.218	0.0156370
808.296	0.0157053
808.374	0.0156666
808.453	0.0158234
808.531	0.0158669
808.609	0.0157140
808.687	0.0158199
808.765	0.0159175
808.843	0.0161044
808.921	0.0162296
808.999	0.0163693
809.078	0.0163690
809.156	0.0165043
809.234	0.0166232
809.312	0.0166885
809.390	0.0169497
809.468	0.0168716
809.546	0.0171463
809.624	0.0171944
809.703	0.0170724
809.781	0.0172571
809.859	0.0172178
809.937	0.0172935
810.015	0.0172725
810.093	0.0170982
810.171	0.0171721
810.249	0.0170242
810.328	0.0170781
810.406	0.0170562
810.484	0.0169201
810.562	0.0168004
810.640	0.0167537
810.718	0.0165684
810.796	0.0165212
810.874	0.0164912
810.953	0.0165249
811.031	0.0164870
811.109	0.0164044
811.187	0.0166605
811.265	0.0164358
811.343	0.0165324
811.421	0.0166087
811.499	0.0165901
811.578	0.0166708
811.656	0.0166053
811.734	0.0165083
811.812	0.0164565
811.890	0.0164315
811.968	0.0164458
812.046	0.0165709
812.124	0.0163439
812.203	0.0161921
812.281	0.0160641
812.359	0.0159842
812.437	0.0161498
812.515	0.0160863
812.593	0.0159142
812.671	0.0159451
812.749	0.0159346
812.828	0.0159930
812.906	0.0160184
812.984	0.0161969
813.062	0.0160622
813.140	0.0162061
813.218	0.0162866
813.296	0.0161714
813.374	0.0161063
813.453	0.0161192
813.531	0.0163898
813.609	0.0162218
813.687	0.0160909
813.765	0.0162563
813.843	0.0160862
813.921	0.0160794
813.999	0.0160662
814.078	0.0160542
814.156	0.0159920
814.234	0.0159151
814.312	0.0161089
814.390	0.0160391
814.468	0.0160017
814.546	0.0160169
814.624	0.0162540
814.703	0.0159270
814.781	0.0162881
814.859	0.0160020
814.937	0.0162547
815.015	0.0162625
815.093	0.0161874
815.171	0.0162473
815.249	0.0165108
815.328	0.0166707
815.406	0.0165747
815.484	0.0167697
815.562	0.0167023
815.640	0.0169464
815.718	0.0169824
815.796	0.0171706
815.874	0.0170887
815.953	0.0172002
816.031	0.0170851
816.109	0.0171162
816.187	0.0172189
816.265	0.0172898
816.343	0.0170715
816.421	0.0171241
816.499	0.0170042
816.578	0.0168939
816.656	0.0168561
816.734	0.0168201
816.812	0.0167645
816.890	0.0166428
816.968	0.0165849
817.046	0.0165691
817.124	0.0165654
817.203	0.0164310
817.281	0.0164857
817.359	0.0163297
817.437	0.0162930
817.515	0.0161657
817.593	0.0163193
817.671	0.0162957
817.749	0.0163283
817.828	0.0161771
817.906	0.0162284
817.984	0.0162576
818.062	0.0160670
818.140	0.0161177
818.218	0.0160707
818.296	0.0160844
818.374	0.0160780
818.453	0.0159837
818.531	0.0159902
818.609	0.0159649
818.687	0.0160070
818.765	0.0160306
818.843	0.0158643
818.921	0.0161102
818.999	0.0161272
819.078	0.0159193
819.156	0.0160293
819.234	0.0160571
819.312	0.0161823
819.390	0.0160848
819.468	0.0161392
819.546	0.0161779
819.624	0.0162556
819.703	0.0161627
819.781	0.0162849
819.859	0.0165161
819.937	0.0165248
820.015	0.0165215
820.093	0.0164146
820.171	0.0164883
820.249	0.0165871
820.328	0.0166624
820.406	0.0165923
820.484	0.0165134
820.562	0.0164981
820.640	0.0164964
820.718	0.0165898
820.796	0.0164491
820.874	0.0164391
820.953	0.0163667
821.031	0.0164099
821.109	0.0163875
821.187	0.0163228
821.265	0.0164408
821.343	0.0164217
821.421	0.0164214
821.499	0.0164787
821.578	0.0164576
821.656	0.0163320
821.734	0.0165212
821.812	0.0164387
821.890	0.0163862
821.968	0.0165830
822.046	0.0165572
822.124	0.0165485
822.203	0.0166442
822.281	0.0164834
822.359	0.0164574
822.437	0.0165035
822.515	0.0165378
822.593	0.0166348
822.671	0.0167422
822.749	0.0166892
822.828	0.0166361
822.906	0.0167590
822.984	0.0167052
823.062	0.0167447
823.140	0.0167386
823.218	0.0167684
823.296	0.0167072
823.374	0.0168321
823.453	0.0168180
823.531	0.0168888
823.609	0.0168802
823.687	0.0167502
823.765	0.0168252
823.843	0.0168813
823.921	0.0168368
823.999	0.0168266
824.078	0.0167061
824.156	0.0167107
824.234	0.0167474
824.312	0.0167176
824.390	0.0167068
824.468	0.0165742
824.546	0.0166000
824.624	0.0165440
824.703	0.0166237
824.781	0.0165672
824.859	0.0163272
824.937	0.0164973
825.015	0.0164327
825.093	0.0163171
825.171	0.0162673
825.249	0.0162727
825.328	0.0161125
825.406	0.0161345
825.484	0.0160957
825.562	0.0160091
825.640	0.0159799
825.718	0.0159418
825.796	0.0159003
825.874	0.0159142
825.953	0.0158604
826.031	0.0158870
826.109	0.0159422
826.187	0.0159753
826.265	0.0159160
826.343	0.0161714
826.421	0.0160889
826.499	0.0162455
826.578	0.0163422
826.656	0.0163663
826.734	0.0163406
826.812	0.0165045
826.890	0.0164259
826.968	0.0164308
827.046	0.0164539
827.124	0.0165038
827.203	0.0165266
827.281	0.0164007
827.359	0.0163298
827.437	0.0164687
827.515	0.0164841
827.593	0.0163618
827.671	0.0163702
827.749	0.0162584
827.828	0.0163890
827.906	0.0164506
827.984	0.0163660
828.062	0.0163927
828.140	0.0163216
828.218	0.0164655
828.296	0.0164874
828.374	0.0164866
828.453	0.0165337
828.531	0.0166722
828.609	0.0167117
828.687	0.0166386
828.765	0.0168700
828.843	0.0169202
828.921	0.0169378
828.999	0.0170126
829.078	0.0170199
829.156	0.0170374
829.234	0.0170441
829.312	0.0171219
829.390	0.0172272
829.468	0.0171536
829.546	0.0170255
829.624	0.0169950
829.703	0.0169986
829.781	0.0169346
829.859	0.0168205
829.937	0.0168209
830.015	0.0167340
830.093	0.0166125
830.171	0.0168163
830.249	0.0166460
830.328	0.0165836
830.406	0.0165038
830.484	0.0165739
830.562	0.0164651
830.640	0.0164347
830.718	0.0162644
830.796	0.0162316
830.874	0.0161839
830.953	0.0162467
831.031	0.0160784
831.109	0.0159541
831.187	0.0160622
831.265	0.0159375
831.343	0.0159206
831.421	0.0158241
831.499	0.0158466
831.578	0.0159198
831.656	0.0159071
831.734	0.0159547
831.812	0.0159332
831.890	0.0159104
831.968	0.0159611
832.046	0.0160518
832.124	0.0161400
832.203	0.0159856
832.281	0.0162086
832.359	0.0162221
832.437	0.0162674
832.515	0.0163651
832.593	0.0162545
832.671	0.0163699
832.749	0.0163194
832.828	0.0163982
832.906	0.0163013
832.984	0.0162050
833.062	0.0162894
833.140	0.0162695
833.218	0.0162538
833.296	0.0162383
833.374	0.0161585
833.453	0.0160773
833.531	0.0161902
833.609	0.0162258
833.687	0.0161129
833.765	0.0163355
833.843	0.0163892
833.921	0.0165562
833.999	0.0164853
834.078	0.0167301
834.156	0.0166620
834.234	0.0165411
834.312	0.0167129
834.390	0.0167833
834.468	0.0166963
834.546	0.0166061
834.624	0.0168147
834.703	0.0168115
834.781	0.0166954
834.859	0.0166508
834.937	0.0167728
835.015	0.0169047
835.093	0.0167506
835.171	0.0167668
835.249	0.0166584
835.328	0.0166859
835.406	0.0168510
835.484	0.0169464
835.562	0.0166974
835.640	0.0168110
835.718	0.0166967
835.796	0.0167540
835.874	0.0168533
835.953	0.0168716
836.031	0.0168109
836.109	0.0167741
836.187	0.0168896
836.265	0.0168358
836.343	0.0167949
836.421	0.0166601
836.499	0.0165609
836.578	0.0164954
836.656	0.0163866
836.734	0.0163494
836.812	0.0163647
836.890	0.0162379
836.968	0.0162578
837.046	0.0161868
837.124	0.0159242
837.203	0.0159607
837.281	0.0159508
837.359	0.0159528
837.437	0.0158934
837.515	0.0158946
837.593	0.0158324
837.671	0.0159039
837.749	0.0158524
837.828	0.0158973
837.906	0.0160049
837.984	0.0159426
838.062	0.0159647
838.140	0.0161715
838.218	0.0161031
838.296	0.0161852
838.374	0.0161151
838.453	0.0162283
838.531	0.0163047
838.609	0.0162192
838.687	0.0161108
838.765	0.0163963
838.843	0.0163116
838.921	0.0162923
838.999	0.0162844
839.078	0.0163326
839.156	0.0163534
839.234	0.0162861
839.312	0.0161857
839.390	0.0162297
839.468	0.0163535
839.546	0.0163471
839.624	0.0163419
839.703	0.0163795
839.781	0.0164846
839.859	0.0164242
839.937	0.0164491
840.015	0.0165498
840.093	0.0164154
840.171	0.0164780
840.249	0.0165508
840.328	0.0165816
840.406	0.0166537
840.484	0.0165179
840.562	0.0165558
840.640	0.0164571
840.718	0.0166743
840.796	0.0164818
840.874	0.0164867
840.953	0.0166660
841.031	0.0165511
841.109	0.0166389
841.187	0.0165417
841.265	0.0165437
841.343	0.0164823
841.421	0.0165804
841.499	0.0166055
841.578	0.0166470
841.656	0.0167351
841.734	0.0168252
841.812	0.0167822
841.890	0.0168133
841.968	0.0170518
842.046	0.0168654
842.124	0.0168677
842.203	0.0167870
842.281	0.0168640
842.359	0.0169408
842.437	0.0167245
842.515	0.0168112
842.593	0.0166897
842.671	0.0167234
842.749	0.0164887
842.828	0.0165185
842.906	0.0164179
842.984	0.0162885
843.062	0.0161393
843.140	0.0162656
843.218	0.0160795
843.296	0.0160293
843.374	0.0159628
843.453	0.0159908
843.531	0.0158582
843.609	0.0159155
843.687	0.0160051
843.765	0.0158440
843.843	0.0159571
843.921	0.0157887
843.999	0.0158916
844.078	0.0159600
844.156	0.0159270
844.234	0.0159122
844.312	0.0160952
844.390	0.0161060
844.468	0.0160307
844.546	0.0161603
844.624	0.0162228
844.703	0.0163156
844.781	0.0162175
844.859	0.0163371
844.937	0.0164395
845.015	0.0164287
845.093	0.0165790
845.171	0.0166773
845.249	0.0165582
845.328	0.0166039
845.406	0.0165798
845.484	0.0166370
845.562	0.0166147
845.640	0.0167534
845.718	0.0166924
845.796	0.0166444
845.874	0.0167441
845.953	0.0166306
846.031	0.0166817
846.109	0.0167957
846.187	0.0167928
846.265	0.0166815
846.343	0.0167459
846.421	0.0167796
846.499	0.0167202
846.578	0.0166959
846.656	0.0166814
846.734	0.0165144
846.812	0.0164902
846.890	0.0166755
846.968	0.0165739
847.046	0.0163902
847.124	0.0164209
847.203	0.0163541
847.281	0.0164469
847.359	0.0163854
847.437	0.0165279
847.515	0.0165022
847.593	0.0164824
847.671	0.0165532
847.749	0.0166913
847.828	0.0166753
847.906	0.0167080
847.984	0.0167284
848.062	0.0168060
848.140	0.0168349
848.218	0.0167783
848.296	0.0168041
848.374	0.0167838
848.453	0.0168966
848.531	0.0169323
848.609	0.0168694
848.687	0.0168678
848.765	0.0167849
848.843	0.0166733
848.921	0.0169485
848.999	0.0168840
849.078	0.0167409
849.156	0.0166562
849.234	0.0166387
849.312	0.0166029
849.390	0.0165794
849.468	0.0163062
849.546	0.0164359
849.624	0.0162831
849.703	0.0161630
849.781	0.0162036
849.859	0.0160543
849.937	0.0158999
850.015	0.0159917
850.093	0.0158612
850.171	0.0158911
850.249	0.0159437
850.328	0.0159459
850.406	0.0159824
850.484	0.0160044
850.562	0.0160043
850.640	0.0159740
850.718	0.0159437
850.796	0.0160628
850.874	0.0160366
850.953	0.0161426
851.031	0.0162392
851.109	0.0161555
851.187	0.0163662
851.265	0.0164066
851.343	0.0164318
851.421	0.0163655
851.499	0.0165379
851.578	0.0165025
851.656	0.0165962
851.734	0.0167009
851.812	0.0165511
851.890	0.0165833
851.968	0.0164826
852.046	0.0165598
852.124	0.0166861
852.203	0.0167200
852.281	0.0166935
852.359	0.0166457
852.437	0.0165778
852.515	0.0166883
852.593	0.0167401
852.671	0.0166309
852.749	0.0166267
852.828	0.0165904
852.906	0.0165337
852.984	0.0165472
853.062	0.0164967
853.140	0.0165190
853.218	0.0164972
853.296	0.0163927
853.374	0.0162903
853.453	0.0162646
853.531	0.0163142
853.609	0.0163849
853.687	0.0163943
853.765	0.0163502
853.843	0.0164012
853.921	0.0162868
853.999	0.0164825
854.078	0.0164352
854.156	0.0163781
854.234	0.0165374
854.312	0.0163769
854.390	0.0164881
854.468	0.0164658
854.546	0.0164498
854.624	0.0165390
854.703	0.0166132
854.781	0.0165833
854.859	0.0165823
854.937	0.0165764
855.015	0.0166040
855.093	0.0168998
855.171	0.0169421
855.249	0.0169517
855.328	0.0169922
855.406	0.0168480
855.484	0.0167524
855.562	0.0167113
855.640	0.0167856
855.718	0.0166549
855.796	0.0165692
855.874	0.0165904
855.953	0.0164197
856.031	0.0163033
856.109	0.0162329
856.187	0.0161756
856.265	0.0160853
856.343	0.0160707
856.421	0.0159704
856.499	0.0158994
856.578	0.0160880
856.656	0.0159691
856.734	0.0159001
856.812	0.0160253
856.890	0.0160646
856.968	0.0160157
857.046	0.0160687
857.124	0.0159496
857.203	0.0162263
857.281	0.0164050
857.359	0.0162635
857.437	0.0163147
857.515	0.0163899
857.593	0.0163078
857.671	0.0163857
857.749	0.0162491
857.828	0.0162362
857.906	0.0162839
857.984	0.0163692
858.062	0.0163327
858.140	0.0164523
858.218	0.0164745
858.296	0.0164520
858.374	0.0164341
858.453	0.0163747
858.531	0.0164911
858.609	0.0166409
858.687	0.0164429
858.765	0.0165112
858.843	0.0164633
858.921	0.0164751
858.999	0.0164761
859.078	0.0164489
859.156	0.0164285
859.234	0.0164610
859.312	0.0166100
859.390	0.0165176
859.468	0.0165574
859.546	0.0165488
859.624	0.0163785
859.703	0.0166242
859.781	0.0163563
859.859	0.0163744
859.937	0.0165194
860.015	0.0161645
860.093	0.0162760
860.171	0.0162746
860.249	0.0162167
860.328	0.0161692
860.406	0.0162462
860.484	0.0162157
860.562	0.0162720
860.640	0.0161722
860.718	0.0162167
860.796	0.0163049
860.874	0.0163734
860.953	0.0162810
861.031	0.0164385
861.109	0.0162910
861.187	0.0164310
861.265	0.0165625
861.343	0.0165246
861.421	0.0165276
861.499	0.0165481
861.578	0.0165815
861.656	0.0165958
861.734	0.0166608
861.812	0.0166060
861.890	0.0166667
861.968	0.0165731
862.046	0.0164824
862.124	0.0166505
862.203	0.0165180
862.281	0.0165089
862.359	0.0164360
862.437	0.0165275
862.515	0.0163737
862.593	0.0162437
862.671	0.0163070
862.749	0.0163139
862.828	0.0163096
862.906	0.0163042
862.984	0.0162702
863.062	0.0161924
863.140	0.0161635
863.218	0.0163681
863.296	0.0163998
863.374	0.0161640
863.453	0.0161427
863.531	0.0162304
863.609	0.0162479
863.687	0.0162352
863.765	0.0162115
863.843	0.0161811
863.921	0.0162255
863.999	0.0162128
864.078	0.0164126
864.156	0.0163164
864.234	0.0162873
864.312	0.0163438
864.390	0.0165667
864.468	0.0165396
864.546	0.0164954
864.624	0.0166583
864.703	0.0165234
864.781	0.0164747
864.859	0.0164854
864.937	0.0167905
865.015	0.0166064
865.093	0.0166767
865.171	0.0167258
865.249	0.0166750
865.328	0.0166639
865.406	0.0166328
865.484	0.0165570
865.562	0.0164521
865.640	0.0164549
865.718	0.0164285
865.796	0.0165965
865.874	0.0166102
865.953	0.0165620
866.031	0.0164485
866.109	0.0163252
866.187	0.0165027
866.265	0.0163100
866.343	0.0163498
866.421	0.0163223
866.499	0.0162782
866.578	0.0162270
866.656	0.0163689
866.734	0.0163228
866.812	0.0162011
866.890	0.0162168
866.968	0.0163454
867.046	0.0164375
867.124	0.0164748
867.203	0.0164385
867.281	0.0165354
867.359	0.0166526
867.437	0.0166062
867.515	0.0166470
867.593	0.0166982
867.671	0.0168993
867.749	0.0167534
867.828	0.0167926
867.906	0.0167852
867.984	0.0168482
868.062	0.0168905
868.140	0.0168797
868.218	0.0167627
868.296	0.0166446
868.374	0.0166397
868.453	0.0167824
868.531	0.0166071
868.609	0.0166117
868.687	0.0164177
868.765	0.0164278
868.843	0.0164823
868.921	0.0163898
868.999	0.0163944
869.078	0.0161901
869.156	0.0161187
869.234	0.0162755
869.312	0.0160149
869.390	0.0161012
869.468	0.0161845
869.546	0.0161967
869.624	0.0160361
869.703	0.0159855
869.781	0.0161633
869.859	0.0160899
869.937	0.0161807
870.015	0.0162737
870.093	0.0162694
870.171	0.0163242
870.249	0.0165353
870.328	0.0164195
870.406	0.0163750
870.484	0.0166022
870.562	0.0165983
870.640	0.0165993
870.718	0.0166255
870.796	0.0166871
870.874	0.0165791
870.953	0.0167057
871.031	0.0167258
871.109	0.0168619
871.187	0.0167480
871.265	0.0166872
871.343	0.0166170
871.421	0.0166499
871.499	0.0167047
871.578	0.0167905
871.656	0.0166225
871.734	0.0167440
871.812	0.0166600
871.890	0.0166533
871.968	0.0165341
872.046	0.0166070
872.124	0.0165282
872.203	0.0164854
872.281	0.0166119
872.359	0.0164999
872.437	0.0165324
872.515	0.0163602
872.593	0.0163602
872.671	0.0163189
872.749	0.0162786
872.828	0.0163451
872.906	0.0161400
872.984	0.0162602
873.062	0.0162018
873.140	0.0160742
873.218	0.0161832
873.296	0.0162348
873.374	0.0161855
873.453	0.0163191
873.531	0.0161771
873.609	0.0162083
873.687	0.0163506
873.765	0.0163482
873.843	0.0165408
873.921	0.0165550
873.999	0.0165517
874.078	0.0165814
874.156	0.0165793
874.234	0.0166173
874.312	0.0166276
874.390	0.0167310
874.468	0.0167036
874.546	0.0167115
874.624	0.0166407
874.703	0.0167385
874.781	0.0168010
874.859	0.0167720
874.937	0.0167857
875.015	0.0166006
875.093	0.0167145
875.171	0.0166599
875.249	0.0165459
875.328	0.0165128
875.406	0.0164423
875.484	0.0163370
875.562	0.0162645
875.640	0.0161913
875.718	0.0161482
875.796	0.0160772
875.874	0.0161008
875.953	0.0159280
876.031	0.0159218
876.109	0.0159137
876.187	0.0159315
876.265	0.0157748
876.343	0.0158989
876.421	0.0158673
876.499	0.0159175
876.578	0.0160435
876.656	0.0159800
876.734	0.0160543
876.812	0.0161064
876.890	0.0160528
876.968	0.0160750
877.046	0.0161599
877.124	0.0162203
877.203	0.0162660
877.281	0.0162626
877.359	0.0163172
877.437	0.0164091
877.515	0.0164780
877.593	0.0165285
877.671	0.0165461
877.749	0.0165375
877.828	0.0166311
877.906	0.0166128
877.984	0.0166679
878.062	0.0166686
878.140	0.0167478
878.218	0.0167821
878.296	0.0166588
878.374	0.0167086
878.453	0.0168115
878.531	0.0166586
878.609	0.0167205
878.687	0.0167650
878.765	0.0166409
878.843	0.0166659
878.921	0.0166437
878.999	0.0166068
879.078	0.0165506
879.156	0.0165128
879.234	0.0166022
879.312	0.0164732
879.390	0.0164346
879.468	0.0161612
879.546	0.0162923
879.624	0.0162219
879.703	0.0162973
879.781	0.0161321
879.859	0.0161035
879.937	0.0160901
880.015	0.0161657
880.093	0.0161429
880.171	0.0162417
880.249	0.0162567
880.328	0.0162158
880.406	0.0163047
880.484	0.0163670
880.562	0.0160687
880.640	0.0162375
880.718	0.0162714
880.796	0.0161966
880.874	0.0163061
880.953	0.0164515
881.031	0.0162669
881.109	0.0162948
881.187	0.0164309
881.265	0.0162263
881.343	0.0164116
881.421	0.0163440
881.499	0.0164368
881.578	0.0164634
881.656	0.0165569
881.734	0.0165415
881.812	0.0163942
881.890	0.0164004
881.968	0.0165105
882.046	0.0165449
882.124	0.0164884
882.203	0.0164623
882.281	0.0163001
882.359	0.0164245
882.437	0.0163132
882.515	0.0163396
882.593	0.0164085
882.671	0.0163344
882.749	0.0162576
882.828	0.0162292
882.906	0.0163444
882.984	0.0164315
883.062	0.0162020
883.140	0.0162817
883.218	0.0163023
883.296	0.0161888
883.374	0.0163475
883.453	0.0162498
883.531	0.0163316
883.609	0.0162397
883.687	0.0163795
883.765	0.0163506
883.843	0.0163702
883.921	0.0164137
883.999	0.0163520
884.078	0.0163424
884.156	0.0163718
884.234	0.0164829
884.312	0.0163551
884.390	0.0164010
884.468	0.0165372
884.546	0.0164631
884.624	0.0165818
884.703	0.0163744
884.781	0.0164899
884.859	0.0165437
884.937	0.0164091
885.015	0.0165040
885.093	0.0164025
885.171	0.0163411
885.249	0.0163584
885.328	0.0163805
885.406	0.0164127
885.484	0.0163107
885.562	0.0164929
885.640	0.0164474
885.718	0.0164465
885.796	0.0167211
885.874	0.0165456
885.953	0.0163500
886.031	0.0164074
886.109	0.0164750
886.187	0.0164490
886.265	0.0163372
886.343	0.0164909
886.421	0.0163842
886.499	0.0163941
886.578	0.0162466
886.656	0.0164008
886.734	0.0163181
886.812	0.0163290
886.890	0.0162415
886.968	0.0162563
887.046	0.0162948
887.124	0.0161856
887.203	0.0162376
887.281	0.0162514
887.359	0.0163264
887.437	0.0163367
887.515	0.0162932
887.593	0.0162778
887.671	0.0163010
887.749	0.0164034
887.828	0.0164310
887.906	0.0163595
887.984	0.0164654
888.062	0.0164455
888.140	0.0165615
888.218	0.0164494
888.296	0.0163751
888.374	0.0165475
888.453	0.0165680
888.531	0.0164782
888.609	0.0166241
888.687	0.0164404
888.765	0.0164777
888.843	0.0166145
888.921	0.0165450
888.999	0.0164758
889.078	0.0162931
889.156	0.0163219
889.234	0.0163872
889.312	0.0163805
889.390	0.0162038
889.468	0.0162934
889.546	0.0162467
889.624	0.0164157
889.703	0.0163593
889.781	0.0163164
889.859	0.0163358
889.937	0.0163006
890.015	0.0164624
890.093	0.0164877
890.171	0.0164566
890.249	0.0163924
890.328	0.0165003
890.406	0.0164054
890.484	0.0164491
890.562	0.0163619
890.640	0.0164079
890.718	0.0164531
890.796	0.0164626
890.874	0.0164598
890.953	0.0164761
891.031	0.0163898
891.109	0.0165149
891.187	0.0165199
891.265	0.0163836
891.343	0.0165186
891.421	0.0163855
891.499	0.0164324
891.578	0.0163084
891.656	0.0163909
891.734	0.0162638
891.812	0.0164744
891.890	0.0164651
891.968	0.0163760
892.046	0.0164234
892.124	0.0164618
892.203	0.0163140
892.281	0.0162506
892.359	0.0166171
892.437	0.0164455
892.515	0.0165295
892.593	0.0165062
892.671	0.0164735
892.749	0.0165233
892.828	0.0163522
892.906	0.0164262
892.984	0.0163464
893.062	0.0163837
893.140	0.0164711
893.218	0.0163432
893.296	0.0164052
893.374	0.0164796
893.453	0.0164373
893.531	0.0164011
893.609	0.0163770
893.687	0.0163808
893.765	0.0164792
893.843	0.0163953
893.921	0.0165279
893.999	0.0165262
894.078	0.0165323
894.156	0.0165475
894.234	0.0165745
894.312	0.0165827
894.390	0.0166181
894.468	0.0167109
894.546	0.0165368
894.624	0.0166087
894.703	0.0167039
894.781	0.0168098
894.859	0.0165662
894.937	0.0166764
895.015	0.0166137
895.093	0.0167435
895.171	0.0165861
895.249	0.0165437
895.328	0.0166502
895.406	0.0165397
895.484	0.0165675
895.562	0.0164868
895.640	0.0164144
895.718	0.0164088
895.796	0.0163147
895.874	0.0162146
895.953	0.0162128
896.031	0.0163641
896.109	0.0163609
896.187	0.0164451
896.265	0.0164320
896.343	0.0163139
896.421	0.0163620
896.499	0.0163528
896.578	0.0163498
896.656	0.0163289
896.734	0.0162814
896.812	0.0163684
896.890	0.0164704
896.968	0.0164881
897.046	0.0163548
897.124	0.0165177
897.203	0.0164901
897.281	0.0163859
897.359	0.0163477
897.437	0.0164539
897.515	0.0165533
897.593	0.0164608
897.671	0.0164731
897.749	0.0163992
897.828	0.0163992
897.906	0.0164609
897.984	0.0163598
898.062	0.0164068
898.140	0.0164793
898.218	0.0164178
898.296	0.0164384
898.374	0.0165614
898.453	0.0164993
898.531	0.0164117
898.609	0.0165669
898.687	0.0166380
898.765	0.0165433
898.843	0.0165430
898.921	0.0166086
898.999	0.0166289
899.078	0.0165273
899.156	0.0164571
899.234	0.0164725
899.312	0.0163013
899.390	0.0165052
899.468	0.0163813
899.546	0.0163032
899.624	0.0163173
899.703	0.0164033
899.781	0.0163114
899.859	0.0162247
899.937	0.0163045
900.015	0.0164191
900.093	0.0163165
900.171	0.0163508
900.249	0.0165073
900.328	0.0164408
900.406	0.0164780
900.484	0.0165250
900.562	0.0165382
900.640	0.0165271
900.718	0.0165755
900.796	0.0166885
900.874	0.0165914
900.953	0.0166925
901.031	0.0167532
901.109	0.0167365
901.187	0.0164989
901.265	0.0167257
901.343	0.0167017
901.421	0.0166714
901.499	0.0167469
901.578	0.0166557
901.656	0.0165301
901.734	0.0166541
901.812	0.0166286
901.890	0.0165176
901.968	0.0165523
902.046	0.0164878
902.124	0.0164517
902.203	0.0164505
902.281	0.0164252
902.359	0.0164303
902.437	0.0163825
902.515	0.0163557
902.593	0.0163567
902.671	0.0164642
902.749	0.0164100
902.828	0.0164833
902.906	0.0163480
902.984	0.0164785
903.062	0.0164668
903.140	0.0164673
903.218	0.0165060
903.296	0.0163347
903.374	0.0163647
903.453	0.0164471
903.531	0.0164249
903.609	0.0163911
903.687	0.0164697
903.765	0.0164105
903.843	0.0164770
903.921	0.0164524
903.999	0.0163639
904.078	0.0165100
904.156	0.0165752
904.234	0.0165054
904.312	0.0164378
904.390	0.0164878
904.468	0.0165025
904.546	0.0165339
904.624	0.0164673
904.703	0.0164240
904.781	0.0164079
904.859	0.0164701
904.937	0.0164401
905.015	0.0164031
905.093	0.0164215
905.171	0.0164090
905.249	0.0163725
905.328	0.0162897
905.406	0.0162668
905.484	0.0164077
905.562	0.0164555
905.640	0.0164774
905.718	0.0162375
905.796	0.0162109
905.874	0.0161982
905.953	0.0162454
906.031	0.0162830
906.109	0.0163272
906.187	0.0163854
906.265	0.0163278
906.343	0.0162004
906.421	0.0161782
906.499	0.0163593
906.578	0.0164408
906.656	0.0163319
906.734	0.0164480
906.812	0.0164337
906.890	0.0162779
906.968	0.0164320
907.046	0.0164042
907.124	0.0166070
907.203	0.0164607
907.281	0.0165478
907.359	0.0166656
907.437	0.0165318
907.515	0.0166985
907.593	0.0165599
907.671	0.0167151
907.749	0.0167783
907.828	0.0166904
907.906	0.0167007
907.984	0.0166537
908.062	0.0165743
908.140	0.0165437
908.218	0.0166235
908.296	0.0165334
908.374	0.0164897
908.453	0.0165108
908.531	0.0165744
908.609	0.0165103
908.687	0.0164391
908.765	0.0163873
908.843	0.0163671
908.921	0.0163143
908.999	0.0165112
909.078	0.0164233
909.156	0.0163348
909.234	0.0163226
909.312	0.0162826
909.390	0.0161794
909.468	0.0162182
909.546	0.0162791
909.624	0.0161923
909.703	0.0162443
909.781	0.0161525
909.859	0.0161166
909.937	0.0162305
910.015	0.0161536
910.093	0.0161906
910.171	0.0162389
910.249	0.0163082
910.328	0.0162770
910.406	0.0163454
910.484	0.0163557
910.562	0.0163795
910.640	0.0162954
910.718	0.0163644
910.796	0.0163470
910.874	0.0163432
910.953	0.0163572
911.031	0.0163633
911.109	0.0162818
911.187	0.0163607
911.265	0.0164632
911.343	0.0163853
911.421	0.0163638
911.499	0.0163894
911.578	0.0161784
911.656	0.0162514
911.734	0.0162091
911.812	0.0162608
911.890	0.0162932
911.968	0.0162383
912.046	0.0163107
912.124	0.0162974
912.203	0.0163068
912.281	0.0163033
912.359	0.0161681
912.437	0.0161920
912.515	0.0162854
912.593	0.0161330
912.671	0.0162428
912.749	0.0163248
912.828	0.0162717
912.906	0.0162668
912.984	0.0164083
913.062	0.0164417
913.140	0.0163853
913.218	0.0165892
913.296	0.0164600
913.374	0.0164175
913.453	0.0164465
913.531	0.0166970
913.609	0.0165469
913.687	0.0166261
913.765	0.0165642
913.843	0.0165858
913.921	0.0166792
913.999	0.0167445
914.078	0.0166058
914.156	0.0165640
914.234	0.0165575
914.312	0.0166299
914.390	0.0165933
914.468	0.0165679
914.546	0.0165800
914.624	0.0166315
914.703	0.0165270
914.781	0.0164643
914.859	0.0163462
914.937	0.0165774
915.015	0.0163358
915.093	0.0163524
915.171	0.0162177
915.249	0.0163779
915.328	0.0162304
915.406	0.0161558
915.484	0.0161483
915.562	0.0162608
915.640	0.0160811
915.718	0.0162487
915.796	0.0162641
915.874	0.0161330
915.953	0.0161513
916.031	0.0162061
916.109	0.0160857
916.187	0.0161792
916.265	0.0161886
916.343	0.0162411
916.421	0.0162644
916.499	0.0162332
916.578	0.0162006
916.656	0.0163028
916.734	0.0163957
916.812	0.0163538
916.890	0.0164437
916.968	0.0162558
917.046	0.0165442
917.124	0.0165794
917.203	0.0164425
917.281	0.0164326
917.359	0.0165269
917.437	0.0165405
917.515	0.0164790
917.593	0.0165959
917.671	0.0164621
917.749	0.0165115
917.828	0.0164101
917.906	0.0165446
917.984	0.0166713
918.062	0.0165100
918.140	0.0165049
918.218	0.0164982
918.296	0.0164468
918.374	0.0163999
918.453	0.0164165
918.531	0.0164101
918.609	0.0165388
918.687	0.0164149
918.765	0.0163089
918.843	0.0162685
918.921	0.0162602
918.999	0.0161617
919.078	0.0160584
919.156	0.0162484
919.234	0.0162267
919.312	0.0162725
919.390	0.0162715
919.468	0.0162498
919.546	0.0165054
919.624	0.0165801
919.703	0.0164974
919.781	0.0165081
919.859	0.0164543
919.937	0.0165680
