06/10/2022	18:49:30	Ver.	4.1	UNKNOWN
Optical Delay	600.015094	Delta X		0.078125	Sweeps	1	Scan Rate	0/0
Coordinates	Axis 1	NaN	Axis 2	NaN	Axis 3	NaN	Axis 4	NaN	Axis 5	NaN	Axis 6	0.000000
TX Power	0.000000	RX Power	0.000000

600.015	0.0164510
600.093	0.0165723
600.171	0.0165234
600.249	0.0165747
600.328	0.0165326
600.406	0.0166394
600.484	0.0165995
600.562	0.0164779
600.640	0.0164834
600.718	0.0166789
600.796	0.0166827
600.874	0.0165237
600.953	0.0164031
601.031	0.0165165
601.109	0.0166891
601.187	0.0165600
601.265	0.0165210
601.343	0.0164932
601.421	0.0165383
601.499	0.0166450
601.578	0.0164746
601.656	0.0165604
601.734	0.0164912
601.812	0.0164854
601.890	0.0165228
601.968	0.0164894
602.046	0.0165626
602.124	0.0164571
602.203	0.0165007
602.281	0.0165511
602.359	0.0165748
602.437	0.0164633
602.515	0.0164906
602.593	0.0165867
602.671	0.0164805
602.749	0.0166163
602.828	0.0165825
602.906	0.0165154
602.984	0.0165621
603.062	0.0163558
603.140	0.0163708
603.218	0.0165818
603.296	0.0164650
603.374	0.0165452
603.453	0.0163448
603.531	0.0164106
603.609	0.0164140
603.687	0.0163969
603.765	0.0164734
603.843	0.0164005
603.921	0.0164018
603.999	0.0164948
604.078	0.0164182
604.156	0.0164230
604.234	0.0162496
604.312	0.0165588
604.390	0.0164141
604.468	0.0163552
604.546	0.0164239
604.624	0.0163763
604.703	0.0164030
604.781	0.0165464
604.859	0.0163697
604.937	0.0164127
605.015	0.0164965
605.093	0.0165244
605.171	0.0163300
605.249	0.0163554
605.328	0.0164253
605.406	0.0164932
605.484	0.0163624
605.562	0.0162612
605.640	0.0162679
605.718	0.0164384
605.796	0.0163605
605.874	0.0164548
605.953	0.0163849
606.031	0.0163453
606.109	0.0163572
606.187	0.0164371
606.265	0.0162772
606.343	0.0164290
606.421	0.0163192
606.499	0.0163919
606.578	0.0164876
606.656	0.0163905
606.734	0.0165086
606.812	0.0162997
606.890	0.0164068
606.968	0.0163783
607.046	0.0164323
607.124	0.0164119
607.203	0.0163906
607.281	0.0164342
607.359	0.0164223
607.437	0.0163724
607.515	0.0163687
607.593	0.0165060
607.671	0.0164613
607.749	0.0162971
607.828	0.0164037
607.906	0.0164983
607.984	0.0165002
608.062	0.0163283
608.140	0.0164584
608.218	0.0164673
608.296	0.0163338
608.374	0.0165380
608.453	0.0164765
608.531	0.0164526
608.609	0.0163677
608.687	0.0163598
608.765	0.0162981
608.843	0.0165624
608.921	0.0164035
608.999	0.0163604
609.078	0.0163412
609.156	0.0163519
609.234	0.0163638
609.312	0.0165752
609.390	0.0164445
609.468	0.0163696
609.546	0.0164946
609.624	0.0163772
609.703	0.0163843
609.781	0.0163835
609.859	0.0163564
609.937	0.0163800
610.015	0.0164418
610.093	0.0164348
610.171	0.0163660
610.249	0.0163897
610.328	0.0164107
610.406	0.0163565
610.484	0.0163433
610.562	0.0164793
610.640	0.0162876
610.718	0.0164668
610.796	0.0163261
610.874	0.0165418
610.953	0.0163348
611.031	0.0163007
611.109	0.0163763
611.187	0.0163757
611.265	0.0163242
611.343	0.0164177
611.421	0.0164040
611.499	0.0163057
611.578	0.0163049
611.656	0.0163627
611.734	0.0163124
611.812	0.0162891
611.890	0.0163258
611.968	0.0164006
612.046	0.0164470
612.124	0.0163853
612.203	0.0164013
612.281	0.0163987
612.359	0.0162594
612.437	0.0164384
612.515	0.0164697
612.593	0.0164642
612.671	0.0163845
612.749	0.0164009
612.828	0.0164587
612.906	0.0164237
612.984	0.0164404
613.062	0.0164242
613.140	0.0163501
613.218	0.0163931
613.296	0.0165450
613.374	0.0165756
613.453	0.0164729
613.531	0.0164368
613.609	0.0165266
613.687	0.0164834
613.765	0.0164855
613.843	0.0163905
613.921	0.0164247
613.999	0.0163363
614.078	0.0163448
614.156	0.0165607
614.234	0.0165562
614.312	0.0164785
614.390	0.0164748
614.468	0.0164343
614.546	0.0164591
614.624	0.0165434
614.703	0.0163704
614.781	0.0164451
614.859	0.0165939
614.937	0.0165256
615.015	0.0164331
615.093	0.0164160
615.171	0.0164596
615.249	0.0165408
615.328	0.0164471
615.406	0.0164959
615.484	0.0163068
615.562	0.0165918
615.640	0.0165288
615.718	0.0163983
615.796	0.0164118
615.874	0.0163535
615.953	0.0164407
616.031	0.0164641
616.109	0.0165323
616.187	0.0164528
616.265	0.0164799
616.343	0.0163257
616.421	0.0164747
616.499	0.0164941
616.578	0.0164465
616.656	0.0165687
616.734	0.0163943
616.812	0.0164130
616.890	0.0165039
616.968	0.0163632
617.046	0.0163168
617.124	0.0164474
617.203	0.0163668
617.281	0.0163413
617.359	0.0164812
617.437	0.0163722
617.515	0.0163914
617.593	0.0164285
617.671	0.0163969
617.749	0.0163486
617.828	0.0163689
617.906	0.0163251
617.984	0.0164745
618.062	0.0163823
618.140	0.0164238
618.218	0.0163332
618.296	0.0164653
618.374	0.0164407
618.453	0.0164877
618.531	0.0163783
618.609	0.0165327
618.687	0.0164490
618.765	0.0165121
618.843	0.0164906
618.921	0.0163974
618.999	0.0164058
619.078	0.0163784
619.156	0.0164848
619.234	0.0164272
619.312	0.0164391
619.390	0.0163954
619.468	0.0165123
619.546	0.0164244
619.624	0.0164426
619.703	0.0165200
619.781	0.0165723
619.859	0.0163912
619.937	0.0164053
620.015	0.0165245
620.093	0.0164955
620.171	0.0164909
620.249	0.0164960
620.328	0.0164738
620.406	0.0164983
620.484	0.0165482
620.562	0.0165631
620.640	0.0165578
620.718	0.0164547
620.796	0.0165025
620.874	0.0164991
620.953	0.0165566
621.031	0.0164716
621.109	0.0164366
621.187	0.0164230
621.265	0.0164715
621.343	0.0164516
621.421	0.0165791
621.499	0.0165005
621.578	0.0164570
621.656	0.0164131
621.734	0.0165641
621.812	0.0166072
621.890	0.0165040
621.968	0.0164467
622.046	0.0163486
622.124	0.0164957
622.203	0.0165321
622.281	0.0165037
622.359	0.0164941
622.437	0.0164615
622.515	0.0164188
622.593	0.0166694
622.671	0.0166061
622.749	0.0163483
622.828	0.0165758
622.906	0.0165927
622.984	0.0165075
623.062	0.0164744
623.140	0.0164219
623.218	0.0165808
623.296	0.0165375
623.374	0.0163863
623.453	0.0164852
623.531	0.0164267
623.609	0.0164971
623.687	0.0164276
623.765	0.0165011
623.843	0.0164889
623.921	0.0164552
623.999	0.0164511
624.078	0.0165095
624.156	0.0164919
624.234	0.0164425
624.312	0.0165113
624.390	0.0166042
624.468	0.0165630
624.546	0.0165372
624.624	0.0165778
624.703	0.0163985
624.781	0.0162894
624.859	0.0164842
624.937	0.0163811
625.015	0.0165741
625.093	0.0164808
625.171	0.0163666
625.249	0.0164426
625.328	0.0163733
625.406	0.0164121
625.484	0.0163456
625.562	0.0163194
625.640	0.0164916
625.718	0.0164299
625.796	0.0163484
625.874	0.0164413
625.953	0.0163594
626.031	0.0163271
626.109	0.0162887
626.187	0.0163495
626.265	0.0163789
626.343	0.0164281
626.421	0.0163537
626.499	0.0163640
626.578	0.0163293
626.656	0.0163319
626.734	0.0163524
626.812	0.0163042
626.890	0.0163779
626.968	0.0164093
627.046	0.0163092
627.124	0.0163676
627.203	0.0164321
627.281	0.0164788
627.359	0.0164751
627.437	0.0165201
627.515	0.0163910
627.593	0.0163381
627.671	0.0163728
627.749	0.0163683
627.828	0.0163956
627.906	0.0163726
627.984	0.0164803
628.062	0.0163236
628.140	0.0164444
628.218	0.0164400
628.296	0.0164508
628.374	0.0164207
628.453	0.0164625
628.531	0.0165340
628.609	0.0163954
628.687	0.0164550
628.765	0.0164641
628.843	0.0167019
628.921	0.0163704
628.999	0.0163892
629.078	0.0163653
629.156	0.0165708
629.234	0.0165651
629.312	0.0163686
629.390	0.0164194
629.468	0.0165186
629.546	0.0165340
629.624	0.0164055
629.703	0.0163551
629.781	0.0164510
629.859	0.0163925
629.937	0.0165416
630.015	0.0164483
630.093	0.0165183
630.171	0.0165931
630.249	0.0164993
630.328	0.0164292
630.406	0.0164606
630.484	0.0165145
630.562	0.0164187
630.640	0.0164780
630.718	0.0164103
630.796	0.0163820
630.874	0.0165794
630.953	0.0163416
631.031	0.0165259
631.109	0.0163118
631.187	0.0164430
631.265	0.0165591
631.343	0.0164571
631.421	0.0164292
631.499	0.0164018
631.578	0.0163551
631.656	0.0164378
631.734	0.0162996
631.812	0.0162821
631.890	0.0164834
631.968	0.0165613
632.046	0.0163921
632.124	0.0164248
632.203	0.0165249
632.281	0.0164749
632.359	0.0165733
632.437	0.0164374
632.515	0.0163420
632.593	0.0164221
632.671	0.0164581
632.749	0.0164672
632.828	0.0164223
632.906	0.0164988
632.984	0.0164859
633.062	0.0164585
633.140	0.0164761
633.218	0.0165292
633.296	0.0165185
633.374	0.0164506
633.453	0.0165137
633.531	0.0164819
633.609	0.0165434
633.687	0.0164526
633.765	0.0165099
633.843	0.0165230
633.921	0.0163827
633.999	0.0164043
634.078	0.0164518
634.156	0.0165636
634.234	0.0164583
634.312	0.0165623
634.390	0.0165800
634.468	0.0165218
634.546	0.0165562
634.624	0.0164787
634.703	0.0166389
634.781	0.0165458
634.859	0.0165250
634.937	0.0164764
635.015	0.0165713
635.093	0.0166475
635.171	0.0163952
635.249	0.0164717
635.328	0.0165082
635.406	0.0165102
635.484	0.0166226
635.562	0.0165057
635.640	0.0165250
635.718	0.0165345
635.796	0.0164527
635.874	0.0164897
635.953	0.0165934
636.031	0.0163690
636.109	0.0164165
636.187	0.0166078
636.265	0.0165163
636.343	0.0166314
636.421	0.0166301
636.499	0.0163539
636.578	0.0165527
636.656	0.0165404
636.734	0.0165155
636.812	0.0164922
636.890	0.0166090
636.968	0.0165436
637.046	0.0164376
637.124	0.0164175
637.203	0.0163346
637.281	0.0164504
637.359	0.0167299
637.437	0.0165143
637.515	0.0163941
637.593	0.0163716
637.671	0.0165791
637.749	0.0163409
637.828	0.0164082
637.906	0.0164935
637.984	0.0164838
638.062	0.0163955
638.140	0.0164321
638.218	0.0165007
638.296	0.0165199
638.374	0.0165566
638.453	0.0164730
638.531	0.0163346
638.609	0.0164717
638.687	0.0164496
638.765	0.0164016
638.843	0.0165299
638.921	0.0165159
638.999	0.0164664
639.078	0.0165347
639.156	0.0163266
639.234	0.0165380
639.312	0.0164867
639.390	0.0164297
639.468	0.0164683
639.546	0.0165895
639.624	0.0164503
639.703	0.0164303
639.781	0.0164543
639.859	0.0164496
639.937	0.0165508
640.015	0.0164495
640.093	0.0164817
640.171	0.0164273
640.249	0.0165974
640.328	0.0165126
640.406	0.0164954
640.484	0.0165096
640.562	0.0165061
640.640	0.0163935
640.718	0.0164417
640.796	0.0164307
640.874	0.0163593
640.953	0.0163508
641.031	0.0165376
641.109	0.0166827
641.187	0.0165035
641.265	0.0163440
641.343	0.0164416
641.421	0.0165797
641.499	0.0164597
641.578	0.0164935
641.656	0.0165689
641.734	0.0165148
641.812	0.0165379
641.890	0.0164543
641.968	0.0164255
642.046	0.0165437
642.124	0.0164316
642.203	0.0164599
642.281	0.0165915
642.359	0.0164902
642.437	0.0165128
642.515	0.0164174
642.593	0.0166194
642.671	0.0164718
642.749	0.0164583
642.828	0.0163824
642.906	0.0163773
642.984	0.0164220
643.062	0.0164597
643.140	0.0163863
643.218	0.0164100
643.296	0.0164184
643.374	0.0165424
643.453	0.0164872
643.531	0.0164247
643.609	0.0164100
643.687	0.0163862
643.765	0.0164837
643.843	0.0163663
643.921	0.0164750
643.999	0.0165544
644.078	0.0164853
644.156	0.0164586
644.234	0.0164798
644.312	0.0164748
644.390	0.0164266
644.468	0.0164783
644.546	0.0165311
644.624	0.0164883
644.703	0.0163910
644.781	0.0165062
644.859	0.0165292
644.937	0.0164326
645.015	0.0165170
645.093	0.0165333
645.171	0.0164507
645.249	0.0164159
645.328	0.0164052
645.406	0.0163655
645.484	0.0164829
645.562	0.0163955
645.640	0.0164342
645.718	0.0164114
645.796	0.0165316
645.874	0.0163898
645.953	0.0163865
646.031	0.0165351
646.109	0.0165379
646.187	0.0164407
646.265	0.0164503
646.343	0.0163820
646.421	0.0163830
646.499	0.0164056
646.578	0.0163884
646.656	0.0163926
646.734	0.0165926
646.812	0.0164007
646.890	0.0163789
646.968	0.0163386
647.046	0.0164274
647.124	0.0165326
647.203	0.0164243
647.281	0.0164327
647.359	0.0164692
647.437	0.0165292
647.515	0.0164455
647.593	0.0164835
647.671	0.0164608
647.749	0.0165128
647.828	0.0164443
647.906	0.0163139
647.984	0.0164481
648.062	0.0164400
648.140	0.0163647
648.218	0.0164099
648.296	0.0164498
648.374	0.0164883
648.453	0.0164562
648.531	0.0164087
648.609	0.0164527
648.687	0.0163287
648.765	0.0163885
648.843	0.0165166
648.921	0.0163982
648.999	0.0164806
649.078	0.0165420
649.156	0.0165318
649.234	0.0164363
649.312	0.0163945
649.390	0.0163805
649.468	0.0164727
649.546	0.0164027
649.624	0.0164310
649.703	0.0163551
649.781	0.0164875
649.859	0.0164082
649.937	0.0165514
650.015	0.0163330
650.093	0.0164339
650.171	0.0164658
650.249	0.0164585
650.328	0.0165754
650.406	0.0163899
650.484	0.0164024
650.562	0.0163969
650.640	0.0164606
650.718	0.0164252
650.796	0.0164640
650.874	0.0163187
650.953	0.0165031
651.031	0.0163428
651.109	0.0165474
651.187	0.0164835
651.265	0.0164064
651.343	0.0163939
651.421	0.0164878
651.499	0.0164681
651.578	0.0164561
651.656	0.0164033
651.734	0.0164151
651.812	0.0164120
651.890	0.0162844
651.968	0.0164377
652.046	0.0163502
652.124	0.0164498
652.203	0.0163883
652.281	0.0165339
652.359	0.0163316
652.437	0.0163503
652.515	0.0164388
652.593	0.0163622
652.671	0.0166196
652.749	0.0163562
652.828	0.0165195
652.906	0.0164677
652.984	0.0164243
653.062	0.0163867
653.140	0.0165107
653.218	0.0164834
653.296	0.0163960
653.374	0.0163161
653.453	0.0164160
653.531	0.0163976
653.609	0.0164216
653.687	0.0164165
653.765	0.0164187
653.843	0.0163555
653.921	0.0164031
653.999	0.0164439
654.078	0.0164289
654.156	0.0164687
654.234	0.0165288
654.312	0.0164220
654.390	0.0166044
654.468	0.0164334
654.546	0.0164687
654.624	0.0163901
654.703	0.0164462
654.781	0.0164217
654.859	0.0165032
654.937	0.0165259
655.015	0.0162585
655.093	0.0163873
655.171	0.0165993
655.249	0.0165148
655.328	0.0166522
655.406	0.0166007
655.484	0.0165166
655.562	0.0167076
655.640	0.0164182
655.718	0.0165611
655.796	0.0165079
655.874	0.0166203
655.953	0.0165207
656.031	0.0165350
656.109	0.0166162
656.187	0.0165305
656.265	0.0165544
656.343	0.0165602
656.421	0.0165184
656.499	0.0163679
656.578	0.0164906
656.656	0.0165176
656.734	0.0166042
656.812	0.0164865
656.890	0.0165695
656.968	0.0166188
657.046	0.0165579
657.124	0.0163579
657.203	0.0164349
657.281	0.0165274
657.359	0.0165163
657.437	0.0164473
657.515	0.0165466
657.593	0.0165612
657.671	0.0165583
657.749	0.0165366
657.828	0.0165410
657.906	0.0164100
657.984	0.0164124
658.062	0.0164310
658.140	0.0164388
658.218	0.0164858
658.296	0.0165456
658.374	0.0165359
658.453	0.0162752
658.531	0.0164202
658.609	0.0164384
658.687	0.0164565
658.765	0.0165495
658.843	0.0164701
658.921	0.0164618
658.999	0.0165331
659.078	0.0165217
659.156	0.0166086
659.234	0.0164486
659.312	0.0164450
659.390	0.0164959
659.468	0.0164415
659.546	0.0164344
659.624	0.0164742
659.703	0.0164624
659.781	0.0164104
659.859	0.0164022
659.937	0.0164658
660.015	0.0165205
660.093	0.0163631
660.171	0.0166196
660.249	0.0165536
660.328	0.0162440
660.406	0.0165187
660.484	0.0164637
660.562	0.0165210
660.640	0.0165100
660.718	0.0164401
660.796	0.0165289
660.874	0.0165064
660.953	0.0163957
661.031	0.0163260
661.109	0.0164091
661.187	0.0164012
661.265	0.0164014
661.343	0.0164396
661.421	0.0163585
661.499	0.0164274
661.578	0.0164023
661.656	0.0164471
661.734	0.0164873
661.812	0.0164880
661.890	0.0164292
661.968	0.0165340
662.046	0.0164462
662.124	0.0164458
662.203	0.0164020
662.281	0.0163284
662.359	0.0163193
662.437	0.0165824
662.515	0.0164478
662.593	0.0163940
662.671	0.0165093
662.749	0.0164934
662.828	0.0165945
662.906	0.0164088
662.984	0.0164809
663.062	0.0163974
663.140	0.0164300
663.218	0.0164700
663.296	0.0165060
663.374	0.0163253
663.453	0.0164296
663.531	0.0164940
663.609	0.0165754
663.687	0.0164764
663.765	0.0165556
663.843	0.0164423
663.921	0.0164628
663.999	0.0163619
664.078	0.0165146
664.156	0.0164462
664.234	0.0164992
664.312	0.0165060
664.390	0.0164077
664.468	0.0163367
664.546	0.0163609
664.624	0.0165031
664.703	0.0164417
664.781	0.0163678
664.859	0.0164895
664.937	0.0164341
665.015	0.0164607
665.093	0.0163516
665.171	0.0163763
665.249	0.0164912
665.328	0.0163837
665.406	0.0165508
665.484	0.0164897
665.562	0.0164933
665.640	0.0164357
665.718	0.0163553
665.796	0.0164505
665.874	0.0162945
665.953	0.0163483
666.031	0.0164651
666.109	0.0165462
666.187	0.0162859
666.265	0.0164520
666.343	0.0164392
666.421	0.0163809
666.499	0.0163263
666.578	0.0163064
666.656	0.0163626
666.734	0.0164113
666.812	0.0164249
666.890	0.0164482
666.968	0.0165186
667.046	0.0164917
667.124	0.0163183
667.203	0.0164117
667.281	0.0163979
667.359	0.0163986
667.437	0.0164754
667.515	0.0163699
667.593	0.0165063
667.671	0.0165028
667.749	0.0163767
667.828	0.0164446
667.906	0.0164185
667.984	0.0163155
668.062	0.0163837
668.140	0.0164783
668.218	0.0166196
668.296	0.0164124
668.374	0.0164073
668.453	0.0164530
668.531	0.0163369
668.609	0.0165022
668.687	0.0165820
668.765	0.0164178
668.843	0.0164896
668.921	0.0164472
668.999	0.0164330
669.078	0.0165358
669.156	0.0163326
669.234	0.0164194
669.312	0.0164925
669.390	0.0164945
669.468	0.0166687
669.546	0.0163853
669.624	0.0163597
669.703	0.0164194
669.781	0.0164400
669.859	0.0164467
669.937	0.0163006
670.015	0.0164610
670.093	0.0165150
670.171	0.0165112
670.249	0.0163441
670.328	0.0164149
670.406	0.0164473
670.484	0.0164840
670.562	0.0163940
670.640	0.0163956
670.718	0.0165389
670.796	0.0164561
670.874	0.0164807
670.953	0.0164809
671.031	0.0165772
671.109	0.0164970
671.187	0.0164220
671.265	0.0164165
671.343	0.0164450
671.421	0.0165013
671.499	0.0165778
671.578	0.0164877
671.656	0.0163992
671.734	0.0164725
671.812	0.0165829
671.890	0.0164873
671.968	0.0162860
672.046	0.0163379
672.124	0.0163980
672.203	0.0164874
672.281	0.0164066
672.359	0.0164337
672.437	0.0163914
672.515	0.0164334
672.593	0.0163972
672.671	0.0165009
672.749	0.0164122
672.828	0.0165360
672.906	0.0164230
672.984	0.0163699
673.062	0.0162924
673.140	0.0165005
673.218	0.0164987
673.296	0.0164156
673.374	0.0163531
673.453	0.0165253
673.531	0.0163502
673.609	0.0165658
673.687	0.0164577
673.765	0.0163775
673.843	0.0164830
673.921	0.0163667
673.999	0.0163346
674.078	0.0164668
674.156	0.0164598
674.234	0.0165562
674.312	0.0165842
674.390	0.0163480
674.468	0.0164233
674.546	0.0165385
674.624	0.0165337
674.703	0.0163808
674.781	0.0165232
674.859	0.0164486
674.937	0.0164037
675.015	0.0164365
675.093	0.0165657
675.171	0.0165174
675.249	0.0165083
675.328	0.0163574
675.406	0.0164526
675.484	0.0164439
675.562	0.0165860
675.640	0.0164931
675.718	0.0164581
675.796	0.0164724
675.874	0.0164267
675.953	0.0164631
676.031	0.0165990
676.109	0.0163419
676.187	0.0164278
676.265	0.0164050
676.343	0.0164807
676.421	0.0165842
676.499	0.0163629
676.578	0.0164546
676.656	0.0164529
676.734	0.0164096
676.812	0.0164719
676.890	0.0162917
676.968	0.0163499
677.046	0.0164355
677.124	0.0164661
677.203	0.0164494
677.281	0.0163081
677.359	0.0164314
677.437	0.0164931
677.515	0.0164075
677.593	0.0164352
677.671	0.0164757
677.749	0.0163522
677.828	0.0165006
677.906	0.0165356
677.984	0.0163620
678.062	0.0163569
678.140	0.0162668
678.218	0.0163020
678.296	0.0165332
678.374	0.0163633
678.453	0.0164790
678.531	0.0163586
678.609	0.0163146
678.687	0.0164225
678.765	0.0162875
678.843	0.0162867
678.921	0.0164659
678.999	0.0164689
679.078	0.0164520
679.156	0.0163859
679.234	0.0165022
679.312	0.0164199
679.390	0.0164375
679.468	0.0162915
679.546	0.0164706
679.624	0.0164574
679.703	0.0163535
679.781	0.0163358
679.859	0.0164531
679.937	0.0164905
680.015	0.0163725
680.093	0.0164781
680.171	0.0164152
680.249	0.0165111
680.328	0.0164751
680.406	0.0164351
680.484	0.0164398
680.562	0.0162627
680.640	0.0163530
680.718	0.0163291
680.796	0.0164290
680.874	0.0164050
680.953	0.0163997
681.031	0.0163481
681.109	0.0163838
681.187	0.0164095
681.265	0.0164757
681.343	0.0163322
681.421	0.0165387
681.499	0.0165378
681.578	0.0164236
681.656	0.0163550
681.734	0.0162701
681.812	0.0163007
681.890	0.0164257
681.968	0.0164796
682.046	0.0163580
682.124	0.0162862
682.203	0.0162967
682.281	0.0164159
682.359	0.0164205
682.437	0.0165324
682.515	0.0164396
682.593	0.0163445
682.671	0.0164304
682.749	0.0165343
682.828	0.0164398
682.906	0.0164311
682.984	0.0164243
683.062	0.0162732
683.140	0.0164353
683.218	0.0165652
683.296	0.0163650
683.374	0.0162853
683.453	0.0164911
683.531	0.0164001
683.609	0.0164348
683.687	0.0164099
683.765	0.0163573
683.843	0.0163875
683.921	0.0164176
683.999	0.0163725
684.078	0.0164355
684.156	0.0164127
684.234	0.0164407
684.312	0.0164877
684.390	0.0164091
684.468	0.0165004
684.546	0.0163940
684.624	0.0162959
684.703	0.0163689
684.781	0.0163646
684.859	0.0164178
684.937	0.0164243
685.015	0.0164271
685.093	0.0163770
685.171	0.0163933
685.249	0.0164420
685.328	0.0163474
685.406	0.0164764
685.484	0.0164074
685.562	0.0164429
685.640	0.0164023
685.718	0.0164347
685.796	0.0163998
685.874	0.0164079
685.953	0.0164337
686.031	0.0165740
686.109	0.0163825
686.187	0.0162671
686.265	0.0162801
686.343	0.0164057
686.421	0.0165054
686.499	0.0164281
686.578	0.0164671
686.656	0.0164027
686.734	0.0164242
686.812	0.0164246
686.890	0.0165032
686.968	0.0164172
687.046	0.0164622
687.124	0.0164151
687.203	0.0165205
687.281	0.0165085
687.359	0.0163528
687.437	0.0165166
687.515	0.0164759
687.593	0.0163733
687.671	0.0164014
687.749	0.0165126
687.828	0.0164338
687.906	0.0164459
687.984	0.0163666
688.062	0.0163988
688.140	0.0163828
688.218	0.0162316
688.296	0.0164156
688.374	0.0163696
688.453	0.0163212
688.531	0.0164281
688.609	0.0163804
688.687	0.0165150
688.765	0.0164455
688.843	0.0164824
688.921	0.0163804
688.999	0.0164495
689.078	0.0164077
689.156	0.0164047
689.234	0.0163874
689.312	0.0164830
689.390	0.0164273
689.468	0.0163744
689.546	0.0163940
689.624	0.0163528
689.703	0.0164169
689.781	0.0164430
689.859	0.0163542
689.937	0.0165292
690.015	0.0164178
690.093	0.0164058
690.171	0.0165044
690.249	0.0164138
690.328	0.0163812
690.406	0.0163998
690.484	0.0164543
690.562	0.0164765
690.640	0.0164485
690.718	0.0164491
690.796	0.0165611
690.874	0.0165239
690.953	0.0162350
691.031	0.0164925
691.109	0.0165094
691.187	0.0164268
691.265	0.0164223
691.343	0.0163960
691.421	0.0163867
691.499	0.0164729
691.578	0.0165234
691.656	0.0164554
691.734	0.0163604
691.812	0.0163270
691.890	0.0163637
691.968	0.0163383
692.046	0.0163056
692.124	0.0164578
692.203	0.0165489
692.281	0.0164285
692.359	0.0162634
692.437	0.0163780
692.515	0.0162688
692.593	0.0163915
692.671	0.0164128
692.749	0.0164291
692.828	0.0164937
692.906	0.0163862
692.984	0.0163108
693.062	0.0164299
693.140	0.0164561
693.218	0.0164897
693.296	0.0163081
693.374	0.0163653
693.453	0.0163725
693.531	0.0164442
693.609	0.0164706
693.687	0.0164272
693.765	0.0164962
693.843	0.0164137
693.921	0.0165191
693.999	0.0164555
694.078	0.0165171
694.156	0.0165188
694.234	0.0165338
694.312	0.0165489
694.390	0.0165235
694.468	0.0166582
694.546	0.0164928
694.624	0.0164346
694.703	0.0165376
694.781	0.0165000
694.859	0.0165112
694.937	0.0165382
695.015	0.0163836
695.093	0.0164909
695.171	0.0163696
695.249	0.0164360
695.328	0.0165372
695.406	0.0164782
695.484	0.0165472
695.562	0.0164591
695.640	0.0164485
695.718	0.0164807
695.796	0.0163364
695.874	0.0163221
695.953	0.0163930
696.031	0.0163531
696.109	0.0163809
696.187	0.0162724
696.265	0.0164445
696.343	0.0163477
696.421	0.0165611
696.499	0.0164816
696.578	0.0164518
696.656	0.0164439
696.734	0.0164270
696.812	0.0162807
696.890	0.0165850
696.968	0.0163892
697.046	0.0164053
697.124	0.0164751
697.203	0.0165736
697.281	0.0165680
697.359	0.0164903
697.437	0.0164065
697.515	0.0163988
697.593	0.0165459
697.671	0.0164779
697.749	0.0164469
697.828	0.0166541
697.906	0.0164207
697.984	0.0164123
698.062	0.0164091
698.140	0.0165437
698.218	0.0164677
698.296	0.0165056
698.374	0.0165279
698.453	0.0164300
698.531	0.0164764
698.609	0.0166055
698.687	0.0165339
698.765	0.0163594
698.843	0.0164824
698.921	0.0165499
698.999	0.0164424
699.078	0.0164977
699.156	0.0165572
699.234	0.0165830
699.312	0.0164605
699.390	0.0165364
699.468	0.0165335
699.546	0.0163963
699.624	0.0164052
699.703	0.0165370
699.781	0.0164828
699.859	0.0163461
699.937	0.0163317
700.015	0.0162452
700.093	0.0164396
700.171	0.0164060
700.249	0.0163421
700.328	0.0163528
700.406	0.0164557
700.484	0.0164249
700.562	0.0163667
700.640	0.0164019
700.718	0.0164203
700.796	0.0163672
700.874	0.0163608
700.953	0.0164739
701.031	0.0164987
701.109	0.0164390
701.187	0.0163930
701.265	0.0163615
701.343	0.0163498
701.421	0.0164759
701.499	0.0165118
701.578	0.0163734
701.656	0.0163967
701.734	0.0165130
701.812	0.0164218
701.890	0.0163328
701.968	0.0166133
702.046	0.0164874
702.124	0.0163624
702.203	0.0163807
702.281	0.0163581
702.359	0.0164274
702.437	0.0164838
702.515	0.0165073
702.593	0.0165443
702.671	0.0164799
702.749	0.0163909
702.828	0.0164968
702.906	0.0164233
702.984	0.0165921
703.062	0.0164467
703.140	0.0165746
703.218	0.0165208
703.296	0.0164463
703.374	0.0164498
703.453	0.0163985
703.531	0.0164420
703.609	0.0164146
703.687	0.0163956
703.765	0.0165298
703.843	0.0165058
703.921	0.0163026
703.999	0.0164461
704.078	0.0164639
704.156	0.0163609
704.234	0.0164082
704.312	0.0163303
704.390	0.0164240
704.468	0.0164764
704.546	0.0161448
704.624	0.0162942
704.703	0.0164330
704.781	0.0164493
704.859	0.0163316
704.937	0.0164252
705.015	0.0165273
705.093	0.0163069
705.171	0.0164850
705.249	0.0164843
705.328	0.0163785
705.406	0.0164257
705.484	0.0164651
705.562	0.0163939
705.640	0.0162406
705.718	0.0163482
705.796	0.0165409
705.874	0.0164621
705.953	0.0164897
706.031	0.0163232
706.109	0.0163403
706.187	0.0163097
706.265	0.0164263
706.343	0.0163713
706.421	0.0164562
706.499	0.0163754
706.578	0.0163797
706.656	0.0162891
706.734	0.0164915
706.812	0.0163371
706.890	0.0163477
706.968	0.0164542
707.046	0.0164083
707.124	0.0163589
707.203	0.0162531
707.281	0.0163333
707.359	0.0165446
707.437	0.0164392
707.515	0.0162788
707.593	0.0163187
707.671	0.0162337
707.749	0.0164130
707.828	0.0163129
707.906	0.0164536
707.984	0.0164428
708.062	0.0163789
708.140	0.0164704
708.218	0.0163248
708.296	0.0164209
708.374	0.0164252
708.453	0.0163017
708.531	0.0163517
708.609	0.0163309
708.687	0.0164160
708.765	0.0164632
708.843	0.0163586
708.921	0.0162066
708.999	0.0164073
709.078	0.0163732
709.156	0.0164242
709.234	0.0163857
709.312	0.0161819
709.390	0.0162148
709.468	0.0162563
709.546	0.0164340
709.624	0.0163320
709.703	0.0163445
709.781	0.0164651
709.859	0.0164124
709.937	0.0163003
710.015	0.0164812
710.093	0.0164117
710.171	0.0164970
710.249	0.0163351
710.328	0.0163554
710.406	0.0164433
710.484	0.0165143
710.562	0.0164940
710.640	0.0163982
710.718	0.0165075
710.796	0.0164983
710.874	0.0163263
710.953	0.0165225
711.031	0.0165176
711.109	0.0164083
711.187	0.0163961
711.265	0.0163560
711.343	0.0163045
711.421	0.0162188
711.499	0.0161671
711.578	0.0161175
711.656	0.0164028
711.734	0.0163188
711.812	0.0162764
711.890	0.0162247
711.968	0.0164099
712.046	0.0163512
712.124	0.0164304
712.203	0.0164298
712.281	0.0164496
712.359	0.0164288
712.437	0.0163683
712.515	0.0163986
712.593	0.0164620
712.671	0.0164315
712.749	0.0164996
712.828	0.0164542
712.906	0.0165147
712.984	0.0164040
713.062	0.0165594
713.140	0.0166415
713.218	0.0165729
713.296	0.0167137
713.374	0.0167511
713.453	0.0166682
713.531	0.0166356
713.609	0.0166039
713.687	0.0165754
713.765	0.0164157
713.843	0.0166581
713.921	0.0165334
713.999	0.0164806
714.078	0.0164709
714.156	0.0163700
714.234	0.0164187
714.312	0.0164098
714.390	0.0164032
714.468	0.0164596
714.546	0.0165054
714.624	0.0164474
714.703	0.0165056
714.781	0.0165469
714.859	0.0163995
714.937	0.0164613
715.015	0.0164949
715.093	0.0164096
715.171	0.0163662
715.249	0.0162032
715.328	0.0162875
715.406	0.0161658
715.484	0.0163293
715.562	0.0162480
715.640	0.0161800
715.718	0.0163353
715.796	0.0164666
715.874	0.0163068
715.953	0.0163345
716.031	0.0164888
716.109	0.0163739
716.187	0.0163821
716.265	0.0165402
716.343	0.0163923
716.421	0.0164734
716.499	0.0166710
716.578	0.0165914
716.656	0.0165500
716.734	0.0164545
716.812	0.0167031
716.890	0.0167627
716.968	0.0167856
717.046	0.0167437
717.124	0.0167754
717.203	0.0167278
717.281	0.0168019
717.359	0.0168262
717.437	0.0169587
717.515	0.0168440
717.593	0.0169684
717.671	0.0170040
717.749	0.0170152
717.828	0.0169743
717.906	0.0168709
717.984	0.0168646
718.062	0.0167865
718.140	0.0166531
718.218	0.0163901
718.296	0.0163586
718.374	0.0161229
718.453	0.0160027
718.531	0.0159509
718.609	0.0158776
718.687	0.0155557
718.765	0.0155818
718.843	0.0156281
718.921	0.0156074
718.999	0.0155422
719.078	0.0155853
719.156	0.0158132
719.234	0.0157796
719.312	0.0159221
719.390	0.0159438
719.468	0.0162325
719.546	0.0164163
719.624	0.0165716
719.703	0.0164983
719.781	0.0167822
719.859	0.0170055
719.937	0.0170798
720.015	0.0171938
720.093	0.0171597
720.171	0.0171126
720.249	0.0171495
720.328	0.0171930
720.406	0.0171699
720.484	0.0172291
720.562	0.0171175
720.640	0.0170763
720.718	0.0169920
720.796	0.0170445
720.874	0.0168086
720.953	0.0166617
721.031	0.0166083
721.109	0.0164880
721.187	0.0163967
721.265	0.0163162
721.343	0.0162160
721.421	0.0161616
721.499	0.0159912
721.578	0.0160006
721.656	0.0160640
721.734	0.0160044
721.812	0.0160776
721.890	0.0158821
721.968	0.0160092
722.046	0.0160043
722.124	0.0160419
722.203	0.0160917
722.281	0.0160645
722.359	0.0162679
722.437	0.0162270
722.515	0.0161304
722.593	0.0159819
722.671	0.0160366
722.749	0.0159575
722.828	0.0160292
722.906	0.0159273
722.984	0.0159029
723.062	0.0161190
723.140	0.0159442
723.218	0.0159267
723.296	0.0159836
723.374	0.0159563
723.453	0.0160067
723.531	0.0160992
723.609	0.0162918
723.687	0.0163502
723.765	0.0162862
723.843	0.0165253
723.921	0.0166295
723.999	0.0166781
724.078	0.0167752
724.156	0.0169176
724.234	0.0170530
724.312	0.0170726
724.390	0.0171535
724.468	0.0171230
724.546	0.0172569
724.624	0.0173513
724.703	0.0171569
724.781	0.0172195
724.859	0.0171735
724.937	0.0171631
725.015	0.0170475
725.093	0.0168877
725.171	0.0166682
725.249	0.0165627
725.328	0.0164101
725.406	0.0163303
725.484	0.0161320
725.562	0.0159325
725.640	0.0159929
725.718	0.0157695
725.796	0.0156725
725.874	0.0156508
725.953	0.0155978
726.031	0.0155901
726.109	0.0157821
726.187	0.0157480
726.265	0.0157516
726.343	0.0158331
726.421	0.0158359
726.499	0.0160822
726.578	0.0161614
726.656	0.0162134
726.734	0.0162302
726.812	0.0164574
726.890	0.0166376
726.968	0.0165076
727.046	0.0164905
727.124	0.0165804
727.203	0.0166193
727.281	0.0166473
727.359	0.0167306
727.437	0.0166983
727.515	0.0166647
727.593	0.0166707
727.671	0.0165025
727.749	0.0165769
727.828	0.0164281
727.906	0.0164339
727.984	0.0166264
728.062	0.0164359
728.140	0.0163794
728.218	0.0164641
728.296	0.0164504
728.374	0.0164605
728.453	0.0163044
728.531	0.0163708
728.609	0.0161804
728.687	0.0164155
728.765	0.0163571
728.843	0.0165073
728.921	0.0165603
728.999	0.0163900
729.078	0.0164510
729.156	0.0165154
729.234	0.0165692
729.312	0.0164964
729.390	0.0167409
729.468	0.0166581
729.546	0.0165316
729.624	0.0166241
729.703	0.0168076
729.781	0.0166126
729.859	0.0165797
729.937	0.0166402
730.015	0.0164094
730.093	0.0165341
730.171	0.0165280
730.249	0.0164861
730.328	0.0164593
730.406	0.0164247
730.484	0.0163503
730.562	0.0163527
730.640	0.0163774
730.718	0.0163933
730.796	0.0162948
730.874	0.0164310
730.953	0.0165363
731.031	0.0165722
731.109	0.0167863
731.187	0.0167953
731.265	0.0166946
731.343	0.0167297
731.421	0.0168426
731.499	0.0168894
731.578	0.0168066
731.656	0.0168938
731.734	0.0169524
731.812	0.0168609
731.890	0.0167929
731.968	0.0167577
732.046	0.0167240
732.124	0.0167154
732.203	0.0165733
732.281	0.0166544
732.359	0.0166429
732.437	0.0165189
732.515	0.0165050
732.593	0.0163823
732.671	0.0164016
732.749	0.0162364
732.828	0.0161805
732.906	0.0160964
732.984	0.0160640
733.062	0.0161565
733.140	0.0160646
733.218	0.0160806
733.296	0.0160867
733.374	0.0161470
733.453	0.0160444
733.531	0.0161960
733.609	0.0161430
733.687	0.0161557
733.765	0.0163698
733.843	0.0165118
733.921	0.0164731
733.999	0.0164750
734.078	0.0166532
734.156	0.0166432
734.234	0.0168549
734.312	0.0169054
734.390	0.0169685
734.468	0.0170425
734.546	0.0172557
734.624	0.0171777
734.703	0.0171511
734.781	0.0172504
734.859	0.0172359
734.937	0.0171056
735.015	0.0172321
735.093	0.0171156
735.171	0.0170292
735.249	0.0169083
735.328	0.0166704
735.406	0.0166491
735.484	0.0165187
735.562	0.0165228
735.640	0.0162256
735.718	0.0161933
735.796	0.0159836
735.874	0.0160146
735.953	0.0158797
736.031	0.0159563
736.109	0.0159546
736.187	0.0157713
736.265	0.0157084
736.343	0.0159834
736.421	0.0159180
736.499	0.0160985
736.578	0.0163159
736.656	0.0162220
736.734	0.0162104
736.812	0.0163195
736.890	0.0164247
736.968	0.0164715
737.046	0.0167332
737.124	0.0165530
737.203	0.0166666
737.281	0.0167908
737.359	0.0165588
737.437	0.0166705
737.515	0.0166532
737.593	0.0166845
737.671	0.0165236
737.749	0.0165306
737.828	0.0164852
737.906	0.0163248
737.984	0.0164957
738.062	0.0163628
738.140	0.0164507
738.218	0.0164746
738.296	0.0163392
738.374	0.0162493
738.453	0.0163496
738.531	0.0163527
738.609	0.0164947
738.687	0.0166088
738.765	0.0165262
738.843	0.0165990
738.921	0.0164352
738.999	0.0166210
739.078	0.0167400
739.156	0.0166827
739.234	0.0165775
739.312	0.0168119
739.390	0.0167206
739.468	0.0166939
739.546	0.0168256
739.624	0.0168646
739.703	0.0168280
739.781	0.0166703
739.859	0.0166921
739.937	0.0168423
740.015	0.0165679
740.093	0.0166501
740.171	0.0165991
740.249	0.0164943
740.328	0.0164165
740.406	0.0162931
740.484	0.0163168
740.562	0.0162369
740.640	0.0162755
740.718	0.0163267
740.796	0.0161381
740.874	0.0162275
740.953	0.0162424
741.031	0.0162794
741.109	0.0162523
741.187	0.0164358
741.265	0.0163944
741.343	0.0165325
741.421	0.0164577
741.499	0.0164511
741.578	0.0166022
741.656	0.0164960
741.734	0.0164900
741.812	0.0165540
741.890	0.0165048
741.968	0.0165504
742.046	0.0163468
742.124	0.0164032
742.203	0.0164660
742.281	0.0164482
742.359	0.0164074
742.437	0.0163761
742.515	0.0165403
742.593	0.0164033
742.671	0.0163201
742.749	0.0164749
742.828	0.0163991
742.906	0.0163290
742.984	0.0164359
743.062	0.0164693
743.140	0.0164507
743.218	0.0164227
743.296	0.0164366
743.374	0.0164658
743.453	0.0164688
743.531	0.0165971
743.609	0.0165091
743.687	0.0164173
743.765	0.0163976
743.843	0.0165324
743.921	0.0163551
743.999	0.0163355
744.078	0.0165859
744.156	0.0164529
744.234	0.0165684
744.312	0.0163699
744.390	0.0163221
744.468	0.0163882
744.546	0.0165498
744.624	0.0163679
744.703	0.0163203
744.781	0.0163293
744.859	0.0163566
744.937	0.0164182
745.015	0.0163522
745.093	0.0163182
745.171	0.0165353
745.249	0.0163639
745.328	0.0164168
745.406	0.0164336
745.484	0.0163577
745.562	0.0163999
745.640	0.0165405
745.718	0.0164088
745.796	0.0164825
745.874	0.0164923
745.953	0.0164775
746.031	0.0165075
746.109	0.0163536
746.187	0.0164026
746.265	0.0163745
746.343	0.0164767
746.421	0.0164427
746.499	0.0164306
746.578	0.0163096
746.656	0.0163689
746.734	0.0165152
746.812	0.0164912
746.890	0.0164365
746.968	0.0164514
747.046	0.0164526
747.124	0.0165749
747.203	0.0166380
747.281	0.0166157
747.359	0.0163978
747.437	0.0165805
747.515	0.0165918
747.593	0.0165515
747.671	0.0165652
747.749	0.0165668
747.828	0.0163721
747.906	0.0163359
747.984	0.0164040
748.062	0.0164943
748.140	0.0163905
748.218	0.0163689
748.296	0.0163641
748.374	0.0162828
748.453	0.0161923
748.531	0.0163023
748.609	0.0163043
748.687	0.0162915
748.765	0.0162629
748.843	0.0164023
748.921	0.0163680
748.999	0.0164410
749.078	0.0163982
749.156	0.0163422
749.234	0.0165108
749.312	0.0164733
749.390	0.0164836
749.468	0.0166441
749.546	0.0164636
749.624	0.0165440
749.703	0.0166421
749.781	0.0166611
749.859	0.0167973
749.937	0.0168137
750.015	0.0165801
750.093	0.0165400
750.171	0.0166199
750.249	0.0168917
750.328	0.0167785
750.406	0.0165347
750.484	0.0167466
750.562	0.0168027
750.640	0.0166499
750.718	0.0165287
750.796	0.0164959
750.874	0.0166813
750.953	0.0164949
751.031	0.0165581
751.109	0.0166086
751.187	0.0164277
751.265	0.0164996
751.343	0.0165043
751.421	0.0164275
751.499	0.0163618
751.578	0.0163988
751.656	0.0163706
751.734	0.0164375
751.812	0.0163801
751.890	0.0164279
751.968	0.0164078
752.046	0.0161420
752.124	0.0163201
752.203	0.0161382
752.281	0.0162563
752.359	0.0164500
752.437	0.0163333
752.515	0.0161998
752.593	0.0161613
752.671	0.0164120
752.749	0.0163441
752.828	0.0162717
752.906	0.0162130
752.984	0.0162995
753.062	0.0164116
753.140	0.0164865
753.218	0.0165022
753.296	0.0164320
753.374	0.0165229
753.453	0.0166262
753.531	0.0165181
753.609	0.0165454
753.687	0.0165340
753.765	0.0165816
753.843	0.0167071
753.921	0.0166220
753.999	0.0165319
754.078	0.0167143
754.156	0.0166645
754.234	0.0166604
754.312	0.0165549
754.390	0.0166498
754.468	0.0167380
754.546	0.0166351
754.624	0.0165450
754.703	0.0166512
754.781	0.0166522
754.859	0.0165849
754.937	0.0166320
755.015	0.0165945
755.093	0.0166762
755.171	0.0166769
755.249	0.0164804
755.328	0.0166016
755.406	0.0165627
755.484	0.0163883
755.562	0.0166197
755.640	0.0164522
755.718	0.0165268
755.796	0.0165523
755.874	0.0165434
755.953	0.0164362
756.031	0.0162651
756.109	0.0162458
756.187	0.0163596
756.265	0.0161624
756.343	0.0162023
756.421	0.0162594
756.499	0.0161905
756.578	0.0161102
756.656	0.0162573
756.734	0.0161810
756.812	0.0163047
756.890	0.0161015
756.968	0.0163725
757.046	0.0164101
757.124	0.0163224
757.203	0.0163825
757.281	0.0164242
757.359	0.0165810
757.437	0.0166350
757.515	0.0165823
757.593	0.0166747
757.671	0.0166496
757.749	0.0166935
757.828	0.0168227
757.906	0.0167406
757.984	0.0167544
758.062	0.0167329
758.140	0.0167303
758.218	0.0167706
758.296	0.0166637
758.374	0.0166533
758.453	0.0166722
758.531	0.0165203
758.609	0.0165237
758.687	0.0164474
758.765	0.0164215
758.843	0.0162663
758.921	0.0161860
758.999	0.0162646
759.078	0.0162204
759.156	0.0160663
759.234	0.0159578
759.312	0.0159874
759.390	0.0161741
759.468	0.0160681
759.546	0.0160812
759.624	0.0162563
759.703	0.0163779
759.781	0.0164517
759.859	0.0164817
759.937	0.0165760
760.015	0.0166592
760.093	0.0165266
760.171	0.0167286
760.249	0.0165965
760.328	0.0167468
760.406	0.0167359
760.484	0.0166813
760.562	0.0168353
760.640	0.0166653
760.718	0.0167223
760.796	0.0165585
760.874	0.0166487
760.953	0.0168215
761.031	0.0167151
761.109	0.0166026
761.187	0.0164048
761.265	0.0163742
761.343	0.0164467
761.421	0.0163885
761.499	0.0163290
761.578	0.0164223
761.656	0.0162894
761.734	0.0164360
761.812	0.0163890
761.890	0.0163756
761.968	0.0162952
762.046	0.0163810
762.124	0.0165042
762.203	0.0165527
762.281	0.0166132
762.359	0.0165852
762.437	0.0167002
762.515	0.0167474
762.593	0.0169157
762.671	0.0169846
762.749	0.0168961
762.828	0.0169374
762.906	0.0170837
762.984	0.0171733
763.062	0.0171248
763.140	0.0171200
763.218	0.0170480
763.296	0.0169562
763.374	0.0168633
763.453	0.0167329
763.531	0.0165422
763.609	0.0164268
763.687	0.0164391
763.765	0.0161558
763.843	0.0161024
763.921	0.0158178
763.999	0.0156702
764.078	0.0157350
764.156	0.0157134
764.234	0.0155945
764.312	0.0156828
764.390	0.0156581
764.468	0.0156884
764.546	0.0156615
764.624	0.0157606
764.703	0.0159319
764.781	0.0160210
764.859	0.0160172
764.937	0.0161124
765.015	0.0162254
765.093	0.0161680
765.171	0.0162439
765.249	0.0164374
765.328	0.0163707
765.406	0.0165068
765.484	0.0166251
765.562	0.0166767
765.640	0.0168374
765.718	0.0168319
765.796	0.0170876
765.874	0.0171690
765.953	0.0170995
766.031	0.0173327
766.109	0.0172882
766.187	0.0172187
766.265	0.0169921
766.343	0.0169195
766.421	0.0169049
766.499	0.0169587
766.578	0.0168044
766.656	0.0166771
766.734	0.0164914
766.812	0.0163676
766.890	0.0161518
766.968	0.0160490
767.046	0.0161459
767.124	0.0160679
767.203	0.0160520
767.281	0.0158038
767.359	0.0159118
767.437	0.0158711
767.515	0.0159451
767.593	0.0159888
767.671	0.0160369
767.749	0.0159838
767.828	0.0160976
767.906	0.0161370
767.984	0.0161572
768.062	0.0163748
768.140	0.0164403
768.218	0.0164515
768.296	0.0164622
768.374	0.0164889
768.453	0.0164368
768.531	0.0167445
768.609	0.0166970
768.687	0.0168267
768.765	0.0168152
768.843	0.0166463
768.921	0.0165591
768.999	0.0166045
769.078	0.0164510
769.156	0.0164737
769.234	0.0164239
769.312	0.0163396
769.390	0.0163156
769.468	0.0163295
769.546	0.0161817
769.624	0.0162768
769.703	0.0162645
769.781	0.0162939
769.859	0.0163935
769.937	0.0163316
770.015	0.0164936
770.093	0.0165866
770.171	0.0165450
770.249	0.0167080
770.328	0.0170166
770.406	0.0170432
770.484	0.0171470
770.562	0.0172134
770.640	0.0173782
770.718	0.0172748
770.796	0.0174370
770.874	0.0174703
770.953	0.0173850
771.031	0.0174242
771.109	0.0173475
771.187	0.0170892
771.265	0.0170322
771.343	0.0168277
771.421	0.0165610
771.499	0.0164169
771.578	0.0163023
771.656	0.0161594
771.734	0.0160014
771.812	0.0158026
771.890	0.0156555
771.968	0.0155753
772.046	0.0154943
772.124	0.0153516
772.203	0.0152438
772.281	0.0151241
772.359	0.0151420
772.437	0.0151652
772.515	0.0151302
772.593	0.0152713
772.671	0.0153163
772.749	0.0155101
772.828	0.0155458
772.906	0.0158052
772.984	0.0159309
773.062	0.0161370
773.140	0.0161744
773.218	0.0165642
773.296	0.0167350
773.374	0.0168187
773.453	0.0169660
773.531	0.0171381
773.609	0.0172202
773.687	0.0172543
773.765	0.0173598
773.843	0.0174494
773.921	0.0175030
773.999	0.0175665
774.078	0.0176881
774.156	0.0174741
774.234	0.0173822
774.312	0.0173878
774.390	0.0172011
774.468	0.0171790
774.546	0.0170105
774.624	0.0167979
774.703	0.0167318
774.781	0.0168855
774.859	0.0166065
774.937	0.0164079
775.015	0.0164278
775.093	0.0163136
775.171	0.0162980
775.249	0.0163959
775.328	0.0162818
775.406	0.0161166
775.484	0.0160777
775.562	0.0160435
775.640	0.0159706
775.718	0.0159255
775.796	0.0159167
775.874	0.0158936
775.953	0.0157407
776.031	0.0158247
776.109	0.0157803
776.187	0.0157729
776.265	0.0156729
776.343	0.0157404
776.421	0.0157829
776.499	0.0157533
776.578	0.0159027
776.656	0.0159572
776.734	0.0159332
776.812	0.0160574
776.890	0.0159584
776.968	0.0161749
777.046	0.0163393
777.124	0.0162646
777.203	0.0164104
777.281	0.0164239
777.359	0.0163761
777.437	0.0164985
777.515	0.0164230
777.593	0.0166461
777.671	0.0166019
777.749	0.0165745
777.828	0.0167060
777.906	0.0168169
777.984	0.0169659
778.062	0.0171783
778.140	0.0172651
778.218	0.0172294
778.296	0.0173653
778.374	0.0176460
778.453	0.0177119
778.531	0.0178387
778.609	0.0178752
778.687	0.0177209
778.765	0.0177463
778.843	0.0175275
778.921	0.0175031
778.999	0.0173907
779.078	0.0171827
779.156	0.0168636
779.234	0.0166598
779.312	0.0164984
779.390	0.0160834
779.468	0.0158090
779.546	0.0155604
779.624	0.0153963
779.703	0.0149940
779.781	0.0149166
779.859	0.0148353
779.937	0.0146513
780.015	0.0145598
780.093	0.0148074
780.171	0.0146407
780.249	0.0147850
780.328	0.0147775
780.406	0.0151885
780.484	0.0152319
780.562	0.0153365
780.640	0.0155750
780.718	0.0156474
780.796	0.0157359
780.874	0.0158951
780.953	0.0160519
781.031	0.0161489
781.109	0.0164822
781.187	0.0165901
781.265	0.0167684
781.343	0.0169322
781.421	0.0172215
781.499	0.0174973
781.578	0.0177125
781.656	0.0178553
781.734	0.0180740
781.812	0.0181619
781.890	0.0182825
781.968	0.0184254
782.046	0.0182650
782.124	0.0183674
782.203	0.0181401
782.281	0.0178899
782.359	0.0176850
782.437	0.0176630
782.515	0.0174091
782.593	0.0171017
782.671	0.0169845
782.749	0.0167107
782.828	0.0165746
782.906	0.0162815
782.984	0.0161260
783.062	0.0161164
783.140	0.0159779
783.218	0.0158860
783.296	0.0158350
783.374	0.0157204
783.453	0.0154701
783.531	0.0155510
783.609	0.0156538
783.687	0.0156886
783.765	0.0154922
783.843	0.0154762
783.921	0.0153625
783.999	0.0152264
784.078	0.0151406
784.156	0.0149796
784.234	0.0151292
784.312	0.0150429
784.390	0.0150338
784.468	0.0152247
784.546	0.0151028
784.624	0.0151048
784.703	0.0153736
784.781	0.0154796
784.859	0.0156359
784.937	0.0157665
785.015	0.0159087
785.093	0.0162087
785.171	0.0163264
785.249	0.0167151
785.328	0.0170312
785.406	0.0170812
785.484	0.0173380
785.562	0.0175026
785.640	0.0175820
785.718	0.0178469
785.796	0.0179278
785.874	0.0179543
785.953	0.0178461
786.031	0.0177905
786.109	0.0176319
786.187	0.0177269
786.265	0.0175975
786.343	0.0175166
786.421	0.0174851
786.499	0.0172937
786.578	0.0172346
786.656	0.0172274
786.734	0.0170091
786.812	0.0168607
786.890	0.0168054
786.968	0.0167164
787.046	0.0164069
787.124	0.0164424
787.203	0.0162179
787.281	0.0161459
787.359	0.0159788
787.437	0.0159212
787.515	0.0160201
787.593	0.0159277
787.671	0.0158688
787.749	0.0160033
787.828	0.0158519
787.906	0.0159781
787.984	0.0160060
788.062	0.0158421
788.140	0.0158823
788.218	0.0158759
788.296	0.0156551
788.374	0.0156776
788.453	0.0156247
788.531	0.0155325
788.609	0.0155638
788.687	0.0157304
788.765	0.0157227
788.843	0.0158324
788.921	0.0158121
788.999	0.0159773
789.078	0.0160421
789.156	0.0163524
789.234	0.0164310
789.312	0.0165738
789.390	0.0167669
789.468	0.0168985
789.546	0.0169704
789.624	0.0170348
789.703	0.0170641
789.781	0.0171629
789.859	0.0170882
789.937	0.0171072
790.015	0.0171038
790.093	0.0171525
790.171	0.0170354
790.249	0.0169349
790.328	0.0167375
790.406	0.0167123
790.484	0.0166887
790.562	0.0165070
790.640	0.0165596
790.718	0.0165010
790.796	0.0163961
790.874	0.0163528
790.953	0.0164398
791.031	0.0164639
791.109	0.0164685
791.187	0.0164507
791.265	0.0164118
791.343	0.0165144
791.421	0.0166483
791.499	0.0164944
791.578	0.0165681
791.656	0.0166175
791.734	0.0166205
791.812	0.0165083
791.890	0.0164329
791.968	0.0163427
792.046	0.0162464
792.124	0.0162766
792.203	0.0163338
792.281	0.0163966
792.359	0.0161010
792.437	0.0162233
792.515	0.0162028
792.593	0.0162162
792.671	0.0163148
792.749	0.0163477
792.828	0.0163911
792.906	0.0165387
792.984	0.0164210
793.062	0.0165121
793.140	0.0165990
793.218	0.0166373
793.296	0.0167677
793.374	0.0170472
793.453	0.0170882
793.531	0.0169413
793.609	0.0171783
793.687	0.0171545
793.765	0.0170982
793.843	0.0172584
793.921	0.0172259
793.999	0.0172943
794.078	0.0172413
794.156	0.0170985
794.234	0.0170546
794.312	0.0170381
794.390	0.0168534
794.468	0.0167647
794.546	0.0165872
794.624	0.0163866
794.703	0.0162135
794.781	0.0160386
794.859	0.0158834
794.937	0.0159758
795.015	0.0158813
795.093	0.0156342
795.171	0.0157667
795.249	0.0158741
795.328	0.0157648
795.406	0.0158511
795.484	0.0159374
795.562	0.0158450
795.640	0.0158641
795.718	0.0159222
795.796	0.0161028
795.874	0.0160297
795.953	0.0160935
796.031	0.0161776
796.109	0.0160192
796.187	0.0159868
796.265	0.0160420
796.343	0.0161608
796.421	0.0161662
796.499	0.0161721
796.578	0.0161985
796.656	0.0163098
796.734	0.0164937
796.812	0.0164896
796.890	0.0166305
796.968	0.0167069
797.046	0.0166279
797.124	0.0168546
797.203	0.0170001
797.281	0.0171000
797.359	0.0170513
797.437	0.0171004
797.515	0.0172829
797.593	0.0173827
797.671	0.0173872
797.749	0.0174635
797.828	0.0173665
797.906	0.0173179
797.984	0.0171557
798.062	0.0169520
798.140	0.0168385
798.218	0.0167037
798.296	0.0164381
798.374	0.0163583
798.453	0.0162659
798.531	0.0160972
798.609	0.0159767
798.687	0.0157981
798.765	0.0156596
798.843	0.0156642
798.921	0.0155960
798.999	0.0156701
799.078	0.0157809
799.156	0.0159500
799.234	0.0159502
799.312	0.0161204
799.390	0.0164292
799.468	0.0165134
799.546	0.0164462
799.624	0.0166859
799.703	0.0166756
799.781	0.0168945
799.859	0.0169592
799.937	0.0168548
800.015	0.0169446
800.093	0.0168974
800.171	0.0167101
800.249	0.0165857
800.328	0.0165669
800.406	0.0164398
800.484	0.0163853
800.562	0.0162546
800.640	0.0161890
800.718	0.0162242
800.796	0.0161576
800.874	0.0160610
800.953	0.0159886
801.031	0.0161160
801.109	0.0162108
801.187	0.0160629
801.265	0.0160182
801.343	0.0161706
801.421	0.0161908
801.499	0.0160570
801.578	0.0160159
801.656	0.0161185
801.734	0.0161382
801.812	0.0161727
801.890	0.0160443
801.968	0.0161579
802.046	0.0160137
802.124	0.0161146
802.203	0.0162054
802.281	0.0161646
802.359	0.0160992
802.437	0.0163377
802.515	0.0163327
802.593	0.0162949
802.671	0.0163251
802.749	0.0162421
802.828	0.0163038
802.906	0.0163196
802.984	0.0161879
803.062	0.0163443
803.140	0.0163051
803.218	0.0163459
803.296	0.0164209
803.374	0.0163842
803.453	0.0164658
803.531	0.0164250
803.609	0.0165974
803.687	0.0165549
803.765	0.0167250
803.843	0.0166082
803.921	0.0166793
803.999	0.0168839
804.078	0.0168063
804.156	0.0167746
804.234	0.0167699
804.312	0.0169089
804.390	0.0168358
804.468	0.0168807
804.546	0.0169820
804.624	0.0168024
804.703	0.0168571
804.781	0.0169454
804.859	0.0169589
804.937	0.0169356
805.015	0.0169498
805.093	0.0168404
805.171	0.0168109
805.249	0.0168038
805.328	0.0166948
805.406	0.0167808
805.484	0.0167019
805.562	0.0164816
805.640	0.0163226
805.718	0.0164381
805.796	0.0164051
805.874	0.0163277
805.953	0.0162059
806.031	0.0162540
806.109	0.0163039
806.187	0.0164131
806.265	0.0162263
806.343	0.0161804
806.421	0.0163644
806.499	0.0162344
806.578	0.0162209
806.656	0.0162794
806.734	0.0161346
806.812	0.0160892
806.890	0.0161810
806.968	0.0161124
807.046	0.0160464
807.124	0.0159978
807.203	0.0159485
807.281	0.0160149
807.359	0.0159570
807.437	0.0160083
807.515	0.0160870
807.593	0.0160199
807.671	0.0161456
807.749	0.0161934
807.828	0.0163592
807.906	0.0164542
807.984	0.0165302
808.062	0.0165482
808.140	0.0163731
808.218	0.0165015
808.296	0.0164809
808.374	0.0164401
808.453	0.0163254
808.531	0.0162810
808.609	0.0161051
808.687	0.0161210
808.765	0.0158750
808.843	0.0158650
808.921	0.0158655
808.999	0.0157887
809.078	0.0158315
809.156	0.0157909
809.234	0.0159250
809.312	0.0158534
809.390	0.0160550
809.468	0.0162804
809.546	0.0162116
809.624	0.0164213
809.703	0.0163976
809.781	0.0167824
809.859	0.0170128
809.937	0.0168893
810.015	0.0169667
810.093	0.0170800
810.171	0.0174552
810.249	0.0174758
810.328	0.0174585
810.406	0.0175523
810.484	0.0174413
810.562	0.0174762
810.640	0.0175028
810.718	0.0173591
810.796	0.0173205
810.874	0.0172757
810.953	0.0172469
811.031	0.0171689
811.109	0.0170509
811.187	0.0169621
811.265	0.0169852
811.343	0.0167999
811.421	0.0166149
811.499	0.0166611
811.578	0.0166354
811.656	0.0165091
811.734	0.0164989
811.812	0.0162975
811.890	0.0162321
811.968	0.0161208
812.046	0.0160161
812.124	0.0160663
812.203	0.0159344
812.281	0.0160381
812.359	0.0162015
812.437	0.0160458
812.515	0.0158775
812.593	0.0157615
812.671	0.0159682
812.749	0.0160256
812.828	0.0160358
812.906	0.0161930
812.984	0.0161296
813.062	0.0162329
813.140	0.0161883
813.218	0.0160843
813.296	0.0162804
813.374	0.0162412
813.453	0.0164105
813.531	0.0164037
813.609	0.0163818
813.687	0.0163074
813.765	0.0163998
813.843	0.0163004
813.921	0.0161221
813.999	0.0163741
814.078	0.0164412
814.156	0.0163744
814.234	0.0163203
814.312	0.0163233
814.390	0.0163860
814.468	0.0163450
814.546	0.0165554
814.624	0.0165257
814.703	0.0165623
814.781	0.0165936
814.859	0.0166624
814.937	0.0166224
815.015	0.0166516
815.093	0.0165429
815.171	0.0165963
815.249	0.0166442
815.328	0.0165224
815.406	0.0166601
815.484	0.0165971
815.562	0.0166874
815.640	0.0165509
815.718	0.0164995
815.796	0.0166390
815.874	0.0167551
815.953	0.0165966
816.031	0.0166367
816.109	0.0166499
816.187	0.0165963
816.265	0.0166128
816.343	0.0166929
816.421	0.0165627
816.499	0.0166990
816.578	0.0167102
816.656	0.0165090
816.734	0.0166792
816.812	0.0167804
816.890	0.0168416
816.968	0.0167155
817.046	0.0166169
817.124	0.0168777
817.203	0.0168396
817.281	0.0167925
817.359	0.0168275
817.437	0.0168190
817.515	0.0169292
817.593	0.0168779
817.671	0.0168204
817.749	0.0168017
817.828	0.0166738
817.906	0.0166034
817.984	0.0164338
818.062	0.0163790
818.140	0.0164142
818.218	0.0163237
818.296	0.0161480
818.374	0.0162141
818.453	0.0161657
818.531	0.0160575
818.609	0.0161701
818.687	0.0162028
818.765	0.0161647
818.843	0.0163477
818.921	0.0163808
818.999	0.0162170
819.078	0.0161899
819.156	0.0160806
819.234	0.0162237
819.312	0.0162846
819.390	0.0159901
819.468	0.0160742
819.546	0.0159546
819.624	0.0159452
819.703	0.0160509
819.781	0.0157767
819.859	0.0157703
819.937	0.0159129
820.015	0.0155618
820.093	0.0157150
820.171	0.0158270
820.249	0.0157633
820.328	0.0159090
820.406	0.0159225
820.484	0.0160635
820.562	0.0161161
820.640	0.0161597
820.718	0.0163113
820.796	0.0164743
820.874	0.0165263
820.953	0.0166496
821.031	0.0167634
821.109	0.0168044
821.187	0.0168857
821.265	0.0168686
821.343	0.0168157
821.421	0.0168531
821.499	0.0170734
821.578	0.0170792
821.656	0.0171976
821.734	0.0171737
821.812	0.0170125
821.890	0.0170746
821.968	0.0171500
822.046	0.0169911
822.124	0.0170275
822.203	0.0170000
822.281	0.0169994
822.359	0.0170616
822.437	0.0169226
822.515	0.0167874
822.593	0.0167389
822.671	0.0165730
822.749	0.0167653
822.828	0.0166850
822.906	0.0164445
822.984	0.0164851
823.062	0.0165543
823.140	0.0164894
823.218	0.0165916
823.296	0.0164091
823.374	0.0163898
823.453	0.0162844
823.531	0.0162440
823.609	0.0162421
823.687	0.0162797
823.765	0.0164084
823.843	0.0162084
823.921	0.0162693
823.999	0.0162121
824.078	0.0162276
824.156	0.0161917
824.234	0.0161385
824.312	0.0159937
824.390	0.0160332
824.468	0.0158889
824.546	0.0160056
824.624	0.0159583
824.703	0.0158949
824.781	0.0159133
824.859	0.0158381
824.937	0.0159687
825.015	0.0159963
825.093	0.0160121
825.171	0.0162054
825.249	0.0161913
825.328	0.0160170
825.406	0.0162534
825.484	0.0162992
825.562	0.0163078
825.640	0.0163307
825.718	0.0164094
825.796	0.0163843
825.874	0.0162618
825.953	0.0162685
826.031	0.0164698
826.109	0.0162984
826.187	0.0163874
826.265	0.0163490
826.343	0.0162911
826.421	0.0163665
826.499	0.0164957
826.578	0.0165746
826.656	0.0165200
826.734	0.0165752
826.812	0.0165866
826.890	0.0166867
826.968	0.0165617
827.046	0.0166447
827.124	0.0166877
827.203	0.0166367
827.281	0.0166485
827.359	0.0166617
827.437	0.0167091
827.515	0.0166096
827.593	0.0164370
827.671	0.0164271
827.749	0.0164894
827.828	0.0165930
827.906	0.0166384
827.984	0.0165643
828.062	0.0164525
828.140	0.0164841
828.218	0.0165520
828.296	0.0165727
828.374	0.0164168
828.453	0.0164351
828.531	0.0166249
828.609	0.0165800
828.687	0.0164299
828.765	0.0164014
828.843	0.0165603
828.921	0.0166325
828.999	0.0165518
829.078	0.0166113
829.156	0.0165505
829.234	0.0165266
829.312	0.0166232
829.390	0.0166772
829.468	0.0166591
829.546	0.0166379
829.624	0.0166454
829.703	0.0167238
829.781	0.0166242
829.859	0.0166978
829.937	0.0166740
830.015	0.0167364
830.093	0.0167259
830.171	0.0166887
830.249	0.0166134
830.328	0.0166203
830.406	0.0165747
830.484	0.0164558
830.562	0.0165336
830.640	0.0163474
830.718	0.0162440
830.796	0.0162284
830.874	0.0161871
830.953	0.0163718
831.031	0.0161150
831.109	0.0161653
831.187	0.0159740
831.265	0.0160477
831.343	0.0160283
831.421	0.0160800
831.499	0.0160438
831.578	0.0161432
831.656	0.0161977
831.734	0.0162410
831.812	0.0161266
831.890	0.0162567
831.968	0.0162380
832.046	0.0161749
832.124	0.0164819
832.203	0.0163918
832.281	0.0162328
832.359	0.0163940
832.437	0.0165553
832.515	0.0164983
832.593	0.0165280
832.671	0.0166034
832.749	0.0167186
832.828	0.0166171
832.906	0.0166400
832.984	0.0167738
833.062	0.0165028
833.140	0.0165878
833.218	0.0165815
833.296	0.0165204
833.374	0.0164521
833.453	0.0163468
833.531	0.0164509
833.609	0.0165154
833.687	0.0164784
833.765	0.0163976
833.843	0.0163817
833.921	0.0163503
833.999	0.0164246
834.078	0.0163465
834.156	0.0163319
834.234	0.0163835
834.312	0.0164511
834.390	0.0164378
834.468	0.0165691
834.546	0.0165789
834.624	0.0164967
834.703	0.0165849
834.781	0.0167661
834.859	0.0167171
834.937	0.0167944
835.015	0.0168990
835.093	0.0168197
835.171	0.0168073
835.249	0.0169614
835.328	0.0168482
835.406	0.0170996
835.484	0.0170801
835.562	0.0169885
835.640	0.0169167
835.718	0.0169901
835.796	0.0169283
835.874	0.0169012
835.953	0.0169238
836.031	0.0167744
836.109	0.0166884
836.187	0.0167152
836.265	0.0166403
836.343	0.0167092
836.421	0.0164584
836.499	0.0165464
836.578	0.0165358
836.656	0.0163912
836.734	0.0165084
836.812	0.0165118
836.890	0.0163377
836.968	0.0165020
837.046	0.0163313
837.124	0.0162519
837.203	0.0161620
837.281	0.0162773
837.359	0.0162806
837.437	0.0161958
837.515	0.0161438
837.593	0.0161823
837.671	0.0162033
837.749	0.0161091
837.828	0.0162585
837.906	0.0160475
837.984	0.0160102
838.062	0.0160796
838.140	0.0161545
838.218	0.0161436
838.296	0.0162631
838.374	0.0161409
838.453	0.0161501
838.531	0.0163875
838.609	0.0164050
838.687	0.0164774
838.765	0.0165656
838.843	0.0166891
838.921	0.0167226
838.999	0.0166882
839.078	0.0167017
839.156	0.0168231
839.234	0.0168934
839.312	0.0167385
839.390	0.0166269
839.468	0.0165627
839.546	0.0166351
839.624	0.0166107
839.703	0.0165061
839.781	0.0165543
839.859	0.0164375
839.937	0.0163859
840.015	0.0164558
840.093	0.0164487
840.171	0.0165418
840.249	0.0164635
840.328	0.0163687
840.406	0.0163516
840.484	0.0163277
840.562	0.0164015
840.640	0.0164224
840.718	0.0164920
840.796	0.0165395
840.874	0.0165096
840.953	0.0164764
841.031	0.0166141
841.109	0.0166431
841.187	0.0165541
841.265	0.0166555
841.343	0.0168449
841.421	0.0169341
841.499	0.0167700
841.578	0.0168011
841.656	0.0167506
841.734	0.0169698
841.812	0.0169376
841.890	0.0170166
841.968	0.0169099
842.046	0.0168293
842.124	0.0167220
842.203	0.0167262
842.281	0.0165008
842.359	0.0166917
842.437	0.0165570
842.515	0.0165704
842.593	0.0164011
842.671	0.0163029
842.749	0.0164014
842.828	0.0163385
842.906	0.0162189
842.984	0.0163154
843.062	0.0161694
843.140	0.0161817
843.218	0.0161507
843.296	0.0161151
843.374	0.0161032
843.453	0.0161183
843.531	0.0161092
843.609	0.0160527
843.687	0.0161499
843.765	0.0160157
843.843	0.0160789
843.921	0.0158769
843.999	0.0160190
844.078	0.0159578
844.156	0.0159702
844.234	0.0161228
844.312	0.0160972
844.390	0.0159756
844.468	0.0160178
844.546	0.0160835
844.624	0.0162080
844.703	0.0162257
844.781	0.0162487
844.859	0.0162773
844.937	0.0162937
845.015	0.0163454
845.093	0.0165388
845.171	0.0165313
845.249	0.0166056
845.328	0.0166273
845.406	0.0165485
845.484	0.0165434
845.562	0.0164966
845.640	0.0167223
845.718	0.0165486
845.796	0.0164783
845.874	0.0164931
845.953	0.0166598
846.031	0.0165635
846.109	0.0164104
846.187	0.0166112
846.265	0.0166229
846.343	0.0166472
846.421	0.0165613
846.499	0.0166141
846.578	0.0166496
846.656	0.0164748
846.734	0.0164778
846.812	0.0166286
846.890	0.0165262
846.968	0.0164962
847.046	0.0166094
847.124	0.0166378
847.203	0.0165466
847.281	0.0164240
847.359	0.0164270
847.437	0.0165436
847.515	0.0164120
847.593	0.0164037
847.671	0.0165026
847.749	0.0164424
847.828	0.0164339
847.906	0.0165241
847.984	0.0164612
848.062	0.0163290
848.140	0.0165331
848.218	0.0165691
848.296	0.0164095
848.374	0.0164889
848.453	0.0165638
848.531	0.0162891
848.609	0.0165380
848.687	0.0162928
848.765	0.0163220
848.843	0.0163467
848.921	0.0162373
848.999	0.0161155
849.078	0.0163352
849.156	0.0163562
849.234	0.0162406
849.312	0.0162447
849.390	0.0160651
849.468	0.0161070
849.546	0.0159834
849.624	0.0162232
849.703	0.0160906
849.781	0.0163495
849.859	0.0161463
849.937	0.0160809
850.015	0.0161471
850.093	0.0160773
850.171	0.0161876
850.249	0.0161932
850.328	0.0161332
850.406	0.0162226
850.484	0.0163017
850.562	0.0162019
850.640	0.0162794
850.718	0.0162395
850.796	0.0162290
850.874	0.0162775
850.953	0.0164406
851.031	0.0162453
851.109	0.0163258
851.187	0.0162317
851.265	0.0161794
851.343	0.0164797
851.421	0.0164276
851.499	0.0164386
851.578	0.0164765
851.656	0.0164857
851.734	0.0164194
851.812	0.0165068
851.890	0.0164674
851.968	0.0165176
852.046	0.0165592
852.124	0.0165935
852.203	0.0165646
852.281	0.0164469
852.359	0.0164622
852.437	0.0164787
852.515	0.0164729
852.593	0.0164763
852.671	0.0163443
852.749	0.0165004
852.828	0.0165784
852.906	0.0166284
852.984	0.0163440
853.062	0.0163675
853.140	0.0163908
853.218	0.0163834
853.296	0.0165998
853.374	0.0165901
853.453	0.0164432
853.531	0.0164108
853.609	0.0164568
853.687	0.0165110
853.765	0.0166371
853.843	0.0165411
853.921	0.0164861
853.999	0.0165572
854.078	0.0167194
854.156	0.0165763
854.234	0.0167903
854.312	0.0165613
854.390	0.0167013
854.468	0.0168674
854.546	0.0166758
854.624	0.0167745
854.703	0.0168439
854.781	0.0168269
854.859	0.0168526
854.937	0.0167638
855.015	0.0167425
855.093	0.0167760
855.171	0.0167494
855.249	0.0166959
855.328	0.0166392
855.406	0.0165941
855.484	0.0166719
855.562	0.0165939
855.640	0.0164573
855.718	0.0163892
855.796	0.0163789
855.874	0.0163436
855.953	0.0162775
856.031	0.0161488
856.109	0.0162568
856.187	0.0163162
856.265	0.0162584
856.343	0.0161572
856.421	0.0161976
856.499	0.0162055
856.578	0.0161542
856.656	0.0161517
856.734	0.0162551
856.812	0.0161161
856.890	0.0161380
856.968	0.0163333
857.046	0.0162676
857.124	0.0161951
857.203	0.0163838
857.281	0.0162727
857.359	0.0163622
857.437	0.0163821
857.515	0.0165369
857.593	0.0164239
857.671	0.0163129
857.749	0.0163920
857.828	0.0166021
857.906	0.0164526
857.984	0.0165115
858.062	0.0164993
858.140	0.0165858
858.218	0.0166473
858.296	0.0166897
858.374	0.0165517
858.453	0.0165488
858.531	0.0165857
858.609	0.0166978
858.687	0.0166774
858.765	0.0166191
858.843	0.0165412
858.921	0.0165709
858.999	0.0166930
859.078	0.0166573
859.156	0.0167572
859.234	0.0166900
859.312	0.0166897
859.390	0.0167402
859.468	0.0166513
859.546	0.0166474
859.624	0.0166718
859.703	0.0165012
859.781	0.0164899
859.859	0.0167079
859.937	0.0165140
860.015	0.0165137
860.093	0.0165164
860.171	0.0164629
860.249	0.0164993
860.328	0.0164827
860.406	0.0164899
860.484	0.0165260
860.562	0.0165990
860.640	0.0165218
860.718	0.0165701
860.796	0.0167192
860.874	0.0168442
860.953	0.0167587
861.031	0.0167500
861.109	0.0168352
861.187	0.0168093
861.265	0.0166695
861.343	0.0167555
861.421	0.0167517
861.499	0.0166658
861.578	0.0165408
861.656	0.0165929
861.734	0.0166681
861.812	0.0166042
861.890	0.0165317
861.968	0.0165289
862.046	0.0164809
862.124	0.0163509
862.203	0.0163079
862.281	0.0162931
862.359	0.0163029
862.437	0.0161628
862.515	0.0161568
862.593	0.0162399
862.671	0.0163410
862.749	0.0161111
862.828	0.0162496
862.906	0.0162057
862.984	0.0162551
863.062	0.0162933
863.140	0.0163628
863.218	0.0163226
863.296	0.0163133
863.374	0.0162096
863.453	0.0162804
863.531	0.0164117
863.609	0.0162961
863.687	0.0163640
863.765	0.0164246
863.843	0.0164368
863.921	0.0162402
863.999	0.0162705
864.078	0.0165035
864.156	0.0163559
864.234	0.0164053
864.312	0.0164474
864.390	0.0163426
864.468	0.0163156
864.546	0.0164571
864.624	0.0163297
864.703	0.0162988
864.781	0.0163760
864.859	0.0163024
864.937	0.0163635
865.015	0.0163525
865.093	0.0163369
865.171	0.0162759
865.249	0.0164967
865.328	0.0163722
865.406	0.0164286
865.484	0.0164092
865.562	0.0164107
865.640	0.0163975
865.718	0.0163279
865.796	0.0163465
865.874	0.0162704
865.953	0.0162724
866.031	0.0162379
866.109	0.0162386
866.187	0.0163209
866.265	0.0161994
866.343	0.0160929
866.421	0.0160840
866.499	0.0163316
866.578	0.0162348
866.656	0.0162638
866.734	0.0162932
866.812	0.0163444
866.890	0.0163541
866.968	0.0163132
867.046	0.0164066
867.124	0.0163787
867.203	0.0164885
867.281	0.0164718
867.359	0.0165057
867.437	0.0164254
867.515	0.0163824
867.593	0.0166375
867.671	0.0164880
867.749	0.0166854
867.828	0.0165572
867.906	0.0165836
867.984	0.0167381
868.062	0.0166539
868.140	0.0166050
868.218	0.0168099
868.296	0.0165948
868.374	0.0165144
868.453	0.0166004
868.531	0.0164742
868.609	0.0164940
868.687	0.0164265
868.765	0.0164074
868.843	0.0163302
868.921	0.0162631
868.999	0.0162728
869.078	0.0161225
869.156	0.0161535
869.234	0.0161341
869.312	0.0160821
869.390	0.0160883
869.468	0.0160700
869.546	0.0159177
869.624	0.0159502
869.703	0.0160468
869.781	0.0159676
869.859	0.0161057
869.937	0.0160846
870.015	0.0160378
870.093	0.0161649
870.171	0.0161878
870.249	0.0161972
870.328	0.0162885
870.406	0.0162492
870.484	0.0162859
870.562	0.0162970
870.640	0.0163810
870.718	0.0163909
870.796	0.0163621
870.874	0.0164220
870.953	0.0165604
871.031	0.0164993
871.109	0.0164616
871.187	0.0164603
871.265	0.0166322
871.343	0.0166100
871.421	0.0165762
871.499	0.0166558
871.578	0.0166920
871.656	0.0165292
871.734	0.0165212
871.812	0.0165332
871.890	0.0166235
871.968	0.0167464
872.046	0.0166781
872.124	0.0165113
872.203	0.0164494
872.281	0.0163097
872.359	0.0163379
872.437	0.0163844
872.515	0.0162867
872.593	0.0162260
872.671	0.0162149
872.749	0.0161994
872.828	0.0162886
872.906	0.0162046
872.984	0.0162749
873.062	0.0162847
873.140	0.0162839
873.218	0.0161848
873.296	0.0162158
873.374	0.0163174
873.453	0.0161998
873.531	0.0163573
873.609	0.0163251
873.687	0.0163410
873.765	0.0164710
873.843	0.0162827
873.921	0.0163120
873.999	0.0165782
874.078	0.0165021
874.156	0.0164279
874.234	0.0164831
874.312	0.0164251
874.390	0.0164288
874.468	0.0165981
874.546	0.0165298
874.624	0.0165704
874.703	0.0166548
874.781	0.0166846
874.859	0.0165585
874.937	0.0167085
875.015	0.0164929
875.093	0.0165921
875.171	0.0166483
875.249	0.0165488
875.328	0.0164465
875.406	0.0163621
875.484	0.0164115
875.562	0.0164944
875.640	0.0162776
875.718	0.0163236
875.796	0.0162492
875.874	0.0160880
875.953	0.0162309
876.031	0.0162284
876.109	0.0160430
876.187	0.0162241
876.265	0.0161973
876.343	0.0161599
876.421	0.0161052
876.499	0.0162109
876.578	0.0161394
876.656	0.0162752
876.734	0.0163432
876.812	0.0162013
876.890	0.0162367
876.968	0.0162695
877.046	0.0163641
877.124	0.0163601
877.203	0.0162352
877.281	0.0163496
877.359	0.0164947
877.437	0.0164614
877.515	0.0165425
877.593	0.0166228
877.671	0.0165296
877.749	0.0165951
877.828	0.0166648
877.906	0.0166620
877.984	0.0166885
878.062	0.0166804
878.140	0.0166917
878.218	0.0167356
878.296	0.0166801
878.374	0.0166448
878.453	0.0166945
878.531	0.0167965
878.609	0.0166763
878.687	0.0167345
878.765	0.0166605
878.843	0.0166369
878.921	0.0166010
878.999	0.0167437
879.078	0.0166618
879.156	0.0164282
879.234	0.0165040
879.312	0.0164432
879.390	0.0163735
879.468	0.0164447
879.546	0.0163930
879.624	0.0164146
879.703	0.0164028
879.781	0.0162747
879.859	0.0161530
879.937	0.0161731
880.015	0.0161897
880.093	0.0162961
880.171	0.0163332
880.249	0.0162839
880.328	0.0162325
880.406	0.0163260
880.484	0.0163071
880.562	0.0163754
880.640	0.0163934
880.718	0.0164407
880.796	0.0164102
880.874	0.0165398
880.953	0.0164219
881.031	0.0164741
881.109	0.0165268
881.187	0.0165713
881.265	0.0165520
881.343	0.0163821
881.421	0.0163721
881.499	0.0165548
881.578	0.0165826
881.656	0.0164609
881.734	0.0164970
881.812	0.0163920
881.890	0.0163993
881.968	0.0164098
882.046	0.0163914
882.124	0.0163251
882.203	0.0162688
882.281	0.0164016
882.359	0.0164880
882.437	0.0165224
882.515	0.0164115
882.593	0.0164294
882.671	0.0165280
882.749	0.0164335
882.828	0.0165141
882.906	0.0166846
882.984	0.0166455
883.062	0.0167032
883.140	0.0166194
883.218	0.0166922
883.296	0.0165578
883.374	0.0166528
883.453	0.0164533
883.531	0.0166775
883.609	0.0166639
883.687	0.0167403
883.765	0.0166151
883.843	0.0167072
883.921	0.0166569
883.999	0.0166377
884.078	0.0165722
884.156	0.0165526
884.234	0.0165900
884.312	0.0165254
884.390	0.0164906
884.468	0.0164372
884.546	0.0164782
884.624	0.0164877
884.703	0.0163139
884.781	0.0162923
884.859	0.0163084
884.937	0.0161741
885.015	0.0163255
885.093	0.0162473
885.171	0.0162780
885.249	0.0162537
885.328	0.0162885
885.406	0.0163029
885.484	0.0162810
885.562	0.0165332
885.640	0.0163383
885.718	0.0162361
885.796	0.0162212
885.874	0.0163200
885.953	0.0161949
886.031	0.0162875
886.109	0.0163924
886.187	0.0163843
886.265	0.0164680
886.343	0.0164819
886.421	0.0164616
886.499	0.0166261
886.578	0.0166389
886.656	0.0165285
886.734	0.0165064
886.812	0.0166325
886.890	0.0166460
886.968	0.0168259
887.046	0.0168597
887.124	0.0168538
887.203	0.0167398
887.281	0.0168088
887.359	0.0168262
887.437	0.0167573
887.515	0.0166953
887.593	0.0167101
887.671	0.0165810
887.749	0.0165863
887.828	0.0166136
887.906	0.0165231
887.984	0.0164936
888.062	0.0166887
888.140	0.0165133
888.218	0.0165671
888.296	0.0164629
888.374	0.0163950
888.453	0.0163075
888.531	0.0162899
888.609	0.0163395
888.687	0.0163116
888.765	0.0163468
888.843	0.0162775
888.921	0.0160685
888.999	0.0161565
889.078	0.0162484
889.156	0.0162055
889.234	0.0161931
889.312	0.0161813
889.390	0.0163043
889.468	0.0163365
889.546	0.0164027
889.624	0.0161606
889.703	0.0162206
889.781	0.0164796
889.859	0.0164745
889.937	0.0164815
890.015	0.0165056
890.093	0.0164880
890.171	0.0166051
890.249	0.0166615
890.328	0.0165858
890.406	0.0166479
890.484	0.0166541
890.562	0.0165952
890.640	0.0167062
890.718	0.0166930
890.796	0.0167204
890.874	0.0166676
890.953	0.0168646
891.031	0.0168658
891.109	0.0166006
891.187	0.0168227
891.265	0.0166317
891.343	0.0167415
891.421	0.0167206
891.499	0.0165408
891.578	0.0164610
891.656	0.0164787
891.734	0.0166376
891.812	0.0162627
891.890	0.0162739
891.968	0.0163506
892.046	0.0162267
892.124	0.0161995
892.203	0.0162154
892.281	0.0161955
892.359	0.0161611
892.437	0.0161802
892.515	0.0162627
892.593	0.0162976
892.671	0.0162704
892.749	0.0161876
892.828	0.0162734
892.906	0.0163206
892.984	0.0164035
893.062	0.0165234
893.140	0.0166082
893.218	0.0164983
893.296	0.0166439
893.374	0.0167760
893.453	0.0166424
893.531	0.0167203
893.609	0.0166622
893.687	0.0167104
893.765	0.0166567
893.843	0.0166460
893.921	0.0165846
893.999	0.0166146
894.078	0.0166702
894.156	0.0166139
894.234	0.0164767
894.312	0.0165761
894.390	0.0165894
894.468	0.0165531
894.546	0.0164601
894.624	0.0164808
894.703	0.0162724
894.781	0.0164050
894.859	0.0164028
894.937	0.0163271
895.015	0.0163882
895.093	0.0163844
895.171	0.0163366
895.249	0.0162663
895.328	0.0163099
895.406	0.0162712
895.484	0.0162210
895.562	0.0163250
895.640	0.0163167
895.718	0.0163139
895.796	0.0163199
895.874	0.0163020
895.953	0.0163431
896.031	0.0164021
896.109	0.0164133
896.187	0.0165057
896.265	0.0164829
896.343	0.0164534
896.421	0.0162838
896.499	0.0164450
896.578	0.0164147
896.656	0.0163538
896.734	0.0164658
896.812	0.0164738
896.890	0.0164564
896.968	0.0165013
897.046	0.0164386
897.124	0.0164122
897.203	0.0164694
897.281	0.0164574
897.359	0.0167039
897.437	0.0164614
897.515	0.0164558
897.593	0.0165108
897.671	0.0166538
897.749	0.0164234
897.828	0.0166112
897.906	0.0166331
897.984	0.0165135
898.062	0.0165534
898.140	0.0164568
898.218	0.0164424
898.296	0.0163976
898.374	0.0164189
898.453	0.0162543
898.531	0.0163688
898.609	0.0164034
898.687	0.0163399
898.765	0.0163951
898.843	0.0162730
898.921	0.0163096
898.999	0.0163338
899.078	0.0162686
899.156	0.0162003
899.234	0.0162842
899.312	0.0162955
899.390	0.0163873
899.468	0.0162990
899.546	0.0163165
899.624	0.0162098
899.703	0.0161607
899.781	0.0162066
899.859	0.0163923
899.937	0.0163402
900.015	0.0161957
900.093	0.0164479
900.171	0.0164687
900.249	0.0162845
900.328	0.0164799
900.406	0.0163927
900.484	0.0164713
900.562	0.0163580
900.640	0.0163097
900.718	0.0164360
900.796	0.0164580
900.874	0.0163331
900.953	0.0163320
901.031	0.0163137
901.109	0.0163794
901.187	0.0165350
901.265	0.0164345
901.343	0.0164038
901.421	0.0164996
901.499	0.0164642
901.578	0.0163984
901.656	0.0162173
901.734	0.0163890
901.812	0.0164178
901.890	0.0163219
901.968	0.0164239
902.046	0.0165787
902.124	0.0165133
902.203	0.0163168
902.281	0.0164256
902.359	0.0164323
902.437	0.0164300
902.515	0.0163633
902.593	0.0163174
902.671	0.0164716
902.749	0.0163526
902.828	0.0163380
902.906	0.0162908
902.984	0.0163877
903.062	0.0162704
903.140	0.0162733
903.218	0.0162872
903.296	0.0162276
903.374	0.0162006
903.453	0.0162779
903.531	0.0163023
903.609	0.0163538
903.687	0.0163573
903.765	0.0163453
903.843	0.0165588
903.921	0.0163453
903.999	0.0163456
904.078	0.0165238
904.156	0.0164809
904.234	0.0163807
904.312	0.0164049
904.390	0.0164165
904.468	0.0162548
904.546	0.0163132
904.624	0.0164031
904.703	0.0162623
904.781	0.0163077
904.859	0.0163917
904.937	0.0162598
905.015	0.0163604
905.093	0.0163846
905.171	0.0164117
905.249	0.0163786
905.328	0.0164178
905.406	0.0163308
905.484	0.0163989
905.562	0.0164787
905.640	0.0164315
905.718	0.0163728
905.796	0.0164634
905.874	0.0164529
905.953	0.0163049
906.031	0.0164391
906.109	0.0164722
906.187	0.0165163
906.265	0.0164361
906.343	0.0164536
906.421	0.0164571
906.499	0.0164146
906.578	0.0165383
906.656	0.0165732
906.734	0.0166156
906.812	0.0166403
906.890	0.0166405
906.968	0.0166114
907.046	0.0166342
907.124	0.0166740
907.203	0.0166650
907.281	0.0165735
907.359	0.0165728
907.437	0.0165683
907.515	0.0166412
907.593	0.0165855
907.671	0.0166008
907.749	0.0166319
907.828	0.0165374
907.906	0.0166894
907.984	0.0165965
908.062	0.0164680
908.140	0.0164069
908.218	0.0166191
908.296	0.0167052
908.374	0.0164812
908.453	0.0163185
908.531	0.0164661
908.609	0.0164712
908.687	0.0163509
908.765	0.0164287
908.843	0.0163483
908.921	0.0163663
908.999	0.0163696
909.078	0.0163776
909.156	0.0163687
909.234	0.0162269
909.312	0.0162746
909.390	0.0164185
909.468	0.0163699
909.546	0.0163729
909.624	0.0162973
909.703	0.0163010
909.781	0.0163078
909.859	0.0162749
909.937	0.0163450
910.015	0.0164592
910.093	0.0164216
910.171	0.0164697
910.249	0.0165579
910.328	0.0165485
910.406	0.0165623
910.484	0.0165990
910.562	0.0164900
910.640	0.0166042
910.718	0.0165475
910.796	0.0165641
910.874	0.0165792
910.953	0.0166560
911.031	0.0166230
911.109	0.0166839
911.187	0.0166834
911.265	0.0166912
911.343	0.0166785
911.421	0.0165471
911.499	0.0166936
911.578	0.0165796
911.656	0.0166350
911.734	0.0167014
911.812	0.0165501
911.890	0.0165266
911.968	0.0165991
912.046	0.0165079
912.124	0.0165899
912.203	0.0166455
912.281	0.0163928
912.359	0.0164356
912.437	0.0164566
912.515	0.0164470
912.593	0.0164692
912.671	0.0164196
912.749	0.0162742
912.828	0.0163763
912.906	0.0164469
912.984	0.0163762
913.062	0.0163681
913.140	0.0163816
913.218	0.0163770
913.296	0.0162385
913.374	0.0163174
913.453	0.0162496
913.531	0.0164232
913.609	0.0163365
913.687	0.0163448
913.765	0.0164792
913.843	0.0164436
913.921	0.0163605
913.999	0.0164359
914.078	0.0165697
914.156	0.0164021
914.234	0.0166436
914.312	0.0165290
914.390	0.0165434
914.468	0.0166520
914.546	0.0165875
914.624	0.0166022
914.703	0.0167098
914.781	0.0166923
914.859	0.0165939
914.937	0.0166301
915.015	0.0167022
915.093	0.0166032
915.171	0.0166037
915.249	0.0167012
915.328	0.0165620
915.406	0.0165598
915.484	0.0166857
915.562	0.0164912
915.640	0.0165302
915.718	0.0165372
915.796	0.0165167
915.874	0.0165566
915.953	0.0165965
916.031	0.0164452
916.109	0.0164144
916.187	0.0164124
916.265	0.0164412
916.343	0.0163490
916.421	0.0163052
916.499	0.0163449
916.578	0.0161987
916.656	0.0162878
916.734	0.0162762
916.812	0.0162678
916.890	0.0163145
916.968	0.0161817
917.046	0.0162557
917.124	0.0162291
917.203	0.0161979
917.281	0.0163213
917.359	0.0163231
917.437	0.0164801
917.515	0.0164454
917.593	0.0164674
917.671	0.0165211
917.749	0.0166022
917.828	0.0165838
917.906	0.0166559
917.984	0.0165482
918.062	0.0165947
918.140	0.0166532
918.218	0.0168551
918.296	0.0168333
918.374	0.0168753
918.453	0.0167452
918.531	0.0166842
918.609	0.0166631
918.687	0.0167284
918.765	0.0166307
918.843	0.0165456
918.921	0.0165501
918.999	0.0166219
919.078	0.0166238
919.156	0.0165214
919.234	0.0163934
919.312	0.0162500
919.390	0.0163477
919.468	0.0164371
919.546	0.0164178
919.624	0.0162917
919.703	0.0163547
919.781	0.0163923
919.859	0.0164108
919.937	0.0162804
