06/10/2022	18:25:54	Ver.	4.1	UNKNOWN
Optical Delay	600.015094	Delta X		0.078125	Sweeps	1	Scan Rate	0/0
Coordinates	Axis 1	NaN	Axis 2	NaN	Axis 3	NaN	Axis 4	NaN	Axis 5	NaN	Axis 6	0.000000
TX Power	0.000000	RX Power	0.000000

600.015	0.0156853
600.093	0.0156714
600.171	0.0156928
600.249	0.0157572
600.328	0.0155587
600.406	0.0155288
600.484	0.0156221
600.562	0.0157787
600.640	0.0156760
600.718	0.0155502
600.796	0.0156362
600.874	0.0156846
600.953	0.0157402
601.031	0.0157183
601.109	0.0156564
601.187	0.0156620
601.265	0.0157976
601.343	0.0156413
601.421	0.0156869
601.499	0.0158345
601.578	0.0157381
601.656	0.0156665
601.734	0.0156558
601.812	0.0155299
601.890	0.0156200
601.968	0.0157536
602.046	0.0156899
602.124	0.0157211
602.203	0.0157511
602.281	0.0156525
602.359	0.0156554
602.437	0.0157610
602.515	0.0156991
602.593	0.0156788
602.671	0.0156930
602.749	0.0156084
602.828	0.0157554
602.906	0.0157211
602.984	0.0156651
603.062	0.0156507
603.140	0.0156062
603.218	0.0156261
603.296	0.0157422
603.374	0.0155511
603.453	0.0156661
603.531	0.0158150
603.609	0.0157427
603.687	0.0157063
603.765	0.0156197
603.843	0.0157061
603.921	0.0155846
603.999	0.0157288
604.078	0.0155667
604.156	0.0156744
604.234	0.0155732
604.312	0.0156428
604.390	0.0155656
604.468	0.0156358
604.546	0.0156577
604.624	0.0156506
604.703	0.0156527
604.781	0.0157077
604.859	0.0155154
604.937	0.0157100
605.015	0.0157477
605.093	0.0157113
605.171	0.0156797
605.249	0.0156588
605.328	0.0155853
605.406	0.0157274
605.484	0.0156245
605.562	0.0157671
605.640	0.0157551
605.718	0.0156742
605.796	0.0157462
605.874	0.0158752
605.953	0.0156689
606.031	0.0156461
606.109	0.0158410
606.187	0.0157578
606.265	0.0157159
606.343	0.0156698
606.421	0.0157074
606.499	0.0155612
606.578	0.0158104
606.656	0.0156815
606.734	0.0156469
606.812	0.0157435
606.890	0.0157081
606.968	0.0156868
607.046	0.0156225
607.124	0.0156259
607.203	0.0157220
607.281	0.0154626
607.359	0.0155766
607.437	0.0156834
607.515	0.0157108
607.593	0.0157750
607.671	0.0158148
607.749	0.0156221
607.828	0.0155804
607.906	0.0157058
607.984	0.0156686
608.062	0.0157311
608.140	0.0156654
608.218	0.0156168
608.296	0.0157171
608.374	0.0156441
608.453	0.0157369
608.531	0.0156937
608.609	0.0157784
608.687	0.0157281
608.765	0.0155533
608.843	0.0156705
608.921	0.0156172
608.999	0.0157266
609.078	0.0158449
609.156	0.0155959
609.234	0.0156873
609.312	0.0156127
609.390	0.0156252
609.468	0.0157193
609.546	0.0157323
609.624	0.0157068
609.703	0.0156956
609.781	0.0156794
609.859	0.0157361
609.937	0.0156863
610.015	0.0156110
610.093	0.0156705
610.171	0.0156137
610.249	0.0155846
610.328	0.0156123
610.406	0.0157819
610.484	0.0158376
610.562	0.0155828
610.640	0.0156669
610.718	0.0156613
610.796	0.0157090
610.874	0.0156657
610.953	0.0156848
611.031	0.0157080
611.109	0.0155744
611.187	0.0156443
611.265	0.0156778
611.343	0.0156026
611.421	0.0155874
611.499	0.0157446
611.578	0.0156068
611.656	0.0155630
611.734	0.0157718
611.812	0.0158063
611.890	0.0157072
611.968	0.0157309
612.046	0.0157173
612.124	0.0157705
612.203	0.0157419
612.281	0.0156581
612.359	0.0156815
612.437	0.0156663
612.515	0.0156264
612.593	0.0156979
612.671	0.0156000
612.749	0.0156689
612.828	0.0156604
612.906	0.0155724
612.984	0.0155911
613.062	0.0156034
613.140	0.0156607
613.218	0.0156996
613.296	0.0156312
613.374	0.0159315
613.453	0.0155932
613.531	0.0155196
613.609	0.0157297
613.687	0.0156787
613.765	0.0154153
613.843	0.0155361
613.921	0.0156921
613.999	0.0155878
614.078	0.0156944
614.156	0.0157485
614.234	0.0156886
614.312	0.0155981
614.390	0.0156168
614.468	0.0157125
614.546	0.0156946
614.624	0.0155786
614.703	0.0156795
614.781	0.0157227
614.859	0.0157119
614.937	0.0156636
615.015	0.0156953
615.093	0.0156100
615.171	0.0156513
615.249	0.0157415
615.328	0.0156159
615.406	0.0156274
615.484	0.0157209
615.562	0.0156185
615.640	0.0156526
615.718	0.0156557
615.796	0.0156828
615.874	0.0156685
615.953	0.0156487
616.031	0.0155524
616.109	0.0156403
616.187	0.0155653
616.265	0.0156570
616.343	0.0157411
616.421	0.0156386
616.499	0.0156348
616.578	0.0156652
616.656	0.0156297
616.734	0.0155373
616.812	0.0157413
616.890	0.0157964
616.968	0.0156966
617.046	0.0156712
617.124	0.0157434
617.203	0.0157580
617.281	0.0156705
617.359	0.0155405
617.437	0.0155920
617.515	0.0157360
617.593	0.0156131
617.671	0.0156177
617.749	0.0156987
617.828	0.0157915
617.906	0.0157520
617.984	0.0155185
618.062	0.0157448
618.140	0.0157233
618.218	0.0156596
618.296	0.0156432
618.374	0.0156014
618.453	0.0154999
618.531	0.0157398
618.609	0.0157067
618.687	0.0157527
618.765	0.0157804
618.843	0.0157056
618.921	0.0157899
618.999	0.0154839
619.078	0.0155499
619.156	0.0156841
619.234	0.0155856
619.312	0.0154803
619.390	0.0156735
619.468	0.0156610
619.546	0.0156771
619.624	0.0155936
619.703	0.0157394
619.781	0.0157433
619.859	0.0156737
619.937	0.0156692
620.015	0.0154933
620.093	0.0155476
620.171	0.0156754
620.249	0.0156313
620.328	0.0156589
620.406	0.0156324
620.484	0.0155353
620.562	0.0155943
620.640	0.0156010
620.718	0.0157677
620.796	0.0157919
620.874	0.0155501
620.953	0.0156342
621.031	0.0156660
621.109	0.0156717
621.187	0.0156301
621.265	0.0156628
621.343	0.0155892
621.421	0.0156620
621.499	0.0157017
621.578	0.0157362
621.656	0.0156738
621.734	0.0158572
621.812	0.0157287
621.890	0.0157422
621.968	0.0156495
622.046	0.0157439
622.124	0.0157548
622.203	0.0156606
622.281	0.0156314
622.359	0.0156789
622.437	0.0156055
622.515	0.0156297
622.593	0.0156458
622.671	0.0156222
622.749	0.0156593
622.828	0.0156780
622.906	0.0157565
622.984	0.0156594
623.062	0.0157586
623.140	0.0157501
623.218	0.0157317
623.296	0.0158186
623.374	0.0157281
623.453	0.0156538
623.531	0.0156438
623.609	0.0156383
623.687	0.0156445
623.765	0.0156173
623.843	0.0156458
623.921	0.0156340
623.999	0.0156857
624.078	0.0157355
624.156	0.0157175
624.234	0.0156954
624.312	0.0155914
624.390	0.0157423
624.468	0.0156799
624.546	0.0156897
624.624	0.0156989
624.703	0.0156605
624.781	0.0157055
624.859	0.0157571
624.937	0.0156753
625.015	0.0157362
625.093	0.0156526
625.171	0.0156879
625.249	0.0156626
625.328	0.0156708
625.406	0.0157907
625.484	0.0156073
625.562	0.0157308
625.640	0.0155151
625.718	0.0156044
625.796	0.0156449
625.874	0.0156258
625.953	0.0155602
626.031	0.0156718
626.109	0.0156592
626.187	0.0156997
626.265	0.0156660
626.343	0.0156048
626.421	0.0158150
626.499	0.0156849
626.578	0.0156887
626.656	0.0155840
626.734	0.0155863
626.812	0.0155979
626.890	0.0155762
626.968	0.0155665
627.046	0.0157248
627.124	0.0155954
627.203	0.0155739
627.281	0.0157243
627.359	0.0158233
627.437	0.0157016
627.515	0.0156366
627.593	0.0157021
627.671	0.0156578
627.749	0.0156466
627.828	0.0155058
627.906	0.0155756
627.984	0.0158292
628.062	0.0157201
628.140	0.0157175
628.218	0.0156306
628.296	0.0156906
628.374	0.0155834
628.453	0.0157612
628.531	0.0156219
628.609	0.0157579
628.687	0.0156142
628.765	0.0157167
628.843	0.0158870
628.921	0.0157539
628.999	0.0157043
629.078	0.0157469
629.156	0.0158480
629.234	0.0157893
629.312	0.0156778
629.390	0.0156952
629.468	0.0158052
629.546	0.0155324
629.624	0.0157008
629.703	0.0156004
629.781	0.0157689
629.859	0.0155762
629.937	0.0157323
630.015	0.0157172
630.093	0.0155944
630.171	0.0156934
630.249	0.0157088
630.328	0.0154914
630.406	0.0156958
630.484	0.0157392
630.562	0.0155804
630.640	0.0155410
630.718	0.0157272
630.796	0.0156608
630.874	0.0156593
630.953	0.0156789
631.031	0.0156963
631.109	0.0157303
631.187	0.0157744
631.265	0.0156033
631.343	0.0156636
631.421	0.0157253
631.499	0.0156578
631.578	0.0156826
631.656	0.0155827
631.734	0.0155981
631.812	0.0156964
631.890	0.0155724
631.968	0.0156729
632.046	0.0156091
632.124	0.0156506
632.203	0.0155323
632.281	0.0155887
632.359	0.0156840
632.437	0.0155925
632.515	0.0157209
632.593	0.0155762
632.671	0.0157095
632.749	0.0158168
632.828	0.0157865
632.906	0.0156607
632.984	0.0156532
633.062	0.0157389
633.140	0.0157424
633.218	0.0156121
633.296	0.0157179
633.374	0.0157050
633.453	0.0156014
633.531	0.0155414
633.609	0.0157624
633.687	0.0156618
633.765	0.0157011
633.843	0.0156107
633.921	0.0157018
633.999	0.0157108
634.078	0.0157209
634.156	0.0157764
634.234	0.0157587
634.312	0.0157391
634.390	0.0157526
634.468	0.0157068
634.546	0.0157070
634.624	0.0158064
634.703	0.0155801
634.781	0.0155812
634.859	0.0157211
634.937	0.0156824
635.015	0.0156510
635.093	0.0156779
635.171	0.0156613
635.249	0.0156833
635.328	0.0155730
635.406	0.0156822
635.484	0.0156023
635.562	0.0157133
635.640	0.0156612
635.718	0.0156281
635.796	0.0155648
635.874	0.0156525
635.953	0.0157464
636.031	0.0155785
636.109	0.0157305
636.187	0.0156385
636.265	0.0156534
636.343	0.0157224
636.421	0.0156829
636.499	0.0155338
636.578	0.0155234
636.656	0.0157439
636.734	0.0156604
636.812	0.0156682
636.890	0.0156705
636.968	0.0156128
637.046	0.0156678
637.124	0.0156065
637.203	0.0157265
637.281	0.0156557
637.359	0.0156965
637.437	0.0157285
637.515	0.0158609
637.593	0.0158050
637.671	0.0156356
637.749	0.0156107
637.828	0.0156326
637.906	0.0158252
637.984	0.0156515
638.062	0.0156372
638.140	0.0156297
638.218	0.0157777
638.296	0.0156341
638.374	0.0156372
638.453	0.0157797
638.531	0.0157086
638.609	0.0156876
638.687	0.0157300
638.765	0.0156049
638.843	0.0157481
638.921	0.0157153
638.999	0.0157806
639.078	0.0156844
639.156	0.0157805
639.234	0.0157098
639.312	0.0156219
639.390	0.0156980
639.468	0.0157106
639.546	0.0156616
639.624	0.0156567
639.703	0.0156018
639.781	0.0155888
639.859	0.0156609
639.937	0.0155975
640.015	0.0157438
640.093	0.0156002
640.171	0.0155924
640.249	0.0157613
640.328	0.0156112
640.406	0.0157795
640.484	0.0158152
640.562	0.0156753
640.640	0.0156363
640.718	0.0156548
640.796	0.0157162
640.874	0.0156467
640.953	0.0155740
641.031	0.0157256
641.109	0.0157533
641.187	0.0154640
641.265	0.0155231
641.343	0.0155257
641.421	0.0156372
641.499	0.0157294
641.578	0.0157673
641.656	0.0157433
641.734	0.0155713
641.812	0.0156383
641.890	0.0156947
641.968	0.0157058
642.046	0.0155519
642.124	0.0157064
642.203	0.0156757
642.281	0.0156411
642.359	0.0157851
642.437	0.0156928
642.515	0.0156679
642.593	0.0156503
642.671	0.0156889
642.749	0.0155880
642.828	0.0157355
642.906	0.0156007
642.984	0.0156407
643.062	0.0157262
643.140	0.0156808
643.218	0.0156895
643.296	0.0157108
643.374	0.0156124
643.453	0.0157270
643.531	0.0158294
643.609	0.0157594
643.687	0.0156779
643.765	0.0156634
643.843	0.0156317
643.921	0.0155936
643.999	0.0155984
644.078	0.0156264
644.156	0.0157284
644.234	0.0156132
644.312	0.0155665
644.390	0.0156867
644.468	0.0157385
644.546	0.0156023
644.624	0.0156253
644.703	0.0157558
644.781	0.0158304
644.859	0.0156653
644.937	0.0157497
645.015	0.0157762
645.093	0.0155944
645.171	0.0156969
645.249	0.0157595
645.328	0.0156654
645.406	0.0155676
645.484	0.0156416
645.562	0.0157498
645.640	0.0157816
645.718	0.0156535
645.796	0.0156946
645.874	0.0156649
645.953	0.0155731
646.031	0.0156183
646.109	0.0155924
646.187	0.0155497
646.265	0.0157200
646.343	0.0156780
646.421	0.0157954
646.499	0.0156361
646.578	0.0155631
646.656	0.0157200
646.734	0.0157761
646.812	0.0156609
646.890	0.0157117
646.968	0.0154771
647.046	0.0156992
647.124	0.0156898
647.203	0.0157716
647.281	0.0158043
647.359	0.0156650
647.437	0.0156455
647.515	0.0156270
647.593	0.0156658
647.671	0.0157397
647.749	0.0158186
647.828	0.0158133
647.906	0.0156796
647.984	0.0157401
648.062	0.0158024
648.140	0.0157103
648.218	0.0156543
648.296	0.0156886
648.374	0.0156412
648.453	0.0155081
648.531	0.0156248
648.609	0.0156881
648.687	0.0157648
648.765	0.0156411
648.843	0.0157175
648.921	0.0156157
648.999	0.0156976
649.078	0.0157571
649.156	0.0156543
649.234	0.0157871
649.312	0.0156573
649.390	0.0157864
649.468	0.0157026
649.546	0.0158061
649.624	0.0156581
649.703	0.0156729
649.781	0.0156402
649.859	0.0156292
649.937	0.0158298
650.015	0.0156994
650.093	0.0157171
650.171	0.0156073
650.249	0.0157458
650.328	0.0157480
650.406	0.0156677
650.484	0.0157940
650.562	0.0156503
650.640	0.0156492
650.718	0.0156760
650.796	0.0157347
650.874	0.0156695
650.953	0.0156543
651.031	0.0157718
651.109	0.0156805
651.187	0.0156944
651.265	0.0157022
651.343	0.0156924
651.421	0.0155318
651.499	0.0156285
651.578	0.0157070
651.656	0.0155236
651.734	0.0157303
651.812	0.0157726
651.890	0.0156175
651.968	0.0156622
652.046	0.0156720
652.124	0.0156749
652.203	0.0156432
652.281	0.0156789
652.359	0.0157444
652.437	0.0157906
652.515	0.0156992
652.593	0.0156572
652.671	0.0157052
652.749	0.0156407
652.828	0.0155904
652.906	0.0157590
652.984	0.0156741
653.062	0.0156194
653.140	0.0157476
653.218	0.0157153
653.296	0.0156429
653.374	0.0157938
653.453	0.0157188
653.531	0.0155776
653.609	0.0156994
653.687	0.0156595
653.765	0.0157742
653.843	0.0157034
653.921	0.0156740
653.999	0.0156477
654.078	0.0157068
654.156	0.0157003
654.234	0.0156380
654.312	0.0157983
654.390	0.0157231
654.468	0.0156214
654.546	0.0156546
654.624	0.0157529
654.703	0.0157256
654.781	0.0157012
654.859	0.0155174
654.937	0.0156532
655.015	0.0155975
655.093	0.0155724
655.171	0.0157657
655.249	0.0157507
655.328	0.0156503
655.406	0.0155952
655.484	0.0156393
655.562	0.0157065
655.640	0.0156100
655.718	0.0157012
655.796	0.0156442
655.874	0.0155930
655.953	0.0156955
656.031	0.0155824
656.109	0.0157426
656.187	0.0158305
656.265	0.0156954
656.343	0.0156761
656.421	0.0156224
656.499	0.0155649
656.578	0.0157585
656.656	0.0156906
656.734	0.0155692
656.812	0.0157164
656.890	0.0156135
656.968	0.0157132
657.046	0.0157107
657.124	0.0155505
657.203	0.0155929
657.281	0.0157681
657.359	0.0157843
657.437	0.0156756
657.515	0.0156726
657.593	0.0156626
657.671	0.0157494
657.749	0.0156555
657.828	0.0156746
657.906	0.0156696
657.984	0.0157901
658.062	0.0156639
658.140	0.0157771
658.218	0.0156992
658.296	0.0156503
658.374	0.0157529
658.453	0.0155918
658.531	0.0158054
658.609	0.0157119
658.687	0.0155553
658.765	0.0155104
658.843	0.0155865
658.921	0.0154772
658.999	0.0155837
659.078	0.0157143
659.156	0.0155865
659.234	0.0156050
659.312	0.0158109
659.390	0.0156674
659.468	0.0157314
659.546	0.0157413
659.624	0.0155775
659.703	0.0157258
659.781	0.0157671
659.859	0.0156469
659.937	0.0158076
660.015	0.0156020
660.093	0.0156613
660.171	0.0157007
660.249	0.0156753
660.328	0.0157185
660.406	0.0156422
660.484	0.0157480
660.562	0.0156327
660.640	0.0155726
660.718	0.0157863
660.796	0.0157811
660.874	0.0156727
660.953	0.0156215
661.031	0.0157034
661.109	0.0157117
661.187	0.0157395
661.265	0.0157388
661.343	0.0156863
661.421	0.0156662
661.499	0.0157746
661.578	0.0156296
661.656	0.0157371
661.734	0.0158199
661.812	0.0157233
661.890	0.0156800
661.968	0.0157438
662.046	0.0156390
662.124	0.0156867
662.203	0.0156999
662.281	0.0156234
662.359	0.0157600
662.437	0.0156324
662.515	0.0157568
662.593	0.0157426
662.671	0.0156995
662.749	0.0157632
662.828	0.0156937
662.906	0.0156835
662.984	0.0155643
663.062	0.0155993
663.140	0.0156307
663.218	0.0156168
663.296	0.0156101
663.374	0.0156145
663.453	0.0157485
663.531	0.0157598
663.609	0.0157915
663.687	0.0156049
663.765	0.0157026
663.843	0.0156226
663.921	0.0157486
663.999	0.0157230
664.078	0.0157968
664.156	0.0156446
664.234	0.0156973
664.312	0.0157365
664.390	0.0157117
664.468	0.0155976
664.546	0.0156652
664.624	0.0157278
664.703	0.0157940
664.781	0.0157307
664.859	0.0157249
664.937	0.0159695
665.015	0.0156222
665.093	0.0157053
665.171	0.0155753
665.249	0.0156332
665.328	0.0157239
665.406	0.0157811
665.484	0.0156533
665.562	0.0156724
665.640	0.0156861
665.718	0.0156596
665.796	0.0156257
665.874	0.0157204
665.953	0.0156100
666.031	0.0156631
666.109	0.0158241
666.187	0.0156203
666.265	0.0155654
666.343	0.0156194
666.421	0.0157582
666.499	0.0158012
666.578	0.0157256
666.656	0.0157037
666.734	0.0155302
666.812	0.0157117
666.890	0.0157045
666.968	0.0156176
667.046	0.0155745
667.124	0.0156630
667.203	0.0157159
667.281	0.0157402
667.359	0.0156413
667.437	0.0157293
667.515	0.0157471
667.593	0.0156478
667.671	0.0156893
667.749	0.0157510
667.828	0.0156700
667.906	0.0156953
667.984	0.0155952
668.062	0.0156529
668.140	0.0156367
668.218	0.0157009
668.296	0.0156945
668.374	0.0156520
668.453	0.0154673
668.531	0.0155199
668.609	0.0155962
668.687	0.0156616
668.765	0.0156638
668.843	0.0156157
668.921	0.0156346
668.999	0.0155672
669.078	0.0156708
669.156	0.0156734
669.234	0.0155498
669.312	0.0155934
669.390	0.0155999
669.468	0.0156041
669.546	0.0157225
669.624	0.0156512
669.703	0.0156300
669.781	0.0156924
669.859	0.0157668
669.937	0.0156474
670.015	0.0156796
670.093	0.0156965
670.171	0.0156676
670.249	0.0155627
670.328	0.0157082
670.406	0.0157272
670.484	0.0155972
670.562	0.0156400
670.640	0.0158138
670.718	0.0157602
670.796	0.0155985
670.874	0.0157301
670.953	0.0156338
671.031	0.0156094
671.109	0.0157793
671.187	0.0156412
671.265	0.0157795
671.343	0.0156666
671.421	0.0156290
671.499	0.0156596
671.578	0.0157892
671.656	0.0156465
671.734	0.0156275
671.812	0.0157401
671.890	0.0158551
671.968	0.0156012
672.046	0.0156697
672.124	0.0157691
672.203	0.0156739
672.281	0.0157591
672.359	0.0157531
672.437	0.0156404
672.515	0.0156064
672.593	0.0156644
672.671	0.0155899
672.749	0.0156288
672.828	0.0157037
672.906	0.0156989
672.984	0.0156427
673.062	0.0156315
673.140	0.0155944
673.218	0.0156066
673.296	0.0157705
673.374	0.0157851
673.453	0.0156907
673.531	0.0156580
673.609	0.0156629
673.687	0.0156461
673.765	0.0156545
673.843	0.0157543
673.921	0.0156184
673.999	0.0155615
674.078	0.0155322
674.156	0.0157012
674.234	0.0157887
674.312	0.0156426
674.390	0.0158126
674.468	0.0156276
674.546	0.0155774
674.624	0.0155228
674.703	0.0157511
674.781	0.0157340
674.859	0.0156876
674.937	0.0156155
675.015	0.0155618
675.093	0.0156415
675.171	0.0156497
675.249	0.0156973
675.328	0.0157021
675.406	0.0157645
675.484	0.0156872
675.562	0.0158357
675.640	0.0158113
675.718	0.0155812
675.796	0.0155887
675.874	0.0155771
675.953	0.0157109
676.031	0.0157238
676.109	0.0156418
676.187	0.0155051
676.265	0.0158459
676.343	0.0156337
676.421	0.0158043
676.499	0.0157151
676.578	0.0157617
676.656	0.0156978
676.734	0.0155711
676.812	0.0156432
676.890	0.0157186
676.968	0.0156718
677.046	0.0156913
677.124	0.0157051
677.203	0.0157287
677.281	0.0157344
677.359	0.0155415
677.437	0.0157567
677.515	0.0157693
677.593	0.0157233
677.671	0.0157479
677.749	0.0156423
677.828	0.0157125
677.906	0.0157520
677.984	0.0157831
678.062	0.0156876
678.140	0.0156264
678.218	0.0155753
678.296	0.0156036
678.374	0.0156796
678.453	0.0155959
678.531	0.0157526
678.609	0.0158291
678.687	0.0156847
678.765	0.0156462
678.843	0.0157091
678.921	0.0157623
678.999	0.0157007
679.078	0.0156953
679.156	0.0157342
679.234	0.0156144
679.312	0.0157840
679.390	0.0156725
679.468	0.0157184
679.546	0.0156144
679.624	0.0155129
679.703	0.0157069
679.781	0.0158740
679.859	0.0157409
679.937	0.0156111
680.015	0.0157323
680.093	0.0158385
680.171	0.0155575
680.249	0.0155882
680.328	0.0155744
680.406	0.0157122
680.484	0.0157825
680.562	0.0156567
680.640	0.0157804
680.718	0.0157983
680.796	0.0157167
680.874	0.0157462
680.953	0.0155659
681.031	0.0156596
681.109	0.0156709
681.187	0.0156046
681.265	0.0157121
681.343	0.0158179
681.421	0.0157247
681.499	0.0157928
681.578	0.0156596
681.656	0.0156115
681.734	0.0156562
681.812	0.0157446
681.890	0.0157240
681.968	0.0155709
682.046	0.0156720
682.124	0.0157362
682.203	0.0155622
682.281	0.0157326
682.359	0.0157775
682.437	0.0156106
682.515	0.0156604
682.593	0.0156794
682.671	0.0157374
682.749	0.0157040
682.828	0.0157742
682.906	0.0155705
682.984	0.0155952
683.062	0.0156223
683.140	0.0155965
683.218	0.0156231
683.296	0.0156249
683.374	0.0158010
683.453	0.0156247
683.531	0.0155459
683.609	0.0156889
683.687	0.0156614
683.765	0.0156535
683.843	0.0155547
683.921	0.0156805
683.999	0.0157050
684.078	0.0155355
684.156	0.0155796
684.234	0.0156242
684.312	0.0156810
684.390	0.0156358
684.468	0.0157179
684.546	0.0156676
684.624	0.0156289
684.703	0.0156947
684.781	0.0156502
684.859	0.0157722
684.937	0.0155662
685.015	0.0155345
685.093	0.0155875
685.171	0.0157181
685.249	0.0156350
685.328	0.0155341
685.406	0.0157127
685.484	0.0156940
685.562	0.0157805
685.640	0.0156380
685.718	0.0156491
685.796	0.0155971
685.874	0.0159040
685.953	0.0157219
686.031	0.0154954
686.109	0.0156085
686.187	0.0155997
686.265	0.0155620
686.343	0.0157793
686.421	0.0155547
686.499	0.0156091
686.578	0.0156152
686.656	0.0157601
686.734	0.0156435
686.812	0.0156287
686.890	0.0156335
686.968	0.0157521
687.046	0.0157321
687.124	0.0155966
687.203	0.0155522
687.281	0.0156950
687.359	0.0157203
687.437	0.0156969
687.515	0.0155671
687.593	0.0157098
687.671	0.0156716
687.749	0.0156654
687.828	0.0156435
687.906	0.0157264
687.984	0.0157526
688.062	0.0156864
688.140	0.0156134
688.218	0.0157050
688.296	0.0156970
688.374	0.0157355
688.453	0.0155907
688.531	0.0155369
688.609	0.0155916
688.687	0.0155461
688.765	0.0156883
688.843	0.0156462
688.921	0.0157160
688.999	0.0156919
689.078	0.0155721
689.156	0.0156732
689.234	0.0156636
689.312	0.0157804
689.390	0.0155866
689.468	0.0156786
689.546	0.0156209
689.624	0.0156383
689.703	0.0155934
689.781	0.0155810
689.859	0.0157530
689.937	0.0158118
690.015	0.0157780
690.093	0.0156936
690.171	0.0157777
690.249	0.0156930
690.328	0.0156677
690.406	0.0157169
690.484	0.0156708
690.562	0.0156275
690.640	0.0154243
690.718	0.0156442
690.796	0.0157096
690.874	0.0156873
690.953	0.0156999
691.031	0.0156344
691.109	0.0157162
691.187	0.0156145
691.265	0.0154230
691.343	0.0155658
691.421	0.0157051
691.499	0.0157566
691.578	0.0155583
691.656	0.0156181
691.734	0.0155846
691.812	0.0156287
691.890	0.0157990
691.968	0.0155776
692.046	0.0156750
692.124	0.0156696
692.203	0.0157137
692.281	0.0156860
692.359	0.0155450
692.437	0.0156279
692.515	0.0156190
692.593	0.0156060
692.671	0.0155784
692.749	0.0157126
692.828	0.0156316
692.906	0.0155375
692.984	0.0156236
693.062	0.0156121
693.140	0.0156345
693.218	0.0155381
693.296	0.0156498
693.374	0.0156500
693.453	0.0158282
693.531	0.0157213
693.609	0.0156086
693.687	0.0156364
693.765	0.0156740
693.843	0.0157052
693.921	0.0157549
693.999	0.0156532
694.078	0.0156273
694.156	0.0157180
694.234	0.0156853
694.312	0.0155721
694.390	0.0155487
694.468	0.0157076
694.546	0.0156087
694.624	0.0156071
694.703	0.0155608
694.781	0.0154773
694.859	0.0157407
694.937	0.0156170
695.015	0.0156628
695.093	0.0155430
695.171	0.0156045
695.249	0.0156598
695.328	0.0157021
695.406	0.0155901
695.484	0.0157671
695.562	0.0156917
695.640	0.0156840
695.718	0.0157487
695.796	0.0157112
695.874	0.0156712
695.953	0.0158730
696.031	0.0156577
696.109	0.0156568
696.187	0.0157359
696.265	0.0156694
696.343	0.0157141
696.421	0.0154257
696.499	0.0157329
696.578	0.0155261
696.656	0.0155681
696.734	0.0157047
696.812	0.0156198
696.890	0.0156100
696.968	0.0156011
697.046	0.0155666
697.124	0.0155914
697.203	0.0155698
697.281	0.0156902
697.359	0.0157009
697.437	0.0156541
697.515	0.0155443
697.593	0.0155991
697.671	0.0157635
697.749	0.0157181
697.828	0.0156290
697.906	0.0156770
697.984	0.0157321
698.062	0.0156664
698.140	0.0157214
698.218	0.0155460
698.296	0.0157866
698.374	0.0157318
698.453	0.0156072
698.531	0.0156759
698.609	0.0156093
698.687	0.0156969
698.765	0.0156623
698.843	0.0157790
698.921	0.0156942
698.999	0.0155653
699.078	0.0157026
699.156	0.0157023
699.234	0.0157364
699.312	0.0156841
699.390	0.0156424
699.468	0.0156725
699.546	0.0157011
699.624	0.0157271
699.703	0.0156674
699.781	0.0156721
699.859	0.0157320
699.937	0.0156223
700.015	0.0156837
700.093	0.0157034
700.171	0.0157663
700.249	0.0155808
700.328	0.0157397
700.406	0.0157433
700.484	0.0157589
700.562	0.0156976
700.640	0.0157063
700.718	0.0156346
700.796	0.0156569
700.874	0.0157613
700.953	0.0156018
701.031	0.0157272
701.109	0.0157547
701.187	0.0157449
701.265	0.0158084
701.343	0.0156062
701.421	0.0156410
701.499	0.0158477
701.578	0.0156635
701.656	0.0157307
701.734	0.0157433
701.812	0.0156248
701.890	0.0157334
701.968	0.0156316
702.046	0.0156989
702.124	0.0156516
702.203	0.0155750
702.281	0.0158336
702.359	0.0157002
702.437	0.0157700
702.515	0.0156528
702.593	0.0157417
702.671	0.0157741
702.749	0.0156769
702.828	0.0157156
702.906	0.0156652
702.984	0.0157429
703.062	0.0157554
703.140	0.0156099
703.218	0.0156273
703.296	0.0157472
703.374	0.0155324
703.453	0.0156612
703.531	0.0157675
703.609	0.0155836
703.687	0.0157632
703.765	0.0157629
703.843	0.0157708
703.921	0.0158839
703.999	0.0157792
704.078	0.0157711
704.156	0.0157458
704.234	0.0157481
704.312	0.0157077
704.390	0.0154749
704.468	0.0156682
704.546	0.0158022
704.624	0.0158541
704.703	0.0157050
704.781	0.0157764
704.859	0.0156633
704.937	0.0156045
705.015	0.0157127
705.093	0.0157309
705.171	0.0156373
705.249	0.0158709
705.328	0.0156319
705.406	0.0157027
705.484	0.0156981
705.562	0.0157569
705.640	0.0155582
705.718	0.0158112
705.796	0.0157515
705.874	0.0158038
705.953	0.0156706
706.031	0.0156804
706.109	0.0158084
706.187	0.0156277
706.265	0.0155408
706.343	0.0156299
706.421	0.0157557
706.499	0.0155553
706.578	0.0157236
706.656	0.0156116
706.734	0.0155668
706.812	0.0158260
706.890	0.0156389
706.968	0.0157515
707.046	0.0157537
707.124	0.0156437
707.203	0.0156944
707.281	0.0156385
707.359	0.0155595
707.437	0.0157288
707.515	0.0157537
707.593	0.0156217
707.671	0.0157511
707.749	0.0157097
707.828	0.0156879
707.906	0.0157511
707.984	0.0156997
708.062	0.0157152
708.140	0.0156600
708.218	0.0156069
708.296	0.0157648
708.374	0.0156451
708.453	0.0157037
708.531	0.0156544
708.609	0.0155892
708.687	0.0155509
708.765	0.0157411
708.843	0.0156013
708.921	0.0156020
708.999	0.0156844
709.078	0.0156934
709.156	0.0155882
709.234	0.0158575
709.312	0.0157119
709.390	0.0155223
709.468	0.0156280
709.546	0.0155765
709.624	0.0155833
709.703	0.0156339
709.781	0.0156861
709.859	0.0155619
709.937	0.0155434
710.015	0.0156598
710.093	0.0156583
710.171	0.0156917
710.249	0.0156924
710.328	0.0154916
710.406	0.0157267
710.484	0.0157483
710.562	0.0157013
710.640	0.0156356
710.718	0.0156069
710.796	0.0156818
710.874	0.0155964
710.953	0.0157081
711.031	0.0156575
711.109	0.0155875
711.187	0.0156276
711.265	0.0155891
711.343	0.0155479
711.421	0.0156793
711.499	0.0156177
711.578	0.0158101
711.656	0.0156676
711.734	0.0156868
711.812	0.0157240
711.890	0.0156203
711.968	0.0156534
712.046	0.0156374
712.124	0.0157587
712.203	0.0155289
712.281	0.0156258
712.359	0.0156227
712.437	0.0157595
712.515	0.0157703
712.593	0.0157362
712.671	0.0156606
712.749	0.0157045
712.828	0.0156670
712.906	0.0155643
712.984	0.0157139
713.062	0.0157101
713.140	0.0156060
713.218	0.0156155
713.296	0.0155548
713.374	0.0156866
713.453	0.0156541
713.531	0.0157475
713.609	0.0156594
713.687	0.0156438
713.765	0.0155125
713.843	0.0154819
713.921	0.0156156
713.999	0.0156358
714.078	0.0155936
714.156	0.0156523
714.234	0.0157239
714.312	0.0156514
714.390	0.0155630
714.468	0.0157406
714.546	0.0157303
714.624	0.0157114
714.703	0.0156812
714.781	0.0155873
714.859	0.0156541
714.937	0.0156850
715.015	0.0157482
715.093	0.0156365
715.171	0.0157262
715.249	0.0156908
715.328	0.0155406
715.406	0.0156917
715.484	0.0156499
715.562	0.0155911
715.640	0.0156805
715.718	0.0157143
715.796	0.0155906
715.874	0.0156117
715.953	0.0156248
716.031	0.0155293
716.109	0.0155598
716.187	0.0155209
716.265	0.0156562
716.343	0.0157104
716.421	0.0155875
716.499	0.0156020
716.578	0.0156891
716.656	0.0155749
716.734	0.0156298
716.812	0.0156663
716.890	0.0156721
716.968	0.0155906
717.046	0.0157275
717.124	0.0157256
717.203	0.0156605
717.281	0.0156312
717.359	0.0157472
717.437	0.0157247
717.515	0.0155577
717.593	0.0156614
717.671	0.0156107
717.749	0.0156832
717.828	0.0156859
717.906	0.0157351
717.984	0.0155911
718.062	0.0157175
718.140	0.0156252
718.218	0.0155742
718.296	0.0156542
718.374	0.0156158
718.453	0.0156070
718.531	0.0156490
718.609	0.0156689
718.687	0.0155640
718.765	0.0156151
718.843	0.0157870
718.921	0.0157208
718.999	0.0158074
719.078	0.0156589
719.156	0.0156772
719.234	0.0156878
719.312	0.0156306
719.390	0.0156073
719.468	0.0156415
719.546	0.0156933
719.624	0.0157287
719.703	0.0157291
719.781	0.0155687
719.859	0.0156026
719.937	0.0157579
720.015	0.0157606
720.093	0.0156030
720.171	0.0156304
720.249	0.0156714
720.328	0.0156794
720.406	0.0157412
720.484	0.0157671
720.562	0.0156862
720.640	0.0157265
720.718	0.0156002
720.796	0.0156842
720.874	0.0157481
720.953	0.0157545
721.031	0.0157266
721.109	0.0156724
721.187	0.0157996
721.265	0.0157409
721.343	0.0156404
721.421	0.0157027
721.499	0.0157336
721.578	0.0158210
721.656	0.0157537
721.734	0.0157516
721.812	0.0157664
721.890	0.0156810
721.968	0.0157056
722.046	0.0157676
722.124	0.0157674
722.203	0.0157525
722.281	0.0158849
722.359	0.0158295
722.437	0.0157519
722.515	0.0157087
722.593	0.0157546
722.671	0.0157916
722.749	0.0159803
722.828	0.0157883
722.906	0.0156441
722.984	0.0157801
723.062	0.0157672
723.140	0.0157417
723.218	0.0157289
723.296	0.0157101
723.374	0.0157363
723.453	0.0156923
723.531	0.0156601
723.609	0.0157826
723.687	0.0159304
723.765	0.0157734
723.843	0.0156976
723.921	0.0157928
723.999	0.0159238
724.078	0.0157256
724.156	0.0157623
724.234	0.0156572
724.312	0.0156926
724.390	0.0157926
724.468	0.0157349
724.546	0.0157668
724.624	0.0158100
724.703	0.0157689
724.781	0.0158284
724.859	0.0157738
724.937	0.0157957
725.015	0.0158247
725.093	0.0157388
725.171	0.0156844
725.249	0.0157867
725.328	0.0156771
725.406	0.0157278
725.484	0.0158488
725.562	0.0156532
725.640	0.0157895
725.718	0.0156540
725.796	0.0156884
725.874	0.0156608
725.953	0.0158762
726.031	0.0156809
726.109	0.0157039
726.187	0.0156528
726.265	0.0157378
726.343	0.0157218
726.421	0.0158652
726.499	0.0157495
726.578	0.0156915
726.656	0.0156598
726.734	0.0156992
726.812	0.0156171
726.890	0.0157215
726.968	0.0155954
727.046	0.0156379
727.124	0.0156937
727.203	0.0157227
727.281	0.0155064
727.359	0.0155854
727.437	0.0156950
727.515	0.0157603
727.593	0.0155838
727.671	0.0157197
727.749	0.0156260
727.828	0.0155541
727.906	0.0156219
727.984	0.0155968
728.062	0.0156224
728.140	0.0156286
728.218	0.0156849
728.296	0.0157553
728.374	0.0155630
728.453	0.0155814
728.531	0.0157274
728.609	0.0155841
728.687	0.0156705
728.765	0.0156030
728.843	0.0154536
728.921	0.0156532
728.999	0.0157140
729.078	0.0155038
729.156	0.0155707
729.234	0.0156112
729.312	0.0154362
729.390	0.0155134
729.468	0.0155692
729.546	0.0157692
729.624	0.0156460
729.703	0.0154870
729.781	0.0156290
729.859	0.0157671
729.937	0.0157056
730.015	0.0155795
730.093	0.0156329
730.171	0.0155291
730.249	0.0155923
730.328	0.0155801
730.406	0.0155805
730.484	0.0155223
730.562	0.0156921
730.640	0.0155402
730.718	0.0155250
730.796	0.0155656
730.874	0.0157450
730.953	0.0156547
731.031	0.0157074
731.109	0.0155583
731.187	0.0156544
731.265	0.0157463
731.343	0.0157272
731.421	0.0156146
731.499	0.0156109
731.578	0.0159566
731.656	0.0157445
731.734	0.0155317
731.812	0.0156715
731.890	0.0157228
731.968	0.0155466
732.046	0.0156300
732.124	0.0156151
732.203	0.0155599
732.281	0.0157452
732.359	0.0156776
732.437	0.0156429
732.515	0.0156625
732.593	0.0156456
732.671	0.0157246
732.749	0.0156816
732.828	0.0156951
732.906	0.0158018
732.984	0.0157409
733.062	0.0158186
733.140	0.0155669
733.218	0.0156084
733.296	0.0156958
733.374	0.0157504
733.453	0.0157950
733.531	0.0156928
733.609	0.0156479
733.687	0.0156606
733.765	0.0156511
733.843	0.0156977
733.921	0.0157274
733.999	0.0154810
734.078	0.0156731
734.156	0.0155161
734.234	0.0156167
734.312	0.0157276
734.390	0.0156745
734.468	0.0156390
734.546	0.0156537
734.624	0.0155970
734.703	0.0156242
734.781	0.0157881
734.859	0.0159106
734.937	0.0159163
735.015	0.0159000
735.093	0.0160097
735.171	0.0159785
735.249	0.0157629
735.328	0.0158953
735.406	0.0157332
735.484	0.0154808
735.562	0.0152941
735.640	0.0153096
735.718	0.0153503
735.796	0.0150868
735.874	0.0153376
735.953	0.0153841
736.031	0.0155898
736.109	0.0158909
736.187	0.0160954
736.265	0.0162617
736.343	0.0161761
736.421	0.0163141
736.499	0.0162064
736.578	0.0161943
736.656	0.0158508
736.734	0.0157261
736.812	0.0156033
736.890	0.0155637
736.968	0.0152534
737.046	0.0152921
737.124	0.0154157
737.203	0.0154142
737.281	0.0153920
737.359	0.0155546
737.437	0.0154734
737.515	0.0155996
737.593	0.0154767
737.671	0.0154807
737.749	0.0155540
737.828	0.0157009
737.906	0.0154757
737.984	0.0155929
738.062	0.0154987
738.140	0.0155052
738.218	0.0156719
738.296	0.0156883
738.374	0.0157391
738.453	0.0156631
738.531	0.0159596
738.609	0.0158461
738.687	0.0157413
738.765	0.0157169
738.843	0.0158017
738.921	0.0157726
738.999	0.0156556
739.078	0.0157222
739.156	0.0157572
739.234	0.0158200
739.312	0.0158466
739.390	0.0160239
739.468	0.0159040
739.546	0.0162328
739.624	0.0162492
739.703	0.0162109
739.781	0.0163004
739.859	0.0163351
739.937	0.0162359
740.015	0.0161886
740.093	0.0159367
740.171	0.0159225
740.249	0.0155576
740.328	0.0154018
740.406	0.0152811
740.484	0.0149731
740.562	0.0146653
740.640	0.0147227
740.718	0.0145673
740.796	0.0143462
740.874	0.0144884
740.953	0.0145335
741.031	0.0145056
741.109	0.0144887
741.187	0.0147401
741.265	0.0148018
741.343	0.0147784
741.421	0.0150748
741.499	0.0152409
741.578	0.0153839
741.656	0.0156027
741.734	0.0158994
741.812	0.0162483
741.890	0.0165016
741.968	0.0167142
742.046	0.0167962
742.124	0.0171111
742.203	0.0172656
742.281	0.0173029
742.359	0.0171807
742.437	0.0172756
742.515	0.0172020
742.593	0.0169196
742.671	0.0170256
742.749	0.0168166
742.828	0.0166177
742.906	0.0163557
742.984	0.0161292
743.062	0.0160153
743.140	0.0157982
743.218	0.0155653
743.296	0.0153033
743.374	0.0149554
743.453	0.0147591
743.531	0.0145278
743.609	0.0147503
743.687	0.0146082
743.765	0.0145609
743.843	0.0145985
743.921	0.0147896
743.999	0.0148580
744.078	0.0150322
744.156	0.0151318
744.234	0.0152599
744.312	0.0154437
744.390	0.0155721
744.468	0.0154813
744.546	0.0153944
744.624	0.0154951
744.703	0.0154214
744.781	0.0152784
744.859	0.0151692
744.937	0.0151575
745.015	0.0150224
745.093	0.0150134
745.171	0.0148361
745.249	0.0147921
745.328	0.0145650
745.406	0.0145248
745.484	0.0146469
745.562	0.0148513
745.640	0.0150350
745.718	0.0152139
745.796	0.0155099
745.874	0.0159038
745.953	0.0163354
746.031	0.0166376
746.109	0.0169571
746.187	0.0172105
746.265	0.0174541
746.343	0.0175807
746.421	0.0176462
746.499	0.0176561
746.578	0.0175937
746.656	0.0174236
746.734	0.0173360
746.812	0.0172057
746.890	0.0169996
746.968	0.0167399
747.046	0.0166444
747.124	0.0163515
747.203	0.0161690
747.281	0.0158076
747.359	0.0156705
747.437	0.0154205
747.515	0.0155554
747.593	0.0152451
747.671	0.0152274
747.749	0.0151386
747.828	0.0150000
747.906	0.0150350
747.984	0.0149075
748.062	0.0148843
748.140	0.0149205
748.218	0.0147990
748.296	0.0148689
748.374	0.0147386
748.453	0.0147433
748.531	0.0147298
748.609	0.0148022
748.687	0.0147547
748.765	0.0148322
748.843	0.0148946
748.921	0.0149378
748.999	0.0150029
749.078	0.0150826
749.156	0.0150716
749.234	0.0152892
749.312	0.0152828
749.390	0.0154495
749.468	0.0153822
749.546	0.0153634
749.624	0.0153366
749.703	0.0156664
749.781	0.0158971
749.859	0.0157323
749.937	0.0157040
750.015	0.0157816
750.093	0.0159659
750.171	0.0161292
750.249	0.0161376
750.328	0.0163358
750.406	0.0165952
750.484	0.0166300
750.562	0.0169901
750.640	0.0172198
750.718	0.0171779
750.796	0.0172571
750.874	0.0174287
750.953	0.0172802
751.031	0.0171967
751.109	0.0170387
751.187	0.0169098
751.265	0.0167462
751.343	0.0164127
751.421	0.0163277
751.499	0.0160262
751.578	0.0157365
751.656	0.0155599
751.734	0.0152666
751.812	0.0151215
751.890	0.0148979
751.968	0.0148495
752.046	0.0146837
752.124	0.0144100
752.203	0.0144032
752.281	0.0145054
752.359	0.0146302
752.437	0.0147568
752.515	0.0148637
752.593	0.0151571
752.671	0.0154405
752.749	0.0156335
752.828	0.0158261
752.906	0.0159721
752.984	0.0161485
753.062	0.0162055
753.140	0.0161723
753.218	0.0163552
753.296	0.0163271
753.374	0.0162317
753.453	0.0160174
753.531	0.0159713
753.609	0.0158954
753.687	0.0156615
753.765	0.0156369
753.843	0.0153361
753.921	0.0152673
753.999	0.0151514
754.078	0.0150069
754.156	0.0149115
754.234	0.0149883
754.312	0.0148759
754.390	0.0149193
754.468	0.0149090
754.546	0.0148878
754.624	0.0151967
754.703	0.0153041
754.781	0.0153988
754.859	0.0155240
754.937	0.0156087
755.015	0.0158389
755.093	0.0157956
755.171	0.0159712
755.249	0.0159895
755.328	0.0162109
755.406	0.0163155
755.484	0.0163801
755.562	0.0167371
755.640	0.0165473
755.718	0.0166245
755.796	0.0166997
755.874	0.0167324
755.953	0.0165480
756.031	0.0163778
756.109	0.0162531
756.187	0.0162435
756.265	0.0160694
756.343	0.0158698
756.421	0.0156837
756.499	0.0155473
756.578	0.0155061
756.656	0.0155180
756.734	0.0152338
756.812	0.0153290
756.890	0.0152566
756.968	0.0151600
757.046	0.0152586
757.124	0.0153527
757.203	0.0154453
757.281	0.0154287
757.359	0.0155183
757.437	0.0156435
757.515	0.0156039
757.593	0.0158323
757.671	0.0157874
757.749	0.0157902
757.828	0.0158381
757.906	0.0159247
757.984	0.0158691
758.062	0.0156998
758.140	0.0155959
758.218	0.0155601
758.296	0.0155219
758.374	0.0153291
758.453	0.0153053
758.531	0.0150676
758.609	0.0150478
758.687	0.0147716
758.765	0.0147400
758.843	0.0146273
758.921	0.0145494
758.999	0.0146017
759.078	0.0148357
759.156	0.0148685
759.234	0.0147988
759.312	0.0150494
759.390	0.0152090
759.468	0.0154736
759.546	0.0155958
759.624	0.0156338
759.703	0.0158860
759.781	0.0159134
759.859	0.0160753
759.937	0.0163104
760.015	0.0162833
760.093	0.0163950
760.171	0.0165652
760.249	0.0166507
760.328	0.0167696
760.406	0.0169149
760.484	0.0168347
760.562	0.0169627
760.640	0.0168806
760.718	0.0169350
760.796	0.0169027
760.874	0.0167875
760.953	0.0165691
761.031	0.0164842
761.109	0.0165492
761.187	0.0162753
761.265	0.0162461
761.343	0.0160925
761.421	0.0157441
761.499	0.0157900
761.578	0.0155503
761.656	0.0154250
761.734	0.0150921
761.812	0.0150838
761.890	0.0151106
761.968	0.0149239
762.046	0.0147948
762.124	0.0148486
762.203	0.0148338
762.281	0.0148899
762.359	0.0148804
762.437	0.0147742
762.515	0.0150451
762.593	0.0150992
762.671	0.0152010
762.749	0.0152407
762.828	0.0152908
762.906	0.0153875
762.984	0.0155133
763.062	0.0154853
763.140	0.0155909
763.218	0.0156496
763.296	0.0157204
763.374	0.0156802
763.453	0.0157770
763.531	0.0157610
763.609	0.0158523
763.687	0.0160255
763.765	0.0158784
763.843	0.0160346
763.921	0.0161445
763.999	0.0160516
764.078	0.0160259
764.156	0.0160281
764.234	0.0161388
764.312	0.0161293
764.390	0.0161487
764.468	0.0160037
764.546	0.0159480
764.624	0.0159743
764.703	0.0157408
764.781	0.0157256
764.859	0.0158414
764.937	0.0157159
765.015	0.0156998
765.093	0.0157323
765.171	0.0157719
765.249	0.0157153
765.328	0.0156317
765.406	0.0156066
765.484	0.0158070
765.562	0.0157928
765.640	0.0158792
765.718	0.0156742
765.796	0.0156292
765.874	0.0156657
765.953	0.0155761
766.031	0.0156548
766.109	0.0156476
766.187	0.0156728
766.265	0.0155655
766.343	0.0155521
766.421	0.0155759
766.499	0.0155327
766.578	0.0155447
766.656	0.0156119
766.734	0.0156175
766.812	0.0156721
766.890	0.0155688
766.968	0.0154144
767.046	0.0155083
767.124	0.0155498
767.203	0.0153617
767.281	0.0152988
767.359	0.0154155
767.437	0.0154227
767.515	0.0153033
767.593	0.0153678
767.671	0.0153683
767.749	0.0153357
767.828	0.0153513
767.906	0.0153207
767.984	0.0156103
768.062	0.0155162
768.140	0.0153394
768.218	0.0156454
768.296	0.0157707
768.374	0.0156806
768.453	0.0158658
768.531	0.0157081
768.609	0.0157553
768.687	0.0158643
768.765	0.0158288
768.843	0.0159374
768.921	0.0160484
768.999	0.0160529
769.078	0.0159305
769.156	0.0159423
769.234	0.0159608
769.312	0.0160455
769.390	0.0160156
769.468	0.0160347
769.546	0.0160423
769.624	0.0161937
769.703	0.0161623
769.781	0.0159891
769.859	0.0159891
769.937	0.0158457
770.015	0.0158917
770.093	0.0158563
770.171	0.0156844
770.249	0.0156711
770.328	0.0156084
770.406	0.0153603
770.484	0.0154303
770.562	0.0154784
770.640	0.0152292
770.718	0.0153097
770.796	0.0154066
770.874	0.0154067
770.953	0.0155558
771.031	0.0154559
771.109	0.0156264
771.187	0.0157536
771.265	0.0158002
771.343	0.0159126
771.421	0.0159785
771.499	0.0159906
771.578	0.0159688
771.656	0.0158820
771.734	0.0160407
771.812	0.0159679
771.890	0.0158635
771.968	0.0157566
772.046	0.0159298
772.124	0.0158183
772.203	0.0155654
772.281	0.0155661
772.359	0.0154857
772.437	0.0154479
772.515	0.0154224
772.593	0.0153289
772.671	0.0153853
772.749	0.0152970
772.828	0.0155219
772.906	0.0155140
772.984	0.0156013
773.062	0.0156541
773.140	0.0156882
773.218	0.0157590
773.296	0.0157471
773.374	0.0158282
773.453	0.0158928
773.531	0.0160197
773.609	0.0159259
773.687	0.0160165
773.765	0.0158875
773.843	0.0159361
773.921	0.0159461
773.999	0.0158667
774.078	0.0157447
774.156	0.0157516
774.234	0.0156747
774.312	0.0156152
774.390	0.0155339
774.468	0.0155703
774.546	0.0155522
774.624	0.0156828
774.703	0.0154685
774.781	0.0154132
774.859	0.0155024
774.937	0.0153791
775.015	0.0153888
775.093	0.0154780
775.171	0.0154287
775.249	0.0154348
775.328	0.0153026
775.406	0.0153302
775.484	0.0155460
775.562	0.0155162
775.640	0.0155470
775.718	0.0156833
775.796	0.0157216
775.874	0.0157310
775.953	0.0157939
776.031	0.0159295
776.109	0.0160704
776.187	0.0160543
776.265	0.0162534
776.343	0.0161633
776.421	0.0161427
776.499	0.0162103
776.578	0.0160503
776.656	0.0161901
776.734	0.0161393
776.812	0.0160110
776.890	0.0158406
776.968	0.0159386
777.046	0.0159280
777.124	0.0159063
777.203	0.0157721
777.281	0.0158649
777.359	0.0157659
777.437	0.0158351
777.515	0.0157941
777.593	0.0157199
777.671	0.0155948
777.749	0.0157217
777.828	0.0158053
777.906	0.0156289
777.984	0.0155335
778.062	0.0154772
778.140	0.0155538
778.218	0.0153413
778.296	0.0154135
778.374	0.0153453
778.453	0.0153746
778.531	0.0152500
778.609	0.0153111
778.687	0.0152927
778.765	0.0154166
778.843	0.0153212
778.921	0.0154768
778.999	0.0153096
779.078	0.0153212
779.156	0.0154693
779.234	0.0155460
779.312	0.0155267
779.390	0.0155645
779.468	0.0156615
779.546	0.0156915
779.624	0.0158704
779.703	0.0157545
779.781	0.0157939
779.859	0.0157789
779.937	0.0157043
780.015	0.0158293
780.093	0.0158749
780.171	0.0157082
780.249	0.0158529
780.328	0.0159433
780.406	0.0158788
780.484	0.0160004
780.562	0.0159015
780.640	0.0159915
780.718	0.0159612
780.796	0.0160072
780.874	0.0160933
780.953	0.0161739
781.031	0.0162898
781.109	0.0161895
781.187	0.0162469
781.265	0.0161028
781.343	0.0162179
781.421	0.0160643
781.499	0.0161298
781.578	0.0159648
781.656	0.0158852
781.734	0.0158689
781.812	0.0158592
781.890	0.0156290
781.968	0.0155668
782.046	0.0156551
782.124	0.0154887
782.203	0.0154408
782.281	0.0153753
782.359	0.0155074
782.437	0.0154381
782.515	0.0154300
782.593	0.0154051
782.671	0.0153671
782.749	0.0153909
782.828	0.0152330
782.906	0.0151952
782.984	0.0152516
783.062	0.0152779
783.140	0.0152975
783.218	0.0152155
783.296	0.0151608
783.374	0.0153421
783.453	0.0153532
783.531	0.0153526
783.609	0.0153913
783.687	0.0154668
783.765	0.0154433
783.843	0.0154939
783.921	0.0156558
783.999	0.0156929
784.078	0.0156561
784.156	0.0158432
784.234	0.0158556
784.312	0.0159132
784.390	0.0160477
784.468	0.0160071
784.546	0.0157732
784.624	0.0159840
784.703	0.0159967
784.781	0.0158078
784.859	0.0157639
784.937	0.0156782
785.015	0.0159028
785.093	0.0156892
785.171	0.0156985
785.249	0.0158233
785.328	0.0157793
785.406	0.0156369
785.484	0.0155504
785.562	0.0157271
785.640	0.0154940
785.718	0.0156067
785.796	0.0157543
785.874	0.0157090
785.953	0.0156485
786.031	0.0156196
786.109	0.0156565
786.187	0.0156283
786.265	0.0156112
786.343	0.0157710
786.421	0.0157143
786.499	0.0156143
786.578	0.0156770
786.656	0.0156596
786.734	0.0158227
786.812	0.0157153
786.890	0.0155913
786.968	0.0156075
787.046	0.0157203
787.124	0.0156062
787.203	0.0157103
787.281	0.0156062
787.359	0.0156184
787.437	0.0157245
787.515	0.0155244
787.593	0.0157054
787.671	0.0155437
787.749	0.0156983
787.828	0.0156998
787.906	0.0157098
787.984	0.0156842
788.062	0.0157978
788.140	0.0158998
788.218	0.0156275
788.296	0.0157242
788.374	0.0157581
788.453	0.0158926
788.531	0.0158543
788.609	0.0157593
788.687	0.0156108
788.765	0.0157604
788.843	0.0155778
788.921	0.0157095
788.999	0.0156225
789.078	0.0155382
789.156	0.0157080
789.234	0.0156066
789.312	0.0155573
789.390	0.0155559
789.468	0.0156086
789.546	0.0156049
789.624	0.0157846
789.703	0.0155774
789.781	0.0155238
789.859	0.0157024
789.937	0.0157159
790.015	0.0157978
790.093	0.0158412
790.171	0.0159181
790.249	0.0159576
790.328	0.0157980
790.406	0.0157380
790.484	0.0157879
790.562	0.0157132
790.640	0.0158224
790.718	0.0157930
790.796	0.0157608
790.874	0.0156940
790.953	0.0157606
791.031	0.0157928
791.109	0.0155515
791.187	0.0155795
791.265	0.0157019
791.343	0.0156671
791.421	0.0154968
791.499	0.0155533
791.578	0.0155377
791.656	0.0155432
791.734	0.0154940
791.812	0.0156327
791.890	0.0155905
791.968	0.0156754
792.046	0.0155978
792.124	0.0155356
792.203	0.0155850
792.281	0.0154852
792.359	0.0155100
792.437	0.0156236
792.515	0.0156249
792.593	0.0156690
792.671	0.0156639
792.749	0.0154534
792.828	0.0156966
792.906	0.0157957
792.984	0.0154571
793.062	0.0155530
793.140	0.0156561
793.218	0.0158352
793.296	0.0157061
793.374	0.0155811
793.453	0.0157210
793.531	0.0156060
793.609	0.0156995
793.687	0.0157545
793.765	0.0156845
793.843	0.0156574
793.921	0.0157726
793.999	0.0157832
794.078	0.0158091
794.156	0.0156303
794.234	0.0156425
794.312	0.0157034
794.390	0.0156471
794.468	0.0155344
794.546	0.0156345
794.624	0.0157430
794.703	0.0156701
794.781	0.0158469
794.859	0.0155749
794.937	0.0157168
795.015	0.0156944
795.093	0.0156236
795.171	0.0157736
795.249	0.0157436
795.328	0.0156628
795.406	0.0157526
795.484	0.0156596
795.562	0.0156280
795.640	0.0155779
795.718	0.0154893
795.796	0.0155109
795.874	0.0156293
795.953	0.0155569
796.031	0.0157892
796.109	0.0155412
796.187	0.0154663
796.265	0.0155563
796.343	0.0156024
796.421	0.0156393
796.499	0.0154868
796.578	0.0155198
796.656	0.0154964
796.734	0.0157586
796.812	0.0156725
796.890	0.0156831
796.968	0.0156694
797.046	0.0157327
797.124	0.0157014
797.203	0.0157223
797.281	0.0157956
797.359	0.0156374
797.437	0.0156813
797.515	0.0158071
797.593	0.0157793
797.671	0.0157306
797.749	0.0155780
797.828	0.0155945
797.906	0.0156261
797.984	0.0156112
798.062	0.0157703
798.140	0.0155951
798.218	0.0155281
798.296	0.0154882
798.374	0.0156759
798.453	0.0155477
798.531	0.0153756
798.609	0.0157438
798.687	0.0157442
798.765	0.0155817
798.843	0.0156374
798.921	0.0157701
798.999	0.0156603
799.078	0.0155665
799.156	0.0157310
799.234	0.0159073
799.312	0.0159075
799.390	0.0157057
799.468	0.0157838
799.546	0.0157436
799.624	0.0158029
799.703	0.0157699
799.781	0.0157281
799.859	0.0157284
799.937	0.0157124
800.015	0.0157252
800.093	0.0156987
800.171	0.0157386
800.249	0.0157301
800.328	0.0157238
800.406	0.0157166
800.484	0.0157423
800.562	0.0156035
800.640	0.0156948
800.718	0.0157413
800.796	0.0156519
800.874	0.0155667
800.953	0.0156175
801.031	0.0157324
801.109	0.0155364
801.187	0.0155865
801.265	0.0156429
801.343	0.0155928
801.421	0.0156886
801.499	0.0156427
801.578	0.0156216
801.656	0.0156924
801.734	0.0158006
801.812	0.0156139
801.890	0.0156174
801.968	0.0156619
802.046	0.0156419
802.124	0.0157970
802.203	0.0158664
802.281	0.0157559
802.359	0.0157909
802.437	0.0158430
802.515	0.0158031
802.593	0.0156329
802.671	0.0157098
802.749	0.0157315
802.828	0.0157300
802.906	0.0157458
802.984	0.0157427
803.062	0.0158045
803.140	0.0156428
803.218	0.0156528
803.296	0.0157467
803.374	0.0156661
803.453	0.0155564
803.531	0.0155017
803.609	0.0155138
803.687	0.0153664
803.765	0.0154398
803.843	0.0154748
803.921	0.0155275
803.999	0.0154349
804.078	0.0156756
804.156	0.0157174
804.234	0.0157113
804.312	0.0157548
804.390	0.0159101
804.468	0.0158524
804.546	0.0157875
804.624	0.0159143
804.703	0.0160601
804.781	0.0159545
804.859	0.0159473
804.937	0.0161725
805.015	0.0160414
805.093	0.0158926
805.171	0.0160285
805.249	0.0160085
805.328	0.0159571
805.406	0.0158912
805.484	0.0159145
805.562	0.0157488
805.640	0.0157349
805.718	0.0156625
805.796	0.0155007
805.874	0.0154189
805.953	0.0153493
806.031	0.0153925
806.109	0.0153768
806.187	0.0153394
806.265	0.0153968
806.343	0.0153768
806.421	0.0153459
806.499	0.0152351
806.578	0.0152753
806.656	0.0154568
806.734	0.0156123
806.812	0.0155569
806.890	0.0156955
806.968	0.0156505
807.046	0.0157383
807.124	0.0157446
807.203	0.0158397
807.281	0.0157431
807.359	0.0158540
807.437	0.0158710
807.515	0.0157903
807.593	0.0158041
807.671	0.0158034
807.749	0.0157845
807.828	0.0156935
807.906	0.0155305
807.984	0.0156983
808.062	0.0157342
808.140	0.0155967
808.218	0.0156393
808.296	0.0157133
808.374	0.0156053
808.453	0.0155566
808.531	0.0155173
808.609	0.0156181
808.687	0.0153157
808.765	0.0156050
808.843	0.0155337
808.921	0.0157200
808.999	0.0156680
809.078	0.0156874
809.156	0.0155979
809.234	0.0157808
809.312	0.0157785
809.390	0.0155250
809.468	0.0158758
809.546	0.0157508
809.624	0.0156423
809.703	0.0157719
809.781	0.0157602
809.859	0.0158007
809.937	0.0156008
810.015	0.0156107
810.093	0.0157301
810.171	0.0157982
810.249	0.0157143
810.328	0.0157156
810.406	0.0156686
810.484	0.0156992
810.562	0.0157664
810.640	0.0157156
810.718	0.0157715
810.796	0.0156259
810.874	0.0155672
810.953	0.0156097
811.031	0.0156962
811.109	0.0156651
811.187	0.0156876
811.265	0.0155293
811.343	0.0156221
811.421	0.0156380
811.499	0.0155699
811.578	0.0156613
811.656	0.0156200
811.734	0.0155994
811.812	0.0156028
811.890	0.0156721
811.968	0.0155549
812.046	0.0155251
812.124	0.0155103
812.203	0.0156254
812.281	0.0155394
812.359	0.0156817
812.437	0.0156456
812.515	0.0155994
812.593	0.0156344
812.671	0.0156339
812.749	0.0156856
812.828	0.0156544
812.906	0.0156524
812.984	0.0156368
813.062	0.0154954
813.140	0.0155733
813.218	0.0155848
813.296	0.0155910
813.374	0.0155199
813.453	0.0156444
813.531	0.0157481
813.609	0.0155441
813.687	0.0156409
813.765	0.0157654
813.843	0.0156795
813.921	0.0156595
813.999	0.0157737
814.078	0.0155961
814.156	0.0156470
814.234	0.0157239
814.312	0.0157655
814.390	0.0157494
814.468	0.0156367
814.546	0.0155617
814.624	0.0156866
814.703	0.0156718
814.781	0.0157330
814.859	0.0157219
814.937	0.0156040
815.015	0.0157058
815.093	0.0157901
815.171	0.0157413
815.249	0.0157003
815.328	0.0155783
815.406	0.0157339
815.484	0.0157230
815.562	0.0157053
815.640	0.0157399
815.718	0.0156242
815.796	0.0156035
815.874	0.0155534
815.953	0.0156506
816.031	0.0156409
816.109	0.0155521
816.187	0.0157136
816.265	0.0156798
816.343	0.0156427
816.421	0.0154913
816.499	0.0155273
816.578	0.0155540
816.656	0.0156402
816.734	0.0155717
816.812	0.0154886
816.890	0.0155160
816.968	0.0155551
817.046	0.0154996
817.124	0.0155945
817.203	0.0155273
817.281	0.0157280
817.359	0.0157642
817.437	0.0156867
817.515	0.0155907
817.593	0.0156573
817.671	0.0157138
817.749	0.0156832
817.828	0.0156303
817.906	0.0157648
817.984	0.0157928
818.062	0.0156436
818.140	0.0157094
818.218	0.0156151
818.296	0.0156911
818.374	0.0157545
818.453	0.0155808
818.531	0.0157053
818.609	0.0156347
818.687	0.0156455
818.765	0.0154819
818.843	0.0156007
818.921	0.0156403
818.999	0.0155883
819.078	0.0156650
819.156	0.0156094
819.234	0.0156242
819.312	0.0156278
819.390	0.0155133
819.468	0.0154734
819.546	0.0155892
819.624	0.0155433
819.703	0.0155621
819.781	0.0157046
819.859	0.0155898
819.937	0.0155206
820.015	0.0154984
820.093	0.0154787
820.171	0.0155516
820.249	0.0156812
820.328	0.0157256
820.406	0.0156890
820.484	0.0156863
820.562	0.0156867
820.640	0.0158295
820.718	0.0156593
820.796	0.0156773
820.874	0.0157223
820.953	0.0159411
821.031	0.0157674
821.109	0.0156535
821.187	0.0157347
821.265	0.0159624
821.343	0.0157912
821.421	0.0158083
821.499	0.0156342
821.578	0.0157240
821.656	0.0156586
821.734	0.0158099
821.812	0.0158778
821.890	0.0156909
821.968	0.0157905
822.046	0.0156203
822.124	0.0156361
822.203	0.0156057
822.281	0.0154945
822.359	0.0155312
822.437	0.0156105
822.515	0.0156583
822.593	0.0155499
822.671	0.0155244
822.749	0.0156025
822.828	0.0156257
822.906	0.0154314
822.984	0.0154111
823.062	0.0156297
823.140	0.0155502
823.218	0.0156194
823.296	0.0156733
823.374	0.0155645
823.453	0.0156569
823.531	0.0155994
823.609	0.0154855
823.687	0.0156198
823.765	0.0157433
823.843	0.0158590
823.921	0.0157687
823.999	0.0156139
824.078	0.0156133
824.156	0.0157185
824.234	0.0157266
824.312	0.0157870
824.390	0.0158006
824.468	0.0157958
824.546	0.0157266
824.624	0.0158670
824.703	0.0158017
824.781	0.0156453
824.859	0.0157991
824.937	0.0156734
825.015	0.0156579
825.093	0.0158207
825.171	0.0158106
825.249	0.0156995
825.328	0.0157361
825.406	0.0157068
825.484	0.0156627
825.562	0.0158215
825.640	0.0157346
825.718	0.0156901
825.796	0.0157120
825.874	0.0156705
825.953	0.0157354
826.031	0.0155905
826.109	0.0157049
826.187	0.0157698
826.265	0.0156992
826.343	0.0155710
826.421	0.0155420
826.499	0.0155500
826.578	0.0157090
826.656	0.0155492
826.734	0.0156364
826.812	0.0155762
826.890	0.0156295
826.968	0.0156091
827.046	0.0156567
827.124	0.0156200
827.203	0.0156141
827.281	0.0156270
827.359	0.0158018
827.437	0.0155692
827.515	0.0157581
827.593	0.0156534
827.671	0.0155379
827.749	0.0155569
827.828	0.0156961
827.906	0.0156908
827.984	0.0155857
828.062	0.0157096
828.140	0.0156532
828.218	0.0155490
828.296	0.0157053
828.374	0.0156775
828.453	0.0156211
828.531	0.0157576
828.609	0.0158268
828.687	0.0157508
828.765	0.0157774
828.843	0.0157905
828.921	0.0158634
828.999	0.0160136
829.078	0.0157434
829.156	0.0157966
829.234	0.0159098
829.312	0.0158582
829.390	0.0159203
829.468	0.0158511
829.546	0.0158724
829.624	0.0159695
829.703	0.0159280
829.781	0.0156065
829.859	0.0157710
829.937	0.0159366
830.015	0.0156798
830.093	0.0156725
830.171	0.0154915
830.249	0.0155544
830.328	0.0156488
830.406	0.0156440
830.484	0.0156850
830.562	0.0156631
830.640	0.0155725
830.718	0.0156503
830.796	0.0156034
830.874	0.0156418
830.953	0.0157526
831.031	0.0156769
831.109	0.0155170
831.187	0.0157999
831.265	0.0157600
831.343	0.0156464
831.421	0.0157826
831.499	0.0155772
831.578	0.0157572
831.656	0.0157463
831.734	0.0155381
831.812	0.0155755
831.890	0.0156324
831.968	0.0156586
832.046	0.0155826
832.124	0.0156970
832.203	0.0157693
832.281	0.0156374
832.359	0.0155545
832.437	0.0155666
832.515	0.0155537
832.593	0.0157049
832.671	0.0156248
832.749	0.0156948
832.828	0.0156557
832.906	0.0156602
832.984	0.0155467
833.062	0.0156030
833.140	0.0157291
833.218	0.0159107
833.296	0.0158395
833.374	0.0158105
833.453	0.0157523
833.531	0.0159879
833.609	0.0157427
833.687	0.0158691
833.765	0.0157933
833.843	0.0157475
833.921	0.0156674
833.999	0.0157745
834.078	0.0156770
834.156	0.0158486
834.234	0.0157175
834.312	0.0155930
834.390	0.0156371
834.468	0.0156808
834.546	0.0155821
834.624	0.0155857
834.703	0.0156822
834.781	0.0155283
834.859	0.0156615
834.937	0.0156673
835.015	0.0155400
835.093	0.0156061
835.171	0.0154832
835.249	0.0156702
835.328	0.0155677
835.406	0.0156925
835.484	0.0155582
835.562	0.0156911
835.640	0.0156777
835.718	0.0155710
835.796	0.0157226
835.874	0.0156925
835.953	0.0159158
836.031	0.0159453
836.109	0.0159680
836.187	0.0158218
836.265	0.0159030
836.343	0.0158529
836.421	0.0157705
836.499	0.0157803
836.578	0.0158489
836.656	0.0158366
836.734	0.0157842
836.812	0.0156037
836.890	0.0157684
836.968	0.0157354
837.046	0.0156124
837.124	0.0154605
837.203	0.0155463
837.281	0.0155901
837.359	0.0156733
837.437	0.0155259
837.515	0.0155032
837.593	0.0155875
837.671	0.0154726
837.749	0.0154234
837.828	0.0154655
837.906	0.0155325
837.984	0.0156691
838.062	0.0155730
838.140	0.0155064
838.218	0.0156054
838.296	0.0157246
838.374	0.0155875
838.453	0.0156667
838.531	0.0157973
838.609	0.0158309
838.687	0.0158039
838.765	0.0158575
838.843	0.0158611
838.921	0.0158215
838.999	0.0157857
839.078	0.0158060
839.156	0.0156709
839.234	0.0156882
839.312	0.0158645
839.390	0.0157836
839.468	0.0156655
839.546	0.0155613
839.624	0.0157213
839.703	0.0157388
839.781	0.0157973
839.859	0.0158637
839.937	0.0157148
840.015	0.0157073
840.093	0.0157364
840.171	0.0157536
840.249	0.0156322
840.328	0.0155611
840.406	0.0155397
840.484	0.0156777
840.562	0.0156001
840.640	0.0156581
840.718	0.0156363
840.796	0.0156322
840.874	0.0155528
840.953	0.0155423
841.031	0.0155399
841.109	0.0153649
841.187	0.0154628
841.265	0.0154216
841.343	0.0153487
841.421	0.0155328
841.499	0.0154417
841.578	0.0155151
841.656	0.0155797
841.734	0.0155430
841.812	0.0156021
841.890	0.0155006
841.968	0.0155402
842.046	0.0155947
842.124	0.0156679
842.203	0.0157954
842.281	0.0156951
842.359	0.0157272
842.437	0.0156847
842.515	0.0157388
842.593	0.0157960
842.671	0.0157985
842.749	0.0157524
842.828	0.0157566
842.906	0.0158733
842.984	0.0157631
843.062	0.0156117
843.140	0.0156413
843.218	0.0156778
843.296	0.0157150
843.374	0.0157044
843.453	0.0157404
843.531	0.0157243
843.609	0.0157025
843.687	0.0157280
843.765	0.0157322
843.843	0.0156691
843.921	0.0157620
843.999	0.0158189
844.078	0.0158890
844.156	0.0158025
844.234	0.0155417
844.312	0.0157177
844.390	0.0156220
844.468	0.0157718
844.546	0.0158258
844.624	0.0158556
844.703	0.0157269
844.781	0.0158032
844.859	0.0156869
844.937	0.0156100
845.015	0.0155266
845.093	0.0155819
845.171	0.0156514
845.249	0.0154543
845.328	0.0153924
845.406	0.0154778
845.484	0.0154253
845.562	0.0153323
845.640	0.0154234
845.718	0.0154045
845.796	0.0154787
845.874	0.0153812
845.953	0.0155614
846.031	0.0155684
846.109	0.0155952
846.187	0.0156673
846.265	0.0156989
846.343	0.0156638
846.421	0.0156658
846.499	0.0156101
846.578	0.0157339
846.656	0.0157826
846.734	0.0157397
846.812	0.0159650
846.890	0.0158858
846.968	0.0158160
847.046	0.0159061
847.124	0.0156568
847.203	0.0160268
847.281	0.0156870
847.359	0.0157598
847.437	0.0156941
847.515	0.0157446
847.593	0.0157850
847.671	0.0156205
847.749	0.0156348
847.828	0.0157410
847.906	0.0155378
847.984	0.0156515
848.062	0.0156765
848.140	0.0155954
848.218	0.0155841
848.296	0.0155991
848.374	0.0156249
848.453	0.0156595
848.531	0.0157733
848.609	0.0157151
848.687	0.0156644
848.765	0.0157184
848.843	0.0156470
848.921	0.0155888
848.999	0.0155648
849.078	0.0156747
849.156	0.0156712
849.234	0.0156712
849.312	0.0155288
849.390	0.0155390
849.468	0.0155149
849.546	0.0156392
849.624	0.0155759
849.703	0.0155774
849.781	0.0154557
849.859	0.0155724
849.937	0.0156013
850.015	0.0156260
850.093	0.0155620
850.171	0.0155351
850.249	0.0155983
850.328	0.0155450
850.406	0.0155324
850.484	0.0155743
850.562	0.0153514
850.640	0.0156206
850.718	0.0156013
850.796	0.0156852
850.874	0.0157309
850.953	0.0157253
851.031	0.0156414
851.109	0.0157482
851.187	0.0156859
851.265	0.0157743
851.343	0.0157607
851.421	0.0156510
851.499	0.0157170
851.578	0.0157404
851.656	0.0157524
851.734	0.0157525
851.812	0.0156541
851.890	0.0156481
851.968	0.0156681
852.046	0.0157874
852.124	0.0154916
852.203	0.0155389
852.281	0.0156245
852.359	0.0156386
852.437	0.0155983
852.515	0.0156301
852.593	0.0157379
852.671	0.0156525
852.749	0.0154726
852.828	0.0156032
852.906	0.0155220
852.984	0.0155871
853.062	0.0155524
853.140	0.0155396
853.218	0.0155868
853.296	0.0156622
853.374	0.0156727
853.453	0.0156369
853.531	0.0156484
853.609	0.0156984
853.687	0.0158479
853.765	0.0157430
853.843	0.0158105
853.921	0.0156680
853.999	0.0157233
854.078	0.0158033
854.156	0.0157166
854.234	0.0158392
854.312	0.0157886
854.390	0.0155183
854.468	0.0158021
854.546	0.0156660
854.624	0.0156046
854.703	0.0156111
854.781	0.0156227
854.859	0.0155933
854.937	0.0155441
855.015	0.0156239
855.093	0.0157327
855.171	0.0154939
855.249	0.0156346
855.328	0.0155089
855.406	0.0155782
855.484	0.0155200
855.562	0.0156110
855.640	0.0155964
855.718	0.0156316
855.796	0.0156638
855.874	0.0156152
855.953	0.0155820
856.031	0.0156666
856.109	0.0157160
856.187	0.0157047
856.265	0.0157611
856.343	0.0156940
856.421	0.0157391
856.499	0.0158142
856.578	0.0157910
856.656	0.0159327
856.734	0.0159191
856.812	0.0158747
856.890	0.0157246
856.968	0.0159423
857.046	0.0158617
857.124	0.0158356
857.203	0.0159013
857.281	0.0158656
857.359	0.0158629
857.437	0.0158549
857.515	0.0156970
857.593	0.0156564
857.671	0.0157079
857.749	0.0157561
857.828	0.0157710
857.906	0.0155817
857.984	0.0156243
858.062	0.0156461
858.140	0.0156895
858.218	0.0157639
858.296	0.0155762
858.374	0.0155605
858.453	0.0156828
858.531	0.0156670
858.609	0.0154973
858.687	0.0154418
858.765	0.0156352
858.843	0.0155562
858.921	0.0155453
858.999	0.0155041
859.078	0.0155963
859.156	0.0157037
859.234	0.0156525
859.312	0.0157214
859.390	0.0155044
859.468	0.0155421
859.546	0.0154516
859.624	0.0155759
859.703	0.0155076
859.781	0.0154737
859.859	0.0156010
859.937	0.0154729
860.015	0.0155492
860.093	0.0156325
860.171	0.0156659
860.249	0.0156796
860.328	0.0158190
860.406	0.0157653
860.484	0.0156944
860.562	0.0156814
860.640	0.0156835
860.718	0.0157162
860.796	0.0156537
860.874	0.0157693
860.953	0.0157010
861.031	0.0157883
861.109	0.0157857
861.187	0.0156749
861.265	0.0158312
861.343	0.0157281
861.421	0.0157236
861.499	0.0158156
861.578	0.0156768
861.656	0.0156607
861.734	0.0157201
861.812	0.0158585
861.890	0.0156061
861.968	0.0156297
862.046	0.0155072
862.124	0.0157211
862.203	0.0155090
862.281	0.0154974
862.359	0.0156556
862.437	0.0156327
862.515	0.0156393
862.593	0.0155177
862.671	0.0156989
862.749	0.0155736
862.828	0.0156566
862.906	0.0156759
862.984	0.0155271
863.062	0.0154677
863.140	0.0156438
863.218	0.0156618
863.296	0.0156207
863.374	0.0157739
863.453	0.0157314
863.531	0.0154424
863.609	0.0154131
863.687	0.0155838
863.765	0.0156253
863.843	0.0156458
863.921	0.0156846
863.999	0.0156732
864.078	0.0155482
864.156	0.0155718
864.234	0.0157042
864.312	0.0156654
864.390	0.0156442
864.468	0.0156804
864.546	0.0157379
864.624	0.0157220
864.703	0.0158307
864.781	0.0156295
864.859	0.0158161
864.937	0.0158293
865.015	0.0159309
865.093	0.0158775
865.171	0.0158246
865.249	0.0158744
865.328	0.0158544
865.406	0.0157027
865.484	0.0157019
865.562	0.0157486
865.640	0.0156602
865.718	0.0156220
865.796	0.0157160
865.874	0.0157266
865.953	0.0156796
866.031	0.0156533
866.109	0.0156825
866.187	0.0157961
866.265	0.0157886
866.343	0.0156799
866.421	0.0156541
866.499	0.0156660
866.578	0.0156647
866.656	0.0155882
866.734	0.0156623
866.812	0.0155970
866.890	0.0156075
866.968	0.0155193
867.046	0.0156239
867.124	0.0157151
867.203	0.0156172
867.281	0.0154987
867.359	0.0155080
867.437	0.0157421
867.515	0.0156425
867.593	0.0155825
867.671	0.0156996
867.749	0.0156566
867.828	0.0156104
867.906	0.0155352
867.984	0.0154906
868.062	0.0155534
868.140	0.0156464
868.218	0.0155941
868.296	0.0156422
868.374	0.0157047
868.453	0.0157176
868.531	0.0157372
868.609	0.0155427
868.687	0.0156427
868.765	0.0156261
868.843	0.0156350
868.921	0.0156595
868.999	0.0156493
869.078	0.0156010
869.156	0.0156648
869.234	0.0157345
869.312	0.0158099
869.390	0.0157170
869.468	0.0156861
869.546	0.0157354
869.624	0.0155932
869.703	0.0157497
869.781	0.0155965
869.859	0.0156637
869.937	0.0155209
870.015	0.0155209
870.093	0.0156924
870.171	0.0155700
870.249	0.0156946
870.328	0.0155711
870.406	0.0155985
870.484	0.0154832
870.562	0.0154405
870.640	0.0154883
870.718	0.0156001
870.796	0.0155792
870.874	0.0155561
870.953	0.0153790
871.031	0.0155180
871.109	0.0156116
871.187	0.0155640
871.265	0.0156281
871.343	0.0156581
871.421	0.0156752
871.499	0.0157951
871.578	0.0158401
871.656	0.0156962
871.734	0.0157925
871.812	0.0158098
871.890	0.0157133
871.968	0.0156622
872.046	0.0156697
872.124	0.0156835
872.203	0.0156948
872.281	0.0156572
872.359	0.0157160
872.437	0.0155076
872.515	0.0155247
872.593	0.0155631
872.671	0.0155933
872.749	0.0156711
872.828	0.0154230
872.906	0.0155405
872.984	0.0156389
873.062	0.0156597
873.140	0.0155621
873.218	0.0156487
873.296	0.0156374
873.374	0.0155649
873.453	0.0157691
873.531	0.0158515
873.609	0.0157406
873.687	0.0157392
873.765	0.0155855
873.843	0.0157826
873.921	0.0157883
873.999	0.0157600
874.078	0.0156822
874.156	0.0156741
874.234	0.0156064
874.312	0.0157314
874.390	0.0157211
874.468	0.0156317
874.546	0.0156969
874.624	0.0155963
874.703	0.0155054
874.781	0.0156726
874.859	0.0157653
874.937	0.0156607
875.015	0.0156940
875.093	0.0155552
875.171	0.0155252
875.249	0.0156223
875.328	0.0154978
875.406	0.0155489
875.484	0.0155167
875.562	0.0154710
875.640	0.0154606
875.718	0.0156794
875.796	0.0155853
875.874	0.0156173
875.953	0.0155891
876.031	0.0155425
876.109	0.0157281
876.187	0.0157646
876.265	0.0157264
876.343	0.0156115
876.421	0.0156828
876.499	0.0157977
876.578	0.0158642
876.656	0.0156668
876.734	0.0156618
876.812	0.0157290
876.890	0.0155659
876.968	0.0157395
877.046	0.0156560
877.124	0.0157962
877.203	0.0158073
877.281	0.0156740
877.359	0.0157861
877.437	0.0158432
877.515	0.0157035
877.593	0.0157249
877.671	0.0156715
877.749	0.0156818
877.828	0.0157602
877.906	0.0158127
877.984	0.0157631
878.062	0.0157439
878.140	0.0156620
878.218	0.0157439
878.296	0.0156004
878.374	0.0155074
878.453	0.0155945
878.531	0.0157477
878.609	0.0156124
878.687	0.0154885
878.765	0.0156454
878.843	0.0155472
878.921	0.0154401
878.999	0.0155997
879.078	0.0155399
879.156	0.0154922
879.234	0.0154678
879.312	0.0156121
879.390	0.0156277
879.468	0.0155128
879.546	0.0155489
879.624	0.0155676
879.703	0.0155440
879.781	0.0155819
879.859	0.0157308
879.937	0.0156548
880.015	0.0157677
880.093	0.0157293
880.171	0.0156385
880.249	0.0157639
880.328	0.0157994
880.406	0.0158152
880.484	0.0158051
880.562	0.0159097
880.640	0.0158643
880.718	0.0159362
880.796	0.0158572
880.874	0.0158739
880.953	0.0158182
881.031	0.0159879
881.109	0.0159702
881.187	0.0159064
881.265	0.0158980
881.343	0.0158367
881.421	0.0157036
881.499	0.0158762
881.578	0.0158231
881.656	0.0156106
881.734	0.0156601
881.812	0.0156956
881.890	0.0157401
881.968	0.0155788
882.046	0.0157127
882.124	0.0156277
882.203	0.0156650
882.281	0.0155896
882.359	0.0156137
882.437	0.0155743
882.515	0.0155544
882.593	0.0156238
882.671	0.0156428
882.749	0.0156245
882.828	0.0156889
882.906	0.0155993
882.984	0.0156776
883.062	0.0157852
883.140	0.0156614
883.218	0.0156516
883.296	0.0157610
883.374	0.0158400
883.453	0.0158094
883.531	0.0157545
883.609	0.0157803
883.687	0.0156858
883.765	0.0156383
883.843	0.0157616
883.921	0.0157600
883.999	0.0158414
884.078	0.0157903
884.156	0.0157932
884.234	0.0158137
884.312	0.0157554
884.390	0.0157771
884.468	0.0158049
884.546	0.0158112
884.624	0.0158539
884.703	0.0158248
884.781	0.0158069
884.859	0.0156902
884.937	0.0157372
885.015	0.0157999
885.093	0.0156953
885.171	0.0156986
885.249	0.0157370
885.328	0.0156705
885.406	0.0157035
885.484	0.0155879
885.562	0.0157294
885.640	0.0155714
885.718	0.0155751
885.796	0.0155937
885.874	0.0154739
885.953	0.0155898
886.031	0.0154670
886.109	0.0154924
886.187	0.0156532
886.265	0.0155745
886.343	0.0155292
886.421	0.0154660
886.499	0.0158105
886.578	0.0156824
886.656	0.0157193
886.734	0.0156648
886.812	0.0156360
886.890	0.0157303
886.968	0.0157070
887.046	0.0158623
887.124	0.0156380
887.203	0.0157452
887.281	0.0157286
887.359	0.0157680
887.437	0.0158073
887.515	0.0155704
887.593	0.0157243
887.671	0.0157080
887.749	0.0157095
887.828	0.0157274
887.906	0.0158192
887.984	0.0158363
888.062	0.0158263
888.140	0.0158448
888.218	0.0157500
888.296	0.0155717
888.374	0.0155848
888.453	0.0157695
888.531	0.0157781
888.609	0.0158028
888.687	0.0156753
888.765	0.0155395
888.843	0.0155808
888.921	0.0155492
888.999	0.0156302
889.078	0.0156113
889.156	0.0157187
889.234	0.0155445
889.312	0.0154963
889.390	0.0154819
889.468	0.0155163
889.546	0.0155779
889.624	0.0155783
889.703	0.0155761
889.781	0.0157708
889.859	0.0156785
889.937	0.0154931
890.015	0.0156956
890.093	0.0156557
890.171	0.0156133
890.249	0.0156373
890.328	0.0155264
890.406	0.0157042
890.484	0.0156453
890.562	0.0155162
890.640	0.0156914
890.718	0.0157070
890.796	0.0156169
890.874	0.0155788
890.953	0.0156666
891.031	0.0156977
891.109	0.0157122
891.187	0.0157490
891.265	0.0157109
891.343	0.0157117
891.421	0.0157851
891.499	0.0156226
891.578	0.0158141
891.656	0.0157341
891.734	0.0156809
891.812	0.0156592
891.890	0.0157490
891.968	0.0157140
892.046	0.0156884
892.124	0.0156514
892.203	0.0156565
892.281	0.0157629
892.359	0.0157127
892.437	0.0156535
892.515	0.0156695
892.593	0.0157635
892.671	0.0157433
892.749	0.0156338
892.828	0.0156112
892.906	0.0157095
892.984	0.0155723
893.062	0.0156129
893.140	0.0155858
893.218	0.0156821
893.296	0.0157032
893.374	0.0157397
893.453	0.0156026
893.531	0.0155369
893.609	0.0155634
893.687	0.0155272
893.765	0.0156182
893.843	0.0155083
893.921	0.0156475
893.999	0.0155901
894.078	0.0156088
894.156	0.0154994
894.234	0.0154513
894.312	0.0154861
894.390	0.0153906
894.468	0.0157590
894.546	0.0155702
894.624	0.0155565
894.703	0.0156248
894.781	0.0155373
894.859	0.0156069
894.937	0.0157111
895.015	0.0156743
895.093	0.0157631
895.171	0.0156768
895.249	0.0158112
895.328	0.0158187
895.406	0.0156071
895.484	0.0158443
895.562	0.0158572
895.640	0.0159609
895.718	0.0159233
895.796	0.0159267
895.874	0.0159473
895.953	0.0157831
896.031	0.0157922
896.109	0.0158445
896.187	0.0157614
896.265	0.0156642
896.343	0.0159121
896.421	0.0157635
896.499	0.0156213
896.578	0.0156556
896.656	0.0157240
896.734	0.0156314
896.812	0.0155157
896.890	0.0155493
896.968	0.0156791
897.046	0.0157107
897.124	0.0155027
897.203	0.0155746
897.281	0.0155993
897.359	0.0156491
897.437	0.0157289
897.515	0.0156499
897.593	0.0157677
897.671	0.0156660
897.749	0.0155112
897.828	0.0156623
897.906	0.0157645
897.984	0.0156749
898.062	0.0156551
898.140	0.0155428
898.218	0.0156895
898.296	0.0156516
898.374	0.0156877
898.453	0.0154066
898.531	0.0156764
898.609	0.0156174
898.687	0.0156075
898.765	0.0155161
898.843	0.0157219
898.921	0.0156068
898.999	0.0156197
899.078	0.0155811
899.156	0.0156307
899.234	0.0156421
899.312	0.0158403
899.390	0.0157723
899.468	0.0157364
899.546	0.0156761
899.624	0.0157545
899.703	0.0158257
899.781	0.0157050
899.859	0.0156549
899.937	0.0157458
900.015	0.0157294
900.093	0.0157356
900.171	0.0155994
900.249	0.0155885
900.328	0.0157730
900.406	0.0156196
900.484	0.0157021
900.562	0.0156112
900.640	0.0156337
900.718	0.0157333
900.796	0.0156469
900.874	0.0155285
900.953	0.0157220
901.031	0.0156377
901.109	0.0155322
901.187	0.0156085
901.265	0.0156403
901.343	0.0156524
901.421	0.0155042
901.499	0.0155795
901.578	0.0155994
901.656	0.0155565
901.734	0.0157787
901.812	0.0156857
901.890	0.0156114
901.968	0.0156709
902.046	0.0156164
902.124	0.0155906
902.203	0.0156615
902.281	0.0156904
902.359	0.0157877
902.437	0.0157417
902.515	0.0156587
902.593	0.0157508
902.671	0.0156412
902.749	0.0156065
902.828	0.0157901
902.906	0.0156863
902.984	0.0158397
903.062	0.0155507
903.140	0.0158024
903.218	0.0157648
903.296	0.0157677
903.374	0.0157159
903.453	0.0157590
903.531	0.0156068
903.609	0.0157682
903.687	0.0157322
903.765	0.0157541
903.843	0.0156695
903.921	0.0156564
903.999	0.0156515
904.078	0.0157474
904.156	0.0157129
904.234	0.0155825
904.312	0.0156100
904.390	0.0156532
904.468	0.0156066
904.546	0.0156941
904.624	0.0156336
904.703	0.0155882
904.781	0.0156441
904.859	0.0157111
904.937	0.0157419
905.015	0.0156316
905.093	0.0156635
905.171	0.0155359
905.249	0.0156465
905.328	0.0157877
905.406	0.0157784
905.484	0.0157668
905.562	0.0157156
905.640	0.0158939
905.718	0.0157379
905.796	0.0158514
905.874	0.0157981
905.953	0.0156170
906.031	0.0157545
906.109	0.0160415
906.187	0.0157674
906.265	0.0158112
906.343	0.0157465
906.421	0.0158192
906.499	0.0157452
906.578	0.0156598
906.656	0.0157825
906.734	0.0156905
906.812	0.0157905
906.890	0.0156065
906.968	0.0157799
907.046	0.0155775
907.124	0.0154858
907.203	0.0157214
907.281	0.0156701
907.359	0.0156435
907.437	0.0155260
907.515	0.0155672
907.593	0.0155195
907.671	0.0156942
907.749	0.0157117
907.828	0.0155779
907.906	0.0155972
907.984	0.0156609
908.062	0.0156751
908.140	0.0156888
908.218	0.0157145
908.296	0.0156213
908.374	0.0158049
908.453	0.0157789
908.531	0.0157183
908.609	0.0156153
908.687	0.0156667
908.765	0.0156628
908.843	0.0155599
908.921	0.0156998
908.999	0.0156285
909.078	0.0156384
909.156	0.0156510
909.234	0.0156429
909.312	0.0156636
909.390	0.0156183
909.468	0.0156913
909.546	0.0157012
909.624	0.0154692
909.703	0.0156773
909.781	0.0157503
909.859	0.0157394
909.937	0.0157784
910.015	0.0157089
910.093	0.0156463
910.171	0.0157345
910.249	0.0157153
910.328	0.0157928
910.406	0.0158469
910.484	0.0157913
910.562	0.0157990
910.640	0.0157601
910.718	0.0158277
910.796	0.0158700
910.874	0.0157572
910.953	0.0156746
911.031	0.0157698
911.109	0.0158060
911.187	0.0157368
911.265	0.0156226
911.343	0.0157627
911.421	0.0155972
911.499	0.0155820
911.578	0.0155270
911.656	0.0153794
911.734	0.0156114
911.812	0.0155734
911.890	0.0156809
911.968	0.0157040
912.046	0.0155724
912.124	0.0155802
912.203	0.0155715
912.281	0.0155391
912.359	0.0157426
912.437	0.0156278
912.515	0.0155607
912.593	0.0157668
912.671	0.0158152
912.749	0.0156525
912.828	0.0156730
912.906	0.0157482
912.984	0.0157391
913.062	0.0156927
913.140	0.0154985
913.218	0.0157047
913.296	0.0157484
913.374	0.0157311
913.453	0.0157236
913.531	0.0156592
913.609	0.0156551
913.687	0.0157015
913.765	0.0156036
913.843	0.0156006
913.921	0.0158302
913.999	0.0156448
914.078	0.0156942
914.156	0.0156070
914.234	0.0157571
914.312	0.0157315
914.390	0.0156828
914.468	0.0157116
914.546	0.0156420
914.624	0.0157320
914.703	0.0157023
914.781	0.0155602
914.859	0.0157191
914.937	0.0155103
915.015	0.0156380
915.093	0.0155754
915.171	0.0156989
915.249	0.0156165
915.328	0.0156716
915.406	0.0156397
915.484	0.0155444
915.562	0.0155959
915.640	0.0155884
915.718	0.0155645
915.796	0.0157269
915.874	0.0155465
915.953	0.0156284
916.031	0.0156206
916.109	0.0156615
916.187	0.0156064
916.265	0.0156522
916.343	0.0157531
916.421	0.0156433
916.499	0.0156683
916.578	0.0157549
916.656	0.0156537
916.734	0.0157520
916.812	0.0156850
916.890	0.0156786
916.968	0.0155210
917.046	0.0158182
917.124	0.0158291
917.203	0.0157237
917.281	0.0157043
917.359	0.0158484
917.437	0.0157751
917.515	0.0157430
917.593	0.0157233
917.671	0.0156756
917.749	0.0155977
917.828	0.0156915
917.906	0.0156746
917.984	0.0157259
918.062	0.0157662
918.140	0.0156480
918.218	0.0157077
918.296	0.0156541
918.374	0.0156326
918.453	0.0156452
918.531	0.0157246
918.609	0.0157133
918.687	0.0157058
918.765	0.0156491
918.843	0.0156069
918.921	0.0156631
918.999	0.0157322
919.078	0.0156358
919.156	0.0157848
919.234	0.0155957
919.312	0.0155815
919.390	0.0157566
919.468	0.0156660
919.546	0.0156194
919.624	0.0156749
919.703	0.0156779
919.781	0.0156953
919.859	0.0155769
919.937	0.0156913
