06/10/2022	18:50:15	Ver.	4.1	UNKNOWN
Optical Delay	600.015094	Delta X		0.078125	Sweeps	1	Scan Rate	0/0
Coordinates	Axis 1	NaN	Axis 2	NaN	Axis 3	NaN	Axis 4	NaN	Axis 5	NaN	Axis 6	0.000000
TX Power	0.000000	RX Power	0.000000

600.015	0.0159668
600.093	0.0160054
600.171	0.0161331
600.249	0.0160100
600.328	0.0158851
600.406	0.0159244
600.484	0.0159596
600.562	0.0160311
600.640	0.0160297
600.718	0.0161120
600.796	0.0159677
600.874	0.0159441
600.953	0.0159959
601.031	0.0158725
601.109	0.0160294
601.187	0.0159624
601.265	0.0159559
601.343	0.0159105
601.421	0.0161199
601.499	0.0160458
601.578	0.0159212
601.656	0.0160165
601.734	0.0159461
601.812	0.0159598
601.890	0.0160473
601.968	0.0160721
602.046	0.0160236
602.124	0.0159198
602.203	0.0159453
602.281	0.0161762
602.359	0.0161360
602.437	0.0160581
602.515	0.0161128
602.593	0.0161102
602.671	0.0159940
602.749	0.0160880
602.828	0.0159972
602.906	0.0160599
602.984	0.0161185
603.062	0.0160514
603.140	0.0159293
603.218	0.0161063
603.296	0.0160796
603.374	0.0160309
603.453	0.0160002
603.531	0.0161175
603.609	0.0161462
603.687	0.0160249
603.765	0.0161003
603.843	0.0160374
603.921	0.0159530
603.999	0.0160173
604.078	0.0160275
604.156	0.0160133
604.234	0.0161190
604.312	0.0161088
604.390	0.0160899
604.468	0.0159019
604.546	0.0160435
604.624	0.0161116
604.703	0.0159614
604.781	0.0161004
604.859	0.0160137
604.937	0.0161506
605.015	0.0160064
605.093	0.0161173
605.171	0.0161359
605.249	0.0160851
605.328	0.0160530
605.406	0.0160197
605.484	0.0160377
605.562	0.0161118
605.640	0.0160941
605.718	0.0161076
605.796	0.0160559
605.874	0.0161854
605.953	0.0161223
606.031	0.0159871
606.109	0.0160647
606.187	0.0161579
606.265	0.0161194
606.343	0.0160612
606.421	0.0160209
606.499	0.0160841
606.578	0.0161130
606.656	0.0160159
606.734	0.0161309
606.812	0.0161358
606.890	0.0159898
606.968	0.0161165
607.046	0.0160721
607.124	0.0159724
607.203	0.0159693
607.281	0.0160229
607.359	0.0160732
607.437	0.0160464
607.515	0.0159470
607.593	0.0158727
607.671	0.0160069
607.749	0.0160397
607.828	0.0159193
607.906	0.0159982
607.984	0.0160202
608.062	0.0159968
608.140	0.0159369
608.218	0.0158678
608.296	0.0159888
608.374	0.0158903
608.453	0.0159954
608.531	0.0159958
608.609	0.0158900
608.687	0.0158066
608.765	0.0159431
608.843	0.0159166
608.921	0.0159525
608.999	0.0159945
609.078	0.0159898
609.156	0.0157835
609.234	0.0158559
609.312	0.0160924
609.390	0.0160014
609.468	0.0158057
609.546	0.0159113
609.624	0.0160152
609.703	0.0158428
609.781	0.0159401
609.859	0.0161062
609.937	0.0159085
610.015	0.0160332
610.093	0.0160371
610.171	0.0160231
610.249	0.0158984
610.328	0.0159277
610.406	0.0158923
610.484	0.0160677
610.562	0.0157954
610.640	0.0159599
610.718	0.0161282
610.796	0.0161169
610.874	0.0160352
610.953	0.0158797
611.031	0.0159769
611.109	0.0161334
611.187	0.0159812
611.265	0.0160636
611.343	0.0160062
611.421	0.0158176
611.499	0.0160491
611.578	0.0161018
611.656	0.0159897
611.734	0.0160191
611.812	0.0160769
611.890	0.0160258
611.968	0.0159633
612.046	0.0161485
612.124	0.0159921
612.203	0.0160416
612.281	0.0160692
612.359	0.0160160
612.437	0.0159165
612.515	0.0161204
612.593	0.0161349
612.671	0.0160007
612.749	0.0160548
612.828	0.0161350
612.906	0.0159940
612.984	0.0160184
613.062	0.0160081
613.140	0.0160500
613.218	0.0161871
613.296	0.0158949
613.374	0.0160661
613.453	0.0161001
613.531	0.0160249
613.609	0.0158961
613.687	0.0159561
613.765	0.0159195
613.843	0.0159333
613.921	0.0159826
613.999	0.0160434
614.078	0.0159647
614.156	0.0158869
614.234	0.0159719
614.312	0.0159059
614.390	0.0159327
614.468	0.0159518
614.546	0.0160077
614.624	0.0160044
614.703	0.0161330
614.781	0.0159370
614.859	0.0161161
614.937	0.0160151
615.015	0.0160121
615.093	0.0158986
615.171	0.0160343
615.249	0.0160365
615.328	0.0160158
615.406	0.0159918
615.484	0.0160152
615.562	0.0160280
615.640	0.0160634
615.718	0.0160783
615.796	0.0161831
615.874	0.0159055
615.953	0.0160422
616.031	0.0160429
616.109	0.0159669
616.187	0.0159738
616.265	0.0161988
616.343	0.0160560
616.421	0.0160781
616.499	0.0161867
616.578	0.0161523
616.656	0.0160601
616.734	0.0160661
616.812	0.0161005
616.890	0.0160808
616.968	0.0159628
617.046	0.0162399
617.124	0.0160842
617.203	0.0160677
617.281	0.0160136
617.359	0.0161724
617.437	0.0162798
617.515	0.0160558
617.593	0.0160415
617.671	0.0161210
617.749	0.0162117
617.828	0.0161411
617.906	0.0159618
617.984	0.0160397
618.062	0.0160186
618.140	0.0161217
618.218	0.0161057
618.296	0.0160299
618.374	0.0160073
618.453	0.0160542
618.531	0.0161281
618.609	0.0161273
618.687	0.0160426
618.765	0.0161071
618.843	0.0160307
618.921	0.0160495
618.999	0.0161475
619.078	0.0160115
619.156	0.0161411
619.234	0.0161639
619.312	0.0160310
619.390	0.0160021
619.468	0.0159655
619.546	0.0159235
619.624	0.0161910
619.703	0.0159546
619.781	0.0158991
619.859	0.0161194
619.937	0.0159749
620.015	0.0159022
620.093	0.0160340
620.171	0.0162288
620.249	0.0161660
620.328	0.0161449
620.406	0.0161564
620.484	0.0159988
620.562	0.0161006
620.640	0.0160992
620.718	0.0160229
620.796	0.0160478
620.874	0.0160445
620.953	0.0161014
621.031	0.0160257
621.109	0.0160426
621.187	0.0161423
621.265	0.0160674
621.343	0.0160523
621.421	0.0161361
621.499	0.0160835
621.578	0.0160110
621.656	0.0161666
621.734	0.0160068
621.812	0.0160575
621.890	0.0159358
621.968	0.0160033
622.046	0.0160426
622.124	0.0161102
622.203	0.0160226
622.281	0.0158884
622.359	0.0161508
622.437	0.0161102
622.515	0.0160097
622.593	0.0160304
622.671	0.0159346
622.749	0.0160058
622.828	0.0161118
622.906	0.0160924
622.984	0.0160580
623.062	0.0159628
623.140	0.0160741
623.218	0.0160253
623.296	0.0161736
623.374	0.0160641
623.453	0.0160693
623.531	0.0161523
623.609	0.0161965
623.687	0.0160934
623.765	0.0160601
623.843	0.0160975
623.921	0.0160597
623.999	0.0160525
624.078	0.0161143
624.156	0.0160452
624.234	0.0160302
624.312	0.0161158
624.390	0.0160432
624.468	0.0159737
624.546	0.0160461
624.624	0.0160963
624.703	0.0160230
624.781	0.0160635
624.859	0.0160217
624.937	0.0159573
625.015	0.0159981
625.093	0.0160097
625.171	0.0161629
625.249	0.0161121
625.328	0.0160561
625.406	0.0159554
625.484	0.0159367
625.562	0.0160178
625.640	0.0161472
625.718	0.0161192
625.796	0.0160908
625.874	0.0160293
625.953	0.0160950
626.031	0.0159471
626.109	0.0161214
626.187	0.0161279
626.265	0.0160822
626.343	0.0159929
626.421	0.0160613
626.499	0.0161576
626.578	0.0160860
626.656	0.0160412
626.734	0.0161674
626.812	0.0161239
626.890	0.0160471
626.968	0.0160625
627.046	0.0160974
627.124	0.0160426
627.203	0.0160123
627.281	0.0161013
627.359	0.0158984
627.437	0.0159545
627.515	0.0160575
627.593	0.0159608
627.671	0.0160011
627.749	0.0160757
627.828	0.0159061
627.906	0.0160397
627.984	0.0160763
628.062	0.0161756
628.140	0.0159885
628.218	0.0160070
628.296	0.0159800
628.374	0.0160233
628.453	0.0161197
628.531	0.0160115
628.609	0.0158634
628.687	0.0159992
628.765	0.0160697
628.843	0.0160772
628.921	0.0158854
628.999	0.0158858
629.078	0.0160126
629.156	0.0158852
629.234	0.0159152
629.312	0.0159224
629.390	0.0160904
629.468	0.0159665
629.546	0.0159212
629.624	0.0159201
629.703	0.0159597
629.781	0.0159195
629.859	0.0159890
629.937	0.0159058
630.015	0.0159484
630.093	0.0159496
630.171	0.0159030
630.249	0.0160274
630.328	0.0159229
630.406	0.0159084
630.484	0.0159737
630.562	0.0160320
630.640	0.0159103
630.718	0.0158846
630.796	0.0159103
630.874	0.0160149
630.953	0.0158812
631.031	0.0158083
631.109	0.0160192
631.187	0.0159699
631.265	0.0160908
631.343	0.0159850
631.421	0.0160063
631.499	0.0159306
631.578	0.0160663
631.656	0.0159888
631.734	0.0158887
631.812	0.0159470
631.890	0.0160516
631.968	0.0161098
632.046	0.0158864
632.124	0.0160210
632.203	0.0161205
632.281	0.0160696
632.359	0.0159874
632.437	0.0159504
632.515	0.0159605
632.593	0.0159652
632.671	0.0159087
632.749	0.0160381
632.828	0.0160253
632.906	0.0161286
632.984	0.0160871
633.062	0.0159990
633.140	0.0159846
633.218	0.0159670
633.296	0.0161179
633.374	0.0159401
633.453	0.0159143
633.531	0.0159164
633.609	0.0160130
633.687	0.0159409
633.765	0.0159717
633.843	0.0159896
633.921	0.0158161
633.999	0.0159731
634.078	0.0160406
634.156	0.0160402
634.234	0.0158571
634.312	0.0157863
634.390	0.0160873
634.468	0.0160759
634.546	0.0161397
634.624	0.0160136
634.703	0.0158967
634.781	0.0160297
634.859	0.0158835
634.937	0.0159508
635.015	0.0160692
635.093	0.0160087
635.171	0.0159941
635.249	0.0159557
635.328	0.0159173
635.406	0.0160429
635.484	0.0158553
635.562	0.0160384
635.640	0.0161604
635.718	0.0160614
635.796	0.0159711
635.874	0.0159730
635.953	0.0161015
636.031	0.0159988
636.109	0.0160124
636.187	0.0160049
636.265	0.0160758
636.343	0.0159625
636.421	0.0160783
636.499	0.0160071
636.578	0.0160154
636.656	0.0159662
636.734	0.0159403
636.812	0.0160117
636.890	0.0160374
636.968	0.0159829
637.046	0.0159354
637.124	0.0160437
637.203	0.0160345
637.281	0.0159885
637.359	0.0160630
637.437	0.0160326
637.515	0.0159710
637.593	0.0159499
637.671	0.0160759
637.749	0.0161067
637.828	0.0160527
637.906	0.0161053
637.984	0.0160213
638.062	0.0162369
638.140	0.0161162
638.218	0.0159663
638.296	0.0159412
638.374	0.0159649
638.453	0.0160533
638.531	0.0161010
638.609	0.0160239
638.687	0.0161479
638.765	0.0160290
638.843	0.0160491
638.921	0.0159779
638.999	0.0160729
639.078	0.0160526
639.156	0.0160063
639.234	0.0161381
639.312	0.0161747
639.390	0.0162334
639.468	0.0161411
639.546	0.0160052
639.624	0.0160247
639.703	0.0161975
639.781	0.0161703
639.859	0.0160751
639.937	0.0160735
640.015	0.0161053
640.093	0.0160344
640.171	0.0160510
640.249	0.0159064
640.328	0.0160659
640.406	0.0162433
640.484	0.0160871
640.562	0.0160879
640.640	0.0160580
640.718	0.0159932
640.796	0.0160140
640.874	0.0161333
640.953	0.0160914
641.031	0.0160454
641.109	0.0160531
641.187	0.0159622
641.265	0.0160468
641.343	0.0160461
641.421	0.0159506
641.499	0.0159045
641.578	0.0160339
641.656	0.0160403
641.734	0.0160632
641.812	0.0160925
641.890	0.0161196
641.968	0.0160901
642.046	0.0160040
642.124	0.0160138
642.203	0.0160325
642.281	0.0160406
642.359	0.0159631
642.437	0.0160538
642.515	0.0160876
642.593	0.0160603
642.671	0.0160338
642.749	0.0161391
642.828	0.0159863
642.906	0.0160822
642.984	0.0160213
643.062	0.0159352
643.140	0.0159401
643.218	0.0161795
643.296	0.0160358
643.374	0.0160249
643.453	0.0161076
643.531	0.0161441
643.609	0.0160788
643.687	0.0160827
643.765	0.0159947
643.843	0.0160246
643.921	0.0160287
643.999	0.0160072
644.078	0.0160931
644.156	0.0160143
644.234	0.0160692
644.312	0.0160915
644.390	0.0160458
644.468	0.0160635
644.546	0.0160579
644.624	0.0160830
644.703	0.0160835
644.781	0.0160337
644.859	0.0160538
644.937	0.0160334
645.015	0.0160863
645.093	0.0161140
645.171	0.0160293
645.249	0.0160886
645.328	0.0159885
645.406	0.0159897
645.484	0.0160123
645.562	0.0160046
645.640	0.0160616
645.718	0.0161226
645.796	0.0159532
645.874	0.0159385
645.953	0.0159909
646.031	0.0161227
646.109	0.0161144
646.187	0.0160365
646.265	0.0160509
646.343	0.0160452
646.421	0.0160918
646.499	0.0160417
646.578	0.0161107
646.656	0.0160358
646.734	0.0159673
646.812	0.0159694
646.890	0.0159631
646.968	0.0160110
647.046	0.0159983
647.124	0.0160244
647.203	0.0159804
647.281	0.0159204
647.359	0.0160663
647.437	0.0160947
647.515	0.0159907
647.593	0.0160003
647.671	0.0160984
647.749	0.0160276
647.828	0.0161050
647.906	0.0160923
647.984	0.0159546
648.062	0.0158521
648.140	0.0159753
648.218	0.0161520
648.296	0.0160130
648.374	0.0160688
648.453	0.0160268
648.531	0.0159559
648.609	0.0160370
648.687	0.0159007
648.765	0.0160326
648.843	0.0160101
648.921	0.0159111
648.999	0.0161330
649.078	0.0161436
649.156	0.0161205
649.234	0.0160201
649.312	0.0160039
649.390	0.0160436
649.468	0.0160154
649.546	0.0160501
649.624	0.0158448
649.703	0.0158961
649.781	0.0159663
649.859	0.0159101
649.937	0.0159567
650.015	0.0160550
650.093	0.0161243
650.171	0.0160132
650.249	0.0158299
650.328	0.0160010
650.406	0.0159218
650.484	0.0159889
650.562	0.0159978
650.640	0.0158590
650.718	0.0159967
650.796	0.0161229
650.874	0.0159425
650.953	0.0159887
651.031	0.0161403
651.109	0.0159438
651.187	0.0159983
651.265	0.0160193
651.343	0.0160961
651.421	0.0159147
651.499	0.0161967
651.578	0.0159480
651.656	0.0160028
651.734	0.0160274
651.812	0.0160322
651.890	0.0161217
651.968	0.0159962
652.046	0.0160005
652.124	0.0160997
652.203	0.0159549
652.281	0.0159743
652.359	0.0160007
652.437	0.0159260
652.515	0.0160753
652.593	0.0159669
652.671	0.0159718
652.749	0.0159336
652.828	0.0160471
652.906	0.0161147
652.984	0.0159211
653.062	0.0159328
653.140	0.0159563
653.218	0.0160637
653.296	0.0159801
653.374	0.0159868
653.453	0.0159764
653.531	0.0159386
653.609	0.0159763
653.687	0.0161168
653.765	0.0159640
653.843	0.0159995
653.921	0.0160267
653.999	0.0160934
654.078	0.0161591
654.156	0.0159723
654.234	0.0160062
654.312	0.0160272
654.390	0.0159682
654.468	0.0159032
654.546	0.0159027
654.624	0.0158982
654.703	0.0161061
654.781	0.0159526
654.859	0.0160802
654.937	0.0161111
655.015	0.0159866
655.093	0.0161672
655.171	0.0159159
655.249	0.0161415
655.328	0.0160514
655.406	0.0160144
655.484	0.0160188
655.562	0.0159725
655.640	0.0160614
655.718	0.0159935
655.796	0.0159431
655.874	0.0160251
655.953	0.0162099
656.031	0.0160733
656.109	0.0160406
656.187	0.0160763
656.265	0.0159590
656.343	0.0161409
656.421	0.0160135
656.499	0.0160196
656.578	0.0160851
656.656	0.0160192
656.734	0.0160002
656.812	0.0160160
656.890	0.0162448
656.968	0.0158892
657.046	0.0160120
657.124	0.0160141
657.203	0.0159819
657.281	0.0161052
657.359	0.0161116
657.437	0.0160226
657.515	0.0160084
657.593	0.0160237
657.671	0.0161010
657.749	0.0160640
657.828	0.0159193
657.906	0.0159757
657.984	0.0161232
658.062	0.0160496
658.140	0.0159701
658.218	0.0158756
658.296	0.0160219
658.374	0.0159809
658.453	0.0157662
658.531	0.0159586
658.609	0.0161160
658.687	0.0160095
658.765	0.0159858
658.843	0.0159963
658.921	0.0160187
658.999	0.0160357
659.078	0.0160296
659.156	0.0160150
659.234	0.0159801
659.312	0.0160410
659.390	0.0158974
659.468	0.0158829
659.546	0.0160000
659.624	0.0160967
659.703	0.0160777
659.781	0.0160448
659.859	0.0159089
659.937	0.0161176
660.015	0.0160105
660.093	0.0158850
660.171	0.0160246
660.249	0.0160059
660.328	0.0159546
660.406	0.0160735
660.484	0.0159595
660.562	0.0160072
660.640	0.0159193
660.718	0.0159423
660.796	0.0159830
660.874	0.0160486
660.953	0.0160803
661.031	0.0159605
661.109	0.0160111
661.187	0.0160243
661.265	0.0160139
661.343	0.0158876
661.421	0.0160349
661.499	0.0159605
661.578	0.0159535
661.656	0.0159825
661.734	0.0159253
661.812	0.0158247
661.890	0.0159959
661.968	0.0159156
662.046	0.0159076
662.124	0.0159044
662.203	0.0159894
662.281	0.0158385
662.359	0.0160361
662.437	0.0160006
662.515	0.0159170
662.593	0.0159338
662.671	0.0159494
662.749	0.0159161
662.828	0.0158781
662.906	0.0160111
662.984	0.0160605
663.062	0.0160045
663.140	0.0158681
663.218	0.0159857
663.296	0.0160252
663.374	0.0159854
663.453	0.0159460
663.531	0.0159184
663.609	0.0159943
663.687	0.0159362
663.765	0.0160840
663.843	0.0160008
663.921	0.0160085
663.999	0.0160394
664.078	0.0159585
664.156	0.0160462
664.234	0.0159549
664.312	0.0160483
664.390	0.0159814
664.468	0.0159754
664.546	0.0160014
664.624	0.0160089
664.703	0.0159181
664.781	0.0159148
664.859	0.0159765
664.937	0.0160920
665.015	0.0160340
665.093	0.0159388
665.171	0.0159886
665.249	0.0159136
665.328	0.0160177
665.406	0.0159103
665.484	0.0162343
665.562	0.0160033
665.640	0.0158497
665.718	0.0159940
665.796	0.0160602
665.874	0.0160520
665.953	0.0160410
666.031	0.0160551
666.109	0.0160495
666.187	0.0158372
666.265	0.0159712
666.343	0.0159564
666.421	0.0159969
666.499	0.0159867
666.578	0.0161005
666.656	0.0157767
666.734	0.0158417
666.812	0.0159977
666.890	0.0158688
666.968	0.0159006
667.046	0.0159728
667.124	0.0159743
667.203	0.0159463
667.281	0.0159087
667.359	0.0158595
667.437	0.0158474
667.515	0.0159827
667.593	0.0160172
667.671	0.0159200
667.749	0.0159627
667.828	0.0159466
667.906	0.0159304
667.984	0.0157863
668.062	0.0158630
668.140	0.0160278
668.218	0.0159269
668.296	0.0160345
668.374	0.0158305
668.453	0.0160339
668.531	0.0160188
668.609	0.0159002
668.687	0.0160039
668.765	0.0160486
668.843	0.0159196
668.921	0.0159085
668.999	0.0159992
669.078	0.0159156
669.156	0.0160292
669.234	0.0159439
669.312	0.0159792
669.390	0.0159525
669.468	0.0160082
669.546	0.0158808
669.624	0.0159573
669.703	0.0159698
669.781	0.0159096
669.859	0.0159611
669.937	0.0159834
670.015	0.0160188
670.093	0.0159156
670.171	0.0159644
670.249	0.0158661
670.328	0.0159855
670.406	0.0159998
670.484	0.0161363
670.562	0.0159093
670.640	0.0160922
670.718	0.0159947
670.796	0.0158939
670.874	0.0160656
670.953	0.0159931
671.031	0.0159695
671.109	0.0159351
671.187	0.0161279
671.265	0.0159219
671.343	0.0158176
671.421	0.0158583
671.499	0.0160189
671.578	0.0160719
671.656	0.0159225
671.734	0.0160276
671.812	0.0160281
671.890	0.0159613
671.968	0.0158562
672.046	0.0160235
672.124	0.0160069
672.203	0.0158598
672.281	0.0158182
672.359	0.0158982
672.437	0.0160882
672.515	0.0159739
672.593	0.0160508
672.671	0.0159306
672.749	0.0159914
672.828	0.0160765
672.906	0.0160461
672.984	0.0159159
673.062	0.0160741
673.140	0.0158716
673.218	0.0158687
673.296	0.0159131
673.374	0.0160091
673.453	0.0158593
673.531	0.0159678
673.609	0.0159451
673.687	0.0160277
673.765	0.0159764
673.843	0.0159515
673.921	0.0159263
673.999	0.0159161
674.078	0.0159543
674.156	0.0160564
674.234	0.0161744
674.312	0.0160490
674.390	0.0159377
674.468	0.0161223
674.546	0.0161141
674.624	0.0158231
674.703	0.0159328
674.781	0.0162496
674.859	0.0158669
674.937	0.0159952
675.015	0.0161287
675.093	0.0159959
675.171	0.0160686
675.249	0.0160973
675.328	0.0159854
675.406	0.0159356
675.484	0.0162049
675.562	0.0160103
675.640	0.0159590
675.718	0.0159910
675.796	0.0161545
675.874	0.0160381
675.953	0.0159380
676.031	0.0159960
676.109	0.0162365
676.187	0.0160166
676.265	0.0159088
676.343	0.0160176
676.421	0.0159257
676.499	0.0159544
676.578	0.0160624
676.656	0.0159052
676.734	0.0160313
676.812	0.0159269
676.890	0.0159622
676.968	0.0158372
677.046	0.0160129
677.124	0.0160988
677.203	0.0158885
677.281	0.0159040
677.359	0.0161642
677.437	0.0161433
677.515	0.0158885
677.593	0.0159795
677.671	0.0160095
677.749	0.0161904
677.828	0.0161638
677.906	0.0160882
677.984	0.0160222
678.062	0.0161801
678.140	0.0162007
678.218	0.0161681
678.296	0.0160794
678.374	0.0161424
678.453	0.0160404
678.531	0.0160412
678.609	0.0162042
678.687	0.0161200
678.765	0.0161519
678.843	0.0160198
678.921	0.0160473
678.999	0.0161585
679.078	0.0162355
679.156	0.0161224
679.234	0.0160157
679.312	0.0160400
679.390	0.0159180
679.468	0.0159457
679.546	0.0159460
679.624	0.0160513
679.703	0.0161564
679.781	0.0160103
679.859	0.0160510
679.937	0.0159243
680.015	0.0159202
680.093	0.0160060
680.171	0.0160561
680.249	0.0159197
680.328	0.0162064
680.406	0.0160403
680.484	0.0160195
680.562	0.0160368
680.640	0.0160509
680.718	0.0161622
680.796	0.0162206
680.874	0.0160816
680.953	0.0159280
681.031	0.0160294
681.109	0.0161221
681.187	0.0160954
681.265	0.0160970
681.343	0.0160264
681.421	0.0159438
681.499	0.0160843
681.578	0.0160335
681.656	0.0161524
681.734	0.0160658
681.812	0.0161540
681.890	0.0159679
681.968	0.0159681
682.046	0.0160016
682.124	0.0158969
682.203	0.0161658
682.281	0.0160166
682.359	0.0159471
682.437	0.0159933
682.515	0.0159978
682.593	0.0159985
682.671	0.0160177
682.749	0.0160381
682.828	0.0159308
682.906	0.0160646
682.984	0.0158746
683.062	0.0160969
683.140	0.0160265
683.218	0.0158958
683.296	0.0158878
683.374	0.0159519
683.453	0.0160116
683.531	0.0159021
683.609	0.0158815
683.687	0.0159122
683.765	0.0158815
683.843	0.0158770
683.921	0.0158818
683.999	0.0159894
684.078	0.0160030
684.156	0.0159393
684.234	0.0159499
684.312	0.0158939
684.390	0.0158385
684.468	0.0159922
684.546	0.0158192
684.624	0.0160629
684.703	0.0159648
684.781	0.0160325
684.859	0.0159498
684.937	0.0157775
685.015	0.0158424
685.093	0.0159244
685.171	0.0159984
685.249	0.0161075
685.328	0.0159728
685.406	0.0159799
685.484	0.0160107
685.562	0.0159986
685.640	0.0159946
685.718	0.0159888
685.796	0.0160486
685.874	0.0159968
685.953	0.0160566
686.031	0.0160712
686.109	0.0159975
686.187	0.0160932
686.265	0.0161067
686.343	0.0159042
686.421	0.0158457
686.499	0.0160912
686.578	0.0160188
686.656	0.0161092
686.734	0.0160122
686.812	0.0158599
686.890	0.0161076
686.968	0.0159929
687.046	0.0160076
687.124	0.0161271
687.203	0.0160744
687.281	0.0159236
687.359	0.0158441
687.437	0.0160624
687.515	0.0160761
687.593	0.0159218
687.671	0.0158996
687.749	0.0160198
687.828	0.0158633
687.906	0.0160979
687.984	0.0160006
688.062	0.0161040
688.140	0.0158499
688.218	0.0159460
688.296	0.0159623
688.374	0.0159364
688.453	0.0159896
688.531	0.0159911
688.609	0.0158538
688.687	0.0160077
688.765	0.0159934
688.843	0.0160258
688.921	0.0160132
688.999	0.0159067
689.078	0.0158608
689.156	0.0159872
689.234	0.0160090
689.312	0.0160159
689.390	0.0159443
689.468	0.0159189
689.546	0.0160407
689.624	0.0160142
689.703	0.0160196
689.781	0.0161758
689.859	0.0159615
689.937	0.0159904
690.015	0.0159737
690.093	0.0157761
690.171	0.0159862
690.249	0.0160239
690.328	0.0159130
690.406	0.0159301
690.484	0.0159824
690.562	0.0159397
690.640	0.0159377
690.718	0.0159606
690.796	0.0159177
690.874	0.0158651
690.953	0.0159617
691.031	0.0160024
691.109	0.0159331
691.187	0.0159747
691.265	0.0160157
691.343	0.0160175
691.421	0.0160449
691.499	0.0159376
691.578	0.0159672
691.656	0.0160032
691.734	0.0159251
691.812	0.0160265
691.890	0.0159712
691.968	0.0159151
692.046	0.0160410
692.124	0.0158693
692.203	0.0159321
692.281	0.0159231
692.359	0.0160854
692.437	0.0160423
692.515	0.0158025
692.593	0.0160069
692.671	0.0160636
692.749	0.0160424
692.828	0.0160056
692.906	0.0159455
692.984	0.0158858
693.062	0.0160192
693.140	0.0160974
693.218	0.0159583
693.296	0.0159546
693.374	0.0159882
693.453	0.0159138
693.531	0.0160040
693.609	0.0160780
693.687	0.0160419
693.765	0.0158652
693.843	0.0159743
693.921	0.0159574
693.999	0.0158659
694.078	0.0159671
694.156	0.0158865
694.234	0.0158771
694.312	0.0160456
694.390	0.0162018
694.468	0.0160394
694.546	0.0161978
694.624	0.0161772
694.703	0.0161185
694.781	0.0159798
694.859	0.0160318
694.937	0.0160476
695.015	0.0161134
695.093	0.0159885
695.171	0.0159520
695.249	0.0160869
695.328	0.0160312
695.406	0.0160538
695.484	0.0161687
695.562	0.0160390
695.640	0.0160672
695.718	0.0159846
695.796	0.0160053
695.874	0.0161387
695.953	0.0162091
696.031	0.0160746
696.109	0.0161803
696.187	0.0160706
696.265	0.0161067
696.343	0.0160397
696.421	0.0160402
696.499	0.0160323
696.578	0.0160112
696.656	0.0160325
696.734	0.0159943
696.812	0.0159217
696.890	0.0161993
696.968	0.0160320
697.046	0.0160999
697.124	0.0160418
697.203	0.0160447
697.281	0.0161478
697.359	0.0160342
697.437	0.0159547
697.515	0.0162404
697.593	0.0160698
697.671	0.0161420
697.749	0.0161419
697.828	0.0159605
697.906	0.0160601
697.984	0.0161146
698.062	0.0161321
698.140	0.0161589
698.218	0.0160503
698.296	0.0160600
698.374	0.0160142
698.453	0.0160957
698.531	0.0162076
698.609	0.0161725
698.687	0.0160641
698.765	0.0159867
698.843	0.0159820
698.921	0.0160196
698.999	0.0159835
699.078	0.0160825
699.156	0.0160692
699.234	0.0160960
699.312	0.0160377
699.390	0.0160332
699.468	0.0160091
699.546	0.0160251
699.624	0.0160201
699.703	0.0159888
699.781	0.0160012
699.859	0.0159776
699.937	0.0160252
700.015	0.0162008
700.093	0.0160660
700.171	0.0160398
700.249	0.0160986
700.328	0.0159499
700.406	0.0158649
700.484	0.0160503
700.562	0.0160011
700.640	0.0159515
700.718	0.0160194
700.796	0.0159398
700.874	0.0158680
700.953	0.0159996
701.031	0.0159270
701.109	0.0159787
701.187	0.0159030
701.265	0.0161175
701.343	0.0158791
701.421	0.0160222
701.499	0.0160645
701.578	0.0160033
701.656	0.0159660
701.734	0.0160039
701.812	0.0159872
701.890	0.0160426
701.968	0.0160306
702.046	0.0160291
702.124	0.0160744
702.203	0.0159922
702.281	0.0160966
702.359	0.0160014
702.437	0.0160862
702.515	0.0160453
702.593	0.0160605
702.671	0.0161024
702.749	0.0159626
702.828	0.0161459
702.906	0.0161119
702.984	0.0159209
703.062	0.0160553
703.140	0.0159744
703.218	0.0159351
703.296	0.0160265
703.374	0.0160311
703.453	0.0159518
703.531	0.0160040
703.609	0.0160172
703.687	0.0160310
703.765	0.0160075
703.843	0.0159515
703.921	0.0159451
703.999	0.0159075
704.078	0.0159215
704.156	0.0158039
704.234	0.0158426
704.312	0.0159255
704.390	0.0159341
704.468	0.0160936
704.546	0.0159408
704.624	0.0158345
704.703	0.0159383
704.781	0.0159329
704.859	0.0159167
704.937	0.0160282
705.015	0.0158298
705.093	0.0158701
705.171	0.0158690
705.249	0.0159648
705.328	0.0157733
705.406	0.0159289
705.484	0.0159395
705.562	0.0159869
705.640	0.0158209
705.718	0.0159003
705.796	0.0159911
705.874	0.0158675
705.953	0.0159451
706.031	0.0160388
706.109	0.0159087
706.187	0.0158075
706.265	0.0157937
706.343	0.0158273
706.421	0.0158590
706.499	0.0159871
706.578	0.0160314
706.656	0.0159566
706.734	0.0159965
706.812	0.0160645
706.890	0.0161526
706.968	0.0160805
707.046	0.0160303
707.124	0.0161430
707.203	0.0161121
707.281	0.0160603
707.359	0.0160475
707.437	0.0160484
707.515	0.0160249
707.593	0.0160816
707.671	0.0159165
707.749	0.0159531
707.828	0.0159074
707.906	0.0159101
707.984	0.0160490
708.062	0.0159870
708.140	0.0159148
708.218	0.0159525
708.296	0.0158739
708.374	0.0158257
708.453	0.0160088
708.531	0.0159145
708.609	0.0159692
708.687	0.0159842
708.765	0.0158321
708.843	0.0160519
708.921	0.0158723
708.999	0.0158544
709.078	0.0159136
709.156	0.0160336
709.234	0.0160744
709.312	0.0159331
709.390	0.0159361
709.468	0.0161759
709.546	0.0160059
709.624	0.0160343
709.703	0.0159583
709.781	0.0160352
709.859	0.0160323
709.937	0.0160828
710.015	0.0161731
710.093	0.0160592
710.171	0.0161391
710.249	0.0161607
710.328	0.0161628
710.406	0.0161382
710.484	0.0160969
710.562	0.0161440
710.640	0.0160017
710.718	0.0159128
710.796	0.0159843
710.874	0.0159927
710.953	0.0161620
711.031	0.0160135
711.109	0.0160066
711.187	0.0159948
711.265	0.0160342
711.343	0.0161240
711.421	0.0160497
711.499	0.0159903
711.578	0.0160751
711.656	0.0161057
711.734	0.0160365
711.812	0.0159909
711.890	0.0159807
711.968	0.0160410
712.046	0.0160720
712.124	0.0158568
712.203	0.0160180
712.281	0.0158792
712.359	0.0159617
712.437	0.0159902
712.515	0.0158544
712.593	0.0158935
712.671	0.0159157
712.749	0.0159155
712.828	0.0159386
712.906	0.0159096
712.984	0.0159495
713.062	0.0160551
713.140	0.0161238
713.218	0.0161338
713.296	0.0161695
713.374	0.0161633
713.453	0.0161357
713.531	0.0162963
713.609	0.0161706
713.687	0.0161785
713.765	0.0161550
713.843	0.0161361
713.921	0.0162500
713.999	0.0163068
714.078	0.0162740
714.156	0.0163576
714.234	0.0163285
714.312	0.0163461
714.390	0.0164114
714.468	0.0164088
714.546	0.0165472
714.624	0.0163792
714.703	0.0165482
714.781	0.0164500
714.859	0.0163155
714.937	0.0162914
715.015	0.0163043
715.093	0.0161220
715.171	0.0159245
715.249	0.0158895
715.328	0.0158945
715.406	0.0156528
715.484	0.0157042
715.562	0.0153806
715.640	0.0155059
715.718	0.0154342
715.796	0.0154456
715.874	0.0155267
715.953	0.0156095
716.031	0.0155225
716.109	0.0156610
716.187	0.0157197
716.265	0.0158929
716.343	0.0159655
716.421	0.0158598
716.499	0.0161041
716.578	0.0162830
716.656	0.0163148
716.734	0.0164020
716.812	0.0163380
716.890	0.0164114
716.968	0.0165678
717.046	0.0165650
717.124	0.0164601
717.203	0.0166731
717.281	0.0166927
717.359	0.0165224
717.437	0.0164200
717.515	0.0164014
717.593	0.0164268
717.671	0.0163930
717.749	0.0162708
717.828	0.0162112
717.906	0.0160997
717.984	0.0161856
718.062	0.0160468
718.140	0.0159164
718.218	0.0159429
718.296	0.0158420
718.374	0.0158948
718.453	0.0158453
718.531	0.0157501
718.609	0.0157977
718.687	0.0159586
718.765	0.0158241
718.843	0.0157973
718.921	0.0157963
718.999	0.0157616
719.078	0.0158591
719.156	0.0158475
719.234	0.0157935
719.312	0.0157527
719.390	0.0157426
719.468	0.0158566
719.546	0.0156861
719.624	0.0156344
719.703	0.0156172
719.781	0.0156987
719.859	0.0155698
719.937	0.0156419
720.015	0.0156863
720.093	0.0157307
720.171	0.0157273
720.249	0.0157361
720.328	0.0157880
720.406	0.0159398
720.484	0.0158936
720.562	0.0159264
720.640	0.0159956
720.718	0.0160870
720.796	0.0161592
720.874	0.0161214
720.953	0.0163133
721.031	0.0164536
721.109	0.0164188
721.187	0.0164090
721.265	0.0164718
721.343	0.0166331
721.421	0.0166539
721.499	0.0166397
721.578	0.0166042
721.656	0.0166772
721.734	0.0165945
721.812	0.0165346
721.890	0.0164281
721.968	0.0163702
722.046	0.0163967
722.124	0.0160042
722.203	0.0160589
722.281	0.0159674
722.359	0.0158006
722.437	0.0158165
722.515	0.0158041
722.593	0.0156217
722.671	0.0156322
722.749	0.0155962
722.828	0.0156239
722.906	0.0154550
722.984	0.0155546
723.062	0.0156361
723.140	0.0155968
723.218	0.0157225
723.296	0.0157456
723.374	0.0157825
723.453	0.0158790
723.531	0.0159044
723.609	0.0159273
723.687	0.0160536
723.765	0.0160606
723.843	0.0161387
723.921	0.0160985
723.999	0.0160208
724.078	0.0161161
724.156	0.0162271
724.234	0.0161982
724.312	0.0161515
724.390	0.0160940
724.468	0.0161982
724.546	0.0160637
724.624	0.0160805
724.703	0.0161250
724.781	0.0161500
724.859	0.0159732
724.937	0.0159962
725.015	0.0159515
725.093	0.0160252
725.171	0.0160219
725.249	0.0159667
725.328	0.0159882
725.406	0.0159801
725.484	0.0159088
725.562	0.0160784
725.640	0.0158735
725.718	0.0160059
725.796	0.0159917
725.874	0.0158260
725.953	0.0159072
726.031	0.0158632
726.109	0.0159318
726.187	0.0158923
726.265	0.0159627
726.343	0.0159459
726.421	0.0159611
726.499	0.0159933
726.578	0.0158279
726.656	0.0159805
726.734	0.0159840
726.812	0.0159787
726.890	0.0160507
726.968	0.0160896
727.046	0.0158757
727.124	0.0158330
727.203	0.0159077
727.281	0.0159024
727.359	0.0158212
727.437	0.0158801
727.515	0.0159173
727.593	0.0159083
727.671	0.0158384
727.749	0.0158862
727.828	0.0158920
727.906	0.0159106
727.984	0.0159649
728.062	0.0157815
728.140	0.0158647
728.218	0.0158710
728.296	0.0159316
728.374	0.0159802
728.453	0.0161597
728.531	0.0161118
728.609	0.0160521
728.687	0.0160289
728.765	0.0162029
728.843	0.0160169
728.921	0.0161167
728.999	0.0160834
729.078	0.0160533
729.156	0.0160428
729.234	0.0161095
729.312	0.0160598
729.390	0.0160995
729.468	0.0159546
729.546	0.0159490
729.624	0.0159019
729.703	0.0158171
729.781	0.0157556
729.859	0.0156019
729.937	0.0156641
730.015	0.0156924
730.093	0.0156456
730.171	0.0156061
730.249	0.0156329
730.328	0.0157079
730.406	0.0156931
730.484	0.0156080
730.562	0.0156955
730.640	0.0157636
730.718	0.0157253
730.796	0.0157919
730.874	0.0158417
730.953	0.0159380
731.031	0.0158369
731.109	0.0158395
731.187	0.0159795
731.265	0.0160107
731.343	0.0161444
731.421	0.0160305
731.499	0.0161913
731.578	0.0163464
731.656	0.0164568
731.734	0.0163378
731.812	0.0165921
731.890	0.0165479
731.968	0.0167056
732.046	0.0166049
732.124	0.0165574
732.203	0.0166817
732.281	0.0167141
732.359	0.0166689
732.437	0.0164409
732.515	0.0162869
732.593	0.0161456
732.671	0.0161655
732.749	0.0158765
732.828	0.0157407
732.906	0.0156887
732.984	0.0155663
733.062	0.0153473
733.140	0.0152673
733.218	0.0153644
733.296	0.0153949
733.374	0.0154025
733.453	0.0154967
733.531	0.0156020
733.609	0.0155537
733.687	0.0158604
733.765	0.0159524
733.843	0.0160342
733.921	0.0160303
733.999	0.0162170
734.078	0.0163293
734.156	0.0162022
734.234	0.0161985
734.312	0.0163461
734.390	0.0163786
734.468	0.0163906
734.546	0.0161946
734.624	0.0161611
734.703	0.0161919
734.781	0.0161996
734.859	0.0160229
734.937	0.0157833
735.015	0.0160009
735.093	0.0160925
735.171	0.0157972
735.249	0.0157885
735.328	0.0157565
735.406	0.0156942
735.484	0.0159065
735.562	0.0158487
735.640	0.0158495
735.718	0.0158898
735.796	0.0159253
735.874	0.0158563
735.953	0.0158100
736.031	0.0159528
736.109	0.0161066
736.187	0.0160085
736.265	0.0161165
736.343	0.0162205
736.421	0.0161879
736.499	0.0162453
736.578	0.0163226
736.656	0.0163194
736.734	0.0163245
736.812	0.0162078
736.890	0.0162990
736.968	0.0164195
737.046	0.0160783
737.124	0.0159694
737.203	0.0161647
737.281	0.0160329
737.359	0.0159583
737.437	0.0160616
737.515	0.0158435
737.593	0.0157781
737.671	0.0158114
737.749	0.0157370
737.828	0.0158810
737.906	0.0158196
737.984	0.0158583
738.062	0.0158667
738.140	0.0159344
738.218	0.0158636
738.296	0.0159473
738.374	0.0158070
738.453	0.0159554
738.531	0.0160215
738.609	0.0162363
738.687	0.0160744
738.765	0.0160869
738.843	0.0161425
738.921	0.0161008
738.999	0.0161292
739.078	0.0163068
739.156	0.0160771
739.234	0.0161208
739.312	0.0160670
739.390	0.0160659
739.468	0.0160041
739.546	0.0160015
739.624	0.0160936
739.703	0.0159026
739.781	0.0160782
739.859	0.0159824
739.937	0.0159564
740.015	0.0157824
740.093	0.0159650
740.171	0.0160098
740.249	0.0160226
740.328	0.0161393
740.406	0.0161877
740.484	0.0160196
740.562	0.0162138
740.640	0.0160111
740.718	0.0160376
740.796	0.0160939
740.874	0.0160213
740.953	0.0161095
741.031	0.0160231
741.109	0.0159381
741.187	0.0159541
741.265	0.0158791
741.343	0.0158735
741.421	0.0160651
741.499	0.0159660
741.578	0.0159838
741.656	0.0158762
741.734	0.0159415
741.812	0.0159244
741.890	0.0160558
741.968	0.0160136
742.046	0.0159108
742.124	0.0160469
742.203	0.0160896
742.281	0.0160799
742.359	0.0161261
742.437	0.0159764
742.515	0.0162032
742.593	0.0160881
742.671	0.0160466
742.749	0.0159943
742.828	0.0161407
742.906	0.0161863
742.984	0.0161401
743.062	0.0160810
743.140	0.0161275
743.218	0.0159163
743.296	0.0160770
743.374	0.0160191
743.453	0.0159987
743.531	0.0159983
743.609	0.0161081
743.687	0.0160287
743.765	0.0158974
743.843	0.0160056
743.921	0.0160315
743.999	0.0161888
744.078	0.0159874
744.156	0.0160055
744.234	0.0160624
744.312	0.0160043
744.390	0.0161179
744.468	0.0161104
744.546	0.0161301
744.624	0.0160766
744.703	0.0161180
744.781	0.0161158
744.859	0.0161052
744.937	0.0160496
745.015	0.0160652
745.093	0.0160096
745.171	0.0159732
745.249	0.0159173
745.328	0.0160513
745.406	0.0158746
745.484	0.0158987
745.562	0.0158636
745.640	0.0159040
745.718	0.0158742
745.796	0.0159069
745.874	0.0159875
745.953	0.0160007
746.031	0.0159048
746.109	0.0160669
746.187	0.0160075
746.265	0.0160057
746.343	0.0160336
746.421	0.0160220
746.499	0.0161092
746.578	0.0159769
746.656	0.0161043
746.734	0.0160924
746.812	0.0161591
746.890	0.0162082
746.968	0.0161479
747.046	0.0162099
747.124	0.0160861
747.203	0.0161968
747.281	0.0160794
747.359	0.0160648
747.437	0.0159977
747.515	0.0162498
747.593	0.0161710
747.671	0.0160442
747.749	0.0160886
747.828	0.0159328
747.906	0.0159398
747.984	0.0160757
748.062	0.0160763
748.140	0.0160278
748.218	0.0159642
748.296	0.0158749
748.374	0.0158406
748.453	0.0159660
748.531	0.0159625
748.609	0.0159815
748.687	0.0159357
748.765	0.0160616
748.843	0.0158849
748.921	0.0159043
748.999	0.0159992
749.078	0.0159370
749.156	0.0158880
749.234	0.0160161
749.312	0.0159524
749.390	0.0159332
749.468	0.0158717
749.546	0.0157810
749.624	0.0158712
749.703	0.0159541
749.781	0.0158353
749.859	0.0158743
749.937	0.0158266
750.015	0.0160224
750.093	0.0158513
750.171	0.0160228
750.249	0.0158576
750.328	0.0159898
750.406	0.0159515
750.484	0.0158672
750.562	0.0160760
750.640	0.0159727
750.718	0.0161066
750.796	0.0161288
750.874	0.0159063
750.953	0.0160764
751.031	0.0161013
751.109	0.0161912
751.187	0.0161514
751.265	0.0161259
751.343	0.0160657
751.421	0.0161423
751.499	0.0161901
751.578	0.0161491
751.656	0.0160478
751.734	0.0160618
751.812	0.0161938
751.890	0.0159650
751.968	0.0160828
752.046	0.0160854
752.124	0.0160677
752.203	0.0159734
752.281	0.0159331
752.359	0.0160546
752.437	0.0160101
752.515	0.0158628
752.593	0.0159309
752.671	0.0159606
752.749	0.0159594
752.828	0.0158333
752.906	0.0159448
752.984	0.0159077
753.062	0.0158990
753.140	0.0160080
753.218	0.0158479
753.296	0.0159588
753.374	0.0158065
753.453	0.0159078
753.531	0.0159586
753.609	0.0160010
753.687	0.0159968
753.765	0.0158902
753.843	0.0160628
753.921	0.0159930
753.999	0.0160033
754.078	0.0159644
754.156	0.0160431
754.234	0.0160335
754.312	0.0160935
754.390	0.0162028
754.468	0.0158700
754.546	0.0158941
754.624	0.0159541
754.703	0.0160567
754.781	0.0161304
754.859	0.0161314
754.937	0.0160363
755.015	0.0161623
755.093	0.0161590
755.171	0.0160572
755.249	0.0162185
755.328	0.0162915
755.406	0.0161401
755.484	0.0161583
755.562	0.0163699
755.640	0.0162047
755.718	0.0160931
755.796	0.0162123
755.874	0.0162411
755.953	0.0160139
756.031	0.0158268
756.109	0.0159639
756.187	0.0158744
756.265	0.0159078
756.343	0.0159048
756.421	0.0157119
756.499	0.0155870
756.578	0.0157143
756.656	0.0157113
756.734	0.0156932
756.812	0.0157246
756.890	0.0158065
756.968	0.0158544
757.046	0.0158469
757.124	0.0157380
757.203	0.0159066
757.281	0.0160751
757.359	0.0161366
757.437	0.0160750
757.515	0.0161184
757.593	0.0161842
757.671	0.0162093
757.749	0.0161235
757.828	0.0160688
757.906	0.0162763
757.984	0.0160433
758.062	0.0160334
758.140	0.0160901
758.218	0.0161152
758.296	0.0160644
758.374	0.0159473
758.453	0.0158256
758.531	0.0158378
758.609	0.0158814
758.687	0.0157610
758.765	0.0157575
758.843	0.0156947
758.921	0.0157341
758.999	0.0157242
759.078	0.0158868
759.156	0.0157248
759.234	0.0157516
759.312	0.0158444
759.390	0.0160273
759.468	0.0159227
759.546	0.0160906
759.624	0.0160760
759.703	0.0161027
759.781	0.0161694
759.859	0.0163091
759.937	0.0163374
760.015	0.0162023
760.093	0.0162212
760.171	0.0164390
760.249	0.0160985
760.328	0.0160597
760.406	0.0161375
760.484	0.0161289
760.562	0.0160910
760.640	0.0159650
760.718	0.0159577
760.796	0.0159541
760.874	0.0159504
760.953	0.0157951
761.031	0.0157439
761.109	0.0157975
761.187	0.0156338
761.265	0.0156870
761.343	0.0155193
761.421	0.0155210
761.499	0.0155446
761.578	0.0155580
761.656	0.0154391
761.734	0.0154488
761.812	0.0155363
761.890	0.0155286
761.968	0.0156817
762.046	0.0157378
762.124	0.0157617
762.203	0.0157886
762.281	0.0159038
762.359	0.0160370
762.437	0.0161040
762.515	0.0162829
762.593	0.0163953
762.671	0.0165043
762.749	0.0165184
762.828	0.0165857
762.906	0.0164214
762.984	0.0164735
763.062	0.0165385
763.140	0.0164474
763.218	0.0165069
763.296	0.0164319
763.374	0.0162801
763.453	0.0162570
763.531	0.0160449
763.609	0.0161185
763.687	0.0159027
763.765	0.0158546
763.843	0.0157800
763.921	0.0156191
763.999	0.0155712
764.078	0.0154310
764.156	0.0155191
764.234	0.0153744
764.312	0.0152590
764.390	0.0153029
764.468	0.0153778
764.546	0.0153395
764.624	0.0154327
764.703	0.0154141
764.781	0.0155721
764.859	0.0156018
764.937	0.0158147
765.015	0.0159499
765.093	0.0160098
765.171	0.0158299
765.249	0.0159718
765.328	0.0160709
765.406	0.0161455
765.484	0.0163092
765.562	0.0163809
765.640	0.0164239
765.718	0.0165047
765.796	0.0166389
765.874	0.0166931
765.953	0.0166416
766.031	0.0167899
766.109	0.0166441
766.187	0.0166744
766.265	0.0165654
766.343	0.0164603
766.421	0.0162982
766.499	0.0162595
766.578	0.0161236
766.656	0.0159399
766.734	0.0156629
766.812	0.0158272
766.890	0.0156431
766.968	0.0157288
767.046	0.0155917
767.124	0.0155446
767.203	0.0155431
767.281	0.0153465
767.359	0.0154669
767.437	0.0154824
767.515	0.0156289
767.593	0.0154669
767.671	0.0156083
767.749	0.0155599
767.828	0.0157369
767.906	0.0158554
767.984	0.0157474
768.062	0.0158372
768.140	0.0160258
768.218	0.0159975
768.296	0.0159626
768.374	0.0161230
768.453	0.0161201
768.531	0.0161811
768.609	0.0161089
768.687	0.0162391
768.765	0.0161301
768.843	0.0162358
768.921	0.0161504
768.999	0.0161132
769.078	0.0161690
769.156	0.0161272
769.234	0.0161004
769.312	0.0161815
769.390	0.0160774
769.468	0.0160416
769.546	0.0160857
769.624	0.0160347
769.703	0.0161234
769.781	0.0161314
769.859	0.0159431
769.937	0.0161228
770.015	0.0161150
770.093	0.0161221
770.171	0.0161832
770.249	0.0162174
770.328	0.0162124
770.406	0.0161895
770.484	0.0163206
770.562	0.0161734
770.640	0.0162146
770.718	0.0161963
770.796	0.0162679
770.874	0.0162104
770.953	0.0162604
771.031	0.0162524
771.109	0.0162186
771.187	0.0160753
771.265	0.0162544
771.343	0.0160664
771.421	0.0159114
771.499	0.0159270
771.578	0.0157645
771.656	0.0157189
771.734	0.0156380
771.812	0.0158018
771.890	0.0156760
771.968	0.0156418
772.046	0.0155140
772.124	0.0155007
772.203	0.0155717
772.281	0.0155321
772.359	0.0155524
772.437	0.0155070
772.515	0.0155904
772.593	0.0155077
772.671	0.0152781
772.749	0.0153784
772.828	0.0152756
772.906	0.0153114
772.984	0.0153997
773.062	0.0153148
773.140	0.0154015
773.218	0.0154583
773.296	0.0154086
773.374	0.0157211
773.453	0.0157945
773.531	0.0160275
773.609	0.0161941
773.687	0.0165384
773.765	0.0167175
773.843	0.0168507
773.921	0.0171773
773.999	0.0173646
774.078	0.0174467
774.156	0.0176112
774.234	0.0177876
774.312	0.0176900
774.390	0.0176307
774.468	0.0177250
774.546	0.0176071
774.624	0.0173865
774.703	0.0171577
774.781	0.0169500
774.859	0.0166120
774.937	0.0162591
775.015	0.0159711
775.093	0.0157457
775.171	0.0155411
775.249	0.0154044
775.328	0.0152409
775.406	0.0149319
775.484	0.0151253
775.562	0.0149368
775.640	0.0148390
775.718	0.0149805
775.796	0.0151691
775.874	0.0153035
775.953	0.0152942
776.031	0.0155449
776.109	0.0155331
776.187	0.0156465
776.265	0.0156016
776.343	0.0156052
776.421	0.0157691
776.499	0.0157508
776.578	0.0157660
776.656	0.0157996
776.734	0.0157832
776.812	0.0157840
776.890	0.0158477
776.968	0.0157661
777.046	0.0158897
777.124	0.0157740
777.203	0.0160202
777.281	0.0160452
777.359	0.0159524
777.437	0.0160131
777.515	0.0160238
777.593	0.0161153
777.671	0.0161813
777.749	0.0162756
777.828	0.0162560
777.906	0.0163247
777.984	0.0165079
778.062	0.0164698
778.140	0.0165212
778.218	0.0166653
778.296	0.0165967
778.374	0.0166082
778.453	0.0166547
778.531	0.0166932
778.609	0.0166675
778.687	0.0166254
778.765	0.0168108
778.843	0.0167443
778.921	0.0167538
778.999	0.0167643
779.078	0.0167587
779.156	0.0167496
779.234	0.0166540
779.312	0.0166624
779.390	0.0164680
779.468	0.0163657
779.546	0.0162642
779.624	0.0161832
779.703	0.0160271
779.781	0.0159425
779.859	0.0157701
779.937	0.0156695
780.015	0.0155109
780.093	0.0154194
780.171	0.0153114
780.249	0.0152116
780.328	0.0151518
780.406	0.0149835
780.484	0.0149677
780.562	0.0148417
780.640	0.0145229
780.718	0.0147258
780.796	0.0147738
780.874	0.0146901
780.953	0.0146925
781.031	0.0148247
781.109	0.0147749
781.187	0.0150922
781.265	0.0151605
781.343	0.0153086
781.421	0.0154556
781.499	0.0156892
781.578	0.0159604
781.656	0.0161338
781.734	0.0162877
781.812	0.0165382
781.890	0.0166297
781.968	0.0169236
782.046	0.0171483
782.124	0.0171541
782.203	0.0171604
782.281	0.0173479
782.359	0.0174218
782.437	0.0173577
782.515	0.0173569
782.593	0.0174036
782.671	0.0173750
782.749	0.0171744
782.828	0.0170952
782.906	0.0169658
782.984	0.0167596
783.062	0.0166004
783.140	0.0165272
783.218	0.0162688
783.296	0.0158640
783.374	0.0156931
783.453	0.0156304
783.531	0.0155307
783.609	0.0152663
783.687	0.0150986
783.765	0.0148663
783.843	0.0148116
783.921	0.0148424
783.999	0.0146600
784.078	0.0146411
784.156	0.0147717
784.234	0.0149055
784.312	0.0148906
784.390	0.0149667
784.468	0.0151899
784.546	0.0151218
784.624	0.0152010
784.703	0.0152863
784.781	0.0154673
784.859	0.0155428
784.937	0.0155967
785.015	0.0157079
785.093	0.0157204
785.171	0.0155843
785.249	0.0157668
785.328	0.0158268
785.406	0.0157748
785.484	0.0157935
785.562	0.0158185
785.640	0.0160310
785.718	0.0161073
785.796	0.0159921
785.874	0.0161037
785.953	0.0161211
786.031	0.0163262
786.109	0.0165008
786.187	0.0166650
786.265	0.0168018
786.343	0.0169844
786.421	0.0171497
786.499	0.0172106
786.578	0.0172443
786.656	0.0173325
786.734	0.0174507
786.812	0.0172919
786.890	0.0175123
786.968	0.0173018
787.046	0.0172314
787.124	0.0171250
787.203	0.0170639
787.281	0.0170097
787.359	0.0165872
787.437	0.0164431
787.515	0.0163320
787.593	0.0160523
787.671	0.0159658
787.749	0.0157448
787.828	0.0155218
787.906	0.0154441
787.984	0.0151985
788.062	0.0151109
788.140	0.0150129
788.218	0.0149857
788.296	0.0151082
788.374	0.0149498
788.453	0.0148309
788.531	0.0149374
788.609	0.0149493
788.687	0.0148251
788.765	0.0149988
788.843	0.0149646
788.921	0.0148466
788.999	0.0149134
789.078	0.0149671
789.156	0.0149821
789.234	0.0149535
789.312	0.0149936
789.390	0.0150720
789.468	0.0151070
789.546	0.0152438
789.624	0.0154078
789.703	0.0154964
789.781	0.0157259
789.859	0.0159492
789.937	0.0161442
790.015	0.0161134
790.093	0.0162354
790.171	0.0167109
790.249	0.0168229
790.328	0.0169286
790.406	0.0169751
790.484	0.0171571
790.562	0.0172770
790.640	0.0173650
790.718	0.0174897
790.796	0.0174521
790.874	0.0172173
790.953	0.0173190
791.031	0.0172698
791.109	0.0170458
791.187	0.0170609
791.265	0.0169937
791.343	0.0167461
791.421	0.0166711
791.499	0.0165544
791.578	0.0163342
791.656	0.0161794
791.734	0.0160249
791.812	0.0159329
791.890	0.0158800
791.968	0.0157061
792.046	0.0156210
792.124	0.0156026
792.203	0.0154427
792.281	0.0153804
792.359	0.0153779
792.437	0.0153353
792.515	0.0153168
792.593	0.0152647
792.671	0.0153947
792.749	0.0154333
792.828	0.0154544
792.906	0.0156144
792.984	0.0155197
793.062	0.0154332
793.140	0.0155494
793.218	0.0157774
793.296	0.0156984
793.374	0.0156354
793.453	0.0156797
793.531	0.0156727
793.609	0.0155956
793.687	0.0155242
793.765	0.0155847
793.843	0.0157515
793.921	0.0157190
793.999	0.0158085
794.078	0.0159343
794.156	0.0159449
794.234	0.0161469
794.312	0.0161684
794.390	0.0162881
794.468	0.0163155
794.546	0.0165424
794.624	0.0165711
794.703	0.0167519
794.781	0.0168102
794.859	0.0168557
794.937	0.0168084
795.015	0.0168996
795.093	0.0168484
795.171	0.0169469
795.249	0.0166962
795.328	0.0167337
795.406	0.0167525
795.484	0.0165965
795.562	0.0164500
795.640	0.0163383
795.718	0.0162274
795.796	0.0160336
795.874	0.0159176
795.953	0.0158028
796.031	0.0155782
796.109	0.0155443
796.187	0.0155511
796.265	0.0154243
796.343	0.0154205
796.421	0.0156684
796.499	0.0154768
796.578	0.0155088
796.656	0.0156615
796.734	0.0157164
796.812	0.0156886
796.890	0.0156696
796.968	0.0158730
797.046	0.0158038
797.124	0.0159175
797.203	0.0158813
797.281	0.0159702
797.359	0.0159164
797.437	0.0159354
797.515	0.0160056
797.593	0.0158978
797.671	0.0160510
797.749	0.0159286
797.828	0.0159077
797.906	0.0160970
797.984	0.0161065
798.062	0.0163403
798.140	0.0162263
798.218	0.0163555
798.296	0.0163095
798.374	0.0164949
798.453	0.0165765
798.531	0.0167289
798.609	0.0166915
798.687	0.0167940
798.765	0.0167750
798.843	0.0168194
798.921	0.0168011
798.999	0.0167574
799.078	0.0166316
799.156	0.0166920
799.234	0.0166124
799.312	0.0164220
799.390	0.0163662
799.468	0.0161629
799.546	0.0159615
799.624	0.0158686
799.703	0.0157548
799.781	0.0156226
799.859	0.0153630
799.937	0.0153826
800.015	0.0152734
800.093	0.0151323
800.171	0.0151834
800.249	0.0150069
800.328	0.0152263
800.406	0.0152238
800.484	0.0153334
800.562	0.0153145
800.640	0.0155326
800.718	0.0155862
800.796	0.0156563
800.874	0.0156470
800.953	0.0156975
801.031	0.0157578
801.109	0.0158179
801.187	0.0160182
801.265	0.0158958
801.343	0.0159977
801.421	0.0160117
801.499	0.0163551
801.578	0.0161098
801.656	0.0162933
801.734	0.0163364
801.812	0.0164866
801.890	0.0164287
801.968	0.0164156
802.046	0.0163438
802.124	0.0165340
802.203	0.0165874
802.281	0.0166127
802.359	0.0165589
802.437	0.0165646
802.515	0.0164501
802.593	0.0163248
802.671	0.0163899
802.749	0.0163545
802.828	0.0163158
802.906	0.0162309
802.984	0.0161085
803.062	0.0160475
803.140	0.0158551
803.218	0.0157327
803.296	0.0156752
803.374	0.0157800
803.453	0.0157277
803.531	0.0156097
803.609	0.0154865
803.687	0.0154933
803.765	0.0154588
803.843	0.0153288
803.921	0.0152728
803.999	0.0155187
804.078	0.0156696
804.156	0.0154836
804.234	0.0155459
804.312	0.0157262
804.390	0.0157525
804.468	0.0159419
804.546	0.0161906
804.624	0.0162260
804.703	0.0163182
804.781	0.0164922
804.859	0.0165022
804.937	0.0167665
805.015	0.0168951
805.093	0.0168858
805.171	0.0168925
805.249	0.0168571
805.328	0.0168144
805.406	0.0168681
805.484	0.0168067
805.562	0.0165486
805.640	0.0164761
805.718	0.0162144
805.796	0.0159586
805.874	0.0158731
805.953	0.0158341
806.031	0.0156534
806.109	0.0155399
806.187	0.0153047
806.265	0.0152316
806.343	0.0150347
806.421	0.0150655
806.499	0.0150662
806.578	0.0151422
806.656	0.0151032
806.734	0.0151831
806.812	0.0150396
806.890	0.0151781
806.968	0.0154840
807.046	0.0155293
807.124	0.0157249
807.203	0.0156311
807.281	0.0159355
807.359	0.0159147
807.437	0.0159892
807.515	0.0160117
807.593	0.0161427
807.671	0.0160370
807.749	0.0160859
807.828	0.0160530
807.906	0.0160622
807.984	0.0162430
808.062	0.0162379
808.140	0.0160938
808.218	0.0160374
808.296	0.0160643
808.374	0.0160606
808.453	0.0160085
808.531	0.0160075
808.609	0.0160432
808.687	0.0159242
808.765	0.0161143
808.843	0.0161643
808.921	0.0161928
808.999	0.0161584
809.078	0.0162194
809.156	0.0162057
809.234	0.0161466
809.312	0.0162157
809.390	0.0160923
809.468	0.0161273
809.546	0.0160397
809.624	0.0161614
809.703	0.0160238
809.781	0.0158772
809.859	0.0161346
809.937	0.0160450
810.015	0.0159971
810.093	0.0160830
810.171	0.0160308
810.249	0.0161702
810.328	0.0161954
810.406	0.0163567
810.484	0.0162659
810.562	0.0163445
810.640	0.0164532
810.718	0.0162822
810.796	0.0162704
810.874	0.0163155
810.953	0.0161307
811.031	0.0161205
811.109	0.0160005
811.187	0.0160703
811.265	0.0160148
811.343	0.0160349
811.421	0.0158128
811.499	0.0158492
811.578	0.0158443
811.656	0.0157494
811.734	0.0157764
811.812	0.0157776
811.890	0.0157524
811.968	0.0159332
812.046	0.0158402
812.124	0.0157244
812.203	0.0156991
812.281	0.0157167
812.359	0.0156657
812.437	0.0156272
812.515	0.0156036
812.593	0.0156286
812.671	0.0156426
812.749	0.0156754
812.828	0.0157584
812.906	0.0157121
812.984	0.0157169
813.062	0.0158867
813.140	0.0157677
813.218	0.0156005
813.296	0.0158983
813.374	0.0157641
813.453	0.0158733
813.531	0.0158809
813.609	0.0159531
813.687	0.0160039
813.765	0.0159750
813.843	0.0160777
813.921	0.0160085
813.999	0.0159858
814.078	0.0161066
814.156	0.0161350
814.234	0.0162225
814.312	0.0161365
814.390	0.0160609
814.468	0.0160314
814.546	0.0159870
814.624	0.0160567
814.703	0.0159760
814.781	0.0159828
814.859	0.0159119
814.937	0.0158936
815.015	0.0160072
815.093	0.0158907
815.171	0.0158810
815.249	0.0160308
815.328	0.0160256
815.406	0.0160045
815.484	0.0161252
815.562	0.0163216
815.640	0.0163470
815.718	0.0164339
815.796	0.0165101
815.874	0.0165314
815.953	0.0166216
816.031	0.0166764
816.109	0.0168163
816.187	0.0166869
816.265	0.0166017
816.343	0.0166421
816.421	0.0165762
816.499	0.0166057
816.578	0.0165670
816.656	0.0164315
816.734	0.0164234
816.812	0.0163917
816.890	0.0162665
816.968	0.0160397
817.046	0.0159746
817.124	0.0160156
817.203	0.0161247
817.281	0.0160901
817.359	0.0160162
817.437	0.0159469
817.515	0.0160106
817.593	0.0158498
817.671	0.0157914
817.749	0.0157583
817.828	0.0156731
817.906	0.0156885
817.984	0.0156253
818.062	0.0156750
818.140	0.0156339
818.218	0.0153791
818.296	0.0155241
818.374	0.0154120
818.453	0.0156530
818.531	0.0157249
818.609	0.0157877
818.687	0.0156344
818.765	0.0155928
818.843	0.0157674
818.921	0.0157588
818.999	0.0159045
819.078	0.0160304
819.156	0.0159354
819.234	0.0159463
819.312	0.0159360
819.390	0.0160159
819.468	0.0160144
819.546	0.0160851
819.624	0.0160400
819.703	0.0161610
819.781	0.0161527
819.859	0.0161216
819.937	0.0161754
820.015	0.0161995
820.093	0.0162282
820.171	0.0162399
820.249	0.0160474
820.328	0.0161066
820.406	0.0162446
820.484	0.0162769
820.562	0.0162428
820.640	0.0161667
820.718	0.0161491
820.796	0.0160962
820.874	0.0160593
820.953	0.0161150
821.031	0.0161025
821.109	0.0160983
821.187	0.0160980
821.265	0.0162428
821.343	0.0161138
821.421	0.0161687
821.499	0.0161730
821.578	0.0162375
821.656	0.0161829
821.734	0.0161963
821.812	0.0161849
821.890	0.0162439
821.968	0.0163444
822.046	0.0163838
822.124	0.0163738
822.203	0.0163013
822.281	0.0161843
822.359	0.0163342
822.437	0.0163041
822.515	0.0161643
822.593	0.0161581
822.671	0.0162187
822.749	0.0161044
822.828	0.0162115
822.906	0.0161614
822.984	0.0159658
823.062	0.0160667
823.140	0.0161227
823.218	0.0160224
823.296	0.0159544
823.374	0.0159431
823.453	0.0159818
823.531	0.0159919
823.609	0.0158608
823.687	0.0157909
823.765	0.0157743
823.843	0.0159361
823.921	0.0158627
823.999	0.0158247
824.078	0.0157893
824.156	0.0158421
824.234	0.0157835
824.312	0.0159396
824.390	0.0159134
824.468	0.0159190
824.546	0.0158791
824.624	0.0158538
824.703	0.0158888
824.781	0.0157814
824.859	0.0158520
824.937	0.0157463
825.015	0.0157584
825.093	0.0156682
825.171	0.0156779
825.249	0.0156198
825.328	0.0157524
825.406	0.0156168
825.484	0.0156315
825.562	0.0156196
825.640	0.0154964
825.718	0.0155647
825.796	0.0153915
825.874	0.0154527
825.953	0.0154815
826.031	0.0155151
826.109	0.0155688
826.187	0.0154219
826.265	0.0153729
826.343	0.0155711
826.421	0.0156980
826.499	0.0157696
826.578	0.0157673
826.656	0.0157838
826.734	0.0159364
826.812	0.0161662
826.890	0.0162060
826.968	0.0160979
827.046	0.0163271
827.124	0.0164771
827.203	0.0164114
827.281	0.0165106
827.359	0.0165652
827.437	0.0165760
827.515	0.0167046
827.593	0.0165641
827.671	0.0165047
827.749	0.0164497
827.828	0.0164984
827.906	0.0164109
827.984	0.0164581
828.062	0.0163335
828.140	0.0162678
828.218	0.0162953
828.296	0.0163816
828.374	0.0163827
828.453	0.0162112
828.531	0.0161678
828.609	0.0162000
828.687	0.0162522
828.765	0.0161511
828.843	0.0162123
828.921	0.0161115
828.999	0.0161266
829.078	0.0161711
829.156	0.0160631
829.234	0.0159264
829.312	0.0158921
829.390	0.0158115
829.468	0.0158286
829.546	0.0158079
829.624	0.0156914
829.703	0.0156513
829.781	0.0156551
829.859	0.0156324
829.937	0.0155915
830.015	0.0155727
830.093	0.0153815
830.171	0.0153676
830.249	0.0154556
830.328	0.0154376
830.406	0.0154341
830.484	0.0153970
830.562	0.0155236
830.640	0.0155629
830.718	0.0155601
830.796	0.0155013
830.874	0.0155518
830.953	0.0155453
831.031	0.0156533
831.109	0.0156226
831.187	0.0156889
831.265	0.0157595
831.343	0.0157874
831.421	0.0157758
831.499	0.0157418
831.578	0.0158020
831.656	0.0157556
831.734	0.0159309
831.812	0.0159251
831.890	0.0158732
831.968	0.0158433
832.046	0.0159200
832.124	0.0159340
832.203	0.0160426
832.281	0.0160525
832.359	0.0160501
832.437	0.0159871
832.515	0.0159676
832.593	0.0160114
832.671	0.0160701
832.749	0.0159662
832.828	0.0159875
832.906	0.0160283
832.984	0.0162323
833.062	0.0162299
833.140	0.0160818
833.218	0.0160468
833.296	0.0160307
833.374	0.0161332
833.453	0.0162241
833.531	0.0162769
833.609	0.0162743
833.687	0.0163168
833.765	0.0161568
833.843	0.0161936
833.921	0.0163044
833.999	0.0161572
834.078	0.0160909
834.156	0.0160777
834.234	0.0161593
834.312	0.0161160
834.390	0.0160509
834.468	0.0160756
834.546	0.0160206
834.624	0.0160138
834.703	0.0160012
834.781	0.0161087
834.859	0.0159663
834.937	0.0158773
835.015	0.0161284
835.093	0.0160275
835.171	0.0160160
835.249	0.0161613
835.328	0.0161388
835.406	0.0160632
835.484	0.0159652
835.562	0.0161633
835.640	0.0161015
835.718	0.0161312
835.796	0.0159839
835.874	0.0161124
835.953	0.0160431
836.031	0.0160426
836.109	0.0160548
836.187	0.0159828
836.265	0.0160678
836.343	0.0160447
836.421	0.0159352
836.499	0.0159107
836.578	0.0159933
836.656	0.0159648
836.734	0.0159221
836.812	0.0159042
836.890	0.0157573
836.968	0.0158199
837.046	0.0157685
837.124	0.0156459
837.203	0.0157383
837.281	0.0157345
837.359	0.0158080
837.437	0.0157207
837.515	0.0157868
837.593	0.0158972
837.671	0.0157864
837.749	0.0157313
837.828	0.0158438
837.906	0.0159544
837.984	0.0159344
838.062	0.0158924
838.140	0.0159041
838.218	0.0159879
838.296	0.0160471
838.374	0.0161127
838.453	0.0160822
838.531	0.0159863
838.609	0.0160442
838.687	0.0161439
838.765	0.0162733
838.843	0.0161576
838.921	0.0161229
838.999	0.0161726
839.078	0.0162977
839.156	0.0162479
839.234	0.0162701
839.312	0.0162862
839.390	0.0163543
839.468	0.0162992
839.546	0.0162711
839.624	0.0162165
839.703	0.0161793
839.781	0.0163028
839.859	0.0162688
839.937	0.0163085
840.015	0.0163091
840.093	0.0161835
840.171	0.0162060
840.249	0.0161051
840.328	0.0161293
840.406	0.0160064
840.484	0.0161214
840.562	0.0161749
840.640	0.0162729
840.718	0.0160930
840.796	0.0162079
840.874	0.0160352
840.953	0.0159708
841.031	0.0159573
841.109	0.0161158
841.187	0.0160725
841.265	0.0160150
841.343	0.0159985
841.421	0.0161678
841.499	0.0159607
841.578	0.0160835
841.656	0.0160398
841.734	0.0160838
841.812	0.0161422
841.890	0.0160703
841.968	0.0162468
842.046	0.0161340
842.124	0.0159560
842.203	0.0161051
842.281	0.0161595
842.359	0.0160043
842.437	0.0160437
842.515	0.0160368
842.593	0.0159655
842.671	0.0159613
842.749	0.0159345
842.828	0.0160206
842.906	0.0161005
842.984	0.0159866
843.062	0.0160034
843.140	0.0158754
843.218	0.0159948
843.296	0.0160780
843.374	0.0161031
843.453	0.0161490
843.531	0.0160342
843.609	0.0159849
843.687	0.0161151
843.765	0.0161438
843.843	0.0160818
843.921	0.0160011
843.999	0.0160025
844.078	0.0160014
844.156	0.0159735
844.234	0.0160965
844.312	0.0159469
844.390	0.0157872
844.468	0.0159739
844.546	0.0159020
844.624	0.0158841
844.703	0.0158423
844.781	0.0159719
844.859	0.0160794
844.937	0.0160887
845.015	0.0160135
845.093	0.0161415
845.171	0.0161269
845.249	0.0160011
845.328	0.0160738
845.406	0.0161304
845.484	0.0160858
845.562	0.0159959
845.640	0.0159755
845.718	0.0160619
845.796	0.0160281
845.874	0.0159535
845.953	0.0159228
846.031	0.0160085
846.109	0.0159576
846.187	0.0160178
846.265	0.0159040
846.343	0.0158859
846.421	0.0160537
846.499	0.0160036
846.578	0.0160101
846.656	0.0159504
846.734	0.0159912
846.812	0.0160341
846.890	0.0159647
846.968	0.0160905
847.046	0.0160965
847.124	0.0160409
847.203	0.0160849
847.281	0.0161214
847.359	0.0160616
847.437	0.0160867
847.515	0.0161138
847.593	0.0160376
847.671	0.0161525
847.749	0.0160230
847.828	0.0160253
847.906	0.0160088
847.984	0.0161063
848.062	0.0159455
848.140	0.0159857
848.218	0.0158186
848.296	0.0157899
848.374	0.0158321
848.453	0.0158062
848.531	0.0158726
848.609	0.0157731
848.687	0.0156924
848.765	0.0156963
848.843	0.0157905
848.921	0.0157218
848.999	0.0158241
849.078	0.0158045
849.156	0.0158265
849.234	0.0157107
849.312	0.0158197
849.390	0.0157905
849.468	0.0156262
849.546	0.0157633
849.624	0.0158295
849.703	0.0158552
849.781	0.0157060
849.859	0.0157412
849.937	0.0158258
850.015	0.0157849
850.093	0.0157510
850.171	0.0156824
850.249	0.0156554
850.328	0.0158026
850.406	0.0157510
850.484	0.0157676
850.562	0.0157938
850.640	0.0156587
850.718	0.0158765
850.796	0.0158008
850.874	0.0157912
850.953	0.0157891
851.031	0.0158853
851.109	0.0159824
851.187	0.0159345
851.265	0.0159605
851.343	0.0160452
851.421	0.0160282
851.499	0.0160263
851.578	0.0161010
851.656	0.0160937
851.734	0.0160411
851.812	0.0160321
851.890	0.0160413
851.968	0.0162400
852.046	0.0161645
852.124	0.0161221
852.203	0.0160294
852.281	0.0159892
852.359	0.0158556
852.437	0.0159505
852.515	0.0159794
852.593	0.0161536
852.671	0.0160833
852.749	0.0159159
852.828	0.0159763
852.906	0.0158975
852.984	0.0159261
853.062	0.0160280
853.140	0.0159455
853.218	0.0159155
853.296	0.0159153
853.374	0.0160234
853.453	0.0160596
853.531	0.0160263
853.609	0.0158342
853.687	0.0159954
853.765	0.0160754
853.843	0.0159673
853.921	0.0159924
853.999	0.0161899
854.078	0.0160632
854.156	0.0159366
854.234	0.0160000
854.312	0.0158568
854.390	0.0160576
854.468	0.0159463
854.546	0.0161518
854.624	0.0161304
854.703	0.0158774
854.781	0.0160281
854.859	0.0158163
854.937	0.0159306
855.015	0.0160831
855.093	0.0159232
855.171	0.0161071
855.249	0.0159060
855.328	0.0160135
855.406	0.0158699
855.484	0.0158311
855.562	0.0157881
855.640	0.0159315
855.718	0.0159813
855.796	0.0159359
855.874	0.0157722
855.953	0.0157431
856.031	0.0157471
856.109	0.0157095
856.187	0.0158569
856.265	0.0157629
856.343	0.0157269
856.421	0.0157899
856.499	0.0157566
856.578	0.0157050
856.656	0.0157867
856.734	0.0157157
856.812	0.0157951
856.890	0.0158051
856.968	0.0157800
857.046	0.0158856
857.124	0.0159045
857.203	0.0160017
857.281	0.0159877
857.359	0.0159850
857.437	0.0160948
857.515	0.0161546
857.593	0.0160898
857.671	0.0160864
857.749	0.0162315
857.828	0.0161588
857.906	0.0161607
857.984	0.0161365
858.062	0.0162746
858.140	0.0160743
858.218	0.0161810
858.296	0.0161451
858.374	0.0160088
858.453	0.0160367
858.531	0.0160787
858.609	0.0160728
858.687	0.0161723
858.765	0.0159925
858.843	0.0160836
858.921	0.0160529
858.999	0.0159592
859.078	0.0159669
859.156	0.0161563
859.234	0.0160856
859.312	0.0160400
859.390	0.0160204
859.468	0.0160865
859.546	0.0161278
859.624	0.0161938
859.703	0.0161758
859.781	0.0160876
859.859	0.0160384
859.937	0.0162415
860.015	0.0162792
860.093	0.0161317
860.171	0.0162350
860.249	0.0162904
860.328	0.0161941
860.406	0.0161477
860.484	0.0160565
860.562	0.0160981
860.640	0.0163049
860.718	0.0162083
860.796	0.0162219
860.874	0.0162280
860.953	0.0162488
861.031	0.0160516
861.109	0.0161696
861.187	0.0161050
861.265	0.0161630
861.343	0.0161711
861.421	0.0160350
861.499	0.0159558
861.578	0.0160809
861.656	0.0159844
861.734	0.0159526
861.812	0.0159114
861.890	0.0158249
861.968	0.0157963
862.046	0.0158709
862.124	0.0158087
862.203	0.0157029
862.281	0.0156474
862.359	0.0157024
862.437	0.0155901
862.515	0.0157302
862.593	0.0157227
862.671	0.0156517
862.749	0.0156697
862.828	0.0157149
862.906	0.0157613
862.984	0.0156127
863.062	0.0157760
863.140	0.0158353
863.218	0.0159882
863.296	0.0157782
863.374	0.0159979
863.453	0.0160830
863.531	0.0160909
863.609	0.0159954
863.687	0.0161994
863.765	0.0161742
863.843	0.0161913
863.921	0.0162798
863.999	0.0161614
864.078	0.0161830
864.156	0.0162093
864.234	0.0160971
864.312	0.0162112
864.390	0.0160691
864.468	0.0159766
864.546	0.0160513
864.624	0.0161412
864.703	0.0161869
864.781	0.0161039
864.859	0.0160857
864.937	0.0160392
865.015	0.0161215
865.093	0.0160145
865.171	0.0160952
865.249	0.0162556
865.328	0.0161391
865.406	0.0160814
865.484	0.0161639
865.562	0.0162711
865.640	0.0161949
865.718	0.0160884
865.796	0.0162548
865.874	0.0160683
865.953	0.0163586
866.031	0.0162177
866.109	0.0161647
866.187	0.0162022
866.265	0.0162347
866.343	0.0161168
866.421	0.0162120
866.499	0.0162173
866.578	0.0162074
866.656	0.0160358
866.734	0.0162245
866.812	0.0160600
866.890	0.0161491
866.968	0.0160738
867.046	0.0161130
867.124	0.0161494
867.203	0.0161312
867.281	0.0160863
867.359	0.0160918
867.437	0.0162489
867.515	0.0160920
867.593	0.0161080
867.671	0.0160805
867.749	0.0159938
867.828	0.0160523
867.906	0.0161536
867.984	0.0160502
868.062	0.0158970
868.140	0.0160539
868.218	0.0160236
868.296	0.0158653
868.374	0.0159924
868.453	0.0158643
868.531	0.0158528
868.609	0.0159203
868.687	0.0158287
868.765	0.0158776
868.843	0.0160040
868.921	0.0158965
868.999	0.0157368
869.078	0.0159492
869.156	0.0160269
869.234	0.0159362
869.312	0.0158839
869.390	0.0161227
869.468	0.0159608
869.546	0.0160770
869.624	0.0160628
869.703	0.0161140
869.781	0.0160570
869.859	0.0160735
869.937	0.0160797
870.015	0.0160747
870.093	0.0161268
870.171	0.0160972
870.249	0.0161372
870.328	0.0161868
870.406	0.0162901
870.484	0.0162514
870.562	0.0161742
870.640	0.0161649
870.718	0.0161890
870.796	0.0162488
870.874	0.0162911
870.953	0.0162120
871.031	0.0162868
871.109	0.0161937
871.187	0.0161095
871.265	0.0162451
871.343	0.0161127
871.421	0.0159994
871.499	0.0161103
871.578	0.0160732
871.656	0.0161864
871.734	0.0160875
871.812	0.0160899
871.890	0.0161076
871.968	0.0160572
872.046	0.0159534
872.124	0.0162022
872.203	0.0160703
872.281	0.0160279
872.359	0.0161346
872.437	0.0160934
872.515	0.0159902
872.593	0.0159860
872.671	0.0160989
872.749	0.0160912
872.828	0.0160207
872.906	0.0159965
872.984	0.0160413
873.062	0.0159897
873.140	0.0159957
873.218	0.0160202
873.296	0.0161494
873.374	0.0159634
873.453	0.0159004
873.531	0.0161910
873.609	0.0161006
873.687	0.0160593
873.765	0.0160390
873.843	0.0161813
873.921	0.0162917
873.999	0.0162135
874.078	0.0159639
874.156	0.0160726
874.234	0.0161696
874.312	0.0161777
874.390	0.0161623
874.468	0.0160758
874.546	0.0159672
874.624	0.0160106
874.703	0.0159775
874.781	0.0159303
874.859	0.0158493
874.937	0.0160371
875.015	0.0159952
875.093	0.0159150
875.171	0.0161405
875.249	0.0158185
875.328	0.0159616
875.406	0.0159586
875.484	0.0160417
875.562	0.0158558
875.640	0.0160036
875.718	0.0159425
875.796	0.0160040
875.874	0.0160106
875.953	0.0159499
876.031	0.0160499
876.109	0.0161203
876.187	0.0160658
876.265	0.0161926
876.343	0.0161192
876.421	0.0161279
876.499	0.0161583
876.578	0.0160035
876.656	0.0159644
876.734	0.0159624
876.812	0.0160952
876.890	0.0161371
876.968	0.0161133
877.046	0.0160365
877.124	0.0160075
877.203	0.0160255
877.281	0.0160452
877.359	0.0159747
877.437	0.0160960
877.515	0.0158279
877.593	0.0158081
877.671	0.0159256
877.749	0.0159095
877.828	0.0159203
877.906	0.0159193
877.984	0.0161173
878.062	0.0160381
878.140	0.0161345
878.218	0.0160455
878.296	0.0160966
878.374	0.0161485
878.453	0.0161473
878.531	0.0164146
878.609	0.0162615
878.687	0.0161732
878.765	0.0162414
878.843	0.0162576
878.921	0.0160998
878.999	0.0161320
879.078	0.0160727
879.156	0.0162609
879.234	0.0161323
879.312	0.0162312
879.390	0.0160177
879.468	0.0161304
879.546	0.0160378
879.624	0.0160338
879.703	0.0160240
879.781	0.0159199
879.859	0.0160365
879.937	0.0160197
880.015	0.0158660
880.093	0.0160028
880.171	0.0159154
880.249	0.0159460
880.328	0.0160091
880.406	0.0159292
880.484	0.0160249
880.562	0.0159570
880.640	0.0159589
880.718	0.0159587
880.796	0.0159872
880.874	0.0158418
880.953	0.0157217
881.031	0.0158652
881.109	0.0159489
881.187	0.0158548
881.265	0.0158398
881.343	0.0157979
881.421	0.0156644
881.499	0.0158610
881.578	0.0158001
881.656	0.0156632
881.734	0.0156833
881.812	0.0156595
881.890	0.0154470
881.968	0.0154751
882.046	0.0156432
882.124	0.0155953
882.203	0.0156123
882.281	0.0156783
882.359	0.0156021
882.437	0.0157220
882.515	0.0155627
882.593	0.0156821
882.671	0.0157841
882.749	0.0159042
882.828	0.0158887
882.906	0.0158910
882.984	0.0159306
883.062	0.0159343
883.140	0.0160608
883.218	0.0160008
883.296	0.0161445
883.374	0.0161771
883.453	0.0161349
883.531	0.0161526
883.609	0.0161269
883.687	0.0163126
883.765	0.0162336
883.843	0.0163050
883.921	0.0162955
883.999	0.0162103
884.078	0.0162558
884.156	0.0161906
884.234	0.0161539
884.312	0.0160381
884.390	0.0162993
884.468	0.0161536
884.546	0.0159582
884.624	0.0160042
884.703	0.0161345
884.781	0.0160195
884.859	0.0157700
884.937	0.0159850
885.015	0.0160004
885.093	0.0160452
885.171	0.0156818
885.249	0.0156728
885.328	0.0158704
885.406	0.0159599
885.484	0.0157102
885.562	0.0156223
885.640	0.0157774
885.718	0.0158119
885.796	0.0158685
885.874	0.0157073
885.953	0.0157462
886.031	0.0157183
886.109	0.0158429
886.187	0.0158903
886.265	0.0158266
886.343	0.0159224
886.421	0.0159100
886.499	0.0158835
886.578	0.0159275
886.656	0.0159602
886.734	0.0159032
886.812	0.0160558
886.890	0.0159753
886.968	0.0159340
887.046	0.0159304
887.124	0.0160564
887.203	0.0161952
887.281	0.0160319
887.359	0.0161608
887.437	0.0161814
887.515	0.0161844
887.593	0.0161671
887.671	0.0161409
887.749	0.0160844
887.828	0.0160986
887.906	0.0162023
887.984	0.0162773
888.062	0.0161825
888.140	0.0161658
888.218	0.0159836
888.296	0.0160697
888.374	0.0160080
888.453	0.0161520
888.531	0.0160442
888.609	0.0161970
888.687	0.0160264
888.765	0.0159508
888.843	0.0159082
888.921	0.0158723
888.999	0.0160042
889.078	0.0158904
889.156	0.0158456
889.234	0.0158633
889.312	0.0158813
889.390	0.0158365
889.468	0.0158353
889.546	0.0157269
889.624	0.0158414
889.703	0.0158592
889.781	0.0158782
889.859	0.0159644
889.937	0.0160560
890.015	0.0159237
890.093	0.0160310
890.171	0.0161090
890.249	0.0161496
890.328	0.0160822
890.406	0.0161916
890.484	0.0161040
890.562	0.0161214
890.640	0.0160664
890.718	0.0161267
890.796	0.0162714
890.874	0.0161709
890.953	0.0161522
891.031	0.0161691
891.109	0.0162321
891.187	0.0161855
891.265	0.0160781
891.343	0.0162420
891.421	0.0161705
891.499	0.0162173
891.578	0.0161423
891.656	0.0162238
891.734	0.0161987
891.812	0.0160067
891.890	0.0160390
891.968	0.0160912
892.046	0.0161272
892.124	0.0161565
892.203	0.0161679
892.281	0.0160574
892.359	0.0158999
892.437	0.0160416
892.515	0.0159715
892.593	0.0161227
892.671	0.0160802
892.749	0.0159174
892.828	0.0160561
892.906	0.0160906
892.984	0.0159840
893.062	0.0161220
893.140	0.0159785
893.218	0.0160610
893.296	0.0160003
893.374	0.0160237
893.453	0.0160770
893.531	0.0160046
893.609	0.0160464
893.687	0.0161494
893.765	0.0160695
893.843	0.0162057
893.921	0.0160752
893.999	0.0161096
894.078	0.0161492
894.156	0.0162383
894.234	0.0162992
894.312	0.0160119
894.390	0.0161397
894.468	0.0160744
894.546	0.0162103
894.624	0.0160502
894.703	0.0160591
894.781	0.0161757
894.859	0.0162201
894.937	0.0161166
895.015	0.0161776
895.093	0.0161466
895.171	0.0161680
895.249	0.0161758
895.328	0.0161039
895.406	0.0161152
895.484	0.0159611
895.562	0.0159043
895.640	0.0159626
895.718	0.0160725
895.796	0.0159554
895.874	0.0159438
895.953	0.0159036
896.031	0.0158946
896.109	0.0160017
896.187	0.0159719
896.265	0.0158601
896.343	0.0160430
896.421	0.0158813
896.499	0.0158901
896.578	0.0160069
896.656	0.0160919
896.734	0.0158389
896.812	0.0159019
896.890	0.0159618
896.968	0.0160598
897.046	0.0161698
897.124	0.0159265
897.203	0.0162194
897.281	0.0161346
897.359	0.0161090
897.437	0.0160622
897.515	0.0160361
897.593	0.0161440
897.671	0.0161156
897.749	0.0160285
897.828	0.0159380
897.906	0.0161893
897.984	0.0161878
898.062	0.0161217
898.140	0.0161526
898.218	0.0160119
898.296	0.0159992
898.374	0.0159528
898.453	0.0160336
898.531	0.0160411
898.609	0.0160259
898.687	0.0158764
898.765	0.0159885
898.843	0.0160946
898.921	0.0160269
898.999	0.0159001
899.078	0.0160284
899.156	0.0159034
899.234	0.0158585
899.312	0.0159432
899.390	0.0160980
899.468	0.0158602
899.546	0.0158955
899.624	0.0160941
899.703	0.0161277
899.781	0.0160629
899.859	0.0160945
899.937	0.0161959
900.015	0.0161138
900.093	0.0161568
900.171	0.0162685
900.249	0.0162244
900.328	0.0162103
900.406	0.0162180
900.484	0.0163245
900.562	0.0162439
900.640	0.0162056
900.718	0.0162704
900.796	0.0161531
900.874	0.0161378
900.953	0.0161752
901.031	0.0161139
901.109	0.0159693
901.187	0.0160921
901.265	0.0159520
901.343	0.0159305
901.421	0.0160684
901.499	0.0160368
901.578	0.0159606
901.656	0.0159066
901.734	0.0159892
901.812	0.0159332
901.890	0.0159966
901.968	0.0159189
902.046	0.0158907
902.124	0.0160450
902.203	0.0159014
902.281	0.0160360
902.359	0.0158693
902.437	0.0159791
902.515	0.0158065
902.593	0.0159859
902.671	0.0160230
902.749	0.0158842
902.828	0.0158957
902.906	0.0159885
902.984	0.0160312
903.062	0.0159501
903.140	0.0161089
903.218	0.0160348
903.296	0.0160771
903.374	0.0161812
903.453	0.0162566
903.531	0.0161279
903.609	0.0160851
903.687	0.0162025
903.765	0.0160998
903.843	0.0161631
903.921	0.0160540
903.999	0.0159737
904.078	0.0161179
904.156	0.0161383
904.234	0.0159806
904.312	0.0159052
904.390	0.0159881
904.468	0.0159470
904.546	0.0160616
904.624	0.0160614
904.703	0.0160191
904.781	0.0158557
904.859	0.0158431
904.937	0.0159190
905.015	0.0158521
905.093	0.0158640
905.171	0.0159069
905.249	0.0158463
905.328	0.0157735
905.406	0.0157353
905.484	0.0157848
905.562	0.0156831
905.640	0.0158527
905.718	0.0157433
905.796	0.0156790
905.874	0.0158054
905.953	0.0158236
906.031	0.0157381
906.109	0.0158019
906.187	0.0159882
906.265	0.0158520
906.343	0.0159473
906.421	0.0159693
906.499	0.0159186
906.578	0.0160484
906.656	0.0158818
906.734	0.0160071
906.812	0.0160812
906.890	0.0160777
906.968	0.0159833
907.046	0.0158736
907.124	0.0160139
907.203	0.0161787
907.281	0.0160188
907.359	0.0159612
907.437	0.0159484
907.515	0.0158912
907.593	0.0161544
907.671	0.0160912
907.749	0.0160941
907.828	0.0159147
907.906	0.0158695
907.984	0.0159657
908.062	0.0160031
908.140	0.0160516
908.218	0.0157861
908.296	0.0158850
908.374	0.0159139
908.453	0.0157995
908.531	0.0158462
908.609	0.0158052
908.687	0.0157579
908.765	0.0158347
908.843	0.0158038
908.921	0.0157635
908.999	0.0157242
909.078	0.0157236
909.156	0.0157749
909.234	0.0158552
909.312	0.0159213
909.390	0.0156966
909.468	0.0157417
909.546	0.0158023
909.624	0.0159303
909.703	0.0158824
909.781	0.0158559
909.859	0.0159274
909.937	0.0157633
910.015	0.0159008
910.093	0.0159522
910.171	0.0158723
910.249	0.0157802
910.328	0.0159332
910.406	0.0159361
910.484	0.0157708
910.562	0.0159911
910.640	0.0158472
910.718	0.0157896
910.796	0.0158258
910.874	0.0159106
910.953	0.0158734
911.031	0.0158825
911.109	0.0158373
911.187	0.0158839
911.265	0.0158685
911.343	0.0157285
911.421	0.0158408
911.499	0.0159103
911.578	0.0159009
911.656	0.0158560
911.734	0.0160014
911.812	0.0160381
911.890	0.0160517
911.968	0.0158987
912.046	0.0159205
912.124	0.0160513
912.203	0.0158701
912.281	0.0160151
912.359	0.0161687
912.437	0.0161270
912.515	0.0160220
912.593	0.0161206
912.671	0.0161723
912.749	0.0161553
912.828	0.0161883
912.906	0.0161727
912.984	0.0162627
913.062	0.0162373
913.140	0.0161890
913.218	0.0162234
913.296	0.0161538
913.374	0.0160554
913.453	0.0158671
913.531	0.0161082
913.609	0.0159804
913.687	0.0159064
913.765	0.0159119
913.843	0.0159934
913.921	0.0158546
913.999	0.0156874
914.078	0.0157346
914.156	0.0157669
914.234	0.0158440
914.312	0.0158598
914.390	0.0158632
914.468	0.0157605
914.546	0.0158096
914.624	0.0158039
914.703	0.0158709
914.781	0.0158164
914.859	0.0158560
914.937	0.0157675
915.015	0.0159473
915.093	0.0159220
915.171	0.0158311
915.249	0.0158552
915.328	0.0159731
915.406	0.0159406
915.484	0.0161334
915.562	0.0160108
915.640	0.0159434
915.718	0.0160137
915.796	0.0161240
915.874	0.0161190
915.953	0.0159910
916.031	0.0160203
916.109	0.0161209
916.187	0.0161182
916.265	0.0161314
916.343	0.0159927
916.421	0.0160503
916.499	0.0161839
916.578	0.0161536
916.656	0.0160568
916.734	0.0161159
916.812	0.0160606
916.890	0.0162177
916.968	0.0162311
917.046	0.0163053
917.124	0.0161870
917.203	0.0163325
917.281	0.0161805
917.359	0.0162801
917.437	0.0161900
917.515	0.0162561
917.593	0.0161828
917.671	0.0161497
917.749	0.0161743
917.828	0.0161939
917.906	0.0162349
917.984	0.0160953
918.062	0.0160465
918.140	0.0160633
918.218	0.0158761
918.296	0.0159270
918.374	0.0158922
918.453	0.0159102
918.531	0.0158936
918.609	0.0158853
918.687	0.0159364
918.765	0.0159510
918.843	0.0159892
918.921	0.0160688
918.999	0.0160319
919.078	0.0159051
919.156	0.0159383
919.234	0.0160695
919.312	0.0163258
919.390	0.0162094
919.468	0.0161946
919.546	0.0162149
919.624	0.0162164
919.703	0.0163017
919.781	0.0161642
919.859	0.0161195
919.937	0.0163903
