06/10/2022	18:50:45	Ver.	4.1	UNKNOWN
Optical Delay	600.015094	Delta X		0.078125	Sweeps	1	Scan Rate	0/0
Coordinates	Axis 1	NaN	Axis 2	NaN	Axis 3	NaN	Axis 4	NaN	Axis 5	NaN	Axis 6	0.000000
TX Power	0.000000	RX Power	0.000000

600.015	0.0162374
600.093	0.0160055
600.171	0.0161481
600.249	0.0162515
600.328	0.0161388
600.406	0.0161079
600.484	0.0162161
600.562	0.0160291
600.640	0.0161604
600.718	0.0162120
600.796	0.0161037
600.874	0.0160721
600.953	0.0161720
601.031	0.0161150
601.109	0.0161305
601.187	0.0161381
601.265	0.0162232
601.343	0.0160531
601.421	0.0162351
601.499	0.0162601
601.578	0.0162473
601.656	0.0160518
601.734	0.0162402
601.812	0.0161186
601.890	0.0162511
601.968	0.0161676
602.046	0.0162247
602.124	0.0162823
602.203	0.0162627
602.281	0.0160273
602.359	0.0160944
602.437	0.0162721
602.515	0.0160850
602.593	0.0161494
602.671	0.0162317
602.749	0.0162434
602.828	0.0162096
602.906	0.0161361
602.984	0.0162774
603.062	0.0161626
603.140	0.0160345
603.218	0.0160838
603.296	0.0162915
603.374	0.0162603
603.453	0.0162897
603.531	0.0163535
603.609	0.0162002
603.687	0.0161909
603.765	0.0163387
603.843	0.0162463
603.921	0.0162466
603.999	0.0162240
604.078	0.0162314
604.156	0.0161215
604.234	0.0161810
604.312	0.0162837
604.390	0.0161462
604.468	0.0162823
604.546	0.0161629
604.624	0.0161121
604.703	0.0161855
604.781	0.0162122
604.859	0.0163554
604.937	0.0162276
605.015	0.0163189
605.093	0.0162331
605.171	0.0161272
605.249	0.0160561
605.328	0.0160648
605.406	0.0161398
605.484	0.0162130
605.562	0.0161877
605.640	0.0162712
605.718	0.0162299
605.796	0.0161303
605.874	0.0162163
605.953	0.0161890
606.031	0.0162149
606.109	0.0161663
606.187	0.0162468
606.265	0.0160857
606.343	0.0162629
606.421	0.0163136
606.499	0.0161926
606.578	0.0161998
606.656	0.0161658
606.734	0.0161274
606.812	0.0162991
606.890	0.0162517
606.968	0.0162781
607.046	0.0161935
607.124	0.0160545
607.203	0.0161761
607.281	0.0162920
607.359	0.0162251
607.437	0.0161629
607.515	0.0161507
607.593	0.0161338
607.671	0.0161420
607.749	0.0162267
607.828	0.0162304
607.906	0.0160760
607.984	0.0161584
608.062	0.0161488
608.140	0.0161585
608.218	0.0162006
608.296	0.0161861
608.374	0.0162196
608.453	0.0162849
608.531	0.0162926
608.609	0.0161547
608.687	0.0162547
608.765	0.0162415
608.843	0.0163342
608.921	0.0163299
608.999	0.0162840
609.078	0.0162590
609.156	0.0162646
609.234	0.0161517
609.312	0.0162852
609.390	0.0161900
609.468	0.0161187
609.546	0.0162541
609.624	0.0162196
609.703	0.0162379
609.781	0.0162662
609.859	0.0161846
609.937	0.0162688
610.015	0.0161428
610.093	0.0162278
610.171	0.0162022
610.249	0.0163112
610.328	0.0162273
610.406	0.0164180
610.484	0.0162707
610.562	0.0163100
610.640	0.0162981
610.718	0.0162163
610.796	0.0162378
610.874	0.0163052
610.953	0.0163569
611.031	0.0161644
611.109	0.0162452
611.187	0.0162090
611.265	0.0161790
611.343	0.0162736
611.421	0.0161390
611.499	0.0162923
611.578	0.0162945
611.656	0.0163133
611.734	0.0162650
611.812	0.0164249
611.890	0.0160899
611.968	0.0162889
612.046	0.0161905
612.124	0.0162656
612.203	0.0163375
612.281	0.0162893
612.359	0.0162234
612.437	0.0163289
612.515	0.0163094
612.593	0.0162873
612.671	0.0163290
612.749	0.0162511
612.828	0.0162009
612.906	0.0162569
612.984	0.0162292
613.062	0.0162977
613.140	0.0162683
613.218	0.0162630
613.296	0.0162600
613.374	0.0161292
613.453	0.0162289
613.531	0.0163737
613.609	0.0163023
613.687	0.0161356
613.765	0.0163757
613.843	0.0161675
613.921	0.0162655
613.999	0.0162032
614.078	0.0162582
614.156	0.0162070
614.234	0.0163269
614.312	0.0163240
614.390	0.0162567
614.468	0.0161118
614.546	0.0162579
614.624	0.0163477
614.703	0.0161908
614.781	0.0161980
614.859	0.0162475
614.937	0.0163005
615.015	0.0161314
615.093	0.0163091
615.171	0.0162625
615.249	0.0161570
615.328	0.0161615
615.406	0.0161942
615.484	0.0162512
615.562	0.0162202
615.640	0.0161869
615.718	0.0163290
615.796	0.0161113
615.874	0.0162586
615.953	0.0161600
616.031	0.0161899
616.109	0.0161460
616.187	0.0162481
616.265	0.0162493
616.343	0.0161079
616.421	0.0161906
616.499	0.0161333
616.578	0.0161317
616.656	0.0162581
616.734	0.0161499
616.812	0.0162396
616.890	0.0161674
616.968	0.0160896
617.046	0.0162493
617.124	0.0161533
617.203	0.0162031
617.281	0.0163055
617.359	0.0162215
617.437	0.0161865
617.515	0.0161925
617.593	0.0162014
617.671	0.0161507
617.749	0.0161522
617.828	0.0161566
617.906	0.0161980
617.984	0.0162164
618.062	0.0163328
618.140	0.0161358
618.218	0.0161694
618.296	0.0160865
618.374	0.0161730
618.453	0.0161306
618.531	0.0161621
618.609	0.0162077
618.687	0.0161179
618.765	0.0161003
618.843	0.0161485
618.921	0.0161498
618.999	0.0162186
619.078	0.0162543
619.156	0.0162067
619.234	0.0162925
619.312	0.0162994
619.390	0.0161885
619.468	0.0163406
619.546	0.0161640
619.624	0.0161541
619.703	0.0162625
619.781	0.0162070
619.859	0.0161838
619.937	0.0162458
620.015	0.0161899
620.093	0.0161172
620.171	0.0162020
620.249	0.0162215
620.328	0.0162613
620.406	0.0162054
620.484	0.0161502
620.562	0.0162367
620.640	0.0160500
620.718	0.0161907
620.796	0.0162676
620.874	0.0161665
620.953	0.0162129
621.031	0.0161834
621.109	0.0160805
621.187	0.0162617
621.265	0.0163644
621.343	0.0161330
621.421	0.0161039
621.499	0.0161124
621.578	0.0161475
621.656	0.0162310
621.734	0.0160884
621.812	0.0162379
621.890	0.0161156
621.968	0.0161383
622.046	0.0162833
622.124	0.0162836
622.203	0.0162457
622.281	0.0160920
622.359	0.0162855
622.437	0.0162074
622.515	0.0161903
622.593	0.0161647
622.671	0.0162702
622.749	0.0161498
622.828	0.0161308
622.906	0.0162158
622.984	0.0162284
623.062	0.0162569
623.140	0.0162295
623.218	0.0161676
623.296	0.0164053
623.374	0.0161509
623.453	0.0161317
623.531	0.0162859
623.609	0.0163725
623.687	0.0162141
623.765	0.0161347
623.843	0.0161233
623.921	0.0162099
623.999	0.0162323
624.078	0.0162338
624.156	0.0161051
624.234	0.0162936
624.312	0.0163016
624.390	0.0161019
624.468	0.0161742
624.546	0.0161527
624.624	0.0161991
624.703	0.0162646
624.781	0.0161317
624.859	0.0161489
624.937	0.0161368
625.015	0.0162148
625.093	0.0162067
625.171	0.0162851
625.249	0.0161770
625.328	0.0160935
625.406	0.0162351
625.484	0.0162059
625.562	0.0161608
625.640	0.0161995
625.718	0.0162395
625.796	0.0161619
625.874	0.0163377
625.953	0.0163206
626.031	0.0161945
626.109	0.0161700
626.187	0.0162556
626.265	0.0162786
626.343	0.0162489
626.421	0.0162446
626.499	0.0162994
626.578	0.0162439
626.656	0.0161648
626.734	0.0163311
626.812	0.0160531
626.890	0.0161209
626.968	0.0160540
627.046	0.0162218
627.124	0.0162182
627.203	0.0161523
627.281	0.0161674
627.359	0.0162222
627.437	0.0163184
627.515	0.0162656
627.593	0.0163081
627.671	0.0162838
627.749	0.0162126
627.828	0.0161615
627.906	0.0164304
627.984	0.0161649
628.062	0.0161468
628.140	0.0161565
628.218	0.0162531
628.296	0.0162433
628.374	0.0162699
628.453	0.0161917
628.531	0.0163109
628.609	0.0162840
628.687	0.0161521
628.765	0.0163146
628.843	0.0161585
628.921	0.0162749
628.999	0.0164335
629.078	0.0163110
629.156	0.0160059
629.234	0.0161882
629.312	0.0162780
629.390	0.0162182
629.468	0.0164030
629.546	0.0161932
629.624	0.0162730
629.703	0.0161726
629.781	0.0162766
629.859	0.0161487
629.937	0.0163699
630.015	0.0162212
630.093	0.0162717
630.171	0.0162346
630.249	0.0162885
630.328	0.0162431
630.406	0.0161637
630.484	0.0162591
630.562	0.0161774
630.640	0.0162009
630.718	0.0161940
630.796	0.0162184
630.874	0.0162467
630.953	0.0163741
631.031	0.0163259
631.109	0.0163256
631.187	0.0163367
631.265	0.0161697
631.343	0.0162563
631.421	0.0161653
631.499	0.0162352
631.578	0.0162821
631.656	0.0162691
631.734	0.0164517
631.812	0.0162430
631.890	0.0161303
631.968	0.0162200
632.046	0.0162120
632.124	0.0162666
632.203	0.0162263
632.281	0.0162940
632.359	0.0161681
632.437	0.0163759
632.515	0.0162834
632.593	0.0163449
632.671	0.0161974
632.749	0.0161465
632.828	0.0162287
632.906	0.0161861
632.984	0.0162635
633.062	0.0162688
633.140	0.0162513
633.218	0.0161040
633.296	0.0161652
633.374	0.0162975
633.453	0.0163345
633.531	0.0161706
633.609	0.0164011
633.687	0.0162509
633.765	0.0163344
633.843	0.0162656
633.921	0.0162453
633.999	0.0161811
634.078	0.0162499
634.156	0.0163198
634.234	0.0162354
634.312	0.0161591
634.390	0.0163106
634.468	0.0163144
634.546	0.0162236
634.624	0.0162506
634.703	0.0163695
634.781	0.0162345
634.859	0.0163129
634.937	0.0162388
635.015	0.0161470
635.093	0.0162730
635.171	0.0162535
635.249	0.0162407
635.328	0.0162526
635.406	0.0161848
635.484	0.0163184
635.562	0.0162978
635.640	0.0161924
635.718	0.0162633
635.796	0.0161353
635.874	0.0162320
635.953	0.0162778
636.031	0.0163958
636.109	0.0162615
636.187	0.0163203
636.265	0.0162077
636.343	0.0162991
636.421	0.0163905
636.499	0.0162733
636.578	0.0161563
636.656	0.0162246
636.734	0.0162759
636.812	0.0161561
636.890	0.0162527
636.968	0.0161783
637.046	0.0164201
637.124	0.0163017
637.203	0.0163467
637.281	0.0162841
637.359	0.0162453
637.437	0.0163493
637.515	0.0163274
637.593	0.0162245
637.671	0.0161937
637.749	0.0162141
637.828	0.0162360
637.906	0.0162405
637.984	0.0162149
638.062	0.0162144
638.140	0.0161269
638.218	0.0161670
638.296	0.0162036
638.374	0.0162287
638.453	0.0162637
638.531	0.0162632
638.609	0.0162214
638.687	0.0162222
638.765	0.0162241
638.843	0.0163377
638.921	0.0161667
638.999	0.0160861
639.078	0.0162500
639.156	0.0162592
639.234	0.0162624
639.312	0.0163564
639.390	0.0163223
639.468	0.0161776
639.546	0.0162492
639.624	0.0161621
639.703	0.0162315
639.781	0.0162868
639.859	0.0163135
639.937	0.0162122
640.015	0.0162028
640.093	0.0161421
640.171	0.0162120
640.249	0.0162111
640.328	0.0161457
640.406	0.0160302
640.484	0.0161609
640.562	0.0161393
640.640	0.0162546
640.718	0.0163271
640.796	0.0163174
640.874	0.0162364
640.953	0.0162184
641.031	0.0162373
641.109	0.0161463
641.187	0.0163394
641.265	0.0161698
641.343	0.0163127
641.421	0.0162435
641.499	0.0162466
641.578	0.0162074
641.656	0.0162006
641.734	0.0161584
641.812	0.0162605
641.890	0.0162798
641.968	0.0162674
642.046	0.0161459
642.124	0.0161951
642.203	0.0161891
642.281	0.0162275
642.359	0.0160654
642.437	0.0162629
642.515	0.0162870
642.593	0.0161525
642.671	0.0161071
642.749	0.0161697
642.828	0.0162934
642.906	0.0162006
642.984	0.0163784
643.062	0.0162749
643.140	0.0161559
643.218	0.0161807
643.296	0.0161279
643.374	0.0162155
643.453	0.0162412
643.531	0.0162263
643.609	0.0162437
643.687	0.0162204
643.765	0.0162111
643.843	0.0161421
643.921	0.0162090
643.999	0.0163625
644.078	0.0160842
644.156	0.0162354
644.234	0.0162122
644.312	0.0160854
644.390	0.0162090
644.468	0.0163175
644.546	0.0162621
644.624	0.0163563
644.703	0.0161613
644.781	0.0160730
644.859	0.0162139
644.937	0.0162296
645.015	0.0161771
645.093	0.0161919
645.171	0.0162311
645.249	0.0162415
645.328	0.0162887
645.406	0.0162843
645.484	0.0162365
645.562	0.0162667
645.640	0.0162743
645.718	0.0162964
645.796	0.0163025
645.874	0.0161871
645.953	0.0162168
646.031	0.0163187
646.109	0.0162299
646.187	0.0161491
646.265	0.0163054
646.343	0.0163918
646.421	0.0163841
646.499	0.0162414
646.578	0.0162488
646.656	0.0162743
646.734	0.0161322
646.812	0.0162012
646.890	0.0162960
646.968	0.0162476
647.046	0.0162496
647.124	0.0161935
647.203	0.0162452
647.281	0.0161608
647.359	0.0163276
647.437	0.0161200
647.515	0.0162376
647.593	0.0163214
647.671	0.0162144
647.749	0.0162392
647.828	0.0162909
647.906	0.0162037
647.984	0.0162238
648.062	0.0162660
648.140	0.0162080
648.218	0.0162388
648.296	0.0162304
648.374	0.0163196
648.453	0.0162455
648.531	0.0161797
648.609	0.0162532
648.687	0.0162656
648.765	0.0162462
648.843	0.0162964
648.921	0.0162959
648.999	0.0162734
649.078	0.0162933
649.156	0.0163455
649.234	0.0163148
649.312	0.0162128
649.390	0.0163029
649.468	0.0162962
649.546	0.0162960
649.624	0.0162670
649.703	0.0163605
649.781	0.0162417
649.859	0.0162319
649.937	0.0163136
650.015	0.0160959
650.093	0.0161987
650.171	0.0161375
650.249	0.0162160
650.328	0.0161992
650.406	0.0162440
650.484	0.0163238
650.562	0.0162813
650.640	0.0163293
650.718	0.0162508
650.796	0.0161815
650.874	0.0162374
650.953	0.0161732
651.031	0.0162054
651.109	0.0161712
651.187	0.0163834
651.265	0.0162363
651.343	0.0161835
651.421	0.0162321
651.499	0.0163139
651.578	0.0162791
651.656	0.0163339
651.734	0.0162199
651.812	0.0161495
651.890	0.0162325
651.968	0.0163381
652.046	0.0164468
652.124	0.0161701
652.203	0.0161107
652.281	0.0162256
652.359	0.0163347
652.437	0.0162724
652.515	0.0161889
652.593	0.0161018
652.671	0.0162379
652.749	0.0162283
652.828	0.0161298
652.906	0.0163087
652.984	0.0161954
653.062	0.0161430
653.140	0.0161632
653.218	0.0161757
653.296	0.0162841
653.374	0.0162836
653.453	0.0162737
653.531	0.0163288
653.609	0.0162308
653.687	0.0162754
653.765	0.0162043
653.843	0.0161711
653.921	0.0162656
653.999	0.0162652
654.078	0.0161352
654.156	0.0161705
654.234	0.0161684
654.312	0.0164205
654.390	0.0161755
654.468	0.0162273
654.546	0.0162194
654.624	0.0161320
654.703	0.0160607
654.781	0.0160984
654.859	0.0161682
654.937	0.0161366
655.015	0.0162165
655.093	0.0161671
655.171	0.0163784
655.249	0.0161943
655.328	0.0161794
655.406	0.0160826
655.484	0.0161047
655.562	0.0161751
655.640	0.0161975
655.718	0.0161595
655.796	0.0162357
655.874	0.0161408
655.953	0.0161740
656.031	0.0162897
656.109	0.0162997
656.187	0.0162099
656.265	0.0161790
656.343	0.0161237
656.421	0.0161866
656.499	0.0162885
656.578	0.0162547
656.656	0.0162186
656.734	0.0161265
656.812	0.0162289
656.890	0.0161415
656.968	0.0161286
657.046	0.0162953
657.124	0.0161801
657.203	0.0161952
657.281	0.0161607
657.359	0.0160707
657.437	0.0161609
657.515	0.0161591
657.593	0.0161433
657.671	0.0162640
657.749	0.0162672
657.828	0.0161745
657.906	0.0161468
657.984	0.0160868
658.062	0.0161860
658.140	0.0161917
658.218	0.0162073
658.296	0.0162267
658.374	0.0161713
658.453	0.0162074
658.531	0.0160902
658.609	0.0160494
658.687	0.0161312
658.765	0.0161643
658.843	0.0160935
658.921	0.0161283
658.999	0.0161651
659.078	0.0160825
659.156	0.0163065
659.234	0.0161680
659.312	0.0160808
659.390	0.0161818
659.468	0.0161163
659.546	0.0162630
659.624	0.0161467
659.703	0.0162399
659.781	0.0161047
659.859	0.0161705
659.937	0.0162019
660.015	0.0162811
660.093	0.0161749
660.171	0.0161543
660.249	0.0161979
660.328	0.0161485
660.406	0.0161867
660.484	0.0161838
660.562	0.0163479
660.640	0.0162897
660.718	0.0161607
660.796	0.0162088
660.874	0.0161785
660.953	0.0163593
661.031	0.0161642
661.109	0.0161827
661.187	0.0162254
661.265	0.0162727
661.343	0.0163021
661.421	0.0162573
661.499	0.0162121
661.578	0.0161217
661.656	0.0162634
661.734	0.0162551
661.812	0.0160925
661.890	0.0162731
661.968	0.0162820
662.046	0.0163422
662.124	0.0162045
662.203	0.0161086
662.281	0.0160775
662.359	0.0162678
662.437	0.0162581
662.515	0.0162109
662.593	0.0160603
662.671	0.0163284
662.749	0.0161630
662.828	0.0161798
662.906	0.0161969
662.984	0.0161939
663.062	0.0162843
663.140	0.0160712
663.218	0.0161189
663.296	0.0159398
663.374	0.0161288
663.453	0.0160824
663.531	0.0161649
663.609	0.0160780
663.687	0.0161172
663.765	0.0162247
663.843	0.0162617
663.921	0.0162233
663.999	0.0160706
664.078	0.0163389
664.156	0.0161244
664.234	0.0161584
664.312	0.0161014
664.390	0.0161803
664.468	0.0162556
664.546	0.0161951
664.624	0.0162093
664.703	0.0162084
664.781	0.0162016
664.859	0.0161420
664.937	0.0163308
665.015	0.0161708
665.093	0.0161788
665.171	0.0162749
665.249	0.0162981
665.328	0.0162895
665.406	0.0162742
665.484	0.0161552
665.562	0.0160962
665.640	0.0161439
665.718	0.0162136
665.796	0.0163135
665.874	0.0162434
665.953	0.0162054
666.031	0.0160909
666.109	0.0162865
666.187	0.0161687
666.265	0.0161105
666.343	0.0162782
666.421	0.0162370
666.499	0.0162524
666.578	0.0163660
666.656	0.0162095
666.734	0.0161361
666.812	0.0161396
666.890	0.0162316
666.968	0.0162151
667.046	0.0162761
667.124	0.0162177
667.203	0.0162455
667.281	0.0161004
667.359	0.0162010
667.437	0.0163075
667.515	0.0162127
667.593	0.0162288
667.671	0.0162821
667.749	0.0161832
667.828	0.0161713
667.906	0.0162852
667.984	0.0163342
668.062	0.0161777
668.140	0.0161499
668.218	0.0160825
668.296	0.0162350
668.374	0.0163174
668.453	0.0162305
668.531	0.0161412
668.609	0.0161279
668.687	0.0162650
668.765	0.0161358
668.843	0.0160612
668.921	0.0162759
668.999	0.0162310
669.078	0.0161711
669.156	0.0162571
669.234	0.0162057
669.312	0.0162263
669.390	0.0163171
669.468	0.0163557
669.546	0.0161902
669.624	0.0162762
669.703	0.0161052
669.781	0.0163314
669.859	0.0163689
669.937	0.0163306
670.015	0.0163763
670.093	0.0162947
670.171	0.0162423
670.249	0.0163333
670.328	0.0162431
670.406	0.0162972
670.484	0.0163003
670.562	0.0163815
670.640	0.0162283
670.718	0.0161311
670.796	0.0162521
670.874	0.0161311
670.953	0.0162552
671.031	0.0161467
671.109	0.0160799
671.187	0.0161530
671.265	0.0162422
671.343	0.0161555
671.421	0.0162427
671.499	0.0162691
671.578	0.0161896
671.656	0.0161786
671.734	0.0162547
671.812	0.0162508
671.890	0.0162887
671.968	0.0161315
672.046	0.0163348
672.124	0.0163096
672.203	0.0162423
672.281	0.0162298
672.359	0.0162720
672.437	0.0161993
672.515	0.0163424
672.593	0.0162044
672.671	0.0161989
672.749	0.0163888
672.828	0.0162202
672.906	0.0162454
672.984	0.0164663
673.062	0.0163882
673.140	0.0162534
673.218	0.0163390
673.296	0.0163828
673.374	0.0161931
673.453	0.0163319
673.531	0.0162808
673.609	0.0162319
673.687	0.0162315
673.765	0.0161739
673.843	0.0161661
673.921	0.0162589
673.999	0.0162300
674.078	0.0161703
674.156	0.0161519
674.234	0.0161824
674.312	0.0162572
674.390	0.0161066
674.468	0.0161710
674.546	0.0161650
674.624	0.0162330
674.703	0.0162405
674.781	0.0162089
674.859	0.0162655
674.937	0.0162031
675.015	0.0161234
675.093	0.0161126
675.171	0.0160852
675.249	0.0162107
675.328	0.0161470
675.406	0.0161716
675.484	0.0161440
675.562	0.0160879
675.640	0.0161245
675.718	0.0161662
675.796	0.0161841
675.874	0.0161427
675.953	0.0161463
676.031	0.0161897
676.109	0.0163843
676.187	0.0162910
676.265	0.0161434
676.343	0.0161135
676.421	0.0161049
676.499	0.0160893
676.578	0.0161031
676.656	0.0161060
676.734	0.0160851
676.812	0.0162079
676.890	0.0161295
676.968	0.0161389
677.046	0.0161973
677.124	0.0161755
677.203	0.0161305
677.281	0.0162129
677.359	0.0163106
677.437	0.0162434
677.515	0.0162397
677.593	0.0162624
677.671	0.0161967
677.749	0.0162164
677.828	0.0162339
677.906	0.0162992
677.984	0.0163787
678.062	0.0161221
678.140	0.0163797
678.218	0.0161716
678.296	0.0162848
678.374	0.0163004
678.453	0.0161693
678.531	0.0162634
678.609	0.0160846
678.687	0.0162878
678.765	0.0161147
678.843	0.0161462
678.921	0.0161879
678.999	0.0161844
679.078	0.0162147
679.156	0.0160963
679.234	0.0161956
679.312	0.0163156
679.390	0.0162788
679.468	0.0161982
679.546	0.0161627
679.624	0.0161694
679.703	0.0161346
679.781	0.0163025
679.859	0.0160666
679.937	0.0162582
680.015	0.0163311
680.093	0.0161830
680.171	0.0162531
680.249	0.0162587
680.328	0.0160720
680.406	0.0162364
680.484	0.0160806
680.562	0.0162142
680.640	0.0162867
680.718	0.0161699
680.796	0.0162205
680.874	0.0162509
680.953	0.0162518
681.031	0.0162277
681.109	0.0161526
681.187	0.0161580
681.265	0.0163021
681.343	0.0161789
681.421	0.0162913
681.499	0.0163062
681.578	0.0161562
681.656	0.0163284
681.734	0.0162570
681.812	0.0161813
681.890	0.0161965
681.968	0.0162572
682.046	0.0161738
682.124	0.0161834
682.203	0.0161945
682.281	0.0160785
682.359	0.0161874
682.437	0.0162446
682.515	0.0162149
682.593	0.0162056
682.671	0.0160902
682.749	0.0162975
682.828	0.0161629
682.906	0.0161533
682.984	0.0161691
683.062	0.0161932
683.140	0.0162288
683.218	0.0162253
683.296	0.0162077
683.374	0.0161671
683.453	0.0162498
683.531	0.0161813
683.609	0.0161613
683.687	0.0162456
683.765	0.0162656
683.843	0.0162031
683.921	0.0162045
683.999	0.0163046
684.078	0.0161594
684.156	0.0161866
684.234	0.0161533
684.312	0.0162018
684.390	0.0160919
684.468	0.0163611
684.546	0.0162545
684.624	0.0161950
684.703	0.0162234
684.781	0.0162682
684.859	0.0162246
684.937	0.0161623
685.015	0.0162042
685.093	0.0161723
685.171	0.0162111
685.249	0.0163178
685.328	0.0162579
685.406	0.0162319
685.484	0.0162241
685.562	0.0162565
685.640	0.0162913
685.718	0.0163890
685.796	0.0162119
685.874	0.0162878
685.953	0.0164534
686.031	0.0163562
686.109	0.0163003
686.187	0.0162070
686.265	0.0163434
686.343	0.0162701
686.421	0.0162220
686.499	0.0162854
686.578	0.0162323
686.656	0.0162566
686.734	0.0163573
686.812	0.0161198
686.890	0.0163457
686.968	0.0163218
687.046	0.0162230
687.124	0.0162169
687.203	0.0163094
687.281	0.0161926
687.359	0.0163517
687.437	0.0162924
687.515	0.0163020
687.593	0.0163761
687.671	0.0163049
687.749	0.0163271
687.828	0.0162102
687.906	0.0162905
687.984	0.0163362
688.062	0.0163217
688.140	0.0164513
688.218	0.0162205
688.296	0.0161225
688.374	0.0161642
688.453	0.0162306
688.531	0.0162847
688.609	0.0162827
688.687	0.0163451
688.765	0.0162573
688.843	0.0162865
688.921	0.0162291
688.999	0.0163316
689.078	0.0163330
689.156	0.0162624
689.234	0.0161488
689.312	0.0162791
689.390	0.0163252
689.468	0.0162422
689.546	0.0162701
689.624	0.0162537
689.703	0.0162240
689.781	0.0162096
689.859	0.0162754
689.937	0.0163104
690.015	0.0162850
690.093	0.0162354
690.171	0.0163360
690.249	0.0161900
690.328	0.0163032
690.406	0.0162978
690.484	0.0163282
690.562	0.0163268
690.640	0.0161374
690.718	0.0162006
690.796	0.0163263
690.874	0.0162069
690.953	0.0162962
691.031	0.0162996
691.109	0.0163529
691.187	0.0161176
691.265	0.0161328
691.343	0.0161971
691.421	0.0162571
691.499	0.0162405
691.578	0.0162718
691.656	0.0162012
691.734	0.0162285
691.812	0.0163831
691.890	0.0162752
691.968	0.0162792
692.046	0.0162187
692.124	0.0161469
692.203	0.0162413
692.281	0.0163704
692.359	0.0162307
692.437	0.0162164
692.515	0.0162735
692.593	0.0163137
692.671	0.0160562
692.749	0.0162730
692.828	0.0163383
692.906	0.0161837
692.984	0.0161704
693.062	0.0162106
693.140	0.0161964
693.218	0.0162057
693.296	0.0160607
693.374	0.0163132
693.453	0.0163297
693.531	0.0161680
693.609	0.0161578
693.687	0.0163815
693.765	0.0162674
693.843	0.0162515
693.921	0.0162340
693.999	0.0163123
694.078	0.0162746
694.156	0.0162812
694.234	0.0161031
694.312	0.0161549
694.390	0.0160750
694.468	0.0162441
694.546	0.0163008
694.624	0.0162521
694.703	0.0162749
694.781	0.0161673
694.859	0.0161659
694.937	0.0162529
695.015	0.0161189
695.093	0.0162973
695.171	0.0162703
695.249	0.0161684
695.328	0.0162215
695.406	0.0161143
695.484	0.0160191
695.562	0.0161707
695.640	0.0162276
695.718	0.0161398
695.796	0.0162109
695.874	0.0159573
695.953	0.0162628
696.031	0.0161739
696.109	0.0161165
696.187	0.0160918
696.265	0.0161426
696.343	0.0161160
696.421	0.0162141
696.499	0.0161506
696.578	0.0161450
696.656	0.0161568
696.734	0.0161327
696.812	0.0161199
696.890	0.0162823
696.968	0.0161842
697.046	0.0161690
697.124	0.0161263
697.203	0.0160864
697.281	0.0162775
697.359	0.0161956
697.437	0.0161643
697.515	0.0162565
697.593	0.0162293
697.671	0.0161987
697.749	0.0161660
697.828	0.0162238
697.906	0.0163105
697.984	0.0163287
698.062	0.0160183
698.140	0.0162238
698.218	0.0163463
698.296	0.0161411
698.374	0.0161823
698.453	0.0162755
698.531	0.0162704
698.609	0.0162222
698.687	0.0162677
698.765	0.0162505
698.843	0.0162965
698.921	0.0162353
698.999	0.0162210
699.078	0.0161487
699.156	0.0160809
699.234	0.0160794
699.312	0.0162212
699.390	0.0161275
699.468	0.0162345
699.546	0.0161105
699.624	0.0162711
699.703	0.0163124
699.781	0.0161330
699.859	0.0162807
699.937	0.0161818
700.015	0.0162045
700.093	0.0162612
700.171	0.0162578
700.249	0.0162926
700.328	0.0162601
700.406	0.0163168
700.484	0.0161449
700.562	0.0162265
700.640	0.0162148
700.718	0.0161578
700.796	0.0161335
700.874	0.0161769
700.953	0.0161360
701.031	0.0163007
701.109	0.0163056
701.187	0.0162143
701.265	0.0163168
701.343	0.0162559
701.421	0.0163364
701.499	0.0163141
701.578	0.0163766
701.656	0.0162822
701.734	0.0162097
701.812	0.0161020
701.890	0.0161710
701.968	0.0161095
702.046	0.0161531
702.124	0.0162776
702.203	0.0160960
702.281	0.0162236
702.359	0.0163080
702.437	0.0162740
702.515	0.0162707
702.593	0.0162062
702.671	0.0163930
702.749	0.0161917
702.828	0.0163290
702.906	0.0164040
702.984	0.0162576
703.062	0.0162022
703.140	0.0162169
703.218	0.0163832
703.296	0.0163660
703.374	0.0163786
703.453	0.0164442
703.531	0.0163116
703.609	0.0164603
703.687	0.0162685
703.765	0.0163525
703.843	0.0164005
703.921	0.0163619
703.999	0.0162460
704.078	0.0163262
704.156	0.0163103
704.234	0.0163470
704.312	0.0163219
704.390	0.0164291
704.468	0.0161380
704.546	0.0163567
704.624	0.0163226
704.703	0.0164046
704.781	0.0161836
704.859	0.0162116
704.937	0.0162853
705.015	0.0162606
705.093	0.0162759
705.171	0.0164356
705.249	0.0161210
705.328	0.0162646
705.406	0.0162819
705.484	0.0165421
705.562	0.0164366
705.640	0.0163705
705.718	0.0163763
705.796	0.0163352
705.874	0.0164257
705.953	0.0163575
706.031	0.0162652
706.109	0.0163856
706.187	0.0162029
706.265	0.0163607
706.343	0.0162785
706.421	0.0163819
706.499	0.0163126
706.578	0.0162627
706.656	0.0162981
706.734	0.0161806
706.812	0.0162534
706.890	0.0162717
706.968	0.0161192
707.046	0.0163065
707.124	0.0162846
707.203	0.0162691
707.281	0.0162380
707.359	0.0161866
707.437	0.0162567
707.515	0.0162417
707.593	0.0163155
707.671	0.0162112
707.749	0.0163457
707.828	0.0163275
707.906	0.0163431
707.984	0.0163676
708.062	0.0162470
708.140	0.0162664
708.218	0.0164018
708.296	0.0162735
708.374	0.0164296
708.453	0.0164202
708.531	0.0163122
708.609	0.0163407
708.687	0.0163718
708.765	0.0164368
708.843	0.0163214
708.921	0.0162802
708.999	0.0163474
709.078	0.0161871
709.156	0.0163191
709.234	0.0163572
709.312	0.0162312
709.390	0.0163169
709.468	0.0162975
709.546	0.0163368
709.624	0.0161170
709.703	0.0162170
709.781	0.0161587
709.859	0.0161706
709.937	0.0162209
710.015	0.0162627
710.093	0.0161893
710.171	0.0161353
710.249	0.0162042
710.328	0.0161221
710.406	0.0160188
710.484	0.0160875
710.562	0.0160352
710.640	0.0160133
710.718	0.0160824
710.796	0.0160696
710.874	0.0160409
710.953	0.0160167
711.031	0.0161449
711.109	0.0160627
711.187	0.0160413
711.265	0.0160593
711.343	0.0162065
711.421	0.0161351
711.499	0.0163562
711.578	0.0161571
711.656	0.0162025
711.734	0.0161960
711.812	0.0162833
711.890	0.0161631
711.968	0.0162877
712.046	0.0163017
712.124	0.0163054
712.203	0.0163766
712.281	0.0163783
712.359	0.0163578
712.437	0.0163830
712.515	0.0163576
712.593	0.0164339
712.671	0.0164254
712.749	0.0165437
712.828	0.0167291
712.906	0.0165327
712.984	0.0166394
713.062	0.0166615
713.140	0.0166141
713.218	0.0165530
713.296	0.0165691
713.374	0.0164638
713.453	0.0164561
713.531	0.0162617
713.609	0.0162969
713.687	0.0160801
713.765	0.0160115
713.843	0.0159050
713.921	0.0159068
713.999	0.0158643
714.078	0.0157562
714.156	0.0158891
714.234	0.0157978
714.312	0.0158488
714.390	0.0156935
714.468	0.0157445
714.546	0.0158678
714.624	0.0158172
714.703	0.0158984
714.781	0.0158797
714.859	0.0158525
714.937	0.0159593
715.015	0.0163045
715.093	0.0162144
715.171	0.0163557
715.249	0.0163167
715.328	0.0163699
715.406	0.0164822
715.484	0.0165047
715.562	0.0166563
715.640	0.0166015
715.718	0.0165909
715.796	0.0167175
715.874	0.0166160
715.953	0.0166523
716.031	0.0165733
716.109	0.0164707
716.187	0.0165083
716.265	0.0163160
716.343	0.0165720
716.421	0.0162170
716.499	0.0161516
716.578	0.0162426
716.656	0.0162632
716.734	0.0160136
716.812	0.0160190
716.890	0.0160846
716.968	0.0159933
717.046	0.0159884
717.124	0.0160058
717.203	0.0159692
717.281	0.0161479
717.359	0.0160566
717.437	0.0159451
717.515	0.0159237
717.593	0.0159675
717.671	0.0161640
717.749	0.0159270
717.828	0.0159719
717.906	0.0161178
717.984	0.0159016
718.062	0.0159141
718.140	0.0159767
718.218	0.0159501
718.296	0.0159409
718.374	0.0159557
718.453	0.0158588
718.531	0.0158165
718.609	0.0158526
718.687	0.0159373
718.765	0.0159083
718.843	0.0158396
718.921	0.0160151
718.999	0.0160972
719.078	0.0160947
719.156	0.0161069
719.234	0.0162926
719.312	0.0161939
719.390	0.0164163
719.468	0.0163680
719.546	0.0166010
719.624	0.0165357
719.703	0.0164889
719.781	0.0166123
719.859	0.0166743
719.937	0.0166550
720.015	0.0167667
720.093	0.0167286
720.171	0.0168160
720.249	0.0167123
720.328	0.0165907
720.406	0.0164535
720.484	0.0164126
720.562	0.0164066
720.640	0.0163023
720.718	0.0162663
720.796	0.0161385
720.874	0.0159453
720.953	0.0161473
721.031	0.0159906
721.109	0.0158459
721.187	0.0157862
721.265	0.0158112
721.343	0.0156929
721.421	0.0157925
721.499	0.0158614
721.578	0.0159323
721.656	0.0160114
721.734	0.0159826
721.812	0.0159695
721.890	0.0158898
721.968	0.0158543
722.046	0.0160658
722.124	0.0161260
722.203	0.0161771
722.281	0.0162407
722.359	0.0162110
722.437	0.0161986
722.515	0.0162290
722.593	0.0162135
722.671	0.0163465
722.749	0.0163000
722.828	0.0162659
722.906	0.0161612
722.984	0.0162341
723.062	0.0162632
723.140	0.0161940
723.218	0.0164925
723.296	0.0162837
723.374	0.0164597
723.453	0.0164422
723.531	0.0163526
723.609	0.0162964
723.687	0.0163483
723.765	0.0164538
723.843	0.0163858
723.921	0.0164458
723.999	0.0164163
724.078	0.0163783
724.156	0.0163210
724.234	0.0162773
724.312	0.0163856
724.390	0.0162434
724.468	0.0162838
724.546	0.0162579
724.624	0.0161884
724.703	0.0162417
724.781	0.0163076
724.859	0.0161307
724.937	0.0161747
725.015	0.0162886
725.093	0.0161542
725.171	0.0163342
725.249	0.0163863
725.328	0.0164364
725.406	0.0161975
725.484	0.0161681
725.562	0.0162463
725.640	0.0162802
725.718	0.0162874
725.796	0.0162688
725.874	0.0163676
725.953	0.0162309
726.031	0.0162163
726.109	0.0161468
726.187	0.0162070
726.265	0.0161354
726.343	0.0160950
726.421	0.0161716
726.499	0.0160310
726.578	0.0160967
726.656	0.0161433
726.734	0.0161796
726.812	0.0160365
726.890	0.0161942
726.968	0.0162437
727.046	0.0163220
727.124	0.0162585
727.203	0.0162829
727.281	0.0163452
727.359	0.0162785
727.437	0.0163950
727.515	0.0162744
727.593	0.0165279
727.671	0.0164228
727.749	0.0164468
727.828	0.0163175
727.906	0.0162511
727.984	0.0162469
728.062	0.0162390
728.140	0.0162646
728.218	0.0162712
728.296	0.0161058
728.374	0.0161783
728.453	0.0159506
728.531	0.0161156
728.609	0.0159645
728.687	0.0161512
728.765	0.0160413
728.843	0.0160427
728.921	0.0161059
728.999	0.0160886
729.078	0.0159766
729.156	0.0160141
729.234	0.0160638
729.312	0.0161225
729.390	0.0160900
729.468	0.0159683
729.546	0.0160150
729.624	0.0159868
729.703	0.0160284
729.781	0.0160574
729.859	0.0160976
729.937	0.0161092
730.015	0.0161865
730.093	0.0162227
730.171	0.0162431
730.249	0.0162430
730.328	0.0164193
730.406	0.0166759
730.484	0.0166254
730.562	0.0167085
730.640	0.0166562
730.718	0.0166906
730.796	0.0167169
730.874	0.0167734
730.953	0.0167799
731.031	0.0167487
731.109	0.0165092
731.187	0.0165118
731.265	0.0163660
731.343	0.0160862
731.421	0.0160110
731.499	0.0160854
731.578	0.0158993
731.656	0.0157296
731.734	0.0156812
731.812	0.0156889
731.890	0.0158547
731.968	0.0155641
732.046	0.0157198
732.124	0.0156251
732.203	0.0158661
732.281	0.0159630
732.359	0.0159935
732.437	0.0159593
732.515	0.0162132
732.593	0.0161942
732.671	0.0162606
732.749	0.0163654
732.828	0.0164640
732.906	0.0165000
732.984	0.0165615
733.062	0.0165826
733.140	0.0166015
733.218	0.0164992
733.296	0.0164766
733.374	0.0164906
733.453	0.0164283
733.531	0.0162900
733.609	0.0162578
733.687	0.0163188
733.765	0.0161791
733.843	0.0160346
733.921	0.0160783
733.999	0.0160577
734.078	0.0159478
734.156	0.0160470
734.234	0.0159312
734.312	0.0160036
734.390	0.0159928
734.468	0.0160683
734.546	0.0160043
734.624	0.0160386
734.703	0.0162305
734.781	0.0162209
734.859	0.0162051
734.937	0.0162779
735.015	0.0163684
735.093	0.0164099
735.171	0.0164700
735.249	0.0165365
735.328	0.0164059
735.406	0.0165443
735.484	0.0164681
735.562	0.0164848
735.640	0.0165146
735.718	0.0164038
735.796	0.0164079
735.874	0.0163519
735.953	0.0161539
736.031	0.0162878
736.109	0.0162140
736.187	0.0160962
736.265	0.0161282
736.343	0.0160232
736.421	0.0159443
736.499	0.0159258
736.578	0.0160870
736.656	0.0160012
736.734	0.0161429
736.812	0.0162425
736.890	0.0161216
736.968	0.0159904
737.046	0.0160523
737.124	0.0162072
737.203	0.0161575
737.281	0.0161729
737.359	0.0161691
737.437	0.0161812
737.515	0.0163254
737.593	0.0161884
737.671	0.0162604
737.749	0.0162577
737.828	0.0163576
737.906	0.0162064
737.984	0.0162357
738.062	0.0161625
738.140	0.0161763
738.218	0.0160797
738.296	0.0162096
738.374	0.0162119
738.453	0.0161771
738.531	0.0162254
738.609	0.0161236
738.687	0.0162396
738.765	0.0162402
738.843	0.0161594
738.921	0.0162872
738.999	0.0162670
739.078	0.0163072
739.156	0.0160694
739.234	0.0159966
739.312	0.0162610
739.390	0.0163403
739.468	0.0161795
739.546	0.0161364
739.624	0.0161110
739.703	0.0161459
739.781	0.0161371
739.859	0.0160017
739.937	0.0161292
740.015	0.0161807
740.093	0.0160716
740.171	0.0161949
740.249	0.0161868
740.328	0.0161566
740.406	0.0161693
740.484	0.0161903
740.562	0.0162698
740.640	0.0161783
740.718	0.0161481
740.796	0.0162152
740.874	0.0162083
740.953	0.0162658
741.031	0.0162398
741.109	0.0162714
741.187	0.0162697
741.265	0.0162511
741.343	0.0162738
741.421	0.0163732
741.499	0.0162168
741.578	0.0162527
741.656	0.0162432
741.734	0.0161834
741.812	0.0163046
741.890	0.0161679
741.968	0.0162982
742.046	0.0162352
742.124	0.0162025
742.203	0.0161331
742.281	0.0162361
742.359	0.0160336
742.437	0.0161224
742.515	0.0161155
742.593	0.0162154
742.671	0.0161681
742.749	0.0161108
742.828	0.0162482
742.906	0.0164079
742.984	0.0162426
743.062	0.0162283
743.140	0.0162363
743.218	0.0163190
743.296	0.0161326
743.374	0.0163221
743.453	0.0162590
743.531	0.0161385
743.609	0.0162267
743.687	0.0160704
743.765	0.0161496
743.843	0.0160223
743.921	0.0160671
743.999	0.0161633
744.078	0.0159220
744.156	0.0160391
744.234	0.0159902
744.312	0.0159701
744.390	0.0160733
744.468	0.0160785
744.546	0.0162080
744.624	0.0162441
744.703	0.0161996
744.781	0.0162974
744.859	0.0163811
744.937	0.0162068
745.015	0.0162231
745.093	0.0163901
745.171	0.0163956
745.249	0.0162611
745.328	0.0163126
745.406	0.0164442
745.484	0.0163759
745.562	0.0163561
745.640	0.0163626
745.718	0.0163123
745.796	0.0163028
745.874	0.0162555
745.953	0.0163804
746.031	0.0163342
746.109	0.0163512
746.187	0.0162627
746.265	0.0161688
746.343	0.0162399
746.421	0.0162058
746.499	0.0161536
746.578	0.0161948
746.656	0.0162576
746.734	0.0162483
746.812	0.0162786
746.890	0.0161577
746.968	0.0162291
747.046	0.0161310
747.124	0.0161436
747.203	0.0161245
747.281	0.0161369
747.359	0.0161222
747.437	0.0161673
747.515	0.0160212
747.593	0.0161004
747.671	0.0160604
747.749	0.0160924
747.828	0.0160555
747.906	0.0160484
747.984	0.0161424
748.062	0.0160863
748.140	0.0160165
748.218	0.0161040
748.296	0.0161806
748.374	0.0161688
748.453	0.0161799
748.531	0.0161917
748.609	0.0161150
748.687	0.0162352
748.765	0.0162801
748.843	0.0162499
748.921	0.0161459
748.999	0.0162292
749.078	0.0161311
749.156	0.0162617
749.234	0.0162136
749.312	0.0161668
749.390	0.0163368
749.468	0.0161919
749.546	0.0161691
749.624	0.0163328
749.703	0.0162003
749.781	0.0162079
749.859	0.0164463
749.937	0.0163898
750.015	0.0162182
750.093	0.0162946
750.171	0.0163341
750.249	0.0163675
750.328	0.0162273
750.406	0.0161195
750.484	0.0161392
750.562	0.0161692
750.640	0.0161695
750.718	0.0162373
750.796	0.0161944
750.874	0.0160461
750.953	0.0161668
751.031	0.0162121
751.109	0.0161900
751.187	0.0161956
751.265	0.0160788
751.343	0.0162475
751.421	0.0161968
751.499	0.0161555
751.578	0.0161761
751.656	0.0160777
751.734	0.0160889
751.812	0.0160800
751.890	0.0160580
751.968	0.0160845
752.046	0.0161037
752.124	0.0161510
752.203	0.0160155
752.281	0.0160847
752.359	0.0159956
752.437	0.0159179
752.515	0.0160714
752.593	0.0160850
752.671	0.0161870
752.749	0.0160795
752.828	0.0159557
752.906	0.0161140
752.984	0.0161453
753.062	0.0161438
753.140	0.0161268
753.218	0.0164089
753.296	0.0162559
753.374	0.0162988
753.453	0.0164545
753.531	0.0163100
753.609	0.0164853
753.687	0.0164015
753.765	0.0163647
753.843	0.0163807
753.921	0.0162984
753.999	0.0164519
754.078	0.0163570
754.156	0.0163062
754.234	0.0163071
754.312	0.0163988
754.390	0.0162863
754.468	0.0161629
754.546	0.0162310
754.624	0.0160942
754.703	0.0161548
754.781	0.0162193
754.859	0.0160770
754.937	0.0160441
755.015	0.0161352
755.093	0.0159951
755.171	0.0159939
755.249	0.0161682
755.328	0.0160330
755.406	0.0161145
755.484	0.0161339
755.562	0.0161971
755.640	0.0161348
755.718	0.0160731
755.796	0.0162059
755.874	0.0159713
755.953	0.0161472
756.031	0.0161095
756.109	0.0159673
756.187	0.0161553
756.265	0.0160018
756.343	0.0159789
756.421	0.0160609
756.499	0.0161594
756.578	0.0159690
756.656	0.0161104
756.734	0.0161542
756.812	0.0161353
756.890	0.0162379
756.968	0.0162309
757.046	0.0161767
757.124	0.0162674
757.203	0.0164373
757.281	0.0164456
757.359	0.0165187
757.437	0.0164115
757.515	0.0165942
757.593	0.0163416
757.671	0.0164240
757.749	0.0164483
757.828	0.0163376
757.906	0.0163979
757.984	0.0162476
758.062	0.0162452
758.140	0.0161379
758.218	0.0161469
758.296	0.0160240
758.374	0.0160898
758.453	0.0159704
758.531	0.0159906
758.609	0.0160692
758.687	0.0157584
758.765	0.0157263
758.843	0.0158769
758.921	0.0157095
758.999	0.0157234
759.078	0.0159608
759.156	0.0161175
759.234	0.0159014
759.312	0.0157209
759.390	0.0159753
759.468	0.0161559
759.546	0.0159742
759.624	0.0161281
759.703	0.0162469
759.781	0.0162492
759.859	0.0163058
759.937	0.0164075
760.015	0.0164725
760.093	0.0163339
760.171	0.0164327
760.249	0.0164223
760.328	0.0163302
760.406	0.0163895
760.484	0.0164909
760.562	0.0163503
760.640	0.0164762
760.718	0.0164108
760.796	0.0162859
760.874	0.0162708
760.953	0.0162881
761.031	0.0162269
761.109	0.0162454
761.187	0.0163041
761.265	0.0161672
761.343	0.0161497
761.421	0.0161032
761.499	0.0161033
761.578	0.0161175
761.656	0.0159639
761.734	0.0159776
761.812	0.0159253
761.890	0.0158839
761.968	0.0159905
762.046	0.0161282
762.124	0.0160280
762.203	0.0161462
762.281	0.0161458
762.359	0.0162064
762.437	0.0162861
762.515	0.0164554
762.593	0.0166044
762.671	0.0166118
762.749	0.0166278
762.828	0.0168052
762.906	0.0167452
762.984	0.0166599
763.062	0.0167913
763.140	0.0167616
763.218	0.0166629
763.296	0.0165062
763.374	0.0163930
763.453	0.0164185
763.531	0.0164249
763.609	0.0162592
763.687	0.0162762
763.765	0.0161881
763.843	0.0162066
763.921	0.0160863
763.999	0.0159653
764.078	0.0160130
764.156	0.0158592
764.234	0.0158606
764.312	0.0156948
764.390	0.0157812
764.468	0.0159700
764.546	0.0158114
764.624	0.0157568
764.703	0.0158017
764.781	0.0159492
764.859	0.0160806
764.937	0.0161157
765.015	0.0162238
765.093	0.0162481
765.171	0.0163404
765.249	0.0163462
765.328	0.0163737
765.406	0.0165946
765.484	0.0166338
765.562	0.0167567
765.640	0.0167230
765.718	0.0169012
765.796	0.0169830
765.874	0.0168606
765.953	0.0169495
766.031	0.0169721
766.109	0.0169345
766.187	0.0169758
766.265	0.0171131
766.343	0.0168456
766.421	0.0167234
766.499	0.0166880
766.578	0.0165623
766.656	0.0163821
766.734	0.0162682
766.812	0.0162614
766.890	0.0159399
766.968	0.0157584
767.046	0.0158617
767.124	0.0158673
767.203	0.0158199
767.281	0.0157571
767.359	0.0157385
767.437	0.0157352
767.515	0.0157241
767.593	0.0157008
767.671	0.0157378
767.749	0.0157945
767.828	0.0158105
767.906	0.0159470
767.984	0.0159822
768.062	0.0159986
768.140	0.0160533
768.218	0.0162929
768.296	0.0162969
768.374	0.0163998
768.453	0.0164115
768.531	0.0164629
768.609	0.0165861
768.687	0.0165687
768.765	0.0164934
768.843	0.0166147
768.921	0.0165334
768.999	0.0165928
769.078	0.0165681
769.156	0.0166402
769.234	0.0166251
769.312	0.0165561
769.390	0.0164999
769.468	0.0166076
769.546	0.0164676
769.624	0.0166291
769.703	0.0164241
769.781	0.0165970
769.859	0.0163624
769.937	0.0164447
770.015	0.0162859
770.093	0.0162440
770.171	0.0161913
770.249	0.0160094
770.328	0.0160655
770.406	0.0160136
770.484	0.0160837
770.562	0.0160828
770.640	0.0160056
770.718	0.0160805
770.796	0.0160736
770.874	0.0161463
770.953	0.0161294
771.031	0.0161461
771.109	0.0160262
771.187	0.0161966
771.265	0.0161941
771.343	0.0161754
771.421	0.0162302
771.499	0.0161958
771.578	0.0162679
771.656	0.0162432
771.734	0.0160448
771.812	0.0161900
771.890	0.0161854
771.968	0.0159870
772.046	0.0161426
772.124	0.0160541
772.203	0.0159589
772.281	0.0159245
772.359	0.0159123
772.437	0.0158188
772.515	0.0157715
772.593	0.0158414
772.671	0.0158092
772.749	0.0157742
772.828	0.0157698
772.906	0.0156902
772.984	0.0156340
773.062	0.0156280
773.140	0.0155956
773.218	0.0156908
773.296	0.0157339
773.374	0.0157971
773.453	0.0156226
773.531	0.0158600
773.609	0.0158504
773.687	0.0159140
773.765	0.0160817
773.843	0.0162360
773.921	0.0162476
773.999	0.0164609
774.078	0.0166476
774.156	0.0168435
774.234	0.0169379
774.312	0.0171979
774.390	0.0173753
774.468	0.0174017
774.546	0.0176459
774.624	0.0175413
774.703	0.0175646
774.781	0.0175528
774.859	0.0174098
774.937	0.0171812
775.015	0.0169144
775.093	0.0166353
775.171	0.0164868
775.249	0.0162360
775.328	0.0160098
775.406	0.0158054
775.484	0.0155035
775.562	0.0153786
775.640	0.0152167
775.718	0.0150561
775.796	0.0150616
775.874	0.0148367
775.953	0.0148101
776.031	0.0148402
776.109	0.0149326
776.187	0.0151140
776.265	0.0150663
776.343	0.0152097
776.421	0.0154339
776.499	0.0158770
776.578	0.0157615
776.656	0.0157824
776.734	0.0160948
776.812	0.0161282
776.890	0.0161647
776.968	0.0163581
777.046	0.0162611
777.124	0.0162576
777.203	0.0162996
777.281	0.0162462
777.359	0.0162508
777.437	0.0162865
777.515	0.0161739
777.593	0.0162691
777.671	0.0162729
777.749	0.0164535
777.828	0.0163387
777.906	0.0163625
777.984	0.0163902
778.062	0.0163764
778.140	0.0164642
778.218	0.0165640
778.296	0.0167115
778.374	0.0167844
778.453	0.0167788
778.531	0.0167657
778.609	0.0168323
778.687	0.0168612
778.765	0.0169307
778.843	0.0168074
778.921	0.0168218
778.999	0.0168462
779.078	0.0166664
779.156	0.0166084
779.234	0.0165259
779.312	0.0163831
779.390	0.0163884
779.468	0.0162735
779.546	0.0163161
779.624	0.0162534
779.703	0.0161313
779.781	0.0161607
779.859	0.0160642
779.937	0.0160330
780.015	0.0159873
780.093	0.0159934
780.171	0.0159240
780.249	0.0159722
780.328	0.0158939
780.406	0.0157196
780.484	0.0158501
780.562	0.0158488
780.640	0.0158044
780.718	0.0155939
780.796	0.0154619
780.874	0.0154447
780.953	0.0154482
781.031	0.0154170
781.109	0.0153577
781.187	0.0152664
781.265	0.0152909
781.343	0.0153288
781.421	0.0153217
781.499	0.0153958
781.578	0.0154390
781.656	0.0154633
781.734	0.0156357
781.812	0.0159605
781.890	0.0159526
781.968	0.0163247
782.046	0.0162385
782.124	0.0163298
782.203	0.0165448
782.281	0.0167372
782.359	0.0168827
782.437	0.0170142
782.515	0.0170408
782.593	0.0172819
782.671	0.0173752
782.749	0.0174842
782.828	0.0175904
782.906	0.0176817
782.984	0.0175592
783.062	0.0176380
783.140	0.0176301
783.218	0.0174233
783.296	0.0174222
783.374	0.0172330
783.453	0.0171051
783.531	0.0168050
783.609	0.0167033
783.687	0.0165887
783.765	0.0161744
783.843	0.0160168
783.921	0.0157899
783.999	0.0157000
784.078	0.0154050
784.156	0.0153528
784.234	0.0152530
784.312	0.0151069
784.390	0.0152370
784.468	0.0150673
784.546	0.0150824
784.624	0.0151874
784.703	0.0150999
784.781	0.0152679
784.859	0.0154412
784.937	0.0154653
785.015	0.0156374
785.093	0.0157414
785.171	0.0157353
785.249	0.0158272
785.328	0.0161034
785.406	0.0162016
785.484	0.0162291
785.562	0.0162933
785.640	0.0162101
785.718	0.0164104
785.796	0.0165472
785.874	0.0163839
785.953	0.0163455
786.031	0.0164820
786.109	0.0162750
786.187	0.0164549
786.265	0.0164959
786.343	0.0165768
786.421	0.0165909
786.499	0.0167001
786.578	0.0168344
786.656	0.0168746
786.734	0.0168653
786.812	0.0171180
786.890	0.0172291
786.968	0.0172301
787.046	0.0171713
787.124	0.0171954
787.203	0.0172243
787.281	0.0173342
787.359	0.0172784
787.437	0.0172384
787.515	0.0169362
787.593	0.0169158
787.671	0.0168553
787.749	0.0168240
787.828	0.0167271
787.906	0.0166745
787.984	0.0165747
788.062	0.0163283
788.140	0.0162347
788.218	0.0160751
788.296	0.0159946
788.374	0.0159523
788.453	0.0158967
788.531	0.0157821
788.609	0.0157792
788.687	0.0156778
788.765	0.0155482
788.843	0.0154188
788.921	0.0153059
788.999	0.0153530
789.078	0.0152726
789.156	0.0151316
789.234	0.0151066
789.312	0.0152589
789.390	0.0151396
789.468	0.0150438
789.546	0.0151003
789.624	0.0151412
789.703	0.0150491
789.781	0.0152187
789.859	0.0153219
789.937	0.0155478
790.015	0.0155336
790.093	0.0156673
790.171	0.0158516
790.249	0.0159717
790.328	0.0161725
790.406	0.0164187
790.484	0.0167522
790.562	0.0167728
790.640	0.0170660
790.718	0.0172625
790.796	0.0174388
790.874	0.0176175
790.953	0.0177390
791.031	0.0179371
791.109	0.0177886
791.187	0.0179080
791.265	0.0178036
791.343	0.0179225
791.421	0.0178085
791.499	0.0174715
791.578	0.0175623
791.656	0.0173636
791.734	0.0170488
791.812	0.0170065
791.890	0.0168910
791.968	0.0168691
792.046	0.0165755
792.124	0.0164005
792.203	0.0162705
792.281	0.0161380
792.359	0.0160530
792.437	0.0158747
792.515	0.0157686
792.593	0.0157076
792.671	0.0155816
792.749	0.0155122
792.828	0.0155497
792.906	0.0155289
792.984	0.0153440
793.062	0.0153284
793.140	0.0153979
793.218	0.0154240
793.296	0.0152352
793.374	0.0154126
793.453	0.0153564
793.531	0.0154530
793.609	0.0154107
793.687	0.0155063
793.765	0.0153680
793.843	0.0153998
793.921	0.0156111
793.999	0.0155224
794.078	0.0155298
794.156	0.0155510
794.234	0.0156895
794.312	0.0157932
794.390	0.0158318
794.468	0.0159718
794.546	0.0159948
794.624	0.0161211
794.703	0.0161555
794.781	0.0162512
794.859	0.0163911
794.937	0.0166235
795.015	0.0167706
795.093	0.0168498
795.171	0.0168817
795.249	0.0170605
795.328	0.0170290
795.406	0.0172729
795.484	0.0172547
795.562	0.0171907
795.640	0.0173162
795.718	0.0171251
795.796	0.0169353
795.874	0.0167273
795.953	0.0167294
796.031	0.0166904
796.109	0.0164569
796.187	0.0163535
796.265	0.0161948
796.343	0.0161563
796.421	0.0160341
796.499	0.0160412
796.578	0.0159348
796.656	0.0158313
796.734	0.0157059
796.812	0.0158968
796.890	0.0157635
796.968	0.0158077
797.046	0.0158430
797.124	0.0157767
797.203	0.0157948
797.281	0.0157626
797.359	0.0158789
797.437	0.0159499
797.515	0.0160148
797.593	0.0160069
797.671	0.0160102
797.749	0.0160627
797.828	0.0161034
797.906	0.0159794
797.984	0.0159248
798.062	0.0157700
798.140	0.0158132
798.218	0.0157996
798.296	0.0157076
798.374	0.0158110
798.453	0.0156395
798.531	0.0156792
798.609	0.0158371
798.687	0.0159290
798.765	0.0159503
798.843	0.0163030
798.921	0.0163287
798.999	0.0164477
799.078	0.0165663
799.156	0.0168153
799.234	0.0168486
799.312	0.0170043
799.390	0.0171542
799.468	0.0172266
799.546	0.0170796
799.624	0.0171162
799.703	0.0169379
799.781	0.0168214
799.859	0.0167396
799.937	0.0168140
800.015	0.0165309
800.093	0.0164539
800.171	0.0163264
800.249	0.0161326
800.328	0.0159335
800.406	0.0157678
800.484	0.0155465
800.562	0.0155273
800.640	0.0155023
800.718	0.0155087
800.796	0.0154881
800.874	0.0153906
800.953	0.0154294
801.031	0.0155813
801.109	0.0155791
801.187	0.0156756
801.265	0.0156449
801.343	0.0155912
801.421	0.0157787
801.499	0.0158925
801.578	0.0159830
801.656	0.0160000
801.734	0.0162189
801.812	0.0161425
801.890	0.0162028
801.968	0.0162522
802.046	0.0161936
802.124	0.0161994
802.203	0.0162675
802.281	0.0162825
802.359	0.0162949
802.437	0.0163311
802.515	0.0163637
802.593	0.0162477
802.671	0.0163365
802.749	0.0166276
802.828	0.0165999
802.906	0.0164976
802.984	0.0166405
803.062	0.0166888
803.140	0.0167848
803.218	0.0168188
803.296	0.0169170
803.374	0.0169367
803.453	0.0170304
803.531	0.0169241
803.609	0.0167309
803.687	0.0168811
803.765	0.0169662
803.843	0.0168127
803.921	0.0166376
803.999	0.0165619
804.078	0.0163105
804.156	0.0163251
804.234	0.0161200
804.312	0.0159930
804.390	0.0159145
804.468	0.0157754
804.546	0.0157852
804.624	0.0155818
804.703	0.0155399
804.781	0.0155435
804.859	0.0153935
804.937	0.0154516
805.015	0.0156026
805.093	0.0155612
805.171	0.0155422
805.249	0.0158566
805.328	0.0160151
805.406	0.0162181
805.484	0.0160532
805.562	0.0162280
805.640	0.0164604
805.718	0.0165598
805.796	0.0167226
805.874	0.0166847
805.953	0.0170648
806.031	0.0169557
806.109	0.0168503
806.187	0.0169325
806.265	0.0168510
806.343	0.0168354
806.421	0.0167723
806.499	0.0165641
806.578	0.0165697
806.656	0.0164799
806.734	0.0163262
806.812	0.0160835
806.890	0.0161143
806.968	0.0160175
807.046	0.0157549
807.124	0.0156429
807.203	0.0156134
807.281	0.0154077
807.359	0.0154250
807.437	0.0156925
807.515	0.0154701
807.593	0.0157027
807.671	0.0157361
807.749	0.0158633
807.828	0.0158469
807.906	0.0158974
807.984	0.0160593
808.062	0.0161221
808.140	0.0162081
808.218	0.0162421
808.296	0.0163235
808.374	0.0165389
808.453	0.0165600
808.531	0.0166068
808.609	0.0165005
808.687	0.0166203
808.765	0.0166779
808.843	0.0167114
808.921	0.0167819
808.999	0.0169074
809.078	0.0169865
809.156	0.0168810
809.234	0.0168337
809.312	0.0170637
809.390	0.0169056
809.468	0.0170694
809.546	0.0170454
809.624	0.0168703
809.703	0.0167777
809.781	0.0167320
809.859	0.0166471
809.937	0.0166820
810.015	0.0165848
810.093	0.0163274
810.171	0.0162386
810.249	0.0162250
810.328	0.0160802
810.406	0.0161322
810.484	0.0160615
810.562	0.0159183
810.640	0.0157027
810.718	0.0158871
810.796	0.0158756
810.874	0.0159425
810.953	0.0159428
811.031	0.0159233
811.109	0.0159821
811.187	0.0161998
811.265	0.0161676
811.343	0.0162387
811.421	0.0163188
811.499	0.0164430
811.578	0.0165068
811.656	0.0163652
811.734	0.0165263
811.812	0.0164847
811.890	0.0164153
811.968	0.0165086
812.046	0.0164195
812.124	0.0164252
812.203	0.0162193
812.281	0.0162586
812.359	0.0161565
812.437	0.0159690
812.515	0.0159664
812.593	0.0158605
812.671	0.0158696
812.749	0.0157464
812.828	0.0157841
812.906	0.0157576
812.984	0.0158021
813.062	0.0156232
813.140	0.0158810
813.218	0.0157655
813.296	0.0157815
813.374	0.0159695
813.453	0.0160172
813.531	0.0161376
813.609	0.0161059
813.687	0.0161129
813.765	0.0162933
813.843	0.0163667
813.921	0.0162358
813.999	0.0163360
814.078	0.0165478
814.156	0.0165964
814.234	0.0164821
814.312	0.0165993
814.390	0.0168349
814.468	0.0166548
814.546	0.0167567
814.624	0.0167647
814.703	0.0168697
814.781	0.0165752
814.859	0.0166109
814.937	0.0166035
815.015	0.0165151
815.093	0.0163318
815.171	0.0162997
815.249	0.0162609
815.328	0.0161919
815.406	0.0160619
815.484	0.0160500
815.562	0.0159644
815.640	0.0159396
815.718	0.0158463
815.796	0.0158705
815.874	0.0161527
815.953	0.0159854
816.031	0.0160548
816.109	0.0160620
816.187	0.0161392
816.265	0.0162693
816.343	0.0161974
816.421	0.0161642
816.499	0.0163449
816.578	0.0164346
816.656	0.0163537
816.734	0.0162413
816.812	0.0163278
816.890	0.0163935
816.968	0.0161450
817.046	0.0163026
817.124	0.0163305
817.203	0.0161315
817.281	0.0162811
817.359	0.0163354
817.437	0.0164370
817.515	0.0163627
817.593	0.0163168
817.671	0.0164413
817.749	0.0163150
817.828	0.0162239
817.906	0.0160539
817.984	0.0161228
818.062	0.0161318
818.140	0.0160220
818.218	0.0159723
818.296	0.0159056
818.374	0.0158445
818.453	0.0157803
818.531	0.0158127
818.609	0.0157939
818.687	0.0157878
818.765	0.0157074
818.843	0.0157729
818.921	0.0156903
818.999	0.0155655
819.078	0.0156602
819.156	0.0156262
819.234	0.0156358
819.312	0.0158112
819.390	0.0157278
819.468	0.0157224
819.546	0.0158530
819.624	0.0158241
819.703	0.0158759
819.781	0.0159608
819.859	0.0158908
819.937	0.0159016
820.015	0.0161047
820.093	0.0161251
820.171	0.0160297
820.249	0.0161678
820.328	0.0162810
820.406	0.0163295
820.484	0.0163979
820.562	0.0164894
820.640	0.0164905
820.718	0.0166175
820.796	0.0166547
820.874	0.0164603
820.953	0.0164275
821.031	0.0165891
821.109	0.0164812
821.187	0.0165173
821.265	0.0163985
821.343	0.0164763
821.421	0.0162444
821.499	0.0163470
821.578	0.0163227
821.656	0.0164146
821.734	0.0163990
821.812	0.0163382
821.890	0.0163403
821.968	0.0164802
822.046	0.0163326
822.124	0.0164445
822.203	0.0165659
822.281	0.0162948
822.359	0.0163905
822.437	0.0164977
822.515	0.0164424
822.593	0.0164037
822.671	0.0164954
822.749	0.0162954
822.828	0.0163243
822.906	0.0163409
822.984	0.0162485
823.062	0.0161050
823.140	0.0161066
823.218	0.0159893
823.296	0.0159281
823.374	0.0159867
823.453	0.0158858
823.531	0.0157110
823.609	0.0158266
823.687	0.0158251
823.765	0.0157145
823.843	0.0156891
823.921	0.0157107
823.999	0.0157553
824.078	0.0155440
824.156	0.0157069
824.234	0.0158183
824.312	0.0158529
824.390	0.0157228
824.468	0.0158452
824.546	0.0158401
824.624	0.0159480
824.703	0.0158324
824.781	0.0159660
824.859	0.0160620
824.937	0.0160905
825.015	0.0160284
825.093	0.0161420
825.171	0.0162806
825.249	0.0163312
825.328	0.0162673
825.406	0.0165192
825.484	0.0166397
825.562	0.0165171
825.640	0.0164053
825.718	0.0163593
825.796	0.0164245
825.874	0.0163535
825.953	0.0163131
826.031	0.0163321
826.109	0.0162559
826.187	0.0162229
826.265	0.0160925
826.343	0.0162597
826.421	0.0161543
826.499	0.0160056
826.578	0.0160165
826.656	0.0160775
826.734	0.0160789
826.812	0.0160376
826.890	0.0161361
826.968	0.0162241
827.046	0.0162723
827.124	0.0162786
827.203	0.0163799
827.281	0.0163931
827.359	0.0164597
827.437	0.0166557
827.515	0.0165329
827.593	0.0166779
827.671	0.0167044
827.749	0.0167403
827.828	0.0167812
827.906	0.0167572
827.984	0.0167031
828.062	0.0167101
828.140	0.0167914
828.218	0.0165799
828.296	0.0165257
828.374	0.0164822
828.453	0.0164861
828.531	0.0165720
828.609	0.0164462
828.687	0.0164320
828.765	0.0163499
828.843	0.0164305
828.921	0.0163628
828.999	0.0161869
829.078	0.0162054
829.156	0.0161897
829.234	0.0162220
829.312	0.0162106
829.390	0.0162995
829.468	0.0160651
829.546	0.0160228
829.624	0.0162887
829.703	0.0163066
829.781	0.0162436
829.859	0.0163523
829.937	0.0161375
830.015	0.0159875
830.093	0.0162100
830.171	0.0161012
830.249	0.0161316
830.328	0.0162227
830.406	0.0160726
830.484	0.0161069
830.562	0.0160690
830.640	0.0160966
830.718	0.0159921
830.796	0.0161010
830.874	0.0159046
830.953	0.0159141
831.031	0.0161347
831.109	0.0161667
831.187	0.0160235
831.265	0.0161710
831.343	0.0161511
831.421	0.0160268
831.499	0.0161124
831.578	0.0161723
831.656	0.0160863
831.734	0.0160489
831.812	0.0160815
831.890	0.0161143
831.968	0.0161524
832.046	0.0159469
832.124	0.0161047
832.203	0.0161797
832.281	0.0160985
832.359	0.0159679
832.437	0.0162743
832.515	0.0162990
832.593	0.0162943
832.671	0.0163422
832.749	0.0165065
832.828	0.0164619
832.906	0.0164449
832.984	0.0166223
833.062	0.0166373
833.140	0.0164235
833.218	0.0166566
833.296	0.0167175
833.374	0.0167162
833.453	0.0168227
833.531	0.0166972
833.609	0.0166541
833.687	0.0167412
833.765	0.0167340
833.843	0.0167011
833.921	0.0168188
833.999	0.0169492
834.078	0.0167304
834.156	0.0166679
834.234	0.0166920
834.312	0.0167683
834.390	0.0167364
834.468	0.0165723
834.546	0.0165472
834.624	0.0165569
834.703	0.0165195
834.781	0.0164548
834.859	0.0164297
834.937	0.0163665
835.015	0.0161909
835.093	0.0163332
835.171	0.0163367
835.249	0.0161417
835.328	0.0163617
835.406	0.0161671
835.484	0.0160406
835.562	0.0161961
835.640	0.0161588
835.718	0.0161028
835.796	0.0160063
835.874	0.0159646
835.953	0.0160941
836.031	0.0159598
836.109	0.0161350
836.187	0.0162498
836.265	0.0161093
836.343	0.0161353
836.421	0.0162725
836.499	0.0161468
836.578	0.0160857
836.656	0.0161286
836.734	0.0161417
836.812	0.0160764
836.890	0.0160561
836.968	0.0160955
837.046	0.0159665
837.124	0.0160455
837.203	0.0160483
837.281	0.0159829
837.359	0.0160925
837.437	0.0161230
837.515	0.0160489
837.593	0.0158957
837.671	0.0159572
837.749	0.0159464
837.828	0.0160772
837.906	0.0160939
837.984	0.0159795
838.062	0.0161604
838.140	0.0159941
838.218	0.0161166
838.296	0.0160411
838.374	0.0161753
838.453	0.0161104
838.531	0.0160803
838.609	0.0161685
838.687	0.0161919
838.765	0.0162267
838.843	0.0162331
838.921	0.0162614
838.999	0.0162076
839.078	0.0163527
839.156	0.0163039
839.234	0.0163200
839.312	0.0165928
839.390	0.0163676
839.468	0.0163253
839.546	0.0164606
839.624	0.0165994
839.703	0.0165086
839.781	0.0164251
839.859	0.0165722
839.937	0.0165958
840.015	0.0165140
840.093	0.0164828
840.171	0.0164175
840.249	0.0163991
840.328	0.0162846
840.406	0.0162732
840.484	0.0160976
840.562	0.0161673
840.640	0.0161782
840.718	0.0162482
840.796	0.0160398
840.874	0.0161815
840.953	0.0162550
841.031	0.0161941
841.109	0.0160949
841.187	0.0161086
841.265	0.0161581
841.343	0.0161248
841.421	0.0159992
841.499	0.0161742
841.578	0.0160401
841.656	0.0161366
841.734	0.0161012
841.812	0.0159470
841.890	0.0159880
841.968	0.0161580
842.046	0.0160696
842.124	0.0161320
842.203	0.0158070
842.281	0.0159947
842.359	0.0159480
842.437	0.0159338
842.515	0.0162054
842.593	0.0158595
842.671	0.0158444
842.749	0.0158501
842.828	0.0159235
842.906	0.0159496
842.984	0.0160794
843.062	0.0158423
843.140	0.0159418
843.218	0.0158243
843.296	0.0161027
843.374	0.0160458
843.453	0.0160365
843.531	0.0159447
843.609	0.0161784
843.687	0.0161607
843.765	0.0160793
843.843	0.0161074
843.921	0.0163557
843.999	0.0161805
844.078	0.0164655
844.156	0.0162892
844.234	0.0162719
844.312	0.0163361
844.390	0.0162949
844.468	0.0162962
844.546	0.0163132
844.624	0.0163781
844.703	0.0164575
844.781	0.0163845
844.859	0.0163239
844.937	0.0162390
845.015	0.0162318
845.093	0.0162231
845.171	0.0162196
845.249	0.0162093
845.328	0.0162164
845.406	0.0162897
845.484	0.0161140
845.562	0.0161493
845.640	0.0163087
845.718	0.0163153
845.796	0.0162119
845.874	0.0163210
845.953	0.0162215
846.031	0.0162029
846.109	0.0163279
846.187	0.0162836
846.265	0.0162659
846.343	0.0162999
846.421	0.0162082
846.499	0.0161877
846.578	0.0162087
846.656	0.0160641
846.734	0.0163486
846.812	0.0161301
846.890	0.0162144
846.968	0.0161530
847.046	0.0161363
847.124	0.0162008
847.203	0.0161071
847.281	0.0160221
847.359	0.0160616
847.437	0.0162167
847.515	0.0161817
847.593	0.0162680
847.671	0.0162122
847.749	0.0162843
847.828	0.0161604
847.906	0.0161713
847.984	0.0163226
848.062	0.0162280
848.140	0.0160955
848.218	0.0162312
848.296	0.0161844
848.374	0.0161961
848.453	0.0161898
848.531	0.0161061
848.609	0.0162668
848.687	0.0161395
848.765	0.0160394
848.843	0.0160039
848.921	0.0161387
848.999	0.0160252
849.078	0.0160802
849.156	0.0162324
849.234	0.0161069
849.312	0.0161268
849.390	0.0161069
849.468	0.0162115
849.546	0.0161222
849.624	0.0161306
849.703	0.0161978
849.781	0.0160709
849.859	0.0160292
849.937	0.0161298
850.015	0.0161646
850.093	0.0162599
850.171	0.0162843
850.249	0.0163173
850.328	0.0161650
850.406	0.0162735
850.484	0.0162752
850.562	0.0163470
850.640	0.0162829
850.718	0.0162930
850.796	0.0163337
850.874	0.0164018
850.953	0.0162955
851.031	0.0161762
851.109	0.0161858
851.187	0.0162570
851.265	0.0164656
851.343	0.0161378
851.421	0.0161671
851.499	0.0160999
851.578	0.0161933
851.656	0.0163102
851.734	0.0162101
851.812	0.0162364
851.890	0.0161723
851.968	0.0162427
852.046	0.0162701
852.124	0.0163362
852.203	0.0163023
852.281	0.0163367
852.359	0.0164285
852.437	0.0163058
852.515	0.0163826
852.593	0.0163907
852.671	0.0163129
852.749	0.0163495
852.828	0.0163741
852.906	0.0164360
852.984	0.0162614
853.062	0.0164758
853.140	0.0166010
853.218	0.0164547
853.296	0.0165231
853.374	0.0164928
853.453	0.0164223
853.531	0.0163054
853.609	0.0163582
853.687	0.0163815
853.765	0.0163412
853.843	0.0163521
853.921	0.0164082
853.999	0.0163618
854.078	0.0163229
854.156	0.0163910
854.234	0.0163152
854.312	0.0162306
854.390	0.0163464
854.468	0.0163061
854.546	0.0164133
854.624	0.0163025
854.703	0.0162037
854.781	0.0161195
854.859	0.0162161
854.937	0.0162911
855.015	0.0162595
855.093	0.0162373
855.171	0.0162780
855.249	0.0162259
855.328	0.0160441
855.406	0.0162186
855.484	0.0162443
855.562	0.0162026
855.640	0.0160662
855.718	0.0161008
855.796	0.0161292
855.874	0.0161871
855.953	0.0160316
856.031	0.0160857
856.109	0.0161380
856.187	0.0162272
856.265	0.0161990
856.343	0.0161988
856.421	0.0160295
856.499	0.0162806
856.578	0.0162850
856.656	0.0161968
856.734	0.0162585
856.812	0.0162842
856.890	0.0162672
856.968	0.0162731
857.046	0.0162955
857.124	0.0163273
857.203	0.0162811
857.281	0.0163443
857.359	0.0162915
857.437	0.0163152
857.515	0.0164445
857.593	0.0163853
857.671	0.0164503
857.749	0.0163337
857.828	0.0164273
857.906	0.0164075
857.984	0.0165024
858.062	0.0164711
858.140	0.0164675
858.218	0.0164555
858.296	0.0163893
858.374	0.0161592
858.453	0.0163898
858.531	0.0162744
858.609	0.0163225
858.687	0.0163868
858.765	0.0161382
858.843	0.0163206
858.921	0.0162355
858.999	0.0163535
859.078	0.0162520
859.156	0.0164073
859.234	0.0163853
859.312	0.0164531
859.390	0.0163955
859.468	0.0164137
859.546	0.0164023
859.624	0.0165682
859.703	0.0164891
859.781	0.0163738
859.859	0.0164731
859.937	0.0164055
860.015	0.0165871
860.093	0.0165309
860.171	0.0164066
860.249	0.0165294
860.328	0.0165688
860.406	0.0164385
860.484	0.0164848
860.562	0.0163896
860.640	0.0164174
860.718	0.0163066
860.796	0.0164122
860.874	0.0163807
860.953	0.0163229
861.031	0.0162926
861.109	0.0162150
861.187	0.0162062
861.265	0.0160989
861.343	0.0160988
861.421	0.0160583
861.499	0.0160928
861.578	0.0161505
861.656	0.0161994
861.734	0.0161101
861.812	0.0160513
861.890	0.0160300
861.968	0.0161709
862.046	0.0160213
862.124	0.0161313
862.203	0.0161893
862.281	0.0161105
862.359	0.0161785
862.437	0.0162161
862.515	0.0161655
862.593	0.0161089
862.671	0.0161359
862.749	0.0161320
862.828	0.0161435
862.906	0.0161211
862.984	0.0161901
863.062	0.0162255
863.140	0.0160553
863.218	0.0160590
863.296	0.0160220
863.374	0.0160499
863.453	0.0162301
863.531	0.0162910
863.609	0.0161818
863.687	0.0162299
863.765	0.0164307
863.843	0.0164252
863.921	0.0163446
863.999	0.0163451
864.078	0.0164923
864.156	0.0165150
864.234	0.0163118
864.312	0.0164808
864.390	0.0163920
864.468	0.0164523
864.546	0.0164296
864.624	0.0165441
864.703	0.0164178
864.781	0.0164366
864.859	0.0163179
864.937	0.0163649
865.015	0.0162282
865.093	0.0163539
865.171	0.0162125
865.249	0.0162497
865.328	0.0161063
865.406	0.0161478
865.484	0.0161888
865.562	0.0162560
865.640	0.0163441
865.718	0.0162155
865.796	0.0162696
865.874	0.0163158
865.953	0.0162389
866.031	0.0163318
866.109	0.0161142
866.187	0.0163439
866.265	0.0162284
866.343	0.0163273
866.421	0.0163456
866.499	0.0164155
866.578	0.0163751
866.656	0.0163815
866.734	0.0163530
866.812	0.0164981
866.890	0.0164165
866.968	0.0163628
867.046	0.0162842
867.124	0.0163197
867.203	0.0163987
867.281	0.0163800
867.359	0.0162710
867.437	0.0161588
867.515	0.0163571
867.593	0.0162442
867.671	0.0162084
867.749	0.0161752
867.828	0.0161557
867.906	0.0161915
867.984	0.0159870
868.062	0.0161246
868.140	0.0162607
868.218	0.0161057
868.296	0.0163352
868.374	0.0161109
868.453	0.0161758
868.531	0.0161987
868.609	0.0161974
868.687	0.0161483
868.765	0.0161114
868.843	0.0162735
868.921	0.0161788
868.999	0.0162485
869.078	0.0163142
869.156	0.0161715
869.234	0.0162326
869.312	0.0162816
869.390	0.0162016
869.468	0.0161300
869.546	0.0161337
869.624	0.0163123
869.703	0.0162174
869.781	0.0163234
869.859	0.0161823
869.937	0.0162081
870.015	0.0162556
870.093	0.0163925
870.171	0.0164191
870.249	0.0162876
870.328	0.0161849
870.406	0.0162490
870.484	0.0162792
870.562	0.0162914
870.640	0.0162254
870.718	0.0161681
870.796	0.0163071
870.874	0.0161739
870.953	0.0162116
871.031	0.0162662
871.109	0.0161913
871.187	0.0162325
871.265	0.0161552
871.343	0.0160250
871.421	0.0160526
871.499	0.0159560
871.578	0.0161469
871.656	0.0160751
871.734	0.0159673
871.812	0.0161347
871.890	0.0161686
871.968	0.0161020
872.046	0.0159446
872.124	0.0161785
872.203	0.0161103
872.281	0.0158422
872.359	0.0160002
872.437	0.0161443
872.515	0.0161190
872.593	0.0160723
872.671	0.0162061
872.749	0.0162366
872.828	0.0161690
872.906	0.0162534
872.984	0.0162762
873.062	0.0161055
873.140	0.0162157
873.218	0.0162547
873.296	0.0163573
873.374	0.0161639
873.453	0.0161784
873.531	0.0162091
873.609	0.0161208
873.687	0.0162517
873.765	0.0161334
873.843	0.0161799
873.921	0.0160939
873.999	0.0161314
874.078	0.0162115
874.156	0.0161779
874.234	0.0162161
874.312	0.0162312
874.390	0.0160395
874.468	0.0161422
874.546	0.0161736
874.624	0.0161895
874.703	0.0162074
874.781	0.0162875
874.859	0.0161167
874.937	0.0159321
875.015	0.0159420
875.093	0.0160345
875.171	0.0159602
875.249	0.0160067
875.328	0.0159900
875.406	0.0160794
875.484	0.0158917
875.562	0.0159235
875.640	0.0160172
875.718	0.0159825
875.796	0.0159749
875.874	0.0158421
875.953	0.0160155
876.031	0.0159435
876.109	0.0160297
876.187	0.0162049
876.265	0.0161838
876.343	0.0161645
876.421	0.0161575
876.499	0.0162318
876.578	0.0161209
876.656	0.0162132
876.734	0.0161907
876.812	0.0162965
876.890	0.0162346
876.968	0.0163258
877.046	0.0162520
877.124	0.0161465
877.203	0.0163651
877.281	0.0164339
877.359	0.0161650
877.437	0.0161623
877.515	0.0162840
877.593	0.0162342
877.671	0.0161832
877.749	0.0161162
877.828	0.0162103
877.906	0.0161496
877.984	0.0161295
878.062	0.0162131
878.140	0.0160984
878.218	0.0161593
878.296	0.0162817
878.374	0.0163018
878.453	0.0163101
878.531	0.0162491
878.609	0.0162560
878.687	0.0162032
878.765	0.0162218
878.843	0.0162633
878.921	0.0163430
878.999	0.0162990
879.078	0.0162552
879.156	0.0164095
879.234	0.0164177
879.312	0.0164880
879.390	0.0162810
879.468	0.0164662
879.546	0.0165299
879.624	0.0163679
879.703	0.0164034
879.781	0.0164530
879.859	0.0165269
879.937	0.0163922
880.015	0.0164017
880.093	0.0163309
880.171	0.0163309
880.249	0.0162534
880.328	0.0163046
880.406	0.0162605
880.484	0.0162619
880.562	0.0161020
880.640	0.0162643
880.718	0.0160838
880.796	0.0161945
880.874	0.0161501
880.953	0.0161214
881.031	0.0161044
881.109	0.0161134
881.187	0.0161494
881.265	0.0160758
881.343	0.0161083
881.421	0.0159879
881.499	0.0160677
881.578	0.0160542
881.656	0.0160703
881.734	0.0160832
881.812	0.0160438
881.890	0.0159803
881.968	0.0161506
882.046	0.0159806
882.124	0.0161016
882.203	0.0161633
882.281	0.0161411
882.359	0.0161916
882.437	0.0161726
882.515	0.0161952
882.593	0.0161499
882.671	0.0161872
882.749	0.0163148
882.828	0.0162369
882.906	0.0163114
882.984	0.0164483
883.062	0.0164854
883.140	0.0163609
883.218	0.0163979
883.296	0.0163617
883.374	0.0164330
883.453	0.0164410
883.531	0.0164151
883.609	0.0163941
883.687	0.0163795
883.765	0.0165772
883.843	0.0164581
883.921	0.0164494
883.999	0.0165679
884.078	0.0165388
884.156	0.0165285
884.234	0.0164961
884.312	0.0165509
884.390	0.0165582
884.468	0.0165456
884.546	0.0166136
884.624	0.0164619
884.703	0.0164146
884.781	0.0164496
884.859	0.0165039
884.937	0.0165265
885.015	0.0164785
885.093	0.0164051
885.171	0.0164839
885.249	0.0163021
885.328	0.0160754
885.406	0.0162836
885.484	0.0163690
885.562	0.0161629
885.640	0.0160705
885.718	0.0161712
885.796	0.0159925
885.874	0.0160100
885.953	0.0160465
886.031	0.0160895
886.109	0.0161754
886.187	0.0159489
886.265	0.0160547
886.343	0.0159859
886.421	0.0160921
886.499	0.0161623
886.578	0.0160901
886.656	0.0162794
886.734	0.0161773
886.812	0.0161057
886.890	0.0162844
886.968	0.0161961
887.046	0.0162426
887.124	0.0163389
887.203	0.0164594
887.281	0.0164302
887.359	0.0164317
887.437	0.0162998
887.515	0.0164077
887.593	0.0165635
887.671	0.0163677
887.749	0.0164295
887.828	0.0163625
887.906	0.0163152
887.984	0.0163164
888.062	0.0163948
888.140	0.0164156
888.218	0.0164793
888.296	0.0163335
888.374	0.0163433
888.453	0.0163184
888.531	0.0164368
888.609	0.0163634
888.687	0.0163462
888.765	0.0165406
888.843	0.0163107
888.921	0.0162650
888.999	0.0163533
889.078	0.0161481
889.156	0.0161810
889.234	0.0164140
889.312	0.0164348
889.390	0.0162165
889.468	0.0161413
889.546	0.0162816
889.624	0.0161739
889.703	0.0161462
889.781	0.0161730
889.859	0.0161021
889.937	0.0159492
890.015	0.0160402
890.093	0.0161456
890.171	0.0159644
890.249	0.0160597
890.328	0.0160231
890.406	0.0160252
890.484	0.0161161
890.562	0.0161169
890.640	0.0161374
890.718	0.0161246
890.796	0.0161937
890.874	0.0161430
890.953	0.0162567
891.031	0.0161717
891.109	0.0163251
891.187	0.0162562
891.265	0.0161738
891.343	0.0163339
891.421	0.0164653
891.499	0.0163834
891.578	0.0164223
891.656	0.0164577
891.734	0.0163329
891.812	0.0163766
891.890	0.0164848
891.968	0.0164706
892.046	0.0165698
892.124	0.0164317
892.203	0.0164677
892.281	0.0164339
892.359	0.0164052
892.437	0.0163669
892.515	0.0164674
892.593	0.0164655
892.671	0.0163868
892.749	0.0163407
892.828	0.0163118
892.906	0.0163961
892.984	0.0163915
893.062	0.0162544
893.140	0.0163195
893.218	0.0163943
893.296	0.0162173
893.374	0.0161977
893.453	0.0161079
893.531	0.0161903
893.609	0.0162486
893.687	0.0160813
893.765	0.0161685
893.843	0.0162267
893.921	0.0161927
893.999	0.0161199
894.078	0.0160876
894.156	0.0160789
894.234	0.0160921
894.312	0.0162221
894.390	0.0160426
894.468	0.0161829
894.546	0.0161051
894.624	0.0161784
894.703	0.0161063
894.781	0.0161080
894.859	0.0163317
894.937	0.0162720
895.015	0.0161037
895.093	0.0161751
895.171	0.0163074
895.249	0.0162810
895.328	0.0161134
895.406	0.0162896
895.484	0.0161728
895.562	0.0162873
895.640	0.0163185
895.718	0.0162512
895.796	0.0162505
895.874	0.0163691
895.953	0.0163476
896.031	0.0162823
896.109	0.0161864
896.187	0.0162738
896.265	0.0162815
896.343	0.0162875
896.421	0.0162357
896.499	0.0162505
896.578	0.0161710
896.656	0.0162717
896.734	0.0162626
896.812	0.0161047
896.890	0.0161706
896.968	0.0161749
897.046	0.0161377
897.124	0.0161839
897.203	0.0162125
897.281	0.0159561
897.359	0.0160536
897.437	0.0160864
897.515	0.0161331
897.593	0.0162486
897.671	0.0161343
897.749	0.0161053
897.828	0.0161931
897.906	0.0160573
897.984	0.0161242
898.062	0.0162372
898.140	0.0160886
898.218	0.0160136
898.296	0.0160921
898.374	0.0160587
898.453	0.0160477
898.531	0.0161436
898.609	0.0160998
898.687	0.0162427
898.765	0.0160686
898.843	0.0161950
898.921	0.0161782
898.999	0.0160934
899.078	0.0161033
899.156	0.0161208
899.234	0.0160447
899.312	0.0161411
899.390	0.0161342
899.468	0.0160930
899.546	0.0159859
899.624	0.0161357
899.703	0.0160261
899.781	0.0161048
899.859	0.0160996
899.937	0.0160625
900.015	0.0161797
900.093	0.0160838
900.171	0.0160954
900.249	0.0161533
900.328	0.0160336
900.406	0.0161201
900.484	0.0162132
900.562	0.0161452
900.640	0.0161621
900.718	0.0160786
900.796	0.0161327
900.874	0.0162038
900.953	0.0163495
901.031	0.0160693
901.109	0.0161311
901.187	0.0161092
901.265	0.0160567
901.343	0.0160490
901.421	0.0159212
901.499	0.0160052
901.578	0.0160318
901.656	0.0161275
901.734	0.0159745
901.812	0.0159521
901.890	0.0160239
901.968	0.0160063
902.046	0.0159236
902.124	0.0159262
902.203	0.0161282
902.281	0.0160706
902.359	0.0160041
902.437	0.0160957
902.515	0.0160745
902.593	0.0161183
902.671	0.0160614
902.749	0.0160342
902.828	0.0161034
902.906	0.0161288
902.984	0.0161459
903.062	0.0162197
903.140	0.0161272
903.218	0.0160355
903.296	0.0162001
903.374	0.0162600
903.453	0.0162551
903.531	0.0162896
903.609	0.0162247
903.687	0.0163355
903.765	0.0161887
903.843	0.0163317
903.921	0.0162679
903.999	0.0162436
904.078	0.0164042
904.156	0.0162112
904.234	0.0161858
904.312	0.0164126
904.390	0.0161913
904.468	0.0160213
904.546	0.0161575
904.624	0.0161972
904.703	0.0162379
904.781	0.0161908
904.859	0.0161784
904.937	0.0162766
905.015	0.0162765
905.093	0.0162046
905.171	0.0161928
905.249	0.0160324
905.328	0.0159454
905.406	0.0160600
905.484	0.0161406
905.562	0.0159460
905.640	0.0160722
905.718	0.0161098
905.796	0.0159600
905.874	0.0160722
905.953	0.0162710
906.031	0.0162455
906.109	0.0162968
906.187	0.0160309
906.265	0.0161928
906.343	0.0163229
906.421	0.0162380
906.499	0.0162480
906.578	0.0162627
906.656	0.0163129
906.734	0.0163248
906.812	0.0163244
906.890	0.0164803
906.968	0.0163815
907.046	0.0164240
907.124	0.0165395
907.203	0.0163477
907.281	0.0163699
907.359	0.0163600
907.437	0.0165224
907.515	0.0163792
907.593	0.0164354
907.671	0.0163235
907.749	0.0162691
907.828	0.0163744
907.906	0.0162901
907.984	0.0161762
908.062	0.0161821
908.140	0.0163425
908.218	0.0162727
908.296	0.0162492
908.374	0.0162049
908.453	0.0162762
908.531	0.0161554
908.609	0.0162978
908.687	0.0160872
908.765	0.0162096
908.843	0.0161684
908.921	0.0161408
908.999	0.0161133
909.078	0.0161404
909.156	0.0161867
909.234	0.0162218
909.312	0.0160691
909.390	0.0161858
909.468	0.0161579
909.546	0.0161021
909.624	0.0161442
909.703	0.0160879
909.781	0.0161254
909.859	0.0162245
909.937	0.0162086
910.015	0.0163161
910.093	0.0162038
910.171	0.0162447
910.249	0.0163435
910.328	0.0162421
910.406	0.0163470
910.484	0.0163833
910.562	0.0165361
910.640	0.0164447
910.718	0.0164397
910.796	0.0166570
910.874	0.0165419
910.953	0.0165676
911.031	0.0166212
911.109	0.0165292
911.187	0.0164922
911.265	0.0166272
911.343	0.0166597
911.421	0.0166114
911.499	0.0166520
911.578	0.0164811
911.656	0.0164795
911.734	0.0165257
911.812	0.0164321
911.890	0.0164152
911.968	0.0163620
912.046	0.0162855
912.124	0.0163681
912.203	0.0162841
912.281	0.0162130
912.359	0.0163450
912.437	0.0160440
912.515	0.0160788
912.593	0.0162325
912.671	0.0161132
912.749	0.0161273
912.828	0.0161485
912.906	0.0162386
912.984	0.0161838
913.062	0.0162026
913.140	0.0162384
913.218	0.0161185
913.296	0.0162728
913.374	0.0164439
913.453	0.0164119
913.531	0.0163988
913.609	0.0164598
913.687	0.0164019
913.765	0.0165112
913.843	0.0163130
913.921	0.0163203
913.999	0.0162950
914.078	0.0162823
914.156	0.0163254
914.234	0.0162425
914.312	0.0163100
914.390	0.0162076
914.468	0.0161034
914.546	0.0163033
914.624	0.0161012
914.703	0.0160457
914.781	0.0161874
914.859	0.0160303
914.937	0.0161378
915.015	0.0161841
915.093	0.0160609
915.171	0.0160213
915.249	0.0161417
915.328	0.0161173
915.406	0.0161162
915.484	0.0161729
915.562	0.0162261
915.640	0.0162292
915.718	0.0162640
915.796	0.0160723
915.874	0.0161832
915.953	0.0163420
916.031	0.0163577
916.109	0.0161469
916.187	0.0162991
916.265	0.0163110
916.343	0.0162647
916.421	0.0162037
916.499	0.0162994
916.578	0.0162511
916.656	0.0163298
916.734	0.0162054
916.812	0.0163153
916.890	0.0163725
916.968	0.0162172
917.046	0.0163277
917.124	0.0161509
917.203	0.0162350
917.281	0.0163369
917.359	0.0161857
917.437	0.0161441
917.515	0.0162103
917.593	0.0161432
917.671	0.0161636
917.749	0.0160083
917.828	0.0162533
917.906	0.0160541
917.984	0.0160484
918.062	0.0160712
918.140	0.0160760
918.218	0.0161720
918.296	0.0161891
918.374	0.0163100
918.453	0.0161182
918.531	0.0161451
918.609	0.0162218
918.687	0.0161044
918.765	0.0162702
918.843	0.0161368
918.921	0.0160246
918.999	0.0161552
919.078	0.0160934
919.156	0.0160426
919.234	0.0162228
919.312	0.0161478
919.390	0.0161973
919.468	0.0162083
919.546	0.0161959
919.624	0.0162249
919.703	0.0162329
919.781	0.0161629
919.859	0.0162093
919.937	0.0163326
