06/10/2022	18:51:35	Ver.	4.1	UNKNOWN
Optical Delay	600.015094	Delta X		0.078125	Sweeps	1	Scan Rate	0/0
Coordinates	Axis 1	NaN	Axis 2	NaN	Axis 3	NaN	Axis 4	NaN	Axis 5	NaN	Axis 6	0.000000
TX Power	0.000000	RX Power	0.000000

600.015	0.0165397
600.093	0.0164912
600.171	0.0164908
600.249	0.0164909
600.328	0.0165406
600.406	0.0165317
600.484	0.0166714
600.562	0.0164105
600.640	0.0164893
600.718	0.0165291
600.796	0.0165395
600.874	0.0165351
600.953	0.0164646
601.031	0.0164684
601.109	0.0165484
601.187	0.0166140
601.265	0.0165025
601.343	0.0163816
601.421	0.0164597
601.499	0.0165859
601.578	0.0165558
601.656	0.0165380
601.734	0.0165477
601.812	0.0164486
601.890	0.0164371
601.968	0.0164951
602.046	0.0164349
602.124	0.0165995
602.203	0.0163808
602.281	0.0165733
602.359	0.0164859
602.437	0.0165051
602.515	0.0165310
602.593	0.0164467
602.671	0.0164785
602.749	0.0164990
602.828	0.0164546
602.906	0.0164984
602.984	0.0164136
603.062	0.0162586
603.140	0.0163958
603.218	0.0163445
603.296	0.0163795
603.374	0.0165340
603.453	0.0165483
603.531	0.0163636
603.609	0.0164370
603.687	0.0163335
603.765	0.0163909
603.843	0.0164876
603.921	0.0165344
603.999	0.0164806
604.078	0.0165626
604.156	0.0165285
604.234	0.0164218
604.312	0.0164112
604.390	0.0164442
604.468	0.0164333
604.546	0.0165206
604.624	0.0164135
604.703	0.0165512
604.781	0.0164074
604.859	0.0165502
604.937	0.0164925
605.015	0.0164457
605.093	0.0164559
605.171	0.0166206
605.249	0.0165374
605.328	0.0163961
605.406	0.0165836
605.484	0.0164579
605.562	0.0164507
605.640	0.0164246
605.718	0.0164827
605.796	0.0165633
605.874	0.0164926
605.953	0.0164687
606.031	0.0165624
606.109	0.0165176
606.187	0.0165295
606.265	0.0165902
606.343	0.0165150
606.421	0.0164645
606.499	0.0164938
606.578	0.0165615
606.656	0.0165216
606.734	0.0164899
606.812	0.0164622
606.890	0.0165639
606.968	0.0165570
607.046	0.0166084
607.124	0.0166466
607.203	0.0164631
607.281	0.0165222
607.359	0.0166752
607.437	0.0165610
607.515	0.0166151
607.593	0.0165273
607.671	0.0165427
607.749	0.0164807
607.828	0.0166283
607.906	0.0166074
607.984	0.0165402
608.062	0.0165438
608.140	0.0164509
608.218	0.0165023
608.296	0.0166851
608.374	0.0164581
608.453	0.0166100
608.531	0.0165899
608.609	0.0165719
608.687	0.0165958
608.765	0.0166675
608.843	0.0166234
608.921	0.0165140
608.999	0.0165645
609.078	0.0165986
609.156	0.0165677
609.234	0.0165817
609.312	0.0164848
609.390	0.0165039
609.468	0.0164603
609.546	0.0165334
609.624	0.0164558
609.703	0.0164387
609.781	0.0165945
609.859	0.0165677
609.937	0.0166222
610.015	0.0164870
610.093	0.0164807
610.171	0.0166153
610.249	0.0165189
610.328	0.0166098
610.406	0.0165288
610.484	0.0165048
610.562	0.0165816
610.640	0.0165678
610.718	0.0164821
610.796	0.0165495
610.874	0.0165361
610.953	0.0165333
611.031	0.0165199
611.109	0.0166061
611.187	0.0165341
611.265	0.0166243
611.343	0.0165543
611.421	0.0165204
611.499	0.0165801
611.578	0.0165630
611.656	0.0166750
611.734	0.0166129
611.812	0.0165756
611.890	0.0165356
611.968	0.0165680
612.046	0.0165816
612.124	0.0166720
612.203	0.0165262
612.281	0.0165290
612.359	0.0165047
612.437	0.0166129
612.515	0.0165947
612.593	0.0165214
612.671	0.0165652
612.749	0.0167182
612.828	0.0165831
612.906	0.0166227
612.984	0.0166074
613.062	0.0164761
613.140	0.0165118
613.218	0.0165204
613.296	0.0164820
613.374	0.0166311
613.453	0.0166328
613.531	0.0165039
613.609	0.0164474
613.687	0.0164465
613.765	0.0166504
613.843	0.0166006
613.921	0.0165198
613.999	0.0165697
614.078	0.0166342
614.156	0.0165849
614.234	0.0164727
614.312	0.0166483
614.390	0.0164056
614.468	0.0166042
614.546	0.0167336
614.624	0.0165400
614.703	0.0165748
614.781	0.0166822
614.859	0.0165565
614.937	0.0165144
615.015	0.0166390
615.093	0.0165432
615.171	0.0165800
615.249	0.0165792
615.328	0.0165464
615.406	0.0165237
615.484	0.0166842
615.562	0.0166232
615.640	0.0165852
615.718	0.0165260
615.796	0.0165547
615.874	0.0165289
615.953	0.0166370
616.031	0.0165614
616.109	0.0165755
616.187	0.0165965
616.265	0.0167287
616.343	0.0165800
616.421	0.0165902
616.499	0.0165295
616.578	0.0165908
616.656	0.0165499
616.734	0.0165704
616.812	0.0165157
616.890	0.0166362
616.968	0.0165961
617.046	0.0166833
617.124	0.0166456
617.203	0.0165788
617.281	0.0166736
617.359	0.0166743
617.437	0.0165845
617.515	0.0166348
617.593	0.0165767
617.671	0.0165746
617.749	0.0165656
617.828	0.0164338
617.906	0.0164912
617.984	0.0165408
618.062	0.0165461
618.140	0.0166103
618.218	0.0165400
618.296	0.0164935
618.374	0.0163835
618.453	0.0165208
618.531	0.0167461
618.609	0.0165821
618.687	0.0166305
618.765	0.0164621
618.843	0.0166092
618.921	0.0165643
618.999	0.0164677
619.078	0.0166402
619.156	0.0164507
619.234	0.0167049
619.312	0.0165200
619.390	0.0165450
619.468	0.0167183
619.546	0.0164359
619.624	0.0165958
619.703	0.0164522
619.781	0.0165257
619.859	0.0165069
619.937	0.0165887
620.015	0.0166262
620.093	0.0165031
620.171	0.0165314
620.249	0.0165137
620.328	0.0165438
620.406	0.0166029
620.484	0.0166015
620.562	0.0166106
620.640	0.0165428
620.718	0.0164897
620.796	0.0165204
620.874	0.0165546
620.953	0.0167159
621.031	0.0164987
621.109	0.0165632
621.187	0.0165264
621.265	0.0164111
621.343	0.0166252
621.421	0.0166073
621.499	0.0166479
621.578	0.0166327
621.656	0.0165919
621.734	0.0166038
621.812	0.0164835
621.890	0.0166976
621.968	0.0166467
622.046	0.0165229
622.124	0.0165767
622.203	0.0165487
622.281	0.0165205
622.359	0.0164722
622.437	0.0165610
622.515	0.0165601
622.593	0.0165405
622.671	0.0166462
622.749	0.0166367
622.828	0.0166446
622.906	0.0164886
622.984	0.0165994
623.062	0.0166630
623.140	0.0165177
623.218	0.0164822
623.296	0.0164499
623.374	0.0164760
623.453	0.0165097
623.531	0.0165363
623.609	0.0165269
623.687	0.0163747
623.765	0.0165002
623.843	0.0164877
623.921	0.0164566
623.999	0.0165117
624.078	0.0165474
624.156	0.0165293
624.234	0.0164521
624.312	0.0163943
624.390	0.0165257
624.468	0.0166353
624.546	0.0164307
624.624	0.0165916
624.703	0.0164877
624.781	0.0165325
624.859	0.0165051
624.937	0.0165631
625.015	0.0165245
625.093	0.0164700
625.171	0.0164275
625.249	0.0165141
625.328	0.0165501
625.406	0.0165602
625.484	0.0164454
625.562	0.0165088
625.640	0.0163268
625.718	0.0166148
625.796	0.0165617
625.874	0.0165113
625.953	0.0165099
626.031	0.0166264
626.109	0.0165738
626.187	0.0164497
626.265	0.0165851
626.343	0.0165002
626.421	0.0164622
626.499	0.0165127
626.578	0.0163994
626.656	0.0165089
626.734	0.0165508
626.812	0.0164619
626.890	0.0164321
626.968	0.0164662
627.046	0.0165219
627.124	0.0165118
627.203	0.0165263
627.281	0.0163496
627.359	0.0164807
627.437	0.0165964
627.515	0.0165221
627.593	0.0165823
627.671	0.0164999
627.749	0.0165740
627.828	0.0166961
627.906	0.0164833
627.984	0.0165311
628.062	0.0165289
628.140	0.0166530
628.218	0.0164844
628.296	0.0164529
628.374	0.0164928
628.453	0.0165577
628.531	0.0165387
628.609	0.0165623
628.687	0.0164462
628.765	0.0165423
628.843	0.0165443
628.921	0.0166411
628.999	0.0164715
629.078	0.0163779
629.156	0.0165433
629.234	0.0164458
629.312	0.0164174
629.390	0.0165174
629.468	0.0165304
629.546	0.0165614
629.624	0.0165399
629.703	0.0165088
629.781	0.0165888
629.859	0.0165548
629.937	0.0165348
630.015	0.0166691
630.093	0.0165530
630.171	0.0166208
630.249	0.0165298
630.328	0.0166466
630.406	0.0165677
630.484	0.0166397
630.562	0.0165781
630.640	0.0165285
630.718	0.0165845
630.796	0.0165398
630.874	0.0164777
630.953	0.0165937
631.031	0.0166063
631.109	0.0165041
631.187	0.0165851
631.265	0.0165366
631.343	0.0166441
631.421	0.0165945
631.499	0.0165629
631.578	0.0164053
631.656	0.0163599
631.734	0.0165984
631.812	0.0164789
631.890	0.0165662
631.968	0.0165689
632.046	0.0165164
632.124	0.0165723
632.203	0.0165851
632.281	0.0165015
632.359	0.0165049
632.437	0.0165101
632.515	0.0165912
632.593	0.0165035
632.671	0.0165540
632.749	0.0164980
632.828	0.0164066
632.906	0.0165814
632.984	0.0164019
633.062	0.0166057
633.140	0.0165616
633.218	0.0165409
633.296	0.0166907
633.374	0.0165978
633.453	0.0164955
633.531	0.0164946
633.609	0.0165028
633.687	0.0165672
633.765	0.0164893
633.843	0.0167266
633.921	0.0165170
633.999	0.0164816
634.078	0.0166644
634.156	0.0166816
634.234	0.0166667
634.312	0.0164951
634.390	0.0165457
634.468	0.0164867
634.546	0.0165324
634.624	0.0164276
634.703	0.0165669
634.781	0.0166106
634.859	0.0165835
634.937	0.0165224
635.015	0.0164436
635.093	0.0165370
635.171	0.0164919
635.249	0.0165013
635.328	0.0165734
635.406	0.0165483
635.484	0.0166199
635.562	0.0164826
635.640	0.0165221
635.718	0.0163663
635.796	0.0164234
635.874	0.0164336
635.953	0.0163746
636.031	0.0165677
636.109	0.0164344
636.187	0.0164745
636.265	0.0164951
636.343	0.0164581
636.421	0.0164389
636.499	0.0165985
636.578	0.0165290
636.656	0.0164365
636.734	0.0164717
636.812	0.0165427
636.890	0.0164616
636.968	0.0164234
637.046	0.0166378
637.124	0.0164346
637.203	0.0162700
637.281	0.0163988
637.359	0.0166533
637.437	0.0165369
637.515	0.0165205
637.593	0.0165697
637.671	0.0165118
637.749	0.0164284
637.828	0.0164617
637.906	0.0165030
637.984	0.0165899
638.062	0.0166246
638.140	0.0164874
638.218	0.0164567
638.296	0.0166412
638.374	0.0165272
638.453	0.0165701
638.531	0.0165352
638.609	0.0164735
638.687	0.0165574
638.765	0.0165311
638.843	0.0165062
638.921	0.0164857
638.999	0.0165793
639.078	0.0164543
639.156	0.0165417
639.234	0.0164172
639.312	0.0163990
639.390	0.0164519
639.468	0.0166080
639.546	0.0164089
639.624	0.0163548
639.703	0.0163693
639.781	0.0164611
639.859	0.0166050
639.937	0.0164716
640.015	0.0165158
640.093	0.0164991
640.171	0.0164995
640.249	0.0165889
640.328	0.0165356
640.406	0.0164888
640.484	0.0165034
640.562	0.0163822
640.640	0.0165819
640.718	0.0165615
640.796	0.0165067
640.874	0.0164138
640.953	0.0165337
641.031	0.0164634
641.109	0.0164088
641.187	0.0164518
641.265	0.0166216
641.343	0.0164581
641.421	0.0165475
641.499	0.0164919
641.578	0.0164757
641.656	0.0165699
641.734	0.0166184
641.812	0.0164462
641.890	0.0163932
641.968	0.0165366
642.046	0.0165395
642.124	0.0164299
642.203	0.0164793
642.281	0.0165709
642.359	0.0164884
642.437	0.0164008
642.515	0.0164388
642.593	0.0165626
642.671	0.0165041
642.749	0.0164075
642.828	0.0165327
642.906	0.0164934
642.984	0.0165408
643.062	0.0164894
643.140	0.0165049
643.218	0.0165118
643.296	0.0163998
643.374	0.0163904
643.453	0.0165282
643.531	0.0164894
643.609	0.0164803
643.687	0.0165009
643.765	0.0165301
643.843	0.0165549
643.921	0.0165997
643.999	0.0164240
644.078	0.0164741
644.156	0.0165511
644.234	0.0165595
644.312	0.0165037
644.390	0.0164244
644.468	0.0164410
644.546	0.0164813
644.624	0.0165618
644.703	0.0165340
644.781	0.0163458
644.859	0.0165208
644.937	0.0166104
645.015	0.0164640
645.093	0.0165472
645.171	0.0163811
645.249	0.0165269
645.328	0.0166222
645.406	0.0165201
645.484	0.0164921
645.562	0.0166209
645.640	0.0165179
645.718	0.0166473
645.796	0.0165576
645.874	0.0164312
645.953	0.0164310
646.031	0.0163915
646.109	0.0166828
646.187	0.0165572
646.265	0.0165842
646.343	0.0164166
646.421	0.0164651
646.499	0.0166016
646.578	0.0166432
646.656	0.0166247
646.734	0.0164610
646.812	0.0164904
646.890	0.0165645
646.968	0.0164866
647.046	0.0165524
647.124	0.0166304
647.203	0.0165664
647.281	0.0165569
647.359	0.0165854
647.437	0.0165498
647.515	0.0165197
647.593	0.0166199
647.671	0.0165561
647.749	0.0165826
647.828	0.0165053
647.906	0.0163575
647.984	0.0165092
648.062	0.0165603
648.140	0.0164289
648.218	0.0166249
648.296	0.0164186
648.374	0.0165086
648.453	0.0162867
648.531	0.0164132
648.609	0.0165100
648.687	0.0164084
648.765	0.0165237
648.843	0.0164248
648.921	0.0166184
648.999	0.0164884
649.078	0.0163978
649.156	0.0163741
649.234	0.0163423
649.312	0.0164889
649.390	0.0165552
649.468	0.0164806
649.546	0.0165211
649.624	0.0164771
649.703	0.0165091
649.781	0.0166419
649.859	0.0163841
649.937	0.0164402
650.015	0.0166261
650.093	0.0164548
650.171	0.0164713
650.249	0.0164942
650.328	0.0166154
650.406	0.0165225
650.484	0.0165577
650.562	0.0165327
650.640	0.0165148
650.718	0.0165522
650.796	0.0165773
650.874	0.0165543
650.953	0.0166287
651.031	0.0165453
651.109	0.0164683
651.187	0.0165404
651.265	0.0165090
651.343	0.0163760
651.421	0.0166006
651.499	0.0166636
651.578	0.0164906
651.656	0.0165745
651.734	0.0166021
651.812	0.0165340
651.890	0.0166125
651.968	0.0165508
652.046	0.0165434
652.124	0.0164701
652.203	0.0165263
652.281	0.0164346
652.359	0.0165363
652.437	0.0164745
652.515	0.0166280
652.593	0.0165602
652.671	0.0165719
652.749	0.0166011
652.828	0.0165913
652.906	0.0165513
652.984	0.0166096
653.062	0.0165847
653.140	0.0164600
653.218	0.0166569
653.296	0.0165831
653.374	0.0165944
653.453	0.0165056
653.531	0.0165421
653.609	0.0164999
653.687	0.0165873
653.765	0.0166177
653.843	0.0165779
653.921	0.0165880
653.999	0.0165570
654.078	0.0165958
654.156	0.0165607
654.234	0.0166734
654.312	0.0166201
654.390	0.0165465
654.468	0.0166767
654.546	0.0166802
654.624	0.0167270
654.703	0.0166206
654.781	0.0164983
654.859	0.0166177
654.937	0.0166013
655.015	0.0164900
655.093	0.0165657
655.171	0.0165216
655.249	0.0166035
655.328	0.0165952
655.406	0.0166093
655.484	0.0165737
655.562	0.0165514
655.640	0.0165110
655.718	0.0165456
655.796	0.0165776
655.874	0.0164883
655.953	0.0164855
656.031	0.0166371
656.109	0.0166004
656.187	0.0165292
656.265	0.0164384
656.343	0.0165327
656.421	0.0163881
656.499	0.0165665
656.578	0.0164944
656.656	0.0165324
656.734	0.0164063
656.812	0.0163802
656.890	0.0165141
656.968	0.0164988
657.046	0.0165816
657.124	0.0165843
657.203	0.0164886
657.281	0.0163768
657.359	0.0165051
657.437	0.0165802
657.515	0.0164913
657.593	0.0164931
657.671	0.0165221
657.749	0.0166209
657.828	0.0165376
657.906	0.0165743
657.984	0.0163991
658.062	0.0166052
658.140	0.0165062
658.218	0.0167152
658.296	0.0165511
658.374	0.0164191
658.453	0.0164754
658.531	0.0165859
658.609	0.0163672
658.687	0.0165371
658.765	0.0166335
658.843	0.0164690
658.921	0.0164991
658.999	0.0165350
659.078	0.0164890
659.156	0.0165945
659.234	0.0165276
659.312	0.0165136
659.390	0.0163897
659.468	0.0164979
659.546	0.0165785
659.624	0.0165385
659.703	0.0164087
659.781	0.0164153
659.859	0.0164463
659.937	0.0164557
660.015	0.0164188
660.093	0.0166374
660.171	0.0166729
660.249	0.0166041
660.328	0.0163989
660.406	0.0164676
660.484	0.0164568
660.562	0.0164871
660.640	0.0165508
660.718	0.0165521
660.796	0.0163929
660.874	0.0163940
660.953	0.0163181
661.031	0.0164880
661.109	0.0165336
661.187	0.0164148
661.265	0.0164828
661.343	0.0165880
661.421	0.0165437
661.499	0.0163398
661.578	0.0165508
661.656	0.0164870
661.734	0.0164211
661.812	0.0164685
661.890	0.0165595
661.968	0.0164980
662.046	0.0166975
662.124	0.0165283
662.203	0.0164419
662.281	0.0164455
662.359	0.0164561
662.437	0.0164983
662.515	0.0165061
662.593	0.0166046
662.671	0.0165916
662.749	0.0166489
662.828	0.0166148
662.906	0.0164836
662.984	0.0164558
663.062	0.0165149
663.140	0.0165811
663.218	0.0165586
663.296	0.0166402
663.374	0.0165842
663.453	0.0164474
663.531	0.0166395
663.609	0.0165261
663.687	0.0164026
663.765	0.0164984
663.843	0.0166287
663.921	0.0163546
663.999	0.0164409
664.078	0.0165923
664.156	0.0165613
664.234	0.0165456
664.312	0.0165018
664.390	0.0164537
664.468	0.0164069
664.546	0.0165429
664.624	0.0166640
664.703	0.0163779
664.781	0.0164198
664.859	0.0167050
664.937	0.0164388
665.015	0.0165714
665.093	0.0164899
665.171	0.0165777
665.249	0.0164713
665.328	0.0165105
665.406	0.0164808
665.484	0.0166270
665.562	0.0166150
665.640	0.0165450
665.718	0.0165862
665.796	0.0165188
665.874	0.0165945
665.953	0.0165200
666.031	0.0166021
666.109	0.0165345
666.187	0.0165421
666.265	0.0166294
666.343	0.0164779
666.421	0.0164904
666.499	0.0165322
666.578	0.0165440
666.656	0.0166333
666.734	0.0164127
666.812	0.0163869
666.890	0.0165316
666.968	0.0166710
667.046	0.0163994
667.124	0.0164758
667.203	0.0164803
667.281	0.0164944
667.359	0.0165003
667.437	0.0165739
667.515	0.0164773
667.593	0.0164603
667.671	0.0165505
667.749	0.0165698
667.828	0.0166042
667.906	0.0164942
667.984	0.0165678
668.062	0.0165316
668.140	0.0165653
668.218	0.0164246
668.296	0.0163900
668.374	0.0165679
668.453	0.0165710
668.531	0.0164976
668.609	0.0163744
668.687	0.0164878
668.765	0.0164568
668.843	0.0166541
668.921	0.0167287
668.999	0.0166031
669.078	0.0165891
669.156	0.0165527
669.234	0.0165136
669.312	0.0165205
669.390	0.0166596
669.468	0.0164130
669.546	0.0165990
669.624	0.0165208
669.703	0.0164771
669.781	0.0164896
669.859	0.0166045
669.937	0.0166888
670.015	0.0165804
670.093	0.0164902
670.171	0.0166077
670.249	0.0166046
670.328	0.0165322
670.406	0.0165424
670.484	0.0165890
670.562	0.0165652
670.640	0.0165935
670.718	0.0165405
670.796	0.0166237
670.874	0.0165998
670.953	0.0166057
671.031	0.0165455
671.109	0.0165559
671.187	0.0165312
671.265	0.0164600
671.343	0.0165781
671.421	0.0166238
671.499	0.0165174
671.578	0.0165932
671.656	0.0165854
671.734	0.0166473
671.812	0.0165559
671.890	0.0165866
671.968	0.0165084
672.046	0.0165116
672.124	0.0166172
672.203	0.0165649
672.281	0.0167135
672.359	0.0165638
672.437	0.0166927
672.515	0.0165668
672.593	0.0165826
672.671	0.0166525
672.749	0.0166008
672.828	0.0165224
672.906	0.0166765
672.984	0.0166949
673.062	0.0165288
673.140	0.0164890
673.218	0.0165691
673.296	0.0166104
673.374	0.0165987
673.453	0.0165030
673.531	0.0166414
673.609	0.0164975
673.687	0.0165838
673.765	0.0165269
673.843	0.0165465
673.921	0.0165845
673.999	0.0165322
674.078	0.0164961
674.156	0.0166924
674.234	0.0164392
674.312	0.0166022
674.390	0.0164998
674.468	0.0166603
674.546	0.0167464
674.624	0.0166164
674.703	0.0164989
674.781	0.0166193
674.859	0.0165961
674.937	0.0165157
675.015	0.0165103
675.093	0.0165807
675.171	0.0165612
675.249	0.0166495
675.328	0.0166021
675.406	0.0166034
675.484	0.0163757
675.562	0.0164886
675.640	0.0166213
675.718	0.0165688
675.796	0.0165505
675.874	0.0164220
675.953	0.0164972
676.031	0.0165962
676.109	0.0164492
676.187	0.0165556
676.265	0.0165571
676.343	0.0165054
676.421	0.0165314
676.499	0.0165829
676.578	0.0164112
676.656	0.0165331
676.734	0.0164546
676.812	0.0164560
676.890	0.0165553
676.968	0.0165846
677.046	0.0165441
677.124	0.0165620
677.203	0.0165451
677.281	0.0166049
677.359	0.0165350
677.437	0.0164510
677.515	0.0166100
677.593	0.0164896
677.671	0.0164363
677.749	0.0164682
677.828	0.0164314
677.906	0.0164418
677.984	0.0165575
678.062	0.0165176
678.140	0.0165578
678.218	0.0164994
678.296	0.0165651
678.374	0.0165719
678.453	0.0165178
678.531	0.0164818
678.609	0.0165806
678.687	0.0163970
678.765	0.0163657
678.843	0.0164757
678.921	0.0164787
678.999	0.0164627
679.078	0.0165390
679.156	0.0164972
679.234	0.0165383
679.312	0.0164513
679.390	0.0164742
679.468	0.0164960
679.546	0.0164621
679.624	0.0164394
679.703	0.0165601
679.781	0.0164098
679.859	0.0165187
679.937	0.0164737
680.015	0.0164956
680.093	0.0163976
680.171	0.0165321
680.249	0.0164948
680.328	0.0165132
680.406	0.0164138
680.484	0.0164767
680.562	0.0165069
680.640	0.0163385
680.718	0.0164138
680.796	0.0164008
680.874	0.0164526
680.953	0.0166218
681.031	0.0164577
681.109	0.0165161
681.187	0.0164442
681.265	0.0165109
681.343	0.0165095
681.421	0.0165263
681.499	0.0163846
681.578	0.0164911
681.656	0.0165107
681.734	0.0165295
681.812	0.0165223
681.890	0.0166263
681.968	0.0166385
682.046	0.0165431
682.124	0.0165283
682.203	0.0164971
682.281	0.0165646
682.359	0.0165401
682.437	0.0164303
682.515	0.0165223
682.593	0.0163765
682.671	0.0164696
682.749	0.0164414
682.828	0.0163981
682.906	0.0165316
682.984	0.0164452
683.062	0.0167136
683.140	0.0164151
683.218	0.0165930
683.296	0.0165279
683.374	0.0164516
683.453	0.0164484
683.531	0.0165669
683.609	0.0166498
683.687	0.0165238
683.765	0.0165777
683.843	0.0165850
683.921	0.0165743
683.999	0.0164258
684.078	0.0166307
684.156	0.0164681
684.234	0.0164726
684.312	0.0166166
684.390	0.0166032
684.468	0.0165041
684.546	0.0164653
684.624	0.0165514
684.703	0.0165595
684.781	0.0164262
684.859	0.0165265
684.937	0.0165470
685.015	0.0165136
685.093	0.0165845
685.171	0.0165057
685.249	0.0165763
685.328	0.0165221
685.406	0.0163988
685.484	0.0164457
685.562	0.0165979
685.640	0.0164669
685.718	0.0164513
685.796	0.0165950
685.874	0.0166276
685.953	0.0165714
686.031	0.0163970
686.109	0.0166529
686.187	0.0166293
686.265	0.0165464
686.343	0.0166270
686.421	0.0165256
686.499	0.0165679
686.578	0.0165495
686.656	0.0167401
686.734	0.0165941
686.812	0.0165545
686.890	0.0165923
686.968	0.0167667
687.046	0.0166499
687.124	0.0165857
687.203	0.0167754
687.281	0.0166770
687.359	0.0165916
687.437	0.0166251
687.515	0.0167038
687.593	0.0166946
687.671	0.0164993
687.749	0.0167326
687.828	0.0165728
687.906	0.0167622
687.984	0.0167059
688.062	0.0166770
688.140	0.0166885
688.218	0.0167101
688.296	0.0165961
688.374	0.0166098
688.453	0.0167392
688.531	0.0167529
688.609	0.0167022
688.687	0.0165939
688.765	0.0164130
688.843	0.0166019
688.921	0.0166505
688.999	0.0165628
689.078	0.0165321
689.156	0.0166382
689.234	0.0166602
689.312	0.0165282
689.390	0.0165423
689.468	0.0167124
689.546	0.0167027
689.624	0.0165701
689.703	0.0165497
689.781	0.0165361
689.859	0.0164838
689.937	0.0166043
690.015	0.0167113
690.093	0.0167036
690.171	0.0166283
690.249	0.0166569
690.328	0.0166582
690.406	0.0165607
690.484	0.0166669
690.562	0.0166488
690.640	0.0166296
690.718	0.0165714
690.796	0.0166673
690.874	0.0165284
690.953	0.0165147
691.031	0.0165747
691.109	0.0167071
691.187	0.0165075
691.265	0.0167222
691.343	0.0165268
691.421	0.0165936
691.499	0.0165583
691.578	0.0165817
691.656	0.0165898
691.734	0.0165845
691.812	0.0166437
691.890	0.0165388
691.968	0.0165586
692.046	0.0166631
692.124	0.0165481
692.203	0.0164878
692.281	0.0165015
692.359	0.0165665
692.437	0.0164976
692.515	0.0163526
692.593	0.0166592
692.671	0.0165536
692.749	0.0165908
692.828	0.0165414
692.906	0.0164644
692.984	0.0163771
693.062	0.0165994
693.140	0.0165416
693.218	0.0165450
693.296	0.0166158
693.374	0.0166219
693.453	0.0164737
693.531	0.0163914
693.609	0.0166618
693.687	0.0164824
693.765	0.0164137
693.843	0.0164687
693.921	0.0164141
693.999	0.0167159
694.078	0.0164838
694.156	0.0164203
694.234	0.0166675
694.312	0.0165028
694.390	0.0165768
694.468	0.0164477
694.546	0.0164659
694.624	0.0165580
694.703	0.0165602
694.781	0.0164671
694.859	0.0164500
694.937	0.0166672
695.015	0.0165570
695.093	0.0164493
695.171	0.0165006
695.249	0.0164626
695.328	0.0164935
695.406	0.0165376
695.484	0.0165517
695.562	0.0165668
695.640	0.0164833
695.718	0.0164632
695.796	0.0166953
695.874	0.0166740
695.953	0.0165183
696.031	0.0164256
696.109	0.0166114
696.187	0.0165484
696.265	0.0164670
696.343	0.0164373
696.421	0.0166296
696.499	0.0165286
696.578	0.0166022
696.656	0.0166490
696.734	0.0164269
696.812	0.0166230
696.890	0.0164058
696.968	0.0165767
697.046	0.0165929
697.124	0.0164429
697.203	0.0165684
697.281	0.0165972
697.359	0.0165726
697.437	0.0164701
697.515	0.0165483
697.593	0.0165368
697.671	0.0166365
697.749	0.0165098
697.828	0.0166148
697.906	0.0166944
697.984	0.0165092
698.062	0.0164580
698.140	0.0165155
698.218	0.0164999
698.296	0.0165621
698.374	0.0165419
698.453	0.0165443
698.531	0.0164649
698.609	0.0166052
698.687	0.0165479
698.765	0.0165780
698.843	0.0164307
698.921	0.0166347
698.999	0.0164705
699.078	0.0165612
699.156	0.0166628
699.234	0.0164635
699.312	0.0163515
699.390	0.0166710
699.468	0.0164937
699.546	0.0164693
699.624	0.0164838
699.703	0.0166102
699.781	0.0165089
699.859	0.0165217
699.937	0.0164295
700.015	0.0164765
700.093	0.0165147
700.171	0.0165302
700.249	0.0165176
700.328	0.0165532
700.406	0.0165836
700.484	0.0164678
700.562	0.0165216
700.640	0.0164332
700.718	0.0164503
700.796	0.0165273
700.874	0.0164064
700.953	0.0165469
701.031	0.0163644
701.109	0.0165067
701.187	0.0164585
701.265	0.0162820
701.343	0.0164659
701.421	0.0165270
701.499	0.0164513
701.578	0.0164066
701.656	0.0164332
701.734	0.0164478
701.812	0.0165263
701.890	0.0165738
701.968	0.0165307
702.046	0.0164698
702.124	0.0165419
702.203	0.0165263
702.281	0.0164983
702.359	0.0165395
702.437	0.0165565
702.515	0.0165061
702.593	0.0165540
702.671	0.0164723
702.749	0.0164185
702.828	0.0165986
702.906	0.0164519
702.984	0.0165257
703.062	0.0164290
703.140	0.0165391
703.218	0.0165438
703.296	0.0164838
703.374	0.0163415
703.453	0.0165154
703.531	0.0164692
703.609	0.0164646
703.687	0.0164498
703.765	0.0163977
703.843	0.0165729
703.921	0.0164305
703.999	0.0164609
704.078	0.0163636
704.156	0.0165697
704.234	0.0164612
704.312	0.0164855
704.390	0.0165154
704.468	0.0164716
704.546	0.0163838
704.624	0.0165075
704.703	0.0166122
704.781	0.0164919
704.859	0.0165079
704.937	0.0164219
705.015	0.0165299
705.093	0.0164977
705.171	0.0164954
705.249	0.0165862
705.328	0.0164948
705.406	0.0166251
705.484	0.0165567
705.562	0.0165477
705.640	0.0165444
705.718	0.0166089
705.796	0.0164816
705.874	0.0165017
705.953	0.0165881
706.031	0.0164807
706.109	0.0164498
706.187	0.0165976
706.265	0.0164392
706.343	0.0165515
706.421	0.0165545
706.499	0.0164536
706.578	0.0166083
706.656	0.0165847
706.734	0.0164128
706.812	0.0165749
706.890	0.0165535
706.968	0.0163593
707.046	0.0164759
707.124	0.0164664
707.203	0.0165850
707.281	0.0166292
707.359	0.0164732
707.437	0.0163603
707.515	0.0162977
707.593	0.0164614
707.671	0.0164510
707.749	0.0164391
707.828	0.0164808
707.906	0.0163985
707.984	0.0163862
708.062	0.0164569
708.140	0.0164465
708.218	0.0164436
708.296	0.0163515
708.374	0.0164246
708.453	0.0165186
708.531	0.0166017
708.609	0.0165482
708.687	0.0166580
708.765	0.0165302
708.843	0.0164531
708.921	0.0165865
708.999	0.0167104
709.078	0.0166159
709.156	0.0166553
709.234	0.0166638
709.312	0.0167451
709.390	0.0166418
709.468	0.0166410
709.546	0.0167258
709.624	0.0167168
709.703	0.0166946
709.781	0.0167859
709.859	0.0169022
709.937	0.0167059
710.015	0.0168689
710.093	0.0168489
710.171	0.0168386
710.249	0.0168244
710.328	0.0166293
710.406	0.0165932
710.484	0.0167065
710.562	0.0165788
710.640	0.0164680
710.718	0.0165898
710.796	0.0164465
710.874	0.0164028
710.953	0.0162791
711.031	0.0162129
711.109	0.0161510
711.187	0.0161326
711.265	0.0161285
711.343	0.0161052
711.421	0.0160906
711.499	0.0161849
711.578	0.0161990
711.656	0.0162363
711.734	0.0163140
711.812	0.0162844
711.890	0.0163486
711.968	0.0164484
712.046	0.0164427
712.124	0.0166483
712.203	0.0166652
712.281	0.0166545
712.359	0.0167554
712.437	0.0168690
712.515	0.0167947
712.593	0.0167471
712.671	0.0167620
712.749	0.0168988
712.828	0.0168722
712.906	0.0168205
712.984	0.0168750
713.062	0.0168918
713.140	0.0167087
713.218	0.0168240
713.296	0.0167431
713.374	0.0166719
713.453	0.0166435
713.531	0.0165964
713.609	0.0166331
713.687	0.0165468
713.765	0.0166124
713.843	0.0164490
713.921	0.0165418
713.999	0.0164111
714.078	0.0163905
714.156	0.0164978
714.234	0.0165688
714.312	0.0163843
714.390	0.0164969
714.468	0.0163950
714.546	0.0165241
714.624	0.0164382
714.703	0.0164635
714.781	0.0164008
714.859	0.0164687
714.937	0.0164378
715.015	0.0163751
715.093	0.0164118
715.171	0.0163895
715.249	0.0163240
715.328	0.0161502
715.406	0.0163833
715.484	0.0163079
715.562	0.0164738
715.640	0.0163969
715.718	0.0163506
715.796	0.0163223
715.874	0.0164240
715.953	0.0164252
716.031	0.0164893
716.109	0.0163829
716.187	0.0165082
716.265	0.0164778
716.343	0.0164935
716.421	0.0166201
716.499	0.0166403
716.578	0.0167268
716.656	0.0168200
716.734	0.0169268
716.812	0.0168794
716.890	0.0167932
716.968	0.0169038
717.046	0.0168470
717.124	0.0168494
717.203	0.0168166
717.281	0.0169678
717.359	0.0169106
717.437	0.0168098
717.515	0.0167737
717.593	0.0167264
717.671	0.0166290
717.749	0.0165713
717.828	0.0165173
717.906	0.0164539
717.984	0.0164957
718.062	0.0163198
718.140	0.0162949
718.218	0.0160156
718.296	0.0163600
718.374	0.0163067
718.453	0.0162862
718.531	0.0162091
718.609	0.0161893
718.687	0.0163354
718.765	0.0163324
718.843	0.0163701
718.921	0.0163633
718.999	0.0163127
719.078	0.0162965
719.156	0.0164470
719.234	0.0165353
719.312	0.0163686
719.390	0.0163727
719.468	0.0164682
719.546	0.0164799
719.624	0.0166335
719.703	0.0166314
719.781	0.0164477
719.859	0.0166771
719.937	0.0165913
720.015	0.0166119
720.093	0.0166293
720.171	0.0166376
720.249	0.0166885
720.328	0.0166328
720.406	0.0166994
720.484	0.0166904
720.562	0.0166544
720.640	0.0167004
720.718	0.0165716
720.796	0.0167606
720.874	0.0168636
720.953	0.0166443
721.031	0.0166196
721.109	0.0166919
721.187	0.0167180
721.265	0.0166218
721.343	0.0165990
721.421	0.0164446
721.499	0.0164623
721.578	0.0165322
721.656	0.0165036
721.734	0.0164884
721.812	0.0163916
721.890	0.0165318
721.968	0.0163618
722.046	0.0163719
722.124	0.0163686
722.203	0.0165087
722.281	0.0165013
722.359	0.0165241
722.437	0.0165962
722.515	0.0166396
722.593	0.0164594
722.671	0.0165473
722.749	0.0165099
722.828	0.0166242
722.906	0.0166289
722.984	0.0165295
723.062	0.0165228
723.140	0.0166319
723.218	0.0165224
723.296	0.0166549
723.374	0.0165246
723.453	0.0164752
723.531	0.0164217
723.609	0.0164729
723.687	0.0163840
723.765	0.0163097
723.843	0.0164925
723.921	0.0164673
723.999	0.0164787
724.078	0.0165466
724.156	0.0164118
724.234	0.0165508
724.312	0.0166174
724.390	0.0166206
724.468	0.0166760
724.546	0.0166796
724.624	0.0166606
724.703	0.0167294
724.781	0.0166226
724.859	0.0167818
724.937	0.0167684
725.015	0.0165639
725.093	0.0165932
725.171	0.0167278
725.249	0.0165658
725.328	0.0164561
725.406	0.0165622
725.484	0.0166521
725.562	0.0166183
725.640	0.0164363
725.718	0.0164219
725.796	0.0163737
725.874	0.0164109
725.953	0.0162501
726.031	0.0162300
726.109	0.0164474
726.187	0.0164011
726.265	0.0163422
726.343	0.0163905
726.421	0.0164004
726.499	0.0163442
726.578	0.0163548
726.656	0.0163122
726.734	0.0163542
726.812	0.0163857
726.890	0.0163083
726.968	0.0163326
727.046	0.0163926
727.124	0.0164860
727.203	0.0162919
727.281	0.0164625
727.359	0.0165601
727.437	0.0164812
727.515	0.0167677
727.593	0.0168008
727.671	0.0167546
727.749	0.0168375
727.828	0.0168935
727.906	0.0168588
727.984	0.0169683
728.062	0.0170473
728.140	0.0170684
728.218	0.0170113
728.296	0.0168751
728.374	0.0168755
728.453	0.0167822
728.531	0.0166941
728.609	0.0165015
728.687	0.0163425
728.765	0.0162124
728.843	0.0161879
728.921	0.0161320
728.999	0.0160400
729.078	0.0160863
729.156	0.0161315
729.234	0.0160950
729.312	0.0160011
729.390	0.0161181
729.468	0.0160952
729.546	0.0161748
729.624	0.0163450
729.703	0.0164110
729.781	0.0165501
729.859	0.0166512
729.937	0.0166625
730.015	0.0167345
730.093	0.0168589
730.171	0.0169086
730.249	0.0168781
730.328	0.0168957
730.406	0.0168432
730.484	0.0170219
730.562	0.0168150
730.640	0.0168053
730.718	0.0167175
730.796	0.0166734
730.874	0.0164413
730.953	0.0162933
731.031	0.0164199
731.109	0.0162315
731.187	0.0161353
731.265	0.0162044
731.343	0.0162494
731.421	0.0161426
731.499	0.0162125
731.578	0.0161913
731.656	0.0163605
731.734	0.0162224
731.812	0.0164787
731.890	0.0165376
731.968	0.0165290
732.046	0.0165705
732.124	0.0165571
732.203	0.0167696
732.281	0.0166919
732.359	0.0166453
732.437	0.0167874
732.515	0.0167051
732.593	0.0168588
732.671	0.0168106
732.749	0.0166357
732.828	0.0166582
732.906	0.0167016
732.984	0.0166348
733.062	0.0165355
733.140	0.0163407
733.218	0.0164099
733.296	0.0164890
733.374	0.0163921
733.453	0.0163932
733.531	0.0163805
733.609	0.0164126
733.687	0.0162586
733.765	0.0163144
733.843	0.0163751
733.921	0.0162601
733.999	0.0162363
734.078	0.0164394
734.156	0.0165934
734.234	0.0164531
734.312	0.0164328
734.390	0.0165584
734.468	0.0165083
734.546	0.0165257
734.624	0.0166100
734.703	0.0164800
734.781	0.0165624
734.859	0.0166911
734.937	0.0166249
735.015	0.0165464
735.093	0.0165226
735.171	0.0165008
735.249	0.0166380
735.328	0.0165310
735.406	0.0163988
735.484	0.0163869
735.562	0.0164337
735.640	0.0164143
735.718	0.0164156
735.796	0.0165069
735.874	0.0164042
735.953	0.0164863
736.031	0.0163756
736.109	0.0163570
736.187	0.0163111
736.265	0.0164754
736.343	0.0163225
736.421	0.0165217
736.499	0.0164404
736.578	0.0164160
736.656	0.0164945
736.734	0.0165429
736.812	0.0164060
736.890	0.0165814
736.968	0.0165708
737.046	0.0167283
737.124	0.0165556
737.203	0.0163258
737.281	0.0163956
737.359	0.0164575
737.437	0.0165304
737.515	0.0166386
737.593	0.0165402
737.671	0.0165218
737.749	0.0164410
737.828	0.0163818
737.906	0.0164713
737.984	0.0163974
738.062	0.0164401
738.140	0.0164239
738.218	0.0164381
738.296	0.0165112
738.374	0.0164666
738.453	0.0164296
738.531	0.0164671
738.609	0.0165247
738.687	0.0165856
738.765	0.0165247
738.843	0.0164531
738.921	0.0165118
738.999	0.0164452
739.078	0.0163374
739.156	0.0164120
739.234	0.0165594
739.312	0.0166056
739.390	0.0165067
739.468	0.0164500
739.546	0.0164170
739.624	0.0164232
739.703	0.0165188
739.781	0.0165188
739.859	0.0165703
739.937	0.0163992
740.015	0.0164824
740.093	0.0164919
740.171	0.0165681
740.249	0.0164993
740.328	0.0163659
740.406	0.0163956
740.484	0.0164838
740.562	0.0163875
740.640	0.0164735
740.718	0.0164113
740.796	0.0162734
740.874	0.0165636
740.953	0.0165379
741.031	0.0163054
741.109	0.0163297
741.187	0.0164623
741.265	0.0164721
741.343	0.0164120
741.421	0.0164286
741.499	0.0163670
741.578	0.0163762
741.656	0.0164133
741.734	0.0165361
741.812	0.0164845
741.890	0.0164590
741.968	0.0164303
742.046	0.0165948
742.124	0.0165177
742.203	0.0165010
742.281	0.0165151
742.359	0.0165285
742.437	0.0165754
742.515	0.0165224
742.593	0.0165347
742.671	0.0164854
742.749	0.0166615
742.828	0.0166197
742.906	0.0165683
742.984	0.0165377
743.062	0.0165175
743.140	0.0166102
743.218	0.0165621
743.296	0.0165471
743.374	0.0165671
743.453	0.0166777
743.531	0.0164754
743.609	0.0165740
743.687	0.0164259
743.765	0.0165012
743.843	0.0165277
743.921	0.0166626
743.999	0.0165395
744.078	0.0165210
744.156	0.0164314
744.234	0.0165263
744.312	0.0165116
744.390	0.0164240
744.468	0.0164738
744.546	0.0164128
744.624	0.0165085
744.703	0.0164735
744.781	0.0163579
744.859	0.0163697
744.937	0.0164417
745.015	0.0164751
745.093	0.0165015
745.171	0.0164743
745.249	0.0163787
745.328	0.0165382
745.406	0.0163892
745.484	0.0164882
745.562	0.0165108
745.640	0.0164036
745.718	0.0164483
745.796	0.0164797
745.874	0.0164267
745.953	0.0164784
746.031	0.0166363
746.109	0.0164857
746.187	0.0164665
746.265	0.0166111
746.343	0.0165840
746.421	0.0164093
746.499	0.0166029
746.578	0.0166152
746.656	0.0165187
746.734	0.0165092
746.812	0.0165865
746.890	0.0166530
746.968	0.0166619
747.046	0.0166675
747.124	0.0166082
747.203	0.0166034
747.281	0.0167695
747.359	0.0166849
747.437	0.0165995
747.515	0.0165455
747.593	0.0165919
747.671	0.0167123
747.749	0.0166855
747.828	0.0166384
747.906	0.0166464
747.984	0.0165874
748.062	0.0166125
748.140	0.0165217
748.218	0.0164203
748.296	0.0165002
748.374	0.0166983
748.453	0.0165760
748.531	0.0165013
748.609	0.0164518
748.687	0.0165115
748.765	0.0166343
748.843	0.0165060
748.921	0.0165706
748.999	0.0165607
749.078	0.0166005
749.156	0.0165582
749.234	0.0165529
749.312	0.0164686
749.390	0.0163531
749.468	0.0163990
749.546	0.0165000
749.624	0.0164175
749.703	0.0164437
749.781	0.0165108
749.859	0.0166434
749.937	0.0166392
750.015	0.0165912
750.093	0.0165071
750.171	0.0165829
750.249	0.0165182
750.328	0.0165483
750.406	0.0165959
750.484	0.0166719
750.562	0.0166228
750.640	0.0166695
750.718	0.0166868
750.796	0.0166428
750.874	0.0166051
750.953	0.0166726
751.031	0.0166182
751.109	0.0166418
751.187	0.0166192
751.265	0.0166483
751.343	0.0166575
751.421	0.0165958
751.499	0.0166154
751.578	0.0165346
751.656	0.0163876
751.734	0.0164616
751.812	0.0164329
751.890	0.0165078
751.968	0.0164700
752.046	0.0165561
752.124	0.0165351
752.203	0.0164793
752.281	0.0165045
752.359	0.0165577
752.437	0.0163910
752.515	0.0165163
752.593	0.0164832
752.671	0.0163528
752.749	0.0164644
752.828	0.0164401
752.906	0.0163950
752.984	0.0164150
753.062	0.0163607
753.140	0.0164616
753.218	0.0164109
753.296	0.0163931
753.374	0.0164260
753.453	0.0163520
753.531	0.0164460
753.609	0.0163933
753.687	0.0163208
753.765	0.0164841
753.843	0.0165123
753.921	0.0164045
753.999	0.0164773
754.078	0.0164751
754.156	0.0164463
754.234	0.0165520
754.312	0.0164897
754.390	0.0164993
754.468	0.0165226
754.546	0.0165827
754.624	0.0164687
754.703	0.0165890
754.781	0.0165698
754.859	0.0165297
754.937	0.0164288
755.015	0.0165204
755.093	0.0166962
755.171	0.0166189
755.249	0.0164826
755.328	0.0165690
755.406	0.0166628
755.484	0.0164799
755.562	0.0164597
755.640	0.0165966
755.718	0.0163989
755.796	0.0164360
755.874	0.0163290
755.953	0.0163279
756.031	0.0163006
756.109	0.0162923
756.187	0.0164456
756.265	0.0163784
756.343	0.0161665
756.421	0.0164329
756.499	0.0163463
756.578	0.0164362
756.656	0.0164604
756.734	0.0163367
756.812	0.0163535
756.890	0.0163252
756.968	0.0164291
757.046	0.0164711
757.124	0.0164169
757.203	0.0163415
757.281	0.0164919
757.359	0.0163827
757.437	0.0164421
757.515	0.0164836
757.593	0.0164425
757.671	0.0164481
757.749	0.0163994
757.828	0.0163500
757.906	0.0164241
757.984	0.0163821
758.062	0.0163544
758.140	0.0163146
758.218	0.0163743
758.296	0.0162727
758.374	0.0162991
758.453	0.0162317
758.531	0.0163256
758.609	0.0163869
758.687	0.0163246
758.765	0.0163219
758.843	0.0163374
758.921	0.0164546
758.999	0.0163754
759.078	0.0163586
759.156	0.0164941
759.234	0.0164859
759.312	0.0166740
759.390	0.0166378
759.468	0.0167362
759.546	0.0168473
759.624	0.0167117
759.703	0.0167433
759.781	0.0166547
759.859	0.0166806
759.937	0.0166647
760.015	0.0167434
760.093	0.0166694
760.171	0.0166611
760.249	0.0166014
760.328	0.0165892
760.406	0.0166014
760.484	0.0164877
760.562	0.0164323
760.640	0.0164172
760.718	0.0163159
760.796	0.0163769
760.874	0.0162951
760.953	0.0164164
761.031	0.0160891
761.109	0.0161416
761.187	0.0160691
761.265	0.0160363
761.343	0.0161591
761.421	0.0161456
761.499	0.0161443
761.578	0.0161910
761.656	0.0161684
761.734	0.0162376
761.812	0.0163256
761.890	0.0162784
761.968	0.0163091
762.046	0.0164246
762.124	0.0164076
762.203	0.0166002
762.281	0.0166644
762.359	0.0166494
762.437	0.0167739
762.515	0.0169190
762.593	0.0169128
762.671	0.0169202
762.749	0.0169242
762.828	0.0169623
762.906	0.0169360
762.984	0.0169148
763.062	0.0169156
763.140	0.0167232
763.218	0.0168611
763.296	0.0167583
763.374	0.0166441
763.453	0.0165905
763.531	0.0165264
763.609	0.0166468
763.687	0.0164459
763.765	0.0164262
763.843	0.0164191
763.921	0.0162151
763.999	0.0161521
764.078	0.0162864
764.156	0.0163764
764.234	0.0159806
764.312	0.0161658
764.390	0.0160563
764.468	0.0160725
764.546	0.0160043
764.624	0.0160317
764.703	0.0160570
764.781	0.0160960
764.859	0.0161424
764.937	0.0162692
765.015	0.0163654
765.093	0.0163055
765.171	0.0166652
765.249	0.0166789
765.328	0.0169123
765.406	0.0169850
765.484	0.0169946
765.562	0.0170918
765.640	0.0171054
765.718	0.0172228
765.796	0.0171549
765.874	0.0172420
765.953	0.0173091
766.031	0.0173322
766.109	0.0170912
766.187	0.0171379
766.265	0.0171059
766.343	0.0170893
766.421	0.0168041
766.499	0.0166679
766.578	0.0167001
766.656	0.0164993
766.734	0.0162402
766.812	0.0162273
766.890	0.0161987
766.968	0.0160239
767.046	0.0160065
767.124	0.0159164
767.203	0.0158608
767.281	0.0158103
767.359	0.0159695
767.437	0.0159875
767.515	0.0161374
767.593	0.0160980
767.671	0.0163130
767.749	0.0163219
767.828	0.0164185
767.906	0.0163501
767.984	0.0164648
768.062	0.0163293
768.140	0.0164513
768.218	0.0165303
768.296	0.0164678
768.374	0.0165589
768.453	0.0166080
768.531	0.0165448
768.609	0.0166943
768.687	0.0167024
768.765	0.0167264
768.843	0.0167173
768.921	0.0168484
768.999	0.0169149
769.078	0.0169411
769.156	0.0168600
769.234	0.0169543
769.312	0.0170276
769.390	0.0169858
769.468	0.0169125
769.546	0.0169576
769.624	0.0167991
769.703	0.0167576
769.781	0.0168468
769.859	0.0168203
769.937	0.0166529
770.015	0.0166013
770.093	0.0166591
770.171	0.0164465
770.249	0.0164445
770.328	0.0163566
770.406	0.0164107
770.484	0.0163388
770.562	0.0162369
770.640	0.0162244
770.718	0.0162562
770.796	0.0162224
770.874	0.0162804
770.953	0.0162440
771.031	0.0162078
771.109	0.0163572
771.187	0.0163151
771.265	0.0165437
771.343	0.0163910
771.421	0.0165442
771.499	0.0166076
771.578	0.0165198
771.656	0.0164656
771.734	0.0165932
771.812	0.0167257
771.890	0.0167184
771.968	0.0165510
772.046	0.0165988
772.124	0.0166655
772.203	0.0165772
772.281	0.0167158
772.359	0.0165996
772.437	0.0165080
772.515	0.0164352
772.593	0.0164379
772.671	0.0162476
772.749	0.0162311
772.828	0.0162622
772.906	0.0162962
772.984	0.0162557
773.062	0.0163802
773.140	0.0164307
773.218	0.0164029
773.296	0.0164681
773.374	0.0165318
773.453	0.0167041
773.531	0.0167265
773.609	0.0168401
773.687	0.0170155
773.765	0.0169187
773.843	0.0168280
773.921	0.0170367
773.999	0.0171651
774.078	0.0169051
774.156	0.0170299
774.234	0.0169353
774.312	0.0170194
774.390	0.0170525
774.468	0.0169113
774.546	0.0170649
774.624	0.0170430
774.703	0.0169646
774.781	0.0169952
774.859	0.0171258
774.937	0.0170813
775.015	0.0171788
775.093	0.0170377
775.171	0.0170485
775.249	0.0169675
775.328	0.0170056
775.406	0.0166898
775.484	0.0167979
775.562	0.0167560
775.640	0.0164952
775.718	0.0164328
775.796	0.0164085
775.874	0.0161074
775.953	0.0159539
776.031	0.0157258
776.109	0.0156982
776.187	0.0155593
776.265	0.0155068
776.343	0.0155888
776.421	0.0156784
776.499	0.0155582
776.578	0.0157233
776.656	0.0155762
776.734	0.0159055
776.812	0.0158967
776.890	0.0159554
776.968	0.0160764
777.046	0.0162482
777.124	0.0164156
777.203	0.0166033
777.281	0.0165758
777.359	0.0168187
777.437	0.0166753
777.515	0.0167912
777.593	0.0169154
777.671	0.0169431
777.749	0.0170715
777.828	0.0170705
777.906	0.0172265
777.984	0.0171912
778.062	0.0172311
778.140	0.0171135
778.218	0.0172670
778.296	0.0172981
778.374	0.0171626
778.453	0.0172319
778.531	0.0172643
778.609	0.0172424
778.687	0.0172902
778.765	0.0171140
778.843	0.0169321
778.921	0.0169900
778.999	0.0169301
779.078	0.0167486
779.156	0.0166602
779.234	0.0165588
779.312	0.0163684
779.390	0.0163134
779.468	0.0163344
779.546	0.0161664
779.624	0.0161809
779.703	0.0158733
779.781	0.0160109
779.859	0.0159974
779.937	0.0160534
780.015	0.0160181
780.093	0.0160252
780.171	0.0160748
780.249	0.0158768
780.328	0.0161222
780.406	0.0162744
780.484	0.0161050
780.562	0.0162656
780.640	0.0162267
780.718	0.0162126
780.796	0.0162017
780.874	0.0161568
780.953	0.0162521
781.031	0.0162658
781.109	0.0161488
781.187	0.0161109
781.265	0.0162608
781.343	0.0161990
781.421	0.0161083
781.499	0.0162156
781.578	0.0162002
781.656	0.0161863
781.734	0.0162028
781.812	0.0162946
781.890	0.0162662
781.968	0.0161718
782.046	0.0162325
782.124	0.0163240
782.203	0.0164646
782.281	0.0163579
782.359	0.0163284
782.437	0.0165600
782.515	0.0166142
782.593	0.0165763
782.671	0.0169051
782.749	0.0168492
782.828	0.0168661
782.906	0.0169955
782.984	0.0172435
783.062	0.0170952
783.140	0.0172041
783.218	0.0173857
783.296	0.0173553
783.374	0.0173690
783.453	0.0173763
783.531	0.0174232
783.609	0.0175214
783.687	0.0172224
783.765	0.0173233
783.843	0.0172836
783.921	0.0170734
783.999	0.0168487
784.078	0.0167437
784.156	0.0166959
784.234	0.0165504
784.312	0.0163669
784.390	0.0162825
784.468	0.0160558
784.546	0.0159425
784.624	0.0157937
784.703	0.0156944
784.781	0.0155730
784.859	0.0155063
784.937	0.0154705
785.015	0.0156332
785.093	0.0154708
785.171	0.0154435
785.249	0.0155512
785.328	0.0155020
785.406	0.0156552
785.484	0.0157774
785.562	0.0157026
785.640	0.0159822
785.718	0.0160859
785.796	0.0161350
785.874	0.0162560
785.953	0.0164664
786.031	0.0165202
786.109	0.0165755
786.187	0.0167760
786.265	0.0167735
786.343	0.0169178
786.421	0.0169018
786.499	0.0170247
786.578	0.0169741
786.656	0.0170303
786.734	0.0170696
786.812	0.0170740
786.890	0.0172366
786.968	0.0171914
787.046	0.0170656
787.124	0.0171617
787.203	0.0173727
787.281	0.0173997
787.359	0.0173315
787.437	0.0172642
787.515	0.0173058
787.593	0.0172829
787.671	0.0171734
787.749	0.0171124
787.828	0.0171026
787.906	0.0169594
787.984	0.0168680
788.062	0.0170123
788.140	0.0165715
788.218	0.0164800
788.296	0.0164978
788.374	0.0164852
788.453	0.0161401
788.531	0.0160288
788.609	0.0161462
788.687	0.0160548
788.765	0.0159446
788.843	0.0159882
788.921	0.0159734
788.999	0.0159426
789.078	0.0159447
789.156	0.0160209
789.234	0.0160416
789.312	0.0161607
789.390	0.0159626
789.468	0.0160475
789.546	0.0160072
789.624	0.0159637
789.703	0.0160410
789.781	0.0160031
789.859	0.0160654
789.937	0.0160037
790.015	0.0158369
790.093	0.0158436
790.171	0.0159435
790.249	0.0158389
790.328	0.0159164
790.406	0.0159817
790.484	0.0161301
790.562	0.0161956
790.640	0.0161731
790.718	0.0163133
790.796	0.0165530
790.874	0.0167655
790.953	0.0167210
791.031	0.0169927
791.109	0.0171940
791.187	0.0174646
791.265	0.0174646
791.343	0.0176730
791.421	0.0178419
791.499	0.0178788
791.578	0.0179156
791.656	0.0180063
791.734	0.0178489
791.812	0.0179256
791.890	0.0180400
791.968	0.0178738
792.046	0.0178833
792.124	0.0177065
792.203	0.0175978
792.281	0.0174258
792.359	0.0171442
792.437	0.0170105
792.515	0.0169670
792.593	0.0166545
792.671	0.0163966
792.749	0.0163104
792.828	0.0161990
792.906	0.0161511
792.984	0.0158553
793.062	0.0157852
793.140	0.0156779
793.218	0.0155090
793.296	0.0154570
793.374	0.0154911
793.453	0.0153853
793.531	0.0153894
793.609	0.0153764
793.687	0.0154826
793.765	0.0155549
793.843	0.0155491
793.921	0.0155869
793.999	0.0156996
794.078	0.0156646
794.156	0.0157734
794.234	0.0158878
794.312	0.0158009
794.390	0.0158801
794.468	0.0160313
794.546	0.0162077
794.624	0.0161783
794.703	0.0163496
794.781	0.0163416
794.859	0.0164680
794.937	0.0167455
795.015	0.0167239
795.093	0.0169887
795.171	0.0170461
795.249	0.0171806
795.328	0.0173363
795.406	0.0172417
795.484	0.0173969
795.562	0.0174531
795.640	0.0174613
795.718	0.0175113
795.796	0.0173875
795.874	0.0174748
795.953	0.0174915
796.031	0.0174925
796.109	0.0176581
796.187	0.0175674
796.265	0.0175047
796.343	0.0173461
796.421	0.0173835
796.499	0.0173144
796.578	0.0172800
796.656	0.0170787
796.734	0.0169221
796.812	0.0169804
796.890	0.0168719
796.968	0.0166196
797.046	0.0165198
797.124	0.0164049
797.203	0.0162498
797.281	0.0162769
797.359	0.0160842
797.437	0.0160557
797.515	0.0158784
797.593	0.0158399
797.671	0.0159032
797.749	0.0157311
797.828	0.0157752
797.906	0.0156985
797.984	0.0157463
798.062	0.0159033
798.140	0.0157383
798.218	0.0159102
798.296	0.0159698
798.374	0.0159624
798.453	0.0161340
798.531	0.0162399
798.609	0.0161861
798.687	0.0161510
798.765	0.0160365
798.843	0.0160694
798.921	0.0160437
798.999	0.0160608
799.078	0.0161259
799.156	0.0160894
799.234	0.0159426
799.312	0.0162206
799.390	0.0162904
799.468	0.0163386
799.546	0.0164029
799.624	0.0167482
799.703	0.0166891
799.781	0.0168376
799.859	0.0170889
799.937	0.0170495
800.015	0.0172906
800.093	0.0172369
800.171	0.0173594
800.249	0.0172667
800.328	0.0173295
800.406	0.0173862
800.484	0.0173478
800.562	0.0173607
800.640	0.0172330
800.718	0.0171201
800.796	0.0170437
800.874	0.0169269
800.953	0.0167287
801.031	0.0166901
801.109	0.0166306
801.187	0.0163741
801.265	0.0162727
801.343	0.0161705
801.421	0.0162531
801.499	0.0159892
801.578	0.0158855
801.656	0.0159042
801.734	0.0159508
801.812	0.0158723
801.890	0.0159589
801.968	0.0159890
802.046	0.0161043
802.124	0.0161496
802.203	0.0162748
802.281	0.0162907
802.359	0.0163206
802.437	0.0162070
802.515	0.0163595
802.593	0.0163952
802.671	0.0164178
802.749	0.0162793
802.828	0.0162783
802.906	0.0164594
802.984	0.0164809
803.062	0.0163984
803.140	0.0164094
803.218	0.0162860
803.296	0.0162500
803.374	0.0162893
803.453	0.0163147
803.531	0.0162824
803.609	0.0165583
803.687	0.0165150
803.765	0.0162446
803.843	0.0164303
803.921	0.0164393
803.999	0.0166662
804.078	0.0165637
804.156	0.0164828
804.234	0.0167680
804.312	0.0167223
804.390	0.0166321
804.468	0.0168061
804.546	0.0168592
804.624	0.0168130
804.703	0.0168960
804.781	0.0168081
804.859	0.0168812
804.937	0.0168105
805.015	0.0167612
805.093	0.0167619
805.171	0.0167103
805.249	0.0167041
805.328	0.0165501
805.406	0.0166559
805.484	0.0164362
805.562	0.0164771
805.640	0.0165060
805.718	0.0162994
805.796	0.0163098
805.874	0.0162492
805.953	0.0161472
806.031	0.0161505
806.109	0.0161167
806.187	0.0162976
806.265	0.0162533
806.343	0.0161687
806.421	0.0162487
806.499	0.0161388
806.578	0.0161418
806.656	0.0162222
806.734	0.0159504
806.812	0.0160748
806.890	0.0161481
806.968	0.0160898
807.046	0.0160659
807.124	0.0159867
807.203	0.0159539
807.281	0.0161201
807.359	0.0161610
807.437	0.0162960
807.515	0.0162297
807.593	0.0162922
807.671	0.0163094
807.749	0.0163889
807.828	0.0164360
807.906	0.0167385
807.984	0.0168581
808.062	0.0168448
808.140	0.0170577
808.218	0.0171827
808.296	0.0173218
808.374	0.0171534
808.453	0.0172533
808.531	0.0173096
808.609	0.0172453
808.687	0.0172637
808.765	0.0172993
808.843	0.0169854
808.921	0.0170399
808.999	0.0168610
809.078	0.0167762
809.156	0.0165861
809.234	0.0164029
809.312	0.0164502
809.390	0.0161696
809.468	0.0162519
809.546	0.0160088
809.624	0.0159337
809.703	0.0160661
809.781	0.0160509
809.859	0.0159955
809.937	0.0160778
810.015	0.0161370
810.093	0.0162502
810.171	0.0163243
810.249	0.0163033
810.328	0.0164411
810.406	0.0165734
810.484	0.0165980
810.562	0.0168386
810.640	0.0167764
810.718	0.0167785
810.796	0.0168677
810.874	0.0169470
810.953	0.0169933
811.031	0.0170723
811.109	0.0170129
811.187	0.0170736
811.265	0.0169018
811.343	0.0169753
811.421	0.0169205
811.499	0.0168529
811.578	0.0167487
811.656	0.0166911
811.734	0.0165903
811.812	0.0164855
811.890	0.0163287
811.968	0.0162702
812.046	0.0160700
812.124	0.0161127
812.203	0.0159097
812.281	0.0159474
812.359	0.0159192
812.437	0.0159227
812.515	0.0158861
812.593	0.0159206
812.671	0.0158775
812.749	0.0158105
812.828	0.0158218
812.906	0.0159297
812.984	0.0160514
813.062	0.0162589
813.140	0.0163821
813.218	0.0164213
813.296	0.0164222
813.374	0.0166908
813.453	0.0167747
813.531	0.0170100
813.609	0.0170546
813.687	0.0169823
813.765	0.0171910
813.843	0.0170561
813.921	0.0171061
813.999	0.0170959
814.078	0.0170570
814.156	0.0170484
814.234	0.0169662
814.312	0.0170802
814.390	0.0169983
814.468	0.0169104
814.546	0.0169163
814.624	0.0168082
814.703	0.0168695
814.781	0.0167307
814.859	0.0165849
814.937	0.0167758
815.015	0.0168045
815.093	0.0167617
815.171	0.0167772
815.249	0.0167422
815.328	0.0166376
815.406	0.0165842
815.484	0.0165600
815.562	0.0165760
815.640	0.0166611
815.718	0.0164650
815.796	0.0165858
815.874	0.0164213
815.953	0.0164755
816.031	0.0164479
816.109	0.0164544
816.187	0.0165255
816.265	0.0166084
816.343	0.0165336
816.421	0.0166016
816.499	0.0167419
816.578	0.0167299
816.656	0.0168180
816.734	0.0169247
816.812	0.0168634
816.890	0.0168530
816.968	0.0167105
817.046	0.0168513
817.124	0.0168046
817.203	0.0167499
817.281	0.0167297
817.359	0.0167436
817.437	0.0165613
817.515	0.0165237
817.593	0.0164724
817.671	0.0163604
817.749	0.0162212
817.828	0.0161465
817.906	0.0160543
817.984	0.0160131
818.062	0.0160136
818.140	0.0160514
818.218	0.0159002
818.296	0.0160586
818.374	0.0160466
818.453	0.0162265
818.531	0.0161581
818.609	0.0163817
818.687	0.0164095
818.765	0.0164307
818.843	0.0163947
818.921	0.0166011
818.999	0.0168237
819.078	0.0167469
819.156	0.0168748
819.234	0.0168467
819.312	0.0170056
819.390	0.0169958
819.468	0.0170337
819.546	0.0169836
819.624	0.0170383
819.703	0.0170254
819.781	0.0169828
819.859	0.0170963
819.937	0.0171799
820.015	0.0171111
820.093	0.0170155
820.171	0.0169370
820.249	0.0169679
820.328	0.0168760
820.406	0.0168269
820.484	0.0169385
820.562	0.0167886
820.640	0.0167624
820.718	0.0166788
820.796	0.0165841
820.874	0.0167206
820.953	0.0165523
821.031	0.0164492
821.109	0.0164701
821.187	0.0164977
821.265	0.0164449
821.343	0.0165555
821.421	0.0164488
821.499	0.0162776
821.578	0.0163257
821.656	0.0164227
821.734	0.0163080
821.812	0.0165213
821.890	0.0163161
821.968	0.0164339
822.046	0.0163964
822.124	0.0163497
822.203	0.0164925
822.281	0.0165018
822.359	0.0165813
822.437	0.0165996
822.515	0.0166107
822.593	0.0166060
822.671	0.0164725
822.749	0.0165990
822.828	0.0166076
822.906	0.0165974
822.984	0.0165999
823.062	0.0165323
823.140	0.0164996
823.218	0.0164815
823.296	0.0164767
823.374	0.0162107
823.453	0.0163184
823.531	0.0163229
823.609	0.0162507
823.687	0.0161652
823.765	0.0161944
823.843	0.0160355
823.921	0.0160513
823.999	0.0162172
824.078	0.0159762
824.156	0.0159229
824.234	0.0160448
824.312	0.0160518
824.390	0.0160825
824.468	0.0162351
824.546	0.0161717
824.624	0.0164022
824.703	0.0161868
824.781	0.0162392
824.859	0.0165028
824.937	0.0163306
825.015	0.0164824
825.093	0.0164650
825.171	0.0165497
825.249	0.0166934
825.328	0.0166663
825.406	0.0166872
825.484	0.0166995
825.562	0.0166267
825.640	0.0165560
825.718	0.0165665
825.796	0.0166494
825.874	0.0164867
825.953	0.0166051
826.031	0.0166657
826.109	0.0165621
826.187	0.0166247
826.265	0.0165733
826.343	0.0166056
826.421	0.0164599
826.499	0.0165539
826.578	0.0166278
826.656	0.0164992
826.734	0.0164989
826.812	0.0165414
826.890	0.0165755
826.968	0.0165741
827.046	0.0165762
827.124	0.0164778
827.203	0.0164069
827.281	0.0164922
827.359	0.0165527
827.437	0.0164149
827.515	0.0164364
827.593	0.0164999
827.671	0.0165530
827.749	0.0165524
827.828	0.0164331
827.906	0.0164407
827.984	0.0164759
828.062	0.0165504
828.140	0.0167673
828.218	0.0165945
828.296	0.0165536
828.374	0.0166251
828.453	0.0166872
828.531	0.0166356
828.609	0.0167333
828.687	0.0166869
828.765	0.0168055
828.843	0.0166470
828.921	0.0166742
828.999	0.0165797
829.078	0.0166268
829.156	0.0165170
829.234	0.0164516
829.312	0.0163769
829.390	0.0165749
829.468	0.0164679
829.546	0.0163230
829.624	0.0163163
829.703	0.0164017
829.781	0.0162286
829.859	0.0162954
829.937	0.0161465
830.015	0.0161070
830.093	0.0161926
830.171	0.0160036
830.249	0.0159711
830.328	0.0159981
830.406	0.0160305
830.484	0.0160901
830.562	0.0159554
830.640	0.0160945
830.718	0.0161681
830.796	0.0162330
830.874	0.0160908
830.953	0.0161961
831.031	0.0162946
831.109	0.0162669
831.187	0.0162939
831.265	0.0164428
831.343	0.0165211
831.421	0.0164756
831.499	0.0166086
831.578	0.0167475
831.656	0.0167286
831.734	0.0166718
831.812	0.0168307
831.890	0.0168628
831.968	0.0168112
832.046	0.0168567
832.124	0.0168794
832.203	0.0168213
832.281	0.0167931
832.359	0.0166555
832.437	0.0168295
832.515	0.0168733
832.593	0.0168089
832.671	0.0169030
832.749	0.0168703
832.828	0.0167129
832.906	0.0165846
832.984	0.0169086
833.062	0.0166261
833.140	0.0167393
833.218	0.0167975
833.296	0.0166613
833.374	0.0166609
833.453	0.0167091
833.531	0.0166084
833.609	0.0165394
833.687	0.0165468
833.765	0.0164993
833.843	0.0165337
833.921	0.0165410
833.999	0.0163779
834.078	0.0164214
834.156	0.0165413
834.234	0.0164554
834.312	0.0165697
834.390	0.0164766
834.468	0.0165538
834.546	0.0165406
834.624	0.0165614
834.703	0.0165702
834.781	0.0166452
834.859	0.0166547
834.937	0.0167803
835.015	0.0166718
835.093	0.0167803
835.171	0.0167167
835.249	0.0166976
835.328	0.0166856
835.406	0.0166476
835.484	0.0167594
835.562	0.0167702
835.640	0.0167048
835.718	0.0167086
835.796	0.0165209
835.874	0.0166865
835.953	0.0167827
836.031	0.0166626
836.109	0.0165513
836.187	0.0164211
836.265	0.0164948
836.343	0.0165048
836.421	0.0164978
836.499	0.0165357
836.578	0.0162845
836.656	0.0163605
836.734	0.0165116
836.812	0.0163023
836.890	0.0164708
836.968	0.0163970
837.046	0.0163580
837.124	0.0164486
837.203	0.0164751
837.281	0.0164218
837.359	0.0164335
837.437	0.0164364
837.515	0.0163486
837.593	0.0164596
837.671	0.0164256
837.749	0.0163770
837.828	0.0164890
837.906	0.0163710
837.984	0.0164866
838.062	0.0164539
838.140	0.0165064
838.218	0.0165693
838.296	0.0165948
838.374	0.0165376
838.453	0.0166911
838.531	0.0166779
838.609	0.0166470
838.687	0.0167395
838.765	0.0166505
838.843	0.0166906
838.921	0.0167962
838.999	0.0168782
839.078	0.0167879
839.156	0.0168822
839.234	0.0167825
839.312	0.0168475
839.390	0.0168643
839.468	0.0167670
839.546	0.0168577
839.624	0.0169420
839.703	0.0168536
839.781	0.0167687
839.859	0.0168749
839.937	0.0169193
840.015	0.0167838
840.093	0.0166894
840.171	0.0167162
840.249	0.0166340
840.328	0.0167169
840.406	0.0167760
840.484	0.0166035
840.562	0.0165428
840.640	0.0165546
840.718	0.0167749
840.796	0.0166623
840.874	0.0165490
840.953	0.0166675
841.031	0.0164023
841.109	0.0164352
841.187	0.0165405
841.265	0.0164024
841.343	0.0164197
841.421	0.0164439
841.499	0.0163998
841.578	0.0163196
841.656	0.0165816
841.734	0.0164220
841.812	0.0162175
841.890	0.0164422
841.968	0.0163041
842.046	0.0163557
842.124	0.0164371
842.203	0.0165251
842.281	0.0163242
842.359	0.0164243
842.437	0.0163244
842.515	0.0164462
842.593	0.0164873
842.671	0.0164139
842.749	0.0164229
842.828	0.0164906
842.906	0.0164035
842.984	0.0166011
843.062	0.0165221
843.140	0.0165697
843.218	0.0166212
843.296	0.0166122
843.374	0.0166486
843.453	0.0166963
843.531	0.0165085
843.609	0.0165773
843.687	0.0167440
843.765	0.0168358
843.843	0.0168193
843.921	0.0166976
843.999	0.0166299
844.078	0.0167805
844.156	0.0167284
844.234	0.0166759
844.312	0.0167829
844.390	0.0167845
844.468	0.0167140
844.546	0.0168136
844.624	0.0167660
844.703	0.0166919
844.781	0.0167314
844.859	0.0166542
844.937	0.0167701
845.015	0.0167352
845.093	0.0167188
845.171	0.0166277
845.249	0.0164885
845.328	0.0166016
845.406	0.0167000
845.484	0.0166766
845.562	0.0165938
845.640	0.0165668
845.718	0.0167912
845.796	0.0167154
845.874	0.0165465
845.953	0.0165143
846.031	0.0166377
846.109	0.0166883
846.187	0.0166967
846.265	0.0168348
846.343	0.0167237
846.421	0.0165265
846.499	0.0164935
846.578	0.0166081
846.656	0.0164295
846.734	0.0165005
846.812	0.0165269
846.890	0.0165758
846.968	0.0165606
847.046	0.0163534
847.124	0.0163869
847.203	0.0164666
847.281	0.0164556
847.359	0.0164603
847.437	0.0165723
847.515	0.0165474
847.593	0.0164298
847.671	0.0164130
847.749	0.0164724
847.828	0.0164790
847.906	0.0162585
847.984	0.0164040
848.062	0.0163052
848.140	0.0163852
848.218	0.0163999
848.296	0.0162643
848.374	0.0163621
848.453	0.0162881
848.531	0.0163411
848.609	0.0163118
848.687	0.0164083
848.765	0.0163498
848.843	0.0162009
848.921	0.0164546
848.999	0.0164619
849.078	0.0162393
849.156	0.0163522
849.234	0.0162258
849.312	0.0162643
849.390	0.0163010
849.468	0.0163392
849.546	0.0163615
849.624	0.0163486
849.703	0.0163119
849.781	0.0163372
849.859	0.0164968
849.937	0.0163695
850.015	0.0165491
850.093	0.0165972
850.171	0.0166068
850.249	0.0166210
850.328	0.0165842
850.406	0.0167023
850.484	0.0167418
850.562	0.0166624
850.640	0.0167332
850.718	0.0168472
850.796	0.0167331
850.874	0.0167689
850.953	0.0168390
851.031	0.0168703
851.109	0.0167775
851.187	0.0168321
851.265	0.0168876
851.343	0.0167700
851.421	0.0167172
851.499	0.0167887
851.578	0.0167340
851.656	0.0166774
851.734	0.0166630
851.812	0.0167624
851.890	0.0166727
851.968	0.0166403
852.046	0.0167028
852.124	0.0166607
852.203	0.0166011
852.281	0.0167210
852.359	0.0166025
852.437	0.0167252
852.515	0.0167403
852.593	0.0165455
852.671	0.0164912
852.749	0.0166360
852.828	0.0165102
852.906	0.0165975
852.984	0.0165541
853.062	0.0165252
853.140	0.0164796
853.218	0.0165837
853.296	0.0164509
853.374	0.0164260
853.453	0.0164368
853.531	0.0163611
853.609	0.0163857
853.687	0.0163821
853.765	0.0165453
853.843	0.0164447
853.921	0.0163891
853.999	0.0162874
854.078	0.0163616
854.156	0.0164322
854.234	0.0162240
854.312	0.0163528
854.390	0.0163761
854.468	0.0162601
854.546	0.0162574
854.624	0.0162199
854.703	0.0162521
854.781	0.0162331
854.859	0.0162032
854.937	0.0163450
855.015	0.0161952
855.093	0.0162185
855.171	0.0162907
855.249	0.0162519
855.328	0.0163542
855.406	0.0162749
855.484	0.0163152
855.562	0.0163120
855.640	0.0163650
855.718	0.0163075
855.796	0.0163728
855.874	0.0163947
855.953	0.0163825
856.031	0.0164099
856.109	0.0162904
856.187	0.0165201
856.265	0.0165110
856.343	0.0165547
856.421	0.0166286
856.499	0.0165754
856.578	0.0165105
856.656	0.0166975
856.734	0.0165865
856.812	0.0165723
856.890	0.0166752
856.968	0.0165943
857.046	0.0166505
857.124	0.0165014
857.203	0.0167090
857.281	0.0165913
857.359	0.0165336
857.437	0.0164709
857.515	0.0164098
857.593	0.0165526
857.671	0.0164370
857.749	0.0164131
857.828	0.0163921
857.906	0.0163873
857.984	0.0163402
858.062	0.0164212
858.140	0.0162707
858.218	0.0162259
858.296	0.0164000
858.374	0.0165188
858.453	0.0164325
858.531	0.0164352
858.609	0.0164683
858.687	0.0165575
858.765	0.0164635
858.843	0.0166133
858.921	0.0164973
858.999	0.0164399
859.078	0.0164732
859.156	0.0164450
859.234	0.0164625
859.312	0.0164560
859.390	0.0164977
859.468	0.0163224
859.546	0.0164409
859.624	0.0164341
859.703	0.0163706
859.781	0.0163896
859.859	0.0163562
859.937	0.0162848
860.015	0.0165157
860.093	0.0164426
860.171	0.0163879
860.249	0.0164240
860.328	0.0163930
860.406	0.0165538
860.484	0.0166039
860.562	0.0164910
860.640	0.0164806
860.718	0.0164367
860.796	0.0165816
860.874	0.0166115
860.953	0.0165450
861.031	0.0165831
861.109	0.0165402
861.187	0.0165197
861.265	0.0165359
861.343	0.0166225
861.421	0.0166000
861.499	0.0164063
861.578	0.0166716
861.656	0.0166628
861.734	0.0164680
861.812	0.0166131
861.890	0.0165482
861.968	0.0167140
862.046	0.0167197
862.124	0.0167015
862.203	0.0166589
862.281	0.0165549
862.359	0.0166548
862.437	0.0166836
862.515	0.0167796
862.593	0.0165986
862.671	0.0164975
862.749	0.0165906
862.828	0.0165540
862.906	0.0165702
862.984	0.0165153
863.062	0.0165668
863.140	0.0164886
863.218	0.0164198
863.296	0.0163815
863.374	0.0164534
863.453	0.0163960
863.531	0.0164639
863.609	0.0163895
863.687	0.0163017
863.765	0.0165040
863.843	0.0162653
863.921	0.0163400
863.999	0.0163593
864.078	0.0164325
864.156	0.0164208
864.234	0.0165467
864.312	0.0164827
864.390	0.0165454
864.468	0.0165865
864.546	0.0166173
864.624	0.0166721
864.703	0.0167794
864.781	0.0165795
864.859	0.0167874
864.937	0.0168888
865.015	0.0167927
865.093	0.0167963
865.171	0.0168351
865.249	0.0168253
865.328	0.0168730
865.406	0.0167796
865.484	0.0166687
865.562	0.0167358
865.640	0.0166943
865.718	0.0166409
865.796	0.0165833
865.874	0.0166869
865.953	0.0166074
866.031	0.0165527
866.109	0.0165545
866.187	0.0166141
866.265	0.0165844
866.343	0.0165970
866.421	0.0166727
866.499	0.0164956
866.578	0.0164649
866.656	0.0166536
866.734	0.0166157
866.812	0.0166893
866.890	0.0166212
866.968	0.0166840
867.046	0.0166097
867.124	0.0166029
867.203	0.0165400
867.281	0.0166573
867.359	0.0164968
867.437	0.0164717
867.515	0.0165348
867.593	0.0164098
867.671	0.0164654
867.749	0.0164337
867.828	0.0163258
867.906	0.0164763
867.984	0.0164466
868.062	0.0162833
868.140	0.0163332
868.218	0.0163876
868.296	0.0164186
868.374	0.0164256
868.453	0.0164607
868.531	0.0163226
868.609	0.0165028
868.687	0.0165118
868.765	0.0163612
868.843	0.0163821
868.921	0.0164455
868.999	0.0165807
869.078	0.0166355
869.156	0.0166915
869.234	0.0167442
869.312	0.0166395
869.390	0.0167208
869.468	0.0167757
869.546	0.0167657
869.624	0.0166958
869.703	0.0167016
869.781	0.0167377
869.859	0.0169066
869.937	0.0167305
870.015	0.0167599
870.093	0.0167160
870.171	0.0167920
870.249	0.0168230
870.328	0.0168610
870.406	0.0169436
870.484	0.0168404
870.562	0.0168610
870.640	0.0168703
870.718	0.0167387
870.796	0.0168181
870.874	0.0168360
870.953	0.0168861
871.031	0.0169512
871.109	0.0167397
871.187	0.0168071
871.265	0.0167640
871.343	0.0166706
871.421	0.0166523
871.499	0.0166694
871.578	0.0165641
871.656	0.0166640
871.734	0.0166866
871.812	0.0164384
871.890	0.0164255
871.968	0.0165701
872.046	0.0164435
872.124	0.0165144
872.203	0.0164893
872.281	0.0163704
872.359	0.0163419
872.437	0.0164264
872.515	0.0164600
872.593	0.0163589
872.671	0.0164366
872.749	0.0165207
872.828	0.0164523
872.906	0.0163200
872.984	0.0163462
873.062	0.0163375
873.140	0.0164557
873.218	0.0163901
873.296	0.0163641
873.374	0.0163802
873.453	0.0163788
873.531	0.0163752
873.609	0.0164939
873.687	0.0163458
873.765	0.0164943
873.843	0.0165548
873.921	0.0164623
873.999	0.0163686
874.078	0.0164403
874.156	0.0165252
874.234	0.0163856
874.312	0.0164821
874.390	0.0163970
874.468	0.0165819
874.546	0.0165324
874.624	0.0166741
874.703	0.0166087
874.781	0.0165797
874.859	0.0166384
874.937	0.0166566
875.015	0.0166339
875.093	0.0166907
875.171	0.0167393
875.249	0.0166821
875.328	0.0168028
875.406	0.0166660
875.484	0.0168990
875.562	0.0167946
875.640	0.0166499
875.718	0.0168046
875.796	0.0168738
875.874	0.0166262
875.953	0.0164468
876.031	0.0165781
876.109	0.0166676
876.187	0.0163953
876.265	0.0165250
876.343	0.0165955
876.421	0.0166151
876.499	0.0165533
876.578	0.0164913
876.656	0.0165350
876.734	0.0165794
876.812	0.0166135
876.890	0.0165485
876.968	0.0165270
877.046	0.0165199
877.124	0.0165646
877.203	0.0166619
877.281	0.0165618
877.359	0.0166418
877.437	0.0166116
877.515	0.0167603
877.593	0.0165874
877.671	0.0165218
877.749	0.0164953
877.828	0.0165617
877.906	0.0164005
877.984	0.0165446
878.062	0.0164718
878.140	0.0165211
878.218	0.0165081
878.296	0.0164256
878.374	0.0164741
878.453	0.0164877
878.531	0.0164772
878.609	0.0163252
878.687	0.0164772
878.765	0.0164840
878.843	0.0165118
878.921	0.0165221
878.999	0.0164234
879.078	0.0164491
879.156	0.0166206
879.234	0.0167289
879.312	0.0167544
879.390	0.0166345
879.468	0.0164706
879.546	0.0165852
879.624	0.0165627
879.703	0.0165650
879.781	0.0166689
879.859	0.0166741
879.937	0.0166676
880.015	0.0165820
880.093	0.0163895
880.171	0.0164973
880.249	0.0165833
880.328	0.0164682
880.406	0.0163812
880.484	0.0163741
880.562	0.0164474
880.640	0.0164429
880.718	0.0164146
880.796	0.0164433
880.874	0.0164775
880.953	0.0164932
881.031	0.0163683
881.109	0.0164236
881.187	0.0163090
881.265	0.0162436
881.343	0.0165207
881.421	0.0164606
881.499	0.0164951
881.578	0.0164191
881.656	0.0164059
881.734	0.0163008
881.812	0.0164173
881.890	0.0163687
881.968	0.0162995
882.046	0.0161688
882.124	0.0161037
882.203	0.0161036
882.281	0.0162275
882.359	0.0161219
882.437	0.0162048
882.515	0.0162050
882.593	0.0163435
882.671	0.0162294
882.749	0.0162289
882.828	0.0162521
882.906	0.0162367
882.984	0.0163461
883.062	0.0164771
883.140	0.0162215
883.218	0.0163171
883.296	0.0165903
883.374	0.0166434
883.453	0.0166400
883.531	0.0166637
883.609	0.0165939
883.687	0.0167015
883.765	0.0165913
883.843	0.0167019
883.921	0.0167677
883.999	0.0165206
884.078	0.0166467
884.156	0.0166286
884.234	0.0166070
884.312	0.0165286
884.390	0.0165305
884.468	0.0164742
884.546	0.0163921
884.624	0.0164482
884.703	0.0164587
884.781	0.0163853
884.859	0.0164412
884.937	0.0164703
885.015	0.0164802
885.093	0.0164315
885.171	0.0164057
885.249	0.0164690
885.328	0.0164668
885.406	0.0165349
885.484	0.0164442
885.562	0.0165896
885.640	0.0165262
885.718	0.0164760
885.796	0.0165137
885.874	0.0165486
885.953	0.0166386
886.031	0.0165042
886.109	0.0164645
886.187	0.0163554
886.265	0.0164787
886.343	0.0164320
886.421	0.0163774
886.499	0.0163955
886.578	0.0162940
886.656	0.0163657
886.734	0.0163561
886.812	0.0163474
886.890	0.0162251
886.968	0.0163912
887.046	0.0163948
887.124	0.0162312
887.203	0.0163623
887.281	0.0165155
887.359	0.0163091
887.437	0.0164414
887.515	0.0164823
887.593	0.0164426
887.671	0.0165165
887.749	0.0165112
887.828	0.0165276
887.906	0.0165191
887.984	0.0165573
888.062	0.0166117
888.140	0.0164871
888.218	0.0166595
888.296	0.0166022
888.374	0.0165209
888.453	0.0166143
888.531	0.0164288
888.609	0.0164377
888.687	0.0164959
888.765	0.0165222
888.843	0.0164079
888.921	0.0164610
888.999	0.0164706
889.078	0.0165266
889.156	0.0165037
889.234	0.0166459
889.312	0.0165453
889.390	0.0165417
889.468	0.0165085
889.546	0.0165508
889.624	0.0165221
889.703	0.0165784
889.781	0.0166939
889.859	0.0164935
889.937	0.0165242
890.015	0.0165714
890.093	0.0166199
890.171	0.0165515
890.249	0.0165329
890.328	0.0163822
890.406	0.0164836
890.484	0.0165331
890.562	0.0164980
890.640	0.0165401
890.718	0.0165067
890.796	0.0163574
890.874	0.0163068
890.953	0.0163025
891.031	0.0164573
891.109	0.0165244
891.187	0.0164930
891.265	0.0164674
891.343	0.0164565
891.421	0.0165531
891.499	0.0165918
891.578	0.0166338
891.656	0.0167027
891.734	0.0166035
891.812	0.0166374
891.890	0.0167547
891.968	0.0168552
892.046	0.0167861
892.124	0.0168295
892.203	0.0169176
892.281	0.0168269
892.359	0.0168568
892.437	0.0168397
892.515	0.0168430
892.593	0.0168135
892.671	0.0168025
892.749	0.0167294
892.828	0.0167104
892.906	0.0167406
892.984	0.0167410
893.062	0.0166937
893.140	0.0165871
893.218	0.0167199
893.296	0.0167310
893.374	0.0166558
893.453	0.0165787
893.531	0.0166167
893.609	0.0166270
893.687	0.0166054
893.765	0.0165728
893.843	0.0165883
893.921	0.0164162
893.999	0.0164933
894.078	0.0165469
894.156	0.0164582
894.234	0.0165265
894.312	0.0163770
894.390	0.0163599
894.468	0.0165500
894.546	0.0164880
894.624	0.0164484
894.703	0.0164816
894.781	0.0164553
894.859	0.0164075
894.937	0.0164296
895.015	0.0164533
895.093	0.0163672
895.171	0.0164083
895.249	0.0164870
895.328	0.0165784
895.406	0.0165747
895.484	0.0167258
895.562	0.0165600
895.640	0.0166313
895.718	0.0166593
895.796	0.0166332
895.874	0.0167085
895.953	0.0166716
896.031	0.0167328
896.109	0.0168321
896.187	0.0167830
896.265	0.0168028
896.343	0.0167625
896.421	0.0167741
896.499	0.0166424
896.578	0.0166877
896.656	0.0167871
896.734	0.0168151
896.812	0.0166447
896.890	0.0165665
896.968	0.0167123
897.046	0.0166986
897.124	0.0166032
897.203	0.0166274
897.281	0.0165812
897.359	0.0165703
897.437	0.0165792
897.515	0.0165981
897.593	0.0165595
897.671	0.0165804
897.749	0.0165559
897.828	0.0164883
897.906	0.0165227
897.984	0.0164050
898.062	0.0165398
898.140	0.0165392
898.218	0.0164950
898.296	0.0166051
898.374	0.0166070
898.453	0.0165965
898.531	0.0166116
898.609	0.0167337
898.687	0.0166609
898.765	0.0164706
898.843	0.0165961
898.921	0.0165691
898.999	0.0166074
899.078	0.0166244
899.156	0.0164466
899.234	0.0165159
899.312	0.0165778
899.390	0.0165077
899.468	0.0165168
899.546	0.0165348
899.624	0.0164774
899.703	0.0164340
899.781	0.0166014
899.859	0.0165673
899.937	0.0164973
900.015	0.0165299
900.093	0.0165184
900.171	0.0164072
900.249	0.0166072
900.328	0.0166515
900.406	0.0165319
900.484	0.0164482
900.562	0.0166143
900.640	0.0165491
900.718	0.0165192
900.796	0.0165283
900.874	0.0164464
900.953	0.0164546
901.031	0.0164829
901.109	0.0165133
901.187	0.0164414
901.265	0.0165040
901.343	0.0164079
901.421	0.0165749
901.499	0.0165395
901.578	0.0166489
901.656	0.0165199
901.734	0.0166198
901.812	0.0165145
901.890	0.0164964
901.968	0.0165504
902.046	0.0166226
902.124	0.0164996
902.203	0.0164534
902.281	0.0164023
902.359	0.0165270
902.437	0.0165222
902.515	0.0162938
902.593	0.0165381
902.671	0.0164214
902.749	0.0164714
902.828	0.0164362
902.906	0.0163299
902.984	0.0164378
903.062	0.0163625
903.140	0.0165617
903.218	0.0163575
903.296	0.0163271
903.374	0.0164771
903.453	0.0164489
903.531	0.0165105
903.609	0.0166539
903.687	0.0164845
903.765	0.0165823
903.843	0.0165852
903.921	0.0166302
903.999	0.0166671
904.078	0.0165156
904.156	0.0167287
904.234	0.0166905
904.312	0.0167023
904.390	0.0165466
904.468	0.0166952
904.546	0.0165562
904.624	0.0165941
904.703	0.0166361
904.781	0.0166417
904.859	0.0167124
904.937	0.0164922
905.015	0.0164176
905.093	0.0165696
905.171	0.0164902
905.249	0.0165604
905.328	0.0164627
905.406	0.0165726
905.484	0.0165572
905.562	0.0165244
905.640	0.0164211
905.718	0.0162288
905.796	0.0164538
905.874	0.0163991
905.953	0.0163680
906.031	0.0164046
906.109	0.0163715
906.187	0.0164481
906.265	0.0163976
906.343	0.0163023
906.421	0.0162822
906.499	0.0163186
906.578	0.0163017
906.656	0.0162608
906.734	0.0162666
906.812	0.0163331
906.890	0.0163450
906.968	0.0163531
907.046	0.0163741
907.124	0.0163177
907.203	0.0163838
907.281	0.0164783
907.359	0.0164361
907.437	0.0164088
907.515	0.0162885
907.593	0.0165086
907.671	0.0164715
907.749	0.0165732
907.828	0.0166167
907.906	0.0165573
907.984	0.0166814
908.062	0.0167483
908.140	0.0166469
908.218	0.0166126
908.296	0.0167280
908.374	0.0167635
908.453	0.0166126
908.531	0.0166476
908.609	0.0167204
908.687	0.0166843
908.765	0.0166711
908.843	0.0165697
908.921	0.0165656
908.999	0.0164993
909.078	0.0164294
909.156	0.0164035
909.234	0.0163918
909.312	0.0163869
909.390	0.0162817
909.468	0.0164108
909.546	0.0163775
909.624	0.0164044
909.703	0.0163480
909.781	0.0163701
909.859	0.0162779
909.937	0.0164031
910.015	0.0164088
910.093	0.0164944
910.171	0.0163564
910.249	0.0164178
910.328	0.0165280
910.406	0.0164131
910.484	0.0164893
910.562	0.0163436
910.640	0.0164891
910.718	0.0168053
910.796	0.0166670
910.874	0.0165994
910.953	0.0165609
911.031	0.0164462
911.109	0.0166999
911.187	0.0166225
911.265	0.0166051
911.343	0.0165769
911.421	0.0165120
911.499	0.0165529
911.578	0.0165633
911.656	0.0165539
911.734	0.0164763
911.812	0.0164635
911.890	0.0165778
911.968	0.0164857
912.046	0.0165453
912.124	0.0163517
912.203	0.0165514
912.281	0.0164845
912.359	0.0164740
912.437	0.0164754
912.515	0.0165688
912.593	0.0163867
912.671	0.0164560
912.749	0.0165687
912.828	0.0165207
912.906	0.0165505
912.984	0.0163885
913.062	0.0164484
913.140	0.0163991
913.218	0.0164922
913.296	0.0164318
913.374	0.0164328
913.453	0.0164456
913.531	0.0163905
913.609	0.0164649
913.687	0.0163939
913.765	0.0162872
913.843	0.0163692
913.921	0.0164997
913.999	0.0162764
914.078	0.0162791
914.156	0.0163321
914.234	0.0163889
914.312	0.0163998
914.390	0.0164938
914.468	0.0164783
914.546	0.0163866
914.624	0.0163127
914.703	0.0164610
914.781	0.0164595
914.859	0.0163359
914.937	0.0163853
915.015	0.0165479
915.093	0.0165139
915.171	0.0165924
915.249	0.0165597
915.328	0.0166022
915.406	0.0165833
915.484	0.0166569
915.562	0.0165462
915.640	0.0164975
915.718	0.0164359
915.796	0.0166209
915.874	0.0166860
915.953	0.0165348
916.031	0.0167602
916.109	0.0166393
916.187	0.0165339
916.265	0.0165807
916.343	0.0165630
916.421	0.0163979
916.499	0.0164736
916.578	0.0165863
916.656	0.0165865
916.734	0.0164938
916.812	0.0165104
916.890	0.0164733
916.968	0.0165092
917.046	0.0164729
917.124	0.0165122
917.203	0.0163910
917.281	0.0165520
917.359	0.0165441
917.437	0.0165294
917.515	0.0165212
917.593	0.0166597
917.671	0.0166055
917.749	0.0166357
917.828	0.0166386
917.906	0.0165712
917.984	0.0165442
918.062	0.0164832
918.140	0.0165873
918.218	0.0164994
918.296	0.0166026
918.374	0.0165941
918.453	0.0166100
918.531	0.0165035
918.609	0.0164376
918.687	0.0166410
918.765	0.0165761
918.843	0.0165181
918.921	0.0165813
918.999	0.0166084
919.078	0.0165939
919.156	0.0164568
919.234	0.0164306
919.312	0.0163741
919.390	0.0165695
919.468	0.0164172
919.546	0.0165475
919.624	0.0164618
919.703	0.0164202
919.781	0.0165247
919.859	0.0165899
919.937	0.0165604
