06/10/2022	18:26:14	Ver.	4.1	UNKNOWN
Optical Delay	600.015094	Delta X		0.078125	Sweeps	1	Scan Rate	0/0
Coordinates	Axis 1	NaN	Axis 2	NaN	Axis 3	NaN	Axis 4	NaN	Axis 5	NaN	Axis 6	0.000000
TX Power	0.000000	RX Power	0.000000

600.015	0.0154592
600.093	0.0154278
600.171	0.0154028
600.249	0.0155116
600.328	0.0154852
600.406	0.0154472
600.484	0.0154764
600.562	0.0154199
600.640	0.0155019
600.718	0.0153311
600.796	0.0154412
600.874	0.0155035
600.953	0.0155682
601.031	0.0155016
601.109	0.0155236
601.187	0.0154516
601.265	0.0154430
601.343	0.0154221
601.421	0.0154146
601.499	0.0154142
601.578	0.0154526
601.656	0.0154054
601.734	0.0152877
601.812	0.0153800
601.890	0.0154234
601.968	0.0153564
602.046	0.0154535
602.124	0.0154539
602.203	0.0155070
602.281	0.0155206
602.359	0.0154508
602.437	0.0154077
602.515	0.0154098
602.593	0.0154626
602.671	0.0155689
602.749	0.0155268
602.828	0.0154275
602.906	0.0154409
602.984	0.0154023
603.062	0.0153410
603.140	0.0155391
603.218	0.0155352
603.296	0.0153906
603.374	0.0154149
603.453	0.0154202
603.531	0.0155262
603.609	0.0154884
603.687	0.0155035
603.765	0.0154845
603.843	0.0154111
603.921	0.0154694
603.999	0.0153368
604.078	0.0154980
604.156	0.0155116
604.234	0.0154040
604.312	0.0154816
604.390	0.0155590
604.468	0.0153601
604.546	0.0153741
604.624	0.0155157
604.703	0.0155329
604.781	0.0154266
604.859	0.0154161
604.937	0.0154636
605.015	0.0154959
605.093	0.0154512
605.171	0.0154492
605.249	0.0154913
605.328	0.0153355
605.406	0.0153492
605.484	0.0154007
605.562	0.0154081
605.640	0.0154196
605.718	0.0155008
605.796	0.0154033
605.874	0.0153608
605.953	0.0155530
606.031	0.0155070
606.109	0.0154059
606.187	0.0154402
606.265	0.0153168
606.343	0.0154539
606.421	0.0153864
606.499	0.0153881
606.578	0.0153629
606.656	0.0153551
606.734	0.0153759
606.812	0.0154079
606.890	0.0154691
606.968	0.0154439
607.046	0.0155450
607.124	0.0153235
607.203	0.0154143
607.281	0.0155139
607.359	0.0153005
607.437	0.0153646
607.515	0.0155466
607.593	0.0153574
607.671	0.0153996
607.749	0.0154804
607.828	0.0154333
607.906	0.0153618
607.984	0.0154263
608.062	0.0154053
608.140	0.0155079
608.218	0.0154879
608.296	0.0153784
608.374	0.0153909
608.453	0.0154224
608.531	0.0153815
608.609	0.0154830
608.687	0.0155071
608.765	0.0153711
608.843	0.0153632
608.921	0.0154733
608.999	0.0154752
609.078	0.0155004
609.156	0.0154441
609.234	0.0153406
609.312	0.0154389
609.390	0.0154118
609.468	0.0154498
609.546	0.0154739
609.624	0.0155345
609.703	0.0155574
609.781	0.0155669
609.859	0.0155069
609.937	0.0154855
610.015	0.0154285
610.093	0.0153788
610.171	0.0155087
610.249	0.0152805
610.328	0.0154006
610.406	0.0154896
610.484	0.0154231
610.562	0.0154930
610.640	0.0154897
610.718	0.0154207
610.796	0.0153498
610.874	0.0152441
610.953	0.0154099
611.031	0.0155327
611.109	0.0153844
611.187	0.0153407
611.265	0.0155186
611.343	0.0154945
611.421	0.0153510
611.499	0.0154347
611.578	0.0154359
611.656	0.0154023
611.734	0.0154137
611.812	0.0153202
611.890	0.0154341
611.968	0.0154208
612.046	0.0154423
612.124	0.0155338
612.203	0.0154449
612.281	0.0153428
612.359	0.0154439
612.437	0.0154875
612.515	0.0154688
612.593	0.0155254
612.671	0.0155427
612.749	0.0155079
612.828	0.0153770
612.906	0.0153806
612.984	0.0155186
613.062	0.0154826
613.140	0.0155825
613.218	0.0154449
613.296	0.0156609
613.374	0.0153860
613.453	0.0153516
613.531	0.0156214
613.609	0.0154887
613.687	0.0153949
613.765	0.0154916
613.843	0.0154351
613.921	0.0153980
613.999	0.0154543
614.078	0.0154275
614.156	0.0154983
614.234	0.0154243
614.312	0.0154526
614.390	0.0153665
614.468	0.0153338
614.546	0.0155615
614.624	0.0155006
614.703	0.0154489
614.781	0.0155342
614.859	0.0154478
614.937	0.0153849
615.015	0.0154015
615.093	0.0154613
615.171	0.0153648
615.249	0.0154118
615.328	0.0154503
615.406	0.0153870
615.484	0.0155335
615.562	0.0154334
615.640	0.0155445
615.718	0.0153953
615.796	0.0154333
615.874	0.0153902
615.953	0.0154909
616.031	0.0153842
616.109	0.0154902
616.187	0.0155185
616.265	0.0154467
616.343	0.0154855
616.421	0.0154089
616.499	0.0154427
616.578	0.0154414
616.656	0.0154079
616.734	0.0155042
616.812	0.0154223
616.890	0.0152265
616.968	0.0154210
617.046	0.0154756
617.124	0.0153514
617.203	0.0153845
617.281	0.0155003
617.359	0.0154308
617.437	0.0153840
617.515	0.0155028
617.593	0.0154710
617.671	0.0154105
617.749	0.0154268
617.828	0.0153271
617.906	0.0154636
617.984	0.0153732
618.062	0.0153598
618.140	0.0153503
618.218	0.0153336
618.296	0.0155951
618.374	0.0155504
618.453	0.0153973
618.531	0.0153814
618.609	0.0154784
618.687	0.0152916
618.765	0.0154350
618.843	0.0154953
618.921	0.0153886
618.999	0.0154041
619.078	0.0154755
619.156	0.0155441
619.234	0.0153526
619.312	0.0154701
619.390	0.0154197
619.468	0.0154708
619.546	0.0153142
619.624	0.0154302
619.703	0.0154867
619.781	0.0152214
619.859	0.0152641
619.937	0.0154070
620.015	0.0155190
620.093	0.0154669
620.171	0.0154861
620.249	0.0154827
620.328	0.0152775
620.406	0.0152797
620.484	0.0155027
620.562	0.0155117
620.640	0.0153469
620.718	0.0154861
620.796	0.0153294
620.874	0.0152691
620.953	0.0153880
621.031	0.0155434
621.109	0.0154712
621.187	0.0153154
621.265	0.0154370
621.343	0.0155209
621.421	0.0154001
621.499	0.0153597
621.578	0.0155026
621.656	0.0154167
621.734	0.0153471
621.812	0.0154612
621.890	0.0154540
621.968	0.0153275
622.046	0.0154198
622.124	0.0155316
622.203	0.0153051
622.281	0.0154231
622.359	0.0154707
622.437	0.0155197
622.515	0.0153116
622.593	0.0154193
622.671	0.0153304
622.749	0.0153204
622.828	0.0154319
622.906	0.0154934
622.984	0.0153854
623.062	0.0153541
623.140	0.0154343
623.218	0.0154487
623.296	0.0154911
623.374	0.0154430
623.453	0.0154275
623.531	0.0153816
623.609	0.0154533
623.687	0.0155589
623.765	0.0155433
623.843	0.0152658
623.921	0.0155086
623.999	0.0154630
624.078	0.0155039
624.156	0.0154326
624.234	0.0153262
624.312	0.0154379
624.390	0.0153690
624.468	0.0153230
624.546	0.0153637
624.624	0.0156422
624.703	0.0154429
624.781	0.0155266
624.859	0.0154166
624.937	0.0154387
625.015	0.0152834
625.093	0.0154816
625.171	0.0155219
625.249	0.0154138
625.328	0.0152518
625.406	0.0152639
625.484	0.0153232
625.562	0.0153590
625.640	0.0155614
625.718	0.0153609
625.796	0.0153856
625.874	0.0153773
625.953	0.0154080
626.031	0.0152906
626.109	0.0153834
626.187	0.0154443
626.265	0.0155006
626.343	0.0153969
626.421	0.0155142
626.499	0.0152886
626.578	0.0153472
626.656	0.0154279
626.734	0.0155719
626.812	0.0153810
626.890	0.0154433
626.968	0.0154279
627.046	0.0154842
627.124	0.0153443
627.203	0.0154539
627.281	0.0155009
627.359	0.0153638
627.437	0.0153595
627.515	0.0154396
627.593	0.0153790
627.671	0.0154737
627.749	0.0153184
627.828	0.0154565
627.906	0.0153541
627.984	0.0154073
628.062	0.0154466
628.140	0.0154533
628.218	0.0155366
628.296	0.0154271
628.374	0.0153391
628.453	0.0155034
628.531	0.0154514
628.609	0.0154146
628.687	0.0153217
628.765	0.0153142
628.843	0.0153534
628.921	0.0155003
628.999	0.0154277
629.078	0.0153934
629.156	0.0153727
629.234	0.0154623
629.312	0.0152757
629.390	0.0154774
629.468	0.0153985
629.546	0.0155143
629.624	0.0153129
629.703	0.0154418
629.781	0.0153985
629.859	0.0153766
629.937	0.0155441
630.015	0.0153609
630.093	0.0154808
630.171	0.0153999
630.249	0.0154585
630.328	0.0155324
630.406	0.0154101
630.484	0.0153946
630.562	0.0153123
630.640	0.0154956
630.718	0.0153660
630.796	0.0155014
630.874	0.0155641
630.953	0.0154322
631.031	0.0154646
631.109	0.0154601
631.187	0.0154501
631.265	0.0154140
631.343	0.0153357
631.421	0.0153865
631.499	0.0154381
631.578	0.0154147
631.656	0.0154588
631.734	0.0154607
631.812	0.0154990
631.890	0.0154089
631.968	0.0154285
632.046	0.0154382
632.124	0.0153785
632.203	0.0155831
632.281	0.0154858
632.359	0.0154109
632.437	0.0154196
632.515	0.0153696
632.593	0.0153311
632.671	0.0153319
632.749	0.0154642
632.828	0.0154221
632.906	0.0153895
632.984	0.0155025
633.062	0.0153909
633.140	0.0155251
633.218	0.0154062
633.296	0.0153974
633.374	0.0153533
633.453	0.0154237
633.531	0.0153404
633.609	0.0155158
633.687	0.0155003
633.765	0.0154656
633.843	0.0155016
633.921	0.0154609
633.999	0.0153782
634.078	0.0154644
634.156	0.0153755
634.234	0.0153917
634.312	0.0156564
634.390	0.0155712
634.468	0.0154938
634.546	0.0152831
634.624	0.0154808
634.703	0.0154936
634.781	0.0154773
634.859	0.0155772
634.937	0.0154531
635.015	0.0155401
635.093	0.0153059
635.171	0.0154439
635.249	0.0153566
635.328	0.0155498
635.406	0.0153910
635.484	0.0153546
635.562	0.0152636
635.640	0.0154236
635.718	0.0155502
635.796	0.0155051
635.874	0.0153381
635.953	0.0154022
636.031	0.0154662
636.109	0.0154455
636.187	0.0153745
636.265	0.0152834
636.343	0.0154170
636.421	0.0153793
636.499	0.0153188
636.578	0.0154762
636.656	0.0153644
636.734	0.0154506
636.812	0.0154272
636.890	0.0154156
636.968	0.0154797
637.046	0.0154733
637.124	0.0153851
637.203	0.0154929
637.281	0.0154571
637.359	0.0154163
637.437	0.0154200
637.515	0.0154576
637.593	0.0153024
637.671	0.0153016
637.749	0.0153128
637.828	0.0155133
637.906	0.0155233
637.984	0.0155199
638.062	0.0154120
638.140	0.0153073
638.218	0.0154078
638.296	0.0153689
638.374	0.0153952
638.453	0.0154456
638.531	0.0153961
638.609	0.0152669
638.687	0.0152900
638.765	0.0153757
638.843	0.0154560
638.921	0.0155404
638.999	0.0154059
639.078	0.0152608
639.156	0.0153960
639.234	0.0153848
639.312	0.0153688
639.390	0.0153416
639.468	0.0153434
639.546	0.0154158
639.624	0.0154031
639.703	0.0155012
639.781	0.0154833
639.859	0.0153564
639.937	0.0154594
640.015	0.0153809
640.093	0.0154414
640.171	0.0153485
640.249	0.0153561
640.328	0.0153954
640.406	0.0154636
640.484	0.0154221
640.562	0.0154694
640.640	0.0154086
640.718	0.0153622
640.796	0.0153950
640.874	0.0155934
640.953	0.0154167
641.031	0.0153403
641.109	0.0153753
641.187	0.0153754
641.265	0.0153268
641.343	0.0154989
641.421	0.0154631
641.499	0.0153593
641.578	0.0154102
641.656	0.0154596
641.734	0.0152997
641.812	0.0153271
641.890	0.0154736
641.968	0.0154477
642.046	0.0153529
642.124	0.0153921
642.203	0.0154755
642.281	0.0155119
642.359	0.0154845
642.437	0.0154473
642.515	0.0154154
642.593	0.0154787
642.671	0.0154874
642.749	0.0154758
642.828	0.0153983
642.906	0.0154717
642.984	0.0153668
643.062	0.0153725
643.140	0.0153838
643.218	0.0153848
643.296	0.0154700
643.374	0.0155922
643.453	0.0154314
643.531	0.0152139
643.609	0.0153916
643.687	0.0154821
643.765	0.0154684
643.843	0.0154104
643.921	0.0154443
643.999	0.0153851
644.078	0.0154835
644.156	0.0154817
644.234	0.0154044
644.312	0.0155702
644.390	0.0154802
644.468	0.0155276
644.546	0.0154251
644.624	0.0154664
644.703	0.0155415
644.781	0.0153882
644.859	0.0153994
644.937	0.0155071
645.015	0.0154484
645.093	0.0154983
645.171	0.0153932
645.249	0.0154376
645.328	0.0154617
645.406	0.0153889
645.484	0.0154857
645.562	0.0153416
645.640	0.0155293
645.718	0.0154922
645.796	0.0154214
645.874	0.0154503
645.953	0.0153991
646.031	0.0154703
646.109	0.0153147
646.187	0.0153822
646.265	0.0154464
646.343	0.0153426
646.421	0.0155054
646.499	0.0153677
646.578	0.0155464
646.656	0.0153333
646.734	0.0153893
646.812	0.0153720
646.890	0.0154202
646.968	0.0156034
647.046	0.0156272
647.124	0.0153154
647.203	0.0153626
647.281	0.0154107
647.359	0.0154693
647.437	0.0153391
647.515	0.0153419
647.593	0.0154617
647.671	0.0154205
647.749	0.0154168
647.828	0.0153884
647.906	0.0155767
647.984	0.0154129
648.062	0.0154765
648.140	0.0154410
648.218	0.0154089
648.296	0.0152859
648.374	0.0154335
648.453	0.0153442
648.531	0.0154350
648.609	0.0154581
648.687	0.0154015
648.765	0.0153711
648.843	0.0153780
648.921	0.0154360
648.999	0.0155281
649.078	0.0153984
649.156	0.0154230
649.234	0.0154488
649.312	0.0154764
649.390	0.0154118
649.468	0.0154212
649.546	0.0154884
649.624	0.0154751
649.703	0.0153315
649.781	0.0153470
649.859	0.0153487
649.937	0.0154380
650.015	0.0154618
650.093	0.0155489
650.171	0.0155515
650.249	0.0155353
650.328	0.0154771
650.406	0.0154475
650.484	0.0154195
650.562	0.0154161
650.640	0.0155431
650.718	0.0154343
650.796	0.0154452
650.874	0.0154603
650.953	0.0156234
651.031	0.0153766
651.109	0.0154681
651.187	0.0154687
651.265	0.0155010
651.343	0.0155720
651.421	0.0154890
651.499	0.0154465
651.578	0.0153750
651.656	0.0153854
651.734	0.0154127
651.812	0.0154723
651.890	0.0153799
651.968	0.0154275
652.046	0.0153400
652.124	0.0153902
652.203	0.0153785
652.281	0.0153662
652.359	0.0154953
652.437	0.0154349
652.515	0.0155463
652.593	0.0153403
652.671	0.0153674
652.749	0.0154620
652.828	0.0154988
652.906	0.0155021
652.984	0.0153835
653.062	0.0154613
653.140	0.0153857
653.218	0.0153598
653.296	0.0154095
653.374	0.0154407
653.453	0.0153302
653.531	0.0154678
653.609	0.0153439
653.687	0.0152152
653.765	0.0153345
653.843	0.0153489
653.921	0.0153508
653.999	0.0153960
654.078	0.0154165
654.156	0.0154426
654.234	0.0153404
654.312	0.0153892
654.390	0.0154443
654.468	0.0153363
654.546	0.0154726
654.624	0.0154365
654.703	0.0153967
654.781	0.0151837
654.859	0.0153201
654.937	0.0153405
655.015	0.0154095
655.093	0.0153445
655.171	0.0154611
655.249	0.0154617
655.328	0.0153850
655.406	0.0153782
655.484	0.0153632
655.562	0.0155617
655.640	0.0154205
655.718	0.0155038
655.796	0.0153541
655.874	0.0153310
655.953	0.0154133
656.031	0.0153570
656.109	0.0154295
656.187	0.0154579
656.265	0.0154734
656.343	0.0154402
656.421	0.0154369
656.499	0.0154188
656.578	0.0153441
656.656	0.0154723
656.734	0.0154851
656.812	0.0153875
656.890	0.0154153
656.968	0.0154115
657.046	0.0154127
657.124	0.0153408
657.203	0.0152882
657.281	0.0154654
657.359	0.0154847
657.437	0.0154674
657.515	0.0154838
657.593	0.0156029
657.671	0.0153961
657.749	0.0153125
657.828	0.0152703
657.906	0.0154191
657.984	0.0154860
658.062	0.0153290
658.140	0.0153354
658.218	0.0154710
658.296	0.0154115
658.374	0.0153310
658.453	0.0154475
658.531	0.0154341
658.609	0.0154120
658.687	0.0153569
658.765	0.0155401
658.843	0.0153505
658.921	0.0155116
658.999	0.0154179
659.078	0.0156102
659.156	0.0154149
659.234	0.0155254
659.312	0.0154671
659.390	0.0154739
659.468	0.0154716
659.546	0.0154338
659.624	0.0155196
659.703	0.0152592
659.781	0.0153011
659.859	0.0154632
659.937	0.0153450
660.015	0.0153308
660.093	0.0155731
660.171	0.0154393
660.249	0.0154105
660.328	0.0154996
660.406	0.0153276
660.484	0.0153168
660.562	0.0154510
660.640	0.0154568
660.718	0.0154143
660.796	0.0154350
660.874	0.0154295
660.953	0.0152874
661.031	0.0154213
661.109	0.0153459
661.187	0.0153054
661.265	0.0155832
661.343	0.0154489
661.421	0.0154094
661.499	0.0154960
661.578	0.0155234
661.656	0.0153712
661.734	0.0153468
661.812	0.0156347
661.890	0.0154182
661.968	0.0152822
662.046	0.0154689
662.124	0.0154140
662.203	0.0153374
662.281	0.0154118
662.359	0.0154111
662.437	0.0154667
662.515	0.0153735
662.593	0.0152538
662.671	0.0154078
662.749	0.0154033
662.828	0.0152380
662.906	0.0152625
662.984	0.0154371
663.062	0.0154608
663.140	0.0154221
663.218	0.0154088
663.296	0.0154568
663.374	0.0153848
663.453	0.0153802
663.531	0.0154353
663.609	0.0154791
663.687	0.0155253
663.765	0.0153890
663.843	0.0154690
663.921	0.0153411
663.999	0.0154823
664.078	0.0153876
664.156	0.0153601
664.234	0.0154326
664.312	0.0153246
664.390	0.0153093
664.468	0.0153313
664.546	0.0154855
664.624	0.0155233
664.703	0.0154384
664.781	0.0153705
664.859	0.0152713
664.937	0.0155063
665.015	0.0155405
665.093	0.0153174
665.171	0.0153764
665.249	0.0154355
665.328	0.0152599
665.406	0.0154494
665.484	0.0154771
665.562	0.0153142
665.640	0.0154096
665.718	0.0154610
665.796	0.0152883
665.874	0.0155334
665.953	0.0153783
666.031	0.0154099
666.109	0.0153744
666.187	0.0154179
666.265	0.0154305
666.343	0.0154563
666.421	0.0154622
666.499	0.0152900
666.578	0.0153075
666.656	0.0154381
666.734	0.0153976
666.812	0.0154187
666.890	0.0154282
666.968	0.0153733
667.046	0.0155376
667.124	0.0153848
667.203	0.0154122
667.281	0.0153152
667.359	0.0154931
667.437	0.0153470
667.515	0.0153270
667.593	0.0154288
667.671	0.0154906
667.749	0.0155611
667.828	0.0153845
667.906	0.0153219
667.984	0.0152085
668.062	0.0154720
668.140	0.0154596
668.218	0.0153673
668.296	0.0153946
668.374	0.0153492
668.453	0.0153354
668.531	0.0154435
668.609	0.0154238
668.687	0.0154191
668.765	0.0154942
668.843	0.0154186
668.921	0.0154263
668.999	0.0152962
669.078	0.0155096
669.156	0.0154020
669.234	0.0153236
669.312	0.0154604
669.390	0.0154342
669.468	0.0154943
669.546	0.0153552
669.624	0.0154774
669.703	0.0153195
669.781	0.0153767
669.859	0.0155051
669.937	0.0154784
670.015	0.0154127
670.093	0.0154110
670.171	0.0154755
670.249	0.0153708
670.328	0.0153877
670.406	0.0155150
670.484	0.0154516
670.562	0.0153506
670.640	0.0153402
670.718	0.0155527
670.796	0.0153127
670.874	0.0153754
670.953	0.0153424
671.031	0.0153397
671.109	0.0153932
671.187	0.0153029
671.265	0.0154013
671.343	0.0153040
671.421	0.0154408
671.499	0.0155077
671.578	0.0154425
671.656	0.0153696
671.734	0.0153217
671.812	0.0153845
671.890	0.0154993
671.968	0.0153028
672.046	0.0154471
672.124	0.0155180
672.203	0.0153635
672.281	0.0154066
672.359	0.0154330
672.437	0.0154673
672.515	0.0154337
672.593	0.0154149
672.671	0.0154095
672.749	0.0154086
672.828	0.0152827
672.906	0.0155295
672.984	0.0153735
673.062	0.0154059
673.140	0.0153854
673.218	0.0153894
673.296	0.0154327
673.374	0.0153741
673.453	0.0153153
673.531	0.0153952
673.609	0.0154685
673.687	0.0155420
673.765	0.0155426
673.843	0.0153706
673.921	0.0153697
673.999	0.0153465
674.078	0.0154210
674.156	0.0154126
674.234	0.0154146
674.312	0.0154684
674.390	0.0154929
674.468	0.0154878
674.546	0.0153150
674.624	0.0153712
674.703	0.0155047
674.781	0.0154857
674.859	0.0153517
674.937	0.0153425
675.015	0.0154247
675.093	0.0155338
675.171	0.0154250
675.249	0.0154585
675.328	0.0154422
675.406	0.0155344
675.484	0.0154539
675.562	0.0153938
675.640	0.0152338
675.718	0.0154768
675.796	0.0155402
675.874	0.0154214
675.953	0.0155389
676.031	0.0154265
676.109	0.0154079
676.187	0.0155563
676.265	0.0153464
676.343	0.0153979
676.421	0.0154781
676.499	0.0153657
676.578	0.0154253
676.656	0.0155167
676.734	0.0155585
676.812	0.0153163
676.890	0.0153671
676.968	0.0153294
677.046	0.0154325
677.124	0.0153205
677.203	0.0155283
677.281	0.0154680
677.359	0.0154111
677.437	0.0154981
677.515	0.0155324
677.593	0.0153737
677.671	0.0153781
677.749	0.0153446
677.828	0.0154500
677.906	0.0152850
677.984	0.0154098
678.062	0.0154121
678.140	0.0155188
678.218	0.0154173
678.296	0.0153909
678.374	0.0155016
678.453	0.0154304
678.531	0.0153232
678.609	0.0153712
678.687	0.0154214
678.765	0.0153531
678.843	0.0154716
678.921	0.0154272
678.999	0.0154427
679.078	0.0153503
679.156	0.0154465
679.234	0.0154876
679.312	0.0154310
679.390	0.0154247
679.468	0.0153968
679.546	0.0152787
679.624	0.0152840
679.703	0.0154052
679.781	0.0153899
679.859	0.0153937
679.937	0.0153971
680.015	0.0153814
680.093	0.0154382
680.171	0.0154046
680.249	0.0154124
680.328	0.0154225
680.406	0.0153245
680.484	0.0153108
680.562	0.0153535
680.640	0.0153157
680.718	0.0153011
680.796	0.0154472
680.874	0.0154440
680.953	0.0153239
681.031	0.0154881
681.109	0.0154675
681.187	0.0154731
681.265	0.0154345
681.343	0.0152554
681.421	0.0152467
681.499	0.0154577
681.578	0.0154044
681.656	0.0154655
681.734	0.0155414
681.812	0.0154745
681.890	0.0154683
681.968	0.0153730
682.046	0.0154716
682.124	0.0154252
682.203	0.0155386
682.281	0.0154720
682.359	0.0154823
682.437	0.0153252
682.515	0.0153423
682.593	0.0154655
682.671	0.0154027
682.749	0.0153756
682.828	0.0155138
682.906	0.0154229
682.984	0.0155351
683.062	0.0153606
683.140	0.0153470
683.218	0.0155044
683.296	0.0155843
683.374	0.0154536
683.453	0.0153925
683.531	0.0154547
683.609	0.0153177
683.687	0.0155022
683.765	0.0155079
683.843	0.0154604
683.921	0.0154247
683.999	0.0153632
684.078	0.0153033
684.156	0.0153656
684.234	0.0154666
684.312	0.0154810
684.390	0.0153831
684.468	0.0154016
684.546	0.0154585
684.624	0.0154687
684.703	0.0155280
684.781	0.0153602
684.859	0.0153977
684.937	0.0153762
685.015	0.0154188
685.093	0.0154176
685.171	0.0154038
685.249	0.0153326
685.328	0.0153699
685.406	0.0155262
685.484	0.0154105
685.562	0.0154015
685.640	0.0154624
685.718	0.0154147
685.796	0.0152916
685.874	0.0155436
685.953	0.0156335
686.031	0.0153357
686.109	0.0156251
686.187	0.0154669
686.265	0.0153587
686.343	0.0154985
686.421	0.0154479
686.499	0.0154842
686.578	0.0154381
686.656	0.0154182
686.734	0.0153963
686.812	0.0153434
686.890	0.0154819
686.968	0.0154657
687.046	0.0153513
687.124	0.0153787
687.203	0.0153957
687.281	0.0154612
687.359	0.0152715
687.437	0.0153455
687.515	0.0153890
687.593	0.0154238
687.671	0.0153568
687.749	0.0154554
687.828	0.0154852
687.906	0.0155452
687.984	0.0154384
688.062	0.0155681
688.140	0.0154588
688.218	0.0153481
688.296	0.0154597
688.374	0.0154243
688.453	0.0155035
688.531	0.0153885
688.609	0.0152838
688.687	0.0154020
688.765	0.0154956
688.843	0.0154478
688.921	0.0153725
688.999	0.0153675
689.078	0.0155107
689.156	0.0153294
689.234	0.0153485
689.312	0.0154415
689.390	0.0154279
689.468	0.0153197
689.546	0.0154640
689.624	0.0153910
689.703	0.0153473
689.781	0.0154816
689.859	0.0154253
689.937	0.0153888
690.015	0.0155067
690.093	0.0153777
690.171	0.0152367
690.249	0.0152810
690.328	0.0153539
690.406	0.0154016
690.484	0.0152840
690.562	0.0153690
690.640	0.0153926
690.718	0.0153564
690.796	0.0153085
690.874	0.0154803
690.953	0.0155298
691.031	0.0153513
691.109	0.0152815
691.187	0.0152163
691.265	0.0153114
691.343	0.0153910
691.421	0.0153374
691.499	0.0153455
691.578	0.0154565
691.656	0.0153168
691.734	0.0155150
691.812	0.0155002
691.890	0.0153341
691.968	0.0153702
692.046	0.0154200
692.124	0.0153561
692.203	0.0152998
692.281	0.0154298
692.359	0.0154540
692.437	0.0155459
692.515	0.0154578
692.593	0.0154088
692.671	0.0155029
692.749	0.0153886
692.828	0.0154572
692.906	0.0154472
692.984	0.0154640
693.062	0.0155212
693.140	0.0154913
693.218	0.0154800
693.296	0.0154062
693.374	0.0153952
693.453	0.0154221
693.531	0.0154324
693.609	0.0153647
693.687	0.0155317
693.765	0.0154355
693.843	0.0153812
693.921	0.0154432
693.999	0.0153687
694.078	0.0153386
694.156	0.0153909
694.234	0.0155240
694.312	0.0154674
694.390	0.0153870
694.468	0.0153906
694.546	0.0154508
694.624	0.0154710
694.703	0.0155433
694.781	0.0154301
694.859	0.0154692
694.937	0.0156248
695.015	0.0154956
695.093	0.0153983
695.171	0.0153610
695.249	0.0154286
695.328	0.0155531
695.406	0.0153839
695.484	0.0154176
695.562	0.0155251
695.640	0.0155191
695.718	0.0154313
695.796	0.0153893
695.874	0.0154802
695.953	0.0155701
696.031	0.0153358
696.109	0.0153371
696.187	0.0154291
696.265	0.0155875
696.343	0.0155082
696.421	0.0154481
696.499	0.0154146
696.578	0.0154786
696.656	0.0154734
696.734	0.0154545
696.812	0.0154292
696.890	0.0153062
696.968	0.0154906
697.046	0.0154433
697.124	0.0154370
697.203	0.0154383
697.281	0.0153368
697.359	0.0155996
697.437	0.0154892
697.515	0.0154089
697.593	0.0153120
697.671	0.0154514
697.749	0.0153935
697.828	0.0153824
697.906	0.0155609
697.984	0.0154801
698.062	0.0154777
698.140	0.0155109
698.218	0.0154701
698.296	0.0153271
698.374	0.0154593
698.453	0.0154465
698.531	0.0153839
698.609	0.0154894
698.687	0.0154893
698.765	0.0155047
698.843	0.0155115
698.921	0.0153291
698.999	0.0156222
699.078	0.0154510
699.156	0.0155165
699.234	0.0153922
699.312	0.0153127
699.390	0.0154717
699.468	0.0155283
699.546	0.0154474
699.624	0.0155780
699.703	0.0154125
699.781	0.0154080
699.859	0.0154543
699.937	0.0153936
700.015	0.0153938
700.093	0.0154672
700.171	0.0155541
700.249	0.0155558
700.328	0.0154333
700.406	0.0155014
700.484	0.0154341
700.562	0.0153907
700.640	0.0153339
700.718	0.0154958
700.796	0.0154507
700.874	0.0154482
700.953	0.0155637
701.031	0.0155439
701.109	0.0155057
701.187	0.0155297
701.265	0.0153848
701.343	0.0153970
701.421	0.0155961
701.499	0.0154139
701.578	0.0154190
701.656	0.0154899
701.734	0.0155367
701.812	0.0153788
701.890	0.0154716
701.968	0.0154507
702.046	0.0154885
702.124	0.0155267
702.203	0.0154900
702.281	0.0153753
702.359	0.0154531
702.437	0.0154121
702.515	0.0154249
702.593	0.0155374
702.671	0.0154806
702.749	0.0156042
702.828	0.0154520
702.906	0.0154790
702.984	0.0154066
703.062	0.0154109
703.140	0.0154903
703.218	0.0154066
703.296	0.0152937
703.374	0.0153867
703.453	0.0152161
703.531	0.0153743
703.609	0.0154863
703.687	0.0155140
703.765	0.0154597
703.843	0.0153603
703.921	0.0153056
703.999	0.0155022
704.078	0.0154362
704.156	0.0154824
704.234	0.0155046
704.312	0.0153399
704.390	0.0154697
704.468	0.0153693
704.546	0.0153941
704.624	0.0154624
704.703	0.0154383
704.781	0.0155189
704.859	0.0154309
704.937	0.0153355
705.015	0.0154226
705.093	0.0155400
705.171	0.0154909
705.249	0.0153843
705.328	0.0154065
705.406	0.0152667
705.484	0.0154791
705.562	0.0153977
705.640	0.0154266
705.718	0.0153947
705.796	0.0153619
705.874	0.0153850
705.953	0.0155317
706.031	0.0154906
706.109	0.0153919
706.187	0.0153657
706.265	0.0154420
706.343	0.0153532
706.421	0.0154413
706.499	0.0155170
706.578	0.0154652
706.656	0.0153672
706.734	0.0154085
706.812	0.0154614
706.890	0.0152998
706.968	0.0154146
707.046	0.0155693
707.124	0.0154149
707.203	0.0155943
707.281	0.0153860
707.359	0.0153733
707.437	0.0154118
707.515	0.0154242
707.593	0.0155208
707.671	0.0153800
707.749	0.0153488
707.828	0.0154865
707.906	0.0155223
707.984	0.0154255
708.062	0.0153480
708.140	0.0155280
708.218	0.0153551
708.296	0.0154340
708.374	0.0154519
708.453	0.0154260
708.531	0.0153471
708.609	0.0154850
708.687	0.0155715
708.765	0.0155254
708.843	0.0154287
708.921	0.0153894
708.999	0.0154967
709.078	0.0154105
709.156	0.0154280
709.234	0.0154710
709.312	0.0154364
709.390	0.0154971
709.468	0.0153388
709.546	0.0153642
709.624	0.0153834
709.703	0.0154699
709.781	0.0153620
709.859	0.0153754
709.937	0.0155524
710.015	0.0155841
710.093	0.0154615
710.171	0.0153561
710.249	0.0154090
710.328	0.0153584
710.406	0.0154880
710.484	0.0153750
710.562	0.0155455
710.640	0.0154859
710.718	0.0154526
710.796	0.0153914
710.874	0.0154401
710.953	0.0155962
711.031	0.0154228
711.109	0.0154358
711.187	0.0154318
711.265	0.0154056
711.343	0.0155730
711.421	0.0154757
711.499	0.0155207
711.578	0.0153934
711.656	0.0154291
711.734	0.0155132
711.812	0.0154746
711.890	0.0153941
711.968	0.0154876
712.046	0.0153363
712.124	0.0154088
712.203	0.0153196
712.281	0.0153353
712.359	0.0153453
712.437	0.0155421
712.515	0.0155563
712.593	0.0154372
712.671	0.0153812
712.749	0.0154636
712.828	0.0154684
712.906	0.0154982
712.984	0.0153733
713.062	0.0152590
713.140	0.0153775
713.218	0.0154928
713.296	0.0154005
713.374	0.0154810
713.453	0.0154561
713.531	0.0152442
713.609	0.0153371
713.687	0.0154283
713.765	0.0154739
713.843	0.0153883
713.921	0.0153870
713.999	0.0154392
714.078	0.0152723
714.156	0.0152947
714.234	0.0155933
714.312	0.0155974
714.390	0.0154684
714.468	0.0154132
714.546	0.0152784
714.624	0.0153322
714.703	0.0155357
714.781	0.0155689
714.859	0.0153915
714.937	0.0152669
715.015	0.0153610
715.093	0.0153871
715.171	0.0154324
715.249	0.0154586
715.328	0.0155228
715.406	0.0153889
715.484	0.0154308
715.562	0.0154541
715.640	0.0153415
715.718	0.0154295
715.796	0.0156197
715.874	0.0154403
715.953	0.0152271
716.031	0.0152967
716.109	0.0154060
716.187	0.0152116
716.265	0.0153402
716.343	0.0154007
716.421	0.0153657
716.499	0.0153461
716.578	0.0155003
716.656	0.0152528
716.734	0.0152801
716.812	0.0153399
716.890	0.0154308
716.968	0.0155289
717.046	0.0154015
717.124	0.0153614
717.203	0.0154834
717.281	0.0153200
717.359	0.0154484
717.437	0.0151726
717.515	0.0153632
717.593	0.0153900
717.671	0.0153152
717.749	0.0154166
717.828	0.0155006
717.906	0.0154346
717.984	0.0153844
718.062	0.0152447
718.140	0.0154227
718.218	0.0153685
718.296	0.0153860
718.374	0.0154248
718.453	0.0153328
718.531	0.0153326
718.609	0.0155274
718.687	0.0153386
718.765	0.0153841
718.843	0.0154470
718.921	0.0153701
718.999	0.0153188
719.078	0.0155328
719.156	0.0155532
719.234	0.0153100
719.312	0.0153475
719.390	0.0154604
719.468	0.0154042
719.546	0.0154282
719.624	0.0155051
719.703	0.0153236
719.781	0.0153229
719.859	0.0154353
719.937	0.0154025
720.015	0.0153659
720.093	0.0153506
720.171	0.0153050
720.249	0.0154391
720.328	0.0155186
720.406	0.0153864
720.484	0.0153590
720.562	0.0154395
720.640	0.0154453
720.718	0.0153974
720.796	0.0153764
720.874	0.0155194
720.953	0.0154149
721.031	0.0154353
721.109	0.0154139
721.187	0.0154188
721.265	0.0154836
721.343	0.0153565
721.421	0.0154975
721.499	0.0153999
721.578	0.0156073
721.656	0.0153903
721.734	0.0154834
721.812	0.0156064
721.890	0.0155058
721.968	0.0154475
722.046	0.0155170
722.124	0.0155111
722.203	0.0154362
722.281	0.0153188
722.359	0.0155785
722.437	0.0155023
722.515	0.0156066
722.593	0.0154823
722.671	0.0154497
722.749	0.0154343
722.828	0.0154390
722.906	0.0153826
722.984	0.0154977
723.062	0.0155417
723.140	0.0155699
723.218	0.0154466
723.296	0.0154517
723.374	0.0155740
723.453	0.0155383
723.531	0.0153374
723.609	0.0154398
723.687	0.0156261
723.765	0.0154910
723.843	0.0154491
723.921	0.0153790
723.999	0.0154741
724.078	0.0155654
724.156	0.0153885
724.234	0.0154993
724.312	0.0155012
724.390	0.0155968
724.468	0.0154652
724.546	0.0155948
724.624	0.0154694
724.703	0.0156538
724.781	0.0155909
724.859	0.0155260
724.937	0.0155090
725.015	0.0156535
725.093	0.0153991
725.171	0.0154150
725.249	0.0155673
725.328	0.0155019
725.406	0.0155013
725.484	0.0156676
725.562	0.0154981
725.640	0.0154195
725.718	0.0153956
725.796	0.0154428
725.874	0.0154617
725.953	0.0155668
726.031	0.0155532
726.109	0.0155838
726.187	0.0154443
726.265	0.0154807
726.343	0.0154969
726.421	0.0154747
726.499	0.0154079
726.578	0.0153588
726.656	0.0154484
726.734	0.0154557
726.812	0.0153993
726.890	0.0154289
726.968	0.0154956
727.046	0.0154255
727.124	0.0153387
727.203	0.0153561
727.281	0.0153912
727.359	0.0154064
727.437	0.0153671
727.515	0.0156371
727.593	0.0153578
727.671	0.0153334
727.749	0.0154043
727.828	0.0153941
727.906	0.0153883
727.984	0.0152363
728.062	0.0154091
728.140	0.0154926
728.218	0.0153177
728.296	0.0152492
728.374	0.0154374
728.453	0.0153902
728.531	0.0154992
728.609	0.0154710
728.687	0.0153753
728.765	0.0153182
728.843	0.0154766
728.921	0.0153195
728.999	0.0153987
729.078	0.0153950
729.156	0.0154753
729.234	0.0153030
729.312	0.0154183
729.390	0.0155375
729.468	0.0153468
729.546	0.0152778
729.624	0.0151083
729.703	0.0153125
729.781	0.0154151
729.859	0.0154337
729.937	0.0152537
730.015	0.0152442
730.093	0.0152680
730.171	0.0153740
730.249	0.0152445
730.328	0.0153783
730.406	0.0152666
730.484	0.0153372
730.562	0.0153124
730.640	0.0153474
730.718	0.0153468
730.796	0.0152009
730.874	0.0152994
730.953	0.0152869
731.031	0.0154149
731.109	0.0153843
731.187	0.0154608
731.265	0.0153752
731.343	0.0153004
731.421	0.0153080
731.499	0.0153875
731.578	0.0154005
731.656	0.0153032
731.734	0.0154005
731.812	0.0153846
731.890	0.0154863
731.968	0.0153951
732.046	0.0152689
732.124	0.0155548
732.203	0.0152744
732.281	0.0153789
732.359	0.0154594
732.437	0.0154440
732.515	0.0154837
732.593	0.0152502
732.671	0.0154185
732.749	0.0154424
732.828	0.0153841
732.906	0.0154478
732.984	0.0154298
733.062	0.0154498
733.140	0.0153633
733.218	0.0154526
733.296	0.0154379
733.374	0.0154078
733.453	0.0154116
733.531	0.0155673
733.609	0.0155326
733.687	0.0154659
733.765	0.0155242
733.843	0.0153873
733.921	0.0154767
733.999	0.0155236
734.078	0.0153297
734.156	0.0155316
734.234	0.0154488
734.312	0.0153786
734.390	0.0154184
734.468	0.0155005
734.546	0.0154225
734.624	0.0153768
734.703	0.0154731
734.781	0.0153477
734.859	0.0154589
734.937	0.0154021
735.015	0.0154195
735.093	0.0154108
735.171	0.0153151
735.249	0.0155138
735.328	0.0154217
735.406	0.0154317
735.484	0.0154636
735.562	0.0154002
735.640	0.0154818
735.718	0.0156202
735.796	0.0155909
735.874	0.0155793
735.953	0.0157604
736.031	0.0157745
736.109	0.0156853
736.187	0.0157041
736.265	0.0155137
736.343	0.0154342
736.421	0.0152090
736.499	0.0151508
736.578	0.0151022
736.656	0.0150684
736.734	0.0149523
736.812	0.0149984
736.890	0.0149704
736.968	0.0153106
737.046	0.0155885
737.124	0.0157188
737.203	0.0160660
737.281	0.0162231
737.359	0.0162330
737.437	0.0164352
737.515	0.0162553
737.593	0.0160966
737.671	0.0155962
737.749	0.0154029
737.828	0.0152536
737.906	0.0149121
737.984	0.0147993
738.062	0.0148344
738.140	0.0148911
738.218	0.0147981
738.296	0.0149363
738.374	0.0150533
738.453	0.0150376
738.531	0.0151922
738.609	0.0151776
738.687	0.0154771
738.765	0.0155116
738.843	0.0154303
738.921	0.0156067
738.999	0.0157537
739.078	0.0157041
739.156	0.0156654
739.234	0.0156412
739.312	0.0157910
739.390	0.0158736
739.468	0.0158434
739.546	0.0158538
739.624	0.0157252
739.703	0.0157355
739.781	0.0157314
739.859	0.0154215
739.937	0.0153633
740.015	0.0153288
740.093	0.0153592
740.171	0.0153641
740.249	0.0152890
740.328	0.0152907
740.406	0.0156591
740.484	0.0156307
740.562	0.0156248
740.640	0.0158569
740.718	0.0159480
740.796	0.0160980
740.874	0.0160608
740.953	0.0158109
741.031	0.0158757
741.109	0.0157433
741.187	0.0154494
741.265	0.0151060
741.343	0.0150495
741.421	0.0147110
741.499	0.0143500
741.578	0.0142533
741.656	0.0142898
741.734	0.0140015
741.812	0.0139481
741.890	0.0139931
741.968	0.0142381
742.046	0.0141644
742.124	0.0143191
742.203	0.0145081
742.281	0.0147852
742.359	0.0148950
742.437	0.0151495
742.515	0.0154888
742.593	0.0157305
742.671	0.0161472
742.749	0.0165659
742.828	0.0167647
742.906	0.0169553
742.984	0.0171066
743.062	0.0175516
743.140	0.0175038
743.218	0.0175527
743.296	0.0176942
743.374	0.0174053
743.453	0.0172070
743.531	0.0169598
743.609	0.0168020
743.687	0.0164124
743.765	0.0161695
743.843	0.0159785
743.921	0.0155914
743.999	0.0154049
744.078	0.0149902
744.156	0.0148457
744.234	0.0145044
744.312	0.0142756
744.390	0.0141482
744.468	0.0139924
744.546	0.0138824
744.624	0.0138425
744.703	0.0139396
744.781	0.0140610
744.859	0.0143177
744.937	0.0144153
745.015	0.0143821
745.093	0.0145968
745.171	0.0149648
745.249	0.0148389
745.328	0.0147993
745.406	0.0148916
745.484	0.0148017
745.562	0.0147633
745.640	0.0145339
745.718	0.0146434
745.796	0.0144888
745.874	0.0145441
745.953	0.0146339
746.031	0.0146709
746.109	0.0149515
746.187	0.0150254
746.265	0.0152688
746.343	0.0155472
746.421	0.0158234
746.499	0.0161437
746.578	0.0164380
746.656	0.0166358
746.734	0.0170388
746.812	0.0172312
746.890	0.0174512
746.968	0.0176282
747.046	0.0178557
747.124	0.0178589
747.203	0.0176523
747.281	0.0175993
747.359	0.0175549
747.437	0.0171512
747.515	0.0167955
747.593	0.0164717
747.671	0.0160861
747.749	0.0156481
747.828	0.0153969
747.906	0.0150702
747.984	0.0148071
748.062	0.0146767
748.140	0.0143838
748.218	0.0143876
748.296	0.0143417
748.374	0.0142351
748.453	0.0144102
748.531	0.0144949
748.609	0.0145979
748.687	0.0145631
748.765	0.0146886
748.843	0.0147790
748.921	0.0147444
748.999	0.0148271
749.078	0.0148750
749.156	0.0147662
749.234	0.0147860
749.312	0.0149125
749.390	0.0147788
749.468	0.0146317
749.546	0.0145769
749.624	0.0145018
749.703	0.0144386
749.781	0.0144552
749.859	0.0142857
749.937	0.0141337
750.015	0.0142141
750.093	0.0142525
750.171	0.0143270
750.249	0.0144039
750.328	0.0146797
750.406	0.0149616
750.484	0.0151781
750.562	0.0155334
750.640	0.0159084
750.718	0.0163636
750.796	0.0166129
750.874	0.0170673
750.953	0.0171704
751.031	0.0175189
751.109	0.0176345
751.187	0.0176422
751.265	0.0177835
751.343	0.0178792
751.421	0.0176519
751.499	0.0174937
751.578	0.0174855
751.656	0.0169427
751.734	0.0167341
751.812	0.0163597
751.890	0.0157757
751.968	0.0153786
752.046	0.0151744
752.124	0.0148654
752.203	0.0144839
752.281	0.0142882
752.359	0.0140832
752.437	0.0141017
752.515	0.0139945
752.593	0.0139854
752.671	0.0140363
752.749	0.0141038
752.828	0.0140437
752.906	0.0143994
752.984	0.0146339
753.062	0.0148135
753.140	0.0147665
753.218	0.0150673
753.296	0.0152709
753.374	0.0155276
753.453	0.0157363
753.531	0.0159296
753.609	0.0159047
753.687	0.0158956
753.765	0.0160382
753.843	0.0160600
753.921	0.0161039
753.999	0.0159563
754.078	0.0157472
754.156	0.0155520
754.234	0.0154946
754.312	0.0153511
754.390	0.0152834
754.468	0.0151873
754.546	0.0147263
754.624	0.0148315
754.703	0.0146309
754.781	0.0147566
754.859	0.0147734
754.937	0.0146108
755.015	0.0147381
755.093	0.0148131
755.171	0.0146841
755.249	0.0149210
755.328	0.0150380
755.406	0.0151523
755.484	0.0152336
755.562	0.0154044
755.640	0.0155784
755.718	0.0158100
755.796	0.0159947
755.874	0.0161107
755.953	0.0163389
756.031	0.0162536
756.109	0.0164857
756.187	0.0165710
756.265	0.0166061
756.343	0.0167626
756.421	0.0166973
756.499	0.0164148
756.578	0.0163587
756.656	0.0161126
756.734	0.0159772
756.812	0.0159169
756.890	0.0155924
756.968	0.0155086
757.046	0.0152563
757.124	0.0150732
757.203	0.0148666
757.281	0.0148977
757.359	0.0147944
757.437	0.0146034
757.515	0.0147220
757.593	0.0148320
757.671	0.0148087
757.749	0.0148798
757.828	0.0149284
757.906	0.0151403
757.984	0.0153748
758.062	0.0152940
758.140	0.0152045
758.218	0.0154176
758.296	0.0155920
758.374	0.0156607
758.453	0.0156612
758.531	0.0155811
758.609	0.0155042
758.687	0.0156498
758.765	0.0153352
758.843	0.0152741
758.921	0.0152669
758.999	0.0150738
759.078	0.0150411
759.156	0.0148512
759.234	0.0147064
759.312	0.0146636
759.390	0.0146160
759.468	0.0147141
759.546	0.0147423
759.624	0.0146850
759.703	0.0147733
759.781	0.0147484
759.859	0.0148753
759.937	0.0150930
760.015	0.0151450
760.093	0.0151984
760.171	0.0153465
760.249	0.0155033
760.328	0.0154192
760.406	0.0154437
760.484	0.0155466
760.562	0.0155270
760.640	0.0156016
760.718	0.0157226
760.796	0.0159844
760.874	0.0159324
760.953	0.0162302
761.031	0.0164115
761.109	0.0164331
761.187	0.0167926
761.265	0.0167690
761.343	0.0168183
761.421	0.0168612
761.499	0.0168089
761.578	0.0167316
761.656	0.0166911
761.734	0.0163924
761.812	0.0162144
761.890	0.0160868
761.968	0.0155742
762.046	0.0154551
762.124	0.0153514
762.203	0.0150640
762.281	0.0148816
762.359	0.0148459
762.437	0.0146883
762.515	0.0145673
762.593	0.0146432
762.671	0.0145724
762.749	0.0145994
762.828	0.0146323
762.906	0.0148814
762.984	0.0149561
763.062	0.0147207
763.140	0.0148178
763.218	0.0150065
763.296	0.0149267
763.374	0.0150259
763.453	0.0150735
763.531	0.0150425
763.609	0.0149979
763.687	0.0148862
763.765	0.0149857
763.843	0.0149847
763.921	0.0151093
763.999	0.0151035
764.078	0.0150913
764.156	0.0150937
764.234	0.0152962
764.312	0.0154810
764.390	0.0155043
764.468	0.0156567
764.546	0.0157087
764.624	0.0157169
764.703	0.0159595
764.781	0.0160521
764.859	0.0159686
764.937	0.0160321
765.015	0.0163080
765.093	0.0162130
765.171	0.0161027
765.249	0.0160986
765.328	0.0161135
765.406	0.0158939
765.484	0.0159129
765.562	0.0157751
765.640	0.0156162
765.718	0.0156447
765.796	0.0155801
765.874	0.0156139
765.953	0.0154788
766.031	0.0154954
766.109	0.0154571
766.187	0.0154193
766.265	0.0155011
766.343	0.0152509
766.421	0.0152086
766.499	0.0153084
766.578	0.0152178
766.656	0.0151216
766.734	0.0152533
766.812	0.0151875
766.890	0.0151672
766.968	0.0151819
767.046	0.0152590
767.124	0.0154381
767.203	0.0153124
767.281	0.0153144
767.359	0.0152238
767.437	0.0153950
767.515	0.0154314
767.593	0.0152989
767.671	0.0152566
767.749	0.0152008
767.828	0.0151942
767.906	0.0150851
767.984	0.0149871
768.062	0.0149621
768.140	0.0149899
768.218	0.0149195
768.296	0.0149802
768.374	0.0148759
768.453	0.0148792
768.531	0.0149541
768.609	0.0151225
768.687	0.0151901
768.765	0.0151881
768.843	0.0153426
768.921	0.0153999
768.999	0.0155302
769.078	0.0153506
769.156	0.0156145
769.234	0.0158498
769.312	0.0158673
769.390	0.0157609
769.468	0.0158654
769.546	0.0158917
769.624	0.0158500
769.703	0.0159555
769.781	0.0158064
769.859	0.0157732
769.937	0.0158037
770.015	0.0158371
770.093	0.0156905
770.171	0.0158469
770.249	0.0157468
770.328	0.0155933
770.406	0.0156351
770.484	0.0156374
770.562	0.0156976
770.640	0.0155237
770.718	0.0154774
770.796	0.0154873
770.874	0.0153948
770.953	0.0153187
771.031	0.0153288
771.109	0.0154066
771.187	0.0151649
771.265	0.0152374
771.343	0.0151393
771.421	0.0153271
771.499	0.0152851
771.578	0.0152736
771.656	0.0153439
771.734	0.0152926
771.812	0.0153143
771.890	0.0154881
771.968	0.0154688
772.046	0.0154507
772.124	0.0154833
772.203	0.0155617
772.281	0.0154409
772.359	0.0155753
772.437	0.0154226
772.515	0.0155256
772.593	0.0156396
772.671	0.0156293
772.749	0.0154911
772.828	0.0154095
772.906	0.0154735
772.984	0.0154472
773.062	0.0155700
773.140	0.0154248
773.218	0.0154887
773.296	0.0153808
773.374	0.0155596
773.453	0.0154998
773.531	0.0155273
773.609	0.0154176
773.687	0.0154305
773.765	0.0154795
773.843	0.0154492
773.921	0.0155302
773.999	0.0155876
774.078	0.0155423
774.156	0.0155093
774.234	0.0155206
774.312	0.0154261
774.390	0.0156134
774.468	0.0157001
774.546	0.0156342
774.624	0.0156097
774.703	0.0156540
774.781	0.0154604
774.859	0.0155435
774.937	0.0155418
775.015	0.0154384
775.093	0.0154315
775.171	0.0153391
775.249	0.0150784
775.328	0.0152679
775.406	0.0152581
775.484	0.0151957
775.562	0.0150928
775.640	0.0150761
775.718	0.0150355
775.796	0.0150685
775.874	0.0150895
775.953	0.0151156
776.031	0.0151463
776.109	0.0153534
776.187	0.0153557
776.265	0.0153783
776.343	0.0153364
776.421	0.0154423
776.499	0.0156551
776.578	0.0157096
776.656	0.0158040
776.734	0.0158615
776.812	0.0159008
776.890	0.0157903
776.968	0.0158781
777.046	0.0159490
777.124	0.0158924
777.203	0.0159056
777.281	0.0159686
777.359	0.0157160
777.437	0.0157772
777.515	0.0155420
777.593	0.0157168
777.671	0.0156033
777.749	0.0156031
777.828	0.0155433
777.906	0.0154945
777.984	0.0153389
778.062	0.0154998
778.140	0.0154283
778.218	0.0153888
778.296	0.0154011
778.374	0.0154145
778.453	0.0153606
778.531	0.0152402
778.609	0.0152145
778.687	0.0152914
778.765	0.0153367
778.843	0.0151148
778.921	0.0152359
778.999	0.0151929
779.078	0.0150762
779.156	0.0151946
779.234	0.0153593
779.312	0.0151477
779.390	0.0152012
779.468	0.0152048
779.546	0.0151936
779.624	0.0152307
779.703	0.0152973
779.781	0.0152837
779.859	0.0151463
779.937	0.0153259
780.015	0.0153116
780.093	0.0152049
780.171	0.0152597
780.249	0.0152633
780.328	0.0151842
780.406	0.0153201
780.484	0.0152779
780.562	0.0154372
780.640	0.0154854
780.718	0.0152759
780.796	0.0155051
780.874	0.0155615
780.953	0.0155362
781.031	0.0155492
781.109	0.0155087
781.187	0.0156910
781.265	0.0156429
781.343	0.0158831
781.421	0.0158564
781.499	0.0158451
781.578	0.0159588
781.656	0.0159120
781.734	0.0159954
781.812	0.0160217
781.890	0.0160223
781.968	0.0160143
782.046	0.0161118
782.124	0.0158675
782.203	0.0158823
782.281	0.0157014
782.359	0.0157550
782.437	0.0158153
782.515	0.0154723
782.593	0.0154874
782.671	0.0155182
782.749	0.0154015
782.828	0.0153230
782.906	0.0153857
782.984	0.0153159
783.062	0.0153754
783.140	0.0152373
783.218	0.0150604
783.296	0.0151724
783.374	0.0151749
783.453	0.0150751
783.531	0.0150452
783.609	0.0150800
783.687	0.0149721
783.765	0.0150041
783.843	0.0150041
783.921	0.0149948
783.999	0.0150423
784.078	0.0149911
784.156	0.0150522
784.234	0.0150951
784.312	0.0150153
784.390	0.0152987
784.468	0.0153824
784.546	0.0153586
784.624	0.0154072
784.703	0.0155610
784.781	0.0155554
784.859	0.0155457
784.937	0.0156830
785.015	0.0155238
785.093	0.0156269
785.171	0.0157246
785.249	0.0157987
785.328	0.0156916
785.406	0.0156869
785.484	0.0156539
785.562	0.0155639
785.640	0.0155674
785.718	0.0155586
785.796	0.0156024
785.874	0.0155406
785.953	0.0154742
786.031	0.0152996
786.109	0.0154792
786.187	0.0153352
786.265	0.0152327
786.343	0.0152018
786.421	0.0151459
786.499	0.0151834
786.578	0.0152948
786.656	0.0152151
786.734	0.0151751
786.812	0.0153629
786.890	0.0151828
786.968	0.0153603
787.046	0.0153448
787.124	0.0154547
787.203	0.0154594
787.281	0.0153207
787.359	0.0156186
787.437	0.0154451
787.515	0.0155779
787.593	0.0154175
787.671	0.0154203
787.749	0.0154494
787.828	0.0154478
787.906	0.0153413
787.984	0.0155154
788.062	0.0154073
788.140	0.0153046
788.218	0.0153169
788.296	0.0153133
788.374	0.0154021
788.453	0.0155398
788.531	0.0153428
788.609	0.0155576
788.687	0.0155116
788.765	0.0156051
788.843	0.0155978
788.921	0.0156796
788.999	0.0155959
789.078	0.0156904
789.156	0.0157105
789.234	0.0157240
789.312	0.0157014
789.390	0.0156922
789.468	0.0157308
789.546	0.0156111
789.624	0.0155294
789.703	0.0155241
789.781	0.0154216
789.859	0.0154222
789.937	0.0154346
790.015	0.0152882
790.093	0.0153105
790.171	0.0151772
790.249	0.0151271
790.328	0.0151382
790.406	0.0151701
790.484	0.0151471
790.562	0.0150816
790.640	0.0151807
790.718	0.0153088
790.796	0.0152620
790.874	0.0153677
790.953	0.0153243
791.031	0.0153706
791.109	0.0154546
791.187	0.0156629
791.265	0.0155592
791.343	0.0155959
791.421	0.0154921
791.499	0.0155312
791.578	0.0155797
791.656	0.0155987
791.734	0.0155527
791.812	0.0155582
791.890	0.0156472
791.968	0.0155139
792.046	0.0157307
792.124	0.0156629
792.203	0.0156016
792.281	0.0155952
792.359	0.0155964
792.437	0.0155420
792.515	0.0154088
792.593	0.0154356
792.671	0.0155512
792.749	0.0155271
792.828	0.0153858
792.906	0.0153143
792.984	0.0151188
793.062	0.0152967
793.140	0.0153733
793.218	0.0153149
793.296	0.0152396
793.374	0.0152457
793.453	0.0151891
793.531	0.0152620
793.609	0.0153602
793.687	0.0152396
793.765	0.0152234
793.843	0.0151038
793.921	0.0151927
793.999	0.0153533
794.078	0.0152789
794.156	0.0153060
794.234	0.0152290
794.312	0.0154295
794.390	0.0155188
794.468	0.0154732
794.546	0.0155544
794.624	0.0155643
794.703	0.0154914
794.781	0.0155633
794.859	0.0154391
794.937	0.0154595
795.015	0.0155162
795.093	0.0155022
795.171	0.0155448
795.249	0.0155650
795.328	0.0155752
795.406	0.0154504
795.484	0.0154860
795.562	0.0154987
795.640	0.0154161
795.718	0.0156220
795.796	0.0154910
795.874	0.0154356
795.953	0.0154749
796.031	0.0154032
796.109	0.0153446
796.187	0.0152765
796.265	0.0153741
796.343	0.0154137
796.421	0.0154325
796.499	0.0152700
796.578	0.0152208
796.656	0.0153558
796.734	0.0152814
796.812	0.0153044
796.890	0.0153661
796.968	0.0152449
797.046	0.0151680
797.124	0.0152921
797.203	0.0153090
797.281	0.0153633
797.359	0.0153206
797.437	0.0153672
797.515	0.0153632
797.593	0.0153905
797.671	0.0152818
797.749	0.0153699
797.828	0.0154485
797.906	0.0152821
797.984	0.0154592
798.062	0.0154312
798.140	0.0154205
798.218	0.0154252
798.296	0.0154381
798.374	0.0155526
798.453	0.0153742
798.531	0.0152681
798.609	0.0155016
798.687	0.0155265
798.765	0.0153303
798.843	0.0153747
798.921	0.0154452
798.999	0.0154597
799.078	0.0152306
799.156	0.0153891
799.234	0.0155471
799.312	0.0152322
799.390	0.0153587
799.468	0.0155087
799.546	0.0154947
799.624	0.0154836
799.703	0.0154464
799.781	0.0154193
799.859	0.0156571
799.937	0.0156377
800.015	0.0155963
800.093	0.0155748
800.171	0.0157590
800.249	0.0157091
800.328	0.0155460
800.406	0.0156219
800.484	0.0156725
800.562	0.0156400
800.640	0.0155966
800.718	0.0154404
800.796	0.0155003
800.874	0.0154050
800.953	0.0154615
801.031	0.0153738
801.109	0.0153955
801.187	0.0153518
801.265	0.0153241
801.343	0.0152499
801.421	0.0152751
801.499	0.0153827
801.578	0.0152311
801.656	0.0152680
801.734	0.0152610
801.812	0.0152247
801.890	0.0152087
801.968	0.0152700
802.046	0.0152418
802.124	0.0152438
802.203	0.0151612
802.281	0.0152958
802.359	0.0154759
802.437	0.0153688
802.515	0.0151765
802.593	0.0153194
802.671	0.0154929
802.749	0.0155447
802.828	0.0154272
802.906	0.0153347
802.984	0.0154557
803.062	0.0155433
803.140	0.0155757
803.218	0.0155369
803.296	0.0156475
803.374	0.0155340
803.453	0.0157312
803.531	0.0157078
803.609	0.0155304
803.687	0.0154732
803.765	0.0155795
803.843	0.0155536
803.921	0.0153845
803.999	0.0154317
804.078	0.0153683
804.156	0.0153942
804.234	0.0153165
804.312	0.0153956
804.390	0.0153312
804.468	0.0154408
804.546	0.0152794
804.624	0.0153489
804.703	0.0153136
804.781	0.0153091
804.859	0.0153162
804.937	0.0154337
805.015	0.0154166
805.093	0.0154082
805.171	0.0155012
805.249	0.0155119
805.328	0.0155419
805.406	0.0157376
805.484	0.0156487
805.562	0.0157948
805.640	0.0158509
805.718	0.0159132
805.796	0.0158847
805.874	0.0157674
805.953	0.0159427
806.031	0.0157336
806.109	0.0156383
806.187	0.0156572
806.265	0.0156537
806.343	0.0155441
806.421	0.0153124
806.499	0.0153291
806.578	0.0153413
806.656	0.0153094
806.734	0.0150935
806.812	0.0150779
806.890	0.0151299
806.968	0.0150222
807.046	0.0150271
807.124	0.0151214
807.203	0.0151114
807.281	0.0149871
807.359	0.0151927
807.437	0.0152348
807.515	0.0153077
807.593	0.0153605
807.671	0.0154141
807.749	0.0155248
807.828	0.0155839
807.906	0.0155897
807.984	0.0155482
808.062	0.0156371
808.140	0.0155727
808.218	0.0156900
808.296	0.0155284
808.374	0.0156478
808.453	0.0156113
808.531	0.0156789
808.609	0.0154832
808.687	0.0155047
808.765	0.0154911
808.843	0.0154097
808.921	0.0153127
808.999	0.0154472
809.078	0.0152872
809.156	0.0153175
809.234	0.0152586
809.312	0.0153348
809.390	0.0152570
809.468	0.0153913
809.546	0.0153468
809.624	0.0151697
809.703	0.0154848
809.781	0.0153239
809.859	0.0154064
809.937	0.0154741
810.015	0.0157093
810.093	0.0156024
810.171	0.0156041
810.249	0.0155770
810.328	0.0154181
810.406	0.0154974
810.484	0.0156715
810.562	0.0155116
810.640	0.0155238
810.718	0.0154921
810.796	0.0154927
810.874	0.0155690
810.953	0.0155952
811.031	0.0154711
811.109	0.0155441
811.187	0.0155165
811.265	0.0154298
811.343	0.0154118
811.421	0.0153799
811.499	0.0153889
811.578	0.0154453
811.656	0.0153978
811.734	0.0154583
811.812	0.0153973
811.890	0.0154934
811.968	0.0155871
812.046	0.0154370
812.124	0.0153997
812.203	0.0155093
812.281	0.0154591
812.359	0.0153214
812.437	0.0154509
812.515	0.0154542
812.593	0.0155094
812.671	0.0154778
812.749	0.0153784
812.828	0.0154871
812.906	0.0154005
812.984	0.0154167
813.062	0.0154448
813.140	0.0154459
813.218	0.0154957
813.296	0.0154209
813.374	0.0154787
813.453	0.0152790
813.531	0.0154453
813.609	0.0154928
813.687	0.0155111
813.765	0.0154263
813.843	0.0153407
813.921	0.0153942
813.999	0.0154262
814.078	0.0153468
814.156	0.0154198
814.234	0.0154572
814.312	0.0153921
814.390	0.0155273
814.468	0.0155120
814.546	0.0155489
814.624	0.0156298
814.703	0.0155721
814.781	0.0155854
814.859	0.0155509
814.937	0.0154932
815.015	0.0155702
815.093	0.0155904
815.171	0.0156210
815.249	0.0157252
815.328	0.0155260
815.406	0.0154762
815.484	0.0156099
815.562	0.0153500
815.640	0.0154725
815.718	0.0154713
815.796	0.0153898
815.874	0.0154116
815.953	0.0155608
816.031	0.0154193
816.109	0.0154224
816.187	0.0154543
816.265	0.0155279
816.343	0.0153830
816.421	0.0153061
816.499	0.0156009
816.578	0.0154610
816.656	0.0154334
816.734	0.0153355
816.812	0.0154883
816.890	0.0155025
816.968	0.0152840
817.046	0.0154520
817.124	0.0152428
817.203	0.0152036
817.281	0.0152622
817.359	0.0152248
817.437	0.0151430
817.515	0.0152938
817.593	0.0152592
817.671	0.0152522
817.749	0.0154424
817.828	0.0153718
817.906	0.0154858
817.984	0.0154967
818.062	0.0155424
818.140	0.0153883
818.218	0.0154838
818.296	0.0153889
818.374	0.0154365
818.453	0.0154800
818.531	0.0154356
818.609	0.0154807
818.687	0.0156351
818.765	0.0155534
818.843	0.0155419
818.921	0.0155032
818.999	0.0154543
819.078	0.0156013
819.156	0.0155581
819.234	0.0154531
819.312	0.0153484
819.390	0.0155013
819.468	0.0153716
819.546	0.0155714
819.624	0.0155192
819.703	0.0154592
819.781	0.0154099
819.859	0.0154461
819.937	0.0154872
820.015	0.0153020
820.093	0.0153399
820.171	0.0154996
820.249	0.0154064
820.328	0.0153209
820.406	0.0152657
820.484	0.0153866
820.562	0.0152913
820.640	0.0153566
820.718	0.0153682
820.796	0.0153538
820.874	0.0153038
820.953	0.0153896
821.031	0.0152959
821.109	0.0153092
821.187	0.0153188
821.265	0.0154014
821.343	0.0153559
821.421	0.0153542
821.499	0.0154093
821.578	0.0154240
821.656	0.0156196
821.734	0.0154326
821.812	0.0155221
821.890	0.0153918
821.968	0.0154448
822.046	0.0155131
822.124	0.0155284
822.203	0.0155869
822.281	0.0155259
822.359	0.0154787
822.437	0.0154880
822.515	0.0155533
822.593	0.0154802
822.671	0.0155511
822.749	0.0155589
822.828	0.0155124
822.906	0.0153442
822.984	0.0154883
823.062	0.0154272
823.140	0.0153539
823.218	0.0152657
823.296	0.0152754
823.374	0.0153599
823.453	0.0153352
823.531	0.0152475
823.609	0.0153004
823.687	0.0152957
823.765	0.0154121
823.843	0.0154209
823.921	0.0154414
823.999	0.0153236
824.078	0.0152232
824.156	0.0153808
824.234	0.0154447
824.312	0.0152947
824.390	0.0153573
824.468	0.0154186
824.546	0.0154082
824.624	0.0153883
824.703	0.0153674
824.781	0.0153481
824.859	0.0154427
824.937	0.0153342
825.015	0.0154774
825.093	0.0156518
825.171	0.0156421
825.249	0.0154681
825.328	0.0153056
825.406	0.0154985
825.484	0.0155487
825.562	0.0155952
825.640	0.0156075
825.718	0.0154963
825.796	0.0155022
825.874	0.0156322
825.953	0.0154925
826.031	0.0154401
826.109	0.0154880
826.187	0.0155937
826.265	0.0154335
826.343	0.0155434
826.421	0.0154039
826.499	0.0155178
826.578	0.0154184
826.656	0.0154933
826.734	0.0153869
826.812	0.0153886
826.890	0.0153186
826.968	0.0153748
827.046	0.0154612
827.124	0.0152648
827.203	0.0153802
827.281	0.0152858
827.359	0.0153380
827.437	0.0152653
827.515	0.0153421
827.593	0.0153732
827.671	0.0150910
827.749	0.0153347
827.828	0.0152818
827.906	0.0153580
827.984	0.0153957
828.062	0.0152868
828.140	0.0153445
828.218	0.0153526
828.296	0.0154025
828.374	0.0152787
828.453	0.0153133
828.531	0.0153506
828.609	0.0153931
828.687	0.0153304
828.765	0.0153922
828.843	0.0154489
828.921	0.0153191
828.999	0.0153333
829.078	0.0153682
829.156	0.0154504
829.234	0.0154533
829.312	0.0155007
829.390	0.0154060
829.468	0.0155497
829.546	0.0154489
829.624	0.0155415
829.703	0.0155056
829.781	0.0156046
829.859	0.0155907
829.937	0.0156638
830.015	0.0155047
830.093	0.0156593
830.171	0.0156255
830.249	0.0154218
830.328	0.0156239
830.406	0.0154865
830.484	0.0155605
830.562	0.0155453
830.640	0.0155473
830.718	0.0155516
830.796	0.0153818
830.874	0.0154916
830.953	0.0154601
831.031	0.0152741
831.109	0.0153049
831.187	0.0154121
831.265	0.0151513
831.343	0.0153389
831.421	0.0152491
831.499	0.0152029
831.578	0.0153690
831.656	0.0154166
831.734	0.0153683
831.812	0.0153191
831.890	0.0152076
831.968	0.0153073
832.046	0.0153665
832.124	0.0153474
832.203	0.0153436
832.281	0.0152357
832.359	0.0152615
832.437	0.0153555
832.515	0.0154866
832.593	0.0154599
832.671	0.0154781
832.749	0.0153734
832.828	0.0154330
832.906	0.0154353
832.984	0.0153356
833.062	0.0153551
833.140	0.0152918
833.218	0.0153906
833.296	0.0152803
833.374	0.0154765
833.453	0.0155679
833.531	0.0154581
833.609	0.0155080
833.687	0.0153938
833.765	0.0153812
833.843	0.0155647
833.921	0.0155879
833.999	0.0155272
834.078	0.0155193
834.156	0.0155922
834.234	0.0156818
834.312	0.0156219
834.390	0.0155121
834.468	0.0155413
834.546	0.0155756
834.624	0.0155907
834.703	0.0155735
834.781	0.0154465
834.859	0.0154909
834.937	0.0154376
835.015	0.0154958
835.093	0.0153415
835.171	0.0153202
835.249	0.0153683
835.328	0.0153661
835.406	0.0152012
835.484	0.0152557
835.562	0.0152816
835.640	0.0153750
835.718	0.0152715
835.796	0.0153677
835.874	0.0152797
835.953	0.0152358
836.031	0.0152844
836.109	0.0153971
836.187	0.0153061
836.265	0.0152550
836.343	0.0151545
836.421	0.0155116
836.499	0.0154332
836.578	0.0152868
836.656	0.0153925
836.734	0.0154746
836.812	0.0155538
836.890	0.0155683
836.968	0.0153992
837.046	0.0156388
837.124	0.0154739
837.203	0.0155584
837.281	0.0154791
837.359	0.0156245
837.437	0.0155455
837.515	0.0154506
837.593	0.0154079
837.671	0.0154182
837.749	0.0154510
837.828	0.0154128
837.906	0.0153552
837.984	0.0154123
838.062	0.0153279
838.140	0.0152737
838.218	0.0153689
838.296	0.0153986
838.374	0.0153012
838.453	0.0152299
838.531	0.0153315
838.609	0.0152192
838.687	0.0151452
838.765	0.0152622
838.843	0.0151980
838.921	0.0153504
838.999	0.0152308
839.078	0.0152910
839.156	0.0153800
839.234	0.0153201
839.312	0.0154915
839.390	0.0156140
839.468	0.0155972
839.546	0.0157287
839.624	0.0157472
839.703	0.0156552
839.781	0.0157100
839.859	0.0157783
839.937	0.0156560
840.015	0.0155620
840.093	0.0154813
840.171	0.0154838
840.249	0.0156814
840.328	0.0154824
840.406	0.0155909
840.484	0.0155108
840.562	0.0155602
840.640	0.0154185
840.718	0.0154625
840.796	0.0154588
840.874	0.0154707
840.953	0.0153603
841.031	0.0153226
841.109	0.0153549
841.187	0.0153031
841.265	0.0153192
841.343	0.0154327
841.421	0.0153670
841.499	0.0152854
841.578	0.0153197
841.656	0.0153748
841.734	0.0152737
841.812	0.0152057
841.890	0.0152567
841.968	0.0152612
842.046	0.0153226
842.124	0.0152689
842.203	0.0153234
842.281	0.0151677
842.359	0.0150943
842.437	0.0152074
842.515	0.0152186
842.593	0.0152462
842.671	0.0152884
842.749	0.0153066
842.828	0.0153548
842.906	0.0153917
842.984	0.0153304
843.062	0.0155773
843.140	0.0155782
843.218	0.0154601
843.296	0.0155644
843.374	0.0155017
843.453	0.0155250
843.531	0.0154662
843.609	0.0155927
843.687	0.0156914
843.765	0.0155476
843.843	0.0154529
843.921	0.0155935
843.999	0.0154682
844.078	0.0154987
844.156	0.0152276
844.234	0.0155885
844.312	0.0156795
844.390	0.0154339
844.468	0.0155080
844.546	0.0155476
844.624	0.0153099
844.703	0.0153793
844.781	0.0154938
844.859	0.0154324
844.937	0.0152898
845.015	0.0155340
845.093	0.0154691
845.171	0.0153666
845.249	0.0153571
845.328	0.0152877
845.406	0.0153336
845.484	0.0153300
845.562	0.0154102
845.640	0.0152165
845.718	0.0152585
845.796	0.0152214
845.874	0.0151254
845.953	0.0150475
846.031	0.0152281
846.109	0.0151871
846.187	0.0150822
846.265	0.0152514
846.343	0.0151864
846.421	0.0153168
846.499	0.0153276
846.578	0.0152413
846.656	0.0153069
846.734	0.0154441
846.812	0.0152885
846.890	0.0154672
846.968	0.0154265
847.046	0.0155003
847.124	0.0155019
847.203	0.0155460
847.281	0.0154571
847.359	0.0156072
847.437	0.0154925
847.515	0.0155238
847.593	0.0154993
847.671	0.0155047
847.749	0.0155000
847.828	0.0153870
847.906	0.0155783
847.984	0.0156205
848.062	0.0154581
848.140	0.0154781
848.218	0.0154620
848.296	0.0152914
848.374	0.0154719
848.453	0.0154401
848.531	0.0153856
848.609	0.0153931
848.687	0.0153905
848.765	0.0154541
848.843	0.0153265
848.921	0.0154550
848.999	0.0154568
849.078	0.0152844
849.156	0.0155219
849.234	0.0155069
849.312	0.0154749
849.390	0.0153230
849.468	0.0153598
849.546	0.0153511
849.624	0.0152517
849.703	0.0153373
849.781	0.0153373
849.859	0.0153243
849.937	0.0153873
850.015	0.0153885
850.093	0.0152106
850.171	0.0152486
850.249	0.0152203
850.328	0.0153005
850.406	0.0152634
850.484	0.0153096
850.562	0.0152642
850.640	0.0152079
850.718	0.0151996
850.796	0.0154035
850.874	0.0153992
850.953	0.0151420
851.031	0.0153340
851.109	0.0155443
851.187	0.0153033
851.265	0.0153351
851.343	0.0154273
851.421	0.0154487
851.499	0.0154338
851.578	0.0153545
851.656	0.0154021
851.734	0.0153842
851.812	0.0153147
851.890	0.0153316
851.968	0.0153855
852.046	0.0152964
852.124	0.0154083
852.203	0.0154408
852.281	0.0153534
852.359	0.0154306
852.437	0.0154037
852.515	0.0153336
852.593	0.0153997
852.671	0.0153920
852.749	0.0153489
852.828	0.0153387
852.906	0.0153795
852.984	0.0155121
853.062	0.0153460
853.140	0.0154055
853.218	0.0154651
853.296	0.0153398
853.374	0.0153535
853.453	0.0154022
853.531	0.0153999
853.609	0.0153453
853.687	0.0153214
853.765	0.0153998
853.843	0.0154958
853.921	0.0153862
853.999	0.0153989
854.078	0.0153719
854.156	0.0152717
854.234	0.0152155
854.312	0.0153358
854.390	0.0151570
854.468	0.0153415
854.546	0.0154158
854.624	0.0154800
854.703	0.0154288
854.781	0.0154706
854.859	0.0154121
854.937	0.0154405
855.015	0.0154367
855.093	0.0154202
855.171	0.0153945
855.249	0.0153604
855.328	0.0152850
855.406	0.0152998
855.484	0.0154096
855.562	0.0153099
855.640	0.0154898
855.718	0.0154267
855.796	0.0154362
855.874	0.0153226
855.953	0.0154581
856.031	0.0153765
856.109	0.0154174
856.187	0.0153667
856.265	0.0154041
856.343	0.0155490
856.421	0.0154737
856.499	0.0155185
856.578	0.0154856
856.656	0.0153223
856.734	0.0153790
856.812	0.0154344
856.890	0.0155096
856.968	0.0153517
857.046	0.0154360
857.124	0.0153479
857.203	0.0154114
857.281	0.0154480
857.359	0.0155621
857.437	0.0154763
857.515	0.0155801
857.593	0.0155273
857.671	0.0156502
857.749	0.0156400
857.828	0.0155234
857.906	0.0155840
857.984	0.0156046
858.062	0.0154575
858.140	0.0156344
858.218	0.0155344
858.296	0.0154852
858.374	0.0155279
858.453	0.0154070
858.531	0.0154549
858.609	0.0154501
858.687	0.0154234
858.765	0.0153655
858.843	0.0154564
858.921	0.0154143
858.999	0.0153121
859.078	0.0154632
859.156	0.0154030
859.234	0.0153488
859.312	0.0153381
859.390	0.0153358
859.468	0.0153099
859.546	0.0154214
859.624	0.0153462
859.703	0.0153854
859.781	0.0152731
859.859	0.0152620
859.937	0.0153719
860.015	0.0153757
860.093	0.0152832
860.171	0.0153615
860.249	0.0152438
860.328	0.0152658
860.406	0.0154526
860.484	0.0152853
860.562	0.0154494
860.640	0.0154407
860.718	0.0153423
860.796	0.0155797
860.874	0.0154755
860.953	0.0155070
861.031	0.0155686
861.109	0.0156272
861.187	0.0155222
861.265	0.0154992
861.343	0.0154960
861.421	0.0154960
861.499	0.0155780
861.578	0.0154783
861.656	0.0155106
861.734	0.0155869
861.812	0.0155246
861.890	0.0155600
861.968	0.0153050
862.046	0.0155555
862.124	0.0154442
862.203	0.0154576
862.281	0.0154063
862.359	0.0154027
862.437	0.0154935
862.515	0.0155295
862.593	0.0153550
862.671	0.0153522
862.749	0.0155196
862.828	0.0154156
862.906	0.0153236
862.984	0.0154217
863.062	0.0154185
863.140	0.0155797
863.218	0.0153474
863.296	0.0152213
863.374	0.0152545
863.453	0.0154741
863.531	0.0154179
863.609	0.0153382
863.687	0.0153375
863.765	0.0152888
863.843	0.0154053
863.921	0.0154562
863.999	0.0152364
864.078	0.0153490
864.156	0.0154154
864.234	0.0154426
864.312	0.0154041
864.390	0.0153830
864.468	0.0152850
864.546	0.0154156
864.624	0.0154163
864.703	0.0153880
864.781	0.0154220
864.859	0.0154340
864.937	0.0153625
865.015	0.0155464
865.093	0.0154218
865.171	0.0154490
865.249	0.0155128
865.328	0.0155640
865.406	0.0156069
865.484	0.0156481
865.562	0.0156392
865.640	0.0157486
865.718	0.0155968
865.796	0.0154765
865.874	0.0156885
865.953	0.0156540
866.031	0.0155750
866.109	0.0155568
866.187	0.0154467
866.265	0.0154899
866.343	0.0155322
866.421	0.0155662
866.499	0.0154169
866.578	0.0154013
866.656	0.0153239
866.734	0.0153757
866.812	0.0155136
866.890	0.0153922
866.968	0.0152235
867.046	0.0154079
867.124	0.0154180
867.203	0.0153030
867.281	0.0152937
867.359	0.0154305
867.437	0.0153701
867.515	0.0154388
867.593	0.0154494
867.671	0.0154749
867.749	0.0154338
867.828	0.0153836
867.906	0.0153259
867.984	0.0154420
868.062	0.0154803
868.140	0.0152665
868.218	0.0153682
868.296	0.0155291
868.374	0.0153931
868.453	0.0153462
868.531	0.0152792
868.609	0.0154318
868.687	0.0154431
868.765	0.0153659
868.843	0.0154659
868.921	0.0154087
868.999	0.0153497
869.078	0.0154355
869.156	0.0153536
869.234	0.0153422
869.312	0.0153764
869.390	0.0152985
869.468	0.0153830
869.546	0.0153972
869.624	0.0153698
869.703	0.0153766
869.781	0.0153950
869.859	0.0154646
869.937	0.0153928
870.015	0.0152749
870.093	0.0155526
870.171	0.0153452
870.249	0.0155154
870.328	0.0153313
870.406	0.0152753
870.484	0.0154045
870.562	0.0153598
870.640	0.0152636
870.718	0.0151615
870.796	0.0153768
870.874	0.0154415
870.953	0.0153284
871.031	0.0153510
871.109	0.0154115
871.187	0.0152908
871.265	0.0153587
871.343	0.0153090
871.421	0.0153194
871.499	0.0152848
871.578	0.0153618
871.656	0.0153480
871.734	0.0153811
871.812	0.0154089
871.890	0.0155185
871.968	0.0155111
872.046	0.0155549
872.124	0.0155505
872.203	0.0155073
872.281	0.0155499
872.359	0.0155074
872.437	0.0155504
872.515	0.0154713
872.593	0.0155218
872.671	0.0153140
872.749	0.0154502
872.828	0.0154800
872.906	0.0154621
872.984	0.0154657
873.062	0.0153120
873.140	0.0152936
873.218	0.0153620
873.296	0.0152930
873.374	0.0152039
873.453	0.0152789
873.531	0.0152660
873.609	0.0154397
873.687	0.0154260
873.765	0.0153652
873.843	0.0155039
873.921	0.0155232
873.999	0.0154503
874.078	0.0154073
874.156	0.0154387
874.234	0.0154027
874.312	0.0155581
874.390	0.0155360
874.468	0.0154520
874.546	0.0155969
874.624	0.0153690
874.703	0.0153617
874.781	0.0154824
874.859	0.0155087
874.937	0.0153191
875.015	0.0154044
875.093	0.0155190
875.171	0.0153826
875.249	0.0154777
875.328	0.0153690
875.406	0.0155215
875.484	0.0153865
875.562	0.0153884
875.640	0.0154069
875.718	0.0153198
875.796	0.0154131
875.874	0.0153452
875.953	0.0153127
876.031	0.0153329
876.109	0.0153195
876.187	0.0152928
876.265	0.0153246
876.343	0.0154096
876.421	0.0153512
876.499	0.0152239
876.578	0.0155070
876.656	0.0154726
876.734	0.0154636
876.812	0.0154198
876.890	0.0155186
876.968	0.0155202
877.046	0.0154578
877.124	0.0155013
877.203	0.0154833
877.281	0.0154038
877.359	0.0153811
877.437	0.0154857
877.515	0.0155409
877.593	0.0155735
877.671	0.0155667
877.749	0.0154118
877.828	0.0153303
877.906	0.0154298
877.984	0.0154167
878.062	0.0153742
878.140	0.0154821
878.218	0.0154729
878.296	0.0153469
878.374	0.0153369
878.453	0.0155876
878.531	0.0156501
878.609	0.0155966
878.687	0.0154361
878.765	0.0154346
878.843	0.0154875
878.921	0.0155953
878.999	0.0154366
879.078	0.0153445
879.156	0.0153172
879.234	0.0152916
879.312	0.0152551
879.390	0.0154919
879.468	0.0152850
879.546	0.0152607
879.624	0.0154252
879.703	0.0153645
879.781	0.0153438
879.859	0.0153452
879.937	0.0151853
880.015	0.0152486
880.093	0.0152831
880.171	0.0154047
880.249	0.0153394
880.328	0.0153159
880.406	0.0153238
880.484	0.0154704
880.562	0.0153249
880.640	0.0154622
880.718	0.0154384
880.796	0.0153763
880.874	0.0154178
880.953	0.0154479
881.031	0.0154640
881.109	0.0155816
881.187	0.0156446
881.265	0.0154099
881.343	0.0156763
881.421	0.0155962
881.499	0.0155857
881.578	0.0156207
881.656	0.0156622
881.734	0.0156597
881.812	0.0156367
881.890	0.0155750
881.968	0.0154796
882.046	0.0155162
882.124	0.0154939
882.203	0.0153936
882.281	0.0153884
882.359	0.0154338
882.437	0.0152720
882.515	0.0154757
882.593	0.0152518
882.671	0.0152671
882.749	0.0153094
882.828	0.0153479
882.906	0.0153850
882.984	0.0154134
883.062	0.0153667
883.140	0.0153349
883.218	0.0153240
883.296	0.0152059
883.374	0.0154556
883.453	0.0156124
883.531	0.0155441
883.609	0.0153968
883.687	0.0154602
883.765	0.0155435
883.843	0.0154972
883.921	0.0154368
883.999	0.0155990
884.078	0.0154716
884.156	0.0156131
884.234	0.0155918
884.312	0.0154657
884.390	0.0154236
884.468	0.0155355
884.546	0.0155502
884.624	0.0154714
884.703	0.0154766
884.781	0.0155624
884.859	0.0155689
884.937	0.0156027
885.015	0.0156075
885.093	0.0154497
885.171	0.0154829
885.249	0.0154087
885.328	0.0156392
885.406	0.0154962
885.484	0.0154642
885.562	0.0154850
885.640	0.0154568
885.718	0.0155239
885.796	0.0155083
885.874	0.0154159
885.953	0.0153896
886.031	0.0154025
886.109	0.0152574
886.187	0.0152491
886.265	0.0154511
886.343	0.0153393
886.421	0.0153001
886.499	0.0152454
886.578	0.0154523
886.656	0.0153104
886.734	0.0153849
886.812	0.0153166
886.890	0.0152676
886.968	0.0153851
887.046	0.0154543
887.124	0.0152473
887.203	0.0153966
887.281	0.0153385
887.359	0.0154002
887.437	0.0153469
887.515	0.0153780
887.593	0.0154579
887.671	0.0154411
887.749	0.0155293
887.828	0.0155645
887.906	0.0156038
887.984	0.0154781
888.062	0.0155099
888.140	0.0155775
888.218	0.0156449
888.296	0.0156381
888.374	0.0157110
888.453	0.0155692
888.531	0.0157645
888.609	0.0156126
888.687	0.0156319
888.765	0.0156280
888.843	0.0155016
888.921	0.0156782
888.999	0.0154537
889.078	0.0153743
889.156	0.0155267
889.234	0.0153812
889.312	0.0153381
889.390	0.0154960
889.468	0.0153897
889.546	0.0154326
889.624	0.0154386
889.703	0.0152359
889.781	0.0153708
889.859	0.0153212
889.937	0.0152649
890.015	0.0152194
890.093	0.0153372
890.171	0.0154311
890.249	0.0152241
890.328	0.0153761
890.406	0.0153074
890.484	0.0152941
890.562	0.0153916
890.640	0.0154220
890.718	0.0154423
890.796	0.0153828
890.874	0.0153226
890.953	0.0153032
891.031	0.0154978
891.109	0.0154997
891.187	0.0154713
891.265	0.0154413
891.343	0.0154260
891.421	0.0154120
891.499	0.0155620
891.578	0.0154794
891.656	0.0154111
891.734	0.0155969
891.812	0.0154977
891.890	0.0155626
891.968	0.0155392
892.046	0.0155224
892.124	0.0154760
892.203	0.0154781
892.281	0.0154246
892.359	0.0155119
892.437	0.0155737
892.515	0.0154572
892.593	0.0153990
892.671	0.0154319
892.749	0.0154184
892.828	0.0153381
892.906	0.0153271
892.984	0.0154150
893.062	0.0154053
893.140	0.0153532
893.218	0.0153585
893.296	0.0154462
893.374	0.0152856
893.453	0.0153614
893.531	0.0154785
893.609	0.0153656
893.687	0.0154252
893.765	0.0154707
893.843	0.0154883
893.921	0.0154242
893.999	0.0155503
894.078	0.0153526
894.156	0.0154495
894.234	0.0153925
894.312	0.0154845
894.390	0.0155824
894.468	0.0152703
894.546	0.0152074
894.624	0.0153772
894.703	0.0153796
894.781	0.0152782
894.859	0.0153226
894.937	0.0152109
895.015	0.0153628
895.093	0.0153864
895.171	0.0154150
895.249	0.0155058
895.328	0.0154002
895.406	0.0153838
895.484	0.0154842
895.562	0.0155641
895.640	0.0155398
895.718	0.0155204
895.796	0.0155890
895.874	0.0156100
895.953	0.0155393
896.031	0.0157224
896.109	0.0156690
896.187	0.0155843
896.265	0.0155214
896.343	0.0156403
896.421	0.0155282
896.499	0.0154739
896.578	0.0155476
896.656	0.0155583
896.734	0.0153308
896.812	0.0156258
896.890	0.0155856
896.968	0.0153633
897.046	0.0154491
897.124	0.0154353
897.203	0.0153019
897.281	0.0154097
897.359	0.0154303
897.437	0.0154014
897.515	0.0152203
897.593	0.0154690
897.671	0.0152705
897.749	0.0153454
897.828	0.0154460
897.906	0.0154160
897.984	0.0153706
898.062	0.0152589
898.140	0.0155045
898.218	0.0153416
898.296	0.0153467
898.374	0.0153712
898.453	0.0154075
898.531	0.0155055
898.609	0.0153634
898.687	0.0154902
898.765	0.0154321
898.843	0.0153575
898.921	0.0154439
898.999	0.0154198
899.078	0.0154491
899.156	0.0153281
899.234	0.0153790
899.312	0.0153652
899.390	0.0154672
899.468	0.0155203
899.546	0.0155100
899.624	0.0154026
899.703	0.0154259
899.781	0.0154964
899.859	0.0155140
899.937	0.0155170
900.015	0.0155234
900.093	0.0154666
900.171	0.0154372
900.249	0.0154218
900.328	0.0152747
900.406	0.0154675
900.484	0.0154322
900.562	0.0155200
900.640	0.0154617
900.718	0.0154545
900.796	0.0154559
900.874	0.0154366
900.953	0.0153981
901.031	0.0153725
901.109	0.0154176
901.187	0.0153582
901.265	0.0153774
901.343	0.0154726
901.421	0.0155038
901.499	0.0153407
901.578	0.0155065
901.656	0.0153453
901.734	0.0153353
901.812	0.0154102
901.890	0.0154740
901.968	0.0154594
902.046	0.0154137
902.124	0.0154421
902.203	0.0154039
902.281	0.0154862
902.359	0.0153050
902.437	0.0154178
902.515	0.0155341
902.593	0.0153424
902.671	0.0153656
902.749	0.0153622
902.828	0.0154586
902.906	0.0154237
902.984	0.0154176
903.062	0.0154720
903.140	0.0153459
903.218	0.0151780
903.296	0.0153183
903.374	0.0154539
903.453	0.0153867
903.531	0.0153386
903.609	0.0154585
903.687	0.0153513
903.765	0.0153370
903.843	0.0153802
903.921	0.0155375
903.999	0.0154651
904.078	0.0155061
904.156	0.0154936
904.234	0.0155928
904.312	0.0155076
904.390	0.0154413
904.468	0.0155331
904.546	0.0154155
904.624	0.0153387
904.703	0.0154191
904.781	0.0153917
904.859	0.0154503
904.937	0.0154067
905.015	0.0152701
905.093	0.0154108
905.171	0.0154391
905.249	0.0151933
905.328	0.0152479
905.406	0.0152492
905.484	0.0154528
905.562	0.0154112
905.640	0.0153768
905.718	0.0153126
905.796	0.0154163
905.874	0.0154762
905.953	0.0154284
906.031	0.0154588
906.109	0.0154357
906.187	0.0154660
906.265	0.0154410
906.343	0.0155379
906.421	0.0155842
906.499	0.0155733
906.578	0.0157363
906.656	0.0156359
906.734	0.0154979
906.812	0.0154949
906.890	0.0155861
906.968	0.0155293
907.046	0.0155514
907.124	0.0155497
907.203	0.0153526
907.281	0.0155698
907.359	0.0154072
907.437	0.0155051
907.515	0.0154378
907.593	0.0153799
907.671	0.0153979
907.749	0.0154267
907.828	0.0153835
907.906	0.0153696
907.984	0.0152400
908.062	0.0153352
908.140	0.0154681
908.218	0.0154753
908.296	0.0152969
908.374	0.0153970
908.453	0.0153403
908.531	0.0152948
908.609	0.0154664
908.687	0.0155051
908.765	0.0153661
908.843	0.0154583
908.921	0.0154558
908.999	0.0153571
909.078	0.0155459
909.156	0.0154566
909.234	0.0153274
909.312	0.0154298
909.390	0.0154011
909.468	0.0153890
909.546	0.0154858
909.624	0.0154342
909.703	0.0153309
909.781	0.0153272
909.859	0.0155337
909.937	0.0153986
910.015	0.0154399
910.093	0.0154838
910.171	0.0154421
910.249	0.0155123
910.328	0.0154144
910.406	0.0154946
910.484	0.0154790
910.562	0.0155366
910.640	0.0155274
910.718	0.0155597
910.796	0.0155137
910.874	0.0155344
910.953	0.0155762
911.031	0.0155923
911.109	0.0156644
911.187	0.0154916
911.265	0.0154610
911.343	0.0155838
911.421	0.0155003
911.499	0.0155389
911.578	0.0154627
911.656	0.0154485
911.734	0.0155646
911.812	0.0155276
911.890	0.0154038
911.968	0.0154160
912.046	0.0153013
912.124	0.0153925
912.203	0.0153367
912.281	0.0154662
912.359	0.0153777
912.437	0.0153654
912.515	0.0153004
912.593	0.0152963
912.671	0.0153905
912.749	0.0153164
912.828	0.0152743
912.906	0.0152763
912.984	0.0153559
913.062	0.0154533
913.140	0.0153162
913.218	0.0153793
913.296	0.0155356
913.374	0.0154518
913.453	0.0154371
913.531	0.0153690
913.609	0.0155373
913.687	0.0153598
913.765	0.0152372
913.843	0.0154067
913.921	0.0154323
913.999	0.0154176
914.078	0.0154748
914.156	0.0155384
914.234	0.0153297
914.312	0.0155032
914.390	0.0154159
914.468	0.0155064
914.546	0.0154282
914.624	0.0153647
914.703	0.0154382
914.781	0.0153501
914.859	0.0154704
914.937	0.0155130
915.015	0.0153849
915.093	0.0153688
915.171	0.0154603
915.249	0.0153479
915.328	0.0154056
915.406	0.0154502
915.484	0.0152897
915.562	0.0153596
915.640	0.0153669
915.718	0.0152875
915.796	0.0153196
915.874	0.0152692
915.953	0.0153732
916.031	0.0153265
916.109	0.0154685
916.187	0.0154939
916.265	0.0152735
916.343	0.0153160
916.421	0.0153906
916.499	0.0153067
916.578	0.0154055
916.656	0.0153040
916.734	0.0153998
916.812	0.0154820
916.890	0.0153503
916.968	0.0153750
917.046	0.0154813
917.124	0.0154633
917.203	0.0155585
917.281	0.0155299
917.359	0.0154038
917.437	0.0154517
917.515	0.0154666
917.593	0.0154871
917.671	0.0154163
917.749	0.0154635
917.828	0.0155399
917.906	0.0155396
917.984	0.0155338
918.062	0.0154249
918.140	0.0155794
918.218	0.0153693
918.296	0.0154848
918.374	0.0154871
918.453	0.0152986
918.531	0.0152855
918.609	0.0153611
918.687	0.0153309
918.765	0.0154740
918.843	0.0152724
918.921	0.0152831
918.999	0.0153695
919.078	0.0153278
919.156	0.0153138
919.234	0.0154640
919.312	0.0154214
919.390	0.0153191
919.468	0.0154631
919.546	0.0154161
919.624	0.0154788
919.703	0.0154991
919.781	0.0154642
919.859	0.0155388
919.937	0.0155422
