06/10/2022	18:52:35	Ver.	4.1	UNKNOWN
Optical Delay	600.015094	Delta X		0.078125	Sweeps	1	Scan Rate	0/0
Coordinates	Axis 1	NaN	Axis 2	NaN	Axis 3	NaN	Axis 4	NaN	Axis 5	NaN	Axis 6	0.000000
TX Power	0.000000	RX Power	0.000000

600.015	0.0165226
600.093	0.0163659
600.171	0.0164642
600.249	0.0164836
600.328	0.0164880
600.406	0.0165710
600.484	0.0165067
600.562	0.0165198
600.640	0.0164089
600.718	0.0164237
600.796	0.0165941
600.874	0.0165674
600.953	0.0164452
601.031	0.0164277
601.109	0.0165950
601.187	0.0164816
601.265	0.0164757
601.343	0.0164410
601.421	0.0164056
601.499	0.0166336
601.578	0.0165122
601.656	0.0164497
601.734	0.0165089
601.812	0.0165404
601.890	0.0163597
601.968	0.0164599
602.046	0.0164783
602.124	0.0165652
602.203	0.0165512
602.281	0.0165237
602.359	0.0163895
602.437	0.0164652
602.515	0.0164124
602.593	0.0163966
602.671	0.0164221
602.749	0.0165059
602.828	0.0165602
602.906	0.0165203
602.984	0.0165342
603.062	0.0164642
603.140	0.0165899
603.218	0.0163869
603.296	0.0165408
603.374	0.0164967
603.453	0.0166361
603.531	0.0164589
603.609	0.0164336
603.687	0.0164928
603.765	0.0166089
603.843	0.0165500
603.921	0.0164774
603.999	0.0164306
604.078	0.0164301
604.156	0.0165019
604.234	0.0164426
604.312	0.0164191
604.390	0.0165424
604.468	0.0164745
604.546	0.0163823
604.624	0.0164952
604.703	0.0164941
604.781	0.0166505
604.859	0.0166309
604.937	0.0164666
605.015	0.0164364
605.093	0.0165345
605.171	0.0165112
605.249	0.0165148
605.328	0.0164190
605.406	0.0165611
605.484	0.0164733
605.562	0.0164494
605.640	0.0165322
605.718	0.0166412
605.796	0.0164966
605.874	0.0165775
605.953	0.0165939
606.031	0.0164335
606.109	0.0162983
606.187	0.0164486
606.265	0.0165661
606.343	0.0165536
606.421	0.0165366
606.499	0.0164751
606.578	0.0164958
606.656	0.0163432
606.734	0.0164178
606.812	0.0164854
606.890	0.0164246
606.968	0.0165080
607.046	0.0164722
607.124	0.0164327
607.203	0.0164940
607.281	0.0164169
607.359	0.0163785
607.437	0.0164269
607.515	0.0164381
607.593	0.0163928
607.671	0.0163261
607.749	0.0165173
607.828	0.0166368
607.906	0.0164269
607.984	0.0163755
608.062	0.0164219
608.140	0.0165450
608.218	0.0164974
608.296	0.0166230
608.374	0.0166164
608.453	0.0164215
608.531	0.0163429
608.609	0.0164603
608.687	0.0164481
608.765	0.0164895
608.843	0.0165053
608.921	0.0165812
608.999	0.0165577
609.078	0.0164503
609.156	0.0164931
609.234	0.0164692
609.312	0.0164867
609.390	0.0164584
609.468	0.0164832
609.546	0.0165932
609.624	0.0165201
609.703	0.0164027
609.781	0.0164468
609.859	0.0164683
609.937	0.0163468
610.015	0.0164020
610.093	0.0165467
610.171	0.0164342
610.249	0.0164557
610.328	0.0165129
610.406	0.0165788
610.484	0.0164557
610.562	0.0164508
610.640	0.0164542
610.718	0.0164329
610.796	0.0164075
610.874	0.0164020
610.953	0.0165235
611.031	0.0165434
611.109	0.0165239
611.187	0.0163573
611.265	0.0163792
611.343	0.0165197
611.421	0.0164938
611.499	0.0163807
611.578	0.0164639
611.656	0.0163966
611.734	0.0165503
611.812	0.0165015
611.890	0.0165306
611.968	0.0164583
612.046	0.0164127
612.124	0.0164282
612.203	0.0164970
612.281	0.0164931
612.359	0.0165388
612.437	0.0165071
612.515	0.0164395
612.593	0.0163529
612.671	0.0165555
612.749	0.0164383
612.828	0.0163918
612.906	0.0164465
612.984	0.0165071
613.062	0.0165853
613.140	0.0165691
613.218	0.0164581
613.296	0.0165384
613.374	0.0164639
613.453	0.0164650
613.531	0.0164494
613.609	0.0164951
613.687	0.0164303
613.765	0.0165047
613.843	0.0164941
613.921	0.0164877
613.999	0.0164235
614.078	0.0165321
614.156	0.0164249
614.234	0.0165154
614.312	0.0166258
614.390	0.0164852
614.468	0.0163800
614.546	0.0164480
614.624	0.0165330
614.703	0.0164532
614.781	0.0164500
614.859	0.0164980
614.937	0.0164841
615.015	0.0165216
615.093	0.0165492
615.171	0.0164486
615.249	0.0164185
615.328	0.0164534
615.406	0.0163855
615.484	0.0164733
615.562	0.0164912
615.640	0.0166035
615.718	0.0164086
615.796	0.0165203
615.874	0.0164474
615.953	0.0165476
616.031	0.0165025
616.109	0.0164574
616.187	0.0165310
616.265	0.0163727
616.343	0.0164973
616.421	0.0165127
616.499	0.0164042
616.578	0.0164474
616.656	0.0164327
616.734	0.0165480
616.812	0.0163267
616.890	0.0164230
616.968	0.0164658
617.046	0.0165481
617.124	0.0165771
617.203	0.0165856
617.281	0.0165179
617.359	0.0163522
617.437	0.0164049
617.515	0.0165203
617.593	0.0164352
617.671	0.0164375
617.749	0.0164484
617.828	0.0165403
617.906	0.0164487
617.984	0.0164576
618.062	0.0164872
618.140	0.0164875
618.218	0.0164436
618.296	0.0164957
618.374	0.0164436
618.453	0.0163461
618.531	0.0165780
618.609	0.0165476
618.687	0.0165325
618.765	0.0165439
618.843	0.0164365
618.921	0.0164532
618.999	0.0165279
619.078	0.0164818
619.156	0.0164977
619.234	0.0164550
619.312	0.0164169
619.390	0.0165466
619.468	0.0165549
619.546	0.0165379
619.624	0.0165848
619.703	0.0163071
619.781	0.0164415
619.859	0.0164913
619.937	0.0164179
620.015	0.0165277
620.093	0.0165234
620.171	0.0164208
620.249	0.0164679
620.328	0.0166486
620.406	0.0163997
620.484	0.0163379
620.562	0.0164476
620.640	0.0165221
620.718	0.0164633
620.796	0.0164310
620.874	0.0165453
620.953	0.0164070
621.031	0.0165386
621.109	0.0165182
621.187	0.0164585
621.265	0.0164224
621.343	0.0164227
621.421	0.0164981
621.499	0.0162952
621.578	0.0163553
621.656	0.0164162
621.734	0.0163988
621.812	0.0165160
621.890	0.0164373
621.968	0.0163564
622.046	0.0164040
622.124	0.0164436
622.203	0.0164505
622.281	0.0165630
622.359	0.0165349
622.437	0.0164442
622.515	0.0163675
622.593	0.0164995
622.671	0.0165096
622.749	0.0163892
622.828	0.0163084
622.906	0.0165941
622.984	0.0164523
623.062	0.0163995
623.140	0.0164893
623.218	0.0163614
623.296	0.0164057
623.374	0.0165945
623.453	0.0165604
623.531	0.0164069
623.609	0.0164230
623.687	0.0164884
623.765	0.0164909
623.843	0.0165017
623.921	0.0163057
623.999	0.0163162
624.078	0.0164481
624.156	0.0164874
624.234	0.0164295
624.312	0.0163932
624.390	0.0164534
624.468	0.0164841
624.546	0.0164394
624.624	0.0164674
624.703	0.0164678
624.781	0.0164576
624.859	0.0165331
624.937	0.0163587
625.015	0.0164322
625.093	0.0165886
625.171	0.0165279
625.249	0.0163960
625.328	0.0163120
625.406	0.0164533
625.484	0.0163697
625.562	0.0164274
625.640	0.0165525
625.718	0.0164547
625.796	0.0164745
625.874	0.0163894
625.953	0.0164173
626.031	0.0164397
626.109	0.0164282
626.187	0.0163899
626.265	0.0164529
626.343	0.0165125
626.421	0.0163366
626.499	0.0162846
626.578	0.0164794
626.656	0.0164787
626.734	0.0165182
626.812	0.0164066
626.890	0.0165410
626.968	0.0164738
627.046	0.0165003
627.124	0.0163929
627.203	0.0164287
627.281	0.0166232
627.359	0.0164742
627.437	0.0164294
627.515	0.0165779
627.593	0.0165120
627.671	0.0165020
627.749	0.0165656
627.828	0.0164429
627.906	0.0164304
627.984	0.0163428
628.062	0.0165127
628.140	0.0164872
628.218	0.0162905
628.296	0.0166019
628.374	0.0165237
628.453	0.0163991
628.531	0.0164968
628.609	0.0163831
628.687	0.0164260
628.765	0.0165088
628.843	0.0163992
628.921	0.0164960
628.999	0.0165106
629.078	0.0163732
629.156	0.0164341
629.234	0.0165394
629.312	0.0164924
629.390	0.0164042
629.468	0.0163864
629.546	0.0163987
629.624	0.0164584
629.703	0.0165022
629.781	0.0165044
629.859	0.0165243
629.937	0.0165640
630.015	0.0165005
630.093	0.0163882
630.171	0.0164113
630.249	0.0162948
630.328	0.0164648
630.406	0.0165131
630.484	0.0164764
630.562	0.0164089
630.640	0.0166081
630.718	0.0164572
630.796	0.0164931
630.874	0.0164584
630.953	0.0163966
631.031	0.0164651
631.109	0.0165544
631.187	0.0164293
631.265	0.0164889
631.343	0.0164740
631.421	0.0163176
631.499	0.0163248
631.578	0.0164352
631.656	0.0163157
631.734	0.0164024
631.812	0.0164670
631.890	0.0164615
631.968	0.0163892
632.046	0.0163662
632.124	0.0163843
632.203	0.0163842
632.281	0.0162820
632.359	0.0163585
632.437	0.0164556
632.515	0.0163995
632.593	0.0165691
632.671	0.0165126
632.749	0.0164931
632.828	0.0165297
632.906	0.0165101
632.984	0.0164765
633.062	0.0164922
633.140	0.0164519
633.218	0.0164146
633.296	0.0163808
633.374	0.0165435
633.453	0.0165497
633.531	0.0164658
633.609	0.0164315
633.687	0.0164303
633.765	0.0163969
633.843	0.0164859
633.921	0.0163424
633.999	0.0165312
634.078	0.0164218
634.156	0.0165029
634.234	0.0164268
634.312	0.0163780
634.390	0.0165830
634.468	0.0164366
634.546	0.0164356
634.624	0.0164346
634.703	0.0164419
634.781	0.0165589
634.859	0.0165280
634.937	0.0164455
635.015	0.0163869
635.093	0.0165675
635.171	0.0164342
635.249	0.0165316
635.328	0.0165838
635.406	0.0164226
635.484	0.0164577
635.562	0.0162749
635.640	0.0163199
635.718	0.0165724
635.796	0.0165778
635.874	0.0164511
635.953	0.0164268
636.031	0.0164046
636.109	0.0164518
636.187	0.0166033
636.265	0.0165526
636.343	0.0164118
636.421	0.0163785
636.499	0.0164345
636.578	0.0165513
636.656	0.0165363
636.734	0.0164046
636.812	0.0163184
636.890	0.0164332
636.968	0.0164538
637.046	0.0164477
637.124	0.0165309
637.203	0.0165716
637.281	0.0164531
637.359	0.0165438
637.437	0.0163247
637.515	0.0163326
637.593	0.0164108
637.671	0.0165772
637.749	0.0165519
637.828	0.0163944
637.906	0.0165046
637.984	0.0165506
638.062	0.0164485
638.140	0.0165947
638.218	0.0165033
638.296	0.0164342
638.374	0.0164162
638.453	0.0163503
638.531	0.0164304
638.609	0.0165192
638.687	0.0164822
638.765	0.0164662
638.843	0.0165179
638.921	0.0165262
638.999	0.0163678
639.078	0.0166078
639.156	0.0163698
639.234	0.0164976
639.312	0.0166571
639.390	0.0164963
639.468	0.0163342
639.546	0.0164156
639.624	0.0165397
639.703	0.0164445
639.781	0.0164721
639.859	0.0164196
639.937	0.0164188
640.015	0.0164416
640.093	0.0163971
640.171	0.0163910
640.249	0.0163691
640.328	0.0164415
640.406	0.0164718
640.484	0.0164172
640.562	0.0163950
640.640	0.0164553
640.718	0.0164586
640.796	0.0165052
640.874	0.0165263
640.953	0.0163660
641.031	0.0165191
641.109	0.0163427
641.187	0.0163803
641.265	0.0164266
641.343	0.0165275
641.421	0.0163995
641.499	0.0164803
641.578	0.0163397
641.656	0.0164139
641.734	0.0165184
641.812	0.0166126
641.890	0.0164030
641.968	0.0163691
642.046	0.0165232
642.124	0.0165456
642.203	0.0165359
642.281	0.0164088
642.359	0.0165416
642.437	0.0164266
642.515	0.0164259
642.593	0.0164485
642.671	0.0164934
642.749	0.0164815
642.828	0.0164536
642.906	0.0165015
642.984	0.0164117
643.062	0.0164654
643.140	0.0164793
643.218	0.0164185
643.296	0.0165322
643.374	0.0165620
643.453	0.0164948
643.531	0.0164363
643.609	0.0163900
643.687	0.0165425
643.765	0.0163488
643.843	0.0164736
643.921	0.0165849
643.999	0.0164777
644.078	0.0164170
644.156	0.0164869
644.234	0.0165554
644.312	0.0165523
644.390	0.0164520
644.468	0.0164475
644.546	0.0164046
644.624	0.0164607
644.703	0.0164558
644.781	0.0165417
644.859	0.0165337
644.937	0.0165537
645.015	0.0164269
645.093	0.0164391
645.171	0.0165126
645.249	0.0164363
645.328	0.0164221
645.406	0.0164651
645.484	0.0164983
645.562	0.0164388
645.640	0.0164158
645.718	0.0164787
645.796	0.0165813
645.874	0.0166243
645.953	0.0163705
646.031	0.0164089
646.109	0.0165890
646.187	0.0165131
646.265	0.0164829
646.343	0.0164324
646.421	0.0163918
646.499	0.0164602
646.578	0.0166003
646.656	0.0164307
646.734	0.0164526
646.812	0.0164089
646.890	0.0165050
646.968	0.0164432
647.046	0.0165794
647.124	0.0164355
647.203	0.0164752
647.281	0.0165231
647.359	0.0164146
647.437	0.0165340
647.515	0.0165433
647.593	0.0165351
647.671	0.0164758
647.749	0.0166634
647.828	0.0163675
647.906	0.0164609
647.984	0.0164803
648.062	0.0165283
648.140	0.0164455
648.218	0.0164389
648.296	0.0165148
648.374	0.0164384
648.453	0.0163726
648.531	0.0164842
648.609	0.0165500
648.687	0.0164096
648.765	0.0164647
648.843	0.0165575
648.921	0.0165054
648.999	0.0165585
649.078	0.0165567
649.156	0.0164478
649.234	0.0165018
649.312	0.0163483
649.390	0.0165289
649.468	0.0164101
649.546	0.0165599
649.624	0.0164781
649.703	0.0166148
649.781	0.0164883
649.859	0.0163905
649.937	0.0164704
650.015	0.0164069
650.093	0.0164401
650.171	0.0163951
650.249	0.0164211
650.328	0.0165055
650.406	0.0165207
650.484	0.0165835
650.562	0.0164185
650.640	0.0164298
650.718	0.0166860
650.796	0.0166353
650.874	0.0164106
650.953	0.0164448
651.031	0.0165640
651.109	0.0164029
651.187	0.0164277
651.265	0.0163766
651.343	0.0165029
651.421	0.0164123
651.499	0.0164927
651.578	0.0166007
651.656	0.0165035
651.734	0.0164068
651.812	0.0164713
651.890	0.0165195
651.968	0.0164581
652.046	0.0165005
652.124	0.0163541
652.203	0.0163981
652.281	0.0165811
652.359	0.0165419
652.437	0.0164315
652.515	0.0164264
652.593	0.0165704
652.671	0.0165388
652.749	0.0166015
652.828	0.0165726
652.906	0.0165756
652.984	0.0166220
653.062	0.0165327
653.140	0.0164413
653.218	0.0166392
653.296	0.0164745
653.374	0.0165272
653.453	0.0165979
653.531	0.0166222
653.609	0.0165237
653.687	0.0164535
653.765	0.0164497
653.843	0.0164707
653.921	0.0164438
653.999	0.0164767
654.078	0.0165226
654.156	0.0165147
654.234	0.0163440
654.312	0.0165095
654.390	0.0165517
654.468	0.0164808
654.546	0.0165473
654.624	0.0164259
654.703	0.0163833
654.781	0.0165534
654.859	0.0165199
654.937	0.0164165
655.015	0.0163672
655.093	0.0164771
655.171	0.0164984
655.249	0.0166091
655.328	0.0163466
655.406	0.0164917
655.484	0.0163982
655.562	0.0165531
655.640	0.0163542
655.718	0.0163661
655.796	0.0163596
655.874	0.0163973
655.953	0.0164744
656.031	0.0165540
656.109	0.0164449
656.187	0.0164556
656.265	0.0164611
656.343	0.0164941
656.421	0.0165728
656.499	0.0165588
656.578	0.0165366
656.656	0.0165810
656.734	0.0165815
656.812	0.0166753
656.890	0.0165275
656.968	0.0165326
657.046	0.0164885
657.124	0.0164214
657.203	0.0165494
657.281	0.0164700
657.359	0.0164594
657.437	0.0165306
657.515	0.0165116
657.593	0.0162553
657.671	0.0164717
657.749	0.0165925
657.828	0.0166005
657.906	0.0165237
657.984	0.0164783
658.062	0.0164756
658.140	0.0164240
658.218	0.0166222
658.296	0.0163959
658.374	0.0164160
658.453	0.0165985
658.531	0.0166059
658.609	0.0166364
658.687	0.0164240
658.765	0.0164133
658.843	0.0164930
658.921	0.0165507
658.999	0.0165469
659.078	0.0164621
659.156	0.0165042
659.234	0.0166434
659.312	0.0165186
659.390	0.0165733
659.468	0.0165775
659.546	0.0164977
659.624	0.0163686
659.703	0.0165331
659.781	0.0165594
659.859	0.0166294
659.937	0.0165547
660.015	0.0164953
660.093	0.0166805
660.171	0.0166458
660.249	0.0166167
660.328	0.0164834
660.406	0.0166212
660.484	0.0166233
660.562	0.0165392
660.640	0.0166912
660.718	0.0166199
660.796	0.0164206
660.874	0.0165256
660.953	0.0164494
661.031	0.0165397
661.109	0.0165056
661.187	0.0165397
661.265	0.0164572
661.343	0.0166119
661.421	0.0165930
661.499	0.0164507
661.578	0.0164527
661.656	0.0164983
661.734	0.0166016
661.812	0.0164556
661.890	0.0165671
661.968	0.0164877
662.046	0.0164667
662.124	0.0166175
662.203	0.0165851
662.281	0.0164887
662.359	0.0164172
662.437	0.0165440
662.515	0.0165749
662.593	0.0165728
662.671	0.0166191
662.749	0.0165610
662.828	0.0166276
662.906	0.0164128
662.984	0.0164242
663.062	0.0165380
663.140	0.0165617
663.218	0.0164757
663.296	0.0164474
663.374	0.0165849
663.453	0.0164980
663.531	0.0164498
663.609	0.0165567
663.687	0.0165633
663.765	0.0164508
663.843	0.0164555
663.921	0.0165077
663.999	0.0165384
664.078	0.0165627
664.156	0.0166003
664.234	0.0166068
664.312	0.0164130
664.390	0.0163525
664.468	0.0165671
664.546	0.0166013
664.624	0.0164962
664.703	0.0164960
664.781	0.0165678
664.859	0.0165284
664.937	0.0165237
665.015	0.0165159
665.093	0.0165025
665.171	0.0165106
665.249	0.0165191
665.328	0.0166582
665.406	0.0165394
665.484	0.0165182
665.562	0.0164182
665.640	0.0165858
665.718	0.0165712
665.796	0.0165144
665.874	0.0165813
665.953	0.0166341
666.031	0.0165672
666.109	0.0165044
666.187	0.0166479
666.265	0.0165002
666.343	0.0165681
666.421	0.0166984
666.499	0.0164532
666.578	0.0164555
666.656	0.0165318
666.734	0.0165450
666.812	0.0165393
666.890	0.0165088
666.968	0.0165878
667.046	0.0163618
667.124	0.0165411
667.203	0.0166949
667.281	0.0164589
667.359	0.0165276
667.437	0.0166070
667.515	0.0166540
667.593	0.0164994
667.671	0.0165089
667.749	0.0165114
667.828	0.0165426
667.906	0.0164915
667.984	0.0165429
668.062	0.0164852
668.140	0.0165721
668.218	0.0166580
668.296	0.0165737
668.374	0.0165582
668.453	0.0165526
668.531	0.0164965
668.609	0.0165998
668.687	0.0164526
668.765	0.0163931
668.843	0.0165744
668.921	0.0164621
668.999	0.0164653
669.078	0.0166325
669.156	0.0165742
669.234	0.0164797
669.312	0.0166312
669.390	0.0166611
669.468	0.0165804
669.546	0.0164520
669.624	0.0166020
669.703	0.0166008
669.781	0.0166975
669.859	0.0164380
669.937	0.0164594
670.015	0.0164774
670.093	0.0165652
670.171	0.0165405
670.249	0.0164621
670.328	0.0164775
670.406	0.0166056
670.484	0.0164865
670.562	0.0165577
670.640	0.0165456
670.718	0.0164723
670.796	0.0165168
670.874	0.0164025
670.953	0.0165370
671.031	0.0165646
671.109	0.0165183
671.187	0.0164230
671.265	0.0164078
671.343	0.0165772
671.421	0.0166781
671.499	0.0165579
671.578	0.0164472
671.656	0.0165822
671.734	0.0165549
671.812	0.0163856
671.890	0.0165104
671.968	0.0164847
672.046	0.0165116
672.124	0.0165176
672.203	0.0165059
672.281	0.0165129
672.359	0.0164140
672.437	0.0165642
672.515	0.0165258
672.593	0.0165549
672.671	0.0164658
672.749	0.0165015
672.828	0.0165686
672.906	0.0164336
672.984	0.0164603
673.062	0.0165646
673.140	0.0166650
673.218	0.0164486
673.296	0.0165005
673.374	0.0165738
673.453	0.0165382
673.531	0.0164624
673.609	0.0165305
673.687	0.0164089
673.765	0.0165237
673.843	0.0164766
673.921	0.0165599
673.999	0.0164983
674.078	0.0164880
674.156	0.0165451
674.234	0.0163739
674.312	0.0165491
674.390	0.0165405
674.468	0.0163728
674.546	0.0164776
674.624	0.0164327
674.703	0.0165517
674.781	0.0165399
674.859	0.0165262
674.937	0.0165383
675.015	0.0164918
675.093	0.0165032
675.171	0.0164450
675.249	0.0165129
675.328	0.0165583
675.406	0.0164526
675.484	0.0165453
675.562	0.0165118
675.640	0.0164836
675.718	0.0163891
675.796	0.0164581
675.874	0.0164954
675.953	0.0165217
676.031	0.0164594
676.109	0.0165575
676.187	0.0164909
676.265	0.0165488
676.343	0.0164136
676.421	0.0165798
676.499	0.0164806
676.578	0.0164976
676.656	0.0165164
676.734	0.0164460
676.812	0.0166317
676.890	0.0164429
676.968	0.0163934
677.046	0.0164843
677.124	0.0164271
677.203	0.0165838
677.281	0.0164985
677.359	0.0166325
677.437	0.0165613
677.515	0.0164395
677.593	0.0165090
677.671	0.0164544
677.749	0.0164105
677.828	0.0165643
677.906	0.0165926
677.984	0.0165250
678.062	0.0165547
678.140	0.0164748
678.218	0.0164632
678.296	0.0165280
678.374	0.0165002
678.453	0.0164922
678.531	0.0165324
678.609	0.0165552
678.687	0.0164330
678.765	0.0166335
678.843	0.0164476
678.921	0.0165636
678.999	0.0166145
679.078	0.0165036
679.156	0.0164091
679.234	0.0163676
679.312	0.0166659
679.390	0.0164426
679.468	0.0164716
679.546	0.0165546
679.624	0.0165464
679.703	0.0165293
679.781	0.0164615
679.859	0.0165408
679.937	0.0163725
680.015	0.0164341
680.093	0.0164140
680.171	0.0165056
680.249	0.0165671
680.328	0.0165981
680.406	0.0163531
680.484	0.0165126
680.562	0.0164504
680.640	0.0163801
680.718	0.0164188
680.796	0.0164799
680.874	0.0165647
680.953	0.0164053
681.031	0.0164686
681.109	0.0164275
681.187	0.0164314
681.265	0.0164301
681.343	0.0164962
681.421	0.0164147
681.499	0.0166517
681.578	0.0165036
681.656	0.0164906
681.734	0.0164718
681.812	0.0165707
681.890	0.0164196
681.968	0.0164901
682.046	0.0165118
682.124	0.0165012
682.203	0.0164833
682.281	0.0164975
682.359	0.0164874
682.437	0.0163945
682.515	0.0165002
682.593	0.0163766
682.671	0.0164650
682.749	0.0163519
682.828	0.0164606
682.906	0.0166100
682.984	0.0164433
683.062	0.0163414
683.140	0.0164188
683.218	0.0164286
683.296	0.0164056
683.374	0.0165433
683.453	0.0163705
683.531	0.0164392
683.609	0.0166505
683.687	0.0164228
683.765	0.0163705
683.843	0.0163589
683.921	0.0164132
683.999	0.0164765
684.078	0.0164194
684.156	0.0164655
684.234	0.0162413
684.312	0.0164171
684.390	0.0165479
684.468	0.0164072
684.546	0.0164405
684.624	0.0163772
684.703	0.0165186
684.781	0.0164467
684.859	0.0164345
684.937	0.0164983
685.015	0.0164858
685.093	0.0164712
685.171	0.0163838
685.249	0.0164179
685.328	0.0164134
685.406	0.0165038
685.484	0.0164526
685.562	0.0165781
685.640	0.0164157
685.718	0.0165159
685.796	0.0164760
685.874	0.0164949
685.953	0.0165327
686.031	0.0164317
686.109	0.0165916
686.187	0.0165427
686.265	0.0164819
686.343	0.0163591
686.421	0.0164705
686.499	0.0165545
686.578	0.0165614
686.656	0.0165181
686.734	0.0164951
686.812	0.0164869
686.890	0.0166177
686.968	0.0164850
687.046	0.0164039
687.124	0.0164626
687.203	0.0164214
687.281	0.0165611
687.359	0.0165128
687.437	0.0164882
687.515	0.0165795
687.593	0.0164790
687.671	0.0164525
687.749	0.0163343
687.828	0.0163618
687.906	0.0164885
687.984	0.0164809
688.062	0.0164799
688.140	0.0164359
688.218	0.0165775
688.296	0.0164938
688.374	0.0165695
688.453	0.0165042
688.531	0.0166740
688.609	0.0165183
688.687	0.0165078
688.765	0.0163071
688.843	0.0164708
688.921	0.0167253
688.999	0.0164703
689.078	0.0164711
689.156	0.0164701
689.234	0.0165695
689.312	0.0164837
689.390	0.0164683
689.468	0.0164550
689.546	0.0163929
689.624	0.0165032
689.703	0.0165920
689.781	0.0165965
689.859	0.0165437
689.937	0.0165142
690.015	0.0164908
690.093	0.0165053
690.171	0.0166296
690.249	0.0166078
690.328	0.0164288
690.406	0.0165079
690.484	0.0164748
690.562	0.0163774
690.640	0.0165036
690.718	0.0165701
690.796	0.0164928
690.874	0.0165469
690.953	0.0165943
691.031	0.0164153
691.109	0.0165873
691.187	0.0165531
691.265	0.0165221
691.343	0.0165749
691.421	0.0164004
691.499	0.0163886
691.578	0.0164971
691.656	0.0166024
691.734	0.0164579
691.812	0.0164867
691.890	0.0165374
691.968	0.0163614
692.046	0.0165861
692.124	0.0166006
692.203	0.0164511
692.281	0.0164333
692.359	0.0165196
692.437	0.0165295
692.515	0.0165302
692.593	0.0163992
692.671	0.0163937
692.749	0.0165470
692.828	0.0165989
692.906	0.0166106
692.984	0.0165383
693.062	0.0164688
693.140	0.0164099
693.218	0.0164911
693.296	0.0163334
693.374	0.0163531
693.453	0.0165505
693.531	0.0165913
693.609	0.0165870
693.687	0.0164997
693.765	0.0164550
693.843	0.0164521
693.921	0.0164658
693.999	0.0164995
694.078	0.0164073
694.156	0.0163943
694.234	0.0163475
694.312	0.0164147
694.390	0.0163747
694.468	0.0163683
694.546	0.0163857
694.624	0.0164532
694.703	0.0163719
694.781	0.0164346
694.859	0.0164027
694.937	0.0164464
695.015	0.0164232
695.093	0.0164319
695.171	0.0165178
695.249	0.0164370
695.328	0.0163634
695.406	0.0164902
695.484	0.0164503
695.562	0.0164704
695.640	0.0164548
695.718	0.0164505
695.796	0.0165794
695.874	0.0166718
695.953	0.0165598
696.031	0.0164977
696.109	0.0164840
696.187	0.0165282
696.265	0.0164542
696.343	0.0164839
696.421	0.0164546
696.499	0.0164725
696.578	0.0165079
696.656	0.0165208
696.734	0.0164291
696.812	0.0164428
696.890	0.0164891
696.968	0.0165588
697.046	0.0165623
697.124	0.0165343
697.203	0.0164256
697.281	0.0165394
697.359	0.0165531
697.437	0.0164263
697.515	0.0165485
697.593	0.0165096
697.671	0.0164642
697.749	0.0164732
697.828	0.0164304
697.906	0.0164278
697.984	0.0164480
698.062	0.0163661
698.140	0.0164084
698.218	0.0164515
698.296	0.0165558
698.374	0.0165202
698.453	0.0164738
698.531	0.0165354
698.609	0.0166412
698.687	0.0165144
698.765	0.0165167
698.843	0.0165884
698.921	0.0164981
698.999	0.0166670
699.078	0.0166553
699.156	0.0165307
699.234	0.0165484
699.312	0.0165963
699.390	0.0166473
699.468	0.0164533
699.546	0.0163990
699.624	0.0164212
699.703	0.0165684
699.781	0.0164957
699.859	0.0166000
699.937	0.0164736
700.015	0.0166067
700.093	0.0166954
700.171	0.0165623
700.249	0.0163721
700.328	0.0164487
700.406	0.0164111
700.484	0.0164587
700.562	0.0166690
700.640	0.0165726
700.718	0.0166711
700.796	0.0164415
700.874	0.0164452
700.953	0.0164616
701.031	0.0164535
701.109	0.0164968
701.187	0.0165253
701.265	0.0166425
701.343	0.0166232
701.421	0.0165584
701.499	0.0165524
701.578	0.0162931
701.656	0.0165398
701.734	0.0165464
701.812	0.0166003
701.890	0.0165455
701.968	0.0166079
702.046	0.0165758
702.124	0.0165571
702.203	0.0165170
702.281	0.0164912
702.359	0.0164844
702.437	0.0164873
702.515	0.0165017
702.593	0.0164594
702.671	0.0164835
702.749	0.0164427
702.828	0.0165806
702.906	0.0164726
702.984	0.0165826
703.062	0.0164194
703.140	0.0164999
703.218	0.0165175
703.296	0.0163874
703.374	0.0163457
703.453	0.0164972
703.531	0.0165794
703.609	0.0164829
703.687	0.0165083
703.765	0.0164301
703.843	0.0165202
703.921	0.0164570
703.999	0.0164174
704.078	0.0163985
704.156	0.0164862
704.234	0.0163861
704.312	0.0164735
704.390	0.0164655
704.468	0.0164381
704.546	0.0165371
704.624	0.0163971
704.703	0.0164678
704.781	0.0163680
704.859	0.0166055
704.937	0.0165055
705.015	0.0163529
705.093	0.0164573
705.171	0.0164990
705.249	0.0164190
705.328	0.0166151
705.406	0.0165618
705.484	0.0165808
705.562	0.0165141
705.640	0.0164918
705.718	0.0165104
705.796	0.0165534
705.874	0.0166080
705.953	0.0166295
706.031	0.0166998
706.109	0.0167034
706.187	0.0166542
706.265	0.0166168
706.343	0.0167068
706.421	0.0165740
706.499	0.0166743
706.578	0.0166775
706.656	0.0165224
706.734	0.0165028
706.812	0.0164467
706.890	0.0164229
706.968	0.0163618
707.046	0.0164407
707.124	0.0163121
707.203	0.0162505
707.281	0.0163036
707.359	0.0162962
707.437	0.0162631
707.515	0.0162804
707.593	0.0161787
707.671	0.0162385
707.749	0.0162935
707.828	0.0162511
707.906	0.0163380
707.984	0.0162243
708.062	0.0162999
708.140	0.0163290
708.218	0.0162315
708.296	0.0164571
708.374	0.0165450
708.453	0.0164229
708.531	0.0164330
708.609	0.0166238
708.687	0.0167040
708.765	0.0166095
708.843	0.0166198
708.921	0.0165216
708.999	0.0166895
709.078	0.0167068
709.156	0.0166507
709.234	0.0166135
709.312	0.0166155
709.390	0.0166534
709.468	0.0166826
709.546	0.0165547
709.624	0.0164246
709.703	0.0165132
709.781	0.0165010
709.859	0.0163423
709.937	0.0163330
710.015	0.0164774
710.093	0.0163869
710.171	0.0164639
710.249	0.0164536
710.328	0.0164075
710.406	0.0164377
710.484	0.0165138
710.562	0.0162106
710.640	0.0165347
710.718	0.0164299
710.796	0.0163817
710.874	0.0164257
710.953	0.0165032
711.031	0.0164783
711.109	0.0163226
711.187	0.0163218
711.265	0.0163879
711.343	0.0162985
711.421	0.0163074
711.499	0.0162896
711.578	0.0162517
711.656	0.0161434
711.734	0.0164388
711.812	0.0162939
711.890	0.0162669
711.968	0.0162294
712.046	0.0163307
712.124	0.0162872
712.203	0.0164620
712.281	0.0162843
712.359	0.0163891
712.437	0.0164912
712.515	0.0165243
712.593	0.0165310
712.671	0.0164829
712.749	0.0164584
712.828	0.0166761
712.906	0.0167370
712.984	0.0166492
713.062	0.0166089
713.140	0.0165480
713.218	0.0167377
713.296	0.0167123
713.374	0.0166143
713.453	0.0167312
713.531	0.0167147
713.609	0.0166608
713.687	0.0166540
713.765	0.0165244
713.843	0.0164915
713.921	0.0164307
713.999	0.0166091
714.078	0.0165848
714.156	0.0163940
714.234	0.0163710
714.312	0.0164268
714.390	0.0164642
714.468	0.0163536
714.546	0.0161953
714.624	0.0162027
714.703	0.0163647
714.781	0.0163167
714.859	0.0163290
714.937	0.0162524
715.015	0.0163574
715.093	0.0163216
715.171	0.0163352
715.249	0.0162733
715.328	0.0162433
715.406	0.0162741
715.484	0.0163769
715.562	0.0162655
715.640	0.0163818
715.718	0.0163557
715.796	0.0164189
715.874	0.0163188
715.953	0.0164309
716.031	0.0162593
716.109	0.0163153
716.187	0.0164236
716.265	0.0163773
716.343	0.0163863
716.421	0.0163772
716.499	0.0164258
716.578	0.0165447
716.656	0.0165330
716.734	0.0165420
716.812	0.0165294
716.890	0.0165164
716.968	0.0166403
717.046	0.0165057
717.124	0.0165425
717.203	0.0165572
717.281	0.0166823
717.359	0.0165118
717.437	0.0164484
717.515	0.0165549
717.593	0.0165652
717.671	0.0165382
717.749	0.0164520
717.828	0.0163712
717.906	0.0164565
717.984	0.0165311
718.062	0.0165221
718.140	0.0164494
718.218	0.0163916
718.296	0.0164329
718.374	0.0163882
718.453	0.0163184
718.531	0.0162644
718.609	0.0163636
718.687	0.0162673
718.765	0.0163091
718.843	0.0163752
718.921	0.0164059
718.999	0.0163869
719.078	0.0164053
719.156	0.0163950
719.234	0.0163858
719.312	0.0164066
719.390	0.0163960
719.468	0.0164016
719.546	0.0165829
719.624	0.0164773
719.703	0.0165788
719.781	0.0166089
719.859	0.0165438
719.937	0.0163275
720.015	0.0163878
720.093	0.0164967
720.171	0.0165102
720.249	0.0163211
720.328	0.0164217
720.406	0.0164710
720.484	0.0163972
720.562	0.0164268
720.640	0.0164761
720.718	0.0164018
720.796	0.0166965
720.874	0.0166218
720.953	0.0165130
721.031	0.0165020
721.109	0.0165614
721.187	0.0164922
721.265	0.0165584
721.343	0.0166221
721.421	0.0165939
721.499	0.0165514
721.578	0.0166376
721.656	0.0165030
721.734	0.0165182
721.812	0.0165818
721.890	0.0165986
721.968	0.0165322
722.046	0.0165427
722.124	0.0165333
722.203	0.0165295
722.281	0.0162547
722.359	0.0164490
722.437	0.0165397
722.515	0.0164745
722.593	0.0164667
722.671	0.0164719
722.749	0.0165146
722.828	0.0164771
722.906	0.0164734
722.984	0.0164985
723.062	0.0164265
723.140	0.0162840
723.218	0.0163702
723.296	0.0164527
723.374	0.0163325
723.453	0.0164762
723.531	0.0163364
723.609	0.0164443
723.687	0.0164566
723.765	0.0162852
723.843	0.0165545
723.921	0.0166296
723.999	0.0164944
724.078	0.0165442
724.156	0.0166788
724.234	0.0166089
724.312	0.0168131
724.390	0.0168740
724.468	0.0168200
724.546	0.0168753
724.624	0.0168844
724.703	0.0167822
724.781	0.0167964
724.859	0.0167297
724.937	0.0166731
725.015	0.0166341
725.093	0.0164564
725.171	0.0166945
725.249	0.0164860
725.328	0.0163907
725.406	0.0163004
725.484	0.0162147
725.562	0.0160838
725.640	0.0162148
725.718	0.0160263
725.796	0.0161762
725.874	0.0162026
725.953	0.0163230
726.031	0.0163741
726.109	0.0163207
726.187	0.0165782
726.265	0.0165914
726.343	0.0166238
726.421	0.0167472
726.499	0.0167739
726.578	0.0167245
726.656	0.0167782
726.734	0.0168870
726.812	0.0169600
726.890	0.0167375
726.968	0.0167804
727.046	0.0166930
727.124	0.0167889
727.203	0.0165697
727.281	0.0165768
727.359	0.0165898
727.437	0.0164157
727.515	0.0164754
727.593	0.0163942
727.671	0.0163654
727.749	0.0162495
727.828	0.0163212
727.906	0.0163571
727.984	0.0162492
728.062	0.0162376
728.140	0.0164287
728.218	0.0162965
728.296	0.0163866
728.374	0.0165304
728.453	0.0164369
728.531	0.0165267
728.609	0.0166454
728.687	0.0167101
728.765	0.0167443
728.843	0.0167171
728.921	0.0167562
728.999	0.0166697
729.078	0.0166718
729.156	0.0167183
729.234	0.0167486
729.312	0.0166956
729.390	0.0166936
729.468	0.0165758
729.546	0.0165732
729.624	0.0165040
729.703	0.0166047
729.781	0.0165727
729.859	0.0162291
729.937	0.0163895
730.015	0.0164414
730.093	0.0164685
730.171	0.0164140
730.249	0.0164943
730.328	0.0165097
730.406	0.0165028
730.484	0.0163536
730.562	0.0164756
730.640	0.0165708
730.718	0.0165165
730.796	0.0165842
730.874	0.0165708
730.953	0.0165972
731.031	0.0166636
731.109	0.0165894
731.187	0.0165226
731.265	0.0166533
731.343	0.0166612
731.421	0.0166393
731.499	0.0165955
731.578	0.0165882
731.656	0.0165076
731.734	0.0165744
731.812	0.0166674
731.890	0.0165578
731.968	0.0165521
732.046	0.0165331
732.124	0.0164832
732.203	0.0165594
732.281	0.0164922
732.359	0.0164834
732.437	0.0164129
732.515	0.0164984
732.593	0.0164085
732.671	0.0163610
732.749	0.0163969
732.828	0.0165472
732.906	0.0164977
732.984	0.0165147
733.062	0.0165180
733.140	0.0162906
733.218	0.0164574
733.296	0.0165208
733.374	0.0164188
733.453	0.0164435
733.531	0.0164317
733.609	0.0163975
733.687	0.0165282
733.765	0.0165466
733.843	0.0164590
733.921	0.0164704
733.999	0.0165360
734.078	0.0163789
734.156	0.0166701
734.234	0.0164468
734.312	0.0165078
734.390	0.0164893
734.468	0.0165505
734.546	0.0164043
734.624	0.0164773
734.703	0.0166258
734.781	0.0165099
734.859	0.0164610
734.937	0.0163893
735.015	0.0165144
735.093	0.0164413
735.171	0.0164970
735.249	0.0164498
735.328	0.0163810
735.406	0.0164445
735.484	0.0164302
735.562	0.0164252
735.640	0.0163958
735.718	0.0164614
735.796	0.0165643
735.874	0.0164931
735.953	0.0164240
736.031	0.0164164
736.109	0.0163741
736.187	0.0163737
736.265	0.0164127
736.343	0.0164651
736.421	0.0165450
736.499	0.0164837
736.578	0.0164211
736.656	0.0163892
736.734	0.0164574
736.812	0.0164344
736.890	0.0164055
736.968	0.0163296
737.046	0.0164040
737.124	0.0163824
737.203	0.0162956
737.281	0.0162801
737.359	0.0165076
737.437	0.0164275
737.515	0.0162614
737.593	0.0165083
737.671	0.0163773
737.749	0.0163826
737.828	0.0164884
737.906	0.0164758
737.984	0.0163781
738.062	0.0163857
738.140	0.0165523
738.218	0.0165678
738.296	0.0164069
738.374	0.0163889
738.453	0.0165214
738.531	0.0166448
738.609	0.0163700
738.687	0.0165329
738.765	0.0164882
738.843	0.0166718
738.921	0.0165961
738.999	0.0165726
739.078	0.0166815
739.156	0.0165874
739.234	0.0165343
739.312	0.0166170
739.390	0.0166423
739.468	0.0166225
739.546	0.0165937
739.624	0.0164963
739.703	0.0165900
739.781	0.0164024
739.859	0.0165741
739.937	0.0165855
740.015	0.0164503
740.093	0.0164758
740.171	0.0164270
740.249	0.0165257
740.328	0.0164713
740.406	0.0165034
740.484	0.0164973
740.562	0.0163976
740.640	0.0164620
740.718	0.0165751
740.796	0.0164359
740.874	0.0165049
740.953	0.0165954
741.031	0.0165357
741.109	0.0165847
741.187	0.0164606
741.265	0.0163794
741.343	0.0164920
741.421	0.0165477
741.499	0.0163734
741.578	0.0165182
741.656	0.0165398
741.734	0.0164708
741.812	0.0163699
741.890	0.0163090
741.968	0.0163006
742.046	0.0163760
742.124	0.0163368
742.203	0.0164308
742.281	0.0164390
742.359	0.0163203
742.437	0.0164513
742.515	0.0164597
742.593	0.0165694
742.671	0.0164960
742.749	0.0165780
742.828	0.0165539
742.906	0.0165896
742.984	0.0165505
743.062	0.0165055
743.140	0.0165453
743.218	0.0164608
743.296	0.0165326
743.374	0.0166040
743.453	0.0163199
743.531	0.0165791
743.609	0.0165997
743.687	0.0165897
743.765	0.0165086
743.843	0.0165895
743.921	0.0165771
743.999	0.0166709
744.078	0.0165431
744.156	0.0165436
744.234	0.0165426
744.312	0.0166171
744.390	0.0165449
744.468	0.0165008
744.546	0.0164727
744.624	0.0165137
744.703	0.0163982
744.781	0.0164956
744.859	0.0165585
744.937	0.0164931
745.015	0.0164896
745.093	0.0163609
745.171	0.0165147
745.249	0.0165335
745.328	0.0165446
745.406	0.0164795
745.484	0.0164603
745.562	0.0165800
745.640	0.0165730
745.718	0.0163964
745.796	0.0165187
745.874	0.0165498
745.953	0.0165736
746.031	0.0165112
746.109	0.0164993
746.187	0.0165210
746.265	0.0165751
746.343	0.0165040
746.421	0.0165891
746.499	0.0164983
746.578	0.0164934
746.656	0.0165480
746.734	0.0165971
746.812	0.0164317
746.890	0.0166060
746.968	0.0166428
747.046	0.0165515
747.124	0.0165524
747.203	0.0166651
747.281	0.0166820
747.359	0.0166529
747.437	0.0165015
747.515	0.0165828
747.593	0.0166338
747.671	0.0167516
747.749	0.0165870
747.828	0.0165221
747.906	0.0165882
747.984	0.0164807
748.062	0.0164011
748.140	0.0163712
748.218	0.0163841
748.296	0.0164423
748.374	0.0164465
748.453	0.0164905
748.531	0.0165752
748.609	0.0163120
748.687	0.0164777
748.765	0.0164111
748.843	0.0164188
748.921	0.0164394
748.999	0.0162311
749.078	0.0164079
749.156	0.0165891
749.234	0.0166135
749.312	0.0165364
749.390	0.0164534
749.468	0.0164524
749.546	0.0163858
749.624	0.0165544
749.703	0.0166891
749.781	0.0163338
749.859	0.0165880
749.937	0.0164894
750.015	0.0163872
750.093	0.0164802
750.171	0.0164895
750.249	0.0163737
750.328	0.0165691
750.406	0.0165672
750.484	0.0166119
750.562	0.0166814
750.640	0.0165813
750.718	0.0166297
750.796	0.0165499
750.874	0.0164676
750.953	0.0165800
751.031	0.0165643
751.109	0.0165314
751.187	0.0165945
751.265	0.0165706
751.343	0.0165722
751.421	0.0166957
751.499	0.0166946
751.578	0.0165134
751.656	0.0163974
751.734	0.0164975
751.812	0.0166547
751.890	0.0165951
751.968	0.0166167
752.046	0.0166418
752.124	0.0164931
752.203	0.0164540
752.281	0.0164759
752.359	0.0165130
752.437	0.0164944
752.515	0.0165427
752.593	0.0164680
752.671	0.0163692
752.749	0.0164277
752.828	0.0164522
752.906	0.0164072
752.984	0.0164549
753.062	0.0164510
753.140	0.0165099
753.218	0.0165445
753.296	0.0164582
753.374	0.0166308
753.453	0.0165837
753.531	0.0164963
753.609	0.0165646
753.687	0.0165356
753.765	0.0165208
753.843	0.0166343
753.921	0.0165813
753.999	0.0164359
754.078	0.0165043
754.156	0.0165590
754.234	0.0166455
754.312	0.0166343
754.390	0.0166750
754.468	0.0166583
754.546	0.0165297
754.624	0.0165217
754.703	0.0166225
754.781	0.0165844
754.859	0.0165443
754.937	0.0166375
755.015	0.0165321
755.093	0.0165381
755.171	0.0166743
755.249	0.0165530
755.328	0.0166264
755.406	0.0165617
755.484	0.0165290
755.562	0.0166562
755.640	0.0164028
755.718	0.0164925
755.796	0.0165401
755.874	0.0164404
755.953	0.0164366
756.031	0.0164604
756.109	0.0165276
756.187	0.0164836
756.265	0.0164916
756.343	0.0165511
756.421	0.0165110
756.499	0.0164974
756.578	0.0164964
756.656	0.0166547
756.734	0.0164721
756.812	0.0165206
756.890	0.0165851
756.968	0.0165276
757.046	0.0163063
757.124	0.0165374
757.203	0.0167242
757.281	0.0163793
757.359	0.0163065
757.437	0.0165293
757.515	0.0164346
757.593	0.0162813
757.671	0.0163054
757.749	0.0163676
757.828	0.0164460
757.906	0.0163424
757.984	0.0163746
758.062	0.0163640
758.140	0.0163731
758.218	0.0163615
758.296	0.0164449
758.374	0.0163190
758.453	0.0164420
758.531	0.0164072
758.609	0.0165176
758.687	0.0164214
758.765	0.0165718
758.843	0.0166555
758.921	0.0166551
758.999	0.0167204
759.078	0.0166133
759.156	0.0168506
759.234	0.0168852
759.312	0.0168638
759.390	0.0167431
759.468	0.0167961
759.546	0.0166806
759.624	0.0165633
759.703	0.0166364
759.781	0.0166286
759.859	0.0167677
759.937	0.0166366
760.015	0.0166054
760.093	0.0165457
760.171	0.0166460
760.249	0.0163973
760.328	0.0163288
760.406	0.0163514
760.484	0.0162689
760.562	0.0161666
760.640	0.0162138
760.718	0.0161874
760.796	0.0159420
760.874	0.0160880
760.953	0.0161449
761.031	0.0159551
761.109	0.0159653
761.187	0.0160941
761.265	0.0161938
761.343	0.0162144
761.421	0.0162251
761.499	0.0162033
761.578	0.0162637
761.656	0.0162991
761.734	0.0164477
761.812	0.0164990
761.890	0.0166347
761.968	0.0166168
762.046	0.0165903
762.124	0.0165974
762.203	0.0168388
762.281	0.0167389
762.359	0.0167237
762.437	0.0168091
762.515	0.0168241
762.593	0.0166538
762.671	0.0167834
762.749	0.0168952
762.828	0.0167910
762.906	0.0167471
762.984	0.0166731
763.062	0.0166402
763.140	0.0164879
763.218	0.0165938
763.296	0.0163844
763.374	0.0164790
763.453	0.0164531
763.531	0.0162347
763.609	0.0162083
763.687	0.0162560
763.765	0.0163876
763.843	0.0162537
763.921	0.0161594
763.999	0.0161536
764.078	0.0161147
764.156	0.0161147
764.234	0.0161440
764.312	0.0161891
764.390	0.0162295
764.468	0.0161863
764.546	0.0162123
764.624	0.0164405
764.703	0.0163030
764.781	0.0162737
764.859	0.0163266
764.937	0.0167133
765.015	0.0167794
765.093	0.0165752
765.171	0.0167535
765.249	0.0168881
765.328	0.0170530
765.406	0.0171227
765.484	0.0171019
765.562	0.0170248
765.640	0.0168902
765.718	0.0168629
765.796	0.0167600
765.874	0.0167788
765.953	0.0167470
766.031	0.0168025
766.109	0.0167348
766.187	0.0166813
766.265	0.0166107
766.343	0.0166383
766.421	0.0165701
766.499	0.0163847
766.578	0.0164357
766.656	0.0161577
766.734	0.0161555
766.812	0.0161117
766.890	0.0160567
766.968	0.0160450
767.046	0.0158552
767.124	0.0159807
767.203	0.0159523
767.281	0.0161040
767.359	0.0160704
767.437	0.0162726
767.515	0.0163494
767.593	0.0163432
767.671	0.0164206
767.749	0.0165014
767.828	0.0164462
767.906	0.0164143
767.984	0.0165438
768.062	0.0165972
768.140	0.0165284
768.218	0.0165076
768.296	0.0165221
768.374	0.0167371
768.453	0.0166398
768.531	0.0167223
768.609	0.0167387
768.687	0.0168023
768.765	0.0168393
768.843	0.0169517
768.921	0.0168492
768.999	0.0168948
769.078	0.0170604
769.156	0.0169685
769.234	0.0167297
769.312	0.0167845
769.390	0.0168121
769.468	0.0167754
769.546	0.0167673
769.624	0.0167857
769.703	0.0165002
769.781	0.0164443
769.859	0.0164357
769.937	0.0163573
770.015	0.0163732
770.093	0.0162810
770.171	0.0163367
770.249	0.0165087
770.328	0.0161377
770.406	0.0162991
770.484	0.0163001
770.562	0.0160769
770.640	0.0160231
770.718	0.0162124
770.796	0.0162248
770.874	0.0162253
770.953	0.0160863
771.031	0.0162210
771.109	0.0163310
771.187	0.0163068
771.265	0.0163614
771.343	0.0165752
771.421	0.0166027
771.499	0.0166110
771.578	0.0165698
771.656	0.0164730
771.734	0.0166861
771.812	0.0167163
771.890	0.0167094
771.968	0.0166615
772.046	0.0167359
772.124	0.0167747
772.203	0.0168069
772.281	0.0166843
772.359	0.0166706
772.437	0.0167203
772.515	0.0167396
772.593	0.0166835
772.671	0.0168028
772.749	0.0166837
772.828	0.0165534
772.906	0.0165575
772.984	0.0166251
773.062	0.0165478
773.140	0.0165589
773.218	0.0164048
773.296	0.0165102
773.374	0.0165453
773.453	0.0166091
773.531	0.0165614
773.609	0.0166193
773.687	0.0166199
773.765	0.0168141
773.843	0.0166711
773.921	0.0167481
773.999	0.0168311
774.078	0.0167042
774.156	0.0166284
774.234	0.0166446
774.312	0.0166328
774.390	0.0166114
774.468	0.0165418
774.546	0.0164861
774.624	0.0164506
774.703	0.0164830
774.781	0.0164680
774.859	0.0165300
774.937	0.0163403
775.015	0.0164147
775.093	0.0164598
775.171	0.0163382
775.249	0.0163073
775.328	0.0163683
775.406	0.0164055
775.484	0.0163603
775.562	0.0163499
775.640	0.0163571
775.718	0.0164075
775.796	0.0164671
775.874	0.0164677
775.953	0.0164862
776.031	0.0163658
776.109	0.0164420
776.187	0.0164474
776.265	0.0164991
776.343	0.0164521
776.421	0.0164753
776.499	0.0164596
776.578	0.0163425
776.656	0.0162736
776.734	0.0164240
776.812	0.0162268
776.890	0.0161675
776.968	0.0161720
777.046	0.0159534
777.124	0.0159113
777.203	0.0159410
777.281	0.0160938
777.359	0.0160538
777.437	0.0159703
777.515	0.0161777
777.593	0.0163488
777.671	0.0163818
777.749	0.0164907
777.828	0.0166351
777.906	0.0168082
777.984	0.0168654
778.062	0.0170000
778.140	0.0170434
778.218	0.0172008
778.296	0.0171539
778.374	0.0173259
778.453	0.0173700
778.531	0.0172731
778.609	0.0174809
778.687	0.0172064
778.765	0.0171670
778.843	0.0169866
778.921	0.0169227
778.999	0.0168785
779.078	0.0168107
779.156	0.0166747
779.234	0.0164951
779.312	0.0163362
779.390	0.0162329
779.468	0.0160725
779.546	0.0160834
779.624	0.0158751
779.703	0.0157384
779.781	0.0159212
779.859	0.0158151
779.937	0.0157685
780.015	0.0158079
780.093	0.0156040
780.171	0.0158990
780.249	0.0159483
780.328	0.0158783
780.406	0.0158200
780.484	0.0159064
780.562	0.0160112
780.640	0.0161379
780.718	0.0161713
780.796	0.0161191
780.874	0.0161971
780.953	0.0163564
781.031	0.0164601
781.109	0.0163312
781.187	0.0164125
781.265	0.0165068
781.343	0.0165871
781.421	0.0164820
781.499	0.0166212
781.578	0.0165981
781.656	0.0165010
781.734	0.0165189
781.812	0.0165816
781.890	0.0166145
781.968	0.0165873
782.046	0.0165341
782.124	0.0165044
782.203	0.0166380
782.281	0.0166406
782.359	0.0165450
782.437	0.0167526
782.515	0.0167913
782.593	0.0168849
782.671	0.0170084
782.749	0.0168687
782.828	0.0167377
782.906	0.0168868
782.984	0.0170106
783.062	0.0168989
783.140	0.0167721
783.218	0.0168294
783.296	0.0166269
783.374	0.0166918
783.453	0.0165729
783.531	0.0165359
783.609	0.0164433
783.687	0.0165426
783.765	0.0163674
783.843	0.0163626
783.921	0.0163695
783.999	0.0161947
784.078	0.0162997
784.156	0.0163852
784.234	0.0163979
784.312	0.0163692
784.390	0.0164339
784.468	0.0163483
784.546	0.0163233
784.624	0.0164072
784.703	0.0162165
784.781	0.0162291
784.859	0.0163410
784.937	0.0162664
785.015	0.0160561
785.093	0.0160426
785.171	0.0159808
785.249	0.0159742
785.328	0.0159998
785.406	0.0160442
785.484	0.0157693
785.562	0.0160338
785.640	0.0159171
785.718	0.0157865
785.796	0.0158723
785.874	0.0159833
785.953	0.0159743
786.031	0.0158820
786.109	0.0159991
786.187	0.0160347
786.265	0.0161987
786.343	0.0162398
786.421	0.0163217
786.499	0.0163919
786.578	0.0164244
786.656	0.0165823
786.734	0.0166225
786.812	0.0167059
786.890	0.0167889
786.968	0.0168161
787.046	0.0168301
787.124	0.0169041
787.203	0.0170425
787.281	0.0169650
787.359	0.0170145
787.437	0.0170803
787.515	0.0172945
787.593	0.0172572
787.671	0.0172332
787.749	0.0173206
787.828	0.0173212
787.906	0.0172079
787.984	0.0173176
788.062	0.0171283
788.140	0.0171795
788.218	0.0170608
788.296	0.0169662
788.374	0.0168137
788.453	0.0167324
788.531	0.0166492
788.609	0.0165172
788.687	0.0165110
788.765	0.0161450
788.843	0.0160120
788.921	0.0158645
788.999	0.0158087
789.078	0.0157482
789.156	0.0156639
789.234	0.0156515
789.312	0.0155077
789.390	0.0155459
789.468	0.0155633
789.546	0.0155459
789.624	0.0155058
789.703	0.0156299
789.781	0.0156913
789.859	0.0156777
789.937	0.0157904
790.015	0.0158872
790.093	0.0160156
790.171	0.0160947
790.249	0.0162378
790.328	0.0161926
790.406	0.0163723
790.484	0.0166296
790.562	0.0165728
790.640	0.0166207
790.718	0.0168719
790.796	0.0168146
790.874	0.0167413
790.953	0.0168955
791.031	0.0168669
791.109	0.0169023
791.187	0.0169466
791.265	0.0169601
791.343	0.0169778
791.421	0.0169226
791.499	0.0170594
791.578	0.0171265
791.656	0.0170330
791.734	0.0169209
791.812	0.0171152
791.890	0.0170768
791.968	0.0171242
792.046	0.0169141
792.124	0.0168727
792.203	0.0170583
792.281	0.0168121
792.359	0.0167622
792.437	0.0169061
792.515	0.0169792
792.593	0.0168948
792.671	0.0167937
792.749	0.0165878
792.828	0.0166444
792.906	0.0168186
792.984	0.0167403
793.062	0.0167674
793.140	0.0166409
793.218	0.0166163
793.296	0.0165482
793.374	0.0164996
793.453	0.0164030
793.531	0.0163547
793.609	0.0161815
793.687	0.0162354
793.765	0.0161919
793.843	0.0161755
793.921	0.0159858
793.999	0.0159377
794.078	0.0157561
794.156	0.0158478
794.234	0.0157066
794.312	0.0156236
794.390	0.0155410
794.468	0.0157926
794.546	0.0156645
794.624	0.0156415
794.703	0.0155933
794.781	0.0158569
794.859	0.0159068
794.937	0.0160639
795.015	0.0161367
795.093	0.0162425
795.171	0.0161995
795.249	0.0163194
795.328	0.0164731
795.406	0.0165376
795.484	0.0166580
795.562	0.0166957
795.640	0.0167860
795.718	0.0168017
795.796	0.0169640
795.874	0.0169563
795.953	0.0170846
796.031	0.0172386
796.109	0.0172106
796.187	0.0174251
796.265	0.0176088
796.343	0.0175816
796.421	0.0175486
796.499	0.0176022
796.578	0.0176836
796.656	0.0175113
796.734	0.0177213
796.812	0.0176163
796.890	0.0174854
796.968	0.0175253
797.046	0.0172466
797.124	0.0172173
797.203	0.0172914
797.281	0.0170423
797.359	0.0168273
797.437	0.0167731
797.515	0.0166188
797.593	0.0163309
797.671	0.0161516
797.749	0.0159019
797.828	0.0160670
797.906	0.0159404
797.984	0.0156863
798.062	0.0157280
798.140	0.0156756
798.218	0.0156084
798.296	0.0158752
798.374	0.0157438
798.453	0.0158375
798.531	0.0158186
798.609	0.0157673
798.687	0.0157521
798.765	0.0156564
798.843	0.0156994
798.921	0.0158920
798.999	0.0157257
799.078	0.0157948
799.156	0.0158102
799.234	0.0159126
799.312	0.0160899
799.390	0.0160661
799.468	0.0161005
799.546	0.0161753
799.624	0.0164081
799.703	0.0163515
799.781	0.0163512
799.859	0.0165276
799.937	0.0165252
800.015	0.0165252
800.093	0.0166270
800.171	0.0166885
800.249	0.0167520
800.328	0.0169099
800.406	0.0169711
800.484	0.0171954
800.562	0.0172784
800.640	0.0172086
800.718	0.0171924
800.796	0.0172444
800.874	0.0173589
800.953	0.0172952
801.031	0.0173467
801.109	0.0173161
801.187	0.0172775
801.265	0.0173221
801.343	0.0174378
801.421	0.0172285
801.499	0.0170944
801.578	0.0170747
801.656	0.0169881
801.734	0.0169413
801.812	0.0169613
801.890	0.0168794
801.968	0.0166595
802.046	0.0164802
802.124	0.0162481
802.203	0.0162139
802.281	0.0161529
802.359	0.0160648
802.437	0.0158772
802.515	0.0158426
802.593	0.0158376
802.671	0.0158145
802.749	0.0158914
802.828	0.0157314
802.906	0.0158522
802.984	0.0159210
803.062	0.0157843
803.140	0.0158802
803.218	0.0157755
803.296	0.0160617
803.374	0.0159650
803.453	0.0160070
803.531	0.0163246
803.609	0.0160670
803.687	0.0161693
803.765	0.0162055
803.843	0.0164171
803.921	0.0163024
803.999	0.0162627
804.078	0.0162450
804.156	0.0163457
804.234	0.0163708
804.312	0.0164075
804.390	0.0164196
804.468	0.0163246
804.546	0.0163441
804.624	0.0163903
804.703	0.0162656
804.781	0.0164026
804.859	0.0165302
804.937	0.0164101
805.015	0.0166132
805.093	0.0166983
805.171	0.0166639
805.249	0.0166637
805.328	0.0167154
805.406	0.0168844
805.484	0.0169696
805.562	0.0169008
805.640	0.0169312
805.718	0.0170867
805.796	0.0169856
805.874	0.0169250
805.953	0.0170023
806.031	0.0169449
806.109	0.0170246
806.187	0.0169691
806.265	0.0166805
806.343	0.0166778
806.421	0.0165850
806.499	0.0164898
806.578	0.0163969
806.656	0.0163218
806.734	0.0162566
806.812	0.0160465
806.890	0.0160254
806.968	0.0158849
807.046	0.0159452
807.124	0.0159344
807.203	0.0158490
807.281	0.0158735
807.359	0.0160763
807.437	0.0160658
807.515	0.0160474
807.593	0.0162333
807.671	0.0161845
807.749	0.0161974
807.828	0.0162105
807.906	0.0163694
807.984	0.0164574
808.062	0.0163956
808.140	0.0162994
808.218	0.0163042
808.296	0.0162718
808.374	0.0163194
808.453	0.0163437
808.531	0.0162643
808.609	0.0163055
808.687	0.0163558
808.765	0.0164103
808.843	0.0163144
808.921	0.0162637
808.999	0.0163843
809.078	0.0163718
809.156	0.0164767
809.234	0.0164095
809.312	0.0163668
809.390	0.0165398
809.468	0.0164800
809.546	0.0163580
809.624	0.0164460
809.703	0.0163833
809.781	0.0163905
809.859	0.0164825
809.937	0.0164830
810.015	0.0165445
810.093	0.0167781
810.171	0.0166641
810.249	0.0165768
810.328	0.0166500
810.406	0.0167033
810.484	0.0167384
810.562	0.0167574
810.640	0.0168700
810.718	0.0168520
810.796	0.0168695
810.874	0.0167617
810.953	0.0169019
811.031	0.0169501
811.109	0.0168300
811.187	0.0167558
811.265	0.0166898
811.343	0.0167040
811.421	0.0165398
811.499	0.0164877
811.578	0.0162993
811.656	0.0163410
811.734	0.0162246
811.812	0.0161330
811.890	0.0160027
811.968	0.0158388
812.046	0.0158871
812.124	0.0158533
812.203	0.0158493
812.281	0.0157462
812.359	0.0157341
812.437	0.0156714
812.515	0.0157165
812.593	0.0156598
812.671	0.0157799
812.749	0.0159235
812.828	0.0160155
812.906	0.0160875
812.984	0.0161037
813.062	0.0163016
813.140	0.0165985
813.218	0.0166470
813.296	0.0167079
813.374	0.0169364
813.453	0.0171500
813.531	0.0172854
813.609	0.0173038
813.687	0.0173363
813.765	0.0173627
813.843	0.0173282
813.921	0.0174160
813.999	0.0173780
814.078	0.0172900
814.156	0.0172062
814.234	0.0171021
814.312	0.0170065
814.390	0.0168427
814.468	0.0167706
814.546	0.0167123
814.624	0.0164966
814.703	0.0164236
814.781	0.0162775
814.859	0.0161929
814.937	0.0160607
815.015	0.0160854
815.093	0.0160111
815.171	0.0158907
815.249	0.0157906
815.328	0.0158997
815.406	0.0159959
815.484	0.0161775
815.562	0.0160896
815.640	0.0162613
815.718	0.0163483
815.796	0.0163686
815.874	0.0164407
815.953	0.0166161
816.031	0.0166676
816.109	0.0167190
816.187	0.0167245
816.265	0.0168748
816.343	0.0169678
816.421	0.0169281
816.499	0.0169798
816.578	0.0168941
816.656	0.0168271
816.734	0.0167055
816.812	0.0167830
816.890	0.0168537
816.968	0.0167203
817.046	0.0167056
817.124	0.0167052
817.203	0.0166084
817.281	0.0165190
817.359	0.0164811
817.437	0.0163623
817.515	0.0163637
817.593	0.0161259
817.671	0.0163024
817.749	0.0163746
817.828	0.0163218
817.906	0.0163228
817.984	0.0162244
818.062	0.0161512
818.140	0.0160970
818.218	0.0162161
818.296	0.0162569
818.374	0.0161124
818.453	0.0161580
818.531	0.0161819
818.609	0.0161776
818.687	0.0160704
818.765	0.0160512
818.843	0.0160755
818.921	0.0163155
818.999	0.0163402
819.078	0.0164548
819.156	0.0162273
819.234	0.0165495
819.312	0.0165503
819.390	0.0166576
819.468	0.0166625
819.546	0.0167705
819.624	0.0167941
819.703	0.0169296
819.781	0.0170731
819.859	0.0169888
819.937	0.0169041
820.015	0.0169459
820.093	0.0169928
820.171	0.0168290
820.249	0.0166833
820.328	0.0168274
820.406	0.0167607
820.484	0.0167614
820.562	0.0166593
820.640	0.0167033
820.718	0.0166936
820.796	0.0167046
820.874	0.0164539
820.953	0.0165362
821.031	0.0166100
821.109	0.0164946
821.187	0.0165354
821.265	0.0165378
821.343	0.0163204
821.421	0.0164677
821.499	0.0165189
821.578	0.0163930
821.656	0.0165134
821.734	0.0163913
821.812	0.0164336
821.890	0.0165036
821.968	0.0165973
822.046	0.0165145
822.124	0.0164440
822.203	0.0165737
822.281	0.0167359
822.359	0.0165740
822.437	0.0165679
822.515	0.0164993
822.593	0.0166566
822.671	0.0166655
822.749	0.0165433
822.828	0.0165297
822.906	0.0165949
822.984	0.0164459
823.062	0.0164748
823.140	0.0163614
823.218	0.0162871
823.296	0.0162889
823.374	0.0162069
823.453	0.0162371
823.531	0.0160320
823.609	0.0162415
823.687	0.0161423
823.765	0.0161590
823.843	0.0161884
823.921	0.0160829
823.999	0.0162477
824.078	0.0161655
824.156	0.0162013
824.234	0.0164678
824.312	0.0163944
824.390	0.0165165
824.468	0.0166624
824.546	0.0166010
824.624	0.0165301
824.703	0.0166320
824.781	0.0165975
824.859	0.0167400
824.937	0.0167717
825.015	0.0167680
825.093	0.0166579
825.171	0.0167279
825.249	0.0167116
825.328	0.0167629
825.406	0.0167799
825.484	0.0167752
825.562	0.0169801
825.640	0.0168935
825.718	0.0168012
825.796	0.0167693
825.874	0.0169093
825.953	0.0168985
826.031	0.0169569
826.109	0.0167606
826.187	0.0168136
826.265	0.0169871
826.343	0.0168167
826.421	0.0168639
826.499	0.0168802
826.578	0.0167405
826.656	0.0168103
826.734	0.0167559
826.812	0.0167307
826.890	0.0167475
826.968	0.0166424
827.046	0.0164966
827.124	0.0165426
827.203	0.0165108
827.281	0.0166054
827.359	0.0164231
827.437	0.0163491
827.515	0.0164862
827.593	0.0163383
827.671	0.0162817
827.749	0.0163148
827.828	0.0162669
827.906	0.0162780
827.984	0.0163097
828.062	0.0161962
828.140	0.0164197
828.218	0.0164042
828.296	0.0162874
828.374	0.0163384
828.453	0.0163510
828.531	0.0165110
828.609	0.0163018
828.687	0.0162400
828.765	0.0163476
828.843	0.0164666
828.921	0.0163312
828.999	0.0163075
829.078	0.0162741
829.156	0.0164159
829.234	0.0162450
829.312	0.0164134
829.390	0.0162848
829.468	0.0163707
829.546	0.0163028
829.624	0.0162464
829.703	0.0162884
829.781	0.0163768
829.859	0.0164819
829.937	0.0164352
830.015	0.0163643
830.093	0.0163820
830.171	0.0163979
830.249	0.0165592
830.328	0.0165889
830.406	0.0165999
830.484	0.0165140
830.562	0.0165589
830.640	0.0167218
830.718	0.0166620
830.796	0.0165764
830.874	0.0166903
830.953	0.0166307
831.031	0.0164971
831.109	0.0166940
831.187	0.0167976
831.265	0.0167318
831.343	0.0167893
831.421	0.0165836
831.499	0.0167228
831.578	0.0168733
831.656	0.0169228
831.734	0.0168296
831.812	0.0167828
831.890	0.0169182
831.968	0.0169881
832.046	0.0170764
832.124	0.0169471
832.203	0.0167879
832.281	0.0167977
832.359	0.0167976
832.437	0.0167553
832.515	0.0166824
832.593	0.0166893
832.671	0.0165019
832.749	0.0163960
832.828	0.0165530
832.906	0.0163728
832.984	0.0163600
833.062	0.0162696
833.140	0.0161405
833.218	0.0161760
833.296	0.0162437
833.374	0.0162057
833.453	0.0162529
833.531	0.0161257
833.609	0.0161494
833.687	0.0161073
833.765	0.0162699
833.843	0.0162545
833.921	0.0162810
833.999	0.0163170
834.078	0.0163239
834.156	0.0164938
834.234	0.0164876
834.312	0.0164896
834.390	0.0165083
834.468	0.0166392
834.546	0.0166473
834.624	0.0166467
834.703	0.0168038
834.781	0.0167455
834.859	0.0166313
834.937	0.0165946
835.015	0.0165984
835.093	0.0166366
835.171	0.0165884
835.249	0.0166247
835.328	0.0166200
835.406	0.0164252
835.484	0.0165854
835.562	0.0165742
835.640	0.0163563
835.718	0.0163901
835.796	0.0163066
835.874	0.0162097
835.953	0.0163544
836.031	0.0162418
836.109	0.0163863
836.187	0.0162283
836.265	0.0162985
836.343	0.0164639
836.421	0.0162462
836.499	0.0161365
836.578	0.0163681
836.656	0.0163563
836.734	0.0161740
836.812	0.0160312
836.890	0.0161254
836.968	0.0162986
837.046	0.0161021
837.124	0.0161537
837.203	0.0164012
837.281	0.0162760
837.359	0.0162716
837.437	0.0163062
837.515	0.0162318
837.593	0.0163598
837.671	0.0163437
837.749	0.0165620
837.828	0.0165733
837.906	0.0167152
837.984	0.0167448
838.062	0.0167221
838.140	0.0167577
838.218	0.0167554
838.296	0.0167497
838.374	0.0170193
838.453	0.0168653
838.531	0.0169199
838.609	0.0167050
838.687	0.0168032
838.765	0.0169013
838.843	0.0167873
838.921	0.0165981
838.999	0.0166573
839.078	0.0166714
839.156	0.0167098
839.234	0.0166472
839.312	0.0164798
839.390	0.0164085
839.468	0.0163441
839.546	0.0163288
839.624	0.0162309
839.703	0.0161746
839.781	0.0162753
839.859	0.0162925
839.937	0.0160920
840.015	0.0160706
840.093	0.0159920
840.171	0.0161600
840.249	0.0161090
840.328	0.0161278
840.406	0.0161930
840.484	0.0161717
840.562	0.0162704
840.640	0.0164655
840.718	0.0165315
840.796	0.0165879
840.874	0.0164875
840.953	0.0166748
841.031	0.0166319
841.109	0.0165591
841.187	0.0165444
841.265	0.0166592
841.343	0.0166156
841.421	0.0165960
841.499	0.0165667
841.578	0.0166131
841.656	0.0166019
841.734	0.0165348
841.812	0.0166502
841.890	0.0164615
841.968	0.0164662
842.046	0.0163507
842.124	0.0164986
842.203	0.0164233
842.281	0.0162791
842.359	0.0162862
842.437	0.0163477
842.515	0.0163397
842.593	0.0164336
842.671	0.0164201
842.749	0.0164041
842.828	0.0164848
842.906	0.0164101
842.984	0.0164142
843.062	0.0163717
843.140	0.0164758
843.218	0.0165957
843.296	0.0167681
843.374	0.0166799
843.453	0.0166365
843.531	0.0166124
843.609	0.0166194
843.687	0.0167797
843.765	0.0165691
843.843	0.0164861
843.921	0.0165822
843.999	0.0166168
844.078	0.0166625
844.156	0.0166210
844.234	0.0164832
844.312	0.0165468
844.390	0.0164676
844.468	0.0166364
844.546	0.0165088
844.624	0.0165968
844.703	0.0166472
844.781	0.0164787
844.859	0.0165288
844.937	0.0166190
845.015	0.0165588
845.093	0.0164943
845.171	0.0164156
845.249	0.0164311
845.328	0.0165518
845.406	0.0165868
845.484	0.0164342
845.562	0.0165880
845.640	0.0165421
845.718	0.0164367
845.796	0.0165258
845.874	0.0163808
845.953	0.0164679
846.031	0.0164075
846.109	0.0164866
846.187	0.0163387
846.265	0.0164361
846.343	0.0164020
846.421	0.0165482
846.499	0.0165271
846.578	0.0164432
846.656	0.0164487
846.734	0.0164771
846.812	0.0166861
846.890	0.0165295
846.968	0.0165601
847.046	0.0164861
847.124	0.0165401
847.203	0.0165818
847.281	0.0166505
847.359	0.0166188
847.437	0.0166824
847.515	0.0166168
847.593	0.0166080
847.671	0.0166077
847.749	0.0163515
847.828	0.0165379
847.906	0.0165646
847.984	0.0164745
848.062	0.0163053
848.140	0.0163395
848.218	0.0164529
848.296	0.0164133
848.374	0.0163893
848.453	0.0163059
848.531	0.0162538
848.609	0.0164412
848.687	0.0164364
848.765	0.0163571
848.843	0.0164703
848.921	0.0164125
848.999	0.0164746
849.078	0.0165157
849.156	0.0164956
849.234	0.0165469
849.312	0.0165109
849.390	0.0164834
849.468	0.0165282
849.546	0.0166146
849.624	0.0165589
849.703	0.0166151
849.781	0.0166024
849.859	0.0165151
849.937	0.0166187
850.015	0.0166466
850.093	0.0165762
850.171	0.0165868
850.249	0.0167692
850.328	0.0165660
850.406	0.0166895
850.484	0.0166108
850.562	0.0166839
850.640	0.0167219
850.718	0.0166575
850.796	0.0167274
850.874	0.0167493
850.953	0.0166153
851.031	0.0166684
851.109	0.0167071
851.187	0.0166140
851.265	0.0165755
851.343	0.0167183
851.421	0.0166384
851.499	0.0168111
851.578	0.0166483
851.656	0.0166550
851.734	0.0166311
851.812	0.0164692
851.890	0.0164314
851.968	0.0163909
852.046	0.0164705
852.124	0.0164474
852.203	0.0164263
852.281	0.0164848
852.359	0.0165703
852.437	0.0165668
852.515	0.0165395
852.593	0.0166792
852.671	0.0164918
852.749	0.0164018
852.828	0.0167162
852.906	0.0165969
852.984	0.0165652
853.062	0.0165234
853.140	0.0166165
853.218	0.0166201
853.296	0.0165342
853.374	0.0164799
853.453	0.0167146
853.531	0.0164545
853.609	0.0163954
853.687	0.0165453
853.765	0.0164236
853.843	0.0165363
853.921	0.0164704
853.999	0.0165536
854.078	0.0163663
854.156	0.0163100
854.234	0.0163754
854.312	0.0165095
854.390	0.0163107
854.468	0.0161440
854.546	0.0162714
854.624	0.0162246
854.703	0.0164928
854.781	0.0161799
854.859	0.0163465
854.937	0.0162415
855.015	0.0163661
855.093	0.0161736
855.171	0.0163216
855.249	0.0163368
855.328	0.0162263
855.406	0.0163560
855.484	0.0162972
855.562	0.0162824
855.640	0.0164213
855.718	0.0165286
855.796	0.0165636
855.874	0.0165591
855.953	0.0165855
856.031	0.0165833
856.109	0.0165450
856.187	0.0166761
856.265	0.0167793
856.343	0.0167355
856.421	0.0165966
856.499	0.0166425
856.578	0.0167256
856.656	0.0167207
856.734	0.0167352
856.812	0.0167580
856.890	0.0166471
856.968	0.0166508
857.046	0.0166413
857.124	0.0166910
857.203	0.0165910
857.281	0.0166464
857.359	0.0164277
857.437	0.0165768
857.515	0.0165919
857.593	0.0165967
857.671	0.0165166
857.749	0.0165359
857.828	0.0164800
857.906	0.0165107
857.984	0.0164804
858.062	0.0164143
858.140	0.0165770
858.218	0.0165371
858.296	0.0166665
858.374	0.0165762
858.453	0.0166257
858.531	0.0165395
858.609	0.0164964
858.687	0.0165067
858.765	0.0165769
858.843	0.0165446
858.921	0.0165561
858.999	0.0164835
859.078	0.0163963
859.156	0.0164547
859.234	0.0163366
859.312	0.0162937
859.390	0.0162918
859.468	0.0164806
859.546	0.0163708
859.624	0.0162489
859.703	0.0162806
859.781	0.0161372
859.859	0.0162177
859.937	0.0161684
860.015	0.0161436
860.093	0.0162359
860.171	0.0161681
860.249	0.0160915
860.328	0.0161203
860.406	0.0161098
860.484	0.0161395
860.562	0.0161385
860.640	0.0161146
860.718	0.0161639
860.796	0.0162255
860.874	0.0162531
860.953	0.0162271
861.031	0.0163416
861.109	0.0162756
861.187	0.0162865
861.265	0.0163785
861.343	0.0163037
861.421	0.0164073
861.499	0.0163863
861.578	0.0164217
861.656	0.0165704
861.734	0.0164845
861.812	0.0165275
861.890	0.0165520
861.968	0.0164838
862.046	0.0164806
862.124	0.0164690
862.203	0.0165216
862.281	0.0164617
862.359	0.0165228
862.437	0.0164927
862.515	0.0164439
862.593	0.0165216
862.671	0.0163243
862.749	0.0163689
862.828	0.0164257
862.906	0.0164451
862.984	0.0163899
863.062	0.0163493
863.140	0.0164991
863.218	0.0163464
863.296	0.0163603
863.374	0.0162838
863.453	0.0162739
863.531	0.0163737
863.609	0.0162809
863.687	0.0162670
863.765	0.0163988
863.843	0.0162505
863.921	0.0163794
863.999	0.0164273
864.078	0.0163158
864.156	0.0162471
864.234	0.0163692
864.312	0.0165711
864.390	0.0164606
864.468	0.0161838
864.546	0.0163628
864.624	0.0164727
864.703	0.0163235
864.781	0.0163895
864.859	0.0164272
864.937	0.0162651
865.015	0.0162594
865.093	0.0163789
865.171	0.0164871
865.249	0.0161654
865.328	0.0162682
865.406	0.0162855
865.484	0.0162994
865.562	0.0162717
865.640	0.0163529
865.718	0.0164105
865.796	0.0162857
865.874	0.0163343
865.953	0.0163800
866.031	0.0163158
866.109	0.0165112
866.187	0.0163874
866.265	0.0165509
866.343	0.0165388
866.421	0.0164666
866.499	0.0164318
866.578	0.0163833
866.656	0.0164273
866.734	0.0164691
866.812	0.0164054
866.890	0.0163676
866.968	0.0164820
867.046	0.0163325
867.124	0.0162005
867.203	0.0164442
867.281	0.0164220
867.359	0.0163343
867.437	0.0162563
867.515	0.0163700
867.593	0.0163226
867.671	0.0163377
867.749	0.0163081
867.828	0.0163825
867.906	0.0163324
867.984	0.0162849
868.062	0.0163776
868.140	0.0164198
868.218	0.0164642
868.296	0.0163690
868.374	0.0163252
868.453	0.0163567
868.531	0.0165379
868.609	0.0164155
868.687	0.0163853
868.765	0.0164900
868.843	0.0163686
868.921	0.0164423
868.999	0.0165911
869.078	0.0163992
869.156	0.0165730
869.234	0.0166010
869.312	0.0165538
869.390	0.0165288
869.468	0.0164364
869.546	0.0165433
869.624	0.0164657
869.703	0.0165519
869.781	0.0165168
869.859	0.0166479
869.937	0.0164545
870.015	0.0165125
870.093	0.0165012
870.171	0.0165450
870.249	0.0166119
870.328	0.0165714
870.406	0.0166904
870.484	0.0166750
870.562	0.0165103
870.640	0.0165483
870.718	0.0166284
870.796	0.0163948
870.874	0.0166145
870.953	0.0165517
871.031	0.0164918
871.109	0.0165683
871.187	0.0165634
871.265	0.0164467
871.343	0.0165214
871.421	0.0164938
871.499	0.0165009
871.578	0.0162487
871.656	0.0164268
871.734	0.0164402
871.812	0.0164397
871.890	0.0164904
871.968	0.0164720
872.046	0.0161791
872.124	0.0164250
872.203	0.0163548
872.281	0.0164700
872.359	0.0164727
872.437	0.0163779
872.515	0.0163889
872.593	0.0164816
872.671	0.0163426
872.749	0.0164480
872.828	0.0163905
872.906	0.0163556
872.984	0.0165225
873.062	0.0164323
873.140	0.0164103
873.218	0.0163437
873.296	0.0163532
873.374	0.0164106
873.453	0.0163634
873.531	0.0164214
873.609	0.0164069
873.687	0.0163479
873.765	0.0164835
873.843	0.0164152
873.921	0.0164484
873.999	0.0164482
874.078	0.0163785
874.156	0.0164757
874.234	0.0164904
874.312	0.0164256
874.390	0.0163287
874.468	0.0164202
874.546	0.0165388
874.624	0.0163997
874.703	0.0164882
874.781	0.0163834
874.859	0.0163260
874.937	0.0164433
875.015	0.0164853
875.093	0.0164989
875.171	0.0166724
875.249	0.0166038
875.328	0.0167057
875.406	0.0165856
875.484	0.0166844
875.562	0.0168192
875.640	0.0167687
875.718	0.0166630
875.796	0.0167878
875.874	0.0164970
875.953	0.0165638
876.031	0.0166872
876.109	0.0167355
876.187	0.0166143
876.265	0.0165303
876.343	0.0166019
876.421	0.0165535
876.499	0.0163830
876.578	0.0165755
876.656	0.0164037
876.734	0.0164310
876.812	0.0163716
876.890	0.0165141
876.968	0.0162840
877.046	0.0163908
877.124	0.0163325
877.203	0.0162996
877.281	0.0162425
877.359	0.0162513
877.437	0.0165228
877.515	0.0163350
877.593	0.0163706
877.671	0.0164218
877.749	0.0164111
877.828	0.0164915
877.906	0.0165694
877.984	0.0165143
878.062	0.0165810
878.140	0.0166304
878.218	0.0165894
878.296	0.0166401
878.374	0.0165746
878.453	0.0165183
878.531	0.0165107
878.609	0.0164571
878.687	0.0163409
878.765	0.0165096
878.843	0.0165287
878.921	0.0164870
878.999	0.0163311
879.078	0.0164481
879.156	0.0164789
879.234	0.0164503
879.312	0.0165483
879.390	0.0164452
879.468	0.0164323
879.546	0.0163416
879.624	0.0165071
879.703	0.0166313
879.781	0.0163766
879.859	0.0165697
879.937	0.0165038
880.015	0.0164118
880.093	0.0164511
880.171	0.0164470
880.249	0.0164214
880.328	0.0164161
880.406	0.0164214
880.484	0.0164377
880.562	0.0165135
880.640	0.0164589
880.718	0.0164510
880.796	0.0164935
880.874	0.0163950
880.953	0.0163793
881.031	0.0164153
881.109	0.0162555
881.187	0.0165445
881.265	0.0165858
881.343	0.0164079
881.421	0.0163730
881.499	0.0165637
881.578	0.0167152
881.656	0.0164843
881.734	0.0165533
881.812	0.0166326
881.890	0.0165683
881.968	0.0165517
882.046	0.0165313
882.124	0.0164403
882.203	0.0163689
882.281	0.0164091
882.359	0.0164910
882.437	0.0164252
882.515	0.0163698
882.593	0.0164729
882.671	0.0165322
882.749	0.0164251
882.828	0.0162946
882.906	0.0161880
882.984	0.0162753
883.062	0.0162783
883.140	0.0163094
883.218	0.0162486
883.296	0.0160837
883.374	0.0163052
883.453	0.0162962
883.531	0.0162366
883.609	0.0163066
883.687	0.0163754
883.765	0.0164914
883.843	0.0164066
883.921	0.0164702
883.999	0.0166191
884.078	0.0166286
884.156	0.0166914
884.234	0.0167287
884.312	0.0166434
884.390	0.0166879
884.468	0.0167339
884.546	0.0166160
884.624	0.0166039
884.703	0.0166515
884.781	0.0166251
884.859	0.0165561
884.937	0.0165166
885.015	0.0163885
885.093	0.0163966
885.171	0.0164908
885.249	0.0164139
885.328	0.0163432
885.406	0.0162854
885.484	0.0162363
885.562	0.0163467
885.640	0.0162729
885.718	0.0162965
885.796	0.0162112
885.874	0.0162115
885.953	0.0162476
886.031	0.0161084
886.109	0.0162091
886.187	0.0161948
886.265	0.0162661
886.343	0.0162700
886.421	0.0162335
886.499	0.0162592
886.578	0.0161747
886.656	0.0163242
886.734	0.0162990
886.812	0.0162749
886.890	0.0163190
886.968	0.0163630
887.046	0.0164731
887.124	0.0163546
887.203	0.0164268
887.281	0.0164354
887.359	0.0165387
887.437	0.0165448
887.515	0.0165272
887.593	0.0165396
887.671	0.0164891
887.749	0.0164308
887.828	0.0164370
887.906	0.0164368
887.984	0.0164283
888.062	0.0165160
888.140	0.0163954
888.218	0.0165426
888.296	0.0165322
888.374	0.0164656
888.453	0.0166354
888.531	0.0165677
888.609	0.0165065
888.687	0.0164474
888.765	0.0165582
888.843	0.0165204
888.921	0.0165557
888.999	0.0164352
889.078	0.0165768
889.156	0.0164536
889.234	0.0164977
889.312	0.0163828
889.390	0.0163654
889.468	0.0162727
889.546	0.0163282
889.624	0.0164227
889.703	0.0163281
889.781	0.0164068
889.859	0.0164581
889.937	0.0163749
890.015	0.0163383
890.093	0.0162069
890.171	0.0162480
890.249	0.0163903
890.328	0.0163620
890.406	0.0164888
890.484	0.0164917
890.562	0.0163367
890.640	0.0164742
890.718	0.0164053
890.796	0.0163622
890.874	0.0163625
890.953	0.0164426
891.031	0.0165041
891.109	0.0163343
891.187	0.0162630
891.265	0.0163277
891.343	0.0164500
891.421	0.0163042
891.499	0.0162585
891.578	0.0163158
891.656	0.0163321
891.734	0.0164655
891.812	0.0164053
891.890	0.0163370
891.968	0.0162192
892.046	0.0164267
892.124	0.0164824
892.203	0.0165725
892.281	0.0165085
892.359	0.0163649
892.437	0.0165775
892.515	0.0165596
892.593	0.0165580
892.671	0.0165841
892.749	0.0165318
892.828	0.0165668
892.906	0.0166748
892.984	0.0166401
893.062	0.0166158
893.140	0.0166677
893.218	0.0168614
893.296	0.0167290
893.374	0.0167685
893.453	0.0166413
893.531	0.0166760
893.609	0.0167646
893.687	0.0166196
893.765	0.0166484
893.843	0.0165978
893.921	0.0165656
893.999	0.0165968
894.078	0.0165201
894.156	0.0164874
894.234	0.0165675
894.312	0.0165436
894.390	0.0165255
894.468	0.0166428
894.546	0.0165049
894.624	0.0165965
894.703	0.0164409
894.781	0.0163704
894.859	0.0165938
894.937	0.0164677
895.015	0.0164691
895.093	0.0164417
895.171	0.0164327
895.249	0.0163125
895.328	0.0164359
895.406	0.0163731
895.484	0.0163638
895.562	0.0163275
895.640	0.0162618
895.718	0.0164252
895.796	0.0162256
895.874	0.0163878
895.953	0.0162280
896.031	0.0162596
896.109	0.0162961
896.187	0.0163061
896.265	0.0164178
896.343	0.0164010
896.421	0.0164567
896.499	0.0163306
896.578	0.0162868
896.656	0.0163828
896.734	0.0166453
896.812	0.0165305
896.890	0.0165180
896.968	0.0165819
897.046	0.0166074
897.124	0.0166477
897.203	0.0164889
897.281	0.0166046
897.359	0.0166536
897.437	0.0165608
897.515	0.0165945
897.593	0.0165389
897.671	0.0166370
897.749	0.0166712
897.828	0.0165349
897.906	0.0164939
897.984	0.0166483
898.062	0.0165223
898.140	0.0164915
898.218	0.0165218
898.296	0.0165456
898.374	0.0164330
898.453	0.0163616
898.531	0.0163024
898.609	0.0162901
898.687	0.0163757
898.765	0.0165297
898.843	0.0164606
898.921	0.0164336
898.999	0.0165288
899.078	0.0165451
899.156	0.0164862
899.234	0.0165913
899.312	0.0165047
899.390	0.0165907
899.468	0.0166392
899.546	0.0165634
899.624	0.0166546
899.703	0.0165711
899.781	0.0165147
899.859	0.0165440
899.937	0.0165178
900.015	0.0165549
900.093	0.0165559
900.171	0.0164698
900.249	0.0164907
900.328	0.0163898
900.406	0.0165347
900.484	0.0165870
900.562	0.0165565
900.640	0.0165124
900.718	0.0165354
900.796	0.0166924
900.874	0.0165755
900.953	0.0165076
901.031	0.0166429
901.109	0.0166111
901.187	0.0165458
901.265	0.0164815
901.343	0.0166215
901.421	0.0166690
901.499	0.0166056
901.578	0.0165395
901.656	0.0165700
901.734	0.0166577
901.812	0.0165437
901.890	0.0165219
901.968	0.0164194
902.046	0.0164146
902.124	0.0165288
902.203	0.0164732
902.281	0.0165262
902.359	0.0164529
902.437	0.0162878
902.515	0.0164800
902.593	0.0164846
902.671	0.0164464
902.749	0.0163597
902.828	0.0163923
902.906	0.0166394
902.984	0.0165300
903.062	0.0163671
903.140	0.0165060
903.218	0.0163846
903.296	0.0164742
903.374	0.0164935
903.453	0.0165340
903.531	0.0165034
903.609	0.0165536
903.687	0.0165590
903.765	0.0164827
903.843	0.0166089
903.921	0.0165069
903.999	0.0164658
904.078	0.0164803
904.156	0.0165173
904.234	0.0165641
904.312	0.0165736
904.390	0.0166145
904.468	0.0166206
904.546	0.0166286
904.624	0.0165258
904.703	0.0166792
904.781	0.0166445
904.859	0.0166757
904.937	0.0166873
905.015	0.0166699
905.093	0.0165398
905.171	0.0166135
905.249	0.0165733
905.328	0.0166235
905.406	0.0165887
905.484	0.0164362
905.562	0.0164599
905.640	0.0164460
905.718	0.0164596
905.796	0.0164020
905.874	0.0164467
905.953	0.0164747
906.031	0.0164740
906.109	0.0163353
906.187	0.0164050
906.265	0.0164652
906.343	0.0163486
906.421	0.0163588
906.499	0.0163864
906.578	0.0164280
906.656	0.0164211
906.734	0.0163829
906.812	0.0164912
906.890	0.0165641
906.968	0.0165452
907.046	0.0164664
907.124	0.0165723
907.203	0.0165644
907.281	0.0166572
907.359	0.0166339
907.437	0.0166712
907.515	0.0165328
907.593	0.0166260
907.671	0.0167400
907.749	0.0166979
907.828	0.0166781
907.906	0.0165035
907.984	0.0165805
908.062	0.0163383
908.140	0.0164446
908.218	0.0164636
908.296	0.0163121
908.374	0.0163102
908.453	0.0163781
908.531	0.0163585
908.609	0.0163259
908.687	0.0163480
908.765	0.0163971
908.843	0.0163400
908.921	0.0164826
908.999	0.0164783
909.078	0.0164253
909.156	0.0164394
909.234	0.0164226
909.312	0.0164068
909.390	0.0165398
909.468	0.0164248
909.546	0.0165068
909.624	0.0166517
909.703	0.0164227
909.781	0.0165133
909.859	0.0165343
909.937	0.0164753
910.015	0.0164133
910.093	0.0165280
910.171	0.0164115
910.249	0.0166251
910.328	0.0167242
910.406	0.0166576
910.484	0.0165580
910.562	0.0166960
910.640	0.0166063
910.718	0.0165363
910.796	0.0166057
910.874	0.0165276
910.953	0.0165304
911.031	0.0165237
911.109	0.0164899
911.187	0.0165855
911.265	0.0165013
911.343	0.0165667
911.421	0.0164091
911.499	0.0164948
911.578	0.0165190
911.656	0.0166853
911.734	0.0165396
911.812	0.0164265
911.890	0.0165073
911.968	0.0166016
912.046	0.0166673
912.124	0.0165491
912.203	0.0165052
912.281	0.0165175
912.359	0.0164574
912.437	0.0166006
912.515	0.0165491
912.593	0.0165240
912.671	0.0164856
912.749	0.0165665
912.828	0.0165478
912.906	0.0165730
912.984	0.0164671
913.062	0.0163525
913.140	0.0165302
913.218	0.0166224
913.296	0.0164881
913.374	0.0163781
913.453	0.0165464
913.531	0.0165076
913.609	0.0165398
913.687	0.0166417
913.765	0.0167248
913.843	0.0167017
913.921	0.0166341
913.999	0.0166720
914.078	0.0165878
914.156	0.0166595
914.234	0.0166361
914.312	0.0166519
914.390	0.0165804
914.468	0.0166454
914.546	0.0165356
914.624	0.0166068
914.703	0.0165745
914.781	0.0165728
914.859	0.0166217
914.937	0.0165005
915.015	0.0164478
915.093	0.0164178
915.171	0.0165102
915.249	0.0165074
915.328	0.0164472
915.406	0.0164943
915.484	0.0163967
915.562	0.0164693
915.640	0.0163804
915.718	0.0164251
915.796	0.0163446
915.874	0.0165524
915.953	0.0164552
916.031	0.0164668
916.109	0.0165443
916.187	0.0165613
916.265	0.0166364
916.343	0.0165789
916.421	0.0165104
916.499	0.0166048
916.578	0.0165984
916.656	0.0165673
916.734	0.0166682
916.812	0.0167061
916.890	0.0165569
916.968	0.0165463
917.046	0.0163921
917.124	0.0164529
917.203	0.0164500
917.281	0.0165974
917.359	0.0165262
917.437	0.0164428
917.515	0.0164835
917.593	0.0165049
917.671	0.0163361
917.749	0.0164403
917.828	0.0162938
917.906	0.0163275
917.984	0.0165116
918.062	0.0165546
918.140	0.0166249
918.218	0.0165903
918.296	0.0164433
918.374	0.0165504
918.453	0.0165282
918.531	0.0164252
918.609	0.0166008
918.687	0.0165010
918.765	0.0165238
918.843	0.0164160
918.921	0.0165203
918.999	0.0164877
919.078	0.0163998
919.156	0.0164384
919.234	0.0164210
919.312	0.0162510
919.390	0.0163213
919.468	0.0162278
919.546	0.0164120
919.624	0.0163743
919.703	0.0163461
919.781	0.0163685
919.859	0.0163351
919.937	0.0164469
