06/10/2022	18:52:55	Ver.	4.1	UNKNOWN
Optical Delay	600.015094	Delta X		0.078125	Sweeps	1	Scan Rate	0/0
Coordinates	Axis 1	NaN	Axis 2	NaN	Axis 3	NaN	Axis 4	NaN	Axis 5	NaN	Axis 6	0.000000
TX Power	0.000000	RX Power	0.000000

600.015	0.0163582
600.093	0.0162765
600.171	0.0163840
600.249	0.0163787
600.328	0.0163705
600.406	0.0162301
600.484	0.0162272
600.562	0.0162746
600.640	0.0162230
600.718	0.0163261
600.796	0.0163825
600.874	0.0162260
600.953	0.0162733
601.031	0.0164152
601.109	0.0162755
601.187	0.0163428
601.265	0.0163863
601.343	0.0164236
601.421	0.0163596
601.499	0.0163711
601.578	0.0162295
601.656	0.0163019
601.734	0.0164096
601.812	0.0162125
601.890	0.0162613
601.968	0.0163393
602.046	0.0163680
602.124	0.0163541
602.203	0.0162537
602.281	0.0164306
602.359	0.0161623
602.437	0.0163821
602.515	0.0163026
602.593	0.0162148
602.671	0.0163934
602.749	0.0162534
602.828	0.0163156
602.906	0.0164816
602.984	0.0163306
603.062	0.0164282
603.140	0.0163046
603.218	0.0163179
603.296	0.0162433
603.374	0.0162576
603.453	0.0164248
603.531	0.0163139
603.609	0.0163124
603.687	0.0163638
603.765	0.0162748
603.843	0.0164106
603.921	0.0161423
603.999	0.0162126
604.078	0.0163379
604.156	0.0163547
604.234	0.0162758
604.312	0.0162233
604.390	0.0165150
604.468	0.0163471
604.546	0.0163133
604.624	0.0162321
604.703	0.0162799
604.781	0.0163181
604.859	0.0163702
604.937	0.0161446
605.015	0.0162711
605.093	0.0163229
605.171	0.0163488
605.249	0.0163806
605.328	0.0162658
605.406	0.0163763
605.484	0.0163662
605.562	0.0163564
605.640	0.0163487
605.718	0.0163995
605.796	0.0162003
605.874	0.0164271
605.953	0.0164773
606.031	0.0163013
606.109	0.0162939
606.187	0.0164153
606.265	0.0162988
606.343	0.0163644
606.421	0.0163323
606.499	0.0161452
606.578	0.0163367
606.656	0.0163756
606.734	0.0162271
606.812	0.0162976
606.890	0.0163116
606.968	0.0162883
607.046	0.0163973
607.124	0.0163992
607.203	0.0163660
607.281	0.0163322
607.359	0.0162706
607.437	0.0164160
607.515	0.0163510
607.593	0.0163362
607.671	0.0164415
607.749	0.0164329
607.828	0.0163789
607.906	0.0163377
607.984	0.0163085
608.062	0.0164032
608.140	0.0164864
608.218	0.0163383
608.296	0.0164132
608.374	0.0163905
608.453	0.0164213
608.531	0.0164879
608.609	0.0163575
608.687	0.0163943
608.765	0.0161999
608.843	0.0163705
608.921	0.0164619
608.999	0.0163911
609.078	0.0161586
609.156	0.0163754
609.234	0.0164432
609.312	0.0164814
609.390	0.0163908
609.468	0.0163587
609.546	0.0163458
609.624	0.0162660
609.703	0.0163728
609.781	0.0163961
609.859	0.0164011
609.937	0.0164034
610.015	0.0163879
610.093	0.0163482
610.171	0.0164025
610.249	0.0162602
610.328	0.0163222
610.406	0.0163081
610.484	0.0164859
610.562	0.0164261
610.640	0.0163901
610.718	0.0162749
610.796	0.0162534
610.874	0.0162441
610.953	0.0163737
611.031	0.0162862
611.109	0.0163809
611.187	0.0162506
611.265	0.0163942
611.343	0.0163180
611.421	0.0163226
611.499	0.0164036
611.578	0.0163616
611.656	0.0162811
611.734	0.0163043
611.812	0.0162893
611.890	0.0163609
611.968	0.0162655
612.046	0.0163631
612.124	0.0163334
612.203	0.0162372
612.281	0.0163053
612.359	0.0164440
612.437	0.0162534
612.515	0.0162788
612.593	0.0163418
612.671	0.0163879
612.749	0.0163258
612.828	0.0163053
612.906	0.0161030
612.984	0.0163062
613.062	0.0163610
613.140	0.0162747
613.218	0.0163815
613.296	0.0163059
613.374	0.0162199
613.453	0.0164502
613.531	0.0163967
613.609	0.0162637
613.687	0.0162724
613.765	0.0163337
613.843	0.0164108
613.921	0.0162238
613.999	0.0163477
614.078	0.0162136
614.156	0.0163100
614.234	0.0163665
614.312	0.0162837
614.390	0.0162083
614.468	0.0162228
614.546	0.0163210
614.624	0.0163665
614.703	0.0163602
614.781	0.0162321
614.859	0.0163654
614.937	0.0164646
615.015	0.0162907
615.093	0.0161719
615.171	0.0164062
615.249	0.0163172
615.328	0.0163570
615.406	0.0163163
615.484	0.0163528
615.562	0.0163428
615.640	0.0163117
615.718	0.0162801
615.796	0.0162463
615.874	0.0163023
615.953	0.0162526
616.031	0.0164265
616.109	0.0163937
616.187	0.0163380
616.265	0.0162512
616.343	0.0162508
616.421	0.0163432
616.499	0.0163438
616.578	0.0163088
616.656	0.0163499
616.734	0.0163033
616.812	0.0163170
616.890	0.0162859
616.968	0.0163187
617.046	0.0164676
617.124	0.0162834
617.203	0.0162854
617.281	0.0163372
617.359	0.0163343
617.437	0.0163101
617.515	0.0163381
617.593	0.0162707
617.671	0.0162929
617.749	0.0164096
617.828	0.0162263
617.906	0.0163246
617.984	0.0163351
618.062	0.0164585
618.140	0.0162894
618.218	0.0162101
618.296	0.0162347
618.374	0.0163252
618.453	0.0162583
618.531	0.0163172
618.609	0.0162315
618.687	0.0162450
618.765	0.0163522
618.843	0.0163593
618.921	0.0163747
618.999	0.0163744
619.078	0.0163178
619.156	0.0162518
619.234	0.0162955
619.312	0.0162934
619.390	0.0162853
619.468	0.0164310
619.546	0.0161689
619.624	0.0163604
619.703	0.0163113
619.781	0.0163575
619.859	0.0163561
619.937	0.0163766
620.015	0.0161623
620.093	0.0164122
620.171	0.0163268
620.249	0.0163714
620.328	0.0163445
620.406	0.0163956
620.484	0.0163821
620.562	0.0163226
620.640	0.0164565
620.718	0.0163553
620.796	0.0162498
620.874	0.0165091
620.953	0.0162714
621.031	0.0163508
621.109	0.0163840
621.187	0.0163680
621.265	0.0163584
621.343	0.0162304
621.421	0.0163315
621.499	0.0163050
621.578	0.0162768
621.656	0.0164169
621.734	0.0164781
621.812	0.0163817
621.890	0.0162457
621.968	0.0163477
622.046	0.0164535
622.124	0.0163528
622.203	0.0161950
622.281	0.0163879
622.359	0.0163170
622.437	0.0164348
622.515	0.0163380
622.593	0.0163251
622.671	0.0164226
622.749	0.0163483
622.828	0.0164146
622.906	0.0163038
622.984	0.0163626
623.062	0.0165433
623.140	0.0162641
623.218	0.0164117
623.296	0.0162507
623.374	0.0162804
623.453	0.0163879
623.531	0.0163511
623.609	0.0162875
623.687	0.0163674
623.765	0.0164433
623.843	0.0163483
623.921	0.0165039
623.999	0.0163708
624.078	0.0165812
624.156	0.0163866
624.234	0.0164288
624.312	0.0164947
624.390	0.0164893
624.468	0.0162974
624.546	0.0162343
624.624	0.0163354
624.703	0.0163788
624.781	0.0163930
624.859	0.0162260
624.937	0.0163103
625.015	0.0162466
625.093	0.0162785
625.171	0.0162634
625.249	0.0164174
625.328	0.0163619
625.406	0.0163831
625.484	0.0162817
625.562	0.0162175
625.640	0.0163181
625.718	0.0162527
625.796	0.0164138
625.874	0.0161783
625.953	0.0163866
626.031	0.0164336
626.109	0.0164444
626.187	0.0164198
626.265	0.0163029
626.343	0.0161538
626.421	0.0162753
626.499	0.0164028
626.578	0.0162419
626.656	0.0163387
626.734	0.0163517
626.812	0.0163406
626.890	0.0163828
626.968	0.0162891
627.046	0.0162511
627.124	0.0161808
627.203	0.0162221
627.281	0.0164159
627.359	0.0162756
627.437	0.0163162
627.515	0.0164777
627.593	0.0163406
627.671	0.0161604
627.749	0.0161861
627.828	0.0164492
627.906	0.0164174
627.984	0.0163634
628.062	0.0162249
628.140	0.0163348
628.218	0.0162713
628.296	0.0163834
628.374	0.0163995
628.453	0.0164103
628.531	0.0163850
628.609	0.0163500
628.687	0.0161723
628.765	0.0163244
628.843	0.0163881
628.921	0.0163877
628.999	0.0162865
629.078	0.0163379
629.156	0.0163879
629.234	0.0162411
629.312	0.0163309
629.390	0.0163314
629.468	0.0162869
629.546	0.0164018
629.624	0.0164662
629.703	0.0163622
629.781	0.0163120
629.859	0.0163673
629.937	0.0164790
630.015	0.0164001
630.093	0.0161896
630.171	0.0162792
630.249	0.0163723
630.328	0.0163621
630.406	0.0162711
630.484	0.0163454
630.562	0.0162785
630.640	0.0163731
630.718	0.0164222
630.796	0.0163821
630.874	0.0162692
630.953	0.0162418
631.031	0.0161904
631.109	0.0163211
631.187	0.0163207
631.265	0.0163320
631.343	0.0162009
631.421	0.0163188
631.499	0.0163589
631.578	0.0163470
631.656	0.0163167
631.734	0.0162894
631.812	0.0163725
631.890	0.0163850
631.968	0.0162891
632.046	0.0162650
632.124	0.0163187
632.203	0.0163597
632.281	0.0163286
632.359	0.0164769
632.437	0.0164188
632.515	0.0163702
632.593	0.0163255
632.671	0.0163432
632.749	0.0163544
632.828	0.0162496
632.906	0.0163014
632.984	0.0163518
633.062	0.0163894
633.140	0.0163026
633.218	0.0162290
633.296	0.0164874
633.374	0.0163403
633.453	0.0164259
633.531	0.0163887
633.609	0.0162403
633.687	0.0163788
633.765	0.0162456
633.843	0.0162212
633.921	0.0163623
633.999	0.0164885
634.078	0.0163542
634.156	0.0163876
634.234	0.0162180
634.312	0.0163384
634.390	0.0163917
634.468	0.0164037
634.546	0.0162654
634.624	0.0162420
634.703	0.0163559
634.781	0.0163736
634.859	0.0163556
634.937	0.0164384
635.015	0.0162511
635.093	0.0162149
635.171	0.0163119
635.249	0.0163750
635.328	0.0163558
635.406	0.0163023
635.484	0.0163782
635.562	0.0163721
635.640	0.0164414
635.718	0.0163760
635.796	0.0163158
635.874	0.0164191
635.953	0.0163992
636.031	0.0162109
636.109	0.0162010
636.187	0.0161877
636.265	0.0163095
636.343	0.0163885
636.421	0.0163538
636.499	0.0164214
636.578	0.0163522
636.656	0.0163243
636.734	0.0161506
636.812	0.0163372
636.890	0.0163552
636.968	0.0163123
637.046	0.0162925
637.124	0.0163109
637.203	0.0163343
637.281	0.0163876
637.359	0.0162563
637.437	0.0162422
637.515	0.0162341
637.593	0.0162991
637.671	0.0164122
637.749	0.0163220
637.828	0.0164161
637.906	0.0163840
637.984	0.0163840
638.062	0.0163404
638.140	0.0164268
638.218	0.0164460
638.296	0.0164359
638.374	0.0164477
638.453	0.0164433
638.531	0.0162772
638.609	0.0164026
638.687	0.0162971
638.765	0.0165206
638.843	0.0164408
638.921	0.0163364
638.999	0.0164310
639.078	0.0164185
639.156	0.0165031
639.234	0.0164808
639.312	0.0163463
639.390	0.0163901
639.468	0.0163404
639.546	0.0163567
639.624	0.0164534
639.703	0.0165102
639.781	0.0163692
639.859	0.0163641
639.937	0.0164843
640.015	0.0164379
640.093	0.0163312
640.171	0.0164127
640.249	0.0163013
640.328	0.0164291
640.406	0.0164728
640.484	0.0164243
640.562	0.0163034
640.640	0.0162701
640.718	0.0162488
640.796	0.0163488
640.874	0.0163457
640.953	0.0163054
641.031	0.0164722
641.109	0.0163142
641.187	0.0164001
641.265	0.0162187
641.343	0.0162946
641.421	0.0164388
641.499	0.0164688
641.578	0.0163042
641.656	0.0163198
641.734	0.0162603
641.812	0.0164262
641.890	0.0163340
641.968	0.0164502
642.046	0.0163282
642.124	0.0163574
642.203	0.0163242
642.281	0.0164295
642.359	0.0163843
642.437	0.0164592
642.515	0.0163280
642.593	0.0163723
642.671	0.0163335
642.749	0.0162869
642.828	0.0163367
642.906	0.0163444
642.984	0.0163989
643.062	0.0163682
643.140	0.0163193
643.218	0.0163917
643.296	0.0163568
643.374	0.0164215
643.453	0.0162502
643.531	0.0162680
643.609	0.0163729
643.687	0.0163936
643.765	0.0163960
643.843	0.0163396
643.921	0.0163376
643.999	0.0163583
644.078	0.0162913
644.156	0.0163406
644.234	0.0164821
644.312	0.0164747
644.390	0.0162911
644.468	0.0164642
644.546	0.0161749
644.624	0.0163223
644.703	0.0162688
644.781	0.0163689
644.859	0.0163979
644.937	0.0163126
645.015	0.0162976
645.093	0.0163139
645.171	0.0164325
645.249	0.0165073
645.328	0.0165716
645.406	0.0163878
645.484	0.0162572
645.562	0.0163667
645.640	0.0163895
645.718	0.0164347
645.796	0.0163475
645.874	0.0164358
645.953	0.0163572
646.031	0.0161602
646.109	0.0163940
646.187	0.0164583
646.265	0.0164318
646.343	0.0163748
646.421	0.0163661
646.499	0.0162949
646.578	0.0163508
646.656	0.0164304
646.734	0.0164338
646.812	0.0163899
646.890	0.0164543
646.968	0.0164187
647.046	0.0162747
647.124	0.0163274
647.203	0.0165489
647.281	0.0163665
647.359	0.0163491
647.437	0.0163303
647.515	0.0163707
647.593	0.0164043
647.671	0.0163043
647.749	0.0163734
647.828	0.0163848
647.906	0.0163539
647.984	0.0163656
648.062	0.0163625
648.140	0.0163228
648.218	0.0163506
648.296	0.0163052
648.374	0.0163944
648.453	0.0163171
648.531	0.0163946
648.609	0.0163348
648.687	0.0164130
648.765	0.0163076
648.843	0.0162471
648.921	0.0164986
648.999	0.0164179
649.078	0.0162580
649.156	0.0163831
649.234	0.0164030
649.312	0.0163137
649.390	0.0162775
649.468	0.0163439
649.546	0.0164365
649.624	0.0163770
649.703	0.0162643
649.781	0.0164118
649.859	0.0162602
649.937	0.0164302
650.015	0.0163580
650.093	0.0161585
650.171	0.0163467
650.249	0.0163794
650.328	0.0164233
650.406	0.0163336
650.484	0.0164451
650.562	0.0163009
650.640	0.0162531
650.718	0.0162323
650.796	0.0163441
650.874	0.0162565
650.953	0.0163486
651.031	0.0162755
651.109	0.0163618
651.187	0.0162947
651.265	0.0163171
651.343	0.0163685
651.421	0.0163901
651.499	0.0162292
651.578	0.0163669
651.656	0.0162606
651.734	0.0163940
651.812	0.0164323
651.890	0.0162898
651.968	0.0163811
652.046	0.0163132
652.124	0.0163574
652.203	0.0162366
652.281	0.0162328
652.359	0.0164275
652.437	0.0162841
652.515	0.0164031
652.593	0.0163269
652.671	0.0162341
652.749	0.0161845
652.828	0.0162922
652.906	0.0164008
652.984	0.0163427
653.062	0.0161414
653.140	0.0162652
653.218	0.0164460
653.296	0.0165136
653.374	0.0163686
653.453	0.0162119
653.531	0.0163316
653.609	0.0163722
653.687	0.0162443
653.765	0.0163015
653.843	0.0162853
653.921	0.0163139
653.999	0.0162844
654.078	0.0164645
654.156	0.0163811
654.234	0.0164870
654.312	0.0162732
654.390	0.0162827
654.468	0.0164526
654.546	0.0163751
654.624	0.0164101
654.703	0.0164738
654.781	0.0163677
654.859	0.0162472
654.937	0.0163124
655.015	0.0162745
655.093	0.0162341
655.171	0.0163360
655.249	0.0165092
655.328	0.0164456
655.406	0.0161861
655.484	0.0163625
655.562	0.0163760
655.640	0.0162843
655.718	0.0162365
655.796	0.0163890
655.874	0.0163972
655.953	0.0164875
656.031	0.0163695
656.109	0.0163408
656.187	0.0163569
656.265	0.0163215
656.343	0.0163617
656.421	0.0164453
656.499	0.0163425
656.578	0.0162550
656.656	0.0162979
656.734	0.0163357
656.812	0.0163177
656.890	0.0163620
656.968	0.0163847
657.046	0.0162852
657.124	0.0163685
657.203	0.0162826
657.281	0.0163148
657.359	0.0163262
657.437	0.0163770
657.515	0.0163703
657.593	0.0163171
657.671	0.0164003
657.749	0.0162724
657.828	0.0163868
657.906	0.0163932
657.984	0.0164923
658.062	0.0164158
658.140	0.0162215
658.218	0.0163208
658.296	0.0164291
658.374	0.0165111
658.453	0.0164401
658.531	0.0163380
658.609	0.0163417
658.687	0.0163538
658.765	0.0164888
658.843	0.0164613
658.921	0.0164391
658.999	0.0165022
659.078	0.0164584
659.156	0.0162957
659.234	0.0163395
659.312	0.0163654
659.390	0.0163998
659.468	0.0162908
659.546	0.0163277
659.624	0.0162896
659.703	0.0163403
659.781	0.0164130
659.859	0.0163113
659.937	0.0164462
660.015	0.0164156
660.093	0.0163292
660.171	0.0163980
660.249	0.0164689
660.328	0.0163628
660.406	0.0164149
660.484	0.0164890
660.562	0.0164474
660.640	0.0163963
660.718	0.0165609
660.796	0.0162914
660.874	0.0163989
660.953	0.0164104
661.031	0.0164575
661.109	0.0163961
661.187	0.0163797
661.265	0.0163918
661.343	0.0165083
661.421	0.0165071
661.499	0.0164558
661.578	0.0163096
661.656	0.0163535
661.734	0.0165340
661.812	0.0164706
661.890	0.0165671
661.968	0.0165798
662.046	0.0163401
662.124	0.0164993
662.203	0.0164061
662.281	0.0163965
662.359	0.0163351
662.437	0.0164634
662.515	0.0163908
662.593	0.0162914
662.671	0.0162753
662.749	0.0164079
662.828	0.0164619
662.906	0.0164703
662.984	0.0163496
663.062	0.0163661
663.140	0.0163792
663.218	0.0164549
663.296	0.0163055
663.374	0.0164316
663.453	0.0164358
663.531	0.0164137
663.609	0.0164700
663.687	0.0163890
663.765	0.0162772
663.843	0.0163746
663.921	0.0163475
663.999	0.0163762
664.078	0.0164664
664.156	0.0163409
664.234	0.0163808
664.312	0.0163173
664.390	0.0164945
664.468	0.0163646
664.546	0.0163723
664.624	0.0164352
664.703	0.0164712
664.781	0.0162593
664.859	0.0164123
664.937	0.0162949
665.015	0.0162888
665.093	0.0163274
665.171	0.0162970
665.249	0.0163186
665.328	0.0162651
665.406	0.0163109
665.484	0.0163860
665.562	0.0162842
665.640	0.0163898
665.718	0.0163377
665.796	0.0162575
665.874	0.0164262
665.953	0.0164552
666.031	0.0164708
666.109	0.0162616
666.187	0.0163574
666.265	0.0163186
666.343	0.0163633
666.421	0.0163908
666.499	0.0163914
666.578	0.0162872
666.656	0.0162993
666.734	0.0162591
666.812	0.0164816
666.890	0.0163521
666.968	0.0162901
667.046	0.0162915
667.124	0.0164587
667.203	0.0164194
667.281	0.0163166
667.359	0.0163318
667.437	0.0163494
667.515	0.0163760
667.593	0.0163461
667.671	0.0162975
667.749	0.0164159
667.828	0.0162936
667.906	0.0164483
667.984	0.0163914
668.062	0.0164494
668.140	0.0164103
668.218	0.0163793
668.296	0.0163834
668.374	0.0163396
668.453	0.0163310
668.531	0.0163618
668.609	0.0164535
668.687	0.0163361
668.765	0.0163449
668.843	0.0163754
668.921	0.0163394
668.999	0.0164927
669.078	0.0164082
669.156	0.0163915
669.234	0.0163841
669.312	0.0163153
669.390	0.0163916
669.468	0.0163146
669.546	0.0165329
669.624	0.0164792
669.703	0.0162681
669.781	0.0162893
669.859	0.0163693
669.937	0.0162445
670.015	0.0162790
670.093	0.0164741
670.171	0.0165013
670.249	0.0163454
670.328	0.0162083
670.406	0.0163451
670.484	0.0164475
670.562	0.0162507
670.640	0.0163372
670.718	0.0162704
670.796	0.0163171
670.874	0.0163868
670.953	0.0163326
671.031	0.0163390
671.109	0.0162185
671.187	0.0163857
671.265	0.0164005
671.343	0.0163135
671.421	0.0161897
671.499	0.0162664
671.578	0.0163810
671.656	0.0162321
671.734	0.0163846
671.812	0.0164054
671.890	0.0163059
671.968	0.0163221
672.046	0.0163235
672.124	0.0163157
672.203	0.0163563
672.281	0.0163510
672.359	0.0164301
672.437	0.0163508
672.515	0.0162311
672.593	0.0163439
672.671	0.0163754
672.749	0.0162569
672.828	0.0163692
672.906	0.0163666
672.984	0.0163197
673.062	0.0164160
673.140	0.0164384
673.218	0.0163416
673.296	0.0164807
673.374	0.0164017
673.453	0.0163104
673.531	0.0162478
673.609	0.0163660
673.687	0.0163104
673.765	0.0163931
673.843	0.0162457
673.921	0.0162664
673.999	0.0162585
674.078	0.0163544
674.156	0.0164892
674.234	0.0162567
674.312	0.0164861
674.390	0.0163485
674.468	0.0162672
674.546	0.0163860
674.624	0.0164310
674.703	0.0163832
674.781	0.0163294
674.859	0.0163078
674.937	0.0163147
675.015	0.0163068
675.093	0.0163464
675.171	0.0163352
675.249	0.0164693
675.328	0.0163504
675.406	0.0163004
675.484	0.0163705
675.562	0.0162628
675.640	0.0162811
675.718	0.0162462
675.796	0.0162826
675.874	0.0161519
675.953	0.0163483
676.031	0.0164197
676.109	0.0163405
676.187	0.0163926
676.265	0.0164521
676.343	0.0164606
676.421	0.0162634
676.499	0.0162771
676.578	0.0162602
676.656	0.0161805
676.734	0.0163184
676.812	0.0163853
676.890	0.0164498
676.968	0.0164014
677.046	0.0163477
677.124	0.0162611
677.203	0.0162215
677.281	0.0163285
677.359	0.0164157
677.437	0.0164052
677.515	0.0164103
677.593	0.0163574
677.671	0.0163959
677.749	0.0163028
677.828	0.0163046
677.906	0.0163643
677.984	0.0163155
678.062	0.0163121
678.140	0.0163830
678.218	0.0163763
678.296	0.0164348
678.374	0.0164361
678.453	0.0163398
678.531	0.0162656
678.609	0.0163768
678.687	0.0165276
678.765	0.0163947
678.843	0.0162973
678.921	0.0163850
678.999	0.0165495
679.078	0.0163257
679.156	0.0163683
679.234	0.0163840
679.312	0.0163110
679.390	0.0163795
679.468	0.0164127
679.546	0.0163348
679.624	0.0163944
679.703	0.0164487
679.781	0.0164580
679.859	0.0163457
679.937	0.0163461
680.015	0.0163329
680.093	0.0164233
680.171	0.0163882
680.249	0.0163472
680.328	0.0163744
680.406	0.0164191
680.484	0.0162805
680.562	0.0164204
680.640	0.0162376
680.718	0.0163956
680.796	0.0164515
680.874	0.0163829
680.953	0.0162163
681.031	0.0163209
681.109	0.0161981
681.187	0.0164251
681.265	0.0164429
681.343	0.0163641
681.421	0.0164761
681.499	0.0163687
681.578	0.0162509
681.656	0.0162251
681.734	0.0163857
681.812	0.0163847
681.890	0.0162164
681.968	0.0163287
682.046	0.0163857
682.124	0.0163927
682.203	0.0163324
682.281	0.0162368
682.359	0.0163288
682.437	0.0164517
682.515	0.0163750
682.593	0.0164017
682.671	0.0163035
682.749	0.0163299
682.828	0.0162702
682.906	0.0163553
682.984	0.0164338
683.062	0.0163074
683.140	0.0165026
683.218	0.0163105
683.296	0.0164200
683.374	0.0164993
683.453	0.0163114
683.531	0.0161796
683.609	0.0164303
683.687	0.0163820
683.765	0.0163670
683.843	0.0164540
683.921	0.0163277
683.999	0.0164403
684.078	0.0164444
684.156	0.0163733
684.234	0.0164610
684.312	0.0163313
684.390	0.0162512
684.468	0.0163985
684.546	0.0163461
684.624	0.0163918
684.703	0.0163435
684.781	0.0163320
684.859	0.0162895
684.937	0.0163148
685.015	0.0164455
685.093	0.0163466
685.171	0.0165113
685.249	0.0163271
685.328	0.0163695
685.406	0.0162493
685.484	0.0163384
685.562	0.0164150
685.640	0.0163622
685.718	0.0163521
685.796	0.0164182
685.874	0.0164410
685.953	0.0164725
686.031	0.0163069
686.109	0.0163834
686.187	0.0164068
686.265	0.0162669
686.343	0.0162939
686.421	0.0163956
686.499	0.0163689
686.578	0.0163664
686.656	0.0163586
686.734	0.0163519
686.812	0.0163517
686.890	0.0163728
686.968	0.0163528
687.046	0.0162022
687.124	0.0165002
687.203	0.0163379
687.281	0.0164220
687.359	0.0164561
687.437	0.0162905
687.515	0.0163419
687.593	0.0163078
687.671	0.0162402
687.749	0.0164270
687.828	0.0163364
687.906	0.0162516
687.984	0.0163482
688.062	0.0163515
688.140	0.0163290
688.218	0.0163234
688.296	0.0163194
688.374	0.0162319
688.453	0.0162968
688.531	0.0164290
688.609	0.0164320
688.687	0.0165121
688.765	0.0163865
688.843	0.0162739
688.921	0.0163415
688.999	0.0163416
689.078	0.0162086
689.156	0.0161823
689.234	0.0163929
689.312	0.0163261
689.390	0.0162376
689.468	0.0162235
689.546	0.0163441
689.624	0.0163743
689.703	0.0163086
689.781	0.0163467
689.859	0.0162749
689.937	0.0163173
690.015	0.0164121
690.093	0.0163431
690.171	0.0161620
690.249	0.0162663
690.328	0.0164725
690.406	0.0162892
690.484	0.0164449
690.562	0.0163153
690.640	0.0162641
690.718	0.0164249
690.796	0.0165188
690.874	0.0163924
690.953	0.0164188
691.031	0.0163129
691.109	0.0163092
691.187	0.0164421
691.265	0.0164515
691.343	0.0162936
691.421	0.0163849
691.499	0.0163799
691.578	0.0164237
691.656	0.0163858
691.734	0.0161342
691.812	0.0163207
691.890	0.0164778
691.968	0.0163863
692.046	0.0163660
692.124	0.0164281
692.203	0.0163779
692.281	0.0164918
692.359	0.0163880
692.437	0.0163036
692.515	0.0164067
692.593	0.0163719
692.671	0.0164175
692.749	0.0164429
692.828	0.0164099
692.906	0.0162907
692.984	0.0164120
693.062	0.0162854
693.140	0.0163419
693.218	0.0163117
693.296	0.0163400
693.374	0.0164266
693.453	0.0164415
693.531	0.0163757
693.609	0.0164580
693.687	0.0164030
693.765	0.0164069
693.843	0.0163611
693.921	0.0164003
693.999	0.0163902
694.078	0.0163692
694.156	0.0163663
694.234	0.0164799
694.312	0.0163371
694.390	0.0162875
694.468	0.0164877
694.546	0.0165648
694.624	0.0164682
694.703	0.0164413
694.781	0.0165071
694.859	0.0163984
694.937	0.0162721
695.015	0.0163464
695.093	0.0165816
695.171	0.0163869
695.249	0.0163226
695.328	0.0164501
695.406	0.0164352
695.484	0.0163550
695.562	0.0165147
695.640	0.0164493
695.718	0.0164494
695.796	0.0163367
695.874	0.0163075
695.953	0.0163205
696.031	0.0163802
696.109	0.0164020
696.187	0.0164825
696.265	0.0164256
696.343	0.0163409
696.421	0.0163280
696.499	0.0163181
696.578	0.0165042
696.656	0.0162976
696.734	0.0162850
696.812	0.0162786
696.890	0.0162810
696.968	0.0163670
697.046	0.0163483
697.124	0.0163183
697.203	0.0162861
697.281	0.0164798
697.359	0.0164101
697.437	0.0163936
697.515	0.0162470
697.593	0.0162596
697.671	0.0163665
697.749	0.0163673
697.828	0.0163339
697.906	0.0164928
697.984	0.0164208
698.062	0.0162511
698.140	0.0163481
698.218	0.0163663
698.296	0.0162729
698.374	0.0163800
698.453	0.0163887
698.531	0.0163209
698.609	0.0161902
698.687	0.0163367
698.765	0.0163055
698.843	0.0164420
698.921	0.0164104
698.999	0.0163503
699.078	0.0162777
699.156	0.0163148
699.234	0.0163319
699.312	0.0162793
699.390	0.0163728
699.468	0.0163392
699.546	0.0163081
699.624	0.0163592
699.703	0.0163615
699.781	0.0164787
699.859	0.0163564
699.937	0.0162385
700.015	0.0163839
700.093	0.0163703
700.171	0.0163468
700.249	0.0163756
700.328	0.0165437
700.406	0.0163654
700.484	0.0164204
700.562	0.0164392
700.640	0.0164115
700.718	0.0165396
700.796	0.0163082
700.874	0.0164489
700.953	0.0163588
701.031	0.0164702
701.109	0.0164814
701.187	0.0163355
701.265	0.0163436
701.343	0.0164340
701.421	0.0164246
701.499	0.0164784
701.578	0.0164720
701.656	0.0163505
701.734	0.0164056
701.812	0.0163776
701.890	0.0163027
701.968	0.0163417
702.046	0.0163118
702.124	0.0165565
702.203	0.0164083
702.281	0.0164641
702.359	0.0164321
702.437	0.0163668
702.515	0.0163097
702.593	0.0162877
702.671	0.0164103
702.749	0.0162482
702.828	0.0163292
702.906	0.0163545
702.984	0.0164095
703.062	0.0162695
703.140	0.0163142
703.218	0.0162882
703.296	0.0163732
703.374	0.0161564
703.453	0.0163721
703.531	0.0163550
703.609	0.0162787
703.687	0.0162787
703.765	0.0162376
703.843	0.0162787
703.921	0.0162833
703.999	0.0164337
704.078	0.0162894
704.156	0.0163245
704.234	0.0162296
704.312	0.0163483
704.390	0.0162094
704.468	0.0162012
704.546	0.0162142
704.624	0.0163223
704.703	0.0163100
704.781	0.0165122
704.859	0.0164700
704.937	0.0164322
705.015	0.0164235
705.093	0.0164771
705.171	0.0164418
705.249	0.0164126
705.328	0.0166228
705.406	0.0165366
705.484	0.0164357
705.562	0.0164508
705.640	0.0163890
705.718	0.0164161
705.796	0.0164523
705.874	0.0162232
705.953	0.0164207
706.031	0.0163264
706.109	0.0161052
706.187	0.0162495
706.265	0.0161544
706.343	0.0160265
706.421	0.0160992
706.499	0.0159286
706.578	0.0159310
706.656	0.0160664
706.734	0.0161224
706.812	0.0160329
706.890	0.0161734
706.968	0.0162331
707.046	0.0162092
707.124	0.0162513
707.203	0.0161613
707.281	0.0162090
707.359	0.0162677
707.437	0.0162961
707.515	0.0163644
707.593	0.0163954
707.671	0.0164041
707.749	0.0165134
707.828	0.0164341
707.906	0.0165340
707.984	0.0164736
708.062	0.0165246
708.140	0.0163966
708.218	0.0165375
708.296	0.0165008
708.374	0.0165710
708.453	0.0163921
708.531	0.0164527
708.609	0.0164134
708.687	0.0163964
708.765	0.0162509
708.843	0.0163445
708.921	0.0164859
708.999	0.0164604
709.078	0.0161922
709.156	0.0164140
709.234	0.0163185
709.312	0.0162654
709.390	0.0162868
709.468	0.0162312
709.546	0.0163797
709.624	0.0164086
709.703	0.0162579
709.781	0.0161625
709.859	0.0162812
709.937	0.0163444
710.015	0.0162584
710.093	0.0162205
710.171	0.0161011
710.249	0.0162041
710.328	0.0162105
710.406	0.0161419
710.484	0.0162888
710.562	0.0161736
710.640	0.0161419
710.718	0.0160920
710.796	0.0162576
710.874	0.0163573
710.953	0.0160985
711.031	0.0162132
711.109	0.0163220
711.187	0.0161812
711.265	0.0162254
711.343	0.0162159
711.421	0.0160571
711.499	0.0163552
711.578	0.0163297
711.656	0.0163467
711.734	0.0163230
711.812	0.0164928
711.890	0.0163604
711.968	0.0163846
712.046	0.0164040
712.124	0.0164388
712.203	0.0166341
712.281	0.0165366
712.359	0.0164081
712.437	0.0164972
712.515	0.0164477
712.593	0.0164596
712.671	0.0165517
712.749	0.0165023
712.828	0.0164644
712.906	0.0163551
712.984	0.0165541
713.062	0.0163523
713.140	0.0162510
713.218	0.0163102
713.296	0.0161466
713.374	0.0162147
713.453	0.0162054
713.531	0.0161593
713.609	0.0161954
713.687	0.0161441
713.765	0.0163652
713.843	0.0162198
713.921	0.0162230
713.999	0.0163678
714.078	0.0163438
714.156	0.0162582
714.234	0.0163232
714.312	0.0162447
714.390	0.0162940
714.468	0.0164365
714.546	0.0161611
714.624	0.0162291
714.703	0.0162955
714.781	0.0163595
714.859	0.0163570
714.937	0.0162766
715.015	0.0164858
715.093	0.0162837
715.171	0.0161519
715.249	0.0163250
715.328	0.0164555
715.406	0.0163788
715.484	0.0163754
715.562	0.0164349
715.640	0.0163952
715.718	0.0164045
715.796	0.0164450
715.874	0.0164988
715.953	0.0164902
716.031	0.0164103
716.109	0.0165189
716.187	0.0164988
716.265	0.0165116
716.343	0.0165619
716.421	0.0164626
716.499	0.0164642
716.578	0.0165347
716.656	0.0166117
716.734	0.0163964
716.812	0.0163266
716.890	0.0164790
716.968	0.0164272
717.046	0.0164257
717.124	0.0163655
717.203	0.0162968
717.281	0.0162495
717.359	0.0162737
717.437	0.0164112
717.515	0.0164240
717.593	0.0161594
717.671	0.0163043
717.749	0.0163510
717.828	0.0164139
717.906	0.0163321
717.984	0.0163441
718.062	0.0164333
718.140	0.0164545
718.218	0.0164022
718.296	0.0164338
718.374	0.0164179
718.453	0.0165417
718.531	0.0164017
718.609	0.0163705
718.687	0.0166000
718.765	0.0164694
718.843	0.0164692
718.921	0.0163673
718.999	0.0163719
719.078	0.0164613
719.156	0.0163368
719.234	0.0162880
719.312	0.0164283
719.390	0.0162298
719.468	0.0164449
719.546	0.0162607
719.624	0.0164234
719.703	0.0164123
719.781	0.0163672
719.859	0.0164021
719.937	0.0164658
720.015	0.0164883
720.093	0.0164232
720.171	0.0163692
720.249	0.0163536
720.328	0.0165161
720.406	0.0165359
720.484	0.0165517
720.562	0.0163022
720.640	0.0164527
720.718	0.0165953
720.796	0.0164474
720.874	0.0164896
720.953	0.0164581
721.031	0.0164207
721.109	0.0163876
721.187	0.0164724
721.265	0.0164745
721.343	0.0164804
721.421	0.0162714
721.499	0.0163013
721.578	0.0164034
721.656	0.0162886
721.734	0.0162439
721.812	0.0163545
721.890	0.0163790
721.968	0.0161782
722.046	0.0162435
722.124	0.0162700
722.203	0.0162449
722.281	0.0161999
722.359	0.0163202
722.437	0.0162170
722.515	0.0162141
722.593	0.0162534
722.671	0.0162904
722.749	0.0161932
722.828	0.0161845
722.906	0.0161348
722.984	0.0161810
723.062	0.0163174
723.140	0.0164710
723.218	0.0163827
723.296	0.0165318
723.374	0.0166032
723.453	0.0164571
723.531	0.0166003
723.609	0.0166708
723.687	0.0167920
723.765	0.0166957
723.843	0.0166608
723.921	0.0166652
723.999	0.0166393
724.078	0.0165844
724.156	0.0164996
724.234	0.0163673
724.312	0.0163251
724.390	0.0162140
724.468	0.0161405
724.546	0.0161028
724.624	0.0158829
724.703	0.0159860
724.781	0.0160393
724.859	0.0161285
724.937	0.0160881
725.015	0.0161384
725.093	0.0161975
725.171	0.0162822
725.249	0.0163293
725.328	0.0164816
725.406	0.0164693
725.484	0.0165581
725.562	0.0165862
725.640	0.0167605
725.718	0.0166077
725.796	0.0166843
725.874	0.0168150
725.953	0.0167023
726.031	0.0167045
726.109	0.0165276
726.187	0.0167056
726.265	0.0166106
726.343	0.0163674
726.421	0.0162055
726.499	0.0163864
726.578	0.0163326
726.656	0.0160136
726.734	0.0162113
726.812	0.0160602
726.890	0.0161198
726.968	0.0160921
727.046	0.0161127
727.124	0.0160014
727.203	0.0161147
727.281	0.0160341
727.359	0.0161784
727.437	0.0163183
727.515	0.0161456
727.593	0.0163297
727.671	0.0163797
727.749	0.0163035
727.828	0.0163101
727.906	0.0165785
727.984	0.0166079
728.062	0.0165494
728.140	0.0165215
728.218	0.0164565
728.296	0.0164839
728.374	0.0164272
728.453	0.0166051
728.531	0.0161777
728.609	0.0163960
728.687	0.0162494
728.765	0.0162475
728.843	0.0161887
728.921	0.0161478
728.999	0.0162559
729.078	0.0161280
729.156	0.0161422
729.234	0.0162191
729.312	0.0160702
729.390	0.0161330
729.468	0.0161691
729.546	0.0161909
729.624	0.0162099
729.703	0.0161700
729.781	0.0162805
729.859	0.0161307
729.937	0.0162785
730.015	0.0163691
730.093	0.0163902
730.171	0.0163852
730.249	0.0165031
730.328	0.0163660
730.406	0.0164234
730.484	0.0163145
730.562	0.0164843
730.640	0.0164325
730.718	0.0163865
730.796	0.0162826
730.874	0.0163613
730.953	0.0163269
731.031	0.0163349
731.109	0.0163584
731.187	0.0162202
731.265	0.0162564
731.343	0.0162634
731.421	0.0162130
731.499	0.0163340
731.578	0.0164313
731.656	0.0162646
731.734	0.0161457
731.812	0.0162667
731.890	0.0162032
731.968	0.0161911
732.046	0.0163908
732.124	0.0163069
732.203	0.0162493
732.281	0.0162892
732.359	0.0163832
732.437	0.0163390
732.515	0.0162586
732.593	0.0162787
732.671	0.0165489
732.749	0.0165002
732.828	0.0163493
732.906	0.0163446
732.984	0.0164491
733.062	0.0164803
733.140	0.0163927
733.218	0.0162724
733.296	0.0163788
733.374	0.0163445
733.453	0.0162774
733.531	0.0163262
733.609	0.0162757
733.687	0.0163970
733.765	0.0164278
733.843	0.0163834
733.921	0.0163346
733.999	0.0163450
734.078	0.0165182
734.156	0.0163879
734.234	0.0164455
734.312	0.0162708
734.390	0.0164068
734.468	0.0163923
734.546	0.0163672
734.624	0.0162801
734.703	0.0163580
734.781	0.0165050
734.859	0.0162946
734.937	0.0162918
735.015	0.0164033
735.093	0.0163378
735.171	0.0163447
735.249	0.0161743
735.328	0.0163982
735.406	0.0162801
735.484	0.0164253
735.562	0.0163547
735.640	0.0162387
735.718	0.0161555
735.796	0.0162813
735.874	0.0163094
735.953	0.0163252
736.031	0.0161912
736.109	0.0163828
736.187	0.0163740
736.265	0.0163532
736.343	0.0161919
736.421	0.0163151
736.499	0.0162663
736.578	0.0161806
736.656	0.0163126
736.734	0.0162224
736.812	0.0161200
736.890	0.0162938
736.968	0.0161115
737.046	0.0163744
737.124	0.0163278
737.203	0.0163974
737.281	0.0163430
737.359	0.0163548
737.437	0.0164210
737.515	0.0164048
737.593	0.0163907
737.671	0.0164673
737.749	0.0164100
737.828	0.0163962
737.906	0.0165507
737.984	0.0163800
738.062	0.0163959
738.140	0.0165294
738.218	0.0164002
738.296	0.0164952
738.374	0.0164903
738.453	0.0165392
738.531	0.0165531
738.609	0.0165231
738.687	0.0162315
738.765	0.0163377
738.843	0.0164749
738.921	0.0164351
738.999	0.0163685
739.078	0.0164812
739.156	0.0164351
739.234	0.0164418
739.312	0.0163336
739.390	0.0164498
739.468	0.0164774
739.546	0.0163821
739.624	0.0163434
739.703	0.0162262
739.781	0.0163252
739.859	0.0162422
739.937	0.0163863
740.015	0.0164268
740.093	0.0163996
740.171	0.0164082
740.249	0.0164594
740.328	0.0162280
740.406	0.0163985
740.484	0.0164454
740.562	0.0164394
740.640	0.0162487
740.718	0.0163506
740.796	0.0164582
740.874	0.0163199
740.953	0.0163683
741.031	0.0163888
741.109	0.0164030
741.187	0.0163297
741.265	0.0163701
741.343	0.0163892
741.421	0.0162611
741.499	0.0163448
741.578	0.0163409
741.656	0.0163757
741.734	0.0163519
741.812	0.0165619
741.890	0.0163699
741.968	0.0162879
742.046	0.0164516
742.124	0.0163915
742.203	0.0162654
742.281	0.0164510
742.359	0.0164452
742.437	0.0164728
742.515	0.0164158
742.593	0.0163794
742.671	0.0164902
742.749	0.0165782
742.828	0.0163486
742.906	0.0162751
742.984	0.0164330
743.062	0.0164669
743.140	0.0163890
743.218	0.0163828
743.296	0.0164223
743.374	0.0162395
743.453	0.0163825
743.531	0.0163484
743.609	0.0162663
743.687	0.0163460
743.765	0.0163647
743.843	0.0162426
743.921	0.0162093
743.999	0.0162331
744.078	0.0161950
744.156	0.0163068
744.234	0.0163341
744.312	0.0162501
744.390	0.0163947
744.468	0.0163493
744.546	0.0163615
744.624	0.0163580
744.703	0.0162196
744.781	0.0163728
744.859	0.0163558
744.937	0.0163882
745.015	0.0163861
745.093	0.0163374
745.171	0.0164480
745.249	0.0166155
745.328	0.0165495
745.406	0.0164346
745.484	0.0164240
745.562	0.0163393
745.640	0.0164149
745.718	0.0164054
745.796	0.0165166
745.874	0.0164041
745.953	0.0163819
746.031	0.0164041
746.109	0.0164704
746.187	0.0165273
746.265	0.0164557
746.343	0.0164347
746.421	0.0164948
746.499	0.0165256
746.578	0.0164853
746.656	0.0165468
746.734	0.0163260
746.812	0.0164197
746.890	0.0165333
746.968	0.0164725
747.046	0.0164914
747.124	0.0165483
747.203	0.0164587
747.281	0.0164748
747.359	0.0164124
747.437	0.0163075
747.515	0.0165063
747.593	0.0164310
747.671	0.0164310
747.749	0.0163845
747.828	0.0163744
747.906	0.0163424
747.984	0.0162469
748.062	0.0163280
748.140	0.0162769
748.218	0.0163531
748.296	0.0164630
748.374	0.0163992
748.453	0.0163035
748.531	0.0162463
748.609	0.0162180
748.687	0.0162096
748.765	0.0163882
748.843	0.0164173
748.921	0.0165004
748.999	0.0164088
749.078	0.0165666
749.156	0.0164513
749.234	0.0164331
749.312	0.0165308
749.390	0.0165628
749.468	0.0164015
749.546	0.0164824
749.624	0.0165419
749.703	0.0164341
749.781	0.0164893
749.859	0.0164159
749.937	0.0163052
750.015	0.0162673
750.093	0.0164140
750.171	0.0164500
750.249	0.0163616
750.328	0.0163981
750.406	0.0163816
750.484	0.0162934
750.562	0.0164153
750.640	0.0163850
750.718	0.0164346
750.796	0.0164001
750.874	0.0165170
750.953	0.0163081
751.031	0.0164090
751.109	0.0163440
751.187	0.0163094
751.265	0.0164717
751.343	0.0163544
751.421	0.0164114
751.499	0.0163894
751.578	0.0162924
751.656	0.0163278
751.734	0.0163360
751.812	0.0163237
751.890	0.0163597
751.968	0.0161414
752.046	0.0161805
752.124	0.0162220
752.203	0.0162466
752.281	0.0161460
752.359	0.0161833
752.437	0.0162204
752.515	0.0161547
752.593	0.0162750
752.671	0.0163273
752.749	0.0162432
752.828	0.0160924
752.906	0.0162286
752.984	0.0163296
753.062	0.0162502
753.140	0.0162556
753.218	0.0162523
753.296	0.0163563
753.374	0.0163298
753.453	0.0163833
753.531	0.0164838
753.609	0.0163925
753.687	0.0162543
753.765	0.0162956
753.843	0.0164191
753.921	0.0164523
753.999	0.0162280
754.078	0.0163757
754.156	0.0162754
754.234	0.0162945
754.312	0.0163141
754.390	0.0162791
754.468	0.0163598
754.546	0.0163541
754.624	0.0164437
754.703	0.0163411
754.781	0.0163647
754.859	0.0164545
754.937	0.0164190
755.015	0.0165381
755.093	0.0164052
755.171	0.0164749
755.249	0.0164229
755.328	0.0163692
755.406	0.0163935
755.484	0.0162524
755.562	0.0162268
755.640	0.0162340
755.718	0.0162945
755.796	0.0163177
755.874	0.0161564
755.953	0.0161224
756.031	0.0161894
756.109	0.0162840
756.187	0.0163198
756.265	0.0162431
756.343	0.0162740
756.421	0.0162624
756.499	0.0163346
756.578	0.0165242
756.656	0.0165278
756.734	0.0163916
756.812	0.0164576
756.890	0.0164941
756.968	0.0165167
757.046	0.0164841
757.124	0.0165388
757.203	0.0164606
757.281	0.0164676
757.359	0.0163034
757.437	0.0164107
757.515	0.0163797
757.593	0.0163462
757.671	0.0163006
757.749	0.0163294
757.828	0.0163291
757.906	0.0163295
757.984	0.0161861
758.062	0.0161765
758.140	0.0162635
758.218	0.0161768
758.296	0.0163207
758.374	0.0162410
758.453	0.0163458
758.531	0.0162753
758.609	0.0163703
758.687	0.0163942
758.765	0.0165188
758.843	0.0165550
758.921	0.0164646
758.999	0.0164705
759.078	0.0166201
759.156	0.0166837
759.234	0.0167132
759.312	0.0167565
759.390	0.0165853
759.468	0.0164858
759.546	0.0164130
759.624	0.0163703
759.703	0.0164874
759.781	0.0166445
759.859	0.0165487
759.937	0.0162758
760.015	0.0164178
760.093	0.0163817
760.171	0.0163776
760.249	0.0163060
760.328	0.0163828
760.406	0.0163772
760.484	0.0162534
760.562	0.0162230
760.640	0.0162438
760.718	0.0162535
760.796	0.0160828
760.874	0.0160100
760.953	0.0158947
761.031	0.0160285
761.109	0.0161155
761.187	0.0160553
761.265	0.0159411
761.343	0.0160470
761.421	0.0161448
761.499	0.0161665
761.578	0.0163081
761.656	0.0163203
761.734	0.0162204
761.812	0.0163677
761.890	0.0164135
761.968	0.0165157
762.046	0.0166119
762.124	0.0165404
762.203	0.0165796
762.281	0.0166577
762.359	0.0165496
762.437	0.0166317
762.515	0.0166794
762.593	0.0165672
762.671	0.0165619
762.749	0.0166115
762.828	0.0166657
762.906	0.0167178
762.984	0.0166682
763.062	0.0165570
763.140	0.0165024
763.218	0.0164981
763.296	0.0165408
763.374	0.0163234
763.453	0.0163970
763.531	0.0163557
763.609	0.0162276
763.687	0.0162444
763.765	0.0161691
763.843	0.0160394
763.921	0.0160708
763.999	0.0160448
764.078	0.0159373
764.156	0.0162057
764.234	0.0160345
764.312	0.0159974
764.390	0.0161094
764.468	0.0163699
764.546	0.0161210
764.624	0.0161266
764.703	0.0160403
764.781	0.0162771
764.859	0.0162354
764.937	0.0163370
765.015	0.0163205
765.093	0.0166072
765.171	0.0167265
765.249	0.0166334
765.328	0.0166395
765.406	0.0167650
765.484	0.0168056
765.562	0.0168080
765.640	0.0168507
765.718	0.0168897
765.796	0.0169231
765.874	0.0166179
765.953	0.0166496
766.031	0.0167268
766.109	0.0166959
766.187	0.0165892
766.265	0.0164344
766.343	0.0164041
766.421	0.0165455
766.499	0.0164854
766.578	0.0162782
766.656	0.0164135
766.734	0.0161942
766.812	0.0161549
766.890	0.0161801
766.968	0.0160245
767.046	0.0161072
767.124	0.0160384
767.203	0.0159676
767.281	0.0159336
767.359	0.0159712
767.437	0.0160265
767.515	0.0160099
767.593	0.0160722
767.671	0.0161341
767.749	0.0162215
767.828	0.0162563
767.906	0.0162000
767.984	0.0163995
768.062	0.0164433
768.140	0.0164960
768.218	0.0163898
768.296	0.0164029
768.374	0.0164883
768.453	0.0165578
768.531	0.0165844
768.609	0.0166660
768.687	0.0167054
768.765	0.0167108
768.843	0.0167113
768.921	0.0167606
768.999	0.0168478
769.078	0.0167695
769.156	0.0167339
769.234	0.0168253
769.312	0.0169015
769.390	0.0167341
769.468	0.0167776
769.546	0.0166608
769.624	0.0165627
769.703	0.0164861
769.781	0.0164380
769.859	0.0165850
769.937	0.0164564
770.015	0.0164324
770.093	0.0161427
770.171	0.0161342
770.249	0.0160957
770.328	0.0161294
770.406	0.0161203
770.484	0.0161139
770.562	0.0160290
770.640	0.0160121
770.718	0.0159813
770.796	0.0159147
770.874	0.0161172
770.953	0.0160077
771.031	0.0161172
771.109	0.0161905
771.187	0.0161526
771.265	0.0162233
771.343	0.0161074
771.421	0.0162342
771.499	0.0163972
771.578	0.0163885
771.656	0.0162698
771.734	0.0164385
771.812	0.0163665
771.890	0.0164689
771.968	0.0164270
772.046	0.0165491
772.124	0.0164422
772.203	0.0165598
772.281	0.0164516
772.359	0.0165100
772.437	0.0165241
772.515	0.0164750
772.593	0.0165744
772.671	0.0165192
772.749	0.0165475
772.828	0.0164941
772.906	0.0165182
772.984	0.0164866
773.062	0.0167439
773.140	0.0164469
773.218	0.0164655
773.296	0.0164866
773.374	0.0164424
773.453	0.0163902
773.531	0.0165472
773.609	0.0163625
773.687	0.0164508
773.765	0.0163470
773.843	0.0163332
773.921	0.0163902
773.999	0.0163952
774.078	0.0163009
774.156	0.0163842
774.234	0.0165331
774.312	0.0164423
774.390	0.0163729
774.468	0.0165544
774.546	0.0162392
774.624	0.0162798
774.703	0.0162651
774.781	0.0163215
774.859	0.0163613
774.937	0.0160767
775.015	0.0160564
775.093	0.0162109
775.171	0.0160928
775.249	0.0160110
775.328	0.0160679
775.406	0.0160417
775.484	0.0161112
775.562	0.0159619
775.640	0.0160622
775.718	0.0162737
775.796	0.0162521
775.874	0.0160832
775.953	0.0161613
776.031	0.0162928
776.109	0.0162257
776.187	0.0163904
776.265	0.0162160
776.343	0.0163795
776.421	0.0163413
776.499	0.0165050
776.578	0.0164873
776.656	0.0164671
776.734	0.0163412
776.812	0.0164095
776.890	0.0162990
776.968	0.0163710
777.046	0.0164207
777.124	0.0161320
777.203	0.0163018
777.281	0.0162289
777.359	0.0161900
777.437	0.0159206
777.515	0.0159782
777.593	0.0160251
777.671	0.0158432
777.749	0.0160275
777.828	0.0160508
777.906	0.0160153
777.984	0.0161722
778.062	0.0162203
778.140	0.0163717
778.218	0.0164115
778.296	0.0166383
778.374	0.0166808
778.453	0.0166773
778.531	0.0167460
778.609	0.0169356
778.687	0.0170046
778.765	0.0169727
778.843	0.0169273
778.921	0.0168845
778.999	0.0168635
779.078	0.0170258
779.156	0.0168327
779.234	0.0167329
779.312	0.0166219
779.390	0.0165219
779.468	0.0165685
779.546	0.0162303
779.624	0.0161731
779.703	0.0162000
779.781	0.0158899
779.859	0.0157910
779.937	0.0159576
780.015	0.0156535
780.093	0.0157186
780.171	0.0156776
780.249	0.0155145
780.328	0.0156226
780.406	0.0156297
780.484	0.0156865
780.562	0.0158347
780.640	0.0158617
780.718	0.0157885
780.796	0.0157565
780.874	0.0158749
780.953	0.0160588
781.031	0.0160932
781.109	0.0161198
781.187	0.0162576
781.265	0.0163112
781.343	0.0162592
781.421	0.0164305
781.499	0.0164434
781.578	0.0166053
781.656	0.0166446
781.734	0.0164452
781.812	0.0166565
781.890	0.0165770
781.968	0.0164716
782.046	0.0165519
782.124	0.0164366
782.203	0.0164936
782.281	0.0164045
782.359	0.0164218
782.437	0.0163553
782.515	0.0164302
782.593	0.0164849
782.671	0.0165016
782.749	0.0166480
782.828	0.0166914
782.906	0.0167574
782.984	0.0167164
783.062	0.0168330
783.140	0.0166969
783.218	0.0167766
783.296	0.0166401
783.374	0.0169063
783.453	0.0166240
783.531	0.0165696
783.609	0.0165961
783.687	0.0164298
783.765	0.0164044
783.843	0.0162083
783.921	0.0161239
783.999	0.0161732
784.078	0.0162988
784.156	0.0160223
784.234	0.0161575
784.312	0.0162653
784.390	0.0160987
784.468	0.0160429
784.546	0.0160736
784.624	0.0161621
784.703	0.0162486
784.781	0.0162824
784.859	0.0163065
784.937	0.0163390
785.015	0.0163651
785.093	0.0163438
785.171	0.0162890
785.249	0.0162296
785.328	0.0160661
785.406	0.0162108
785.484	0.0160605
785.562	0.0160123
785.640	0.0160914
785.718	0.0159375
785.796	0.0158921
785.874	0.0159927
785.953	0.0159722
786.031	0.0160143
786.109	0.0160896
786.187	0.0160659
786.265	0.0161424
786.343	0.0160733
786.421	0.0160846
786.499	0.0161617
786.578	0.0161253
786.656	0.0163748
786.734	0.0163350
786.812	0.0164042
786.890	0.0162016
786.968	0.0162957
787.046	0.0164030
787.124	0.0167577
787.203	0.0165897
787.281	0.0165105
787.359	0.0167167
787.437	0.0167268
787.515	0.0167626
787.593	0.0169322
787.671	0.0169273
787.749	0.0169794
787.828	0.0170287
787.906	0.0170274
787.984	0.0170009
788.062	0.0172314
788.140	0.0171327
788.218	0.0171904
788.296	0.0170251
788.374	0.0171351
788.453	0.0170364
788.531	0.0170242
788.609	0.0169477
788.687	0.0169294
788.765	0.0167258
788.843	0.0165591
788.921	0.0164950
788.999	0.0164119
789.078	0.0162946
789.156	0.0160941
789.234	0.0160895
789.312	0.0160371
789.390	0.0157654
789.468	0.0157555
789.546	0.0156182
789.624	0.0155209
789.703	0.0156253
789.781	0.0154463
789.859	0.0154073
789.937	0.0153757
790.015	0.0154787
790.093	0.0155683
790.171	0.0155885
790.249	0.0157835
790.328	0.0155939
790.406	0.0157961
790.484	0.0159271
790.562	0.0160462
790.640	0.0160506
790.718	0.0162155
790.796	0.0163170
790.874	0.0164164
790.953	0.0166106
791.031	0.0166811
791.109	0.0164761
791.187	0.0167777
791.265	0.0168590
791.343	0.0166957
791.421	0.0168197
791.499	0.0169067
791.578	0.0168967
791.656	0.0168784
791.734	0.0170223
791.812	0.0170333
791.890	0.0170447
791.968	0.0169894
792.046	0.0168559
792.124	0.0170151
792.203	0.0169632
792.281	0.0169254
792.359	0.0169302
792.437	0.0169022
792.515	0.0167770
792.593	0.0167213
792.671	0.0167236
792.749	0.0166487
792.828	0.0166039
792.906	0.0165575
792.984	0.0165327
793.062	0.0164902
793.140	0.0164335
793.218	0.0163454
793.296	0.0163428
793.374	0.0162849
793.453	0.0162679
793.531	0.0164327
793.609	0.0162453
793.687	0.0161164
793.765	0.0161858
793.843	0.0161462
793.921	0.0160825
793.999	0.0159196
794.078	0.0160269
794.156	0.0159603
794.234	0.0158456
794.312	0.0159553
794.390	0.0159840
794.468	0.0158184
794.546	0.0157577
794.624	0.0157614
794.703	0.0156724
794.781	0.0156493
794.859	0.0156822
794.937	0.0156302
795.015	0.0157069
795.093	0.0154752
795.171	0.0156435
795.249	0.0156650
795.328	0.0156207
795.406	0.0156124
795.484	0.0159865
795.562	0.0159319
795.640	0.0162106
795.718	0.0162392
795.796	0.0162751
795.874	0.0162426
795.953	0.0163072
796.031	0.0165259
796.109	0.0164904
796.187	0.0166484
796.265	0.0167458
796.343	0.0168538
796.421	0.0166975
796.499	0.0168343
796.578	0.0170007
796.656	0.0171034
796.734	0.0171532
796.812	0.0172621
796.890	0.0173853
796.968	0.0172738
797.046	0.0174332
797.124	0.0175623
797.203	0.0173950
797.281	0.0173977
797.359	0.0173452
797.437	0.0171944
797.515	0.0170811
797.593	0.0170252
797.671	0.0168145
797.749	0.0168251
797.828	0.0166032
797.906	0.0163096
797.984	0.0162709
798.062	0.0160764
798.140	0.0159736
798.218	0.0158401
798.296	0.0156414
798.374	0.0154172
798.453	0.0153482
798.531	0.0152229
798.609	0.0152760
798.687	0.0152655
798.765	0.0150961
798.843	0.0151948
798.921	0.0151871
798.999	0.0154134
799.078	0.0153622
799.156	0.0155074
799.234	0.0154855
799.312	0.0156987
799.390	0.0156904
799.468	0.0157636
799.546	0.0156441
799.624	0.0158088
799.703	0.0158035
799.781	0.0158902
799.859	0.0160535
799.937	0.0159846
800.015	0.0160944
800.093	0.0161481
800.171	0.0162271
800.249	0.0163705
800.328	0.0163488
800.406	0.0165829
800.484	0.0167115
800.562	0.0167487
800.640	0.0166978
800.718	0.0167903
800.796	0.0167939
800.874	0.0167224
800.953	0.0168242
801.031	0.0168065
801.109	0.0167603
801.187	0.0167718
801.265	0.0170258
801.343	0.0168803
801.421	0.0170442
801.499	0.0170389
801.578	0.0170522
801.656	0.0169299
801.734	0.0169493
801.812	0.0168858
801.890	0.0168385
801.968	0.0168993
802.046	0.0167320
802.124	0.0165987
802.203	0.0166175
802.281	0.0164853
802.359	0.0164362
802.437	0.0162720
802.515	0.0161964
802.593	0.0161671
802.671	0.0160338
802.749	0.0158628
802.828	0.0158782
802.906	0.0158239
802.984	0.0157765
803.062	0.0156043
803.140	0.0156326
803.218	0.0155560
803.296	0.0154511
803.374	0.0153574
803.453	0.0154532
803.531	0.0153491
803.609	0.0154546
803.687	0.0155510
803.765	0.0154842
803.843	0.0154749
803.921	0.0156257
803.999	0.0157069
804.078	0.0157796
804.156	0.0160449
804.234	0.0159635
804.312	0.0161282
804.390	0.0161539
804.468	0.0162132
804.546	0.0164515
804.624	0.0163816
804.703	0.0165582
804.781	0.0164675
804.859	0.0164226
804.937	0.0167111
805.015	0.0166064
805.093	0.0166296
805.171	0.0165372
805.249	0.0164449
805.328	0.0165912
805.406	0.0164579
805.484	0.0165717
805.562	0.0164481
805.640	0.0164745
805.718	0.0163293
805.796	0.0164548
805.874	0.0166436
805.953	0.0167049
806.031	0.0167450
806.109	0.0166347
806.187	0.0166640
806.265	0.0168153
806.343	0.0167619
806.421	0.0168279
806.499	0.0167391
806.578	0.0168137
806.656	0.0167911
806.734	0.0167585
806.812	0.0166953
806.890	0.0166280
806.968	0.0166117
807.046	0.0164947
807.124	0.0164350
807.203	0.0162756
807.281	0.0162403
807.359	0.0160567
807.437	0.0161848
807.515	0.0159940
807.593	0.0160577
807.671	0.0160195
807.749	0.0159610
807.828	0.0158904
807.906	0.0159019
807.984	0.0157705
808.062	0.0158084
808.140	0.0159432
808.218	0.0160543
808.296	0.0159494
808.374	0.0161050
808.453	0.0162382
808.531	0.0160511
808.609	0.0160287
808.687	0.0165090
808.765	0.0161531
808.843	0.0162375
808.921	0.0164682
808.999	0.0164030
809.078	0.0162405
809.156	0.0164197
809.234	0.0163946
809.312	0.0164251
809.390	0.0164094
809.468	0.0163527
809.546	0.0165384
809.624	0.0163273
809.703	0.0163644
809.781	0.0165997
809.859	0.0166376
809.937	0.0166241
810.015	0.0164810
810.093	0.0165140
810.171	0.0166510
810.249	0.0166740
810.328	0.0166158
810.406	0.0165792
810.484	0.0164320
810.562	0.0163698
810.640	0.0165265
810.718	0.0164094
810.796	0.0163649
810.874	0.0163561
810.953	0.0163504
811.031	0.0164741
811.109	0.0165051
811.187	0.0165826
811.265	0.0165767
811.343	0.0165132
811.421	0.0166113
811.499	0.0165800
811.578	0.0165879
811.656	0.0165418
811.734	0.0166595
811.812	0.0167016
811.890	0.0167076
811.968	0.0166686
812.046	0.0166244
812.124	0.0164938
812.203	0.0166177
812.281	0.0163177
812.359	0.0163775
812.437	0.0163757
812.515	0.0161253
812.593	0.0161028
812.671	0.0159872
812.749	0.0159589
812.828	0.0158617
812.906	0.0156818
812.984	0.0158054
813.062	0.0157338
813.140	0.0155446
813.218	0.0156820
813.296	0.0158624
813.374	0.0156238
813.453	0.0156824
813.531	0.0159100
813.609	0.0158455
813.687	0.0158298
813.765	0.0160859
813.843	0.0162363
813.921	0.0161908
813.999	0.0162061
814.078	0.0164760
814.156	0.0164468
814.234	0.0166885
814.312	0.0168044
814.390	0.0169215
814.468	0.0170794
814.546	0.0169856
814.624	0.0172697
814.703	0.0172963
814.781	0.0171793
814.859	0.0171343
814.937	0.0172668
815.015	0.0171777
815.093	0.0170459
815.171	0.0169467
815.249	0.0168994
815.328	0.0166858
815.406	0.0165195
815.484	0.0164464
815.562	0.0163079
815.640	0.0162708
815.718	0.0160992
815.796	0.0160536
815.874	0.0159196
815.953	0.0158315
816.031	0.0157539
816.109	0.0157724
816.187	0.0157181
816.265	0.0158553
816.343	0.0157531
816.421	0.0157898
816.499	0.0157626
816.578	0.0159166
816.656	0.0158624
816.734	0.0159415
816.812	0.0161214
816.890	0.0159637
816.968	0.0160450
817.046	0.0161261
817.124	0.0163190
817.203	0.0164373
817.281	0.0162903
817.359	0.0162908
817.437	0.0164465
817.515	0.0163830
817.593	0.0165594
817.671	0.0165962
817.749	0.0166966
817.828	0.0167226
817.906	0.0167004
817.984	0.0166852
818.062	0.0169310
818.140	0.0169315
818.218	0.0169346
818.296	0.0168290
818.374	0.0166899
818.453	0.0167406
818.531	0.0165924
818.609	0.0165022
818.687	0.0164628
818.765	0.0165129
818.843	0.0164775
818.921	0.0162078
818.999	0.0161069
819.078	0.0161253
819.156	0.0160924
819.234	0.0160362
819.312	0.0159477
819.390	0.0159249
819.468	0.0160027
819.546	0.0160217
819.624	0.0159870
819.703	0.0159379
819.781	0.0159936
819.859	0.0161781
819.937	0.0161338
820.015	0.0162544
820.093	0.0163744
820.171	0.0162857
820.249	0.0165028
820.328	0.0165166
820.406	0.0166229
820.484	0.0167503
820.562	0.0167665
820.640	0.0169827
820.718	0.0169343
820.796	0.0170770
820.874	0.0169003
820.953	0.0171493
821.031	0.0170837
821.109	0.0170457
821.187	0.0169246
821.265	0.0168084
821.343	0.0165343
821.421	0.0165256
821.499	0.0165205
821.578	0.0164847
821.656	0.0164919
821.734	0.0162170
821.812	0.0162944
821.890	0.0161773
821.968	0.0161332
822.046	0.0161470
822.124	0.0160834
822.203	0.0160626
822.281	0.0160880
822.359	0.0160438
822.437	0.0161068
822.515	0.0161279
822.593	0.0160841
822.671	0.0160554
822.749	0.0160825
822.828	0.0161396
822.906	0.0161272
822.984	0.0161751
823.062	0.0161568
823.140	0.0162470
823.218	0.0162656
823.296	0.0163366
823.374	0.0164331
823.453	0.0163256
823.531	0.0162707
823.609	0.0162811
823.687	0.0164807
823.765	0.0163156
823.843	0.0163733
823.921	0.0162749
823.999	0.0162939
824.078	0.0162636
824.156	0.0160668
824.234	0.0161631
824.312	0.0163102
824.390	0.0161382
824.468	0.0160579
824.546	0.0161446
824.624	0.0162083
824.703	0.0160396
824.781	0.0161985
824.859	0.0161964
824.937	0.0162917
825.015	0.0163173
825.093	0.0162675
825.171	0.0164011
825.249	0.0163891
825.328	0.0163557
825.406	0.0165653
825.484	0.0165544
825.562	0.0164880
825.640	0.0164143
825.718	0.0163976
825.796	0.0163558
825.874	0.0164645
825.953	0.0164756
826.031	0.0164074
826.109	0.0163499
826.187	0.0164172
826.265	0.0164654
826.343	0.0163899
826.421	0.0163491
826.499	0.0165057
826.578	0.0164685
826.656	0.0164261
826.734	0.0166432
826.812	0.0166662
826.890	0.0166512
826.968	0.0166702
827.046	0.0166231
827.124	0.0166943
827.203	0.0165775
827.281	0.0165322
827.359	0.0166804
827.437	0.0166010
827.515	0.0164906
827.593	0.0165128
827.671	0.0164578
827.749	0.0165125
827.828	0.0163508
827.906	0.0162854
827.984	0.0162572
828.062	0.0159980
828.140	0.0160674
828.218	0.0161007
828.296	0.0159892
828.374	0.0161148
828.453	0.0161294
828.531	0.0159573
828.609	0.0160658
828.687	0.0161276
828.765	0.0159616
828.843	0.0160864
828.921	0.0161096
828.999	0.0159344
829.078	0.0159460
829.156	0.0159193
829.234	0.0159610
829.312	0.0159968
829.390	0.0161285
829.468	0.0160149
829.546	0.0159199
829.624	0.0159023
829.703	0.0160423
829.781	0.0161314
829.859	0.0161822
829.937	0.0160076
830.015	0.0161315
830.093	0.0161131
830.171	0.0161491
830.249	0.0162251
830.328	0.0164455
830.406	0.0163529
830.484	0.0163770
830.562	0.0164022
830.640	0.0163217
830.718	0.0163796
830.796	0.0164662
830.874	0.0165728
830.953	0.0165437
831.031	0.0164617
831.109	0.0163905
831.187	0.0164080
831.265	0.0164915
831.343	0.0164828
831.421	0.0164333
831.499	0.0164107
831.578	0.0163335
831.656	0.0164862
831.734	0.0165234
831.812	0.0165275
831.890	0.0163844
831.968	0.0165865
832.046	0.0165636
832.124	0.0166532
832.203	0.0164692
832.281	0.0164810
832.359	0.0166859
832.437	0.0166985
832.515	0.0164612
832.593	0.0166042
832.671	0.0166162
832.749	0.0165828
832.828	0.0165435
832.906	0.0166042
832.984	0.0165435
833.062	0.0165496
833.140	0.0165356
833.218	0.0166065
833.296	0.0165379
833.374	0.0162767
833.453	0.0163440
833.531	0.0161547
833.609	0.0162199
833.687	0.0162431
833.765	0.0161994
833.843	0.0161018
833.921	0.0159926
833.999	0.0159174
834.078	0.0159202
834.156	0.0158581
834.234	0.0159218
834.312	0.0158614
834.390	0.0157979
834.468	0.0158621
834.546	0.0159529
834.624	0.0159109
834.703	0.0158685
834.781	0.0161465
834.859	0.0161202
834.937	0.0161816
835.015	0.0162228
835.093	0.0161997
835.171	0.0162261
835.249	0.0161752
835.328	0.0162495
835.406	0.0162761
835.484	0.0164435
835.562	0.0163570
835.640	0.0165134
835.718	0.0165499
835.796	0.0164695
835.874	0.0166160
835.953	0.0166624
836.031	0.0167004
836.109	0.0166545
836.187	0.0168173
836.265	0.0166391
836.343	0.0167473
836.421	0.0167261
836.499	0.0166400
836.578	0.0166135
836.656	0.0166730
836.734	0.0166240
836.812	0.0165850
836.890	0.0165643
836.968	0.0165306
837.046	0.0164488
837.124	0.0164433
837.203	0.0164228
837.281	0.0163831
837.359	0.0165080
837.437	0.0163681
837.515	0.0162876
837.593	0.0163022
837.671	0.0162722
837.749	0.0162324
837.828	0.0162414
837.906	0.0163322
837.984	0.0161728
838.062	0.0161578
838.140	0.0163127
838.218	0.0163408
838.296	0.0162347
838.374	0.0162900
838.453	0.0163081
838.531	0.0162975
838.609	0.0163943
838.687	0.0163969
838.765	0.0164961
838.843	0.0165233
838.921	0.0164727
838.999	0.0164476
839.078	0.0165601
839.156	0.0165235
839.234	0.0164002
839.312	0.0166052
839.390	0.0166235
839.468	0.0165693
839.546	0.0164903
839.624	0.0165981
839.703	0.0165648
839.781	0.0166651
839.859	0.0165839
839.937	0.0164424
840.015	0.0165208
840.093	0.0164001
840.171	0.0164420
840.249	0.0164458
840.328	0.0163211
840.406	0.0161918
840.484	0.0162791
840.562	0.0161713
840.640	0.0161736
840.718	0.0160344
840.796	0.0162053
840.874	0.0163003
840.953	0.0160787
841.031	0.0161189
841.109	0.0160183
841.187	0.0162355
841.265	0.0162576
841.343	0.0162707
841.421	0.0161366
841.499	0.0161793
841.578	0.0165371
841.656	0.0164483
841.734	0.0163840
841.812	0.0165032
841.890	0.0164240
841.968	0.0165051
842.046	0.0164496
842.124	0.0163628
842.203	0.0165011
842.281	0.0166196
842.359	0.0163716
842.437	0.0166071
842.515	0.0163942
842.593	0.0163804
842.671	0.0164045
842.749	0.0165260
842.828	0.0163717
842.906	0.0163219
842.984	0.0164198
843.062	0.0164635
843.140	0.0163717
843.218	0.0164095
843.296	0.0163736
843.374	0.0165229
843.453	0.0164245
843.531	0.0162897
843.609	0.0163865
843.687	0.0164251
843.765	0.0164911
843.843	0.0164050
843.921	0.0163824
843.999	0.0165074
844.078	0.0164625
844.156	0.0165124
844.234	0.0164466
844.312	0.0164767
844.390	0.0163992
844.468	0.0163623
844.546	0.0164236
844.624	0.0165553
844.703	0.0164554
844.781	0.0164487
844.859	0.0164375
844.937	0.0161796
845.015	0.0163494
845.093	0.0162723
845.171	0.0163830
845.249	0.0163570
845.328	0.0163456
845.406	0.0163378
845.484	0.0162840
845.562	0.0164087
845.640	0.0165539
845.718	0.0165416
845.796	0.0164426
845.874	0.0163940
845.953	0.0163878
846.031	0.0164851
846.109	0.0165145
846.187	0.0165844
846.265	0.0165559
846.343	0.0164418
846.421	0.0165649
846.499	0.0164149
846.578	0.0164907
846.656	0.0165197
846.734	0.0165024
846.812	0.0164210
846.890	0.0164329
846.968	0.0163219
847.046	0.0164003
847.124	0.0163805
847.203	0.0163070
847.281	0.0162272
847.359	0.0162228
847.437	0.0162941
847.515	0.0160588
847.593	0.0162935
847.671	0.0161932
847.749	0.0161862
847.828	0.0162041
847.906	0.0162054
847.984	0.0162984
848.062	0.0163132
848.140	0.0162337
848.218	0.0161195
848.296	0.0162360
848.374	0.0162531
848.453	0.0164227
848.531	0.0162767
848.609	0.0163050
848.687	0.0162709
848.765	0.0163827
848.843	0.0163741
848.921	0.0163027
848.999	0.0162919
849.078	0.0163689
849.156	0.0163210
849.234	0.0163576
849.312	0.0162878
849.390	0.0162636
849.468	0.0164482
849.546	0.0164073
849.624	0.0164578
849.703	0.0165514
849.781	0.0165845
849.859	0.0165190
849.937	0.0162590
850.015	0.0165501
850.093	0.0165177
850.171	0.0163751
850.249	0.0166148
850.328	0.0165993
850.406	0.0165337
850.484	0.0165070
850.562	0.0165083
850.640	0.0165303
850.718	0.0164782
850.796	0.0164013
850.874	0.0162853
850.953	0.0163840
851.031	0.0162249
851.109	0.0163803
851.187	0.0163085
851.265	0.0162320
851.343	0.0163696
851.421	0.0162354
851.499	0.0161977
851.578	0.0164053
851.656	0.0163268
851.734	0.0162804
851.812	0.0162793
851.890	0.0163544
851.968	0.0162905
852.046	0.0164160
852.124	0.0163474
852.203	0.0162938
852.281	0.0164561
852.359	0.0164484
852.437	0.0164390
852.515	0.0163383
852.593	0.0163918
852.671	0.0164950
852.749	0.0163982
852.828	0.0163324
852.906	0.0162149
852.984	0.0163248
853.062	0.0164787
853.140	0.0163595
853.218	0.0162443
853.296	0.0161608
853.374	0.0162270
853.453	0.0160842
853.531	0.0161711
853.609	0.0162009
853.687	0.0161786
853.765	0.0162632
853.843	0.0160558
853.921	0.0161017
853.999	0.0161170
854.078	0.0161053
854.156	0.0162377
854.234	0.0162337
854.312	0.0161217
854.390	0.0160052
854.468	0.0161069
854.546	0.0161077
854.624	0.0161362
854.703	0.0161218
854.781	0.0162337
854.859	0.0160894
854.937	0.0160635
855.015	0.0161533
855.093	0.0162160
855.171	0.0160777
855.249	0.0159753
855.328	0.0161443
855.406	0.0162074
855.484	0.0160884
855.562	0.0161710
855.640	0.0162072
855.718	0.0161689
855.796	0.0161388
855.874	0.0160636
855.953	0.0161669
856.031	0.0161895
856.109	0.0161690
856.187	0.0161486
856.265	0.0162696
856.343	0.0162862
856.421	0.0161846
856.499	0.0163139
856.578	0.0165131
856.656	0.0164101
856.734	0.0163383
856.812	0.0163628
856.890	0.0163565
856.968	0.0163147
857.046	0.0164138
857.124	0.0165716
857.203	0.0165638
857.281	0.0163351
857.359	0.0164548
857.437	0.0163683
857.515	0.0164870
857.593	0.0164686
857.671	0.0162342
857.749	0.0162607
857.828	0.0163885
857.906	0.0164369
857.984	0.0162387
858.062	0.0162588
858.140	0.0162730
858.218	0.0161787
858.296	0.0160969
858.374	0.0161678
858.453	0.0161448
858.531	0.0162084
858.609	0.0160406
858.687	0.0160361
858.765	0.0160858
858.843	0.0162667
858.921	0.0162066
858.999	0.0163007
859.078	0.0161005
859.156	0.0163387
859.234	0.0163885
859.312	0.0162184
859.390	0.0162200
859.468	0.0163989
859.546	0.0162586
859.624	0.0162953
859.703	0.0163474
859.781	0.0163304
859.859	0.0163249
859.937	0.0161649
860.015	0.0160654
860.093	0.0162921
860.171	0.0161133
860.249	0.0161998
860.328	0.0161517
860.406	0.0161708
860.484	0.0161158
860.562	0.0162141
860.640	0.0159026
860.718	0.0160456
860.796	0.0160301
860.874	0.0162344
860.953	0.0160927
861.031	0.0160651
861.109	0.0161086
861.187	0.0161135
861.265	0.0161035
861.343	0.0161583
861.421	0.0160548
861.499	0.0161900
861.578	0.0161246
861.656	0.0161813
861.734	0.0162077
861.812	0.0163473
861.890	0.0163010
861.968	0.0162600
862.046	0.0163086
862.124	0.0163020
862.203	0.0164001
862.281	0.0165321
862.359	0.0164365
862.437	0.0163622
862.515	0.0164671
862.593	0.0164362
862.671	0.0165090
862.749	0.0166508
862.828	0.0165765
862.906	0.0164831
862.984	0.0165215
863.062	0.0165501
863.140	0.0163908
863.218	0.0165105
863.296	0.0164795
863.374	0.0164977
863.453	0.0164835
863.531	0.0164169
863.609	0.0162660
863.687	0.0163673
863.765	0.0164291
863.843	0.0163976
863.921	0.0163023
863.999	0.0162502
864.078	0.0163087
864.156	0.0162243
864.234	0.0162395
864.312	0.0162609
864.390	0.0163158
864.468	0.0162401
864.546	0.0162431
864.624	0.0161826
864.703	0.0163471
864.781	0.0164026
864.859	0.0163113
864.937	0.0163349
865.015	0.0163152
865.093	0.0164060
865.171	0.0164390
865.249	0.0164322
865.328	0.0163834
865.406	0.0166241
865.484	0.0164431
865.562	0.0162302
865.640	0.0163477
865.718	0.0164999
865.796	0.0163577
865.874	0.0161978
865.953	0.0162679
866.031	0.0163345
866.109	0.0164198
866.187	0.0163669
866.265	0.0163168
866.343	0.0163508
866.421	0.0163425
866.499	0.0162304
866.578	0.0163530
866.656	0.0164933
866.734	0.0164516
866.812	0.0164185
866.890	0.0164550
866.968	0.0165482
867.046	0.0163898
867.124	0.0163779
867.203	0.0163168
867.281	0.0163821
867.359	0.0163966
867.437	0.0161456
867.515	0.0161358
867.593	0.0161932
867.671	0.0163092
867.749	0.0162952
867.828	0.0161874
867.906	0.0163049
867.984	0.0161948
868.062	0.0162273
868.140	0.0162727
868.218	0.0162520
868.296	0.0162489
868.374	0.0164337
868.453	0.0164182
868.531	0.0163869
868.609	0.0164535
868.687	0.0163837
868.765	0.0163092
868.843	0.0164105
868.921	0.0164886
868.999	0.0163978
869.078	0.0163210
869.156	0.0163004
869.234	0.0163610
869.312	0.0163544
869.390	0.0163897
869.468	0.0164029
869.546	0.0163314
869.624	0.0165253
869.703	0.0163706
869.781	0.0164406
869.859	0.0163254
869.937	0.0163973
870.015	0.0163138
870.093	0.0163570
870.171	0.0163763
870.249	0.0165626
870.328	0.0165987
870.406	0.0163753
870.484	0.0165146
870.562	0.0163953
870.640	0.0164922
870.718	0.0163893
870.796	0.0163927
870.874	0.0164713
870.953	0.0164988
871.031	0.0165073
871.109	0.0164988
871.187	0.0165094
871.265	0.0164690
871.343	0.0165743
871.421	0.0163153
871.499	0.0163738
871.578	0.0164345
871.656	0.0164601
871.734	0.0160843
871.812	0.0163344
871.890	0.0163457
871.968	0.0163258
872.046	0.0162609
872.124	0.0162422
872.203	0.0161862
872.281	0.0161139
872.359	0.0162052
872.437	0.0163777
872.515	0.0163274
872.593	0.0163100
872.671	0.0163042
872.749	0.0162865
872.828	0.0163014
872.906	0.0161843
872.984	0.0164268
873.062	0.0163272
873.140	0.0162838
873.218	0.0161856
873.296	0.0162110
873.374	0.0163083
873.453	0.0162115
873.531	0.0161884
873.609	0.0163095
873.687	0.0162012
873.765	0.0163850
873.843	0.0162272
873.921	0.0160933
873.999	0.0160242
874.078	0.0161758
874.156	0.0163115
874.234	0.0161774
874.312	0.0162505
874.390	0.0162566
874.468	0.0162775
874.546	0.0161920
874.624	0.0161816
874.703	0.0162572
874.781	0.0163026
874.859	0.0161840
874.937	0.0163744
875.015	0.0164413
875.093	0.0164450
875.171	0.0164832
875.249	0.0163772
875.328	0.0164442
875.406	0.0163764
875.484	0.0164632
875.562	0.0164113
875.640	0.0164523
875.718	0.0165806
875.796	0.0164731
875.874	0.0162656
875.953	0.0163972
876.031	0.0163925
876.109	0.0165398
876.187	0.0163889
876.265	0.0164154
876.343	0.0164241
876.421	0.0164185
876.499	0.0165209
876.578	0.0163000
876.656	0.0161214
876.734	0.0164681
876.812	0.0164587
876.890	0.0163655
876.968	0.0162643
877.046	0.0162404
877.124	0.0161359
877.203	0.0163718
877.281	0.0162379
877.359	0.0162396
877.437	0.0160619
877.515	0.0162559
877.593	0.0161407
877.671	0.0160749
877.749	0.0160899
877.828	0.0160075
877.906	0.0161575
877.984	0.0160458
878.062	0.0161781
878.140	0.0160110
878.218	0.0161446
878.296	0.0162912
878.374	0.0162937
878.453	0.0162067
878.531	0.0163609
878.609	0.0162572
878.687	0.0162009
878.765	0.0163195
878.843	0.0163383
878.921	0.0163042
878.999	0.0164658
879.078	0.0163720
879.156	0.0163834
879.234	0.0163969
879.312	0.0162893
879.390	0.0162476
879.468	0.0161650
879.546	0.0164546
879.624	0.0161501
879.703	0.0164530
879.781	0.0163107
879.859	0.0162629
879.937	0.0162708
880.015	0.0162601
880.093	0.0162360
880.171	0.0163240
880.249	0.0163585
880.328	0.0163665
880.406	0.0162999
880.484	0.0162523
880.562	0.0163942
880.640	0.0162408
880.718	0.0163069
880.796	0.0162862
880.874	0.0161826
880.953	0.0163308
881.031	0.0161668
881.109	0.0162490
881.187	0.0162041
881.265	0.0162155
881.343	0.0162542
881.421	0.0163069
881.499	0.0163013
881.578	0.0161744
881.656	0.0162144
881.734	0.0163314
881.812	0.0161990
881.890	0.0163381
881.968	0.0162493
882.046	0.0163924
882.124	0.0162973
882.203	0.0162444
882.281	0.0162580
882.359	0.0162982
882.437	0.0162508
882.515	0.0161255
882.593	0.0161481
882.671	0.0163614
882.749	0.0164200
882.828	0.0163720
882.906	0.0162926
882.984	0.0163598
883.062	0.0162193
883.140	0.0163013
883.218	0.0162863
883.296	0.0163539
883.374	0.0162522
883.453	0.0162548
883.531	0.0162539
883.609	0.0161083
883.687	0.0162159
883.765	0.0161344
883.843	0.0160051
883.921	0.0160239
883.999	0.0161813
884.078	0.0162156
884.156	0.0162950
884.234	0.0161703
884.312	0.0162232
884.390	0.0162771
884.468	0.0163005
884.546	0.0163388
884.624	0.0163657
884.703	0.0164655
884.781	0.0165160
884.859	0.0164908
884.937	0.0166309
885.015	0.0164675
885.093	0.0165015
885.171	0.0164804
885.249	0.0164253
885.328	0.0164252
885.406	0.0164402
885.484	0.0164996
885.562	0.0163367
885.640	0.0164105
885.718	0.0162631
885.796	0.0161954
885.874	0.0162466
885.953	0.0161990
886.031	0.0161590
886.109	0.0161729
886.187	0.0163101
886.265	0.0161154
886.343	0.0161351
886.421	0.0162156
886.499	0.0161259
886.578	0.0161646
886.656	0.0163062
886.734	0.0162473
886.812	0.0162003
886.890	0.0162312
886.968	0.0161847
887.046	0.0161782
887.124	0.0161928
887.203	0.0162099
887.281	0.0161526
887.359	0.0163986
887.437	0.0162594
887.515	0.0161886
887.593	0.0163374
887.671	0.0163867
887.749	0.0165057
887.828	0.0163634
887.906	0.0164474
887.984	0.0163553
888.062	0.0163586
888.140	0.0164246
888.218	0.0165852
888.296	0.0164693
888.374	0.0165893
888.453	0.0163962
888.531	0.0164417
888.609	0.0164506
888.687	0.0163333
888.765	0.0164380
888.843	0.0164461
888.921	0.0164688
888.999	0.0165502
889.078	0.0164395
889.156	0.0165014
889.234	0.0162856
889.312	0.0165567
889.390	0.0165651
889.468	0.0164989
889.546	0.0164783
889.624	0.0163524
889.703	0.0163059
889.781	0.0163303
889.859	0.0162775
889.937	0.0163822
890.015	0.0163113
890.093	0.0162393
890.171	0.0161736
890.249	0.0161742
890.328	0.0161353
890.406	0.0162528
890.484	0.0162960
890.562	0.0161295
890.640	0.0162266
890.718	0.0164210
890.796	0.0163706
890.874	0.0163628
890.953	0.0165024
891.031	0.0162939
891.109	0.0162981
891.187	0.0163686
891.265	0.0164674
891.343	0.0163950
891.421	0.0162776
891.499	0.0162937
891.578	0.0164319
891.656	0.0164380
891.734	0.0163138
891.812	0.0162879
891.890	0.0162476
891.968	0.0162887
892.046	0.0162735
892.124	0.0162026
892.203	0.0162275
892.281	0.0163655
892.359	0.0162675
892.437	0.0161524
892.515	0.0162257
892.593	0.0162099
892.671	0.0163084
892.749	0.0162702
892.828	0.0163192
892.906	0.0163480
892.984	0.0162212
893.062	0.0162821
893.140	0.0163431
893.218	0.0163447
893.296	0.0164151
893.374	0.0164049
893.453	0.0165385
893.531	0.0165193
893.609	0.0165456
893.687	0.0164574
893.765	0.0164719
893.843	0.0165520
893.921	0.0166574
893.999	0.0166219
894.078	0.0167393
894.156	0.0166891
894.234	0.0165879
894.312	0.0166051
894.390	0.0165908
894.468	0.0165630
894.546	0.0164450
894.624	0.0164184
894.703	0.0164541
894.781	0.0165487
894.859	0.0164104
894.937	0.0165070
895.015	0.0163961
895.093	0.0164419
895.171	0.0163271
895.249	0.0163355
895.328	0.0163418
895.406	0.0163876
895.484	0.0163867
895.562	0.0164156
895.640	0.0163100
895.718	0.0164040
895.796	0.0164333
895.874	0.0163930
895.953	0.0162691
896.031	0.0163046
896.109	0.0161380
896.187	0.0162896
896.265	0.0163177
896.343	0.0162936
896.421	0.0162691
896.499	0.0162656
896.578	0.0161768
896.656	0.0161749
896.734	0.0162546
896.812	0.0162735
896.890	0.0163607
896.968	0.0162675
897.046	0.0163311
897.124	0.0163408
897.203	0.0163757
897.281	0.0163792
897.359	0.0165343
897.437	0.0164606
897.515	0.0164411
897.593	0.0165269
897.671	0.0164506
897.749	0.0165323
897.828	0.0165148
897.906	0.0165662
897.984	0.0164783
898.062	0.0163721
898.140	0.0164503
898.218	0.0163816
898.296	0.0164505
898.374	0.0163571
898.453	0.0163706
898.531	0.0162558
898.609	0.0163489
898.687	0.0163677
898.765	0.0165027
898.843	0.0164862
898.921	0.0161758
898.999	0.0164575
899.078	0.0164839
899.156	0.0163922
899.234	0.0162165
899.312	0.0162684
899.390	0.0161593
899.468	0.0163743
899.546	0.0163373
899.624	0.0163548
899.703	0.0163798
899.781	0.0163305
899.859	0.0164513
899.937	0.0163748
900.015	0.0164143
900.093	0.0163597
900.171	0.0165199
900.249	0.0164440
900.328	0.0163924
900.406	0.0164213
900.484	0.0163350
900.562	0.0164282
900.640	0.0164156
900.718	0.0162259
900.796	0.0163103
900.874	0.0164800
900.953	0.0164664
901.031	0.0163168
901.109	0.0164660
901.187	0.0164596
901.265	0.0165351
901.343	0.0163818
901.421	0.0164930
901.499	0.0164928
901.578	0.0163824
901.656	0.0164238
901.734	0.0163953
901.812	0.0164409
901.890	0.0164608
901.968	0.0163936
902.046	0.0163213
902.124	0.0163028
902.203	0.0163551
902.281	0.0163046
902.359	0.0163009
902.437	0.0161626
902.515	0.0161211
902.593	0.0163100
902.671	0.0163571
902.749	0.0162202
902.828	0.0161578
902.906	0.0162337
902.984	0.0162713
903.062	0.0161562
903.140	0.0162411
903.218	0.0162153
903.296	0.0163467
903.374	0.0164211
903.453	0.0162722
903.531	0.0163432
903.609	0.0165205
903.687	0.0164287
903.765	0.0161635
903.843	0.0163797
903.921	0.0164634
903.999	0.0163604
904.078	0.0163083
904.156	0.0163898
904.234	0.0164581
904.312	0.0163251
904.390	0.0163287
904.468	0.0163203
904.546	0.0164124
904.624	0.0162897
904.703	0.0163044
904.781	0.0163062
904.859	0.0163699
904.937	0.0162572
905.015	0.0162897
905.093	0.0163377
905.171	0.0162617
905.249	0.0163659
905.328	0.0164233
905.406	0.0164872
905.484	0.0163458
905.562	0.0163754
905.640	0.0163527
905.718	0.0164108
905.796	0.0164077
905.874	0.0163972
905.953	0.0165940
906.031	0.0165084
906.109	0.0164922
906.187	0.0164483
906.265	0.0164637
906.343	0.0165747
906.421	0.0165433
906.499	0.0164641
906.578	0.0164663
906.656	0.0165842
906.734	0.0165453
906.812	0.0165041
906.890	0.0164878
906.968	0.0164603
907.046	0.0164965
907.124	0.0163772
907.203	0.0165287
907.281	0.0164231
907.359	0.0162802
907.437	0.0163747
907.515	0.0163922
907.593	0.0165160
907.671	0.0164518
907.749	0.0164236
907.828	0.0167039
907.906	0.0163633
907.984	0.0165486
908.062	0.0166045
908.140	0.0165514
908.218	0.0165440
908.296	0.0163963
908.374	0.0166513
908.453	0.0164211
908.531	0.0163902
908.609	0.0163692
908.687	0.0163899
908.765	0.0163977
908.843	0.0163469
908.921	0.0163412
908.999	0.0163089
909.078	0.0163702
909.156	0.0163853
909.234	0.0162869
909.312	0.0162967
909.390	0.0163131
909.468	0.0163338
909.546	0.0162123
909.624	0.0163586
909.703	0.0162556
909.781	0.0162749
909.859	0.0162370
909.937	0.0162994
910.015	0.0163054
910.093	0.0163780
910.171	0.0163119
910.249	0.0162569
910.328	0.0163931
910.406	0.0164517
910.484	0.0163471
910.562	0.0163041
910.640	0.0163722
910.718	0.0164597
910.796	0.0164113
910.874	0.0163307
910.953	0.0165736
911.031	0.0163701
911.109	0.0163374
911.187	0.0163747
911.265	0.0164249
911.343	0.0164329
911.421	0.0164799
911.499	0.0163066
911.578	0.0164275
911.656	0.0162255
911.734	0.0162466
911.812	0.0163771
911.890	0.0164825
911.968	0.0164491
912.046	0.0162788
912.124	0.0162943
912.203	0.0163183
912.281	0.0165171
912.359	0.0164187
912.437	0.0163642
912.515	0.0163011
912.593	0.0163557
912.671	0.0164089
912.749	0.0164189
912.828	0.0163417
912.906	0.0163380
912.984	0.0163762
913.062	0.0163419
913.140	0.0163949
913.218	0.0162296
913.296	0.0162827
913.374	0.0163312
913.453	0.0162984
913.531	0.0162711
913.609	0.0162684
913.687	0.0163894
913.765	0.0163598
913.843	0.0164124
913.921	0.0163728
913.999	0.0164661
914.078	0.0163711
914.156	0.0164492
914.234	0.0164405
914.312	0.0165001
914.390	0.0164867
914.468	0.0163325
914.546	0.0163393
914.624	0.0163178
914.703	0.0163474
914.781	0.0165190
914.859	0.0162916
914.937	0.0162981
915.015	0.0162415
915.093	0.0162122
915.171	0.0162351
915.249	0.0162733
915.328	0.0164083
915.406	0.0163352
915.484	0.0161706
915.562	0.0162849
915.640	0.0162749
915.718	0.0163274
915.796	0.0162287
915.874	0.0162704
915.953	0.0162682
916.031	0.0162585
916.109	0.0163335
916.187	0.0163216
916.265	0.0161139
916.343	0.0162413
916.421	0.0163317
916.499	0.0161417
916.578	0.0163237
916.656	0.0164162
916.734	0.0163425
916.812	0.0163390
916.890	0.0163380
916.968	0.0163004
917.046	0.0163778
917.124	0.0164342
917.203	0.0164893
917.281	0.0164304
917.359	0.0164638
917.437	0.0164319
917.515	0.0163866
917.593	0.0163520
917.671	0.0164000
917.749	0.0163567
917.828	0.0162655
917.906	0.0162209
917.984	0.0162660
918.062	0.0163198
918.140	0.0163525
918.218	0.0164662
918.296	0.0164139
918.374	0.0162794
918.453	0.0164230
918.531	0.0163855
918.609	0.0164287
918.687	0.0164037
918.765	0.0163611
918.843	0.0163210
918.921	0.0164062
918.999	0.0163335
919.078	0.0164172
919.156	0.0163554
919.234	0.0163818
919.312	0.0162849
919.390	0.0163779
919.468	0.0164607
919.546	0.0163429
919.624	0.0163000
919.703	0.0162524
919.781	0.0162820
919.859	0.0163698
919.937	0.0164103
