06/10/2022	18:53:50	Ver.	4.1	UNKNOWN
Optical Delay	600.015094	Delta X		0.078125	Sweeps	1	Scan Rate	0/0
Coordinates	Axis 1	NaN	Axis 2	NaN	Axis 3	NaN	Axis 4	NaN	Axis 5	NaN	Axis 6	0.000000
TX Power	0.000000	RX Power	0.000000

600.015	0.0158819
600.093	0.0158387
600.171	0.0158150
600.249	0.0157586
600.328	0.0159333
600.406	0.0158749
600.484	0.0158952
600.562	0.0159235
600.640	0.0159111
600.718	0.0158382
600.796	0.0159443
600.874	0.0159525
600.953	0.0159183
601.031	0.0159615
601.109	0.0157703
601.187	0.0157303
601.265	0.0160797
601.343	0.0160166
601.421	0.0158083
601.499	0.0158357
601.578	0.0158011
601.656	0.0158833
601.734	0.0159095
601.812	0.0157944
601.890	0.0159045
601.968	0.0158268
602.046	0.0159849
602.124	0.0158109
602.203	0.0159022
602.281	0.0159010
602.359	0.0158240
602.437	0.0158859
602.515	0.0158336
602.593	0.0158421
602.671	0.0159284
602.749	0.0159177
602.828	0.0158650
602.906	0.0158297
602.984	0.0158892
603.062	0.0158435
603.140	0.0159067
603.218	0.0158693
603.296	0.0159977
603.374	0.0158823
603.453	0.0157978
603.531	0.0158858
603.609	0.0159332
603.687	0.0158369
603.765	0.0159030
603.843	0.0158612
603.921	0.0157976
603.999	0.0159207
604.078	0.0158510
604.156	0.0158932
604.234	0.0159003
604.312	0.0158627
604.390	0.0158797
604.468	0.0158540
604.546	0.0157595
604.624	0.0158524
604.703	0.0158672
604.781	0.0159247
604.859	0.0158787
604.937	0.0158902
605.015	0.0157839
605.093	0.0158726
605.171	0.0158322
605.249	0.0158361
605.328	0.0159376
605.406	0.0158903
605.484	0.0158649
605.562	0.0158188
605.640	0.0159382
605.718	0.0158304
605.796	0.0158411
605.874	0.0158776
605.953	0.0158347
606.031	0.0158292
606.109	0.0159699
606.187	0.0158475
606.265	0.0159355
606.343	0.0159238
606.421	0.0157335
606.499	0.0158658
606.578	0.0158975
606.656	0.0159781
606.734	0.0158714
606.812	0.0159791
606.890	0.0158076
606.968	0.0156982
607.046	0.0158166
607.124	0.0158401
607.203	0.0158102
607.281	0.0158996
607.359	0.0159326
607.437	0.0159254
607.515	0.0158685
607.593	0.0159458
607.671	0.0158105
607.749	0.0158298
607.828	0.0159743
607.906	0.0158994
607.984	0.0158381
608.062	0.0157885
608.140	0.0158905
608.218	0.0159356
608.296	0.0159682
608.374	0.0159996
608.453	0.0157820
608.531	0.0158086
608.609	0.0157775
608.687	0.0157713
608.765	0.0158885
608.843	0.0157755
608.921	0.0158319
608.999	0.0158650
609.078	0.0158944
609.156	0.0158746
609.234	0.0157682
609.312	0.0158206
609.390	0.0157919
609.468	0.0158324
609.546	0.0158650
609.624	0.0158501
609.703	0.0159727
609.781	0.0159107
609.859	0.0158590
609.937	0.0158237
610.015	0.0157984
610.093	0.0156161
610.171	0.0158613
610.249	0.0159595
610.328	0.0158518
610.406	0.0158000
610.484	0.0158906
610.562	0.0158255
610.640	0.0157614
610.718	0.0159090
610.796	0.0158936
610.874	0.0158813
610.953	0.0159788
611.031	0.0157969
611.109	0.0158725
611.187	0.0159492
611.265	0.0159156
611.343	0.0158321
611.421	0.0158383
611.499	0.0158485
611.578	0.0158720
611.656	0.0159241
611.734	0.0159158
611.812	0.0158788
611.890	0.0158198
611.968	0.0158975
612.046	0.0159586
612.124	0.0158698
612.203	0.0159752
612.281	0.0158235
612.359	0.0159340
612.437	0.0158699
612.515	0.0159094
612.593	0.0158414
612.671	0.0159097
612.749	0.0158447
612.828	0.0159571
612.906	0.0159457
612.984	0.0157410
613.062	0.0159418
613.140	0.0159390
613.218	0.0159685
613.296	0.0158685
613.374	0.0158851
613.453	0.0159675
613.531	0.0159117
613.609	0.0159344
613.687	0.0159549
613.765	0.0158456
613.843	0.0158904
613.921	0.0159551
613.999	0.0159005
614.078	0.0159193
614.156	0.0159024
614.234	0.0159000
614.312	0.0159070
614.390	0.0158344
614.468	0.0159081
614.546	0.0159196
614.624	0.0159921
614.703	0.0157837
614.781	0.0157592
614.859	0.0159424
614.937	0.0158865
615.015	0.0159074
615.093	0.0159476
615.171	0.0158921
615.249	0.0159636
615.328	0.0158739
615.406	0.0158777
615.484	0.0159688
615.562	0.0158727
615.640	0.0158707
615.718	0.0159947
615.796	0.0158127
615.874	0.0158100
615.953	0.0158954
616.031	0.0161064
616.109	0.0159720
616.187	0.0160375
616.265	0.0158957
616.343	0.0159836
616.421	0.0160007
616.499	0.0159663
616.578	0.0159374
616.656	0.0159524
616.734	0.0160040
616.812	0.0159703
616.890	0.0158554
616.968	0.0158112
617.046	0.0157804
617.124	0.0159563
617.203	0.0160093
617.281	0.0158397
617.359	0.0158633
617.437	0.0159291
617.515	0.0160035
617.593	0.0159081
617.671	0.0159365
617.749	0.0158723
617.828	0.0159824
617.906	0.0158755
617.984	0.0159249
618.062	0.0159458
618.140	0.0159673
618.218	0.0159274
618.296	0.0159836
618.374	0.0158617
618.453	0.0158680
618.531	0.0160878
618.609	0.0158995
618.687	0.0159283
618.765	0.0159232
618.843	0.0158485
618.921	0.0158998
618.999	0.0159450
619.078	0.0160299
619.156	0.0159058
619.234	0.0158343
619.312	0.0158651
619.390	0.0158201
619.468	0.0159968
619.546	0.0159805
619.624	0.0159967
619.703	0.0160183
619.781	0.0158805
619.859	0.0160152
619.937	0.0159887
620.015	0.0158036
620.093	0.0160970
620.171	0.0159624
620.249	0.0158704
620.328	0.0160260
620.406	0.0158955
620.484	0.0159715
620.562	0.0160268
620.640	0.0159713
620.718	0.0159167
620.796	0.0158797
620.874	0.0158933
620.953	0.0160532
621.031	0.0160040
621.109	0.0158873
621.187	0.0158077
621.265	0.0158873
621.343	0.0160188
621.421	0.0159891
621.499	0.0160822
621.578	0.0159277
621.656	0.0159274
621.734	0.0159520
621.812	0.0159461
621.890	0.0159222
621.968	0.0159113
622.046	0.0159529
622.124	0.0159235
622.203	0.0160098
622.281	0.0161378
622.359	0.0158622
622.437	0.0158155
622.515	0.0160630
622.593	0.0158817
622.671	0.0158442
622.749	0.0159808
622.828	0.0160098
622.906	0.0158343
622.984	0.0158100
623.062	0.0159805
623.140	0.0160006
623.218	0.0160191
623.296	0.0160616
623.374	0.0159518
623.453	0.0160278
623.531	0.0158504
623.609	0.0159180
623.687	0.0160406
623.765	0.0160878
623.843	0.0159604
623.921	0.0159926
623.999	0.0158488
624.078	0.0159758
624.156	0.0160011
624.234	0.0158977
624.312	0.0159666
624.390	0.0160514
624.468	0.0158981
624.546	0.0158158
624.624	0.0159803
624.703	0.0159250
624.781	0.0158419
624.859	0.0159727
624.937	0.0159321
625.015	0.0160704
625.093	0.0158737
625.171	0.0160033
625.249	0.0159863
625.328	0.0158400
625.406	0.0159534
625.484	0.0158991
625.562	0.0158728
625.640	0.0158444
625.718	0.0158463
625.796	0.0159167
625.874	0.0159820
625.953	0.0158822
626.031	0.0158807
626.109	0.0158599
626.187	0.0159410
626.265	0.0159191
626.343	0.0160210
626.421	0.0159182
626.499	0.0158543
626.578	0.0159938
626.656	0.0158829
626.734	0.0158547
626.812	0.0159373
626.890	0.0158747
626.968	0.0158437
627.046	0.0158145
627.124	0.0159690
627.203	0.0158613
627.281	0.0159233
627.359	0.0158710
627.437	0.0159954
627.515	0.0157802
627.593	0.0159026
627.671	0.0158091
627.749	0.0159262
627.828	0.0160045
627.906	0.0158974
627.984	0.0160030
628.062	0.0159261
628.140	0.0157951
628.218	0.0158110
628.296	0.0159712
628.374	0.0159021
628.453	0.0157945
628.531	0.0158155
628.609	0.0157214
628.687	0.0159073
628.765	0.0159258
628.843	0.0159241
628.921	0.0158579
628.999	0.0158388
629.078	0.0158890
629.156	0.0157348
629.234	0.0159589
629.312	0.0158904
629.390	0.0159315
629.468	0.0159032
629.546	0.0160502
629.624	0.0157934
629.703	0.0157945
629.781	0.0159624
629.859	0.0157748
629.937	0.0159512
630.015	0.0158237
630.093	0.0156949
630.171	0.0157738
630.249	0.0159896
630.328	0.0159755
630.406	0.0158797
630.484	0.0157383
630.562	0.0158380
630.640	0.0158588
630.718	0.0159286
630.796	0.0158440
630.874	0.0159280
630.953	0.0158109
631.031	0.0158801
631.109	0.0158701
631.187	0.0157766
631.265	0.0158865
631.343	0.0159218
631.421	0.0160229
631.499	0.0158250
631.578	0.0158689
631.656	0.0159090
631.734	0.0159377
631.812	0.0159161
631.890	0.0159255
631.968	0.0159125
632.046	0.0159010
632.124	0.0159080
632.203	0.0159623
632.281	0.0159871
632.359	0.0159222
632.437	0.0158586
632.515	0.0159331
632.593	0.0160020
632.671	0.0158089
632.749	0.0159138
632.828	0.0159766
632.906	0.0158008
632.984	0.0159295
633.062	0.0159502
633.140	0.0159496
633.218	0.0159013
633.296	0.0158987
633.374	0.0159823
633.453	0.0158866
633.531	0.0158052
633.609	0.0159137
633.687	0.0157852
633.765	0.0158798
633.843	0.0159408
633.921	0.0159905
633.999	0.0158361
634.078	0.0159582
634.156	0.0158833
634.234	0.0158855
634.312	0.0157783
634.390	0.0158659
634.468	0.0159517
634.546	0.0159311
634.624	0.0158973
634.703	0.0158970
634.781	0.0159781
634.859	0.0159081
634.937	0.0159057
635.015	0.0159344
635.093	0.0159105
635.171	0.0159394
635.249	0.0159747
635.328	0.0159338
635.406	0.0160118
635.484	0.0158275
635.562	0.0157833
635.640	0.0158420
635.718	0.0159669
635.796	0.0159589
635.874	0.0160430
635.953	0.0159850
636.031	0.0159329
636.109	0.0159741
636.187	0.0159656
636.265	0.0158704
636.343	0.0159494
636.421	0.0160436
636.499	0.0159256
636.578	0.0159483
636.656	0.0159937
636.734	0.0158959
636.812	0.0160268
636.890	0.0159705
636.968	0.0160218
637.046	0.0159960
637.124	0.0159199
637.203	0.0159131
637.281	0.0159610
637.359	0.0158794
637.437	0.0158991
637.515	0.0159208
637.593	0.0160703
637.671	0.0158752
637.749	0.0159421
637.828	0.0158949
637.906	0.0159087
637.984	0.0160058
638.062	0.0158764
638.140	0.0159763
638.218	0.0159782
638.296	0.0160140
638.374	0.0161374
638.453	0.0159402
638.531	0.0159518
638.609	0.0161347
638.687	0.0160030
638.765	0.0160154
638.843	0.0159969
638.921	0.0161250
638.999	0.0158983
639.078	0.0159829
639.156	0.0160606
639.234	0.0160004
639.312	0.0158205
639.390	0.0159090
639.468	0.0158967
639.546	0.0159186
639.624	0.0159869
639.703	0.0159662
639.781	0.0160868
639.859	0.0158794
639.937	0.0158374
640.015	0.0159631
640.093	0.0160025
640.171	0.0160097
640.249	0.0159867
640.328	0.0159686
640.406	0.0159239
640.484	0.0159843
640.562	0.0159548
640.640	0.0159394
640.718	0.0159378
640.796	0.0159203
640.874	0.0159112
640.953	0.0160014
641.031	0.0158984
641.109	0.0160172
641.187	0.0160532
641.265	0.0159506
641.343	0.0160107
641.421	0.0159988
641.499	0.0159869
641.578	0.0158425
641.656	0.0159983
641.734	0.0160808
641.812	0.0159319
641.890	0.0158948
641.968	0.0160309
642.046	0.0158366
642.124	0.0158582
642.203	0.0159890
642.281	0.0160534
642.359	0.0159215
642.437	0.0159539
642.515	0.0159552
642.593	0.0159030
642.671	0.0159251
642.749	0.0159758
642.828	0.0159182
642.906	0.0159698
642.984	0.0158932
643.062	0.0158752
643.140	0.0160273
643.218	0.0159940
643.296	0.0158682
643.374	0.0160896
643.453	0.0160413
643.531	0.0159307
643.609	0.0158234
643.687	0.0159473
643.765	0.0160405
643.843	0.0157773
643.921	0.0158759
643.999	0.0159014
644.078	0.0158981
644.156	0.0157953
644.234	0.0160442
644.312	0.0160777
644.390	0.0158604
644.468	0.0158888
644.546	0.0158489
644.624	0.0159536
644.703	0.0160538
644.781	0.0159055
644.859	0.0159785
644.937	0.0158939
645.015	0.0158363
645.093	0.0159622
645.171	0.0159863
645.249	0.0159640
645.328	0.0159344
645.406	0.0159844
645.484	0.0158736
645.562	0.0159674
645.640	0.0158734
645.718	0.0159584
645.796	0.0158990
645.874	0.0159232
645.953	0.0159323
646.031	0.0157771
646.109	0.0159483
646.187	0.0159122
646.265	0.0160268
646.343	0.0161156
646.421	0.0160179
646.499	0.0159674
646.578	0.0159546
646.656	0.0160429
646.734	0.0159293
646.812	0.0160477
646.890	0.0159270
646.968	0.0160632
647.046	0.0160960
647.124	0.0160183
647.203	0.0158381
647.281	0.0160752
647.359	0.0159203
647.437	0.0159402
647.515	0.0159884
647.593	0.0160529
647.671	0.0159574
647.749	0.0159402
647.828	0.0158515
647.906	0.0160282
647.984	0.0159670
648.062	0.0159550
648.140	0.0158324
648.218	0.0157444
648.296	0.0159960
648.374	0.0160028
648.453	0.0159851
648.531	0.0158746
648.609	0.0159312
648.687	0.0158275
648.765	0.0159106
648.843	0.0158472
648.921	0.0159103
648.999	0.0160350
649.078	0.0159531
649.156	0.0158187
649.234	0.0158355
649.312	0.0159563
649.390	0.0159256
649.468	0.0160213
649.546	0.0159762
649.624	0.0159454
649.703	0.0158592
649.781	0.0158295
649.859	0.0159600
649.937	0.0158192
650.015	0.0159477
650.093	0.0159589
650.171	0.0158355
650.249	0.0159531
650.328	0.0158493
650.406	0.0158326
650.484	0.0158744
650.562	0.0158563
650.640	0.0158133
650.718	0.0158797
650.796	0.0159978
650.874	0.0160111
650.953	0.0158029
651.031	0.0158772
651.109	0.0159541
651.187	0.0158430
651.265	0.0159467
651.343	0.0159243
651.421	0.0158643
651.499	0.0159730
651.578	0.0159634
651.656	0.0157635
651.734	0.0158730
651.812	0.0158917
651.890	0.0158828
651.968	0.0158298
652.046	0.0159337
652.124	0.0160757
652.203	0.0157999
652.281	0.0157844
652.359	0.0159402
652.437	0.0159282
652.515	0.0158286
652.593	0.0159758
652.671	0.0159361
652.749	0.0160648
652.828	0.0159683
652.906	0.0157225
652.984	0.0159086
653.062	0.0160304
653.140	0.0158817
653.218	0.0159492
653.296	0.0159299
653.374	0.0159906
653.453	0.0160217
653.531	0.0159586
653.609	0.0158649
653.687	0.0159193
653.765	0.0160178
653.843	0.0160139
653.921	0.0159016
653.999	0.0159315
654.078	0.0159000
654.156	0.0160872
654.234	0.0159159
654.312	0.0159315
654.390	0.0158867
654.468	0.0159810
654.546	0.0159109
654.624	0.0159983
654.703	0.0159927
654.781	0.0158883
654.859	0.0160155
654.937	0.0159598
655.015	0.0159610
655.093	0.0159174
655.171	0.0159257
655.249	0.0159758
655.328	0.0158711
655.406	0.0157102
655.484	0.0159257
655.562	0.0159996
655.640	0.0158710
655.718	0.0158958
655.796	0.0158463
655.874	0.0159305
655.953	0.0159004
656.031	0.0158893
656.109	0.0159352
656.187	0.0159812
656.265	0.0160018
656.343	0.0160433
656.421	0.0160188
656.499	0.0158234
656.578	0.0159809
656.656	0.0160053
656.734	0.0158494
656.812	0.0159280
656.890	0.0158924
656.968	0.0159451
657.046	0.0159669
657.124	0.0159390
657.203	0.0158735
657.281	0.0158459
657.359	0.0159628
657.437	0.0159436
657.515	0.0158641
657.593	0.0160018
657.671	0.0158900
657.749	0.0158911
657.828	0.0159361
657.906	0.0159325
657.984	0.0159510
658.062	0.0159831
658.140	0.0158913
658.218	0.0158540
658.296	0.0159919
658.374	0.0158882
658.453	0.0159261
658.531	0.0159119
658.609	0.0158957
658.687	0.0158127
658.765	0.0159946
658.843	0.0159357
658.921	0.0158755
658.999	0.0159396
659.078	0.0158967
659.156	0.0158857
659.234	0.0158118
659.312	0.0160351
659.390	0.0160785
659.468	0.0159014
659.546	0.0159621
659.624	0.0159956
659.703	0.0159193
659.781	0.0158521
659.859	0.0159187
659.937	0.0159925
660.015	0.0159424
660.093	0.0159480
660.171	0.0158612
660.249	0.0159351
660.328	0.0160320
660.406	0.0160574
660.484	0.0160105
660.562	0.0159375
660.640	0.0158962
660.718	0.0159547
660.796	0.0158310
660.874	0.0159550
660.953	0.0160287
661.031	0.0159611
661.109	0.0158960
661.187	0.0159406
661.265	0.0159615
661.343	0.0161207
661.421	0.0159447
661.499	0.0160095
661.578	0.0159610
661.656	0.0159477
661.734	0.0159229
661.812	0.0158871
661.890	0.0159992
661.968	0.0159088
662.046	0.0159302
662.124	0.0158209
662.203	0.0160168
662.281	0.0160467
662.359	0.0159660
662.437	0.0159585
662.515	0.0159995
662.593	0.0159853
662.671	0.0159566
662.749	0.0159135
662.828	0.0158719
662.906	0.0159795
662.984	0.0158717
663.062	0.0160522
663.140	0.0160413
663.218	0.0159405
663.296	0.0159407
663.374	0.0159578
663.453	0.0160166
663.531	0.0158877
663.609	0.0159335
663.687	0.0159315
663.765	0.0159503
663.843	0.0160786
663.921	0.0157631
663.999	0.0158502
664.078	0.0159377
664.156	0.0159919
664.234	0.0159734
664.312	0.0158963
664.390	0.0159215
664.468	0.0160640
664.546	0.0159292
664.624	0.0160695
664.703	0.0159543
664.781	0.0159988
664.859	0.0159435
664.937	0.0159032
665.015	0.0160452
665.093	0.0160444
665.171	0.0158463
665.249	0.0159325
665.328	0.0160071
665.406	0.0159540
665.484	0.0157545
665.562	0.0158641
665.640	0.0159972
665.718	0.0159262
665.796	0.0158649
665.874	0.0159057
665.953	0.0159155
666.031	0.0157746
666.109	0.0160165
666.187	0.0159499
666.265	0.0158904
666.343	0.0159230
666.421	0.0159081
666.499	0.0158714
666.578	0.0159165
666.656	0.0160794
666.734	0.0158843
666.812	0.0158564
666.890	0.0158384
666.968	0.0159943
667.046	0.0158362
667.124	0.0159275
667.203	0.0159064
667.281	0.0158287
667.359	0.0158445
667.437	0.0159689
667.515	0.0158821
667.593	0.0159718
667.671	0.0158363
667.749	0.0160679
667.828	0.0159558
667.906	0.0158266
667.984	0.0158012
668.062	0.0159519
668.140	0.0160088
668.218	0.0159274
668.296	0.0158752
668.374	0.0159360
668.453	0.0158083
668.531	0.0159992
668.609	0.0158897
668.687	0.0157417
668.765	0.0159522
668.843	0.0159673
668.921	0.0159704
668.999	0.0158531
669.078	0.0158084
669.156	0.0159081
669.234	0.0160368
669.312	0.0159531
669.390	0.0159650
669.468	0.0157788
669.546	0.0158658
669.624	0.0158705
669.703	0.0158747
669.781	0.0158025
669.859	0.0159245
669.937	0.0158778
670.015	0.0159188
670.093	0.0158296
670.171	0.0157513
670.249	0.0158758
670.328	0.0159225
670.406	0.0158586
670.484	0.0159787
670.562	0.0158886
670.640	0.0158417
670.718	0.0159309
670.796	0.0159628
670.874	0.0159238
670.953	0.0158868
671.031	0.0158873
671.109	0.0161221
671.187	0.0158226
671.265	0.0157851
671.343	0.0159280
671.421	0.0159921
671.499	0.0159163
671.578	0.0158790
671.656	0.0159825
671.734	0.0160010
671.812	0.0159764
671.890	0.0158967
671.968	0.0157681
672.046	0.0158858
672.124	0.0160294
672.203	0.0159840
672.281	0.0159475
672.359	0.0157314
672.437	0.0158440
672.515	0.0159620
672.593	0.0158118
672.671	0.0159745
672.749	0.0159906
672.828	0.0158826
672.906	0.0157986
672.984	0.0158566
673.062	0.0159183
673.140	0.0159226
673.218	0.0159810
673.296	0.0157988
673.374	0.0158920
673.453	0.0159591
673.531	0.0160527
673.609	0.0158609
673.687	0.0158586
673.765	0.0158504
673.843	0.0158778
673.921	0.0159291
673.999	0.0159628
674.078	0.0158635
674.156	0.0157934
674.234	0.0159127
674.312	0.0159328
674.390	0.0159923
674.468	0.0158755
674.546	0.0157536
674.624	0.0158891
674.703	0.0158896
674.781	0.0159000
674.859	0.0158242
674.937	0.0159603
675.015	0.0158885
675.093	0.0157738
675.171	0.0158309
675.249	0.0159427
675.328	0.0159928
675.406	0.0158379
675.484	0.0159126
675.562	0.0159460
675.640	0.0159520
675.718	0.0158583
675.796	0.0159534
675.874	0.0158287
675.953	0.0159853
676.031	0.0159175
676.109	0.0159080
676.187	0.0159563
676.265	0.0159327
676.343	0.0159187
676.421	0.0158884
676.499	0.0158416
676.578	0.0158643
676.656	0.0158115
676.734	0.0158843
676.812	0.0160126
676.890	0.0158483
676.968	0.0158937
677.046	0.0158497
677.124	0.0158831
677.203	0.0160289
677.281	0.0159038
677.359	0.0159226
677.437	0.0159770
677.515	0.0160017
677.593	0.0158519
677.671	0.0159824
677.749	0.0160033
677.828	0.0160091
677.906	0.0158721
677.984	0.0160941
678.062	0.0160711
678.140	0.0160372
678.218	0.0159006
678.296	0.0159973
678.374	0.0159804
678.453	0.0159660
678.531	0.0159632
678.609	0.0160738
678.687	0.0159492
678.765	0.0160576
678.843	0.0160604
678.921	0.0160446
678.999	0.0159255
679.078	0.0159839
679.156	0.0160490
679.234	0.0158535
679.312	0.0158405
679.390	0.0159538
679.468	0.0159882
679.546	0.0160254
679.624	0.0159638
679.703	0.0159756
679.781	0.0158907
679.859	0.0159224
679.937	0.0159668
680.015	0.0160411
680.093	0.0159406
680.171	0.0159325
680.249	0.0159372
680.328	0.0160827
680.406	0.0159122
680.484	0.0159004
680.562	0.0159133
680.640	0.0158761
680.718	0.0157896
680.796	0.0159627
680.874	0.0159769
680.953	0.0160008
681.031	0.0159016
681.109	0.0160085
681.187	0.0158685
681.265	0.0159547
681.343	0.0160675
681.421	0.0160169
681.499	0.0160041
681.578	0.0160883
681.656	0.0160185
681.734	0.0160275
681.812	0.0159315
681.890	0.0159586
681.968	0.0159018
682.046	0.0160670
682.124	0.0159155
682.203	0.0159084
682.281	0.0160503
682.359	0.0159266
682.437	0.0159062
682.515	0.0160243
682.593	0.0159026
682.671	0.0159729
682.749	0.0159601
682.828	0.0159414
682.906	0.0159959
682.984	0.0159204
683.062	0.0159270
683.140	0.0157907
683.218	0.0158200
683.296	0.0158141
683.374	0.0158149
683.453	0.0159321
683.531	0.0158376
683.609	0.0159035
683.687	0.0159219
683.765	0.0159250
683.843	0.0158977
683.921	0.0159502
683.999	0.0159402
684.078	0.0157592
684.156	0.0159316
684.234	0.0159908
684.312	0.0159256
684.390	0.0158392
684.468	0.0158309
684.546	0.0159115
684.624	0.0159636
684.703	0.0159515
684.781	0.0158505
684.859	0.0158592
684.937	0.0159394
685.015	0.0158687
685.093	0.0158619
685.171	0.0160401
685.249	0.0157971
685.328	0.0158153
685.406	0.0158954
685.484	0.0158871
685.562	0.0158183
685.640	0.0158878
685.718	0.0158496
685.796	0.0159752
685.874	0.0158970
685.953	0.0158029
686.031	0.0158864
686.109	0.0158279
686.187	0.0159152
686.265	0.0159344
686.343	0.0159453
686.421	0.0159223
686.499	0.0159002
686.578	0.0158578
686.656	0.0159910
686.734	0.0158882
686.812	0.0157669
686.890	0.0158858
686.968	0.0159806
687.046	0.0159620
687.124	0.0159985
687.203	0.0158737
687.281	0.0158384
687.359	0.0158782
687.437	0.0158436
687.515	0.0159422
687.593	0.0158089
687.671	0.0160177
687.749	0.0160097
687.828	0.0157677
687.906	0.0159330
687.984	0.0159010
688.062	0.0158010
688.140	0.0158973
688.218	0.0158851
688.296	0.0158472
688.374	0.0158477
688.453	0.0158581
688.531	0.0159521
688.609	0.0158324
688.687	0.0158586
688.765	0.0158216
688.843	0.0157494
688.921	0.0159075
688.999	0.0158029
689.078	0.0159280
689.156	0.0159158
689.234	0.0158411
689.312	0.0158875
689.390	0.0158716
689.468	0.0158481
689.546	0.0157497
689.624	0.0159853
689.703	0.0158781
689.781	0.0157885
689.859	0.0158635
689.937	0.0158009
690.015	0.0158755
690.093	0.0157345
690.171	0.0158226
690.249	0.0158121
690.328	0.0158258
690.406	0.0158524
690.484	0.0158807
690.562	0.0158133
690.640	0.0158654
690.718	0.0157261
690.796	0.0159386
690.874	0.0158045
690.953	0.0159045
691.031	0.0158556
691.109	0.0157421
691.187	0.0157813
691.265	0.0157647
691.343	0.0158264
691.421	0.0158526
691.499	0.0158618
691.578	0.0159032
691.656	0.0157675
691.734	0.0157544
691.812	0.0159072
691.890	0.0159459
691.968	0.0158595
692.046	0.0158961
692.124	0.0158344
692.203	0.0156753
692.281	0.0159154
692.359	0.0159483
692.437	0.0159179
692.515	0.0157616
692.593	0.0158409
692.671	0.0158807
692.749	0.0158765
692.828	0.0159320
692.906	0.0157979
692.984	0.0156438
693.062	0.0159603
693.140	0.0159682
693.218	0.0157913
693.296	0.0157879
693.374	0.0159328
693.453	0.0158958
693.531	0.0159273
693.609	0.0159178
693.687	0.0158720
693.765	0.0158692
693.843	0.0158065
693.921	0.0158170
693.999	0.0159542
694.078	0.0158542
694.156	0.0159643
694.234	0.0159449
694.312	0.0158335
694.390	0.0157992
694.468	0.0158536
694.546	0.0158994
694.624	0.0159715
694.703	0.0157481
694.781	0.0158288
694.859	0.0160899
694.937	0.0159735
695.015	0.0159290
695.093	0.0158496
695.171	0.0158104
695.249	0.0159191
695.328	0.0159416
695.406	0.0158997
695.484	0.0158131
695.562	0.0159457
695.640	0.0158770
695.718	0.0159574
695.796	0.0158988
695.874	0.0158792
695.953	0.0157745
696.031	0.0158882
696.109	0.0160106
696.187	0.0158736
696.265	0.0158315
696.343	0.0160535
696.421	0.0159822
696.499	0.0157957
696.578	0.0158295
696.656	0.0158330
696.734	0.0158247
696.812	0.0158360
696.890	0.0159105
696.968	0.0159011
697.046	0.0158365
697.124	0.0158369
697.203	0.0159694
697.281	0.0158580
697.359	0.0158561
697.437	0.0158125
697.515	0.0158028
697.593	0.0159138
697.671	0.0159296
697.749	0.0159261
697.828	0.0159034
697.906	0.0158335
697.984	0.0160258
698.062	0.0158802
698.140	0.0158284
698.218	0.0158406
698.296	0.0159514
698.374	0.0160282
698.453	0.0159155
698.531	0.0157901
698.609	0.0157908
698.687	0.0157603
698.765	0.0158546
698.843	0.0157715
698.921	0.0158153
698.999	0.0158091
699.078	0.0158270
699.156	0.0159313
699.234	0.0160932
699.312	0.0158528
699.390	0.0158895
699.468	0.0159158
699.546	0.0159139
699.624	0.0159897
699.703	0.0158422
699.781	0.0158593
699.859	0.0160249
699.937	0.0158480
700.015	0.0158854
700.093	0.0159207
700.171	0.0158680
700.249	0.0157781
700.328	0.0157726
700.406	0.0158116
700.484	0.0158227
700.562	0.0159473
700.640	0.0157216
700.718	0.0159106
700.796	0.0158794
700.874	0.0158844
700.953	0.0159099
701.031	0.0159850
701.109	0.0160169
701.187	0.0160870
701.265	0.0157502
701.343	0.0158906
701.421	0.0158908
701.499	0.0158826
701.578	0.0159648
701.656	0.0159494
701.734	0.0158733
701.812	0.0159888
701.890	0.0160812
701.968	0.0160202
702.046	0.0160410
702.124	0.0160464
702.203	0.0159668
702.281	0.0160718
702.359	0.0160633
702.437	0.0160931
702.515	0.0158851
702.593	0.0161669
702.671	0.0160376
702.749	0.0160928
702.828	0.0160403
702.906	0.0160315
702.984	0.0160503
703.062	0.0158583
703.140	0.0158372
703.218	0.0159879
703.296	0.0158723
703.374	0.0158140
703.453	0.0158745
703.531	0.0157864
703.609	0.0159489
703.687	0.0158494
703.765	0.0156958
703.843	0.0158037
703.921	0.0157753
703.999	0.0159574
704.078	0.0158047
704.156	0.0157906
704.234	0.0158440
704.312	0.0158047
704.390	0.0159164
704.468	0.0158698
704.546	0.0158781
704.624	0.0160236
704.703	0.0159174
704.781	0.0158142
704.859	0.0160242
704.937	0.0159495
705.015	0.0159943
705.093	0.0160491
705.171	0.0159419
705.249	0.0159776
705.328	0.0159700
705.406	0.0158977
705.484	0.0158791
705.562	0.0160149
705.640	0.0160002
705.718	0.0159375
705.796	0.0159330
705.874	0.0159718
705.953	0.0158427
706.031	0.0159946
706.109	0.0159600
706.187	0.0159412
706.265	0.0158611
706.343	0.0158882
706.421	0.0158543
706.499	0.0159594
706.578	0.0158621
706.656	0.0159509
706.734	0.0160085
706.812	0.0159064
706.890	0.0159443
706.968	0.0159064
707.046	0.0158602
707.124	0.0159297
707.203	0.0159034
707.281	0.0159380
707.359	0.0157655
707.437	0.0158426
707.515	0.0159619
707.593	0.0159373
707.671	0.0159168
707.749	0.0157811
707.828	0.0159263
707.906	0.0157887
707.984	0.0159335
708.062	0.0158477
708.140	0.0156654
708.218	0.0159224
708.296	0.0159789
708.374	0.0157523
708.453	0.0159238
708.531	0.0157896
708.609	0.0159929
708.687	0.0159565
708.765	0.0159358
708.843	0.0159586
708.921	0.0161272
708.999	0.0160088
709.078	0.0159780
709.156	0.0159567
709.234	0.0160183
709.312	0.0160782
709.390	0.0159888
709.468	0.0159881
709.546	0.0160638
709.624	0.0159328
709.703	0.0160660
709.781	0.0160460
709.859	0.0160540
709.937	0.0158702
710.015	0.0160733
710.093	0.0157755
710.171	0.0158405
710.249	0.0159379
710.328	0.0159344
710.406	0.0158446
710.484	0.0157497
710.562	0.0157630
710.640	0.0157053
710.718	0.0157431
710.796	0.0155821
710.874	0.0158382
710.953	0.0157419
711.031	0.0157137
711.109	0.0157111
711.187	0.0157628
711.265	0.0158668
711.343	0.0156720
711.421	0.0158277
711.499	0.0158785
711.578	0.0158381
711.656	0.0159075
711.734	0.0158848
711.812	0.0157450
711.890	0.0157426
711.968	0.0156990
712.046	0.0158590
712.124	0.0158426
712.203	0.0158418
712.281	0.0157248
712.359	0.0158031
712.437	0.0158564
712.515	0.0158061
712.593	0.0159021
712.671	0.0159208
712.749	0.0158124
712.828	0.0158516
712.906	0.0159407
712.984	0.0158996
713.062	0.0159093
713.140	0.0158929
713.218	0.0159194
713.296	0.0158183
713.374	0.0159202
713.453	0.0161089
713.531	0.0159426
713.609	0.0159635
713.687	0.0159011
713.765	0.0158524
713.843	0.0160738
713.921	0.0159796
713.999	0.0159102
714.078	0.0158833
714.156	0.0158369
714.234	0.0158221
714.312	0.0158366
714.390	0.0158807
714.468	0.0158293
714.546	0.0158297
714.624	0.0156722
714.703	0.0158585
714.781	0.0157301
714.859	0.0157207
714.937	0.0157357
715.015	0.0158074
715.093	0.0158303
715.171	0.0157604
715.249	0.0159152
715.328	0.0158596
715.406	0.0159357
715.484	0.0158466
715.562	0.0159135
715.640	0.0160056
715.718	0.0157809
715.796	0.0158748
715.874	0.0158802
715.953	0.0159950
716.031	0.0159136
716.109	0.0157703
716.187	0.0160085
716.265	0.0159166
716.343	0.0158147
716.421	0.0159103
716.499	0.0159461
716.578	0.0159911
716.656	0.0158913
716.734	0.0158656
716.812	0.0159115
716.890	0.0159810
716.968	0.0159901
717.046	0.0160058
717.124	0.0159657
717.203	0.0158711
717.281	0.0159371
717.359	0.0158311
717.437	0.0159766
717.515	0.0158953
717.593	0.0160025
717.671	0.0159772
717.749	0.0160043
717.828	0.0160345
717.906	0.0161328
717.984	0.0161026
718.062	0.0158671
718.140	0.0159348
718.218	0.0160843
718.296	0.0159629
718.374	0.0159875
718.453	0.0159254
718.531	0.0158772
718.609	0.0159619
718.687	0.0159005
718.765	0.0158911
718.843	0.0160411
718.921	0.0159003
718.999	0.0159621
719.078	0.0159713
719.156	0.0159048
719.234	0.0159006
719.312	0.0158728
719.390	0.0158846
719.468	0.0159658
719.546	0.0160863
719.624	0.0158512
719.703	0.0159795
719.781	0.0157728
719.859	0.0157698
719.937	0.0158668
720.015	0.0157360
720.093	0.0158364
720.171	0.0157764
720.249	0.0158868
720.328	0.0160711
720.406	0.0159914
720.484	0.0159554
720.562	0.0160773
720.640	0.0161073
720.718	0.0161616
720.796	0.0162243
720.874	0.0162538
720.953	0.0162054
721.031	0.0162714
721.109	0.0161794
721.187	0.0161239
721.265	0.0160781
721.343	0.0161940
721.421	0.0161462
721.499	0.0159948
721.578	0.0159102
721.656	0.0157085
721.734	0.0156342
721.812	0.0158582
721.890	0.0158060
721.968	0.0158207
722.046	0.0155697
722.124	0.0156488
722.203	0.0156309
722.281	0.0157111
722.359	0.0158868
722.437	0.0158469
722.515	0.0159468
722.593	0.0159911
722.671	0.0159103
722.749	0.0161681
722.828	0.0161366
722.906	0.0161240
722.984	0.0161682
723.062	0.0162519
723.140	0.0161930
723.218	0.0161207
723.296	0.0162499
723.374	0.0163035
723.453	0.0161591
723.531	0.0160373
723.609	0.0160526
723.687	0.0160157
723.765	0.0157779
723.843	0.0157742
723.921	0.0159014
723.999	0.0157722
724.078	0.0156325
724.156	0.0157483
724.234	0.0156662
724.312	0.0156976
724.390	0.0157544
724.468	0.0157558
724.546	0.0158442
724.624	0.0158250
724.703	0.0157764
724.781	0.0158268
724.859	0.0158936
724.937	0.0158537
725.015	0.0159949
725.093	0.0160648
725.171	0.0159296
725.249	0.0161279
725.328	0.0161907
725.406	0.0161243
725.484	0.0160573
725.562	0.0159006
725.640	0.0159373
725.718	0.0159024
725.796	0.0159440
725.874	0.0158289
725.953	0.0158697
726.031	0.0159134
726.109	0.0158239
726.187	0.0157401
726.265	0.0158820
726.343	0.0157098
726.421	0.0156060
726.499	0.0158652
726.578	0.0157491
726.656	0.0157761
726.734	0.0158257
726.812	0.0157798
726.890	0.0157651
726.968	0.0159464
727.046	0.0159389
727.124	0.0159310
727.203	0.0158999
727.281	0.0161106
727.359	0.0159454
727.437	0.0159351
727.515	0.0159974
727.593	0.0159092
727.671	0.0158942
727.749	0.0161513
727.828	0.0161097
727.906	0.0161276
727.984	0.0159729
728.062	0.0160605
728.140	0.0160062
728.218	0.0158813
728.296	0.0159478
728.374	0.0159493
728.453	0.0159801
728.531	0.0159283
728.609	0.0158531
728.687	0.0158758
728.765	0.0159286
728.843	0.0158652
728.921	0.0159062
728.999	0.0159118
729.078	0.0158413
729.156	0.0158365
729.234	0.0159356
729.312	0.0160199
729.390	0.0159242
729.468	0.0158456
729.546	0.0160238
729.624	0.0159134
729.703	0.0158680
729.781	0.0159957
729.859	0.0160455
729.937	0.0159828
730.015	0.0159087
730.093	0.0159781
730.171	0.0159319
730.249	0.0160426
730.328	0.0159093
730.406	0.0160080
730.484	0.0160120
730.562	0.0159118
730.640	0.0159692
730.718	0.0159407
730.796	0.0159101
730.874	0.0159334
730.953	0.0157321
731.031	0.0160407
731.109	0.0160060
731.187	0.0161322
731.265	0.0160027
731.343	0.0158248
731.421	0.0158281
731.499	0.0159903
731.578	0.0160455
731.656	0.0160517
731.734	0.0159728
731.812	0.0160057
731.890	0.0159655
731.968	0.0160485
732.046	0.0159554
732.124	0.0158781
732.203	0.0160084
732.281	0.0160248
732.359	0.0160983
732.437	0.0160374
732.515	0.0159610
732.593	0.0159525
732.671	0.0159157
732.749	0.0159832
732.828	0.0159840
732.906	0.0159576
732.984	0.0159327
733.062	0.0159651
733.140	0.0159626
733.218	0.0157300
733.296	0.0158237
733.374	0.0158976
733.453	0.0158485
733.531	0.0159476
733.609	0.0158557
733.687	0.0157733
733.765	0.0158363
733.843	0.0158826
733.921	0.0159167
733.999	0.0158409
734.078	0.0159295
734.156	0.0158753
734.234	0.0159253
734.312	0.0161265
734.390	0.0159039
734.468	0.0159376
734.546	0.0159445
734.624	0.0159570
734.703	0.0159351
734.781	0.0159732
734.859	0.0159474
734.937	0.0160572
735.015	0.0159495
735.093	0.0159550
735.171	0.0160625
735.249	0.0160830
735.328	0.0158930
735.406	0.0158611
735.484	0.0159354
735.562	0.0158027
735.640	0.0159038
735.718	0.0160704
735.796	0.0160306
735.874	0.0159839
735.953	0.0158898
736.031	0.0158820
736.109	0.0159015
736.187	0.0160596
736.265	0.0159621
736.343	0.0160253
736.421	0.0160305
736.499	0.0159508
736.578	0.0159598
736.656	0.0159015
736.734	0.0160050
736.812	0.0159258
736.890	0.0159496
736.968	0.0159616
737.046	0.0159423
737.124	0.0158923
737.203	0.0159036
737.281	0.0160009
737.359	0.0158503
737.437	0.0158871
737.515	0.0157595
737.593	0.0158460
737.671	0.0158476
737.749	0.0159445
737.828	0.0158891
737.906	0.0157264
737.984	0.0159912
738.062	0.0158608
738.140	0.0158221
738.218	0.0158678
738.296	0.0159108
738.374	0.0158687
738.453	0.0158400
738.531	0.0157989
738.609	0.0158480
738.687	0.0156926
738.765	0.0159102
738.843	0.0160173
738.921	0.0158307
738.999	0.0159605
739.078	0.0159435
739.156	0.0159458
739.234	0.0159563
739.312	0.0159727
739.390	0.0158548
739.468	0.0160038
739.546	0.0158591
739.624	0.0158109
739.703	0.0159927
739.781	0.0160787
739.859	0.0159633
739.937	0.0160413
740.015	0.0159452
740.093	0.0159608
740.171	0.0160828
740.249	0.0159203
740.328	0.0158642
740.406	0.0159179
740.484	0.0159410
740.562	0.0159402
740.640	0.0158543
740.718	0.0160437
740.796	0.0159868
740.874	0.0159591
740.953	0.0158715
741.031	0.0160269
741.109	0.0160351
741.187	0.0158420
741.265	0.0159550
741.343	0.0159439
741.421	0.0157797
741.499	0.0158984
741.578	0.0160027
741.656	0.0160334
741.734	0.0159162
741.812	0.0159702
741.890	0.0158904
741.968	0.0160533
742.046	0.0159621
742.124	0.0159146
742.203	0.0159354
742.281	0.0158795
742.359	0.0159494
742.437	0.0158714
742.515	0.0159602
742.593	0.0159238
742.671	0.0158998
742.749	0.0159892
742.828	0.0158144
742.906	0.0158771
742.984	0.0159258
743.062	0.0158996
743.140	0.0158219
743.218	0.0160156
743.296	0.0159634
743.374	0.0159535
743.453	0.0159694
743.531	0.0160513
743.609	0.0158655
743.687	0.0160053
743.765	0.0160812
743.843	0.0160149
743.921	0.0161013
743.999	0.0160662
744.078	0.0158347
744.156	0.0159603
744.234	0.0159403
744.312	0.0158705
744.390	0.0159726
744.468	0.0159559
744.546	0.0160287
744.624	0.0160038
744.703	0.0160809
744.781	0.0159135
744.859	0.0159407
744.937	0.0158976
745.015	0.0158604
745.093	0.0159631
745.171	0.0158664
745.249	0.0159888
745.328	0.0159438
745.406	0.0158685
745.484	0.0159583
745.562	0.0158963
745.640	0.0160460
745.718	0.0157915
745.796	0.0157777
745.874	0.0159920
745.953	0.0159482
746.031	0.0158855
746.109	0.0159335
746.187	0.0158625
746.265	0.0159592
746.343	0.0160451
746.421	0.0159198
746.499	0.0160292
746.578	0.0159614
746.656	0.0157732
746.734	0.0159066
746.812	0.0159029
746.890	0.0158566
746.968	0.0160254
747.046	0.0160324
747.124	0.0160122
747.203	0.0159799
747.281	0.0158331
747.359	0.0158631
747.437	0.0158643
747.515	0.0159232
747.593	0.0158876
747.671	0.0160020
747.749	0.0159138
747.828	0.0159334
747.906	0.0159496
747.984	0.0159357
748.062	0.0160680
748.140	0.0160146
748.218	0.0159468
748.296	0.0159280
748.374	0.0160739
748.453	0.0160915
748.531	0.0160884
748.609	0.0158616
748.687	0.0159545
748.765	0.0160375
748.843	0.0160075
748.921	0.0158904
748.999	0.0160481
749.078	0.0161020
749.156	0.0158083
749.234	0.0159502
749.312	0.0161015
749.390	0.0159295
749.468	0.0159734
749.546	0.0160715
749.624	0.0160029
749.703	0.0158978
749.781	0.0158228
749.859	0.0159730
749.937	0.0159476
750.015	0.0158279
750.093	0.0159754
750.171	0.0158703
750.249	0.0160138
750.328	0.0159774
750.406	0.0158752
750.484	0.0158253
750.562	0.0159822
750.640	0.0160390
750.718	0.0159027
750.796	0.0159634
750.874	0.0160204
750.953	0.0159424
751.031	0.0160338
751.109	0.0160250
751.187	0.0159594
751.265	0.0158958
751.343	0.0158975
751.421	0.0159752
751.499	0.0158705
751.578	0.0159895
751.656	0.0159949
751.734	0.0159968
751.812	0.0159812
751.890	0.0158674
751.968	0.0159363
752.046	0.0158666
752.124	0.0160880
752.203	0.0159745
752.281	0.0159332
752.359	0.0160964
752.437	0.0161648
752.515	0.0160568
752.593	0.0158804
752.671	0.0158769
752.749	0.0159708
752.828	0.0161133
752.906	0.0160502
752.984	0.0159560
753.062	0.0159244
753.140	0.0159198
753.218	0.0158486
753.296	0.0158356
753.374	0.0158952
753.453	0.0158112
753.531	0.0160736
753.609	0.0158855
753.687	0.0158766
753.765	0.0158781
753.843	0.0159235
753.921	0.0160141
753.999	0.0160188
754.078	0.0159606
754.156	0.0159709
754.234	0.0159264
754.312	0.0160043
754.390	0.0159485
754.468	0.0159299
754.546	0.0159343
754.624	0.0161175
754.703	0.0158795
754.781	0.0160470
754.859	0.0159541
754.937	0.0159756
755.015	0.0159423
755.093	0.0158141
755.171	0.0160335
755.249	0.0159106
755.328	0.0158025
755.406	0.0158075
755.484	0.0158771
755.562	0.0157030
755.640	0.0159048
755.718	0.0159138
755.796	0.0159217
755.874	0.0159277
755.953	0.0158790
756.031	0.0159206
756.109	0.0159674
756.187	0.0160265
756.265	0.0159972
756.343	0.0159584
756.421	0.0160215
756.499	0.0160976
756.578	0.0162434
756.656	0.0160958
756.734	0.0161349
756.812	0.0160980
756.890	0.0160043
756.968	0.0159015
757.046	0.0158881
757.124	0.0158591
757.203	0.0158826
757.281	0.0158841
757.359	0.0157644
757.437	0.0158460
757.515	0.0158049
757.593	0.0158486
757.671	0.0157601
757.749	0.0158347
757.828	0.0158920
757.906	0.0158657
757.984	0.0159260
758.062	0.0158955
758.140	0.0159477
758.218	0.0159634
758.296	0.0159544
758.374	0.0159361
758.453	0.0159673
758.531	0.0160579
758.609	0.0161047
758.687	0.0159908
758.765	0.0162624
758.843	0.0161638
758.921	0.0162186
758.999	0.0161801
759.078	0.0161150
759.156	0.0161153
759.234	0.0161607
759.312	0.0161076
759.390	0.0161091
759.468	0.0159734
759.546	0.0159623
759.624	0.0157673
759.703	0.0158901
759.781	0.0159724
759.859	0.0159474
759.937	0.0158200
760.015	0.0158112
760.093	0.0157114
760.171	0.0158251
760.249	0.0157886
760.328	0.0158858
760.406	0.0156847
760.484	0.0156555
760.562	0.0156569
760.640	0.0155981
760.718	0.0155439
760.796	0.0154714
760.874	0.0156403
760.953	0.0155807
761.031	0.0155643
761.109	0.0156055
761.187	0.0156205
761.265	0.0156765
761.343	0.0158604
761.421	0.0158703
761.499	0.0158657
761.578	0.0158359
761.656	0.0161263
761.734	0.0161669
761.812	0.0159809
761.890	0.0162011
761.968	0.0161995
762.046	0.0161797
762.124	0.0162129
762.203	0.0161652
762.281	0.0159505
762.359	0.0161243
762.437	0.0161401
762.515	0.0160468
762.593	0.0160246
762.671	0.0160056
762.749	0.0160158
762.828	0.0160044
762.906	0.0160051
762.984	0.0159727
763.062	0.0159155
763.140	0.0158122
763.218	0.0158953
763.296	0.0158971
763.374	0.0158028
763.453	0.0156956
763.531	0.0156945
763.609	0.0154843
763.687	0.0155530
763.765	0.0156165
763.843	0.0156316
763.921	0.0155186
763.999	0.0154502
764.078	0.0155613
764.156	0.0156790
764.234	0.0154908
764.312	0.0156705
764.390	0.0157946
764.468	0.0156635
764.546	0.0157203
764.624	0.0157169
764.703	0.0158151
764.781	0.0159000
764.859	0.0159266
764.937	0.0158810
765.015	0.0160915
765.093	0.0160865
765.171	0.0159100
765.249	0.0161234
765.328	0.0162770
765.406	0.0161652
765.484	0.0161210
765.562	0.0161423
765.640	0.0160529
765.718	0.0160111
765.796	0.0159255
765.874	0.0159666
765.953	0.0159213
766.031	0.0159725
766.109	0.0160175
766.187	0.0158699
766.265	0.0158921
766.343	0.0160206
766.421	0.0160154
766.499	0.0157927
766.578	0.0158014
766.656	0.0158246
766.734	0.0158197
766.812	0.0158373
766.890	0.0157690
766.968	0.0156835
767.046	0.0156597
767.124	0.0154809
767.203	0.0156334
767.281	0.0155367
767.359	0.0155292
767.437	0.0156435
767.515	0.0155156
767.593	0.0155256
767.671	0.0156767
767.749	0.0156343
767.828	0.0157009
767.906	0.0156020
767.984	0.0157943
768.062	0.0158085
768.140	0.0159550
768.218	0.0160419
768.296	0.0160225
768.374	0.0161749
768.453	0.0161858
768.531	0.0161604
768.609	0.0162767
768.687	0.0163682
768.765	0.0164046
768.843	0.0165965
768.921	0.0164282
768.999	0.0164184
769.078	0.0163763
769.156	0.0162939
769.234	0.0163835
769.312	0.0161440
769.390	0.0160677
769.468	0.0161431
769.546	0.0161324
769.624	0.0158905
769.703	0.0158468
769.781	0.0156609
769.859	0.0157545
769.937	0.0157088
770.015	0.0154982
770.093	0.0155217
770.171	0.0155387
770.249	0.0156485
770.328	0.0157042
770.406	0.0156012
770.484	0.0155301
770.562	0.0155556
770.640	0.0156203
770.718	0.0155110
770.796	0.0155699
770.874	0.0156891
770.953	0.0156091
771.031	0.0157422
771.109	0.0157239
771.187	0.0158752
771.265	0.0158588
771.343	0.0159109
771.421	0.0159902
771.499	0.0159364
771.578	0.0159771
771.656	0.0159379
771.734	0.0160133
771.812	0.0160465
771.890	0.0158286
771.968	0.0159380
772.046	0.0158480
772.124	0.0160484
772.203	0.0160918
772.281	0.0160865
772.359	0.0161228
772.437	0.0160214
772.515	0.0162565
772.593	0.0163179
772.671	0.0162643
772.749	0.0162404
772.828	0.0162558
772.906	0.0164056
772.984	0.0162936
773.062	0.0163202
773.140	0.0162392
773.218	0.0162176
773.296	0.0161989
773.374	0.0162466
773.453	0.0161861
773.531	0.0161039
773.609	0.0157998
773.687	0.0160635
773.765	0.0159586
773.843	0.0158492
773.921	0.0158765
773.999	0.0156924
774.078	0.0156181
774.156	0.0156972
774.234	0.0155769
774.312	0.0157188
774.390	0.0156489
774.468	0.0155649
774.546	0.0156946
774.624	0.0157423
774.703	0.0157803
774.781	0.0157078
774.859	0.0157402
774.937	0.0158731
775.015	0.0159019
775.093	0.0159009
775.171	0.0157189
775.249	0.0158088
775.328	0.0158578
775.406	0.0158329
775.484	0.0158920
775.562	0.0158634
775.640	0.0158755
775.718	0.0161002
775.796	0.0160424
775.874	0.0160494
775.953	0.0160808
776.031	0.0160369
776.109	0.0159773
776.187	0.0159181
776.265	0.0158945
776.343	0.0160838
776.421	0.0159867
776.499	0.0157124
776.578	0.0160468
776.656	0.0159698
776.734	0.0160685
776.812	0.0159802
776.890	0.0161435
776.968	0.0162259
777.046	0.0162084
777.124	0.0162708
777.203	0.0160657
777.281	0.0161108
777.359	0.0162238
777.437	0.0162086
777.515	0.0160227
777.593	0.0160580
777.671	0.0158952
777.749	0.0160216
777.828	0.0159316
777.906	0.0158332
777.984	0.0157572
778.062	0.0158414
778.140	0.0157150
778.218	0.0157855
778.296	0.0157990
778.374	0.0156670
778.453	0.0157207
778.531	0.0156985
778.609	0.0157202
778.687	0.0156741
778.765	0.0158762
778.843	0.0158334
778.921	0.0158819
778.999	0.0158991
779.078	0.0159897
779.156	0.0160825
779.234	0.0162093
779.312	0.0163622
779.390	0.0163764
779.468	0.0163512
779.546	0.0164787
779.624	0.0163841
779.703	0.0163590
779.781	0.0161954
779.859	0.0161922
779.937	0.0160106
780.015	0.0158547
780.093	0.0160078
780.171	0.0158616
780.249	0.0156054
780.328	0.0155368
780.406	0.0155181
780.484	0.0155019
780.562	0.0154633
780.640	0.0154662
780.718	0.0154870
780.796	0.0154254
780.874	0.0153711
780.953	0.0155287
781.031	0.0153241
781.109	0.0152480
781.187	0.0153638
781.265	0.0154511
781.343	0.0154225
781.421	0.0155927
781.499	0.0156082
781.578	0.0156512
781.656	0.0157283
781.734	0.0157749
781.812	0.0159394
781.890	0.0159285
781.968	0.0159711
782.046	0.0160818
782.124	0.0161238
782.203	0.0161172
782.281	0.0162057
782.359	0.0163524
782.437	0.0161531
782.515	0.0162330
782.593	0.0164230
782.671	0.0162511
782.749	0.0163299
782.828	0.0163065
782.906	0.0163789
782.984	0.0163107
783.062	0.0162498
783.140	0.0163213
783.218	0.0161864
783.296	0.0163019
783.374	0.0162188
783.453	0.0161837
783.531	0.0160950
783.609	0.0160649
783.687	0.0159029
783.765	0.0159555
783.843	0.0158370
783.921	0.0158002
783.999	0.0157445
784.078	0.0157277
784.156	0.0155454
784.234	0.0154964
784.312	0.0154794
784.390	0.0153414
784.468	0.0152978
784.546	0.0152977
784.624	0.0153170
784.703	0.0153386
784.781	0.0154272
784.859	0.0152655
784.937	0.0153983
785.015	0.0153417
785.093	0.0153702
785.171	0.0154600
785.249	0.0156711
785.328	0.0155565
785.406	0.0156179
785.484	0.0157369
785.562	0.0156558
785.640	0.0157148
785.718	0.0157109
785.796	0.0158804
785.874	0.0158873
785.953	0.0160191
786.031	0.0160629
786.109	0.0159742
786.187	0.0159052
786.265	0.0160278
786.343	0.0160308
786.421	0.0159219
786.499	0.0159747
786.578	0.0159444
786.656	0.0160102
786.734	0.0159389
786.812	0.0160390
786.890	0.0160633
786.968	0.0160792
787.046	0.0161128
787.124	0.0161386
787.203	0.0160287
787.281	0.0161375
787.359	0.0162140
787.437	0.0162414
787.515	0.0161879
787.593	0.0162605
787.671	0.0162771
787.749	0.0162579
787.828	0.0161265
787.906	0.0160054
787.984	0.0160052
788.062	0.0159924
788.140	0.0158803
788.218	0.0158773
788.296	0.0158141
788.374	0.0157024
788.453	0.0157412
788.531	0.0158018
788.609	0.0158346
788.687	0.0157204
788.765	0.0156599
788.843	0.0158643
788.921	0.0158980
788.999	0.0159812
789.078	0.0158138
789.156	0.0158797
789.234	0.0158702
789.312	0.0159458
789.390	0.0158973
789.468	0.0160006
789.546	0.0161202
789.624	0.0160915
789.703	0.0159283
789.781	0.0159692
789.859	0.0158674
789.937	0.0157484
790.015	0.0156242
790.093	0.0155407
790.171	0.0155469
790.249	0.0154006
790.328	0.0152821
790.406	0.0153417
790.484	0.0153545
790.562	0.0152387
790.640	0.0153983
790.718	0.0153940
790.796	0.0153412
790.874	0.0154356
790.953	0.0154782
791.031	0.0156764
791.109	0.0154568
791.187	0.0156377
791.265	0.0157490
791.343	0.0158156
791.421	0.0158932
791.499	0.0160244
791.578	0.0161810
791.656	0.0162370
791.734	0.0163651
791.812	0.0164028
791.890	0.0164037
791.968	0.0164043
792.046	0.0164681
792.124	0.0165874
792.203	0.0164809
792.281	0.0164895
792.359	0.0165070
792.437	0.0164592
792.515	0.0165221
792.593	0.0165168
792.671	0.0164540
792.749	0.0164339
792.828	0.0163910
792.906	0.0164778
792.984	0.0164476
793.062	0.0163884
793.140	0.0164253
793.218	0.0162522
793.296	0.0163834
793.374	0.0161022
793.453	0.0160160
793.531	0.0158824
793.609	0.0157968
793.687	0.0158143
793.765	0.0157623
793.843	0.0156714
793.921	0.0155762
793.999	0.0155418
794.078	0.0154329
794.156	0.0154245
794.234	0.0153768
794.312	0.0153318
794.390	0.0153938
794.468	0.0154263
794.546	0.0152830
794.624	0.0154475
794.703	0.0155352
794.781	0.0154323
794.859	0.0155350
794.937	0.0156908
795.015	0.0155882
795.093	0.0157528
795.171	0.0157261
795.249	0.0157965
795.328	0.0158825
795.406	0.0158628
795.484	0.0158942
795.562	0.0159311
795.640	0.0160048
795.718	0.0158578
795.796	0.0157597
795.874	0.0160805
795.953	0.0158186
796.031	0.0158510
796.109	0.0158878
796.187	0.0159717
796.265	0.0157975
796.343	0.0158772
796.421	0.0159002
796.499	0.0159171
796.578	0.0160446
796.656	0.0160393
796.734	0.0162175
796.812	0.0161442
796.890	0.0162333
796.968	0.0163269
797.046	0.0165620
797.124	0.0165735
797.203	0.0167466
797.281	0.0166953
797.359	0.0167265
797.437	0.0167200
797.515	0.0167101
797.593	0.0167336
797.671	0.0167481
797.749	0.0166750
797.828	0.0166198
797.906	0.0165251
797.984	0.0164236
798.062	0.0162458
798.140	0.0162486
798.218	0.0161147
798.296	0.0160845
798.374	0.0160221
798.453	0.0159626
798.531	0.0159817
798.609	0.0157417
798.687	0.0156740
798.765	0.0156394
798.843	0.0155212
798.921	0.0152773
798.999	0.0154094
799.078	0.0152360
799.156	0.0151154
799.234	0.0148795
799.312	0.0150417
799.390	0.0150596
799.468	0.0149442
799.546	0.0149471
799.624	0.0149914
799.703	0.0149525
799.781	0.0150935
799.859	0.0152560
799.937	0.0153038
800.015	0.0152951
800.093	0.0153688
800.171	0.0155263
800.249	0.0157280
800.328	0.0157237
800.406	0.0158475
800.484	0.0159014
800.562	0.0160899
800.640	0.0161419
800.718	0.0162961
800.796	0.0163237
800.874	0.0163766
800.953	0.0164539
801.031	0.0165614
801.109	0.0165620
801.187	0.0166467
801.265	0.0165216
801.343	0.0166365
801.421	0.0167387
801.499	0.0167644
801.578	0.0167708
801.656	0.0169676
801.734	0.0167675
801.812	0.0167490
801.890	0.0168298
801.968	0.0168651
802.046	0.0167564
802.124	0.0166069
802.203	0.0164605
802.281	0.0163400
802.359	0.0163754
802.437	0.0161014
802.515	0.0160865
802.593	0.0160174
802.671	0.0158846
802.749	0.0157062
802.828	0.0157567
802.906	0.0157519
802.984	0.0156219
803.062	0.0156540
803.140	0.0155670
803.218	0.0155581
803.296	0.0156072
803.374	0.0156067
803.453	0.0156467
803.531	0.0156503
803.609	0.0155457
803.687	0.0156168
803.765	0.0155433
803.843	0.0156636
803.921	0.0155882
803.999	0.0155906
804.078	0.0154542
804.156	0.0154722
804.234	0.0155679
804.312	0.0155802
804.390	0.0155723
804.468	0.0155041
804.546	0.0155087
804.624	0.0153979
804.703	0.0155444
804.781	0.0156429
804.859	0.0155981
804.937	0.0155602
805.015	0.0155511
805.093	0.0156406
805.171	0.0156682
805.249	0.0157588
805.328	0.0157618
805.406	0.0157954
805.484	0.0158093
805.562	0.0160201
805.640	0.0160385
805.718	0.0161835
805.796	0.0162321
805.874	0.0164101
805.953	0.0164243
806.031	0.0163020
806.109	0.0165175
806.187	0.0164415
806.265	0.0166785
806.343	0.0165310
806.421	0.0162895
806.499	0.0165450
806.578	0.0165694
806.656	0.0164243
806.734	0.0165173
806.812	0.0164874
806.890	0.0165424
806.968	0.0164713
807.046	0.0164983
807.124	0.0164519
807.203	0.0163821
807.281	0.0163408
807.359	0.0163135
807.437	0.0161926
807.515	0.0161153
807.593	0.0160728
807.671	0.0160554
807.749	0.0158751
807.828	0.0158479
807.906	0.0158736
807.984	0.0157051
808.062	0.0156655
808.140	0.0154038
808.218	0.0155391
808.296	0.0154533
808.374	0.0152980
808.453	0.0152378
808.531	0.0152967
808.609	0.0151683
808.687	0.0152251
808.765	0.0153265
808.843	0.0152646
808.921	0.0155069
808.999	0.0155280
809.078	0.0155515
809.156	0.0157889
809.234	0.0158151
809.312	0.0158720
809.390	0.0158721
809.468	0.0159007
809.546	0.0158437
809.624	0.0157763
809.703	0.0157370
809.781	0.0158443
809.859	0.0158118
809.937	0.0156750
810.015	0.0159016
810.093	0.0158672
810.171	0.0157882
810.249	0.0157887
810.328	0.0157295
810.406	0.0158826
810.484	0.0159783
810.562	0.0159863
810.640	0.0159904
810.718	0.0161042
810.796	0.0160915
810.874	0.0163554
810.953	0.0163721
811.031	0.0164009
811.109	0.0165849
811.187	0.0164400
811.265	0.0163606
811.343	0.0164966
811.421	0.0164709
811.499	0.0164224
811.578	0.0164670
811.656	0.0163719
811.734	0.0162190
811.812	0.0162671
811.890	0.0162099
811.968	0.0160510
812.046	0.0161466
812.124	0.0159940
812.203	0.0159494
812.281	0.0158718
812.359	0.0159280
812.437	0.0157075
812.515	0.0156284
812.593	0.0156813
812.671	0.0157239
812.749	0.0156516
812.828	0.0155199
812.906	0.0156442
812.984	0.0154351
813.062	0.0154818
813.140	0.0155554
813.218	0.0157012
813.296	0.0155964
813.374	0.0154738
813.453	0.0157027
813.531	0.0158047
813.609	0.0157491
813.687	0.0157614
813.765	0.0158738
813.843	0.0158269
813.921	0.0158830
813.999	0.0158679
814.078	0.0157671
814.156	0.0158911
814.234	0.0157840
814.312	0.0159876
814.390	0.0159184
814.468	0.0160286
814.546	0.0160677
814.624	0.0158238
814.703	0.0159356
814.781	0.0159253
814.859	0.0159603
814.937	0.0158116
815.015	0.0157110
815.093	0.0157999
815.171	0.0157177
815.249	0.0155800
815.328	0.0156116
815.406	0.0156528
815.484	0.0156129
815.562	0.0158051
815.640	0.0157215
815.718	0.0157831
815.796	0.0158678
815.874	0.0159253
815.953	0.0159538
816.031	0.0161344
816.109	0.0162888
816.187	0.0161922
816.265	0.0162486
816.343	0.0164719
816.421	0.0164706
816.499	0.0166513
816.578	0.0167057
816.656	0.0166726
816.734	0.0167137
816.812	0.0167100
816.890	0.0166145
816.968	0.0165540
817.046	0.0163927
817.124	0.0163104
817.203	0.0164301
817.281	0.0162132
817.359	0.0160064
817.437	0.0159644
817.515	0.0156851
817.593	0.0156626
817.671	0.0156274
817.749	0.0153935
817.828	0.0152509
817.906	0.0151116
817.984	0.0150191
818.062	0.0149375
818.140	0.0148030
818.218	0.0148841
818.296	0.0148824
818.374	0.0149051
818.453	0.0148490
818.531	0.0149873
818.609	0.0151340
818.687	0.0153551
818.765	0.0155531
818.843	0.0156747
818.921	0.0158108
818.999	0.0161548
819.078	0.0163384
819.156	0.0165963
819.234	0.0166013
819.312	0.0167917
819.390	0.0168170
819.468	0.0167561
819.546	0.0169958
819.624	0.0168862
819.703	0.0169753
819.781	0.0168597
819.859	0.0167934
819.937	0.0169032
820.015	0.0166677
820.093	0.0165998
820.171	0.0164031
820.249	0.0163939
820.328	0.0162088
820.406	0.0160814
820.484	0.0159040
820.562	0.0158094
820.640	0.0157322
820.718	0.0157492
820.796	0.0157162
820.874	0.0156783
820.953	0.0156302
821.031	0.0155656
821.109	0.0156199
821.187	0.0155517
821.265	0.0155273
821.343	0.0155396
821.421	0.0154648
821.499	0.0154792
821.578	0.0154093
821.656	0.0156071
821.734	0.0155904
821.812	0.0154674
821.890	0.0156832
821.968	0.0156146
822.046	0.0157660
822.124	0.0159320
822.203	0.0159731
822.281	0.0159888
822.359	0.0161204
822.437	0.0161482
822.515	0.0162193
822.593	0.0160471
822.671	0.0161654
822.749	0.0161940
822.828	0.0162262
822.906	0.0162202
822.984	0.0163322
823.062	0.0162755
823.140	0.0161746
823.218	0.0160870
823.296	0.0160715
823.374	0.0160012
823.453	0.0160628
823.531	0.0159272
823.609	0.0159669
823.687	0.0159029
823.765	0.0159438
823.843	0.0157466
823.921	0.0158241
823.999	0.0157315
824.078	0.0156595
824.156	0.0155857
824.234	0.0157002
824.312	0.0157769
824.390	0.0157127
824.468	0.0157664
824.546	0.0157281
824.624	0.0157771
824.703	0.0158525
824.781	0.0158739
824.859	0.0159737
824.937	0.0158585
825.015	0.0158406
825.093	0.0158954
825.171	0.0160220
825.249	0.0160468
825.328	0.0159576
825.406	0.0160037
825.484	0.0158559
825.562	0.0159854
825.640	0.0161611
825.718	0.0160826
825.796	0.0160786
825.874	0.0160632
825.953	0.0160579
826.031	0.0161725
826.109	0.0160672
826.187	0.0161819
826.265	0.0161356
826.343	0.0160643
826.421	0.0161349
826.499	0.0160461
826.578	0.0159740
826.656	0.0161210
826.734	0.0160580
826.812	0.0158858
826.890	0.0159923
826.968	0.0159424
827.046	0.0160370
827.124	0.0159669
827.203	0.0160252
827.281	0.0159574
827.359	0.0159269
827.437	0.0159991
827.515	0.0159266
827.593	0.0159546
827.671	0.0160182
827.749	0.0159351
827.828	0.0159908
827.906	0.0158441
827.984	0.0159364
828.062	0.0158661
828.140	0.0159179
828.218	0.0159354
828.296	0.0159563
828.374	0.0158501
828.453	0.0159520
828.531	0.0158414
828.609	0.0158891
828.687	0.0160133
828.765	0.0157262
828.843	0.0157535
828.921	0.0158237
828.999	0.0158514
829.078	0.0159086
829.156	0.0160132
829.234	0.0160306
829.312	0.0158065
829.390	0.0159531
829.468	0.0160381
829.546	0.0161028
829.624	0.0160404
829.703	0.0160061
829.781	0.0159130
829.859	0.0158065
829.937	0.0157790
830.015	0.0158958
830.093	0.0157979
830.171	0.0158688
830.249	0.0156699
830.328	0.0158567
830.406	0.0158984
830.484	0.0158179
830.562	0.0158680
830.640	0.0158607
830.718	0.0159749
830.796	0.0159449
830.874	0.0161631
830.953	0.0160970
831.031	0.0160545
831.109	0.0163712
831.187	0.0160480
831.265	0.0160600
831.343	0.0160835
831.421	0.0161452
831.499	0.0159731
831.578	0.0160786
831.656	0.0161555
831.734	0.0162003
831.812	0.0160329
831.890	0.0159743
831.968	0.0160246
832.046	0.0161073
832.124	0.0161223
832.203	0.0160264
832.281	0.0160908
832.359	0.0160764
832.437	0.0160352
832.515	0.0159877
832.593	0.0160116
832.671	0.0159792
832.749	0.0160361
832.828	0.0160867
832.906	0.0161613
832.984	0.0161335
833.062	0.0159764
833.140	0.0160471
833.218	0.0159937
833.296	0.0161019
833.374	0.0159520
833.453	0.0160369
833.531	0.0161153
833.609	0.0161804
833.687	0.0161641
833.765	0.0160566
833.843	0.0160980
833.921	0.0161401
833.999	0.0160023
834.078	0.0158157
834.156	0.0158427
834.234	0.0158461
834.312	0.0157748
834.390	0.0157951
834.468	0.0159046
834.546	0.0158003
834.624	0.0157750
834.703	0.0157725
834.781	0.0157798
834.859	0.0155214
834.937	0.0156114
835.015	0.0157174
835.093	0.0157655
835.171	0.0156676
835.249	0.0158310
835.328	0.0157187
835.406	0.0157239
835.484	0.0158820
835.562	0.0157764
835.640	0.0157329
835.718	0.0156795
835.796	0.0156035
835.874	0.0155778
835.953	0.0156722
836.031	0.0156164
836.109	0.0157098
836.187	0.0158325
836.265	0.0155831
836.343	0.0154048
836.421	0.0157493
836.499	0.0157037
836.578	0.0157596
836.656	0.0157490
836.734	0.0156784
836.812	0.0159299
836.890	0.0159144
836.968	0.0159595
837.046	0.0158875
837.124	0.0160904
837.203	0.0162659
837.281	0.0163512
837.359	0.0164680
837.437	0.0163634
837.515	0.0163232
837.593	0.0165077
837.671	0.0164420
837.749	0.0164405
837.828	0.0163902
837.906	0.0163876
837.984	0.0165055
838.062	0.0164744
838.140	0.0161982
838.218	0.0162691
838.296	0.0161713
838.374	0.0162044
838.453	0.0159441
838.531	0.0160950
838.609	0.0160175
838.687	0.0159904
838.765	0.0159663
838.843	0.0158271
838.921	0.0157368
838.999	0.0157026
839.078	0.0156934
839.156	0.0156317
839.234	0.0154089
839.312	0.0153976
839.390	0.0154787
839.468	0.0155636
839.546	0.0154963
839.624	0.0153752
839.703	0.0154303
839.781	0.0152682
839.859	0.0154698
839.937	0.0154328
840.015	0.0154911
840.093	0.0155622
840.171	0.0154041
840.249	0.0154671
840.328	0.0156331
840.406	0.0155344
840.484	0.0157176
840.562	0.0157240
840.640	0.0157403
840.718	0.0157957
840.796	0.0158852
840.874	0.0159977
840.953	0.0160118
841.031	0.0159504
841.109	0.0160318
841.187	0.0162112
841.265	0.0161897
841.343	0.0161621
841.421	0.0163065
841.499	0.0159885
841.578	0.0159814
841.656	0.0159500
841.734	0.0160616
841.812	0.0159130
841.890	0.0159754
841.968	0.0158781
842.046	0.0159326
842.124	0.0159837
842.203	0.0159231
842.281	0.0157509
842.359	0.0158784
842.437	0.0157969
842.515	0.0157042
842.593	0.0157269
842.671	0.0158263
842.749	0.0158891
842.828	0.0158155
842.906	0.0157795
842.984	0.0159489
843.062	0.0159438
843.140	0.0158192
843.218	0.0160242
843.296	0.0159406
843.374	0.0159190
843.453	0.0160800
843.531	0.0159853
843.609	0.0159635
843.687	0.0161056
843.765	0.0159663
843.843	0.0159264
843.921	0.0160437
843.999	0.0159662
844.078	0.0161256
844.156	0.0160699
844.234	0.0160950
844.312	0.0162221
844.390	0.0162501
844.468	0.0161693
844.546	0.0160924
844.624	0.0159762
844.703	0.0160068
844.781	0.0159747
844.859	0.0161584
844.937	0.0159840
845.015	0.0160182
845.093	0.0158455
845.171	0.0159574
845.249	0.0158096
845.328	0.0156940
845.406	0.0157492
845.484	0.0156736
845.562	0.0156396
845.640	0.0156805
845.718	0.0154993
845.796	0.0153635
845.874	0.0155861
845.953	0.0155236
846.031	0.0156062
846.109	0.0155769
846.187	0.0155502
846.265	0.0156013
846.343	0.0157629
846.421	0.0157942
846.499	0.0157569
846.578	0.0157416
846.656	0.0157824
846.734	0.0159900
846.812	0.0159588
846.890	0.0157521
846.968	0.0159035
847.046	0.0159776
847.124	0.0161050
847.203	0.0160138
847.281	0.0159163
847.359	0.0161623
847.437	0.0161153
847.515	0.0161211
847.593	0.0160991
847.671	0.0160175
847.749	0.0160564
847.828	0.0161712
847.906	0.0161523
847.984	0.0161548
848.062	0.0162192
848.140	0.0160045
848.218	0.0160847
848.296	0.0160488
848.374	0.0161134
848.453	0.0159832
848.531	0.0158801
848.609	0.0158597
848.687	0.0158562
848.765	0.0158189
848.843	0.0160168
848.921	0.0159711
848.999	0.0158667
849.078	0.0158488
849.156	0.0158405
849.234	0.0157867
849.312	0.0159560
849.390	0.0156995
849.468	0.0159208
849.546	0.0158659
849.624	0.0157371
849.703	0.0157743
849.781	0.0159177
849.859	0.0159776
849.937	0.0158578
850.015	0.0159677
850.093	0.0160401
850.171	0.0159537
850.249	0.0160503
850.328	0.0161216
850.406	0.0161809
850.484	0.0158733
850.562	0.0160693
850.640	0.0162582
850.718	0.0162362
850.796	0.0161958
850.874	0.0163171
850.953	0.0163662
851.031	0.0160984
851.109	0.0161684
851.187	0.0161095
851.265	0.0161604
851.343	0.0161471
851.421	0.0161971
851.499	0.0162347
851.578	0.0159662
851.656	0.0160345
851.734	0.0160396
851.812	0.0160516
851.890	0.0160629
851.968	0.0158623
852.046	0.0158834
852.124	0.0159143
852.203	0.0157762
852.281	0.0158290
852.359	0.0158097
852.437	0.0157530
852.515	0.0157633
852.593	0.0158461
852.671	0.0156625
852.749	0.0156218
852.828	0.0157886
852.906	0.0158009
852.984	0.0156759
853.062	0.0158212
853.140	0.0156887
853.218	0.0157597
853.296	0.0158447
853.374	0.0157510
853.453	0.0159028
853.531	0.0158404
853.609	0.0159260
853.687	0.0159242
853.765	0.0161033
853.843	0.0160279
853.921	0.0160269
853.999	0.0160096
854.078	0.0159874
854.156	0.0160788
854.234	0.0161498
854.312	0.0160333
854.390	0.0162318
854.468	0.0159971
854.546	0.0159990
854.624	0.0160270
854.703	0.0159348
854.781	0.0160728
854.859	0.0160319
854.937	0.0160056
855.015	0.0159608
855.093	0.0160553
855.171	0.0159081
855.249	0.0158274
855.328	0.0160000
855.406	0.0159481
855.484	0.0158736
855.562	0.0158102
855.640	0.0158127
855.718	0.0158254
855.796	0.0158155
855.874	0.0158433
855.953	0.0158369
856.031	0.0157159
856.109	0.0159756
856.187	0.0158187
856.265	0.0159344
856.343	0.0159177
856.421	0.0158752
856.499	0.0159621
856.578	0.0160281
856.656	0.0158851
856.734	0.0160361
856.812	0.0160164
856.890	0.0160374
856.968	0.0160520
857.046	0.0159402
857.124	0.0157960
857.203	0.0159750
857.281	0.0160237
857.359	0.0159685
857.437	0.0159104
857.515	0.0159949
857.593	0.0160177
857.671	0.0160383
857.749	0.0159863
857.828	0.0161034
857.906	0.0159229
857.984	0.0158604
858.062	0.0160397
858.140	0.0159856
858.218	0.0159335
858.296	0.0161837
858.374	0.0157944
858.453	0.0159377
858.531	0.0159054
858.609	0.0159811
858.687	0.0160172
858.765	0.0158776
858.843	0.0158937
858.921	0.0158424
858.999	0.0158535
859.078	0.0157522
859.156	0.0157536
859.234	0.0160435
859.312	0.0158042
859.390	0.0158742
859.468	0.0159509
859.546	0.0157947
859.624	0.0159080
859.703	0.0159491
859.781	0.0158018
859.859	0.0158033
859.937	0.0157563
860.015	0.0160134
860.093	0.0159140
860.171	0.0158639
860.249	0.0158179
860.328	0.0158066
860.406	0.0158613
860.484	0.0158366
860.562	0.0158981
860.640	0.0158408
860.718	0.0157818
860.796	0.0157798
860.874	0.0157503
860.953	0.0157613
861.031	0.0158282
861.109	0.0158396
861.187	0.0157758
861.265	0.0159595
861.343	0.0157645
861.421	0.0157482
861.499	0.0159179
861.578	0.0159350
861.656	0.0159480
861.734	0.0158170
861.812	0.0157681
861.890	0.0159747
861.968	0.0158811
862.046	0.0158344
862.124	0.0159705
862.203	0.0159370
862.281	0.0159052
862.359	0.0158913
862.437	0.0159626
862.515	0.0158842
862.593	0.0159658
862.671	0.0159327
862.749	0.0158980
862.828	0.0158247
862.906	0.0159753
862.984	0.0160292
863.062	0.0160119
863.140	0.0159223
863.218	0.0158420
863.296	0.0159114
863.374	0.0160105
863.453	0.0159348
863.531	0.0159657
863.609	0.0159335
863.687	0.0159708
863.765	0.0159388
863.843	0.0158280
863.921	0.0158156
863.999	0.0158786
864.078	0.0159308
864.156	0.0160267
864.234	0.0159035
864.312	0.0159161
864.390	0.0159999
864.468	0.0159025
864.546	0.0159587
864.624	0.0159727
864.703	0.0158725
864.781	0.0159880
864.859	0.0158700
864.937	0.0158838
865.015	0.0157416
865.093	0.0157841
865.171	0.0157946
865.249	0.0158542
865.328	0.0157449
865.406	0.0158187
865.484	0.0157933
865.562	0.0157043
865.640	0.0156371
865.718	0.0158482
865.796	0.0158276
865.874	0.0157766
865.953	0.0157713
866.031	0.0157269
866.109	0.0158589
866.187	0.0157903
866.265	0.0158957
866.343	0.0158177
866.421	0.0158504
866.499	0.0158095
866.578	0.0158172
866.656	0.0157121
866.734	0.0158955
866.812	0.0158475
866.890	0.0158428
866.968	0.0157304
867.046	0.0158266
867.124	0.0160487
867.203	0.0160216
867.281	0.0158992
867.359	0.0159901
867.437	0.0160297
867.515	0.0159673
867.593	0.0161445
867.671	0.0160835
867.749	0.0159048
867.828	0.0159222
867.906	0.0158612
867.984	0.0158873
868.062	0.0159219
868.140	0.0159777
868.218	0.0157803
868.296	0.0158707
868.374	0.0158246
868.453	0.0158656
868.531	0.0159008
868.609	0.0157874
868.687	0.0157990
868.765	0.0158978
868.843	0.0158734
868.921	0.0157678
868.999	0.0160101
869.078	0.0160260
869.156	0.0158680
869.234	0.0160104
869.312	0.0159438
869.390	0.0160007
869.468	0.0161053
869.546	0.0160310
869.624	0.0161388
869.703	0.0162353
869.781	0.0162830
869.859	0.0161716
869.937	0.0161381
870.015	0.0160526
870.093	0.0162556
870.171	0.0161241
870.249	0.0160031
870.328	0.0160714
870.406	0.0159881
870.484	0.0160657
870.562	0.0159946
870.640	0.0160814
870.718	0.0159057
870.796	0.0159714
870.874	0.0159137
870.953	0.0158562
871.031	0.0158887
871.109	0.0158937
871.187	0.0160209
871.265	0.0161169
871.343	0.0159807
871.421	0.0159164
871.499	0.0159596
871.578	0.0159113
871.656	0.0159458
871.734	0.0158324
871.812	0.0158926
871.890	0.0160310
871.968	0.0158707
872.046	0.0159162
872.124	0.0158737
872.203	0.0158828
872.281	0.0159520
872.359	0.0158705
872.437	0.0159057
872.515	0.0158617
872.593	0.0160265
872.671	0.0159460
872.749	0.0159665
872.828	0.0158730
872.906	0.0159649
872.984	0.0160416
873.062	0.0159683
873.140	0.0159005
873.218	0.0160662
873.296	0.0159309
873.374	0.0159765
873.453	0.0160477
873.531	0.0160342
873.609	0.0160208
873.687	0.0159832
873.765	0.0160272
873.843	0.0158744
873.921	0.0160545
873.999	0.0160275
874.078	0.0159459
874.156	0.0159590
874.234	0.0159647
874.312	0.0159950
874.390	0.0159184
874.468	0.0158379
874.546	0.0158678
874.624	0.0158533
874.703	0.0158466
874.781	0.0158430
874.859	0.0157331
874.937	0.0159325
875.015	0.0158677
875.093	0.0160166
875.171	0.0158667
875.249	0.0158498
875.328	0.0160915
875.406	0.0159293
875.484	0.0159365
875.562	0.0159154
875.640	0.0158589
875.718	0.0159053
875.796	0.0161069
875.874	0.0161012
875.953	0.0159866
876.031	0.0160539
876.109	0.0160844
876.187	0.0160741
876.265	0.0161050
876.343	0.0161211
876.421	0.0160436
876.499	0.0161232
876.578	0.0159273
876.656	0.0160136
876.734	0.0159254
876.812	0.0158700
876.890	0.0159872
876.968	0.0159747
877.046	0.0157929
877.124	0.0157427
877.203	0.0157870
877.281	0.0156866
877.359	0.0158460
877.437	0.0158965
877.515	0.0157724
877.593	0.0158994
877.671	0.0158162
877.749	0.0157853
877.828	0.0158936
877.906	0.0157800
877.984	0.0157725
878.062	0.0157864
878.140	0.0157943
878.218	0.0157148
878.296	0.0158417
878.374	0.0158308
878.453	0.0158529
878.531	0.0157754
878.609	0.0158692
878.687	0.0159087
878.765	0.0158729
878.843	0.0159217
878.921	0.0160248
878.999	0.0158142
879.078	0.0159410
879.156	0.0158890
879.234	0.0158978
879.312	0.0159924
879.390	0.0161443
879.468	0.0160398
879.546	0.0159270
879.624	0.0161082
879.703	0.0160363
879.781	0.0159598
879.859	0.0159489
879.937	0.0160366
880.015	0.0159455
880.093	0.0158776
880.171	0.0158802
880.249	0.0159460
880.328	0.0158759
880.406	0.0159600
880.484	0.0158241
880.562	0.0158652
880.640	0.0158350
880.718	0.0158057
880.796	0.0160249
880.874	0.0158533
880.953	0.0158004
881.031	0.0160036
881.109	0.0160835
881.187	0.0159906
881.265	0.0159663
881.343	0.0159440
881.421	0.0160011
881.499	0.0159608
881.578	0.0158890
881.656	0.0160325
881.734	0.0159144
881.812	0.0159634
881.890	0.0159500
881.968	0.0159460
882.046	0.0161252
882.124	0.0160315
882.203	0.0159372
882.281	0.0159076
882.359	0.0160448
882.437	0.0159423
882.515	0.0160670
882.593	0.0159256
882.671	0.0160723
882.749	0.0159735
882.828	0.0160325
882.906	0.0159435
882.984	0.0158450
883.062	0.0160448
883.140	0.0160106
883.218	0.0159852
883.296	0.0159644
883.374	0.0160497
883.453	0.0158747
883.531	0.0158408
883.609	0.0159748
883.687	0.0159034
883.765	0.0158327
883.843	0.0159496
883.921	0.0158596
883.999	0.0158340
884.078	0.0158939
884.156	0.0159492
884.234	0.0158145
884.312	0.0158864
884.390	0.0158347
884.468	0.0159002
884.546	0.0159124
884.624	0.0158887
884.703	0.0159635
884.781	0.0158568
884.859	0.0159398
884.937	0.0158310
885.015	0.0158549
885.093	0.0160271
885.171	0.0159207
885.249	0.0160464
885.328	0.0160059
885.406	0.0159444
885.484	0.0160911
885.562	0.0159460
885.640	0.0161351
885.718	0.0160422
885.796	0.0159781
885.874	0.0161008
885.953	0.0160153
886.031	0.0160421
886.109	0.0159190
886.187	0.0159715
886.265	0.0160974
886.343	0.0158998
886.421	0.0160104
886.499	0.0158681
886.578	0.0160630
886.656	0.0159437
886.734	0.0159190
886.812	0.0159578
886.890	0.0159010
886.968	0.0159216
887.046	0.0159026
887.124	0.0158959
887.203	0.0157688
887.281	0.0157904
887.359	0.0158883
887.437	0.0159832
887.515	0.0159703
887.593	0.0159510
887.671	0.0159444
887.749	0.0160412
887.828	0.0159904
887.906	0.0159325
887.984	0.0159646
888.062	0.0159864
888.140	0.0161284
888.218	0.0160939
888.296	0.0161516
888.374	0.0161656
888.453	0.0161015
888.531	0.0161255
888.609	0.0160114
888.687	0.0159971
888.765	0.0160468
888.843	0.0161638
888.921	0.0160820
888.999	0.0160811
889.078	0.0161058
889.156	0.0159660
889.234	0.0160677
889.312	0.0160984
889.390	0.0160969
889.468	0.0158380
889.546	0.0160443
889.624	0.0160349
889.703	0.0159849
889.781	0.0160935
889.859	0.0159056
889.937	0.0160529
890.015	0.0160954
890.093	0.0159751
890.171	0.0159718
890.249	0.0159392
890.328	0.0160517
890.406	0.0159669
890.484	0.0159747
890.562	0.0157671
890.640	0.0158147
890.718	0.0159554
890.796	0.0158296
890.874	0.0158546
890.953	0.0157961
891.031	0.0158452
891.109	0.0157964
891.187	0.0158484
891.265	0.0159296
891.343	0.0159444
891.421	0.0159672
891.499	0.0157602
891.578	0.0157773
891.656	0.0160790
891.734	0.0159613
891.812	0.0159607
891.890	0.0160551
891.968	0.0159644
892.046	0.0159584
892.124	0.0160957
892.203	0.0159332
892.281	0.0158356
892.359	0.0159782
892.437	0.0160083
892.515	0.0159248
892.593	0.0160719
892.671	0.0159937
892.749	0.0158752
892.828	0.0158620
892.906	0.0158385
892.984	0.0159000
893.062	0.0159072
893.140	0.0158296
893.218	0.0159026
893.296	0.0159056
893.374	0.0158704
893.453	0.0159570
893.531	0.0158807
893.609	0.0158060
893.687	0.0160461
893.765	0.0159620
893.843	0.0157108
893.921	0.0159311
893.999	0.0160655
894.078	0.0161207
894.156	0.0161697
894.234	0.0159901
894.312	0.0162534
894.390	0.0162671
894.468	0.0160615
894.546	0.0160432
894.624	0.0160880
894.703	0.0161670
894.781	0.0161184
894.859	0.0160097
894.937	0.0161081
895.015	0.0160708
895.093	0.0159542
895.171	0.0158685
895.249	0.0159386
895.328	0.0159108
895.406	0.0158022
895.484	0.0159559
895.562	0.0159221
895.640	0.0158070
895.718	0.0157079
895.796	0.0157934
895.874	0.0159201
895.953	0.0158572
896.031	0.0157074
896.109	0.0157675
896.187	0.0157893
896.265	0.0159368
896.343	0.0157692
896.421	0.0158369
896.499	0.0157215
896.578	0.0158552
896.656	0.0158541
896.734	0.0157216
896.812	0.0157877
896.890	0.0159004
896.968	0.0157768
897.046	0.0157565
897.124	0.0157616
897.203	0.0157912
897.281	0.0158440
897.359	0.0159179
897.437	0.0158469
897.515	0.0158818
897.593	0.0159339
897.671	0.0161011
897.749	0.0160468
897.828	0.0159735
897.906	0.0161485
897.984	0.0162097
898.062	0.0162193
898.140	0.0160707
898.218	0.0161557
898.296	0.0160875
898.374	0.0161388
898.453	0.0160048
898.531	0.0159331
898.609	0.0159011
898.687	0.0158420
898.765	0.0159496
898.843	0.0158627
898.921	0.0159296
898.999	0.0158569
899.078	0.0156719
899.156	0.0156911
899.234	0.0156923
899.312	0.0156176
899.390	0.0156756
899.468	0.0157078
899.546	0.0156692
899.624	0.0156042
899.703	0.0156882
899.781	0.0156540
899.859	0.0157302
899.937	0.0157995
900.015	0.0156994
900.093	0.0157127
900.171	0.0157865
900.249	0.0158514
900.328	0.0157108
900.406	0.0157748
900.484	0.0159653
900.562	0.0159073
900.640	0.0159615
900.718	0.0160175
900.796	0.0159569
900.874	0.0160003
900.953	0.0159951
901.031	0.0159566
901.109	0.0161132
901.187	0.0159955
901.265	0.0160622
901.343	0.0160092
901.421	0.0160546
901.499	0.0160545
901.578	0.0158981
901.656	0.0158504
901.734	0.0158715
901.812	0.0159096
901.890	0.0159241
901.968	0.0158896
902.046	0.0159340
902.124	0.0158731
902.203	0.0158079
902.281	0.0160151
902.359	0.0158599
902.437	0.0159595
902.515	0.0159348
902.593	0.0159901
902.671	0.0160460
902.749	0.0159464
902.828	0.0157833
902.906	0.0157942
902.984	0.0158041
903.062	0.0158700
903.140	0.0158607
903.218	0.0156523
903.296	0.0156926
903.374	0.0159555
903.453	0.0158572
903.531	0.0158617
903.609	0.0158037
903.687	0.0158338
903.765	0.0159645
903.843	0.0159660
903.921	0.0158479
903.999	0.0159624
904.078	0.0159482
904.156	0.0160119
904.234	0.0160566
904.312	0.0159901
904.390	0.0160710
904.468	0.0160058
904.546	0.0160506
904.624	0.0159296
904.703	0.0160590
904.781	0.0159348
904.859	0.0159138
904.937	0.0160509
905.015	0.0159615
905.093	0.0159833
905.171	0.0158844
905.249	0.0158321
905.328	0.0157512
905.406	0.0158772
905.484	0.0158456
905.562	0.0157594
905.640	0.0159377
905.718	0.0158382
905.796	0.0159892
905.874	0.0158905
905.953	0.0159954
906.031	0.0160118
906.109	0.0159946
906.187	0.0159583
906.265	0.0158939
906.343	0.0158779
906.421	0.0158738
906.499	0.0159839
906.578	0.0160509
906.656	0.0160473
906.734	0.0160107
906.812	0.0160787
906.890	0.0160142
906.968	0.0160161
907.046	0.0160798
907.124	0.0162007
907.203	0.0161444
907.281	0.0160960
907.359	0.0162177
907.437	0.0162299
907.515	0.0161302
907.593	0.0160843
907.671	0.0161041
907.749	0.0160149
907.828	0.0160883
907.906	0.0162282
907.984	0.0161709
908.062	0.0161871
908.140	0.0159538
908.218	0.0161819
908.296	0.0161010
908.374	0.0160350
908.453	0.0160123
908.531	0.0160159
908.609	0.0159716
908.687	0.0160461
908.765	0.0160206
908.843	0.0160181
908.921	0.0161161
908.999	0.0160680
909.078	0.0160117
909.156	0.0159701
909.234	0.0159801
909.312	0.0159994
909.390	0.0159667
909.468	0.0157607
909.546	0.0157182
909.624	0.0157513
909.703	0.0158305
909.781	0.0158708
909.859	0.0158273
909.937	0.0157365
910.015	0.0156685
910.093	0.0159344
910.171	0.0159316
910.249	0.0159524
910.328	0.0159146
910.406	0.0159224
910.484	0.0160416
910.562	0.0159372
910.640	0.0159711
910.718	0.0160217
910.796	0.0160616
910.874	0.0160539
910.953	0.0160417
911.031	0.0160976
911.109	0.0161044
911.187	0.0162074
911.265	0.0159440
911.343	0.0158864
911.421	0.0159711
911.499	0.0159948
911.578	0.0159454
911.656	0.0161372
911.734	0.0160413
911.812	0.0158723
911.890	0.0159100
911.968	0.0159076
912.046	0.0159640
912.124	0.0159684
912.203	0.0158463
912.281	0.0157095
912.359	0.0159074
912.437	0.0158807
912.515	0.0158617
912.593	0.0158864
912.671	0.0159950
912.749	0.0158467
912.828	0.0160620
912.906	0.0160088
912.984	0.0159797
913.062	0.0160752
913.140	0.0160989
913.218	0.0160907
913.296	0.0159566
913.374	0.0160307
913.453	0.0160944
913.531	0.0161852
913.609	0.0163097
913.687	0.0161356
913.765	0.0161550
913.843	0.0161224
913.921	0.0160859
913.999	0.0161165
914.078	0.0159756
914.156	0.0161749
914.234	0.0160933
914.312	0.0160128
914.390	0.0159564
914.468	0.0160039
914.546	0.0159531
914.624	0.0159069
914.703	0.0158823
914.781	0.0159659
914.859	0.0157452
914.937	0.0157394
915.015	0.0157230
915.093	0.0158651
915.171	0.0158128
915.249	0.0157349
915.328	0.0158492
915.406	0.0158681
915.484	0.0158163
915.562	0.0157636
915.640	0.0158098
915.718	0.0158611
915.796	0.0157597
915.874	0.0159071
915.953	0.0159433
916.031	0.0160053
916.109	0.0159030
916.187	0.0159893
916.265	0.0158767
916.343	0.0158768
916.421	0.0160249
916.499	0.0159955
916.578	0.0159787
916.656	0.0159249
916.734	0.0159319
916.812	0.0161527
916.890	0.0160845
916.968	0.0160069
917.046	0.0160100
917.124	0.0160194
917.203	0.0161003
917.281	0.0159329
917.359	0.0159468
917.437	0.0160169
917.515	0.0160624
917.593	0.0159627
917.671	0.0159355
917.749	0.0160211
917.828	0.0159018
917.906	0.0158455
917.984	0.0159457
918.062	0.0159082
918.140	0.0157742
918.218	0.0159104
918.296	0.0159509
918.374	0.0158304
918.453	0.0159200
918.531	0.0158498
918.609	0.0159422
918.687	0.0157629
918.765	0.0158620
918.843	0.0157954
918.921	0.0158217
918.999	0.0158803
919.078	0.0158786
919.156	0.0158868
919.234	0.0159101
919.312	0.0159402
919.390	0.0159786
919.468	0.0160122
919.546	0.0158955
919.624	0.0159961
919.703	0.0161044
919.781	0.0160178
919.859	0.0159043
919.937	0.0161092
