06/10/2022	18:54:20	Ver.	4.1	UNKNOWN
Optical Delay	600.015094	Delta X		0.078125	Sweeps	1	Scan Rate	0/0
Coordinates	Axis 1	NaN	Axis 2	NaN	Axis 3	NaN	Axis 4	NaN	Axis 5	NaN	Axis 6	0.000000
TX Power	0.000000	RX Power	0.000000

600.015	0.0163486
600.093	0.0164928
600.171	0.0163815
600.249	0.0163966
600.328	0.0164461
600.406	0.0163956
600.484	0.0162596
600.562	0.0163864
600.640	0.0163441
600.718	0.0162298
600.796	0.0163544
600.874	0.0163219
600.953	0.0163157
601.031	0.0161140
601.109	0.0163174
601.187	0.0164178
601.265	0.0164720
601.343	0.0164754
601.421	0.0163633
601.499	0.0163700
601.578	0.0163927
601.656	0.0163603
601.734	0.0162533
601.812	0.0163107
601.890	0.0163781
601.968	0.0163490
602.046	0.0162572
602.124	0.0161399
602.203	0.0162333
602.281	0.0166119
602.359	0.0165514
602.437	0.0163140
602.515	0.0163301
602.593	0.0162537
602.671	0.0163708
602.749	0.0164019
602.828	0.0163757
602.906	0.0163271
602.984	0.0162939
603.062	0.0164433
603.140	0.0163625
603.218	0.0162177
603.296	0.0162965
603.374	0.0162648
603.453	0.0162958
603.531	0.0163626
603.609	0.0163859
603.687	0.0163771
603.765	0.0162391
603.843	0.0163812
603.921	0.0163261
603.999	0.0163122
604.078	0.0162775
604.156	0.0163583
604.234	0.0165726
604.312	0.0163625
604.390	0.0163358
604.468	0.0163262
604.546	0.0162737
604.624	0.0164551
604.703	0.0164104
604.781	0.0163692
604.859	0.0163103
604.937	0.0162925
605.015	0.0162434
605.093	0.0163611
605.171	0.0163275
605.249	0.0163197
605.328	0.0164251
605.406	0.0163873
605.484	0.0163972
605.562	0.0163248
605.640	0.0164474
605.718	0.0163113
605.796	0.0164862
605.874	0.0164113
605.953	0.0163879
606.031	0.0164825
606.109	0.0164362
606.187	0.0163464
606.265	0.0163407
606.343	0.0164334
606.421	0.0164349
606.499	0.0165122
606.578	0.0163866
606.656	0.0163985
606.734	0.0164391
606.812	0.0163134
606.890	0.0164518
606.968	0.0163641
607.046	0.0164245
607.124	0.0164233
607.203	0.0164072
607.281	0.0163631
607.359	0.0163544
607.437	0.0163586
607.515	0.0164152
607.593	0.0164651
607.671	0.0164166
607.749	0.0164321
607.828	0.0164399
607.906	0.0164599
607.984	0.0165079
608.062	0.0164249
608.140	0.0163306
608.218	0.0162974
608.296	0.0162133
608.374	0.0164336
608.453	0.0164384
608.531	0.0163467
608.609	0.0163953
608.687	0.0163476
608.765	0.0163359
608.843	0.0164092
608.921	0.0164213
608.999	0.0164138
609.078	0.0162682
609.156	0.0162720
609.234	0.0164117
609.312	0.0162852
609.390	0.0164834
609.468	0.0163873
609.546	0.0163455
609.624	0.0163868
609.703	0.0163791
609.781	0.0163046
609.859	0.0163848
609.937	0.0164308
610.015	0.0164506
610.093	0.0165234
610.171	0.0164704
610.249	0.0164560
610.328	0.0165047
610.406	0.0163626
610.484	0.0163802
610.562	0.0164584
610.640	0.0163979
610.718	0.0162798
610.796	0.0163050
610.874	0.0164091
610.953	0.0163561
611.031	0.0163057
611.109	0.0163571
611.187	0.0163598
611.265	0.0164439
611.343	0.0163163
611.421	0.0164055
611.499	0.0163694
611.578	0.0163400
611.656	0.0163129
611.734	0.0163666
611.812	0.0164247
611.890	0.0163508
611.968	0.0164651
612.046	0.0164913
612.124	0.0163218
612.203	0.0164726
612.281	0.0164024
612.359	0.0161726
612.437	0.0164252
612.515	0.0164139
612.593	0.0162851
612.671	0.0163232
612.749	0.0164178
612.828	0.0163436
612.906	0.0162939
612.984	0.0163210
613.062	0.0163654
613.140	0.0163981
613.218	0.0163942
613.296	0.0163969
613.374	0.0164320
613.453	0.0163087
613.531	0.0163189
613.609	0.0163957
613.687	0.0163547
613.765	0.0163242
613.843	0.0162978
613.921	0.0164204
613.999	0.0164108
614.078	0.0163362
614.156	0.0163362
614.234	0.0163240
614.312	0.0163689
614.390	0.0163641
614.468	0.0164341
614.546	0.0163438
614.624	0.0164669
614.703	0.0163446
614.781	0.0163130
614.859	0.0163312
614.937	0.0163251
615.015	0.0162900
615.093	0.0162505
615.171	0.0165423
615.249	0.0164698
615.328	0.0163943
615.406	0.0163211
615.484	0.0164780
615.562	0.0163663
615.640	0.0163728
615.718	0.0163284
615.796	0.0163189
615.874	0.0163999
615.953	0.0163663
616.031	0.0163678
616.109	0.0163956
616.187	0.0164603
616.265	0.0162734
616.343	0.0163014
616.421	0.0163171
616.499	0.0162745
616.578	0.0164338
616.656	0.0162595
616.734	0.0163303
616.812	0.0163956
616.890	0.0164005
616.968	0.0163277
617.046	0.0162760
617.124	0.0164059
617.203	0.0163792
617.281	0.0163747
617.359	0.0164235
617.437	0.0161950
617.515	0.0162634
617.593	0.0164117
617.671	0.0162908
617.749	0.0164438
617.828	0.0163638
617.906	0.0164216
617.984	0.0163701
618.062	0.0163416
618.140	0.0164622
618.218	0.0163899
618.296	0.0162957
618.374	0.0163410
618.453	0.0163622
618.531	0.0164286
618.609	0.0164035
618.687	0.0163651
618.765	0.0163566
618.843	0.0163382
618.921	0.0163280
618.999	0.0162897
619.078	0.0161736
619.156	0.0164820
619.234	0.0163255
619.312	0.0162584
619.390	0.0163011
619.468	0.0162722
619.546	0.0162782
619.624	0.0163287
619.703	0.0164730
619.781	0.0163213
619.859	0.0162922
619.937	0.0163991
620.015	0.0164533
620.093	0.0163046
620.171	0.0163002
620.249	0.0163016
620.328	0.0163127
620.406	0.0164323
620.484	0.0163659
620.562	0.0163349
620.640	0.0163561
620.718	0.0162852
620.796	0.0161826
620.874	0.0162748
620.953	0.0164021
621.031	0.0164249
621.109	0.0162764
621.187	0.0162981
621.265	0.0163726
621.343	0.0163425
621.421	0.0163356
621.499	0.0162957
621.578	0.0163831
621.656	0.0162895
621.734	0.0162754
621.812	0.0162830
621.890	0.0163254
621.968	0.0163019
622.046	0.0163148
622.124	0.0164153
622.203	0.0163564
622.281	0.0163329
622.359	0.0163595
622.437	0.0164395
622.515	0.0163872
622.593	0.0163273
622.671	0.0163319
622.749	0.0164359
622.828	0.0164594
622.906	0.0163149
622.984	0.0164639
623.062	0.0164288
623.140	0.0164644
623.218	0.0162875
623.296	0.0163611
623.374	0.0162452
623.453	0.0164373
623.531	0.0164616
623.609	0.0164076
623.687	0.0163694
623.765	0.0164905
623.843	0.0162996
623.921	0.0164219
623.999	0.0162859
624.078	0.0162469
624.156	0.0164085
624.234	0.0162936
624.312	0.0163985
624.390	0.0164372
624.468	0.0164172
624.546	0.0163052
624.624	0.0163917
624.703	0.0162609
624.781	0.0164010
624.859	0.0164237
624.937	0.0164744
625.015	0.0163593
625.093	0.0164330
625.171	0.0164575
625.249	0.0163232
625.328	0.0165111
625.406	0.0164233
625.484	0.0164407
625.562	0.0164710
625.640	0.0164265
625.718	0.0164157
625.796	0.0165416
625.874	0.0163976
625.953	0.0165041
626.031	0.0164472
626.109	0.0163770
626.187	0.0163155
626.265	0.0164442
626.343	0.0163499
626.421	0.0163836
626.499	0.0164426
626.578	0.0165943
626.656	0.0164639
626.734	0.0163521
626.812	0.0164170
626.890	0.0163422
626.968	0.0163385
627.046	0.0164234
627.124	0.0164420
627.203	0.0163853
627.281	0.0163560
627.359	0.0163682
627.437	0.0163641
627.515	0.0163761
627.593	0.0163567
627.671	0.0163882
627.749	0.0163113
627.828	0.0163113
627.906	0.0164322
627.984	0.0163443
628.062	0.0164407
628.140	0.0164206
628.218	0.0164762
628.296	0.0164733
628.374	0.0164593
628.453	0.0164345
628.531	0.0164315
628.609	0.0164098
628.687	0.0166009
628.765	0.0165062
628.843	0.0163339
628.921	0.0164033
628.999	0.0165096
629.078	0.0165018
629.156	0.0163971
629.234	0.0164246
629.312	0.0164144
629.390	0.0164812
629.468	0.0164565
629.546	0.0164086
629.624	0.0164426
629.703	0.0164291
629.781	0.0163411
629.859	0.0163528
629.937	0.0163726
630.015	0.0164848
630.093	0.0163628
630.171	0.0163293
630.249	0.0164616
630.328	0.0163856
630.406	0.0163527
630.484	0.0163683
630.562	0.0164074
630.640	0.0165111
630.718	0.0164240
630.796	0.0163205
630.874	0.0163725
630.953	0.0163248
631.031	0.0164764
631.109	0.0163556
631.187	0.0165408
631.265	0.0163927
631.343	0.0164159
631.421	0.0164535
631.499	0.0164547
631.578	0.0163313
631.656	0.0162945
631.734	0.0163807
631.812	0.0163384
631.890	0.0163641
631.968	0.0163132
632.046	0.0163912
632.124	0.0163730
632.203	0.0162834
632.281	0.0164807
632.359	0.0163633
632.437	0.0162663
632.515	0.0163820
632.593	0.0163279
632.671	0.0162820
632.749	0.0162495
632.828	0.0164469
632.906	0.0164162
632.984	0.0163292
633.062	0.0162242
633.140	0.0162391
633.218	0.0162894
633.296	0.0164408
633.374	0.0163074
633.453	0.0163264
633.531	0.0163300
633.609	0.0162928
633.687	0.0163960
633.765	0.0163608
633.843	0.0162878
633.921	0.0163918
633.999	0.0164069
634.078	0.0163557
634.156	0.0164108
634.234	0.0164192
634.312	0.0164069
634.390	0.0164876
634.468	0.0161760
634.546	0.0163977
634.624	0.0164101
634.703	0.0165083
634.781	0.0163915
634.859	0.0163853
634.937	0.0164536
635.015	0.0164656
635.093	0.0164438
635.171	0.0162629
635.249	0.0163476
635.328	0.0164265
635.406	0.0164360
635.484	0.0163097
635.562	0.0164944
635.640	0.0164612
635.718	0.0164331
635.796	0.0163625
635.874	0.0163503
635.953	0.0163689
636.031	0.0163098
636.109	0.0164027
636.187	0.0164802
636.265	0.0164664
636.343	0.0163805
636.421	0.0164282
636.499	0.0164994
636.578	0.0163818
636.656	0.0163905
636.734	0.0164569
636.812	0.0164176
636.890	0.0163939
636.968	0.0164009
637.046	0.0165562
637.124	0.0163744
637.203	0.0163027
637.281	0.0164297
637.359	0.0164417
637.437	0.0165215
637.515	0.0163836
637.593	0.0163743
637.671	0.0165228
637.749	0.0164175
637.828	0.0164223
637.906	0.0163572
637.984	0.0164526
638.062	0.0164893
638.140	0.0163480
638.218	0.0162768
638.296	0.0164529
638.374	0.0164507
638.453	0.0164539
638.531	0.0163745
638.609	0.0163348
638.687	0.0163345
638.765	0.0163351
638.843	0.0164198
638.921	0.0164652
638.999	0.0162853
639.078	0.0164291
639.156	0.0164354
639.234	0.0164783
639.312	0.0162567
639.390	0.0163496
639.468	0.0164463
639.546	0.0162900
639.624	0.0164043
639.703	0.0164130
639.781	0.0163848
639.859	0.0162325
639.937	0.0162503
640.015	0.0163737
640.093	0.0164072
640.171	0.0164905
640.249	0.0163693
640.328	0.0162066
640.406	0.0163783
640.484	0.0163988
640.562	0.0163435
640.640	0.0163074
640.718	0.0161745
640.796	0.0164907
640.874	0.0164558
640.953	0.0162853
641.031	0.0164736
641.109	0.0164219
641.187	0.0161775
641.265	0.0162876
641.343	0.0162966
641.421	0.0163512
641.499	0.0162785
641.578	0.0164935
641.656	0.0163816
641.734	0.0163223
641.812	0.0163802
641.890	0.0164355
641.968	0.0163185
642.046	0.0163643
642.124	0.0162029
642.203	0.0162735
642.281	0.0161868
642.359	0.0163692
642.437	0.0163339
642.515	0.0163766
642.593	0.0164214
642.671	0.0162014
642.749	0.0163928
642.828	0.0162395
642.906	0.0163378
642.984	0.0163963
643.062	0.0165107
643.140	0.0163255
643.218	0.0163345
643.296	0.0162638
643.374	0.0164172
643.453	0.0164123
643.531	0.0163993
643.609	0.0163292
643.687	0.0162365
643.765	0.0163372
643.843	0.0163775
643.921	0.0165050
643.999	0.0162065
644.078	0.0164135
644.156	0.0162581
644.234	0.0162487
644.312	0.0165436
644.390	0.0163303
644.468	0.0162954
644.546	0.0161909
644.624	0.0163737
644.703	0.0163787
644.781	0.0163799
644.859	0.0162990
644.937	0.0163920
645.015	0.0164771
645.093	0.0163953
645.171	0.0163952
645.249	0.0162422
645.328	0.0163815
645.406	0.0165221
645.484	0.0165736
645.562	0.0164311
645.640	0.0164368
645.718	0.0163577
645.796	0.0163400
645.874	0.0165377
645.953	0.0163850
646.031	0.0163432
646.109	0.0163272
646.187	0.0163270
646.265	0.0165321
646.343	0.0164854
646.421	0.0163091
646.499	0.0163724
646.578	0.0163184
646.656	0.0163007
646.734	0.0163798
646.812	0.0164278
646.890	0.0163878
646.968	0.0164220
647.046	0.0164257
647.124	0.0163348
647.203	0.0165163
647.281	0.0163017
647.359	0.0163978
647.437	0.0165902
647.515	0.0164397
647.593	0.0164473
647.671	0.0164884
647.749	0.0163679
647.828	0.0163960
647.906	0.0164435
647.984	0.0163994
648.062	0.0164870
648.140	0.0163108
648.218	0.0164045
648.296	0.0164827
648.374	0.0164096
648.453	0.0163477
648.531	0.0164156
648.609	0.0164511
648.687	0.0164614
648.765	0.0163973
648.843	0.0163358
648.921	0.0163889
648.999	0.0164140
649.078	0.0163621
649.156	0.0164292
649.234	0.0163850
649.312	0.0163549
649.390	0.0163586
649.468	0.0164306
649.546	0.0163480
649.624	0.0164162
649.703	0.0164705
649.781	0.0163406
649.859	0.0163693
649.937	0.0164290
650.015	0.0164478
650.093	0.0164182
650.171	0.0164083
650.249	0.0165462
650.328	0.0164134
650.406	0.0164733
650.484	0.0163817
650.562	0.0165190
650.640	0.0163239
650.718	0.0164520
650.796	0.0163275
650.874	0.0164948
650.953	0.0164837
651.031	0.0164541
651.109	0.0165061
651.187	0.0164790
651.265	0.0164883
651.343	0.0163881
651.421	0.0163773
651.499	0.0164679
651.578	0.0165204
651.656	0.0164182
651.734	0.0163697
651.812	0.0163074
651.890	0.0164114
651.968	0.0163611
652.046	0.0164133
652.124	0.0164887
652.203	0.0164290
652.281	0.0164202
652.359	0.0164162
652.437	0.0164463
652.515	0.0163638
652.593	0.0163118
652.671	0.0162736
652.749	0.0163628
652.828	0.0164307
652.906	0.0163080
652.984	0.0163718
653.062	0.0162422
653.140	0.0163647
653.218	0.0164713
653.296	0.0163100
653.374	0.0162363
653.453	0.0164110
653.531	0.0165576
653.609	0.0163523
653.687	0.0162636
653.765	0.0163367
653.843	0.0163740
653.921	0.0162993
653.999	0.0163294
654.078	0.0163690
654.156	0.0164301
654.234	0.0163398
654.312	0.0164159
654.390	0.0161341
654.468	0.0163725
654.546	0.0163279
654.624	0.0162063
654.703	0.0164745
654.781	0.0163040
654.859	0.0162917
654.937	0.0163396
655.015	0.0162492
655.093	0.0162701
655.171	0.0165701
655.249	0.0163632
655.328	0.0163056
655.406	0.0162165
655.484	0.0162096
655.562	0.0163940
655.640	0.0162891
655.718	0.0163232
655.796	0.0162292
655.874	0.0163806
655.953	0.0162064
656.031	0.0162376
656.109	0.0163376
656.187	0.0164035
656.265	0.0163615
656.343	0.0165133
656.421	0.0161825
656.499	0.0161864
656.578	0.0163889
656.656	0.0161954
656.734	0.0163709
656.812	0.0164885
656.890	0.0164114
656.968	0.0162173
657.046	0.0161828
657.124	0.0162247
657.203	0.0163026
657.281	0.0163741
657.359	0.0164290
657.437	0.0163591
657.515	0.0163384
657.593	0.0162218
657.671	0.0163606
657.749	0.0163190
657.828	0.0163969
657.906	0.0163380
657.984	0.0162498
658.062	0.0162625
658.140	0.0163166
658.218	0.0164796
658.296	0.0162893
658.374	0.0162788
658.453	0.0164204
658.531	0.0162704
658.609	0.0162278
658.687	0.0162527
658.765	0.0162257
658.843	0.0162914
658.921	0.0164496
658.999	0.0163486
659.078	0.0163439
659.156	0.0163701
659.234	0.0164211
659.312	0.0163270
659.390	0.0162200
659.468	0.0163972
659.546	0.0163700
659.624	0.0162304
659.703	0.0163330
659.781	0.0163935
659.859	0.0162960
659.937	0.0163277
660.015	0.0163776
660.093	0.0163543
660.171	0.0161846
660.249	0.0163705
660.328	0.0164306
660.406	0.0162682
660.484	0.0164645
660.562	0.0163531
660.640	0.0163601
660.718	0.0162878
660.796	0.0162757
660.874	0.0163815
660.953	0.0162793
661.031	0.0162801
661.109	0.0163943
661.187	0.0163963
661.265	0.0162740
661.343	0.0163548
661.421	0.0162831
661.499	0.0162527
661.578	0.0163475
661.656	0.0163174
661.734	0.0163395
661.812	0.0163850
661.890	0.0162856
661.968	0.0163083
662.046	0.0163187
662.124	0.0163654
662.203	0.0163688
662.281	0.0163497
662.359	0.0163918
662.437	0.0164977
662.515	0.0162576
662.593	0.0162795
662.671	0.0163532
662.749	0.0163885
662.828	0.0163199
662.906	0.0164204
662.984	0.0164422
663.062	0.0162688
663.140	0.0164338
663.218	0.0164285
663.296	0.0163760
663.374	0.0163972
663.453	0.0163616
663.531	0.0164516
663.609	0.0163824
663.687	0.0163824
663.765	0.0162929
663.843	0.0164163
663.921	0.0164412
663.999	0.0163737
664.078	0.0164645
664.156	0.0162443
664.234	0.0163108
664.312	0.0164343
664.390	0.0164114
664.468	0.0164105
664.546	0.0163798
664.624	0.0164568
664.703	0.0163917
664.781	0.0163194
664.859	0.0166029
664.937	0.0165737
665.015	0.0163020
665.093	0.0164011
665.171	0.0164584
665.249	0.0162949
665.328	0.0161974
665.406	0.0165346
665.484	0.0165354
665.562	0.0163267
665.640	0.0162518
665.718	0.0164083
665.796	0.0164066
665.874	0.0163341
665.953	0.0163269
666.031	0.0164281
666.109	0.0165057
666.187	0.0164970
666.265	0.0163717
666.343	0.0163687
666.421	0.0163759
666.499	0.0163978
666.578	0.0163158
666.656	0.0164870
666.734	0.0165282
666.812	0.0164382
666.890	0.0164230
666.968	0.0163103
667.046	0.0164388
667.124	0.0163470
667.203	0.0164520
667.281	0.0164013
667.359	0.0162907
667.437	0.0162425
667.515	0.0164272
667.593	0.0163382
667.671	0.0163501
667.749	0.0162598
667.828	0.0162098
667.906	0.0163214
667.984	0.0164097
668.062	0.0164169
668.140	0.0164147
668.218	0.0163505
668.296	0.0164938
668.374	0.0163778
668.453	0.0163722
668.531	0.0163731
668.609	0.0163602
668.687	0.0163455
668.765	0.0164654
668.843	0.0163156
668.921	0.0163004
668.999	0.0164600
669.078	0.0163634
669.156	0.0163068
669.234	0.0164494
669.312	0.0163688
669.390	0.0163345
669.468	0.0163950
669.546	0.0164247
669.624	0.0163971
669.703	0.0164703
669.781	0.0163586
669.859	0.0164335
669.937	0.0164633
670.015	0.0164217
670.093	0.0163933
670.171	0.0163969
670.249	0.0165344
670.328	0.0162594
670.406	0.0163099
670.484	0.0164913
670.562	0.0163067
670.640	0.0164034
670.718	0.0163457
670.796	0.0164099
670.874	0.0164835
670.953	0.0163803
671.031	0.0164391
671.109	0.0161819
671.187	0.0163416
671.265	0.0164883
671.343	0.0162331
671.421	0.0164001
671.499	0.0164544
671.578	0.0163293
671.656	0.0163963
671.734	0.0164799
671.812	0.0163608
671.890	0.0162436
671.968	0.0163471
672.046	0.0164527
672.124	0.0163862
672.203	0.0163793
672.281	0.0163625
672.359	0.0163374
672.437	0.0163625
672.515	0.0163860
672.593	0.0163087
672.671	0.0163710
672.749	0.0163747
672.828	0.0164344
672.906	0.0162748
672.984	0.0163165
673.062	0.0164465
673.140	0.0164365
673.218	0.0163168
673.296	0.0164141
673.374	0.0163767
673.453	0.0164256
673.531	0.0163744
673.609	0.0164526
673.687	0.0163893
673.765	0.0163192
673.843	0.0162580
673.921	0.0163229
673.999	0.0164359
674.078	0.0163304
674.156	0.0162274
674.234	0.0163061
674.312	0.0162890
674.390	0.0163684
674.468	0.0163269
674.546	0.0162359
674.624	0.0163184
674.703	0.0163924
674.781	0.0164362
674.859	0.0163454
674.937	0.0163802
675.015	0.0164158
675.093	0.0162481
675.171	0.0163433
675.249	0.0164634
675.328	0.0164195
675.406	0.0164491
675.484	0.0163715
675.562	0.0164137
675.640	0.0163602
675.718	0.0164483
675.796	0.0163762
675.874	0.0163509
675.953	0.0163058
676.031	0.0163106
676.109	0.0164749
676.187	0.0163737
676.265	0.0164096
676.343	0.0163110
676.421	0.0162811
676.499	0.0162895
676.578	0.0162174
676.656	0.0161783
676.734	0.0163064
676.812	0.0162458
676.890	0.0163271
676.968	0.0163029
677.046	0.0163401
677.124	0.0163492
677.203	0.0163456
677.281	0.0162141
677.359	0.0162549
677.437	0.0163342
677.515	0.0162479
677.593	0.0162030
677.671	0.0162511
677.749	0.0163946
677.828	0.0163654
677.906	0.0162959
677.984	0.0162610
678.062	0.0163310
678.140	0.0162678
678.218	0.0162254
678.296	0.0162143
678.374	0.0164139
678.453	0.0163899
678.531	0.0162609
678.609	0.0163776
678.687	0.0162727
678.765	0.0162846
678.843	0.0164195
678.921	0.0162793
678.999	0.0162573
679.078	0.0162556
679.156	0.0163667
679.234	0.0163432
679.312	0.0162917
679.390	0.0163300
679.468	0.0162496
679.546	0.0162548
679.624	0.0163564
679.703	0.0162643
679.781	0.0162946
679.859	0.0163812
679.937	0.0162746
680.015	0.0162619
680.093	0.0162911
680.171	0.0162450
680.249	0.0162431
680.328	0.0162459
680.406	0.0162556
680.484	0.0163635
680.562	0.0160938
680.640	0.0162532
680.718	0.0163535
680.796	0.0162620
680.874	0.0163788
680.953	0.0162846
681.031	0.0161845
681.109	0.0163228
681.187	0.0162417
681.265	0.0163207
681.343	0.0162724
681.421	0.0162362
681.499	0.0162624
681.578	0.0161684
681.656	0.0164244
681.734	0.0164844
681.812	0.0163200
681.890	0.0162115
681.968	0.0164006
682.046	0.0164688
682.124	0.0163643
682.203	0.0163908
682.281	0.0162955
682.359	0.0161736
682.437	0.0162286
682.515	0.0163847
682.593	0.0161804
682.671	0.0162843
682.749	0.0162918
682.828	0.0163266
682.906	0.0163096
682.984	0.0162318
683.062	0.0163017
683.140	0.0163115
683.218	0.0162584
683.296	0.0164397
683.374	0.0161665
683.453	0.0162100
683.531	0.0163210
683.609	0.0163458
683.687	0.0163957
683.765	0.0163982
683.843	0.0162239
683.921	0.0162446
683.999	0.0162865
684.078	0.0163748
684.156	0.0163900
684.234	0.0163554
684.312	0.0163522
684.390	0.0162218
684.468	0.0162788
684.546	0.0164591
684.624	0.0164125
684.703	0.0163096
684.781	0.0163889
684.859	0.0162935
684.937	0.0164164
685.015	0.0164251
685.093	0.0162672
685.171	0.0161806
685.249	0.0163699
685.328	0.0162444
685.406	0.0163199
685.484	0.0163014
685.562	0.0164419
685.640	0.0163252
685.718	0.0161725
685.796	0.0164424
685.874	0.0164394
685.953	0.0163516
686.031	0.0162539
686.109	0.0163255
686.187	0.0163475
686.265	0.0163123
686.343	0.0165137
686.421	0.0163702
686.499	0.0163560
686.578	0.0162806
686.656	0.0165620
686.734	0.0164806
686.812	0.0164211
686.890	0.0163371
686.968	0.0163645
687.046	0.0165604
687.124	0.0162231
687.203	0.0162664
687.281	0.0163437
687.359	0.0163503
687.437	0.0163540
687.515	0.0165791
687.593	0.0162968
687.671	0.0162766
687.749	0.0163393
687.828	0.0164860
687.906	0.0163766
687.984	0.0163691
688.062	0.0162320
688.140	0.0164285
688.218	0.0164044
688.296	0.0163694
688.374	0.0163258
688.453	0.0164272
688.531	0.0164051
688.609	0.0163957
688.687	0.0163147
688.765	0.0163326
688.843	0.0163892
688.921	0.0162904
688.999	0.0164351
689.078	0.0165382
689.156	0.0164159
689.234	0.0163677
689.312	0.0163936
689.390	0.0164291
689.468	0.0163388
689.546	0.0163648
689.624	0.0163617
689.703	0.0163623
689.781	0.0163735
689.859	0.0163023
689.937	0.0163139
690.015	0.0165401
690.093	0.0162142
690.171	0.0162788
690.249	0.0164246
690.328	0.0164359
690.406	0.0163861
690.484	0.0163670
690.562	0.0163106
690.640	0.0162975
690.718	0.0163497
690.796	0.0164440
690.874	0.0163354
690.953	0.0162389
691.031	0.0164155
691.109	0.0163831
691.187	0.0163111
691.265	0.0164433
691.343	0.0163145
691.421	0.0164177
691.499	0.0163226
691.578	0.0164996
691.656	0.0165017
691.734	0.0162916
691.812	0.0162862
691.890	0.0162508
691.968	0.0163548
692.046	0.0164164
692.124	0.0165208
692.203	0.0164708
692.281	0.0163849
692.359	0.0163881
692.437	0.0164169
692.515	0.0163381
692.593	0.0163541
692.671	0.0164229
692.749	0.0165165
692.828	0.0164304
692.906	0.0162471
692.984	0.0164079
693.062	0.0164040
693.140	0.0164631
693.218	0.0164718
693.296	0.0163823
693.374	0.0163184
693.453	0.0164330
693.531	0.0164176
693.609	0.0164315
693.687	0.0163602
693.765	0.0165403
693.843	0.0165461
693.921	0.0163212
693.999	0.0164679
694.078	0.0164191
694.156	0.0163396
694.234	0.0164636
694.312	0.0164207
694.390	0.0163955
694.468	0.0163588
694.546	0.0163545
694.624	0.0163231
694.703	0.0163483
694.781	0.0164196
694.859	0.0163988
694.937	0.0163977
695.015	0.0164173
695.093	0.0164143
695.171	0.0163672
695.249	0.0164188
695.328	0.0162632
695.406	0.0163133
695.484	0.0163482
695.562	0.0164003
695.640	0.0163118
695.718	0.0164218
695.796	0.0163967
695.874	0.0163752
695.953	0.0163625
696.031	0.0163793
696.109	0.0163680
696.187	0.0163103
696.265	0.0164346
696.343	0.0163716
696.421	0.0163012
696.499	0.0163583
696.578	0.0163872
696.656	0.0164287
696.734	0.0165076
696.812	0.0163873
696.890	0.0163195
696.968	0.0164225
697.046	0.0163251
697.124	0.0163023
697.203	0.0163673
697.281	0.0163361
697.359	0.0161922
697.437	0.0163673
697.515	0.0163773
697.593	0.0161947
697.671	0.0163161
697.749	0.0162407
697.828	0.0161832
697.906	0.0165264
697.984	0.0163658
698.062	0.0162482
698.140	0.0162294
698.218	0.0163100
698.296	0.0164524
698.374	0.0162997
698.453	0.0162858
698.531	0.0162871
698.609	0.0162756
698.687	0.0163297
698.765	0.0164368
698.843	0.0161727
698.921	0.0163999
698.999	0.0163773
699.078	0.0162789
699.156	0.0163340
699.234	0.0163055
699.312	0.0162884
699.390	0.0163009
699.468	0.0162019
699.546	0.0163753
699.624	0.0162994
699.703	0.0163721
699.781	0.0163152
699.859	0.0162302
699.937	0.0164468
700.015	0.0163134
700.093	0.0163515
700.171	0.0164305
700.249	0.0164233
700.328	0.0163534
700.406	0.0163824
700.484	0.0164010
700.562	0.0162795
700.640	0.0163098
700.718	0.0163129
700.796	0.0163628
700.874	0.0163618
700.953	0.0162469
701.031	0.0161647
701.109	0.0162768
701.187	0.0162415
701.265	0.0161461
701.343	0.0162224
701.421	0.0162595
701.499	0.0162584
701.578	0.0162541
701.656	0.0161826
701.734	0.0162267
701.812	0.0162611
701.890	0.0160700
701.968	0.0161051
702.046	0.0162598
702.124	0.0161552
702.203	0.0162971
702.281	0.0163422
702.359	0.0162637
702.437	0.0162051
702.515	0.0162067
702.593	0.0163100
702.671	0.0163943
702.749	0.0163366
702.828	0.0162595
702.906	0.0163384
702.984	0.0164640
703.062	0.0164133
703.140	0.0162919
703.218	0.0163328
703.296	0.0164062
703.374	0.0164151
703.453	0.0162914
703.531	0.0162971
703.609	0.0163423
703.687	0.0162737
703.765	0.0163183
703.843	0.0162956
703.921	0.0164132
703.999	0.0162796
704.078	0.0162405
704.156	0.0162449
704.234	0.0162669
704.312	0.0163137
704.390	0.0162685
704.468	0.0163222
704.546	0.0163695
704.624	0.0164005
704.703	0.0162576
704.781	0.0162865
704.859	0.0163474
704.937	0.0163292
705.015	0.0163366
705.093	0.0163340
705.171	0.0163808
705.249	0.0162450
705.328	0.0162115
705.406	0.0163408
705.484	0.0163197
705.562	0.0163056
705.640	0.0163177
705.718	0.0162098
705.796	0.0162286
705.874	0.0162849
705.953	0.0162107
706.031	0.0163515
706.109	0.0163257
706.187	0.0162209
706.265	0.0162942
706.343	0.0163914
706.421	0.0164036
706.499	0.0163355
706.578	0.0163696
706.656	0.0165088
706.734	0.0164579
706.812	0.0163624
706.890	0.0165096
706.968	0.0165022
707.046	0.0162880
707.124	0.0164783
707.203	0.0165081
707.281	0.0165353
707.359	0.0164736
707.437	0.0163854
707.515	0.0164160
707.593	0.0166473
707.671	0.0163886
707.749	0.0163979
707.828	0.0163445
707.906	0.0163593
707.984	0.0164942
708.062	0.0164764
708.140	0.0163279
708.218	0.0165185
708.296	0.0164834
708.374	0.0164072
708.453	0.0163084
708.531	0.0164502
708.609	0.0163351
708.687	0.0162878
708.765	0.0163586
708.843	0.0163913
708.921	0.0162773
708.999	0.0163044
709.078	0.0163251
709.156	0.0164089
709.234	0.0164644
709.312	0.0165143
709.390	0.0164319
709.468	0.0163167
709.546	0.0163828
709.624	0.0163342
709.703	0.0162431
709.781	0.0164404
709.859	0.0164152
709.937	0.0161492
710.015	0.0163405
710.093	0.0163931
710.171	0.0164405
710.249	0.0163969
710.328	0.0162814
710.406	0.0162658
710.484	0.0162932
710.562	0.0162608
710.640	0.0163033
710.718	0.0162971
710.796	0.0163304
710.874	0.0164172
710.953	0.0164805
711.031	0.0163390
711.109	0.0163407
711.187	0.0163732
711.265	0.0164995
711.343	0.0165090
711.421	0.0164465
711.499	0.0163413
711.578	0.0163751
711.656	0.0165519
711.734	0.0163324
711.812	0.0165030
711.890	0.0163799
711.968	0.0162720
712.046	0.0163884
712.124	0.0164555
712.203	0.0163982
712.281	0.0162746
712.359	0.0163644
712.437	0.0164175
712.515	0.0162481
712.593	0.0162656
712.671	0.0163872
712.749	0.0163512
712.828	0.0162392
712.906	0.0163783
712.984	0.0163315
713.062	0.0163289
713.140	0.0163206
713.218	0.0162864
713.296	0.0163821
713.374	0.0164375
713.453	0.0163190
713.531	0.0163984
713.609	0.0162531
713.687	0.0163281
713.765	0.0162952
713.843	0.0163715
713.921	0.0163830
713.999	0.0162941
714.078	0.0164138
714.156	0.0162537
714.234	0.0162063
714.312	0.0162752
714.390	0.0164487
714.468	0.0163582
714.546	0.0162696
714.624	0.0162984
714.703	0.0163195
714.781	0.0165160
714.859	0.0163319
714.937	0.0163563
715.015	0.0164919
715.093	0.0162815
715.171	0.0163054
715.249	0.0163582
715.328	0.0164677
715.406	0.0164763
715.484	0.0164368
715.562	0.0164106
715.640	0.0164678
715.718	0.0163313
715.796	0.0163511
715.874	0.0164317
715.953	0.0163380
716.031	0.0163081
716.109	0.0163910
716.187	0.0164167
716.265	0.0164344
716.343	0.0163715
716.421	0.0163618
716.499	0.0163702
716.578	0.0164241
716.656	0.0163121
716.734	0.0163673
716.812	0.0164417
716.890	0.0163964
716.968	0.0162504
717.046	0.0163416
717.124	0.0164116
717.203	0.0164201
717.281	0.0163612
717.359	0.0163690
717.437	0.0163571
717.515	0.0162591
717.593	0.0161986
717.671	0.0163255
717.749	0.0163999
717.828	0.0163924
717.906	0.0163801
717.984	0.0163510
718.062	0.0162841
718.140	0.0163331
718.218	0.0164875
718.296	0.0164589
718.374	0.0164903
718.453	0.0163584
718.531	0.0165186
718.609	0.0164418
718.687	0.0166843
718.765	0.0166307
718.843	0.0165562
718.921	0.0165676
718.999	0.0165549
719.078	0.0166776
719.156	0.0165347
719.234	0.0165382
719.312	0.0165121
719.390	0.0163190
719.468	0.0163907
719.546	0.0163568
719.624	0.0162404
719.703	0.0162622
719.781	0.0162424
719.859	0.0163763
719.937	0.0162020
720.015	0.0161562
720.093	0.0160726
720.171	0.0162671
720.249	0.0162867
720.328	0.0163254
720.406	0.0163663
720.484	0.0163951
720.562	0.0164698
720.640	0.0165683
720.718	0.0165366
720.796	0.0165504
720.874	0.0165679
720.953	0.0166077
721.031	0.0166640
721.109	0.0165314
721.187	0.0164736
721.265	0.0164410
721.343	0.0164195
721.421	0.0163819
721.499	0.0165210
721.578	0.0164536
721.656	0.0163620
721.734	0.0162864
721.812	0.0163915
721.890	0.0162457
721.968	0.0162213
722.046	0.0163132
722.124	0.0161507
722.203	0.0161493
722.281	0.0161441
722.359	0.0162482
722.437	0.0161192
722.515	0.0162935
722.593	0.0162707
722.671	0.0163432
722.749	0.0164515
722.828	0.0163696
722.906	0.0164156
722.984	0.0164618
723.062	0.0166335
723.140	0.0165928
723.218	0.0164532
723.296	0.0163519
723.374	0.0164301
723.453	0.0165667
723.531	0.0164361
723.609	0.0164192
723.687	0.0164460
723.765	0.0162366
723.843	0.0163491
723.921	0.0163455
723.999	0.0163006
724.078	0.0163344
724.156	0.0162916
724.234	0.0162319
724.312	0.0162218
724.390	0.0163365
724.468	0.0161774
724.546	0.0162004
724.624	0.0162784
724.703	0.0162452
724.781	0.0162356
724.859	0.0163135
724.937	0.0164196
725.015	0.0162541
725.093	0.0163644
725.171	0.0164311
725.249	0.0163218
725.328	0.0162578
725.406	0.0163587
725.484	0.0165056
725.562	0.0163602
725.640	0.0162545
725.718	0.0162602
725.796	0.0163126
725.874	0.0164397
725.953	0.0163126
726.031	0.0163179
726.109	0.0162933
726.187	0.0162936
726.265	0.0163293
726.343	0.0163242
726.421	0.0163102
726.499	0.0164218
726.578	0.0163422
726.656	0.0162000
726.734	0.0163223
726.812	0.0161926
726.890	0.0163685
726.968	0.0164740
727.046	0.0162986
727.124	0.0164646
727.203	0.0162576
727.281	0.0163711
727.359	0.0164263
727.437	0.0163586
727.515	0.0162579
727.593	0.0163664
727.671	0.0164276
727.749	0.0164342
727.828	0.0164014
727.906	0.0163664
727.984	0.0164651
728.062	0.0164436
728.140	0.0163250
728.218	0.0163865
728.296	0.0163213
728.374	0.0164337
728.453	0.0163745
728.531	0.0163903
728.609	0.0164184
728.687	0.0164835
728.765	0.0163869
728.843	0.0164163
728.921	0.0163942
728.999	0.0163419
729.078	0.0164722
729.156	0.0162936
729.234	0.0164029
729.312	0.0164919
729.390	0.0164616
729.468	0.0164738
729.546	0.0165257
729.624	0.0163386
729.703	0.0164852
729.781	0.0164037
729.859	0.0163512
729.937	0.0163698
730.015	0.0164345
730.093	0.0163554
730.171	0.0163570
730.249	0.0163766
730.328	0.0163217
730.406	0.0163738
730.484	0.0163976
730.562	0.0164296
730.640	0.0163663
730.718	0.0163464
730.796	0.0165002
730.874	0.0162834
730.953	0.0163436
731.031	0.0163204
731.109	0.0162865
731.187	0.0162914
731.265	0.0163057
731.343	0.0162852
731.421	0.0162633
731.499	0.0162074
731.578	0.0163113
731.656	0.0162862
731.734	0.0163574
731.812	0.0162654
731.890	0.0162632
731.968	0.0162265
732.046	0.0163589
732.124	0.0163033
732.203	0.0163880
732.281	0.0163074
732.359	0.0163232
732.437	0.0163601
732.515	0.0162409
732.593	0.0163329
732.671	0.0162949
732.749	0.0164307
732.828	0.0162404
732.906	0.0163431
732.984	0.0162209
733.062	0.0162521
733.140	0.0162441
733.218	0.0162588
733.296	0.0163194
733.374	0.0162602
733.453	0.0163747
733.531	0.0162903
733.609	0.0162782
733.687	0.0162842
733.765	0.0163313
733.843	0.0163497
733.921	0.0162672
733.999	0.0162591
734.078	0.0163640
734.156	0.0162011
734.234	0.0161887
734.312	0.0162920
734.390	0.0163615
734.468	0.0162634
734.546	0.0162102
734.624	0.0161691
734.703	0.0163476
734.781	0.0163495
734.859	0.0161877
734.937	0.0162734
735.015	0.0163244
735.093	0.0163190
735.171	0.0163574
735.249	0.0163283
735.328	0.0162254
735.406	0.0162153
735.484	0.0162902
735.562	0.0163408
735.640	0.0162737
735.718	0.0163769
735.796	0.0161956
735.874	0.0162865
735.953	0.0163392
736.031	0.0162566
736.109	0.0162256
736.187	0.0162623
736.265	0.0162722
736.343	0.0163033
736.421	0.0162188
736.499	0.0162014
736.578	0.0164448
736.656	0.0162531
736.734	0.0163248
736.812	0.0163097
736.890	0.0162103
736.968	0.0163907
737.046	0.0163065
737.124	0.0163065
737.203	0.0164111
737.281	0.0163332
737.359	0.0163094
737.437	0.0163912
737.515	0.0164818
737.593	0.0163909
737.671	0.0164444
737.749	0.0164356
737.828	0.0163749
737.906	0.0163541
737.984	0.0164903
738.062	0.0165012
738.140	0.0165204
738.218	0.0163406
738.296	0.0164217
738.374	0.0163852
738.453	0.0164258
738.531	0.0164274
738.609	0.0164201
738.687	0.0164326
738.765	0.0165239
738.843	0.0163384
738.921	0.0164188
738.999	0.0163874
739.078	0.0163776
739.156	0.0164545
739.234	0.0163108
739.312	0.0163762
739.390	0.0162007
739.468	0.0163008
739.546	0.0163213
739.624	0.0162772
739.703	0.0163583
739.781	0.0162380
739.859	0.0164019
739.937	0.0164392
740.015	0.0163285
740.093	0.0161956
740.171	0.0162106
740.249	0.0163622
740.328	0.0163269
740.406	0.0162402
740.484	0.0164160
740.562	0.0163066
740.640	0.0163705
740.718	0.0164189
740.796	0.0164972
740.874	0.0162243
740.953	0.0163570
741.031	0.0163565
741.109	0.0164074
741.187	0.0162591
741.265	0.0163962
741.343	0.0164169
741.421	0.0164575
741.499	0.0163631
741.578	0.0163695
741.656	0.0164279
741.734	0.0163860
741.812	0.0163235
741.890	0.0162405
741.968	0.0162658
742.046	0.0162314
742.124	0.0164352
742.203	0.0163072
742.281	0.0162988
742.359	0.0162884
742.437	0.0163348
742.515	0.0163395
742.593	0.0164160
742.671	0.0164610
742.749	0.0163177
742.828	0.0163860
742.906	0.0163460
742.984	0.0164328
743.062	0.0163797
743.140	0.0162909
743.218	0.0163386
743.296	0.0162923
743.374	0.0164273
743.453	0.0164421
743.531	0.0163896
743.609	0.0162473
743.687	0.0162342
743.765	0.0164144
743.843	0.0164552
743.921	0.0163124
743.999	0.0165028
744.078	0.0162794
744.156	0.0163782
744.234	0.0163691
744.312	0.0163917
744.390	0.0163345
744.468	0.0162772
744.546	0.0163847
744.624	0.0162947
744.703	0.0163921
744.781	0.0163818
744.859	0.0164702
744.937	0.0163295
745.015	0.0162975
745.093	0.0163785
745.171	0.0164436
745.249	0.0163005
745.328	0.0163193
745.406	0.0163389
745.484	0.0163873
745.562	0.0164423
745.640	0.0162962
745.718	0.0163519
745.796	0.0163264
745.874	0.0163321
745.953	0.0164787
746.031	0.0163896
746.109	0.0164135
746.187	0.0164394
746.265	0.0164169
746.343	0.0163030
746.421	0.0163335
746.499	0.0162357
746.578	0.0163438
746.656	0.0163184
746.734	0.0163373
746.812	0.0162628
746.890	0.0163201
746.968	0.0163727
747.046	0.0162122
747.124	0.0163634
747.203	0.0164532
747.281	0.0164683
747.359	0.0164980
747.437	0.0163806
747.515	0.0163140
747.593	0.0164475
747.671	0.0163863
747.749	0.0163795
747.828	0.0164865
747.906	0.0163844
747.984	0.0163268
748.062	0.0164394
748.140	0.0163477
748.218	0.0163145
748.296	0.0162753
748.374	0.0162573
748.453	0.0163043
748.531	0.0164578
748.609	0.0163868
748.687	0.0165247
748.765	0.0163499
748.843	0.0163328
748.921	0.0163884
748.999	0.0163091
749.078	0.0163913
749.156	0.0162917
749.234	0.0163741
749.312	0.0163531
749.390	0.0163075
749.468	0.0164156
749.546	0.0163473
749.624	0.0161817
749.703	0.0163012
749.781	0.0163306
749.859	0.0161886
749.937	0.0164556
750.015	0.0162971
750.093	0.0163366
750.171	0.0163834
750.249	0.0163064
750.328	0.0162012
750.406	0.0164948
750.484	0.0162481
750.562	0.0163634
750.640	0.0163252
750.718	0.0163526
750.796	0.0161644
750.874	0.0161773
750.953	0.0161333
751.031	0.0160587
751.109	0.0162095
751.187	0.0162897
751.265	0.0161468
751.343	0.0162652
751.421	0.0163123
751.499	0.0160925
751.578	0.0162540
751.656	0.0164285
751.734	0.0162916
751.812	0.0162393
751.890	0.0163947
751.968	0.0163567
752.046	0.0163638
752.124	0.0162489
752.203	0.0163506
752.281	0.0163016
752.359	0.0163421
752.437	0.0164197
752.515	0.0164264
752.593	0.0164076
752.671	0.0163618
752.749	0.0164266
752.828	0.0164361
752.906	0.0163908
752.984	0.0163171
753.062	0.0163463
753.140	0.0164745
753.218	0.0162863
753.296	0.0162434
753.374	0.0163139
753.453	0.0164877
753.531	0.0163153
753.609	0.0163741
753.687	0.0164166
753.765	0.0163194
753.843	0.0163991
753.921	0.0162965
753.999	0.0163483
754.078	0.0163013
754.156	0.0163255
754.234	0.0164340
754.312	0.0164449
754.390	0.0163074
754.468	0.0162080
754.546	0.0162653
754.624	0.0161612
754.703	0.0162016
754.781	0.0163355
754.859	0.0162041
754.937	0.0161977
755.015	0.0160350
755.093	0.0163355
755.171	0.0162818
755.249	0.0162514
755.328	0.0162421
755.406	0.0162560
755.484	0.0163203
755.562	0.0163631
755.640	0.0164354
755.718	0.0163741
755.796	0.0165287
755.874	0.0164957
755.953	0.0164036
756.031	0.0165228
756.109	0.0164938
756.187	0.0166393
756.265	0.0164717
756.343	0.0164179
756.421	0.0163438
756.499	0.0164780
756.578	0.0165004
756.656	0.0163264
756.734	0.0164072
756.812	0.0164165
756.890	0.0163799
756.968	0.0163738
757.046	0.0163306
757.124	0.0162982
757.203	0.0163536
757.281	0.0162936
757.359	0.0162170
757.437	0.0163284
757.515	0.0163174
757.593	0.0162917
757.671	0.0162390
757.749	0.0163271
757.828	0.0162466
757.906	0.0164284
757.984	0.0162720
758.062	0.0163776
758.140	0.0163228
758.218	0.0162634
758.296	0.0164896
758.374	0.0165077
758.453	0.0165109
758.531	0.0164548
758.609	0.0165014
758.687	0.0164792
758.765	0.0164381
758.843	0.0164922
758.921	0.0164893
758.999	0.0164017
759.078	0.0164491
759.156	0.0163086
759.234	0.0162368
759.312	0.0164532
759.390	0.0164001
759.468	0.0164724
759.546	0.0163437
759.624	0.0162300
759.703	0.0164153
759.781	0.0162567
759.859	0.0162178
759.937	0.0162628
760.015	0.0162445
760.093	0.0161372
760.171	0.0160678
760.249	0.0161427
760.328	0.0161226
760.406	0.0160846
760.484	0.0160873
760.562	0.0159212
760.640	0.0162449
760.718	0.0161657
760.796	0.0163334
760.874	0.0163203
760.953	0.0162793
761.031	0.0163351
761.109	0.0164986
761.187	0.0166274
761.265	0.0165215
761.343	0.0166328
761.421	0.0166391
761.499	0.0167671
761.578	0.0167033
761.656	0.0167152
761.734	0.0166425
761.812	0.0167595
761.890	0.0166717
761.968	0.0165641
762.046	0.0164807
762.124	0.0164719
762.203	0.0165372
762.281	0.0166927
762.359	0.0164050
762.437	0.0163919
762.515	0.0163694
762.593	0.0162998
762.671	0.0163844
762.749	0.0162499
762.828	0.0162913
762.906	0.0162801
762.984	0.0161557
763.062	0.0161472
763.140	0.0161729
763.218	0.0161502
763.296	0.0161826
763.374	0.0159336
763.453	0.0160613
763.531	0.0160856
763.609	0.0159570
763.687	0.0160244
763.765	0.0159995
763.843	0.0162560
763.921	0.0162657
763.999	0.0162602
764.078	0.0162989
764.156	0.0162560
764.234	0.0163947
764.312	0.0165659
764.390	0.0164205
764.468	0.0164629
764.546	0.0164034
764.624	0.0164616
764.703	0.0166532
764.781	0.0165241
764.859	0.0165977
764.937	0.0165430
765.015	0.0164935
765.093	0.0166075
765.171	0.0165278
765.249	0.0166424
765.328	0.0164817
765.406	0.0166190
765.484	0.0164719
765.562	0.0165436
765.640	0.0165232
765.718	0.0165181
765.796	0.0165363
765.874	0.0164876
765.953	0.0165011
766.031	0.0163965
766.109	0.0164295
766.187	0.0164146
766.265	0.0164692
766.343	0.0164404
766.421	0.0163512
766.499	0.0163764
766.578	0.0163585
766.656	0.0163211
766.734	0.0162319
766.812	0.0162767
766.890	0.0161721
766.968	0.0161478
767.046	0.0159560
767.124	0.0159837
767.203	0.0161526
767.281	0.0159830
767.359	0.0159704
767.437	0.0160414
767.515	0.0159205
767.593	0.0159840
767.671	0.0161461
767.749	0.0163073
767.828	0.0162672
767.906	0.0163067
767.984	0.0163847
768.062	0.0164639
768.140	0.0165911
768.218	0.0166634
768.296	0.0167304
768.374	0.0166328
768.453	0.0168480
768.531	0.0169411
768.609	0.0167266
768.687	0.0167427
768.765	0.0168365
768.843	0.0168196
768.921	0.0166893
768.999	0.0166090
769.078	0.0165367
769.156	0.0162912
769.234	0.0164886
769.312	0.0163880
769.390	0.0162961
769.468	0.0163010
769.546	0.0160391
769.624	0.0160136
769.703	0.0158956
769.781	0.0159611
769.859	0.0159284
769.937	0.0158593
770.015	0.0159688
770.093	0.0158686
770.171	0.0159111
770.249	0.0160249
770.328	0.0159393
770.406	0.0160423
770.484	0.0160401
770.562	0.0160854
770.640	0.0161686
770.718	0.0162008
770.796	0.0161649
770.874	0.0162966
770.953	0.0162146
771.031	0.0163437
771.109	0.0163799
771.187	0.0162852
771.265	0.0163934
771.343	0.0164591
771.421	0.0164522
771.499	0.0165430
771.578	0.0165939
771.656	0.0165945
771.734	0.0164963
771.812	0.0165275
771.890	0.0163758
771.968	0.0164412
772.046	0.0165411
772.124	0.0166393
772.203	0.0167148
772.281	0.0168512
772.359	0.0166351
772.437	0.0165273
772.515	0.0167132
772.593	0.0168244
772.671	0.0167949
772.749	0.0166203
772.828	0.0168076
772.906	0.0165501
772.984	0.0164919
773.062	0.0164608
773.140	0.0165244
773.218	0.0164349
773.296	0.0163616
773.374	0.0163081
773.453	0.0162794
773.531	0.0162402
773.609	0.0161275
773.687	0.0161342
773.765	0.0160852
773.843	0.0159004
773.921	0.0159685
773.999	0.0159666
774.078	0.0159588
774.156	0.0159455
774.234	0.0160419
774.312	0.0158891
774.390	0.0159549
774.468	0.0158350
774.546	0.0159373
774.624	0.0161124
774.703	0.0160638
774.781	0.0160650
774.859	0.0160788
774.937	0.0161747
775.015	0.0160683
775.093	0.0162653
775.171	0.0162380
775.249	0.0164289
775.328	0.0163776
775.406	0.0163226
775.484	0.0164754
775.562	0.0165903
775.640	0.0165627
775.718	0.0165668
775.796	0.0165474
775.874	0.0166912
775.953	0.0166320
776.031	0.0164291
776.109	0.0165683
776.187	0.0165653
776.265	0.0165497
776.343	0.0166186
776.421	0.0163929
776.499	0.0164626
776.578	0.0165510
776.656	0.0165681
776.734	0.0164571
776.812	0.0165076
776.890	0.0165609
776.968	0.0165713
777.046	0.0166422
777.124	0.0165647
777.203	0.0164527
777.281	0.0164645
777.359	0.0165499
777.437	0.0164771
777.515	0.0162933
777.593	0.0164755
777.671	0.0163279
777.749	0.0163403
777.828	0.0161878
777.906	0.0162933
777.984	0.0161997
778.062	0.0161990
778.140	0.0162063
778.218	0.0160960
778.296	0.0160696
778.374	0.0160049
778.453	0.0160125
778.531	0.0160820
778.609	0.0159521
778.687	0.0160464
778.765	0.0160030
778.843	0.0160891
778.921	0.0162321
778.999	0.0162978
779.078	0.0163062
779.156	0.0163391
779.234	0.0163165
779.312	0.0165679
779.390	0.0164960
779.468	0.0166601
779.546	0.0166679
779.624	0.0167551
779.703	0.0167738
779.781	0.0166872
779.859	0.0166981
779.937	0.0168455
780.015	0.0165459
780.093	0.0164033
780.171	0.0165868
780.249	0.0163867
780.328	0.0165127
780.406	0.0163198
780.484	0.0162996
780.562	0.0160939
780.640	0.0161285
780.718	0.0160742
780.796	0.0160004
780.874	0.0159630
780.953	0.0158289
781.031	0.0159209
781.109	0.0158440
781.187	0.0158283
781.265	0.0158202
781.343	0.0159351
781.421	0.0157651
781.499	0.0158584
781.578	0.0158678
781.656	0.0161121
781.734	0.0159100
781.812	0.0161751
781.890	0.0163275
781.968	0.0164101
782.046	0.0164894
782.124	0.0165176
782.203	0.0166675
782.281	0.0167790
782.359	0.0167866
782.437	0.0168681
782.515	0.0168903
782.593	0.0167984
782.671	0.0170654
782.749	0.0170664
782.828	0.0169248
782.906	0.0170035
782.984	0.0170700
783.062	0.0170176
783.140	0.0169112
783.218	0.0168691
783.296	0.0167770
783.374	0.0166663
783.453	0.0166291
783.531	0.0164865
783.609	0.0164923
783.687	0.0163267
783.765	0.0161861
783.843	0.0161140
783.921	0.0159643
783.999	0.0159213
784.078	0.0157364
784.156	0.0158868
784.234	0.0157130
784.312	0.0156370
784.390	0.0158334
784.468	0.0157366
784.546	0.0156709
784.624	0.0157561
784.703	0.0157381
784.781	0.0158249
784.859	0.0157713
784.937	0.0159393
785.015	0.0159580
785.093	0.0160715
785.171	0.0161061
785.249	0.0161698
785.328	0.0162888
785.406	0.0163123
785.484	0.0163499
785.562	0.0164286
785.640	0.0165828
785.718	0.0163914
785.796	0.0164661
785.874	0.0166387
785.953	0.0165794
786.031	0.0166321
786.109	0.0165202
786.187	0.0165602
786.265	0.0165465
786.343	0.0166068
786.421	0.0166797
786.499	0.0167404
786.578	0.0168384
786.656	0.0168569
786.734	0.0168385
786.812	0.0167284
786.890	0.0169366
786.968	0.0170478
787.046	0.0168706
787.124	0.0169094
787.203	0.0168877
787.281	0.0168423
787.359	0.0168991
787.437	0.0168217
787.515	0.0167016
787.593	0.0165518
787.671	0.0166738
787.749	0.0164835
787.828	0.0163262
787.906	0.0162626
787.984	0.0162107
788.062	0.0161187
788.140	0.0161380
788.218	0.0160627
788.296	0.0159689
788.374	0.0159425
788.453	0.0160115
788.531	0.0158948
788.609	0.0159606
788.687	0.0160580
788.765	0.0158141
788.843	0.0159697
788.921	0.0161359
788.999	0.0160236
789.078	0.0160884
789.156	0.0162200
789.234	0.0162278
789.312	0.0162511
789.390	0.0164217
789.468	0.0164086
789.546	0.0165842
789.624	0.0165907
789.703	0.0167621
789.781	0.0166598
789.859	0.0167805
789.937	0.0167548
790.015	0.0167347
790.093	0.0167196
790.171	0.0166840
790.249	0.0167397
790.328	0.0165964
790.406	0.0164325
790.484	0.0164401
790.562	0.0160697
790.640	0.0160561
790.718	0.0160213
790.796	0.0160256
790.874	0.0159931
790.953	0.0158148
791.031	0.0158727
791.109	0.0158697
791.187	0.0159116
791.265	0.0159234
791.343	0.0162006
791.421	0.0161093
791.499	0.0161942
791.578	0.0162746
791.656	0.0163081
791.734	0.0164638
791.812	0.0164499
791.890	0.0165530
791.968	0.0167818
792.046	0.0169102
792.124	0.0169408
792.203	0.0167694
792.281	0.0167712
792.359	0.0168017
792.437	0.0168256
792.515	0.0169161
792.593	0.0167952
792.671	0.0168496
792.749	0.0169649
792.828	0.0167617
792.906	0.0168763
792.984	0.0167274
793.062	0.0167552
793.140	0.0167129
793.218	0.0167555
793.296	0.0167879
793.374	0.0167170
793.453	0.0164809
793.531	0.0164658
793.609	0.0164674
793.687	0.0163328
793.765	0.0162374
793.843	0.0162007
793.921	0.0160676
793.999	0.0160645
794.078	0.0161157
794.156	0.0159792
794.234	0.0158582
794.312	0.0157615
794.390	0.0156945
794.468	0.0156261
794.546	0.0156360
794.624	0.0155667
794.703	0.0156460
794.781	0.0155939
794.859	0.0154987
794.937	0.0154832
795.015	0.0157178
795.093	0.0158330
795.171	0.0158878
795.249	0.0160065
795.328	0.0160841
795.406	0.0161701
795.484	0.0162527
795.562	0.0163318
795.640	0.0165201
795.718	0.0166553
795.796	0.0165824
795.874	0.0164931
795.953	0.0167134
796.031	0.0168454
796.109	0.0168447
796.187	0.0168623
796.265	0.0169036
796.343	0.0167443
796.421	0.0167027
796.499	0.0168936
796.578	0.0167410
796.656	0.0166518
796.734	0.0166385
796.812	0.0166232
796.890	0.0166748
796.968	0.0164637
797.046	0.0166158
797.124	0.0168242
797.203	0.0165805
797.281	0.0166169
797.359	0.0165652
797.437	0.0166336
797.515	0.0167213
797.593	0.0166788
797.671	0.0168067
797.749	0.0166994
797.828	0.0168610
797.906	0.0168906
797.984	0.0167780
798.062	0.0168223
798.140	0.0166749
798.218	0.0166669
798.296	0.0163922
798.374	0.0163533
798.453	0.0162511
798.531	0.0162376
798.609	0.0161177
798.687	0.0161052
798.765	0.0159611
798.843	0.0159576
798.921	0.0157544
798.999	0.0156835
799.078	0.0157648
799.156	0.0157088
799.234	0.0155998
799.312	0.0156264
799.390	0.0157268
799.468	0.0158147
799.546	0.0158360
799.624	0.0157932
799.703	0.0160406
799.781	0.0158132
799.859	0.0157953
799.937	0.0159571
800.015	0.0158979
800.093	0.0160438
800.171	0.0161286
800.249	0.0160674
800.328	0.0158981
800.406	0.0161113
800.484	0.0161841
800.562	0.0161754
800.640	0.0163705
800.718	0.0164291
800.796	0.0164235
800.874	0.0164202
800.953	0.0164996
801.031	0.0166724
801.109	0.0166434
801.187	0.0168152
801.265	0.0168018
801.343	0.0167590
801.421	0.0168114
801.499	0.0168506
801.578	0.0171014
801.656	0.0170856
801.734	0.0169580
801.812	0.0171192
801.890	0.0170886
801.968	0.0170149
802.046	0.0170377
802.124	0.0171132
802.203	0.0172420
802.281	0.0170020
802.359	0.0168421
802.437	0.0167022
802.515	0.0167242
802.593	0.0166322
802.671	0.0163158
802.749	0.0164095
802.828	0.0162045
802.906	0.0162653
802.984	0.0161993
803.062	0.0159548
803.140	0.0159130
803.218	0.0158797
803.296	0.0157011
803.374	0.0155296
803.453	0.0157157
803.531	0.0157801
803.609	0.0156977
803.687	0.0158759
803.765	0.0158488
803.843	0.0158524
803.921	0.0158085
803.999	0.0159480
804.078	0.0161134
804.156	0.0160769
804.234	0.0162896
804.312	0.0162650
804.390	0.0163548
804.468	0.0163051
804.546	0.0162854
804.624	0.0162084
804.703	0.0163194
804.781	0.0163431
804.859	0.0162389
804.937	0.0162331
805.015	0.0164054
805.093	0.0162575
805.171	0.0162832
805.249	0.0163209
805.328	0.0161539
805.406	0.0163995
805.484	0.0164080
805.562	0.0162375
805.640	0.0163815
805.718	0.0161209
805.796	0.0162955
805.874	0.0162099
805.953	0.0163196
806.031	0.0164428
806.109	0.0165225
806.187	0.0167056
806.265	0.0166847
806.343	0.0166844
806.421	0.0167366
806.499	0.0166612
806.578	0.0167860
806.656	0.0168545
806.734	0.0168903
806.812	0.0168070
806.890	0.0169415
806.968	0.0170516
807.046	0.0170474
807.124	0.0168354
807.203	0.0167701
807.281	0.0168013
807.359	0.0168958
807.437	0.0168252
807.515	0.0168095
807.593	0.0167038
807.671	0.0166672
807.749	0.0166436
807.828	0.0167328
807.906	0.0165891
807.984	0.0166544
808.062	0.0164629
808.140	0.0164874
808.218	0.0164484
808.296	0.0162380
808.374	0.0161780
808.453	0.0160784
808.531	0.0160284
808.609	0.0160457
808.687	0.0158606
808.765	0.0157478
808.843	0.0155772
808.921	0.0154870
808.999	0.0154743
809.078	0.0154086
809.156	0.0154885
809.234	0.0154562
809.312	0.0154838
809.390	0.0156783
809.468	0.0156973
809.546	0.0157555
809.624	0.0158101
809.703	0.0159814
809.781	0.0161811
809.859	0.0163253
809.937	0.0163452
810.015	0.0164233
810.093	0.0164626
810.171	0.0165833
810.249	0.0167598
810.328	0.0167990
810.406	0.0168407
810.484	0.0168221
810.562	0.0166891
810.640	0.0166444
810.718	0.0165926
810.796	0.0165771
810.874	0.0166869
810.953	0.0165083
811.031	0.0163881
811.109	0.0164502
811.187	0.0165465
811.265	0.0164969
811.343	0.0166059
811.421	0.0165166
811.499	0.0166219
811.578	0.0167307
811.656	0.0166414
811.734	0.0166574
811.812	0.0168684
811.890	0.0167340
811.968	0.0168001
812.046	0.0167696
812.124	0.0168656
812.203	0.0168246
812.281	0.0168845
812.359	0.0167958
812.437	0.0167191
812.515	0.0165421
812.593	0.0164120
812.671	0.0164162
812.749	0.0162702
812.828	0.0161787
812.906	0.0162719
812.984	0.0160088
813.062	0.0161201
813.140	0.0159933
813.218	0.0159098
813.296	0.0159158
813.374	0.0159721
813.453	0.0159990
813.531	0.0159872
813.609	0.0160100
813.687	0.0158427
813.765	0.0160040
813.843	0.0160322
813.921	0.0160621
813.999	0.0160389
814.078	0.0161599
814.156	0.0161098
814.234	0.0161848
814.312	0.0162200
814.390	0.0162331
814.468	0.0163921
814.546	0.0162905
814.624	0.0163068
814.703	0.0165719
814.781	0.0163852
814.859	0.0165472
814.937	0.0165462
815.015	0.0165063
815.093	0.0165575
815.171	0.0164840
815.249	0.0164998
815.328	0.0165585
815.406	0.0164519
815.484	0.0165993
815.562	0.0164852
815.640	0.0164455
815.718	0.0165991
815.796	0.0165636
815.874	0.0163663
815.953	0.0163503
816.031	0.0164913
816.109	0.0164225
816.187	0.0165340
816.265	0.0163638
816.343	0.0164078
816.421	0.0162949
816.499	0.0164338
816.578	0.0165244
816.656	0.0164396
816.734	0.0163657
816.812	0.0163906
816.890	0.0165058
816.968	0.0164850
817.046	0.0166156
817.124	0.0165891
817.203	0.0166744
817.281	0.0165437
817.359	0.0167236
817.437	0.0166721
817.515	0.0166771
817.593	0.0165852
817.671	0.0165411
817.749	0.0165766
817.828	0.0165430
817.906	0.0164452
817.984	0.0165342
818.062	0.0164451
818.140	0.0163020
818.218	0.0164231
818.296	0.0163689
818.374	0.0163460
818.453	0.0162942
818.531	0.0161617
818.609	0.0161172
818.687	0.0160660
818.765	0.0161716
818.843	0.0160223
818.921	0.0160741
818.999	0.0160094
819.078	0.0159039
819.156	0.0159174
819.234	0.0159314
819.312	0.0159011
819.390	0.0157671
819.468	0.0157557
819.546	0.0157836
819.624	0.0158781
819.703	0.0159647
819.781	0.0159002
819.859	0.0160303
819.937	0.0160045
820.015	0.0162125
820.093	0.0162941
820.171	0.0164576
820.249	0.0166145
820.328	0.0165112
820.406	0.0167590
820.484	0.0169004
820.562	0.0169556
820.640	0.0169992
820.718	0.0171130
820.796	0.0172485
820.874	0.0172939
820.953	0.0171058
821.031	0.0172621
821.109	0.0172559
821.187	0.0170674
821.265	0.0170329
821.343	0.0168513
821.421	0.0170148
821.499	0.0167354
821.578	0.0165503
821.656	0.0163841
821.734	0.0164470
821.812	0.0162531
821.890	0.0160979
821.968	0.0161763
822.046	0.0159105
822.124	0.0159773
822.203	0.0160036
822.281	0.0157133
822.359	0.0156926
822.437	0.0156380
822.515	0.0157831
822.593	0.0157278
822.671	0.0156934
822.749	0.0157549
822.828	0.0157306
822.906	0.0158270
822.984	0.0159213
823.062	0.0158110
823.140	0.0158787
823.218	0.0159308
823.296	0.0160886
823.374	0.0161320
823.453	0.0160714
823.531	0.0161708
823.609	0.0162805
823.687	0.0163894
823.765	0.0163576
823.843	0.0164653
823.921	0.0164901
823.999	0.0166922
824.078	0.0165929
824.156	0.0166175
824.234	0.0166113
824.312	0.0167043
824.390	0.0166181
824.468	0.0165031
824.546	0.0166291
824.624	0.0166805
824.703	0.0167516
824.781	0.0166580
824.859	0.0167495
824.937	0.0165575
825.015	0.0166130
825.093	0.0165466
825.171	0.0167175
825.249	0.0165092
825.328	0.0164622
825.406	0.0164372
825.484	0.0163757
825.562	0.0162064
825.640	0.0162153
825.718	0.0161677
825.796	0.0160667
825.874	0.0160650
825.953	0.0160668
826.031	0.0160331
826.109	0.0160910
826.187	0.0160117
826.265	0.0160107
826.343	0.0160323
826.421	0.0163066
826.499	0.0161872
826.578	0.0161341
826.656	0.0161817
826.734	0.0161660
826.812	0.0161741
826.890	0.0161462
826.968	0.0160905
827.046	0.0162579
827.124	0.0161761
827.203	0.0163760
827.281	0.0163327
827.359	0.0163493
827.437	0.0165201
827.515	0.0165128
827.593	0.0163686
827.671	0.0163952
827.749	0.0165482
827.828	0.0163378
827.906	0.0164982
827.984	0.0164839
828.062	0.0163988
828.140	0.0164236
828.218	0.0163215
828.296	0.0163120
828.374	0.0163784
828.453	0.0163125
828.531	0.0162164
828.609	0.0162196
828.687	0.0163090
828.765	0.0161203
828.843	0.0161492
828.921	0.0162478
828.999	0.0162764
829.078	0.0161893
829.156	0.0161940
829.234	0.0160133
829.312	0.0160824
829.390	0.0161391
829.468	0.0161450
829.546	0.0161684
829.624	0.0160968
829.703	0.0160786
829.781	0.0160143
829.859	0.0160888
829.937	0.0160753
830.015	0.0163371
830.093	0.0161195
830.171	0.0160790
830.249	0.0160236
830.328	0.0162820
830.406	0.0161303
830.484	0.0162297
830.562	0.0164288
830.640	0.0163955
830.718	0.0165183
830.796	0.0165589
830.874	0.0163519
830.953	0.0165238
831.031	0.0164788
831.109	0.0166136
831.187	0.0166730
831.265	0.0165958
831.343	0.0166017
831.421	0.0165146
831.499	0.0165852
831.578	0.0165882
831.656	0.0164437
831.734	0.0165826
831.812	0.0164314
831.890	0.0163808
831.968	0.0163603
832.046	0.0160779
832.124	0.0162788
832.203	0.0162440
832.281	0.0163951
832.359	0.0161614
832.437	0.0163009
832.515	0.0162264
832.593	0.0162744
832.671	0.0163123
832.749	0.0163715
832.828	0.0162437
832.906	0.0161904
832.984	0.0162201
833.062	0.0160857
833.140	0.0161210
833.218	0.0160190
833.296	0.0161792
833.374	0.0162395
833.453	0.0162048
833.531	0.0160249
833.609	0.0160548
833.687	0.0162937
833.765	0.0162977
833.843	0.0162548
833.921	0.0161752
833.999	0.0163505
834.078	0.0163386
834.156	0.0164793
834.234	0.0164429
834.312	0.0163715
834.390	0.0163264
834.468	0.0163259
834.546	0.0163790
834.624	0.0164426
834.703	0.0164539
834.781	0.0164262
834.859	0.0164661
834.937	0.0164026
835.015	0.0164067
835.093	0.0165257
835.171	0.0164574
835.249	0.0161926
835.328	0.0164175
835.406	0.0162950
835.484	0.0163428
835.562	0.0164375
835.640	0.0163334
835.718	0.0163740
835.796	0.0164111
835.874	0.0163339
835.953	0.0162523
836.031	0.0163325
836.109	0.0163651
836.187	0.0163238
836.265	0.0163040
836.343	0.0162045
836.421	0.0163067
836.499	0.0162148
836.578	0.0163338
836.656	0.0161993
836.734	0.0161733
836.812	0.0162164
836.890	0.0161987
836.968	0.0161966
837.046	0.0163564
837.124	0.0163338
837.203	0.0163776
837.281	0.0163396
837.359	0.0162922
837.437	0.0162849
837.515	0.0164175
837.593	0.0165276
837.671	0.0163969
837.749	0.0162904
837.828	0.0163460
837.906	0.0164590
837.984	0.0165084
838.062	0.0164642
838.140	0.0164732
838.218	0.0165760
838.296	0.0166013
838.374	0.0165710
838.453	0.0166698
838.531	0.0166704
838.609	0.0165620
838.687	0.0167097
838.765	0.0166443
838.843	0.0167020
838.921	0.0166929
838.999	0.0167374
839.078	0.0166151
839.156	0.0166090
839.234	0.0165714
839.312	0.0166239
839.390	0.0165453
839.468	0.0164429
839.546	0.0164850
839.624	0.0163723
839.703	0.0163509
839.781	0.0162180
839.859	0.0162318
839.937	0.0162244
840.015	0.0161494
840.093	0.0161842
840.171	0.0160889
840.249	0.0160393
840.328	0.0159845
840.406	0.0158989
840.484	0.0159863
840.562	0.0159183
840.640	0.0158179
840.718	0.0157687
840.796	0.0159067
840.874	0.0158400
840.953	0.0158786
841.031	0.0156969
841.109	0.0159332
841.187	0.0160118
841.265	0.0159225
841.343	0.0161571
841.421	0.0160470
841.499	0.0161794
841.578	0.0163197
841.656	0.0165188
841.734	0.0165742
841.812	0.0165272
841.890	0.0164809
841.968	0.0166157
842.046	0.0166475
842.124	0.0167124
842.203	0.0167341
842.281	0.0167071
842.359	0.0166589
842.437	0.0166760
842.515	0.0167324
842.593	0.0167307
842.671	0.0166427
842.749	0.0167042
842.828	0.0167364
842.906	0.0166772
842.984	0.0166483
843.062	0.0165931
843.140	0.0167307
843.218	0.0165339
843.296	0.0165331
843.374	0.0165058
843.453	0.0165298
843.531	0.0165043
843.609	0.0163204
843.687	0.0162951
843.765	0.0164916
843.843	0.0163761
843.921	0.0162433
843.999	0.0160784
844.078	0.0161996
844.156	0.0161366
844.234	0.0160759
844.312	0.0162074
844.390	0.0162752
844.468	0.0161662
844.546	0.0162563
844.624	0.0161254
844.703	0.0162372
844.781	0.0162418
844.859	0.0162985
844.937	0.0164262
845.015	0.0163645
845.093	0.0163900
845.171	0.0162659
845.249	0.0164356
845.328	0.0164897
845.406	0.0163906
845.484	0.0163993
845.562	0.0163129
845.640	0.0163469
845.718	0.0163210
845.796	0.0161607
845.874	0.0161977
845.953	0.0162811
846.031	0.0162336
846.109	0.0162648
846.187	0.0161995
846.265	0.0163296
846.343	0.0164016
846.421	0.0164252
846.499	0.0161906
846.578	0.0162090
846.656	0.0162907
846.734	0.0161694
846.812	0.0161837
846.890	0.0163323
846.968	0.0164021
847.046	0.0162650
847.124	0.0162418
847.203	0.0163317
847.281	0.0163129
847.359	0.0161435
847.437	0.0161510
847.515	0.0162328
847.593	0.0162121
847.671	0.0162465
847.749	0.0162678
847.828	0.0163799
847.906	0.0164670
847.984	0.0162226
848.062	0.0163463
848.140	0.0164591
848.218	0.0165047
848.296	0.0164143
848.374	0.0165007
848.453	0.0165280
848.531	0.0164845
848.609	0.0164568
848.687	0.0165498
848.765	0.0166531
848.843	0.0165456
848.921	0.0164923
848.999	0.0165932
849.078	0.0165829
849.156	0.0164240
849.234	0.0164788
849.312	0.0165702
849.390	0.0163839
849.468	0.0164317
849.546	0.0164631
849.624	0.0164342
849.703	0.0162982
849.781	0.0164848
849.859	0.0162630
849.937	0.0163350
850.015	0.0163150
850.093	0.0162931
850.171	0.0161872
850.249	0.0162749
850.328	0.0162432
850.406	0.0162403
850.484	0.0161808
850.562	0.0161257
850.640	0.0160965
850.718	0.0161115
850.796	0.0160625
850.874	0.0160895
850.953	0.0160640
851.031	0.0160545
851.109	0.0161501
851.187	0.0162722
851.265	0.0160912
851.343	0.0160039
851.421	0.0162843
851.499	0.0161425
851.578	0.0162540
851.656	0.0162857
851.734	0.0162126
851.812	0.0160678
851.890	0.0161785
851.968	0.0161890
852.046	0.0163001
852.124	0.0163914
852.203	0.0163583
852.281	0.0164283
852.359	0.0163749
852.437	0.0164925
852.515	0.0165817
852.593	0.0165696
852.671	0.0163736
852.749	0.0164120
852.828	0.0164706
852.906	0.0164309
852.984	0.0165504
853.062	0.0161424
853.140	0.0163212
853.218	0.0162433
853.296	0.0162979
853.374	0.0162834
853.453	0.0162280
853.531	0.0161832
853.609	0.0161243
853.687	0.0160876
853.765	0.0160957
853.843	0.0160975
853.921	0.0160940
853.999	0.0161216
854.078	0.0161413
854.156	0.0160686
854.234	0.0162386
854.312	0.0161977
854.390	0.0161674
854.468	0.0160749
854.546	0.0162984
854.624	0.0162177
854.703	0.0161672
854.781	0.0164602
854.859	0.0163679
854.937	0.0164496
855.015	0.0163975
855.093	0.0164614
855.171	0.0164877
855.249	0.0164676
855.328	0.0165013
855.406	0.0164629
855.484	0.0164684
855.562	0.0164404
855.640	0.0165489
855.718	0.0164632
855.796	0.0164513
855.874	0.0165356
855.953	0.0164115
856.031	0.0164371
856.109	0.0163885
856.187	0.0164357
856.265	0.0164043
856.343	0.0164758
856.421	0.0163528
856.499	0.0164194
856.578	0.0164065
856.656	0.0164076
856.734	0.0163219
856.812	0.0164738
856.890	0.0162350
856.968	0.0164581
857.046	0.0164394
857.124	0.0163169
857.203	0.0163377
857.281	0.0161935
857.359	0.0163179
857.437	0.0163066
857.515	0.0164225
857.593	0.0164147
857.671	0.0162873
857.749	0.0163550
857.828	0.0164498
857.906	0.0164105
857.984	0.0163562
858.062	0.0163126
858.140	0.0164068
858.218	0.0163615
858.296	0.0165106
858.374	0.0163586
858.453	0.0163283
858.531	0.0164521
858.609	0.0162619
858.687	0.0162600
858.765	0.0162740
858.843	0.0164415
858.921	0.0162637
858.999	0.0163334
859.078	0.0163667
859.156	0.0163390
859.234	0.0162502
859.312	0.0162784
859.390	0.0163576
859.468	0.0161440
859.546	0.0163634
859.624	0.0162958
859.703	0.0162436
859.781	0.0163442
859.859	0.0162086
859.937	0.0162448
860.015	0.0162659
860.093	0.0163779
860.171	0.0164294
860.249	0.0164283
860.328	0.0162996
860.406	0.0163428
860.484	0.0164952
860.562	0.0164368
860.640	0.0165084
860.718	0.0165561
860.796	0.0164572
860.874	0.0165256
860.953	0.0165390
861.031	0.0165450
861.109	0.0164310
861.187	0.0165441
861.265	0.0163767
861.343	0.0163989
861.421	0.0165221
861.499	0.0165327
861.578	0.0164434
861.656	0.0164232
861.734	0.0165388
861.812	0.0163474
861.890	0.0163197
861.968	0.0163007
862.046	0.0164362
862.124	0.0164110
862.203	0.0163628
862.281	0.0163385
862.359	0.0163287
862.437	0.0164013
862.515	0.0166136
862.593	0.0164773
862.671	0.0163959
862.749	0.0164323
862.828	0.0164109
862.906	0.0162437
862.984	0.0164213
863.062	0.0164322
863.140	0.0162956
863.218	0.0163772
863.296	0.0163506
863.374	0.0163347
863.453	0.0161127
863.531	0.0162274
863.609	0.0162461
863.687	0.0162429
863.765	0.0161346
863.843	0.0162384
863.921	0.0161895
863.999	0.0162029
864.078	0.0163509
864.156	0.0162882
864.234	0.0162785
864.312	0.0163482
864.390	0.0164449
864.468	0.0162674
864.546	0.0162466
864.624	0.0163985
864.703	0.0164189
864.781	0.0163190
864.859	0.0163043
864.937	0.0164638
865.015	0.0163609
865.093	0.0163850
865.171	0.0164281
865.249	0.0162904
865.328	0.0163781
865.406	0.0163215
865.484	0.0164264
865.562	0.0163071
865.640	0.0162981
865.718	0.0161910
865.796	0.0164079
865.874	0.0165573
865.953	0.0164210
866.031	0.0163770
866.109	0.0163107
866.187	0.0163427
866.265	0.0164639
866.343	0.0163516
866.421	0.0163889
866.499	0.0163966
866.578	0.0164763
866.656	0.0164774
866.734	0.0163253
866.812	0.0163527
866.890	0.0162730
866.968	0.0163397
867.046	0.0164024
867.124	0.0162048
867.203	0.0162763
867.281	0.0162199
867.359	0.0162089
867.437	0.0161266
867.515	0.0162812
867.593	0.0162743
867.671	0.0162561
867.749	0.0162656
867.828	0.0162701
867.906	0.0162656
867.984	0.0161368
868.062	0.0163945
868.140	0.0162984
868.218	0.0162540
868.296	0.0162895
868.374	0.0163203
868.453	0.0162201
868.531	0.0162461
868.609	0.0162944
868.687	0.0162572
868.765	0.0164497
868.843	0.0164662
868.921	0.0162880
868.999	0.0162918
869.078	0.0162726
869.156	0.0163153
869.234	0.0163212
869.312	0.0163627
869.390	0.0164134
869.468	0.0164410
869.546	0.0164340
869.624	0.0163282
869.703	0.0163711
869.781	0.0164047
869.859	0.0163522
869.937	0.0163573
870.015	0.0162513
870.093	0.0163218
870.171	0.0163043
870.249	0.0163729
870.328	0.0163097
870.406	0.0163343
870.484	0.0163998
870.562	0.0164841
870.640	0.0163839
870.718	0.0163287
870.796	0.0164164
870.874	0.0163843
870.953	0.0164427
871.031	0.0162705
871.109	0.0163152
871.187	0.0164480
871.265	0.0162997
871.343	0.0162040
871.421	0.0161910
871.499	0.0162634
871.578	0.0163187
871.656	0.0163577
871.734	0.0162986
871.812	0.0162971
871.890	0.0162140
871.968	0.0163470
872.046	0.0161750
872.124	0.0163456
872.203	0.0163801
872.281	0.0163895
872.359	0.0164721
872.437	0.0165302
872.515	0.0163660
872.593	0.0163309
872.671	0.0164048
872.749	0.0163764
872.828	0.0163534
872.906	0.0163970
872.984	0.0163982
873.062	0.0163639
873.140	0.0162005
873.218	0.0164043
873.296	0.0163530
873.374	0.0163599
873.453	0.0164730
873.531	0.0164224
873.609	0.0164245
873.687	0.0163885
873.765	0.0163457
873.843	0.0164352
873.921	0.0164135
873.999	0.0162904
874.078	0.0164658
874.156	0.0164662
874.234	0.0161739
874.312	0.0163789
874.390	0.0164120
874.468	0.0163998
874.546	0.0163358
874.624	0.0163503
874.703	0.0163350
874.781	0.0163469
874.859	0.0162707
874.937	0.0161158
875.015	0.0163688
875.093	0.0163860
875.171	0.0163476
875.249	0.0164050
875.328	0.0164516
875.406	0.0163063
875.484	0.0164352
875.562	0.0166636
875.640	0.0164935
875.718	0.0164799
875.796	0.0165904
875.874	0.0164969
875.953	0.0164836
876.031	0.0166634
876.109	0.0165051
876.187	0.0165738
876.265	0.0165880
876.343	0.0165596
876.421	0.0164867
876.499	0.0165657
876.578	0.0164905
876.656	0.0163390
876.734	0.0163371
876.812	0.0164085
876.890	0.0164260
876.968	0.0165079
877.046	0.0164416
877.124	0.0164340
877.203	0.0163551
877.281	0.0163778
877.359	0.0163538
877.437	0.0163632
877.515	0.0163885
877.593	0.0161958
877.671	0.0162887
877.749	0.0164144
877.828	0.0164681
877.906	0.0162917
877.984	0.0161734
878.062	0.0162621
878.140	0.0163348
878.218	0.0162423
878.296	0.0162701
878.374	0.0161387
878.453	0.0162417
878.531	0.0163435
878.609	0.0163728
878.687	0.0162327
878.765	0.0162778
878.843	0.0163193
878.921	0.0162854
878.999	0.0163165
879.078	0.0162247
879.156	0.0163979
879.234	0.0163551
879.312	0.0164362
879.390	0.0164120
879.468	0.0165464
879.546	0.0164297
879.624	0.0165702
879.703	0.0165044
879.781	0.0165031
879.859	0.0163577
879.937	0.0164054
880.015	0.0165139
880.093	0.0166514
880.171	0.0165585
880.249	0.0164398
880.328	0.0165649
880.406	0.0164143
880.484	0.0165064
880.562	0.0165078
880.640	0.0162959
880.718	0.0163797
880.796	0.0163994
880.874	0.0163910
880.953	0.0162518
881.031	0.0163761
881.109	0.0162797
881.187	0.0163654
881.265	0.0162837
881.343	0.0164043
881.421	0.0163740
881.499	0.0163531
881.578	0.0165380
881.656	0.0163972
881.734	0.0163872
881.812	0.0163670
881.890	0.0164223
881.968	0.0163398
882.046	0.0165167
882.124	0.0164657
882.203	0.0165145
882.281	0.0165058
882.359	0.0164951
882.437	0.0164536
882.515	0.0165463
882.593	0.0163620
882.671	0.0163936
882.749	0.0164835
882.828	0.0165796
882.906	0.0162521
882.984	0.0163880
883.062	0.0163326
883.140	0.0164013
883.218	0.0162961
883.296	0.0164441
883.374	0.0163872
883.453	0.0163496
883.531	0.0163207
883.609	0.0163277
883.687	0.0162708
883.765	0.0163042
883.843	0.0163016
883.921	0.0162019
883.999	0.0162722
884.078	0.0162780
884.156	0.0161155
884.234	0.0162177
884.312	0.0163042
884.390	0.0162701
884.468	0.0160992
884.546	0.0162138
884.624	0.0161332
884.703	0.0161737
884.781	0.0161400
884.859	0.0160679
884.937	0.0161765
885.015	0.0162295
885.093	0.0162490
885.171	0.0163178
885.249	0.0162498
885.328	0.0163454
885.406	0.0163925
885.484	0.0163811
885.562	0.0164327
885.640	0.0163836
885.718	0.0163275
885.796	0.0164725
885.874	0.0165115
885.953	0.0164046
886.031	0.0164663
886.109	0.0164731
886.187	0.0164661
886.265	0.0164294
886.343	0.0162856
886.421	0.0163903
886.499	0.0163975
886.578	0.0162641
886.656	0.0162608
886.734	0.0163697
886.812	0.0163571
886.890	0.0162514
886.968	0.0161621
887.046	0.0162235
887.124	0.0162509
887.203	0.0163050
887.281	0.0161504
887.359	0.0162344
887.437	0.0160870
887.515	0.0160576
887.593	0.0162051
887.671	0.0162684
887.749	0.0160686
887.828	0.0162946
887.906	0.0161181
887.984	0.0161182
888.062	0.0162756
888.140	0.0163820
888.218	0.0164124
888.296	0.0162132
888.374	0.0163242
888.453	0.0161967
888.531	0.0163174
888.609	0.0164371
888.687	0.0164502
888.765	0.0163817
888.843	0.0165181
888.921	0.0163575
888.999	0.0165553
889.078	0.0164363
889.156	0.0163457
889.234	0.0164744
889.312	0.0163419
889.390	0.0162823
889.468	0.0164603
889.546	0.0164926
889.624	0.0164574
889.703	0.0164343
889.781	0.0162605
889.859	0.0164396
889.937	0.0162152
890.015	0.0163062
890.093	0.0163797
890.171	0.0163582
890.249	0.0162442
890.328	0.0162625
890.406	0.0162327
890.484	0.0164854
890.562	0.0162669
890.640	0.0162483
890.718	0.0163503
890.796	0.0162741
890.874	0.0161863
890.953	0.0162744
891.031	0.0161470
891.109	0.0161172
891.187	0.0160487
891.265	0.0160927
891.343	0.0160604
891.421	0.0160507
891.499	0.0162501
891.578	0.0164165
891.656	0.0163744
891.734	0.0163634
891.812	0.0163255
891.890	0.0162361
891.968	0.0164577
892.046	0.0163932
892.124	0.0164964
892.203	0.0163233
892.281	0.0162860
892.359	0.0163961
892.437	0.0163863
892.515	0.0163223
892.593	0.0162482
892.671	0.0163000
892.749	0.0160976
892.828	0.0162526
892.906	0.0162577
892.984	0.0162777
893.062	0.0163879
893.140	0.0163136
893.218	0.0164012
893.296	0.0163217
893.374	0.0163936
893.453	0.0163957
893.531	0.0163130
893.609	0.0164002
893.687	0.0163569
893.765	0.0163030
893.843	0.0162672
893.921	0.0163217
893.999	0.0164501
894.078	0.0165701
894.156	0.0164417
894.234	0.0164484
894.312	0.0165209
894.390	0.0163689
894.468	0.0165575
894.546	0.0165632
894.624	0.0165981
894.703	0.0165366
894.781	0.0165426
894.859	0.0165776
894.937	0.0164847
895.015	0.0165404
895.093	0.0165235
895.171	0.0164156
895.249	0.0165219
895.328	0.0164467
895.406	0.0164764
895.484	0.0163854
895.562	0.0164763
895.640	0.0163512
895.718	0.0164902
895.796	0.0164657
895.874	0.0163705
895.953	0.0163302
896.031	0.0165362
896.109	0.0163723
896.187	0.0162492
896.265	0.0163376
896.343	0.0162360
896.421	0.0163237
896.499	0.0165257
896.578	0.0163502
896.656	0.0162382
896.734	0.0163604
896.812	0.0163426
896.890	0.0164117
896.968	0.0163974
897.046	0.0162801
897.124	0.0164066
897.203	0.0162975
897.281	0.0163150
897.359	0.0164484
897.437	0.0163511
897.515	0.0163898
897.593	0.0164145
897.671	0.0164243
897.749	0.0164489
897.828	0.0164435
897.906	0.0164235
897.984	0.0165493
898.062	0.0165244
898.140	0.0165941
898.218	0.0165253
898.296	0.0165199
898.374	0.0165663
898.453	0.0166789
898.531	0.0166354
898.609	0.0166034
898.687	0.0164860
898.765	0.0165816
898.843	0.0165305
898.921	0.0164364
898.999	0.0164596
899.078	0.0163601
899.156	0.0164156
899.234	0.0164625
899.312	0.0162772
899.390	0.0163140
899.468	0.0162630
899.546	0.0163602
899.624	0.0162642
899.703	0.0161584
899.781	0.0161646
899.859	0.0161992
899.937	0.0163239
900.015	0.0163463
900.093	0.0162452
900.171	0.0162164
900.249	0.0163492
900.328	0.0163442
900.406	0.0163441
900.484	0.0163616
900.562	0.0163409
900.640	0.0162543
900.718	0.0164112
900.796	0.0164091
900.874	0.0164148
900.953	0.0163522
901.031	0.0164399
901.109	0.0164568
901.187	0.0164481
901.265	0.0164379
901.343	0.0164193
901.421	0.0164568
901.499	0.0165267
901.578	0.0165363
901.656	0.0165196
901.734	0.0165186
901.812	0.0164104
901.890	0.0164153
901.968	0.0165347
902.046	0.0163986
902.124	0.0165878
902.203	0.0164224
902.281	0.0162637
902.359	0.0163861
902.437	0.0165168
902.515	0.0163683
902.593	0.0164314
902.671	0.0162692
902.749	0.0163817
902.828	0.0163941
902.906	0.0163569
902.984	0.0163868
903.062	0.0163029
903.140	0.0161702
903.218	0.0163484
903.296	0.0164343
903.374	0.0164092
903.453	0.0162493
903.531	0.0162418
903.609	0.0163891
903.687	0.0163019
903.765	0.0163647
903.843	0.0163670
903.921	0.0164838
903.999	0.0163622
904.078	0.0162418
904.156	0.0165142
904.234	0.0164754
904.312	0.0163715
904.390	0.0164703
904.468	0.0163452
904.546	0.0164603
904.624	0.0165276
904.703	0.0164468
904.781	0.0164418
904.859	0.0165783
904.937	0.0164207
905.015	0.0163445
905.093	0.0164214
905.171	0.0162875
905.249	0.0163926
905.328	0.0162103
905.406	0.0162634
905.484	0.0162207
905.562	0.0161826
905.640	0.0162884
905.718	0.0160659
905.796	0.0160691
905.874	0.0160712
905.953	0.0161397
906.031	0.0161812
906.109	0.0161774
906.187	0.0163274
906.265	0.0160787
906.343	0.0161289
906.421	0.0162057
906.499	0.0162654
906.578	0.0161880
906.656	0.0162511
906.734	0.0161320
906.812	0.0163207
906.890	0.0163734
906.968	0.0162624
907.046	0.0162901
907.124	0.0163736
907.203	0.0164131
907.281	0.0164979
907.359	0.0165014
907.437	0.0164658
907.515	0.0165408
907.593	0.0165773
907.671	0.0166292
907.749	0.0165467
907.828	0.0165417
907.906	0.0166222
907.984	0.0166702
908.062	0.0165674
908.140	0.0166026
908.218	0.0165988
908.296	0.0166706
908.374	0.0165389
908.453	0.0164228
908.531	0.0163637
908.609	0.0165242
908.687	0.0165199
908.765	0.0164797
908.843	0.0165018
908.921	0.0163167
908.999	0.0164520
909.078	0.0163414
909.156	0.0163895
909.234	0.0163139
909.312	0.0162563
909.390	0.0161980
909.468	0.0162517
909.546	0.0163443
909.624	0.0161812
909.703	0.0162101
909.781	0.0161818
909.859	0.0161793
909.937	0.0161942
910.015	0.0160452
910.093	0.0161902
910.171	0.0160732
910.249	0.0160127
910.328	0.0161961
910.406	0.0161825
910.484	0.0161607
910.562	0.0162056
910.640	0.0161739
910.718	0.0162106
910.796	0.0163261
910.874	0.0162805
910.953	0.0162228
911.031	0.0161484
911.109	0.0162567
911.187	0.0164497
911.265	0.0163759
911.343	0.0163580
911.421	0.0165028
911.499	0.0162736
911.578	0.0162278
911.656	0.0162566
911.734	0.0162924
911.812	0.0162710
911.890	0.0161584
911.968	0.0163637
912.046	0.0162518
912.124	0.0161826
912.203	0.0163799
912.281	0.0163062
912.359	0.0162595
912.437	0.0161157
912.515	0.0162930
912.593	0.0163210
912.671	0.0161369
912.749	0.0161811
912.828	0.0162041
912.906	0.0163351
912.984	0.0162769
913.062	0.0163377
913.140	0.0162178
913.218	0.0163049
913.296	0.0162794
913.374	0.0163297
913.453	0.0164474
913.531	0.0163765
913.609	0.0162867
913.687	0.0163612
913.765	0.0164917
913.843	0.0162753
913.921	0.0163358
913.999	0.0164387
914.078	0.0163789
914.156	0.0164385
914.234	0.0164518
914.312	0.0164270
914.390	0.0163613
914.468	0.0163299
914.546	0.0164395
914.624	0.0164556
914.703	0.0164314
914.781	0.0162757
914.859	0.0163673
914.937	0.0164387
915.015	0.0163984
915.093	0.0162437
915.171	0.0163563
915.249	0.0162533
915.328	0.0161675
915.406	0.0163042
915.484	0.0164427
915.562	0.0162321
915.640	0.0163066
915.718	0.0162449
915.796	0.0162041
915.874	0.0163699
915.953	0.0161225
916.031	0.0161719
916.109	0.0162149
916.187	0.0162222
916.265	0.0162421
916.343	0.0161575
916.421	0.0161618
916.499	0.0161482
916.578	0.0161933
916.656	0.0162088
916.734	0.0161369
916.812	0.0160667
916.890	0.0161693
916.968	0.0162854
917.046	0.0162318
917.124	0.0163383
917.203	0.0164129
917.281	0.0164760
917.359	0.0164630
917.437	0.0164041
917.515	0.0164948
917.593	0.0164827
917.671	0.0164440
917.749	0.0164523
917.828	0.0167504
917.906	0.0165728
917.984	0.0164832
918.062	0.0166597
918.140	0.0165135
918.218	0.0166441
918.296	0.0165143
918.374	0.0163988
918.453	0.0164621
918.531	0.0163831
918.609	0.0162946
918.687	0.0163475
918.765	0.0164450
918.843	0.0164039
918.921	0.0165791
918.999	0.0163838
919.078	0.0163967
919.156	0.0164265
919.234	0.0163819
919.312	0.0164391
919.390	0.0163481
919.468	0.0163523
919.546	0.0164233
919.624	0.0164641
919.703	0.0163390
919.781	0.0162895
919.859	0.0163017
919.937	0.0164351
