06/10/2022	18:54:40	Ver.	4.1	UNKNOWN
Optical Delay	600.015094	Delta X		0.078125	Sweeps	1	Scan Rate	0/0
Coordinates	Axis 1	NaN	Axis 2	NaN	Axis 3	NaN	Axis 4	NaN	Axis 5	NaN	Axis 6	0.000000
TX Power	0.000000	RX Power	0.000000

600.015	0.0156973
600.093	0.0156104
600.171	0.0157523
600.249	0.0157028
600.328	0.0157693
600.406	0.0157903
600.484	0.0156532
600.562	0.0156503
600.640	0.0156490
600.718	0.0157141
600.796	0.0156320
600.874	0.0157022
600.953	0.0157059
601.031	0.0157967
601.109	0.0157973
601.187	0.0157530
601.265	0.0157484
601.343	0.0157434
601.421	0.0158456
601.499	0.0157412
601.578	0.0157034
601.656	0.0156086
601.734	0.0158696
601.812	0.0157548
601.890	0.0158451
601.968	0.0157790
602.046	0.0156500
602.124	0.0157232
602.203	0.0157904
602.281	0.0157107
602.359	0.0156654
602.437	0.0156427
602.515	0.0158092
602.593	0.0158327
602.671	0.0156551
602.749	0.0157249
602.828	0.0156647
602.906	0.0156902
602.984	0.0158427
603.062	0.0157694
603.140	0.0157114
603.218	0.0157715
603.296	0.0156790
603.374	0.0156639
603.453	0.0156506
603.531	0.0157171
603.609	0.0158260
603.687	0.0157989
603.765	0.0157129
603.843	0.0156433
603.921	0.0158126
603.999	0.0157169
604.078	0.0157577
604.156	0.0157445
604.234	0.0157937
604.312	0.0157224
604.390	0.0157854
604.468	0.0157745
604.546	0.0157695
604.624	0.0158052
604.703	0.0156796
604.781	0.0158403
604.859	0.0158701
604.937	0.0156563
605.015	0.0157565
605.093	0.0157280
605.171	0.0157121
605.249	0.0157314
605.328	0.0157863
605.406	0.0157966
605.484	0.0158881
605.562	0.0156542
605.640	0.0157456
605.718	0.0158227
605.796	0.0156571
605.874	0.0158276
605.953	0.0157429
606.031	0.0156398
606.109	0.0158946
606.187	0.0157972
606.265	0.0157239
606.343	0.0156696
606.421	0.0157874
606.499	0.0157005
606.578	0.0157336
606.656	0.0157560
606.734	0.0156644
606.812	0.0158099
606.890	0.0157369
606.968	0.0155945
607.046	0.0158841
607.124	0.0157269
607.203	0.0155488
607.281	0.0156688
607.359	0.0157951
607.437	0.0157115
607.515	0.0157748
607.593	0.0157256
607.671	0.0157279
607.749	0.0156660
607.828	0.0157092
607.906	0.0157312
607.984	0.0156998
608.062	0.0156033
608.140	0.0158255
608.218	0.0156458
608.296	0.0157832
608.374	0.0157851
608.453	0.0157830
608.531	0.0156310
608.609	0.0156514
608.687	0.0156188
608.765	0.0157596
608.843	0.0157382
608.921	0.0157155
608.999	0.0158173
609.078	0.0157801
609.156	0.0157685
609.234	0.0157036
609.312	0.0158009
609.390	0.0157121
609.468	0.0158489
609.546	0.0156782
609.624	0.0156236
609.703	0.0157368
609.781	0.0157726
609.859	0.0157801
609.937	0.0158568
610.015	0.0157043
610.093	0.0158411
610.171	0.0159116
610.249	0.0157895
610.328	0.0157867
610.406	0.0157540
610.484	0.0158540
610.562	0.0157888
610.640	0.0158361
610.718	0.0157810
610.796	0.0156798
610.874	0.0157529
610.953	0.0157095
611.031	0.0156457
611.109	0.0156451
611.187	0.0157967
611.265	0.0157710
611.343	0.0157348
611.421	0.0157212
611.499	0.0157034
611.578	0.0157363
611.656	0.0158485
611.734	0.0158041
611.812	0.0156918
611.890	0.0156047
611.968	0.0156696
612.046	0.0156599
612.124	0.0156918
612.203	0.0158639
612.281	0.0158031
612.359	0.0157771
612.437	0.0155946
612.515	0.0157505
612.593	0.0157747
612.671	0.0156344
612.749	0.0157460
612.828	0.0157808
612.906	0.0157748
612.984	0.0158450
613.062	0.0157204
613.140	0.0157095
613.218	0.0157179
613.296	0.0156948
613.374	0.0157310
613.453	0.0157845
613.531	0.0156522
613.609	0.0157671
613.687	0.0158530
613.765	0.0158644
613.843	0.0155407
613.921	0.0157230
613.999	0.0157721
614.078	0.0157002
614.156	0.0156509
614.234	0.0157079
614.312	0.0157117
614.390	0.0157518
614.468	0.0156702
614.546	0.0157504
614.624	0.0155947
614.703	0.0157285
614.781	0.0157204
614.859	0.0158021
614.937	0.0157238
615.015	0.0156218
615.093	0.0156435
615.171	0.0157602
615.249	0.0158747
615.328	0.0155923
615.406	0.0156666
615.484	0.0156265
615.562	0.0157288
615.640	0.0156628
615.718	0.0156155
615.796	0.0156915
615.874	0.0156246
615.953	0.0156582
616.031	0.0156450
616.109	0.0155801
616.187	0.0156297
616.265	0.0155932
616.343	0.0156176
616.421	0.0156938
616.499	0.0157012
616.578	0.0157370
616.656	0.0156845
616.734	0.0156776
616.812	0.0155657
616.890	0.0157173
616.968	0.0158152
617.046	0.0157298
617.124	0.0156794
617.203	0.0157529
617.281	0.0156808
617.359	0.0155574
617.437	0.0157122
617.515	0.0156600
617.593	0.0155700
617.671	0.0157471
617.749	0.0156756
617.828	0.0157282
617.906	0.0157198
617.984	0.0156490
618.062	0.0156085
618.140	0.0157054
618.218	0.0156884
618.296	0.0155941
618.374	0.0157035
618.453	0.0157003
618.531	0.0157070
618.609	0.0156945
618.687	0.0157104
618.765	0.0157834
618.843	0.0157669
618.921	0.0156940
618.999	0.0155496
619.078	0.0157072
619.156	0.0157344
619.234	0.0158117
619.312	0.0157047
619.390	0.0156606
619.468	0.0157905
619.546	0.0157726
619.624	0.0157131
619.703	0.0156660
619.781	0.0157665
619.859	0.0158481
619.937	0.0158299
620.015	0.0157605
620.093	0.0158221
620.171	0.0156612
620.249	0.0156729
620.328	0.0158517
620.406	0.0157664
620.484	0.0158833
620.562	0.0157433
620.640	0.0157675
620.718	0.0157167
620.796	0.0158660
620.874	0.0156332
620.953	0.0158297
621.031	0.0157318
621.109	0.0157915
621.187	0.0157573
621.265	0.0157637
621.343	0.0158482
621.421	0.0159124
621.499	0.0157874
621.578	0.0158247
621.656	0.0157958
621.734	0.0157367
621.812	0.0157490
621.890	0.0157832
621.968	0.0156758
622.046	0.0157355
622.124	0.0157371
622.203	0.0156600
622.281	0.0157307
622.359	0.0159057
622.437	0.0156290
622.515	0.0157377
622.593	0.0157365
622.671	0.0157526
622.749	0.0156967
622.828	0.0156477
622.906	0.0158346
622.984	0.0158579
623.062	0.0157616
623.140	0.0158321
623.218	0.0158157
623.296	0.0158318
623.374	0.0157565
623.453	0.0158422
623.531	0.0157529
623.609	0.0157275
623.687	0.0157209
623.765	0.0157150
623.843	0.0157677
623.921	0.0157205
623.999	0.0157982
624.078	0.0157053
624.156	0.0158482
624.234	0.0157476
624.312	0.0157519
624.390	0.0157861
624.468	0.0158387
624.546	0.0156322
624.624	0.0156760
624.703	0.0156451
624.781	0.0159492
624.859	0.0158180
624.937	0.0157284
625.015	0.0156071
625.093	0.0157613
625.171	0.0156975
625.249	0.0158226
625.328	0.0158849
625.406	0.0157635
625.484	0.0158425
625.562	0.0158498
625.640	0.0156384
625.718	0.0157423
625.796	0.0157903
625.874	0.0157668
625.953	0.0157936
626.031	0.0157352
626.109	0.0157267
626.187	0.0157813
626.265	0.0156140
626.343	0.0156540
626.421	0.0157971
626.499	0.0157195
626.578	0.0156937
626.656	0.0157893
626.734	0.0157349
626.812	0.0157639
626.890	0.0158464
626.968	0.0157404
627.046	0.0155935
627.124	0.0156776
627.203	0.0157796
627.281	0.0158324
627.359	0.0158639
627.437	0.0157507
627.515	0.0156042
627.593	0.0158134
627.671	0.0156480
627.749	0.0157908
627.828	0.0157845
627.906	0.0157547
627.984	0.0156988
628.062	0.0158344
628.140	0.0156826
628.218	0.0157801
628.296	0.0156329
628.374	0.0156604
628.453	0.0157568
628.531	0.0157156
628.609	0.0156944
628.687	0.0156696
628.765	0.0157540
628.843	0.0158432
628.921	0.0159251
628.999	0.0155337
629.078	0.0156065
629.156	0.0157489
629.234	0.0156899
629.312	0.0156798
629.390	0.0157839
629.468	0.0157693
629.546	0.0156995
629.624	0.0157553
629.703	0.0157008
629.781	0.0157806
629.859	0.0157054
629.937	0.0155818
630.015	0.0157076
630.093	0.0157467
630.171	0.0158047
630.249	0.0158382
630.328	0.0157453
630.406	0.0155431
630.484	0.0157578
630.562	0.0157307
630.640	0.0157617
630.718	0.0157042
630.796	0.0157671
630.874	0.0158618
630.953	0.0158336
631.031	0.0157858
631.109	0.0156904
631.187	0.0157369
631.265	0.0156966
631.343	0.0156007
631.421	0.0158333
631.499	0.0156898
631.578	0.0156905
631.656	0.0158169
631.734	0.0156907
631.812	0.0157478
631.890	0.0157256
631.968	0.0157701
632.046	0.0157408
632.124	0.0157991
632.203	0.0158060
632.281	0.0157391
632.359	0.0158574
632.437	0.0157018
632.515	0.0156599
632.593	0.0158545
632.671	0.0157912
632.749	0.0158179
632.828	0.0157828
632.906	0.0157346
632.984	0.0158484
633.062	0.0156291
633.140	0.0156458
633.218	0.0158150
633.296	0.0157472
633.374	0.0157383
633.453	0.0155958
633.531	0.0157682
633.609	0.0158220
633.687	0.0157193
633.765	0.0158013
633.843	0.0157578
633.921	0.0156790
633.999	0.0158440
634.078	0.0157114
634.156	0.0156364
634.234	0.0156948
634.312	0.0155952
634.390	0.0157066
634.468	0.0158045
634.546	0.0157060
634.624	0.0156837
634.703	0.0156831
634.781	0.0157438
634.859	0.0157406
634.937	0.0158634
635.015	0.0158681
635.093	0.0156141
635.171	0.0157452
635.249	0.0157893
635.328	0.0156874
635.406	0.0157035
635.484	0.0157285
635.562	0.0156557
635.640	0.0156432
635.718	0.0156885
635.796	0.0157096
635.874	0.0158013
635.953	0.0157553
636.031	0.0155885
636.109	0.0157386
636.187	0.0157182
636.265	0.0157642
636.343	0.0157284
636.421	0.0157381
636.499	0.0156921
636.578	0.0156689
636.656	0.0156200
636.734	0.0159049
636.812	0.0157383
636.890	0.0156034
636.968	0.0156034
637.046	0.0157172
637.124	0.0156049
637.203	0.0157589
637.281	0.0158620
637.359	0.0159253
637.437	0.0156248
637.515	0.0157542
637.593	0.0157713
637.671	0.0156405
637.749	0.0156599
637.828	0.0158016
637.906	0.0157745
637.984	0.0156805
638.062	0.0157018
638.140	0.0158140
638.218	0.0157831
638.296	0.0158166
638.374	0.0158178
638.453	0.0157682
638.531	0.0157972
638.609	0.0156609
638.687	0.0156641
638.765	0.0158300
638.843	0.0156636
638.921	0.0159220
638.999	0.0158207
639.078	0.0158624
639.156	0.0158081
639.234	0.0156081
639.312	0.0157277
639.390	0.0156914
639.468	0.0156981
639.546	0.0158276
639.624	0.0158372
639.703	0.0156969
639.781	0.0158016
639.859	0.0157563
639.937	0.0156126
640.015	0.0157394
640.093	0.0157150
640.171	0.0157972
640.249	0.0157098
640.328	0.0156500
640.406	0.0156296
640.484	0.0157567
640.562	0.0158729
640.640	0.0157215
640.718	0.0157144
640.796	0.0156049
640.874	0.0157634
640.953	0.0157052
641.031	0.0156902
641.109	0.0158007
641.187	0.0158687
641.265	0.0156956
641.343	0.0157517
641.421	0.0158611
641.499	0.0157965
641.578	0.0157967
641.656	0.0157767
641.734	0.0158427
641.812	0.0157296
641.890	0.0157393
641.968	0.0157336
642.046	0.0157497
642.124	0.0158559
642.203	0.0157571
642.281	0.0157432
642.359	0.0157970
642.437	0.0157877
642.515	0.0158113
642.593	0.0155948
642.671	0.0157977
642.749	0.0156400
642.828	0.0158901
642.906	0.0158556
642.984	0.0158139
643.062	0.0156560
643.140	0.0157279
643.218	0.0157628
643.296	0.0157645
643.374	0.0157462
643.453	0.0156602
643.531	0.0156969
643.609	0.0157265
643.687	0.0157756
643.765	0.0156164
643.843	0.0157207
643.921	0.0157712
643.999	0.0156860
644.078	0.0157116
644.156	0.0158352
644.234	0.0156897
644.312	0.0156212
644.390	0.0156828
644.468	0.0157767
644.546	0.0158575
644.624	0.0157829
644.703	0.0157712
644.781	0.0158040
644.859	0.0158239
644.937	0.0157419
645.015	0.0158222
645.093	0.0157475
645.171	0.0158686
645.249	0.0157137
645.328	0.0157121
645.406	0.0158564
645.484	0.0157303
645.562	0.0158050
645.640	0.0157591
645.718	0.0157391
645.796	0.0157579
645.874	0.0157193
645.953	0.0157835
646.031	0.0158733
646.109	0.0156255
646.187	0.0158169
646.265	0.0157918
646.343	0.0157735
646.421	0.0158131
646.499	0.0156699
646.578	0.0157061
646.656	0.0157587
646.734	0.0157397
646.812	0.0157117
646.890	0.0157245
646.968	0.0158142
647.046	0.0157070
647.124	0.0156763
647.203	0.0157475
647.281	0.0158386
647.359	0.0157114
647.437	0.0157509
647.515	0.0157600
647.593	0.0157787
647.671	0.0156611
647.749	0.0156053
647.828	0.0157484
647.906	0.0158270
647.984	0.0157803
648.062	0.0157472
648.140	0.0157681
648.218	0.0157174
648.296	0.0157470
648.374	0.0157671
648.453	0.0157058
648.531	0.0156340
648.609	0.0158569
648.687	0.0156021
648.765	0.0155195
648.843	0.0157387
648.921	0.0157857
648.999	0.0157599
649.078	0.0155551
649.156	0.0157182
649.234	0.0156269
649.312	0.0157380
649.390	0.0157119
649.468	0.0156779
649.546	0.0158646
649.624	0.0157491
649.703	0.0155376
649.781	0.0157342
649.859	0.0156919
649.937	0.0157821
650.015	0.0156836
650.093	0.0156230
650.171	0.0156856
650.249	0.0157626
650.328	0.0156314
650.406	0.0156665
650.484	0.0155992
650.562	0.0156092
650.640	0.0157162
650.718	0.0157533
650.796	0.0156956
650.874	0.0156138
650.953	0.0157474
651.031	0.0157980
651.109	0.0156273
651.187	0.0157020
651.265	0.0156364
651.343	0.0155764
651.421	0.0157948
651.499	0.0157350
651.578	0.0157619
651.656	0.0156591
651.734	0.0157092
651.812	0.0156602
651.890	0.0156554
651.968	0.0156749
652.046	0.0156414
652.124	0.0157348
652.203	0.0157452
652.281	0.0157998
652.359	0.0157607
652.437	0.0157597
652.515	0.0156867
652.593	0.0156939
652.671	0.0156277
652.749	0.0157940
652.828	0.0157283
652.906	0.0155202
652.984	0.0155898
653.062	0.0158067
653.140	0.0156389
653.218	0.0155186
653.296	0.0157599
653.374	0.0156676
653.453	0.0156092
653.531	0.0155743
653.609	0.0156097
653.687	0.0157011
653.765	0.0155058
653.843	0.0157393
653.921	0.0156818
653.999	0.0156944
654.078	0.0156143
654.156	0.0156729
654.234	0.0156811
654.312	0.0157033
654.390	0.0157316
654.468	0.0156555
654.546	0.0156659
654.624	0.0157745
654.703	0.0156880
654.781	0.0156476
654.859	0.0156696
654.937	0.0156134
655.015	0.0155640
655.093	0.0157706
655.171	0.0155849
655.249	0.0157712
655.328	0.0157330
655.406	0.0157162
655.484	0.0156666
655.562	0.0155882
655.640	0.0156752
655.718	0.0157680
655.796	0.0156700
655.874	0.0156316
655.953	0.0157944
656.031	0.0155574
656.109	0.0156587
656.187	0.0157550
656.265	0.0155448
656.343	0.0156745
656.421	0.0158315
656.499	0.0156730
656.578	0.0156667
656.656	0.0157042
656.734	0.0157241
656.812	0.0156731
656.890	0.0156185
656.968	0.0156077
657.046	0.0156702
657.124	0.0156167
657.203	0.0157442
657.281	0.0156573
657.359	0.0157717
657.437	0.0157005
657.515	0.0157094
657.593	0.0155076
657.671	0.0157004
657.749	0.0157053
657.828	0.0156719
657.906	0.0156895
657.984	0.0157350
658.062	0.0157166
658.140	0.0158174
658.218	0.0156908
658.296	0.0158297
658.374	0.0157719
658.453	0.0156500
658.531	0.0156599
658.609	0.0157635
658.687	0.0157683
658.765	0.0157298
658.843	0.0156886
658.921	0.0157233
658.999	0.0157000
659.078	0.0156643
659.156	0.0156924
659.234	0.0158527
659.312	0.0157476
659.390	0.0156767
659.468	0.0156876
659.546	0.0158507
659.624	0.0157080
659.703	0.0155942
659.781	0.0155369
659.859	0.0158498
659.937	0.0157742
660.015	0.0156887
660.093	0.0157813
660.171	0.0156944
660.249	0.0157951
660.328	0.0157605
660.406	0.0157446
660.484	0.0157491
660.562	0.0156987
660.640	0.0157092
660.718	0.0157957
660.796	0.0157006
660.874	0.0156870
660.953	0.0157498
661.031	0.0157926
661.109	0.0158135
661.187	0.0157877
661.265	0.0157650
661.343	0.0157399
661.421	0.0156951
661.499	0.0156744
661.578	0.0155936
661.656	0.0157536
661.734	0.0157134
661.812	0.0157199
661.890	0.0158607
661.968	0.0157430
662.046	0.0157507
662.124	0.0158399
662.203	0.0157424
662.281	0.0157314
662.359	0.0156519
662.437	0.0157477
662.515	0.0157574
662.593	0.0157535
662.671	0.0158167
662.749	0.0157686
662.828	0.0156814
662.906	0.0156563
662.984	0.0157156
663.062	0.0157184
663.140	0.0155788
663.218	0.0157291
663.296	0.0157071
663.374	0.0156807
663.453	0.0157343
663.531	0.0155690
663.609	0.0156782
663.687	0.0157207
663.765	0.0156595
663.843	0.0157550
663.921	0.0157270
663.999	0.0158327
664.078	0.0156244
664.156	0.0156944
664.234	0.0158619
664.312	0.0158124
664.390	0.0157342
664.468	0.0158115
664.546	0.0157671
664.624	0.0156701
664.703	0.0157228
664.781	0.0157633
664.859	0.0156873
664.937	0.0156518
665.015	0.0157580
665.093	0.0158057
665.171	0.0158311
665.249	0.0158251
665.328	0.0158253
665.406	0.0156780
665.484	0.0157407
665.562	0.0158296
665.640	0.0157870
665.718	0.0157023
665.796	0.0158595
665.874	0.0157424
665.953	0.0156805
666.031	0.0157971
666.109	0.0157491
666.187	0.0157233
666.265	0.0157674
666.343	0.0157982
666.421	0.0157105
666.499	0.0157350
666.578	0.0157796
666.656	0.0158321
666.734	0.0157607
666.812	0.0158238
666.890	0.0157868
666.968	0.0157359
667.046	0.0157922
667.124	0.0158014
667.203	0.0156438
667.281	0.0158489
667.359	0.0156985
667.437	0.0157117
667.515	0.0157861
667.593	0.0157207
667.671	0.0157575
667.749	0.0156081
667.828	0.0156918
667.906	0.0157701
667.984	0.0157315
668.062	0.0158225
668.140	0.0156937
668.218	0.0157808
668.296	0.0156582
668.374	0.0157523
668.453	0.0157553
668.531	0.0157734
668.609	0.0158395
668.687	0.0157304
668.765	0.0159370
668.843	0.0156179
668.921	0.0157553
668.999	0.0157862
669.078	0.0156709
669.156	0.0157642
669.234	0.0156585
669.312	0.0157093
669.390	0.0156787
669.468	0.0156627
669.546	0.0155614
669.624	0.0156633
669.703	0.0157053
669.781	0.0156667
669.859	0.0156339
669.937	0.0156299
670.015	0.0157086
670.093	0.0156866
670.171	0.0157473
670.249	0.0157620
670.328	0.0157381
670.406	0.0157957
670.484	0.0157127
670.562	0.0157034
670.640	0.0155493
670.718	0.0157397
670.796	0.0157998
670.874	0.0155878
670.953	0.0156270
671.031	0.0157410
671.109	0.0157434
671.187	0.0157977
671.265	0.0156079
671.343	0.0158122
671.421	0.0158147
671.499	0.0157253
671.578	0.0157574
671.656	0.0158059
671.734	0.0156110
671.812	0.0156344
671.890	0.0156728
671.968	0.0157043
672.046	0.0156674
672.124	0.0156891
672.203	0.0156927
672.281	0.0157018
672.359	0.0157946
672.437	0.0157419
672.515	0.0157008
672.593	0.0157892
672.671	0.0156931
672.749	0.0156672
672.828	0.0157168
672.906	0.0156544
672.984	0.0157014
673.062	0.0157113
673.140	0.0156699
673.218	0.0155676
673.296	0.0157117
673.374	0.0156794
673.453	0.0156171
673.531	0.0157076
673.609	0.0157043
673.687	0.0157954
673.765	0.0156620
673.843	0.0157413
673.921	0.0155602
673.999	0.0156436
674.078	0.0157236
674.156	0.0157551
674.234	0.0156239
674.312	0.0157462
674.390	0.0156734
674.468	0.0156863
674.546	0.0156338
674.624	0.0156115
674.703	0.0155889
674.781	0.0156718
674.859	0.0156483
674.937	0.0156474
675.015	0.0157772
675.093	0.0157197
675.171	0.0156175
675.249	0.0157256
675.328	0.0156878
675.406	0.0158784
675.484	0.0156563
675.562	0.0156440
675.640	0.0157671
675.718	0.0156889
675.796	0.0156879
675.874	0.0157307
675.953	0.0156462
676.031	0.0156927
676.109	0.0156566
676.187	0.0156499
676.265	0.0156126
676.343	0.0155807
676.421	0.0155318
676.499	0.0156800
676.578	0.0155499
676.656	0.0156815
676.734	0.0156606
676.812	0.0157569
676.890	0.0157524
676.968	0.0156593
677.046	0.0156036
677.124	0.0155759
677.203	0.0157142
677.281	0.0155049
677.359	0.0157809
677.437	0.0155003
677.515	0.0155597
677.593	0.0157746
677.671	0.0158289
677.749	0.0156315
677.828	0.0156052
677.906	0.0156519
677.984	0.0156161
678.062	0.0155764
678.140	0.0156913
678.218	0.0155836
678.296	0.0156626
678.374	0.0156313
678.453	0.0156525
678.531	0.0158305
678.609	0.0156775
678.687	0.0156264
678.765	0.0155581
678.843	0.0156540
678.921	0.0156902
678.999	0.0157280
679.078	0.0157630
679.156	0.0155597
679.234	0.0156400
679.312	0.0157920
679.390	0.0157012
679.468	0.0157716
679.546	0.0157568
679.624	0.0157700
679.703	0.0157610
679.781	0.0155650
679.859	0.0157266
679.937	0.0158514
680.015	0.0157128
680.093	0.0157288
680.171	0.0158041
680.249	0.0156660
680.328	0.0157246
680.406	0.0156340
680.484	0.0155663
680.562	0.0158213
680.640	0.0156829
680.718	0.0158636
680.796	0.0156527
680.874	0.0156630
680.953	0.0156770
681.031	0.0155653
681.109	0.0156444
681.187	0.0156668
681.265	0.0156374
681.343	0.0157197
681.421	0.0156934
681.499	0.0156898
681.578	0.0158965
681.656	0.0158073
681.734	0.0158827
681.812	0.0157432
681.890	0.0156962
681.968	0.0157413
682.046	0.0158412
682.124	0.0159129
682.203	0.0157484
682.281	0.0157607
682.359	0.0158371
682.437	0.0158060
682.515	0.0157868
682.593	0.0156232
682.671	0.0158115
682.749	0.0157043
682.828	0.0156213
682.906	0.0156335
682.984	0.0157551
683.062	0.0157822
683.140	0.0157378
683.218	0.0157168
683.296	0.0158810
683.374	0.0157551
683.453	0.0156963
683.531	0.0157064
683.609	0.0157007
683.687	0.0157133
683.765	0.0157153
683.843	0.0157221
683.921	0.0157666
683.999	0.0156982
684.078	0.0157948
684.156	0.0157053
684.234	0.0156359
684.312	0.0155691
684.390	0.0157847
684.468	0.0156352
684.546	0.0155193
684.624	0.0156837
684.703	0.0156683
684.781	0.0157789
684.859	0.0157092
684.937	0.0157116
685.015	0.0156351
685.093	0.0156436
685.171	0.0155942
685.249	0.0156413
685.328	0.0157132
685.406	0.0156991
685.484	0.0157259
685.562	0.0156687
685.640	0.0156351
685.718	0.0158371
685.796	0.0158171
685.874	0.0156267
685.953	0.0156841
686.031	0.0157272
686.109	0.0157015
686.187	0.0157175
686.265	0.0158003
686.343	0.0157884
686.421	0.0156502
686.499	0.0156367
686.578	0.0156986
686.656	0.0155871
686.734	0.0156528
686.812	0.0157903
686.890	0.0156093
686.968	0.0155820
687.046	0.0156779
687.124	0.0157497
687.203	0.0157317
687.281	0.0157542
687.359	0.0159148
687.437	0.0158903
687.515	0.0157719
687.593	0.0157749
687.671	0.0156936
687.749	0.0158760
687.828	0.0157069
687.906	0.0157132
687.984	0.0157798
688.062	0.0156937
688.140	0.0157174
688.218	0.0157687
688.296	0.0156839
688.374	0.0158591
688.453	0.0156418
688.531	0.0157952
688.609	0.0158539
688.687	0.0157243
688.765	0.0157800
688.843	0.0157322
688.921	0.0157320
688.999	0.0157539
689.078	0.0157052
689.156	0.0158588
689.234	0.0159264
689.312	0.0157396
689.390	0.0158713
689.468	0.0156480
689.546	0.0158575
689.624	0.0158254
689.703	0.0156132
689.781	0.0156867
689.859	0.0158831
689.937	0.0157289
690.015	0.0157747
690.093	0.0158454
690.171	0.0158777
690.249	0.0156047
690.328	0.0157249
690.406	0.0157491
690.484	0.0157489
690.562	0.0157398
690.640	0.0157825
690.718	0.0156679
690.796	0.0157906
690.874	0.0158766
690.953	0.0157388
691.031	0.0157308
691.109	0.0156618
691.187	0.0159854
691.265	0.0158067
691.343	0.0156197
691.421	0.0157039
691.499	0.0156655
691.578	0.0156575
691.656	0.0157061
691.734	0.0157468
691.812	0.0157670
691.890	0.0156842
691.968	0.0158655
692.046	0.0157217
692.124	0.0157021
692.203	0.0158115
692.281	0.0158347
692.359	0.0157951
692.437	0.0156983
692.515	0.0158957
692.593	0.0156367
692.671	0.0157618
692.749	0.0156861
692.828	0.0156824
692.906	0.0155426
692.984	0.0157167
693.062	0.0158644
693.140	0.0156554
693.218	0.0155576
693.296	0.0158062
693.374	0.0158823
693.453	0.0156380
693.531	0.0157214
693.609	0.0156773
693.687	0.0156258
693.765	0.0156598
693.843	0.0156215
693.921	0.0156548
693.999	0.0158585
694.078	0.0156507
694.156	0.0156846
694.234	0.0156185
694.312	0.0156823
694.390	0.0156912
694.468	0.0156470
694.546	0.0157071
694.624	0.0156128
694.703	0.0157037
694.781	0.0157674
694.859	0.0156157
694.937	0.0156236
695.015	0.0155959
695.093	0.0157565
695.171	0.0157027
695.249	0.0157472
695.328	0.0157185
695.406	0.0158115
695.484	0.0156039
695.562	0.0156472
695.640	0.0156502
695.718	0.0158035
695.796	0.0157932
695.874	0.0157642
695.953	0.0158300
696.031	0.0157121
696.109	0.0155858
696.187	0.0157601
696.265	0.0157582
696.343	0.0157653
696.421	0.0155958
696.499	0.0156931
696.578	0.0157597
696.656	0.0158127
696.734	0.0156987
696.812	0.0158284
696.890	0.0158276
696.968	0.0156182
697.046	0.0156433
697.124	0.0156129
697.203	0.0158284
697.281	0.0157061
697.359	0.0156506
697.437	0.0156207
697.515	0.0156710
697.593	0.0157378
697.671	0.0156658
697.749	0.0156348
697.828	0.0158533
697.906	0.0157298
697.984	0.0156421
698.062	0.0157858
698.140	0.0156693
698.218	0.0157854
698.296	0.0157378
698.374	0.0155856
698.453	0.0157147
698.531	0.0156332
698.609	0.0156454
698.687	0.0156813
698.765	0.0157127
698.843	0.0157489
698.921	0.0157109
698.999	0.0156820
699.078	0.0156044
699.156	0.0157444
699.234	0.0157086
699.312	0.0157605
699.390	0.0158885
699.468	0.0157087
699.546	0.0158429
699.624	0.0158448
699.703	0.0158077
699.781	0.0158487
699.859	0.0157930
699.937	0.0157789
700.015	0.0157143
700.093	0.0157410
700.171	0.0157807
700.249	0.0158079
700.328	0.0157701
700.406	0.0156204
700.484	0.0155856
700.562	0.0155553
700.640	0.0156876
700.718	0.0156768
700.796	0.0157439
700.874	0.0156252
700.953	0.0156496
701.031	0.0157183
701.109	0.0157157
701.187	0.0155231
701.265	0.0157188
701.343	0.0155923
701.421	0.0157764
701.499	0.0157307
701.578	0.0157249
701.656	0.0156675
701.734	0.0157856
701.812	0.0158159
701.890	0.0158176
701.968	0.0158281
702.046	0.0156982
702.124	0.0158356
702.203	0.0159093
702.281	0.0157840
702.359	0.0158402
702.437	0.0158009
702.515	0.0158553
702.593	0.0158657
702.671	0.0158073
702.749	0.0157832
702.828	0.0159503
702.906	0.0159189
702.984	0.0157303
703.062	0.0157687
703.140	0.0158000
703.218	0.0158559
703.296	0.0157459
703.374	0.0159021
703.453	0.0157528
703.531	0.0159193
703.609	0.0158821
703.687	0.0158380
703.765	0.0158163
703.843	0.0158006
703.921	0.0157806
703.999	0.0157162
704.078	0.0157675
704.156	0.0158306
704.234	0.0157798
704.312	0.0156622
704.390	0.0157440
704.468	0.0157099
704.546	0.0156884
704.624	0.0156911
704.703	0.0157124
704.781	0.0157436
704.859	0.0157142
704.937	0.0157248
705.015	0.0157205
705.093	0.0156126
705.171	0.0157319
705.249	0.0157029
705.328	0.0155544
705.406	0.0156940
705.484	0.0158566
705.562	0.0156902
705.640	0.0157690
705.718	0.0157495
705.796	0.0156663
705.874	0.0156653
705.953	0.0157177
706.031	0.0158893
706.109	0.0158572
706.187	0.0158739
706.265	0.0157967
706.343	0.0158311
706.421	0.0158665
706.499	0.0158459
706.578	0.0158532
706.656	0.0159809
706.734	0.0159192
706.812	0.0158163
706.890	0.0158626
706.968	0.0159448
707.046	0.0158473
707.124	0.0158334
707.203	0.0157317
707.281	0.0158106
707.359	0.0158014
707.437	0.0157964
707.515	0.0157749
707.593	0.0157735
707.671	0.0157233
707.749	0.0156185
707.828	0.0156049
707.906	0.0157655
707.984	0.0158318
708.062	0.0156828
708.140	0.0155830
708.218	0.0155558
708.296	0.0156892
708.374	0.0157514
708.453	0.0156332
708.531	0.0157719
708.609	0.0156841
708.687	0.0156490
708.765	0.0156677
708.843	0.0157404
708.921	0.0157720
708.999	0.0157389
709.078	0.0156705
709.156	0.0158216
709.234	0.0156550
709.312	0.0156005
709.390	0.0158275
709.468	0.0157081
709.546	0.0156830
709.624	0.0156100
709.703	0.0156156
709.781	0.0157030
709.859	0.0158346
709.937	0.0157293
710.015	0.0157421
710.093	0.0156938
710.171	0.0157562
710.249	0.0157744
710.328	0.0158482
710.406	0.0158289
710.484	0.0158823
710.562	0.0157930
710.640	0.0156879
710.718	0.0158995
710.796	0.0158132
710.874	0.0159061
710.953	0.0159075
711.031	0.0158701
711.109	0.0157632
711.187	0.0156781
711.265	0.0158396
711.343	0.0157435
711.421	0.0158377
711.499	0.0157795
711.578	0.0158553
711.656	0.0159679
711.734	0.0158276
711.812	0.0156552
711.890	0.0156976
711.968	0.0156316
712.046	0.0158621
712.124	0.0157433
712.203	0.0156983
712.281	0.0157022
712.359	0.0156907
712.437	0.0155936
712.515	0.0159786
712.593	0.0158504
712.671	0.0157913
712.749	0.0157838
712.828	0.0157790
712.906	0.0157714
712.984	0.0156702
713.062	0.0157913
713.140	0.0158115
713.218	0.0157879
713.296	0.0157588
713.374	0.0156785
713.453	0.0158301
713.531	0.0157966
713.609	0.0157941
713.687	0.0157838
713.765	0.0156473
713.843	0.0158404
713.921	0.0157106
713.999	0.0157911
714.078	0.0157792
714.156	0.0158611
714.234	0.0157902
714.312	0.0157777
714.390	0.0157942
714.468	0.0158410
714.546	0.0157552
714.624	0.0158381
714.703	0.0157544
714.781	0.0158585
714.859	0.0157818
714.937	0.0157807
715.015	0.0159315
715.093	0.0159563
715.171	0.0158580
715.249	0.0157995
715.328	0.0157975
715.406	0.0157758
715.484	0.0157917
715.562	0.0156721
715.640	0.0157525
715.718	0.0157748
715.796	0.0157344
715.874	0.0156229
715.953	0.0156438
716.031	0.0157114
716.109	0.0156999
716.187	0.0158591
716.265	0.0157476
716.343	0.0156798
716.421	0.0157410
716.499	0.0157292
716.578	0.0156561
716.656	0.0156892
716.734	0.0157941
716.812	0.0158096
716.890	0.0156734
716.968	0.0155705
717.046	0.0158025
717.124	0.0157602
717.203	0.0156993
717.281	0.0156842
717.359	0.0157150
717.437	0.0156475
717.515	0.0157891
717.593	0.0158613
717.671	0.0157474
717.749	0.0159898
717.828	0.0158979
717.906	0.0158867
717.984	0.0159114
718.062	0.0159198
718.140	0.0158330
718.218	0.0160120
718.296	0.0159854
718.374	0.0158829
718.453	0.0160419
718.531	0.0158480
718.609	0.0156919
718.687	0.0157851
718.765	0.0157182
718.843	0.0158124
718.921	0.0155828
718.999	0.0155652
719.078	0.0156496
719.156	0.0153907
719.234	0.0154404
719.312	0.0156768
719.390	0.0157030
719.468	0.0155851
719.546	0.0156514
719.624	0.0157735
719.703	0.0156790
719.781	0.0157434
719.859	0.0157417
719.937	0.0157071
720.015	0.0159942
720.093	0.0157635
720.171	0.0159221
720.249	0.0158347
720.328	0.0158249
720.406	0.0159351
720.484	0.0158827
720.562	0.0158534
720.640	0.0158194
720.718	0.0158543
720.796	0.0157108
720.874	0.0158358
720.953	0.0156779
721.031	0.0156532
721.109	0.0158019
721.187	0.0157040
721.265	0.0156945
721.343	0.0156119
721.421	0.0157439
721.499	0.0155795
721.578	0.0156195
721.656	0.0156537
721.734	0.0156226
721.812	0.0156563
721.890	0.0155973
721.968	0.0156800
722.046	0.0156325
722.124	0.0157023
722.203	0.0158699
722.281	0.0158991
722.359	0.0158495
722.437	0.0157848
722.515	0.0159949
722.593	0.0159144
722.671	0.0156907
722.749	0.0159039
722.828	0.0158516
722.906	0.0157392
722.984	0.0158660
723.062	0.0157679
723.140	0.0157643
723.218	0.0156416
723.296	0.0155389
723.374	0.0156557
723.453	0.0157181
723.531	0.0158015
723.609	0.0157348
723.687	0.0157245
723.765	0.0157509
723.843	0.0157885
723.921	0.0158193
723.999	0.0158681
724.078	0.0157287
724.156	0.0158559
724.234	0.0158182
724.312	0.0158308
724.390	0.0157553
724.468	0.0157693
724.546	0.0159102
724.624	0.0158626
724.703	0.0158204
724.781	0.0157771
724.859	0.0157661
724.937	0.0157996
725.015	0.0158850
725.093	0.0156093
725.171	0.0157378
725.249	0.0158188
725.328	0.0157500
725.406	0.0157597
725.484	0.0157310
725.562	0.0158387
725.640	0.0156416
725.718	0.0156511
725.796	0.0157353
725.874	0.0157163
725.953	0.0157248
726.031	0.0156810
726.109	0.0157643
726.187	0.0157101
726.265	0.0157066
726.343	0.0156148
726.421	0.0156904
726.499	0.0156955
726.578	0.0155789
726.656	0.0157584
726.734	0.0157445
726.812	0.0156832
726.890	0.0157566
726.968	0.0157259
727.046	0.0156058
727.124	0.0156104
727.203	0.0157002
727.281	0.0156723
727.359	0.0156425
727.437	0.0156372
727.515	0.0157718
727.593	0.0156334
727.671	0.0157024
727.749	0.0156251
727.828	0.0155627
727.906	0.0156045
727.984	0.0157484
728.062	0.0157169
728.140	0.0157834
728.218	0.0156751
728.296	0.0155890
728.374	0.0156624
728.453	0.0156277
728.531	0.0157285
728.609	0.0157178
728.687	0.0156526
728.765	0.0157592
728.843	0.0157530
728.921	0.0156321
728.999	0.0156995
729.078	0.0157809
729.156	0.0157300
729.234	0.0156438
729.312	0.0156992
729.390	0.0156657
729.468	0.0156633
729.546	0.0157277
729.624	0.0157042
729.703	0.0156957
729.781	0.0156509
729.859	0.0156335
729.937	0.0156545
730.015	0.0156551
730.093	0.0157347
730.171	0.0156356
730.249	0.0155977
730.328	0.0157455
730.406	0.0156705
730.484	0.0156553
730.562	0.0157099
730.640	0.0158387
730.718	0.0156792
730.796	0.0156799
730.874	0.0155904
730.953	0.0156506
731.031	0.0157440
731.109	0.0157332
731.187	0.0159001
731.265	0.0156049
731.343	0.0158291
731.421	0.0156907
731.499	0.0156602
731.578	0.0156092
731.656	0.0157738
731.734	0.0158295
731.812	0.0158035
731.890	0.0156477
731.968	0.0157664
732.046	0.0157584
732.124	0.0158423
732.203	0.0158340
732.281	0.0155894
732.359	0.0156754
732.437	0.0158109
732.515	0.0158128
732.593	0.0156639
732.671	0.0157880
732.749	0.0158398
732.828	0.0157237
732.906	0.0156792
732.984	0.0158058
733.062	0.0158841
733.140	0.0157811
733.218	0.0157723
733.296	0.0158189
733.374	0.0156553
733.453	0.0156416
733.531	0.0157091
733.609	0.0157780
733.687	0.0156761
733.765	0.0157054
733.843	0.0156599
733.921	0.0157545
733.999	0.0157474
734.078	0.0157668
734.156	0.0156573
734.234	0.0155467
734.312	0.0157631
734.390	0.0156934
734.468	0.0156780
734.546	0.0157397
734.624	0.0157762
734.703	0.0157481
734.781	0.0155981
734.859	0.0156025
734.937	0.0157254
735.015	0.0156081
735.093	0.0157169
735.171	0.0157036
735.249	0.0158180
735.328	0.0158359
735.406	0.0157939
735.484	0.0156469
735.562	0.0158232
735.640	0.0157227
735.718	0.0157533
735.796	0.0156343
735.874	0.0158321
735.953	0.0157137
736.031	0.0156442
736.109	0.0158424
736.187	0.0159800
736.265	0.0158248
736.343	0.0157436
736.421	0.0157327
736.499	0.0156331
736.578	0.0156815
736.656	0.0157019
736.734	0.0157980
736.812	0.0156900
736.890	0.0157021
736.968	0.0158488
737.046	0.0157480
737.124	0.0157119
737.203	0.0157381
737.281	0.0157745
737.359	0.0157639
737.437	0.0157552
737.515	0.0156036
737.593	0.0158218
737.671	0.0158782
737.749	0.0157107
737.828	0.0156448
737.906	0.0156895
737.984	0.0157626
738.062	0.0158578
738.140	0.0157336
738.218	0.0158721
738.296	0.0157639
738.374	0.0158044
738.453	0.0157344
738.531	0.0158583
738.609	0.0157384
738.687	0.0157716
738.765	0.0157442
738.843	0.0158068
738.921	0.0157106
738.999	0.0158257
739.078	0.0158208
739.156	0.0156835
739.234	0.0157603
739.312	0.0158259
739.390	0.0156068
739.468	0.0156347
739.546	0.0157160
739.624	0.0157011
739.703	0.0156333
739.781	0.0155939
739.859	0.0157000
739.937	0.0156660
740.015	0.0155879
740.093	0.0155724
740.171	0.0157671
740.249	0.0156992
740.328	0.0158050
740.406	0.0156897
740.484	0.0157151
740.562	0.0157410
740.640	0.0158208
740.718	0.0157198
740.796	0.0157706
740.874	0.0158829
740.953	0.0158467
741.031	0.0156903
741.109	0.0158027
741.187	0.0157827
741.265	0.0157583
741.343	0.0157867
741.421	0.0157954
741.499	0.0158043
741.578	0.0157196
741.656	0.0156716
741.734	0.0157571
741.812	0.0156455
741.890	0.0156961
741.968	0.0156596
742.046	0.0156747
742.124	0.0158214
742.203	0.0156934
742.281	0.0157278
742.359	0.0156007
742.437	0.0156830
742.515	0.0159769
742.593	0.0157211
742.671	0.0156750
742.749	0.0157104
742.828	0.0157841
742.906	0.0157359
742.984	0.0156918
743.062	0.0157593
743.140	0.0158070
743.218	0.0158661
743.296	0.0157586
743.374	0.0156342
743.453	0.0156812
743.531	0.0158275
743.609	0.0157147
743.687	0.0158576
743.765	0.0157800
743.843	0.0156583
743.921	0.0158350
743.999	0.0157680
744.078	0.0156866
744.156	0.0158361
744.234	0.0157946
744.312	0.0156734
744.390	0.0156290
744.468	0.0157105
744.546	0.0158095
744.624	0.0156345
744.703	0.0155629
744.781	0.0156422
744.859	0.0156542
744.937	0.0157451
745.015	0.0156691
745.093	0.0156338
745.171	0.0157386
745.249	0.0156721
745.328	0.0156094
745.406	0.0156091
745.484	0.0157554
745.562	0.0156667
745.640	0.0158207
745.718	0.0158076
745.796	0.0157455
745.874	0.0156743
745.953	0.0156216
746.031	0.0157588
746.109	0.0155957
746.187	0.0155386
746.265	0.0156784
746.343	0.0155802
746.421	0.0155446
746.499	0.0155511
746.578	0.0156667
746.656	0.0156953
746.734	0.0156638
746.812	0.0155842
746.890	0.0156430
746.968	0.0157362
747.046	0.0157474
747.124	0.0156938
747.203	0.0155966
747.281	0.0157513
747.359	0.0157535
747.437	0.0156413
747.515	0.0156503
747.593	0.0156122
747.671	0.0156135
747.749	0.0157122
747.828	0.0155225
747.906	0.0155752
747.984	0.0156683
748.062	0.0156101
748.140	0.0156038
748.218	0.0158710
748.296	0.0157994
748.374	0.0158157
748.453	0.0156557
748.531	0.0156752
748.609	0.0156670
748.687	0.0156001
748.765	0.0156225
748.843	0.0156849
748.921	0.0155663
748.999	0.0157009
749.078	0.0158569
749.156	0.0156552
749.234	0.0156668
749.312	0.0156716
749.390	0.0156398
749.468	0.0156616
749.546	0.0155065
749.624	0.0156097
749.703	0.0156995
749.781	0.0158065
749.859	0.0156041
749.937	0.0157941
750.015	0.0158391
750.093	0.0157494
750.171	0.0157661
750.249	0.0156641
750.328	0.0157925
750.406	0.0158507
750.484	0.0157683
750.562	0.0158112
750.640	0.0156749
750.718	0.0155779
750.796	0.0157118
750.874	0.0155712
750.953	0.0158130
751.031	0.0156988
751.109	0.0157336
751.187	0.0157545
751.265	0.0155383
751.343	0.0156215
751.421	0.0156760
751.499	0.0157634
751.578	0.0157098
751.656	0.0157126
751.734	0.0157254
751.812	0.0156717
751.890	0.0158327
751.968	0.0157341
752.046	0.0155975
752.124	0.0157408
752.203	0.0159095
752.281	0.0156969
752.359	0.0157055
752.437	0.0156255
752.515	0.0157295
752.593	0.0157207
752.671	0.0157536
752.749	0.0157527
752.828	0.0156915
752.906	0.0158401
752.984	0.0157337
753.062	0.0157228
753.140	0.0158168
753.218	0.0157790
753.296	0.0158919
753.374	0.0158249
753.453	0.0156512
753.531	0.0158042
753.609	0.0158159
753.687	0.0157894
753.765	0.0157809
753.843	0.0156592
753.921	0.0156599
753.999	0.0157524
754.078	0.0157356
754.156	0.0157195
754.234	0.0157061
754.312	0.0156699
754.390	0.0156853
754.468	0.0156969
754.546	0.0157940
754.624	0.0157555
754.703	0.0157726
754.781	0.0157201
754.859	0.0155433
754.937	0.0157001
755.015	0.0157266
755.093	0.0155174
755.171	0.0156207
755.249	0.0157210
755.328	0.0156874
755.406	0.0156393
755.484	0.0156254
755.562	0.0156406
755.640	0.0158134
755.718	0.0157011
755.796	0.0158585
755.874	0.0157941
755.953	0.0158884
756.031	0.0159486
756.109	0.0158785
756.187	0.0157377
756.265	0.0159441
756.343	0.0158939
756.421	0.0157731
756.499	0.0157411
756.578	0.0157212
756.656	0.0157001
756.734	0.0157568
756.812	0.0156554
756.890	0.0155383
756.968	0.0155951
757.046	0.0155473
757.124	0.0155470
757.203	0.0156701
757.281	0.0156841
757.359	0.0155894
757.437	0.0157170
757.515	0.0155575
757.593	0.0155821
757.671	0.0157122
757.749	0.0156122
757.828	0.0156748
757.906	0.0156799
757.984	0.0158083
758.062	0.0156849
758.140	0.0157051
758.218	0.0157060
758.296	0.0157651
758.374	0.0158599
758.453	0.0157583
758.531	0.0157710
758.609	0.0158786
758.687	0.0159345
758.765	0.0157380
758.843	0.0157729
758.921	0.0158057
758.999	0.0157101
759.078	0.0158500
759.156	0.0157470
759.234	0.0156693
759.312	0.0157631
759.390	0.0157092
759.468	0.0157109
759.546	0.0157419
759.624	0.0157009
759.703	0.0157500
759.781	0.0156419
759.859	0.0155453
759.937	0.0156775
760.015	0.0156812
760.093	0.0156781
760.171	0.0155574
760.249	0.0155006
760.328	0.0153791
760.406	0.0153877
760.484	0.0155109
760.562	0.0156019
760.640	0.0155249
760.718	0.0157016
760.796	0.0156383
760.874	0.0157317
760.953	0.0156245
761.031	0.0157876
761.109	0.0158697
761.187	0.0159607
761.265	0.0158674
761.343	0.0159921
761.421	0.0162064
761.499	0.0160760
761.578	0.0160589
761.656	0.0161501
761.734	0.0160484
761.812	0.0159713
761.890	0.0160632
761.968	0.0160797
762.046	0.0159681
762.124	0.0159499
762.203	0.0158370
762.281	0.0159278
762.359	0.0157330
762.437	0.0155997
762.515	0.0157301
762.593	0.0156072
762.671	0.0156942
762.749	0.0157707
762.828	0.0157167
762.906	0.0156391
762.984	0.0156658
763.062	0.0157073
763.140	0.0156220
763.218	0.0154915
763.296	0.0153243
763.374	0.0154749
763.453	0.0155494
763.531	0.0154249
763.609	0.0152931
763.687	0.0153423
763.765	0.0153230
763.843	0.0154161
763.921	0.0153439
763.999	0.0155276
764.078	0.0155252
764.156	0.0155349
764.234	0.0155605
764.312	0.0155704
764.390	0.0156578
764.468	0.0156631
764.546	0.0157052
764.624	0.0158452
764.703	0.0158360
764.781	0.0156865
764.859	0.0157906
764.937	0.0158880
765.015	0.0158003
765.093	0.0157492
765.171	0.0158765
765.249	0.0159407
765.328	0.0159162
765.406	0.0160855
765.484	0.0159049
765.562	0.0159377
765.640	0.0158817
765.718	0.0159384
765.796	0.0159750
765.874	0.0158177
765.953	0.0158078
766.031	0.0159141
766.109	0.0156738
766.187	0.0156700
766.265	0.0157713
766.343	0.0157855
766.421	0.0156329
766.499	0.0156929
766.578	0.0156660
766.656	0.0156165
766.734	0.0156714
766.812	0.0155064
766.890	0.0155453
766.968	0.0155051
767.046	0.0154409
767.124	0.0154013
767.203	0.0153402
767.281	0.0152631
767.359	0.0152894
767.437	0.0152931
767.515	0.0153098
767.593	0.0154459
767.671	0.0153339
767.749	0.0153858
767.828	0.0154134
767.906	0.0155032
767.984	0.0155624
768.062	0.0156393
768.140	0.0157588
768.218	0.0157991
768.296	0.0158471
768.374	0.0159355
768.453	0.0160719
768.531	0.0159739
768.609	0.0159235
768.687	0.0161092
768.765	0.0161158
768.843	0.0161114
768.921	0.0162368
768.999	0.0161099
769.078	0.0159969
769.156	0.0161663
769.234	0.0160600
769.312	0.0159145
769.390	0.0158858
769.468	0.0159149
769.546	0.0157104
769.624	0.0156812
769.703	0.0155353
769.781	0.0154424
769.859	0.0155310
769.937	0.0153532
770.015	0.0152897
770.093	0.0153042
770.171	0.0153625
770.249	0.0152552
770.328	0.0152081
770.406	0.0152834
770.484	0.0153757
770.562	0.0154967
770.640	0.0153751
770.718	0.0154934
770.796	0.0154228
770.874	0.0154721
770.953	0.0156491
771.031	0.0156043
771.109	0.0156105
771.187	0.0155913
771.265	0.0157146
771.343	0.0158801
771.421	0.0159707
771.499	0.0158000
771.578	0.0158762
771.656	0.0160156
771.734	0.0160117
771.812	0.0159232
771.890	0.0158008
771.968	0.0160016
772.046	0.0159870
772.124	0.0158935
772.203	0.0159006
772.281	0.0161517
772.359	0.0159708
772.437	0.0159112
772.515	0.0159995
772.593	0.0161251
772.671	0.0161147
772.749	0.0160719
772.828	0.0161531
772.906	0.0161427
772.984	0.0159981
773.062	0.0160056
773.140	0.0159971
773.218	0.0159086
773.296	0.0157061
773.374	0.0158286
773.453	0.0157384
773.531	0.0158189
773.609	0.0157665
773.687	0.0155811
773.765	0.0155885
773.843	0.0156152
773.921	0.0155301
773.999	0.0154391
774.078	0.0153819
774.156	0.0154495
774.234	0.0153657
774.312	0.0152221
774.390	0.0154182
774.468	0.0153284
774.546	0.0153484
774.624	0.0153589
774.703	0.0151637
774.781	0.0153059
774.859	0.0153674
774.937	0.0153186
775.015	0.0155165
775.093	0.0155476
775.171	0.0154656
775.249	0.0154067
775.328	0.0156131
775.406	0.0156942
775.484	0.0157707
775.562	0.0157726
775.640	0.0156928
775.718	0.0157760
775.796	0.0157236
775.874	0.0159300
775.953	0.0159569
776.031	0.0159789
776.109	0.0158737
776.187	0.0158462
776.265	0.0159315
776.343	0.0159245
776.421	0.0159383
776.499	0.0159701
776.578	0.0158849
776.656	0.0158063
776.734	0.0156717
776.812	0.0157752
776.890	0.0157073
776.968	0.0156841
777.046	0.0158168
777.124	0.0157146
777.203	0.0158600
777.281	0.0159007
777.359	0.0158782
777.437	0.0157921
777.515	0.0157721
777.593	0.0157465
777.671	0.0156509
777.749	0.0156599
777.828	0.0157079
777.906	0.0156161
777.984	0.0155574
778.062	0.0155314
778.140	0.0155944
778.218	0.0154148
778.296	0.0154295
778.374	0.0154828
778.453	0.0155384
778.531	0.0154247
778.609	0.0153665
778.687	0.0153011
778.765	0.0152945
778.843	0.0154350
778.921	0.0152948
778.999	0.0153794
779.078	0.0153979
779.156	0.0154079
779.234	0.0154851
779.312	0.0155780
779.390	0.0158246
779.468	0.0157915
779.546	0.0157574
779.624	0.0158794
779.703	0.0160742
779.781	0.0160567
779.859	0.0160920
779.937	0.0160015
780.015	0.0161460
780.093	0.0161916
780.171	0.0163170
780.249	0.0161391
780.328	0.0161127
780.406	0.0159830
780.484	0.0158373
780.562	0.0159812
780.640	0.0158277
780.718	0.0157565
780.796	0.0156826
780.874	0.0158045
780.953	0.0156970
781.031	0.0155299
781.109	0.0155914
781.187	0.0154625
781.265	0.0153159
781.343	0.0152001
781.421	0.0152448
781.499	0.0152161
781.578	0.0152199
781.656	0.0152999
781.734	0.0153136
781.812	0.0153859
781.890	0.0153623
781.968	0.0155703
782.046	0.0156337
782.124	0.0156181
782.203	0.0156326
782.281	0.0157481
782.359	0.0159378
782.437	0.0160472
782.515	0.0161011
782.593	0.0161143
782.671	0.0163032
782.749	0.0162245
782.828	0.0163377
782.906	0.0163515
782.984	0.0164591
783.062	0.0164696
783.140	0.0164688
783.218	0.0165375
783.296	0.0165293
783.374	0.0164060
783.453	0.0163319
783.531	0.0161581
783.609	0.0162671
783.687	0.0163304
783.765	0.0160364
783.843	0.0158864
783.921	0.0157815
783.999	0.0158891
784.078	0.0156053
784.156	0.0154523
784.234	0.0153764
784.312	0.0153664
784.390	0.0151552
784.468	0.0152026
784.546	0.0151585
784.624	0.0150517
784.703	0.0150175
784.781	0.0150436
784.859	0.0148806
784.937	0.0150060
785.015	0.0149989
785.093	0.0153313
785.171	0.0153843
785.249	0.0153712
785.328	0.0154263
785.406	0.0153017
785.484	0.0156044
785.562	0.0157310
785.640	0.0155952
785.718	0.0157078
785.796	0.0156349
785.874	0.0157956
785.953	0.0160233
786.031	0.0160419
786.109	0.0159564
786.187	0.0158965
786.265	0.0159642
786.343	0.0159550
786.421	0.0161034
786.499	0.0159958
786.578	0.0160384
786.656	0.0160577
786.734	0.0160680
786.812	0.0161303
786.890	0.0161894
786.968	0.0162621
787.046	0.0162798
787.124	0.0163995
787.203	0.0162708
787.281	0.0163249
787.359	0.0162738
787.437	0.0162941
787.515	0.0162576
787.593	0.0161857
787.671	0.0161764
787.749	0.0159932
787.828	0.0159704
787.906	0.0157845
787.984	0.0158447
788.062	0.0156343
788.140	0.0156601
788.218	0.0154565
788.296	0.0153977
788.374	0.0153205
788.453	0.0153800
788.531	0.0152806
788.609	0.0153315
788.687	0.0153717
788.765	0.0152010
788.843	0.0153396
788.921	0.0154128
788.999	0.0152467
789.078	0.0151181
789.156	0.0152630
789.234	0.0152991
789.312	0.0153451
789.390	0.0154038
789.468	0.0156214
789.546	0.0155477
789.624	0.0155600
789.703	0.0157148
789.781	0.0156695
789.859	0.0157667
789.937	0.0158183
790.015	0.0160992
790.093	0.0160372
790.171	0.0160703
790.249	0.0161892
790.328	0.0162171
790.406	0.0162771
790.484	0.0161713
790.562	0.0159531
790.640	0.0161463
790.718	0.0158864
790.796	0.0159644
790.874	0.0158132
790.953	0.0157134
791.031	0.0155952
791.109	0.0155054
791.187	0.0154242
791.265	0.0153583
791.343	0.0153531
791.421	0.0154450
791.499	0.0152557
791.578	0.0152252
791.656	0.0153288
791.734	0.0153031
791.812	0.0155424
791.890	0.0155359
791.968	0.0155850
792.046	0.0158199
792.124	0.0157262
792.203	0.0156995
792.281	0.0158873
792.359	0.0160144
792.437	0.0160755
792.515	0.0160745
792.593	0.0161740
792.671	0.0161160
792.749	0.0161841
792.828	0.0162568
792.906	0.0161418
792.984	0.0161684
793.062	0.0161557
793.140	0.0161388
793.218	0.0161527
793.296	0.0161554
793.374	0.0162182
793.453	0.0160104
793.531	0.0158694
793.609	0.0159071
793.687	0.0159962
793.765	0.0160271
793.843	0.0159528
793.921	0.0158744
793.999	0.0158128
794.078	0.0156831
794.156	0.0156880
794.234	0.0154569
794.312	0.0155453
794.390	0.0152388
794.468	0.0153205
794.546	0.0152789
794.624	0.0152266
794.703	0.0152402
794.781	0.0150951
794.859	0.0150755
794.937	0.0150127
795.015	0.0150336
795.093	0.0151120
795.171	0.0150245
795.249	0.0149461
795.328	0.0150993
795.406	0.0151575
795.484	0.0151273
795.562	0.0152174
795.640	0.0153017
795.718	0.0154179
795.796	0.0155044
795.874	0.0156554
795.953	0.0157429
796.031	0.0160178
796.109	0.0159376
796.187	0.0159646
796.265	0.0161737
796.343	0.0162065
796.421	0.0161977
796.499	0.0163594
796.578	0.0163742
796.656	0.0163054
796.734	0.0164153
796.812	0.0163889
796.890	0.0160876
796.968	0.0162344
797.046	0.0161698
797.124	0.0160410
797.203	0.0159946
797.281	0.0159435
797.359	0.0159259
797.437	0.0160155
797.515	0.0160417
797.593	0.0160709
797.671	0.0159351
797.749	0.0159837
797.828	0.0158727
797.906	0.0159346
797.984	0.0161356
798.062	0.0160783
798.140	0.0159785
798.218	0.0159800
798.296	0.0159788
798.374	0.0159441
798.453	0.0160225
798.531	0.0158049
798.609	0.0157121
798.687	0.0157660
798.765	0.0156769
798.843	0.0156240
798.921	0.0153821
798.999	0.0154082
799.078	0.0152711
799.156	0.0153856
799.234	0.0152350
799.312	0.0151238
799.390	0.0151244
799.468	0.0152075
799.546	0.0150082
799.624	0.0151306
799.703	0.0152280
799.781	0.0153462
799.859	0.0151440
799.937	0.0153816
800.015	0.0153045
800.093	0.0153804
800.171	0.0153498
800.249	0.0154069
800.328	0.0152980
800.406	0.0155384
800.484	0.0155713
800.562	0.0155353
800.640	0.0155776
800.718	0.0154885
800.796	0.0154833
800.874	0.0156760
800.953	0.0157253
801.031	0.0157455
801.109	0.0155679
801.187	0.0158387
801.265	0.0158933
801.343	0.0159262
801.421	0.0159937
801.499	0.0160514
801.578	0.0160522
801.656	0.0161589
801.734	0.0162238
801.812	0.0162049
801.890	0.0163385
801.968	0.0162943
802.046	0.0163641
802.124	0.0164068
802.203	0.0162999
802.281	0.0163673
802.359	0.0162558
802.437	0.0163830
802.515	0.0163750
802.593	0.0163538
802.671	0.0164125
802.749	0.0160345
802.828	0.0162510
802.906	0.0161728
802.984	0.0161198
803.062	0.0159772
803.140	0.0157986
803.218	0.0158498
803.296	0.0156418
803.374	0.0156566
803.453	0.0154224
803.531	0.0154807
803.609	0.0155573
803.687	0.0153136
803.765	0.0153736
803.843	0.0153296
803.921	0.0152362
803.999	0.0150840
804.078	0.0150978
804.156	0.0151900
804.234	0.0151662
804.312	0.0152396
804.390	0.0153162
804.468	0.0152021
804.546	0.0152033
804.624	0.0153986
804.703	0.0155459
804.781	0.0155929
804.859	0.0155816
804.937	0.0156065
805.015	0.0155871
805.093	0.0155344
805.171	0.0157404
805.249	0.0157266
805.328	0.0155087
805.406	0.0156538
805.484	0.0157259
805.562	0.0157294
805.640	0.0156853
805.718	0.0157993
805.796	0.0157465
805.874	0.0157932
805.953	0.0157063
806.031	0.0157006
806.109	0.0156314
806.187	0.0156516
806.265	0.0157693
806.343	0.0157671
806.421	0.0156591
806.499	0.0156765
806.578	0.0158407
806.656	0.0158327
806.734	0.0158227
806.812	0.0159193
806.890	0.0159689
806.968	0.0161082
807.046	0.0161053
807.124	0.0161536
807.203	0.0162245
807.281	0.0161626
807.359	0.0162480
807.437	0.0161220
807.515	0.0162527
807.593	0.0161475
807.671	0.0162625
807.749	0.0162186
807.828	0.0163338
807.906	0.0161262
807.984	0.0162242
808.062	0.0161685
808.140	0.0161343
808.218	0.0160464
808.296	0.0158943
808.374	0.0159991
808.453	0.0159655
808.531	0.0157462
808.609	0.0156986
808.687	0.0157784
808.765	0.0158204
808.843	0.0156720
808.921	0.0155372
808.999	0.0156064
809.078	0.0155410
809.156	0.0153481
809.234	0.0152044
809.312	0.0150819
809.390	0.0149355
809.468	0.0147916
809.546	0.0149463
809.624	0.0147314
809.703	0.0147981
809.781	0.0148380
809.859	0.0147913
809.937	0.0148344
810.015	0.0150623
810.093	0.0149978
810.171	0.0151572
810.249	0.0153271
810.328	0.0154440
810.406	0.0156069
810.484	0.0156335
810.562	0.0159097
810.640	0.0159965
810.718	0.0160644
810.796	0.0161131
810.874	0.0161375
810.953	0.0163078
811.031	0.0164091
811.109	0.0162348
811.187	0.0163814
811.265	0.0164076
811.343	0.0163609
811.421	0.0163245
811.499	0.0163062
811.578	0.0161858
811.656	0.0162225
811.734	0.0161463
811.812	0.0160387
811.890	0.0161362
811.968	0.0160704
812.046	0.0159679
812.124	0.0160412
812.203	0.0158724
812.281	0.0160418
812.359	0.0160997
812.437	0.0159739
812.515	0.0157936
812.593	0.0160043
812.671	0.0160294
812.749	0.0159807
812.828	0.0159296
812.906	0.0157925
812.984	0.0157430
813.062	0.0156588
813.140	0.0157780
813.218	0.0157009
813.296	0.0155389
813.374	0.0153898
813.453	0.0152924
813.531	0.0154088
813.609	0.0154691
813.687	0.0151617
813.765	0.0151968
813.843	0.0152827
813.921	0.0153575
813.999	0.0151755
814.078	0.0151031
814.156	0.0153432
814.234	0.0153936
814.312	0.0154623
814.390	0.0154475
814.468	0.0156067
814.546	0.0154449
814.624	0.0156191
814.703	0.0156772
814.781	0.0156343
814.859	0.0156274
814.937	0.0157008
815.015	0.0158585
815.093	0.0157751
815.171	0.0157475
815.249	0.0158077
815.328	0.0159299
815.406	0.0158478
815.484	0.0160052
815.562	0.0159361
815.640	0.0160332
815.718	0.0161130
815.796	0.0160108
815.874	0.0158797
815.953	0.0160170
816.031	0.0159369
816.109	0.0158650
816.187	0.0159465
816.265	0.0159118
816.343	0.0158656
816.421	0.0158174
816.499	0.0158443
816.578	0.0159364
816.656	0.0157992
816.734	0.0157104
816.812	0.0157726
816.890	0.0157735
816.968	0.0157225
817.046	0.0158308
817.124	0.0158440
817.203	0.0159626
817.281	0.0159476
817.359	0.0158433
817.437	0.0158596
817.515	0.0158685
817.593	0.0158047
817.671	0.0156271
817.749	0.0158256
817.828	0.0158577
817.906	0.0157018
817.984	0.0158691
818.062	0.0157113
818.140	0.0156920
818.218	0.0157393
818.296	0.0156866
818.374	0.0156172
818.453	0.0157107
818.531	0.0156441
818.609	0.0154948
818.687	0.0156725
818.765	0.0156909
818.843	0.0157945
818.921	0.0157874
818.999	0.0156938
819.078	0.0157339
819.156	0.0156995
819.234	0.0156855
819.312	0.0154780
819.390	0.0155870
819.468	0.0155212
819.546	0.0154866
819.624	0.0155340
819.703	0.0154887
819.781	0.0153947
819.859	0.0153182
819.937	0.0153836
820.015	0.0153077
820.093	0.0152081
820.171	0.0152461
820.249	0.0153484
820.328	0.0152654
820.406	0.0151929
820.484	0.0152396
820.562	0.0152807
820.640	0.0153256
820.718	0.0154214
820.796	0.0155143
820.874	0.0155586
820.953	0.0156382
821.031	0.0158826
821.109	0.0159911
821.187	0.0160493
821.265	0.0160974
821.343	0.0161212
821.421	0.0163075
821.499	0.0164840
821.578	0.0164601
821.656	0.0164863
821.734	0.0164563
821.812	0.0166731
821.890	0.0164166
821.968	0.0163947
822.046	0.0163663
822.124	0.0162437
822.203	0.0161615
822.281	0.0161230
822.359	0.0159039
822.437	0.0157691
822.515	0.0155125
822.593	0.0156264
822.671	0.0154321
822.749	0.0153331
822.828	0.0151849
822.906	0.0149273
822.984	0.0150704
823.062	0.0149538
823.140	0.0150769
823.218	0.0149280
823.296	0.0148776
823.374	0.0148515
823.453	0.0150066
823.531	0.0149004
823.609	0.0150690
823.687	0.0150935
823.765	0.0151318
823.843	0.0151763
823.921	0.0152056
823.999	0.0151579
824.078	0.0152374
824.156	0.0153190
824.234	0.0154226
824.312	0.0155743
824.390	0.0156257
824.468	0.0157116
824.546	0.0158175
824.624	0.0158460
824.703	0.0159755
824.781	0.0160515
824.859	0.0161391
824.937	0.0160989
825.015	0.0162218
825.093	0.0161334
825.171	0.0162755
825.249	0.0162622
825.328	0.0161983
825.406	0.0161266
825.484	0.0161731
825.562	0.0162078
825.640	0.0160873
825.718	0.0159937
825.796	0.0159115
825.874	0.0159608
825.953	0.0158631
826.031	0.0158041
826.109	0.0156834
826.187	0.0156367
826.265	0.0154176
826.343	0.0155891
826.421	0.0154746
826.499	0.0152805
826.578	0.0153397
826.656	0.0152386
826.734	0.0153680
826.812	0.0152755
826.890	0.0152610
826.968	0.0152530
827.046	0.0151839
827.124	0.0152227
827.203	0.0154636
827.281	0.0154262
827.359	0.0154271
827.437	0.0154837
827.515	0.0156059
827.593	0.0156541
827.671	0.0156791
827.749	0.0157048
827.828	0.0157902
827.906	0.0157540
827.984	0.0157713
828.062	0.0155913
828.140	0.0157445
828.218	0.0158680
828.296	0.0158704
828.374	0.0159554
828.453	0.0158475
828.531	0.0159798
828.609	0.0158129
828.687	0.0158689
828.765	0.0158037
828.843	0.0158683
828.921	0.0158438
828.999	0.0158121
829.078	0.0158472
829.156	0.0157652
829.234	0.0157183
829.312	0.0157304
829.390	0.0156500
829.468	0.0157276
829.546	0.0156763
829.624	0.0155882
829.703	0.0156219
829.781	0.0156730
829.859	0.0156561
829.937	0.0156339
830.015	0.0155429
830.093	0.0155022
830.171	0.0154938
830.249	0.0153503
830.328	0.0155688
830.406	0.0156317
830.484	0.0156199
830.562	0.0156281
830.640	0.0156805
830.718	0.0155733
830.796	0.0154905
830.874	0.0155614
830.953	0.0157585
831.031	0.0157279
831.109	0.0157108
831.187	0.0156206
831.265	0.0157310
831.343	0.0158807
831.421	0.0158481
831.499	0.0158446
831.578	0.0158350
831.656	0.0157087
831.734	0.0159219
831.812	0.0158547
831.890	0.0158657
831.968	0.0160319
832.046	0.0159299
832.124	0.0157903
832.203	0.0158617
832.281	0.0158993
832.359	0.0159894
832.437	0.0158089
832.515	0.0159174
832.593	0.0159000
832.671	0.0159036
832.749	0.0158501
832.828	0.0157301
832.906	0.0157333
832.984	0.0157695
833.062	0.0157232
833.140	0.0157489
833.218	0.0156556
833.296	0.0156386
833.374	0.0157300
833.453	0.0155727
833.531	0.0156384
833.609	0.0155405
833.687	0.0154980
833.765	0.0156100
833.843	0.0156204
833.921	0.0155493
833.999	0.0154781
834.078	0.0154770
834.156	0.0155500
834.234	0.0155105
834.312	0.0155000
834.390	0.0154215
834.468	0.0155463
834.546	0.0155728
834.624	0.0155804
834.703	0.0155900
834.781	0.0155778
834.859	0.0157043
834.937	0.0155178
835.015	0.0157259
835.093	0.0155630
835.171	0.0155865
835.249	0.0155920
835.328	0.0157436
835.406	0.0157253
835.484	0.0157347
835.562	0.0157524
835.640	0.0157683
835.718	0.0158629
835.796	0.0158593
835.874	0.0158811
835.953	0.0158704
836.031	0.0160876
836.109	0.0158994
836.187	0.0157538
836.265	0.0158735
836.343	0.0159266
836.421	0.0158843
836.499	0.0158624
836.578	0.0157330
836.656	0.0157664
836.734	0.0158636
836.812	0.0159958
836.890	0.0159074
836.968	0.0157201
837.046	0.0156354
837.124	0.0156766
837.203	0.0155994
837.281	0.0156949
837.359	0.0157157
837.437	0.0155495
837.515	0.0154621
837.593	0.0156149
837.671	0.0154876
837.749	0.0155328
837.828	0.0156544
837.906	0.0155682
837.984	0.0157131
838.062	0.0156330
838.140	0.0156343
838.218	0.0156623
838.296	0.0156956
838.374	0.0156769
838.453	0.0156831
838.531	0.0156236
838.609	0.0157423
838.687	0.0157217
838.765	0.0156694
838.843	0.0156818
838.921	0.0156387
838.999	0.0155814
839.078	0.0157313
839.156	0.0158660
839.234	0.0156960
839.312	0.0157178
839.390	0.0156819
839.468	0.0157968
839.546	0.0157345
839.624	0.0158326
839.703	0.0159495
839.781	0.0158356
839.859	0.0158353
839.937	0.0159696
840.015	0.0158796
840.093	0.0159447
840.171	0.0160142
840.249	0.0158724
840.328	0.0158609
840.406	0.0158686
840.484	0.0158717
840.562	0.0157378
840.640	0.0156559
840.718	0.0155194
840.796	0.0156155
840.874	0.0155844
840.953	0.0154329
841.031	0.0152875
841.109	0.0152473
841.187	0.0153781
841.265	0.0152390
841.343	0.0151941
841.421	0.0151826
841.499	0.0152419
841.578	0.0153406
841.656	0.0150964
841.734	0.0152807
841.812	0.0153070
841.890	0.0153339
841.968	0.0153992
842.046	0.0156251
842.124	0.0156329
842.203	0.0155711
842.281	0.0155576
842.359	0.0157202
842.437	0.0158011
842.515	0.0159457
842.593	0.0160178
842.671	0.0157854
842.749	0.0159310
842.828	0.0159746
842.906	0.0160703
842.984	0.0160784
843.062	0.0160492
843.140	0.0160789
843.218	0.0160274
843.296	0.0159189
843.374	0.0159937
843.453	0.0160167
843.531	0.0159680
843.609	0.0161515
843.687	0.0160921
843.765	0.0160886
843.843	0.0157934
843.921	0.0159423
843.999	0.0160067
844.078	0.0159130
844.156	0.0159260
844.234	0.0158985
844.312	0.0157779
844.390	0.0157098
844.468	0.0155822
844.546	0.0156743
844.624	0.0155199
844.703	0.0155345
844.781	0.0154389
844.859	0.0154247
844.937	0.0154246
845.015	0.0152424
845.093	0.0153406
845.171	0.0154277
845.249	0.0153021
845.328	0.0152959
845.406	0.0154829
845.484	0.0155082
845.562	0.0154912
845.640	0.0154488
845.718	0.0154534
845.796	0.0155632
845.874	0.0155965
845.953	0.0155322
846.031	0.0156005
846.109	0.0155731
846.187	0.0156244
846.265	0.0157397
846.343	0.0157579
846.421	0.0154538
846.499	0.0155166
846.578	0.0156085
846.656	0.0157878
846.734	0.0157393
846.812	0.0156554
846.890	0.0157626
846.968	0.0157769
847.046	0.0157867
847.124	0.0156647
847.203	0.0156622
847.281	0.0156664
847.359	0.0156991
847.437	0.0158737
847.515	0.0157813
847.593	0.0157632
847.671	0.0157107
847.749	0.0157130
847.828	0.0156517
847.906	0.0156673
847.984	0.0156526
848.062	0.0154970
848.140	0.0156351
848.218	0.0154929
848.296	0.0155879
848.374	0.0155701
848.453	0.0155473
848.531	0.0154749
848.609	0.0155464
848.687	0.0156791
848.765	0.0157721
848.843	0.0156225
848.921	0.0156737
848.999	0.0157862
849.078	0.0157251
849.156	0.0158414
849.234	0.0158550
849.312	0.0157742
849.390	0.0158418
849.468	0.0159085
849.546	0.0159128
849.624	0.0159332
849.703	0.0158675
849.781	0.0158536
849.859	0.0160297
849.937	0.0160867
850.015	0.0160122
850.093	0.0158246
850.171	0.0159053
850.249	0.0159288
850.328	0.0160651
850.406	0.0159254
850.484	0.0158817
850.562	0.0158465
850.640	0.0159057
850.718	0.0157686
850.796	0.0157347
850.874	0.0157011
850.953	0.0156493
851.031	0.0157059
851.109	0.0155138
851.187	0.0156413
851.265	0.0156446
851.343	0.0155669
851.421	0.0155002
851.499	0.0155550
851.578	0.0156729
851.656	0.0156089
851.734	0.0153982
851.812	0.0155077
851.890	0.0155888
851.968	0.0154700
852.046	0.0155102
852.124	0.0155730
852.203	0.0155517
852.281	0.0156773
852.359	0.0156040
852.437	0.0156178
852.515	0.0156652
852.593	0.0157195
852.671	0.0156338
852.749	0.0158524
852.828	0.0159287
852.906	0.0158862
852.984	0.0157648
853.062	0.0158902
853.140	0.0158269
853.218	0.0159250
853.296	0.0159403
853.374	0.0158538
853.453	0.0158765
853.531	0.0160266
853.609	0.0159633
853.687	0.0159482
853.765	0.0159945
853.843	0.0159719
853.921	0.0158626
853.999	0.0156796
854.078	0.0158148
854.156	0.0158700
854.234	0.0156690
854.312	0.0158282
854.390	0.0158955
854.468	0.0157950
854.546	0.0155930
854.624	0.0157805
854.703	0.0156497
854.781	0.0157937
854.859	0.0158523
854.937	0.0157205
855.015	0.0157832
855.093	0.0157869
855.171	0.0158949
855.249	0.0159177
855.328	0.0157463
855.406	0.0156655
855.484	0.0156997
855.562	0.0157788
855.640	0.0158858
855.718	0.0157748
855.796	0.0157906
855.874	0.0158228
855.953	0.0157449
856.031	0.0157133
856.109	0.0158736
856.187	0.0159405
856.265	0.0158576
856.343	0.0159235
856.421	0.0159010
856.499	0.0158779
856.578	0.0158968
856.656	0.0158424
856.734	0.0158931
856.812	0.0157623
856.890	0.0156815
856.968	0.0157334
857.046	0.0157409
857.124	0.0157487
857.203	0.0158890
857.281	0.0157372
857.359	0.0155437
857.437	0.0156931
857.515	0.0156515
857.593	0.0157019
857.671	0.0158593
857.749	0.0156731
857.828	0.0158050
857.906	0.0156073
857.984	0.0157744
858.062	0.0158290
858.140	0.0157663
858.218	0.0158161
858.296	0.0157106
858.374	0.0158089
858.453	0.0157704
858.531	0.0158388
858.609	0.0157093
858.687	0.0156409
858.765	0.0157916
858.843	0.0157105
858.921	0.0157063
858.999	0.0158533
859.078	0.0158667
859.156	0.0157502
859.234	0.0157008
859.312	0.0157746
859.390	0.0156000
859.468	0.0159011
859.546	0.0158193
859.624	0.0155993
859.703	0.0158057
859.781	0.0157227
859.859	0.0156121
859.937	0.0156103
860.015	0.0156120
860.093	0.0157417
860.171	0.0157792
860.249	0.0158176
860.328	0.0156237
860.406	0.0157525
860.484	0.0158026
860.562	0.0156076
860.640	0.0158319
860.718	0.0157050
860.796	0.0157260
860.874	0.0158372
860.953	0.0158197
861.031	0.0158281
861.109	0.0158522
861.187	0.0158436
861.265	0.0158953
861.343	0.0157842
861.421	0.0158882
861.499	0.0156861
861.578	0.0157332
861.656	0.0156573
861.734	0.0159701
861.812	0.0157785
861.890	0.0156668
861.968	0.0156310
862.046	0.0157938
862.124	0.0157082
862.203	0.0157161
862.281	0.0157190
862.359	0.0156170
862.437	0.0156976
862.515	0.0157784
862.593	0.0156985
862.671	0.0156806
862.749	0.0157053
862.828	0.0158095
862.906	0.0157301
862.984	0.0157568
863.062	0.0157886
863.140	0.0158798
863.218	0.0157183
863.296	0.0157370
863.374	0.0157697
863.453	0.0156342
863.531	0.0155125
863.609	0.0156161
863.687	0.0156998
863.765	0.0156017
863.843	0.0156396
863.921	0.0156231
863.999	0.0156244
864.078	0.0156005
864.156	0.0155511
864.234	0.0155080
864.312	0.0155124
864.390	0.0156819
864.468	0.0156246
864.546	0.0155748
864.624	0.0157093
864.703	0.0156618
864.781	0.0157241
864.859	0.0156487
864.937	0.0156882
865.015	0.0157918
865.093	0.0157608
865.171	0.0158691
865.249	0.0157528
865.328	0.0157494
865.406	0.0157549
865.484	0.0157723
865.562	0.0158221
865.640	0.0159341
865.718	0.0157391
865.796	0.0155853
865.874	0.0157967
865.953	0.0158547
866.031	0.0158939
866.109	0.0157116
866.187	0.0156932
866.265	0.0157538
866.343	0.0157330
866.421	0.0157828
866.499	0.0156583
866.578	0.0158234
866.656	0.0156816
866.734	0.0158466
866.812	0.0158137
866.890	0.0157411
866.968	0.0159710
867.046	0.0159937
867.124	0.0158589
867.203	0.0157763
867.281	0.0157996
867.359	0.0158070
867.437	0.0159079
867.515	0.0158067
867.593	0.0157870
867.671	0.0158286
867.749	0.0156808
867.828	0.0157406
867.906	0.0157992
867.984	0.0155993
868.062	0.0157091
868.140	0.0156511
868.218	0.0156969
868.296	0.0157524
868.374	0.0157790
868.453	0.0157037
868.531	0.0159433
868.609	0.0158186
868.687	0.0157320
868.765	0.0158574
868.843	0.0157117
868.921	0.0157109
868.999	0.0158294
869.078	0.0157626
869.156	0.0158701
869.234	0.0156950
869.312	0.0157425
869.390	0.0157277
869.468	0.0158112
869.546	0.0157679
869.624	0.0158508
869.703	0.0157715
869.781	0.0158447
869.859	0.0157663
869.937	0.0157684
870.015	0.0158263
870.093	0.0158318
870.171	0.0158244
870.249	0.0158076
870.328	0.0157009
870.406	0.0157675
870.484	0.0158342
870.562	0.0156881
870.640	0.0158385
870.718	0.0156956
870.796	0.0157381
870.874	0.0158721
870.953	0.0157217
871.031	0.0158324
871.109	0.0158315
871.187	0.0158047
871.265	0.0157771
871.343	0.0157729
871.421	0.0159090
871.499	0.0158370
871.578	0.0157510
871.656	0.0158625
871.734	0.0159173
871.812	0.0155997
871.890	0.0157849
871.968	0.0159562
872.046	0.0157805
872.124	0.0156823
872.203	0.0158757
872.281	0.0158295
872.359	0.0157273
872.437	0.0158221
872.515	0.0158198
872.593	0.0158879
872.671	0.0157927
872.749	0.0157772
872.828	0.0157618
872.906	0.0158046
872.984	0.0158477
873.062	0.0158075
873.140	0.0157230
873.218	0.0158450
873.296	0.0156999
873.374	0.0157879
873.453	0.0158799
873.531	0.0158094
873.609	0.0158192
873.687	0.0158714
873.765	0.0158232
873.843	0.0157391
873.921	0.0158827
873.999	0.0157967
874.078	0.0158592
874.156	0.0157693
874.234	0.0158798
874.312	0.0158581
874.390	0.0157172
874.468	0.0157771
874.546	0.0158991
874.624	0.0156762
874.703	0.0157703
874.781	0.0157775
874.859	0.0156372
874.937	0.0157424
875.015	0.0157988
875.093	0.0156298
875.171	0.0157460
875.249	0.0156512
875.328	0.0157021
875.406	0.0157187
875.484	0.0157847
875.562	0.0156995
875.640	0.0157312
875.718	0.0155892
875.796	0.0156956
875.874	0.0156675
875.953	0.0158849
876.031	0.0156879
876.109	0.0156927
876.187	0.0158206
876.265	0.0158766
876.343	0.0159847
876.421	0.0158319
876.499	0.0159094
876.578	0.0159507
876.656	0.0159443
876.734	0.0158829
876.812	0.0158752
876.890	0.0159061
876.968	0.0159248
877.046	0.0159180
877.124	0.0159740
877.203	0.0159604
877.281	0.0157448
877.359	0.0158883
877.437	0.0160048
877.515	0.0157710
877.593	0.0158093
877.671	0.0157702
877.749	0.0157410
877.828	0.0157189
877.906	0.0156488
877.984	0.0157336
878.062	0.0156110
878.140	0.0153934
878.218	0.0156568
878.296	0.0155824
878.374	0.0156853
878.453	0.0156090
878.531	0.0156358
878.609	0.0155602
878.687	0.0155708
878.765	0.0156212
878.843	0.0155766
878.921	0.0155956
878.999	0.0156311
879.078	0.0156002
879.156	0.0156252
879.234	0.0155544
879.312	0.0157598
879.390	0.0156248
879.468	0.0155269
879.546	0.0156638
879.624	0.0156524
879.703	0.0157699
879.781	0.0156829
879.859	0.0157455
879.937	0.0158319
880.015	0.0158315
880.093	0.0158122
880.171	0.0157462
880.249	0.0156821
880.328	0.0158276
880.406	0.0157994
880.484	0.0156820
880.562	0.0157416
880.640	0.0158506
880.718	0.0157825
880.796	0.0156390
880.874	0.0157399
880.953	0.0156534
881.031	0.0156638
881.109	0.0158566
881.187	0.0156847
881.265	0.0156594
881.343	0.0156245
881.421	0.0156318
881.499	0.0157162
881.578	0.0155110
881.656	0.0156098
881.734	0.0157117
881.812	0.0156786
881.890	0.0156631
881.968	0.0156861
882.046	0.0156456
882.124	0.0157439
882.203	0.0157742
882.281	0.0156694
882.359	0.0156644
882.437	0.0156905
882.515	0.0156358
882.593	0.0157405
882.671	0.0157459
882.749	0.0157237
882.828	0.0156834
882.906	0.0157437
882.984	0.0156574
883.062	0.0156977
883.140	0.0158360
883.218	0.0156406
883.296	0.0156535
883.374	0.0156825
883.453	0.0155585
883.531	0.0157383
883.609	0.0156917
883.687	0.0155624
883.765	0.0156892
883.843	0.0156044
883.921	0.0157225
883.999	0.0156401
884.078	0.0155254
884.156	0.0156021
884.234	0.0154810
884.312	0.0155205
884.390	0.0154740
884.468	0.0156907
884.546	0.0153979
884.624	0.0155074
884.703	0.0155910
884.781	0.0156618
884.859	0.0156463
884.937	0.0154527
885.015	0.0155740
885.093	0.0154063
885.171	0.0154866
885.249	0.0155303
885.328	0.0156319
885.406	0.0154958
885.484	0.0155730
885.562	0.0155029
885.640	0.0156480
885.718	0.0156113
885.796	0.0156847
885.874	0.0156712
885.953	0.0156752
886.031	0.0157718
886.109	0.0158316
886.187	0.0156989
886.265	0.0158266
886.343	0.0158508
886.421	0.0157980
886.499	0.0158322
886.578	0.0158372
886.656	0.0158252
886.734	0.0158538
886.812	0.0157578
886.890	0.0157266
886.968	0.0158331
887.046	0.0158900
887.124	0.0158918
887.203	0.0158277
887.281	0.0158153
887.359	0.0156559
887.437	0.0156720
887.515	0.0157821
887.593	0.0157058
887.671	0.0156048
887.749	0.0158566
887.828	0.0156555
887.906	0.0155423
887.984	0.0156603
888.062	0.0156436
888.140	0.0156036
888.218	0.0156111
888.296	0.0155959
888.374	0.0156616
888.453	0.0157147
888.531	0.0156039
888.609	0.0156149
888.687	0.0156473
888.765	0.0157076
888.843	0.0157833
888.921	0.0157420
888.999	0.0156874
889.078	0.0157686
889.156	0.0158218
889.234	0.0157640
889.312	0.0158007
889.390	0.0156758
889.468	0.0157226
889.546	0.0158542
889.624	0.0157556
889.703	0.0157276
889.781	0.0159196
889.859	0.0157310
889.937	0.0156888
890.015	0.0157593
890.093	0.0157508
890.171	0.0157954
890.249	0.0156942
890.328	0.0156463
890.406	0.0157442
890.484	0.0157677
890.562	0.0157812
890.640	0.0157347
890.718	0.0156705
890.796	0.0157942
890.874	0.0158466
890.953	0.0156554
891.031	0.0156392
891.109	0.0157776
891.187	0.0156657
891.265	0.0158096
891.343	0.0157453
891.421	0.0156771
891.499	0.0156606
891.578	0.0156815
891.656	0.0157272
891.734	0.0156759
891.812	0.0157980
891.890	0.0158408
891.968	0.0157617
892.046	0.0158266
892.124	0.0158036
892.203	0.0157957
892.281	0.0158557
892.359	0.0158358
892.437	0.0158514
892.515	0.0160056
892.593	0.0159031
892.671	0.0158897
892.749	0.0157253
892.828	0.0158776
892.906	0.0159994
892.984	0.0160202
893.062	0.0159520
893.140	0.0159417
893.218	0.0159109
893.296	0.0158870
893.374	0.0157788
893.453	0.0159296
893.531	0.0160079
893.609	0.0159788
893.687	0.0159439
893.765	0.0158407
893.843	0.0159116
893.921	0.0158096
893.999	0.0158201
894.078	0.0159584
894.156	0.0158263
894.234	0.0157452
894.312	0.0157817
894.390	0.0157523
894.468	0.0158972
894.546	0.0158138
894.624	0.0158170
894.703	0.0158995
894.781	0.0158420
894.859	0.0158111
894.937	0.0157974
895.015	0.0157574
895.093	0.0160391
895.171	0.0159565
895.249	0.0160562
895.328	0.0159565
895.406	0.0158678
895.484	0.0159075
895.562	0.0158415
895.640	0.0158077
895.718	0.0158510
895.796	0.0157614
895.874	0.0158124
895.953	0.0158563
896.031	0.0158334
896.109	0.0158070
896.187	0.0157431
896.265	0.0156886
896.343	0.0156499
896.421	0.0158237
896.499	0.0157592
896.578	0.0158286
896.656	0.0156561
896.734	0.0156984
896.812	0.0157479
896.890	0.0157017
896.968	0.0157253
897.046	0.0156068
897.124	0.0156699
897.203	0.0156975
897.281	0.0157270
897.359	0.0157668
897.437	0.0157734
897.515	0.0156952
897.593	0.0158575
897.671	0.0158298
897.749	0.0156973
897.828	0.0158060
897.906	0.0157206
897.984	0.0157338
898.062	0.0157118
898.140	0.0157090
898.218	0.0157210
898.296	0.0158453
898.374	0.0158392
898.453	0.0157827
898.531	0.0158787
898.609	0.0158817
898.687	0.0158083
898.765	0.0158932
898.843	0.0158954
898.921	0.0158938
898.999	0.0158229
899.078	0.0158214
899.156	0.0157550
899.234	0.0156201
899.312	0.0156989
899.390	0.0157372
899.468	0.0157289
899.546	0.0157977
899.624	0.0155913
899.703	0.0157565
899.781	0.0157856
899.859	0.0155669
899.937	0.0155203
900.015	0.0156775
900.093	0.0156261
900.171	0.0155663
900.249	0.0155214
900.328	0.0156721
900.406	0.0156206
900.484	0.0155905
900.562	0.0156698
900.640	0.0157047
900.718	0.0156690
900.796	0.0156717
900.874	0.0157462
900.953	0.0157986
901.031	0.0157491
901.109	0.0156942
901.187	0.0158013
901.265	0.0158166
901.343	0.0158089
901.421	0.0158474
901.499	0.0157912
901.578	0.0157341
901.656	0.0158365
901.734	0.0157563
901.812	0.0159182
901.890	0.0159474
901.968	0.0158572
902.046	0.0159752
902.124	0.0158255
902.203	0.0158176
902.281	0.0157072
902.359	0.0158001
902.437	0.0157948
902.515	0.0157277
902.593	0.0156861
902.671	0.0156591
902.749	0.0157769
902.828	0.0159439
902.906	0.0156115
902.984	0.0157964
903.062	0.0158466
903.140	0.0156681
903.218	0.0156736
903.296	0.0156753
903.374	0.0157063
903.453	0.0157249
903.531	0.0156239
903.609	0.0155295
903.687	0.0157108
903.765	0.0156146
903.843	0.0155109
903.921	0.0157253
903.999	0.0158222
904.078	0.0158216
904.156	0.0157336
904.234	0.0156790
904.312	0.0157105
904.390	0.0158625
904.468	0.0157744
904.546	0.0157377
904.624	0.0157391
904.703	0.0156515
904.781	0.0157633
904.859	0.0158717
904.937	0.0157281
905.015	0.0158120
905.093	0.0157893
905.171	0.0157820
905.249	0.0155992
905.328	0.0158788
905.406	0.0158743
905.484	0.0157355
905.562	0.0156780
905.640	0.0156218
905.718	0.0155795
905.796	0.0154848
905.874	0.0155061
905.953	0.0155117
906.031	0.0155017
906.109	0.0154735
906.187	0.0154482
906.265	0.0154280
906.343	0.0155247
906.421	0.0153882
906.499	0.0154047
906.578	0.0154810
906.656	0.0155324
906.734	0.0155453
906.812	0.0154094
906.890	0.0155248
906.968	0.0155102
907.046	0.0154195
907.124	0.0154340
907.203	0.0154504
907.281	0.0155368
907.359	0.0156892
907.437	0.0157748
907.515	0.0154960
907.593	0.0156858
907.671	0.0155991
907.749	0.0156412
907.828	0.0156535
907.906	0.0156857
907.984	0.0158076
908.062	0.0158408
908.140	0.0158408
908.218	0.0157586
908.296	0.0157158
908.374	0.0157407
908.453	0.0158698
908.531	0.0157237
908.609	0.0157629
908.687	0.0156734
908.765	0.0158611
908.843	0.0157903
908.921	0.0157516
908.999	0.0157392
909.078	0.0157119
909.156	0.0157566
909.234	0.0156570
909.312	0.0157716
909.390	0.0157062
909.468	0.0157504
909.546	0.0157281
909.624	0.0156084
909.703	0.0157677
909.781	0.0156673
909.859	0.0155763
909.937	0.0157361
910.015	0.0156688
910.093	0.0156129
910.171	0.0158273
910.249	0.0157161
910.328	0.0155360
910.406	0.0156052
910.484	0.0157750
910.562	0.0155602
910.640	0.0156805
910.718	0.0157021
910.796	0.0155210
910.874	0.0157058
910.953	0.0157082
911.031	0.0156083
911.109	0.0156989
911.187	0.0157677
911.265	0.0157269
911.343	0.0158649
911.421	0.0157587
911.499	0.0159414
911.578	0.0159120
911.656	0.0157331
911.734	0.0159232
911.812	0.0157490
911.890	0.0156753
911.968	0.0157687
912.046	0.0157670
912.124	0.0157851
912.203	0.0158128
912.281	0.0157286
912.359	0.0156509
912.437	0.0156839
912.515	0.0158637
912.593	0.0157468
912.671	0.0157903
912.749	0.0157339
912.828	0.0156590
912.906	0.0156879
912.984	0.0156805
913.062	0.0157245
913.140	0.0158443
913.218	0.0157278
913.296	0.0159238
913.374	0.0157660
913.453	0.0157417
913.531	0.0157680
913.609	0.0157430
913.687	0.0157078
913.765	0.0158700
913.843	0.0157176
913.921	0.0156543
913.999	0.0159951
914.078	0.0159216
914.156	0.0159563
914.234	0.0159756
914.312	0.0158563
914.390	0.0160244
914.468	0.0158987
914.546	0.0158241
914.624	0.0159101
914.703	0.0159903
914.781	0.0159455
914.859	0.0160405
914.937	0.0158829
915.015	0.0159002
915.093	0.0158600
915.171	0.0158886
915.249	0.0158710
915.328	0.0158488
915.406	0.0158155
915.484	0.0158196
915.562	0.0159135
915.640	0.0158109
915.718	0.0157880
915.796	0.0156138
915.874	0.0156673
915.953	0.0156709
916.031	0.0157971
916.109	0.0157544
916.187	0.0158163
916.265	0.0157825
916.343	0.0158190
916.421	0.0156633
916.499	0.0157152
916.578	0.0157186
916.656	0.0156517
916.734	0.0156711
916.812	0.0158292
916.890	0.0156362
916.968	0.0157487
917.046	0.0157224
917.124	0.0157307
917.203	0.0157439
917.281	0.0156898
917.359	0.0156910
917.437	0.0157244
917.515	0.0157571
917.593	0.0157214
917.671	0.0158561
917.749	0.0157061
917.828	0.0157483
917.906	0.0158440
917.984	0.0159702
918.062	0.0158379
918.140	0.0159010
918.218	0.0158538
918.296	0.0156924
918.374	0.0158872
918.453	0.0158081
918.531	0.0158971
918.609	0.0157478
918.687	0.0157210
918.765	0.0159058
918.843	0.0157547
918.921	0.0158710
918.999	0.0158508
919.078	0.0156883
919.156	0.0158810
919.234	0.0157358
919.312	0.0158204
919.390	0.0157620
919.468	0.0158075
919.546	0.0158144
919.624	0.0157476
919.703	0.0157723
919.781	0.0158115
919.859	0.0156687
919.937	0.0155836
