06/10/2022	18:54:55	Ver.	4.1	UNKNOWN
Optical Delay	600.015094	Delta X		0.078125	Sweeps	1	Scan Rate	0/0
Coordinates	Axis 1	NaN	Axis 2	NaN	Axis 3	NaN	Axis 4	NaN	Axis 5	NaN	Axis 6	0.000000
TX Power	0.000000	RX Power	0.000000

600.015	0.0159331
600.093	0.0160794
600.171	0.0159355
600.249	0.0158932
600.328	0.0159531
600.406	0.0159129
600.484	0.0160242
600.562	0.0160209
600.640	0.0158376
600.718	0.0160642
600.796	0.0159156
600.874	0.0160098
600.953	0.0158415
601.031	0.0158985
601.109	0.0159825
601.187	0.0159824
601.265	0.0159205
601.343	0.0158765
601.421	0.0158447
601.499	0.0158976
601.578	0.0157917
601.656	0.0158531
601.734	0.0159215
601.812	0.0159509
601.890	0.0159177
601.968	0.0158718
602.046	0.0160567
602.124	0.0158891
602.203	0.0159220
602.281	0.0159277
602.359	0.0158739
602.437	0.0159489
602.515	0.0159325
602.593	0.0158983
602.671	0.0160001
602.749	0.0157813
602.828	0.0158443
602.906	0.0159458
602.984	0.0159465
603.062	0.0159077
603.140	0.0157648
603.218	0.0159600
603.296	0.0159061
603.374	0.0159084
603.453	0.0157317
603.531	0.0158405
603.609	0.0160863
603.687	0.0157851
603.765	0.0158337
603.843	0.0158923
603.921	0.0158545
603.999	0.0158448
604.078	0.0158347
604.156	0.0158344
604.234	0.0158808
604.312	0.0158959
604.390	0.0159628
604.468	0.0158652
604.546	0.0159927
604.624	0.0160915
604.703	0.0159550
604.781	0.0158848
604.859	0.0157676
604.937	0.0159145
605.015	0.0160361
605.093	0.0157782
605.171	0.0159207
605.249	0.0158161
605.328	0.0159486
605.406	0.0158894
605.484	0.0158350
605.562	0.0160429
605.640	0.0159824
605.718	0.0158350
605.796	0.0158498
605.874	0.0159203
605.953	0.0158392
606.031	0.0159559
606.109	0.0159486
606.187	0.0160249
606.265	0.0159426
606.343	0.0158001
606.421	0.0159643
606.499	0.0160395
606.578	0.0159634
606.656	0.0159309
606.734	0.0159543
606.812	0.0158257
606.890	0.0157510
606.968	0.0158322
607.046	0.0159624
607.124	0.0159454
607.203	0.0157673
607.281	0.0159206
607.359	0.0159175
607.437	0.0158390
607.515	0.0159392
607.593	0.0157606
607.671	0.0158664
607.749	0.0158990
607.828	0.0158684
607.906	0.0159306
607.984	0.0159351
608.062	0.0158189
608.140	0.0159485
608.218	0.0158508
608.296	0.0159871
608.374	0.0159789
608.453	0.0158134
608.531	0.0158743
608.609	0.0158825
608.687	0.0159953
608.765	0.0159007
608.843	0.0157965
608.921	0.0158381
608.999	0.0159555
609.078	0.0159212
609.156	0.0159597
609.234	0.0159476
609.312	0.0159866
609.390	0.0158857
609.468	0.0157630
609.546	0.0159843
609.624	0.0159496
609.703	0.0159746
609.781	0.0159139
609.859	0.0159914
609.937	0.0158909
610.015	0.0159606
610.093	0.0157215
610.171	0.0158406
610.249	0.0160980
610.328	0.0158779
610.406	0.0159478
610.484	0.0157707
610.562	0.0159217
610.640	0.0159759
610.718	0.0158912
610.796	0.0157442
610.874	0.0158914
610.953	0.0159196
611.031	0.0158355
611.109	0.0159863
611.187	0.0158894
611.265	0.0158353
611.343	0.0157903
611.421	0.0159351
611.499	0.0159003
611.578	0.0158897
611.656	0.0157700
611.734	0.0159086
611.812	0.0159641
611.890	0.0160999
611.968	0.0158573
612.046	0.0158931
612.124	0.0159290
612.203	0.0158967
612.281	0.0158302
612.359	0.0159296
612.437	0.0158444
612.515	0.0157700
612.593	0.0159587
612.671	0.0159473
612.749	0.0158607
612.828	0.0159275
612.906	0.0159799
612.984	0.0159090
613.062	0.0159308
613.140	0.0160392
613.218	0.0159148
613.296	0.0157404
613.374	0.0159634
613.453	0.0159558
613.531	0.0158486
613.609	0.0159167
613.687	0.0159784
613.765	0.0158721
613.843	0.0160030
613.921	0.0159945
613.999	0.0159121
614.078	0.0159795
614.156	0.0160672
614.234	0.0158609
614.312	0.0159740
614.390	0.0159062
614.468	0.0160127
614.546	0.0160437
614.624	0.0159953
614.703	0.0158671
614.781	0.0160664
614.859	0.0158613
614.937	0.0158785
615.015	0.0159521
615.093	0.0158138
615.171	0.0160601
615.249	0.0160191
615.328	0.0157339
615.406	0.0158599
615.484	0.0159711
615.562	0.0159690
615.640	0.0158544
615.718	0.0159871
615.796	0.0159727
615.874	0.0159833
615.953	0.0160208
616.031	0.0159538
616.109	0.0159518
616.187	0.0158808
616.265	0.0160281
616.343	0.0158721
616.421	0.0160088
616.499	0.0159480
616.578	0.0159768
616.656	0.0159023
616.734	0.0158407
616.812	0.0158263
616.890	0.0159700
616.968	0.0159207
617.046	0.0159546
617.124	0.0159559
617.203	0.0159597
617.281	0.0159900
617.359	0.0159232
617.437	0.0159217
617.515	0.0158769
617.593	0.0159525
617.671	0.0160428
617.749	0.0159615
617.828	0.0159351
617.906	0.0159693
617.984	0.0160235
618.062	0.0159999
618.140	0.0159149
618.218	0.0158699
618.296	0.0158827
618.374	0.0158497
618.453	0.0158790
618.531	0.0160791
618.609	0.0158385
618.687	0.0159352
618.765	0.0159684
618.843	0.0160203
618.921	0.0158858
618.999	0.0158892
619.078	0.0159388
619.156	0.0159904
619.234	0.0161135
619.312	0.0160196
619.390	0.0158907
619.468	0.0161008
619.546	0.0159301
619.624	0.0160560
619.703	0.0159353
619.781	0.0158393
619.859	0.0158365
619.937	0.0159742
620.015	0.0159511
620.093	0.0159201
620.171	0.0160379
620.249	0.0160112
620.328	0.0158245
620.406	0.0158445
620.484	0.0159065
620.562	0.0157984
620.640	0.0158510
620.718	0.0160117
620.796	0.0159809
620.874	0.0159235
620.953	0.0161281
621.031	0.0159294
621.109	0.0159100
621.187	0.0158443
621.265	0.0160583
621.343	0.0159405
621.421	0.0159185
621.499	0.0158716
621.578	0.0159034
621.656	0.0159628
621.734	0.0159916
621.812	0.0159671
621.890	0.0160749
621.968	0.0160570
622.046	0.0158274
622.124	0.0158392
622.203	0.0158795
622.281	0.0158915
622.359	0.0159229
622.437	0.0159174
622.515	0.0158501
622.593	0.0158996
622.671	0.0158551
622.749	0.0158958
622.828	0.0159149
622.906	0.0160284
622.984	0.0157922
623.062	0.0158274
623.140	0.0158035
623.218	0.0159660
623.296	0.0160277
623.374	0.0159477
623.453	0.0159131
623.531	0.0160249
623.609	0.0159105
623.687	0.0158894
623.765	0.0158924
623.843	0.0159052
623.921	0.0159702
623.999	0.0159302
624.078	0.0158881
624.156	0.0160270
624.234	0.0158441
624.312	0.0159407
624.390	0.0160099
624.468	0.0158787
624.546	0.0160509
624.624	0.0157693
624.703	0.0157658
624.781	0.0158838
624.859	0.0159720
624.937	0.0160310
625.015	0.0158375
625.093	0.0159759
625.171	0.0158244
625.249	0.0158029
625.328	0.0159131
625.406	0.0159607
625.484	0.0158440
625.562	0.0159135
625.640	0.0159984
625.718	0.0159019
625.796	0.0157922
625.874	0.0157740
625.953	0.0157735
626.031	0.0159790
626.109	0.0160155
626.187	0.0160335
626.265	0.0158755
626.343	0.0158808
626.421	0.0159857
626.499	0.0160081
626.578	0.0159037
626.656	0.0159102
626.734	0.0158321
626.812	0.0158778
626.890	0.0159405
626.968	0.0159146
627.046	0.0158885
627.124	0.0160036
627.203	0.0159650
627.281	0.0158694
627.359	0.0158366
627.437	0.0159950
627.515	0.0158669
627.593	0.0158398
627.671	0.0159516
627.749	0.0159505
627.828	0.0159843
627.906	0.0159384
627.984	0.0158449
628.062	0.0159432
628.140	0.0158696
628.218	0.0159840
628.296	0.0159968
628.374	0.0159042
628.453	0.0159988
628.531	0.0159040
628.609	0.0159695
628.687	0.0160127
628.765	0.0157801
628.843	0.0158418
628.921	0.0159223
628.999	0.0158041
629.078	0.0158331
629.156	0.0159355
629.234	0.0158535
629.312	0.0159361
629.390	0.0158701
629.468	0.0158931
629.546	0.0158642
629.624	0.0159418
629.703	0.0158109
629.781	0.0158609
629.859	0.0158412
629.937	0.0157107
630.015	0.0158914
630.093	0.0158538
630.171	0.0159088
630.249	0.0159623
630.328	0.0159981
630.406	0.0158997
630.484	0.0158481
630.562	0.0159347
630.640	0.0158642
630.718	0.0159048
630.796	0.0158408
630.874	0.0158862
630.953	0.0159259
631.031	0.0158846
631.109	0.0158514
631.187	0.0159045
631.265	0.0158999
631.343	0.0158746
631.421	0.0158817
631.499	0.0157615
631.578	0.0158899
631.656	0.0158462
631.734	0.0158424
631.812	0.0159467
631.890	0.0157155
631.968	0.0159616
632.046	0.0158464
632.124	0.0157750
632.203	0.0158268
632.281	0.0158385
632.359	0.0157693
632.437	0.0159136
632.515	0.0157890
632.593	0.0157611
632.671	0.0159124
632.749	0.0157620
632.828	0.0158070
632.906	0.0158733
632.984	0.0158939
633.062	0.0158698
633.140	0.0157915
633.218	0.0157849
633.296	0.0157646
633.374	0.0158237
633.453	0.0159549
633.531	0.0157718
633.609	0.0160913
633.687	0.0159161
633.765	0.0158550
633.843	0.0159092
633.921	0.0158878
633.999	0.0156819
634.078	0.0158759
634.156	0.0158382
634.234	0.0159580
634.312	0.0159291
634.390	0.0158928
634.468	0.0160316
634.546	0.0159022
634.624	0.0158988
634.703	0.0158958
634.781	0.0159798
634.859	0.0159670
634.937	0.0159541
635.015	0.0158936
635.093	0.0159116
635.171	0.0159142
635.249	0.0158864
635.328	0.0159956
635.406	0.0160206
635.484	0.0159373
635.562	0.0158183
635.640	0.0159972
635.718	0.0159009
635.796	0.0159330
635.874	0.0159607
635.953	0.0158671
636.031	0.0159052
636.109	0.0159779
636.187	0.0158839
636.265	0.0159999
636.343	0.0159879
636.421	0.0160119
636.499	0.0159856
636.578	0.0159058
636.656	0.0158609
636.734	0.0160614
636.812	0.0159756
636.890	0.0159752
636.968	0.0160077
637.046	0.0159032
637.124	0.0159364
637.203	0.0160094
637.281	0.0158307
637.359	0.0159924
637.437	0.0159193
637.515	0.0159377
637.593	0.0159623
637.671	0.0159081
637.749	0.0159238
637.828	0.0157698
637.906	0.0159195
637.984	0.0158191
638.062	0.0159143
638.140	0.0160241
638.218	0.0158596
638.296	0.0158623
638.374	0.0159341
638.453	0.0159653
638.531	0.0156992
638.609	0.0157785
638.687	0.0159082
638.765	0.0159691
638.843	0.0159944
638.921	0.0160838
638.999	0.0159250
639.078	0.0159119
639.156	0.0157961
639.234	0.0158372
639.312	0.0159701
639.390	0.0160421
639.468	0.0159119
639.546	0.0158606
639.624	0.0158290
639.703	0.0159849
639.781	0.0159262
639.859	0.0160547
639.937	0.0160001
640.015	0.0157796
640.093	0.0159269
640.171	0.0160881
640.249	0.0157974
640.328	0.0158156
640.406	0.0158973
640.484	0.0159052
640.562	0.0159577
640.640	0.0158804
640.718	0.0159000
640.796	0.0159602
640.874	0.0158970
640.953	0.0159150
641.031	0.0159097
641.109	0.0159105
641.187	0.0158677
641.265	0.0158696
641.343	0.0157748
641.421	0.0158766
641.499	0.0158810
641.578	0.0158995
641.656	0.0159855
641.734	0.0158636
641.812	0.0157817
641.890	0.0159509
641.968	0.0159682
642.046	0.0158311
642.124	0.0157908
642.203	0.0158524
642.281	0.0158170
642.359	0.0158407
642.437	0.0158695
642.515	0.0159347
642.593	0.0157915
642.671	0.0158862
642.749	0.0157956
642.828	0.0159847
642.906	0.0159306
642.984	0.0157683
643.062	0.0159321
643.140	0.0159197
643.218	0.0157242
643.296	0.0159106
643.374	0.0159480
643.453	0.0159248
643.531	0.0157256
643.609	0.0158356
643.687	0.0158163
643.765	0.0159060
643.843	0.0158498
643.921	0.0158091
643.999	0.0158706
644.078	0.0159235
644.156	0.0158076
644.234	0.0157787
644.312	0.0157716
644.390	0.0159104
644.468	0.0159059
644.546	0.0159696
644.624	0.0159938
644.703	0.0159077
644.781	0.0159271
644.859	0.0159475
644.937	0.0160461
645.015	0.0158852
645.093	0.0158287
645.171	0.0159366
645.249	0.0158783
645.328	0.0157617
645.406	0.0157932
645.484	0.0159034
645.562	0.0160278
645.640	0.0159300
645.718	0.0159129
645.796	0.0156857
645.874	0.0159196
645.953	0.0157792
646.031	0.0158765
646.109	0.0158334
646.187	0.0159238
646.265	0.0160094
646.343	0.0157523
646.421	0.0157259
646.499	0.0158579
646.578	0.0160220
646.656	0.0160214
646.734	0.0158851
646.812	0.0160020
646.890	0.0158346
646.968	0.0159019
647.046	0.0160209
647.124	0.0158627
647.203	0.0158628
647.281	0.0158742
647.359	0.0158851
647.437	0.0157713
647.515	0.0158943
647.593	0.0158953
647.671	0.0159425
647.749	0.0157909
647.828	0.0157938
647.906	0.0157958
647.984	0.0157933
648.062	0.0157343
648.140	0.0159149
648.218	0.0158080
648.296	0.0156827
648.374	0.0157829
648.453	0.0156804
648.531	0.0157931
648.609	0.0158293
648.687	0.0158356
648.765	0.0157538
648.843	0.0158119
648.921	0.0158595
648.999	0.0156918
649.078	0.0158164
649.156	0.0158400
649.234	0.0157552
649.312	0.0158200
649.390	0.0157324
649.468	0.0158620
649.546	0.0157813
649.624	0.0157492
649.703	0.0157609
649.781	0.0158755
649.859	0.0159029
649.937	0.0157732
650.015	0.0158403
650.093	0.0157630
650.171	0.0158019
650.249	0.0158285
650.328	0.0158120
650.406	0.0158222
650.484	0.0158546
650.562	0.0158189
650.640	0.0159209
650.718	0.0159575
650.796	0.0156835
650.874	0.0156841
650.953	0.0157469
651.031	0.0157137
651.109	0.0157466
651.187	0.0159000
651.265	0.0157780
651.343	0.0158856
651.421	0.0159392
651.499	0.0158651
651.578	0.0157692
651.656	0.0157546
651.734	0.0160402
651.812	0.0157993
651.890	0.0156882
651.968	0.0158511
652.046	0.0159016
652.124	0.0160122
652.203	0.0158679
652.281	0.0158941
652.359	0.0159012
652.437	0.0159850
652.515	0.0159265
652.593	0.0159556
652.671	0.0159163
652.749	0.0159488
652.828	0.0157655
652.906	0.0159351
652.984	0.0160216
653.062	0.0158840
653.140	0.0158932
653.218	0.0158128
653.296	0.0158791
653.374	0.0158401
653.453	0.0158611
653.531	0.0159986
653.609	0.0159943
653.687	0.0158705
653.765	0.0157980
653.843	0.0158241
653.921	0.0158836
653.999	0.0158349
654.078	0.0160147
654.156	0.0157278
654.234	0.0159042
654.312	0.0159215
654.390	0.0159185
654.468	0.0158705
654.546	0.0159351
654.624	0.0158202
654.703	0.0157867
654.781	0.0158900
654.859	0.0158068
654.937	0.0159550
655.015	0.0158833
655.093	0.0157605
655.171	0.0158391
655.249	0.0159923
655.328	0.0159540
655.406	0.0160118
655.484	0.0159167
655.562	0.0158671
655.640	0.0157020
655.718	0.0158669
655.796	0.0158110
655.874	0.0159023
655.953	0.0158113
656.031	0.0158985
656.109	0.0158636
656.187	0.0158273
656.265	0.0159428
656.343	0.0158533
656.421	0.0157588
656.499	0.0159016
656.578	0.0158895
656.656	0.0158089
656.734	0.0157375
656.812	0.0157957
656.890	0.0158996
656.968	0.0159639
657.046	0.0157331
657.124	0.0157817
657.203	0.0158663
657.281	0.0156677
657.359	0.0159702
657.437	0.0157693
657.515	0.0158524
657.593	0.0160072
657.671	0.0157777
657.749	0.0158356
657.828	0.0159610
657.906	0.0157739
657.984	0.0157609
658.062	0.0158670
658.140	0.0159339
658.218	0.0157861
658.296	0.0157258
658.374	0.0159446
658.453	0.0158520
658.531	0.0159318
658.609	0.0158463
658.687	0.0158109
658.765	0.0158938
658.843	0.0159572
658.921	0.0158628
658.999	0.0158901
659.078	0.0157887
659.156	0.0158266
659.234	0.0159826
659.312	0.0158226
659.390	0.0158150
659.468	0.0158581
659.546	0.0159870
659.624	0.0158721
659.703	0.0159003
659.781	0.0158714
659.859	0.0159753
659.937	0.0158997
660.015	0.0158512
660.093	0.0157973
660.171	0.0157751
660.249	0.0158702
660.328	0.0158134
660.406	0.0158408
660.484	0.0159222
660.562	0.0159088
660.640	0.0158064
660.718	0.0158669
660.796	0.0158917
660.874	0.0159794
660.953	0.0158651
661.031	0.0159715
661.109	0.0158520
661.187	0.0158772
661.265	0.0159077
661.343	0.0157539
661.421	0.0159400
661.499	0.0158460
661.578	0.0158022
661.656	0.0158781
661.734	0.0158725
661.812	0.0159416
661.890	0.0158490
661.968	0.0159058
662.046	0.0159188
662.124	0.0158640
662.203	0.0158379
662.281	0.0159634
662.359	0.0157647
662.437	0.0158434
662.515	0.0159606
662.593	0.0157650
662.671	0.0158434
662.749	0.0158417
662.828	0.0158919
662.906	0.0159931
662.984	0.0158295
663.062	0.0157420
663.140	0.0158004
663.218	0.0159114
663.296	0.0159798
663.374	0.0158466
663.453	0.0158023
663.531	0.0158610
663.609	0.0157800
663.687	0.0158583
663.765	0.0158095
663.843	0.0158495
663.921	0.0157171
663.999	0.0159045
664.078	0.0158691
664.156	0.0159397
664.234	0.0159267
664.312	0.0158583
664.390	0.0157942
664.468	0.0158288
664.546	0.0159129
664.624	0.0158952
664.703	0.0158170
664.781	0.0158616
664.859	0.0158598
664.937	0.0158107
665.015	0.0157799
665.093	0.0159184
665.171	0.0159595
665.249	0.0158582
665.328	0.0157552
665.406	0.0157961
665.484	0.0158382
665.562	0.0157608
665.640	0.0158901
665.718	0.0159277
665.796	0.0158260
665.874	0.0157814
665.953	0.0158861
666.031	0.0159179
666.109	0.0157634
666.187	0.0158331
666.265	0.0159592
666.343	0.0159888
666.421	0.0157333
666.499	0.0158345
666.578	0.0158859
666.656	0.0159559
666.734	0.0156583
666.812	0.0158060
666.890	0.0158738
666.968	0.0158727
667.046	0.0159353
667.124	0.0156612
667.203	0.0159775
667.281	0.0158906
667.359	0.0157626
667.437	0.0160505
667.515	0.0159195
667.593	0.0157987
667.671	0.0157566
667.749	0.0157654
667.828	0.0157370
667.906	0.0158460
667.984	0.0158749
668.062	0.0159706
668.140	0.0158607
668.218	0.0158716
668.296	0.0158314
668.374	0.0158021
668.453	0.0159814
668.531	0.0159235
668.609	0.0158879
668.687	0.0157086
668.765	0.0159026
668.843	0.0157797
668.921	0.0159135
668.999	0.0158164
669.078	0.0159142
669.156	0.0158897
669.234	0.0158867
669.312	0.0158028
669.390	0.0158945
669.468	0.0158977
669.546	0.0157111
669.624	0.0158120
669.703	0.0158330
669.781	0.0156266
669.859	0.0157513
669.937	0.0159389
670.015	0.0157517
670.093	0.0158915
670.171	0.0158997
670.249	0.0157097
670.328	0.0158646
670.406	0.0157823
670.484	0.0158730
670.562	0.0157871
670.640	0.0158076
670.718	0.0158585
670.796	0.0158915
670.874	0.0158897
670.953	0.0158099
671.031	0.0157248
671.109	0.0159509
671.187	0.0158302
671.265	0.0158218
671.343	0.0157627
671.421	0.0158443
671.499	0.0159142
671.578	0.0158163
671.656	0.0157890
671.734	0.0158703
671.812	0.0159027
671.890	0.0157694
671.968	0.0158053
672.046	0.0157478
672.124	0.0157986
672.203	0.0157770
672.281	0.0158587
672.359	0.0158110
672.437	0.0158355
672.515	0.0159252
672.593	0.0159343
672.671	0.0157504
672.749	0.0158151
672.828	0.0158375
672.906	0.0158177
672.984	0.0157592
673.062	0.0158372
673.140	0.0159055
673.218	0.0158832
673.296	0.0158434
673.374	0.0157767
673.453	0.0157331
673.531	0.0157321
673.609	0.0156387
673.687	0.0157633
673.765	0.0158166
673.843	0.0157717
673.921	0.0158012
673.999	0.0158874
674.078	0.0158514
674.156	0.0158716
674.234	0.0159008
674.312	0.0158185
674.390	0.0158372
674.468	0.0157281
674.546	0.0158285
674.624	0.0158273
674.703	0.0157770
674.781	0.0159505
674.859	0.0159146
674.937	0.0158971
675.015	0.0157505
675.093	0.0158463
675.171	0.0157539
675.249	0.0158106
675.328	0.0159951
675.406	0.0158830
675.484	0.0158199
675.562	0.0158434
675.640	0.0158687
675.718	0.0159520
675.796	0.0159142
675.874	0.0159829
675.953	0.0159259
676.031	0.0159129
676.109	0.0157378
676.187	0.0159723
676.265	0.0161320
676.343	0.0159657
676.421	0.0159521
676.499	0.0159283
676.578	0.0159711
676.656	0.0159022
676.734	0.0158110
676.812	0.0160451
676.890	0.0160220
676.968	0.0158347
677.046	0.0159592
677.124	0.0159755
677.203	0.0159093
677.281	0.0159210
677.359	0.0159152
677.437	0.0160426
677.515	0.0159298
677.593	0.0159230
677.671	0.0160133
677.749	0.0159018
677.828	0.0159630
677.906	0.0160586
677.984	0.0159026
678.062	0.0158044
678.140	0.0160169
678.218	0.0158842
678.296	0.0158931
678.374	0.0159601
678.453	0.0160030
678.531	0.0158360
678.609	0.0159641
678.687	0.0158741
678.765	0.0158101
678.843	0.0159071
678.921	0.0158746
678.999	0.0157580
679.078	0.0157893
679.156	0.0159514
679.234	0.0158464
679.312	0.0160435
679.390	0.0158632
679.468	0.0156339
679.546	0.0158496
679.624	0.0159799
679.703	0.0158008
679.781	0.0158836
679.859	0.0158061
679.937	0.0158761
680.015	0.0157677
680.093	0.0157772
680.171	0.0158165
680.249	0.0158697
680.328	0.0158904
680.406	0.0159483
680.484	0.0159637
680.562	0.0158736
680.640	0.0157150
680.718	0.0158446
680.796	0.0158617
680.874	0.0158937
680.953	0.0158400
681.031	0.0157678
681.109	0.0158983
681.187	0.0158052
681.265	0.0157850
681.343	0.0159714
681.421	0.0157915
681.499	0.0158511
681.578	0.0158717
681.656	0.0158820
681.734	0.0157775
681.812	0.0158308
681.890	0.0158395
681.968	0.0159603
682.046	0.0158837
682.124	0.0158442
682.203	0.0159085
682.281	0.0160049
682.359	0.0157644
682.437	0.0157771
682.515	0.0159372
682.593	0.0159100
682.671	0.0158531
682.749	0.0158221
682.828	0.0158635
682.906	0.0159389
682.984	0.0158713
683.062	0.0159383
683.140	0.0159638
683.218	0.0158349
683.296	0.0158896
683.374	0.0158403
683.453	0.0158685
683.531	0.0158227
683.609	0.0160173
683.687	0.0159486
683.765	0.0158852
683.843	0.0158680
683.921	0.0159822
683.999	0.0159243
684.078	0.0159422
684.156	0.0158903
684.234	0.0158182
684.312	0.0158885
684.390	0.0159119
684.468	0.0159444
684.546	0.0158305
684.624	0.0159565
684.703	0.0159642
684.781	0.0158837
684.859	0.0157809
684.937	0.0160574
685.015	0.0159460
685.093	0.0157845
685.171	0.0157929
685.249	0.0158639
685.328	0.0159409
685.406	0.0159072
685.484	0.0158591
685.562	0.0158411
685.640	0.0158863
685.718	0.0161353
685.796	0.0159136
685.874	0.0158477
685.953	0.0159467
686.031	0.0158966
686.109	0.0160027
686.187	0.0157931
686.265	0.0158779
686.343	0.0159563
686.421	0.0159063
686.499	0.0159611
686.578	0.0158079
686.656	0.0159695
686.734	0.0159168
686.812	0.0157865
686.890	0.0158428
686.968	0.0158092
687.046	0.0159746
687.124	0.0158362
687.203	0.0158092
687.281	0.0159679
687.359	0.0159489
687.437	0.0158232
687.515	0.0158956
687.593	0.0156641
687.671	0.0159383
687.749	0.0158511
687.828	0.0159167
687.906	0.0159161
687.984	0.0159138
688.062	0.0158723
688.140	0.0158280
688.218	0.0157755
688.296	0.0157971
688.374	0.0157604
688.453	0.0158865
688.531	0.0159220
688.609	0.0156602
688.687	0.0158154
688.765	0.0159287
688.843	0.0158572
688.921	0.0158666
688.999	0.0159609
689.078	0.0157893
689.156	0.0157861
689.234	0.0158737
689.312	0.0158143
689.390	0.0158820
689.468	0.0157482
689.546	0.0158072
689.624	0.0158782
689.703	0.0157835
689.781	0.0157888
689.859	0.0158572
689.937	0.0158495
690.015	0.0157798
690.093	0.0158953
690.171	0.0157143
690.249	0.0159123
690.328	0.0159134
690.406	0.0158848
690.484	0.0157931
690.562	0.0158020
690.640	0.0157755
690.718	0.0157877
690.796	0.0157413
690.874	0.0158409
690.953	0.0159614
691.031	0.0158592
691.109	0.0159868
691.187	0.0158029
691.265	0.0158017
691.343	0.0158722
691.421	0.0159039
691.499	0.0158237
691.578	0.0159085
691.656	0.0158177
691.734	0.0158443
691.812	0.0158806
691.890	0.0158889
691.968	0.0159091
692.046	0.0158646
692.124	0.0158089
692.203	0.0158576
692.281	0.0157604
692.359	0.0157815
692.437	0.0158751
692.515	0.0158382
692.593	0.0158579
692.671	0.0158074
692.749	0.0157947
692.828	0.0158907
692.906	0.0158298
692.984	0.0159171
693.062	0.0158118
693.140	0.0158405
693.218	0.0159603
693.296	0.0160647
693.374	0.0157750
693.453	0.0157994
693.531	0.0158343
693.609	0.0159459
693.687	0.0158725
693.765	0.0159090
693.843	0.0158630
693.921	0.0158465
693.999	0.0158723
694.078	0.0159322
694.156	0.0157229
694.234	0.0158855
694.312	0.0158965
694.390	0.0159490
694.468	0.0159393
694.546	0.0158671
694.624	0.0159898
694.703	0.0157850
694.781	0.0158544
694.859	0.0160091
694.937	0.0158980
695.015	0.0158851
695.093	0.0159583
695.171	0.0158755
695.249	0.0159657
695.328	0.0158039
695.406	0.0158501
695.484	0.0158711
695.562	0.0159143
695.640	0.0158026
695.718	0.0159509
695.796	0.0159681
695.874	0.0159901
695.953	0.0158279
696.031	0.0159136
696.109	0.0160079
696.187	0.0159560
696.265	0.0158901
696.343	0.0159444
696.421	0.0160466
696.499	0.0158086
696.578	0.0159199
696.656	0.0159879
696.734	0.0159028
696.812	0.0159713
696.890	0.0159140
696.968	0.0158935
697.046	0.0159289
697.124	0.0159686
697.203	0.0157914
697.281	0.0159438
697.359	0.0158607
697.437	0.0158870
697.515	0.0160187
697.593	0.0158814
697.671	0.0158789
697.749	0.0158769
697.828	0.0158621
697.906	0.0161071
697.984	0.0159163
698.062	0.0159604
698.140	0.0158321
698.218	0.0159975
698.296	0.0159174
698.374	0.0158775
698.453	0.0158974
698.531	0.0160079
698.609	0.0160532
698.687	0.0160098
698.765	0.0158348
698.843	0.0158755
698.921	0.0161395
698.999	0.0160281
699.078	0.0159090
699.156	0.0158190
699.234	0.0159563
699.312	0.0160034
699.390	0.0158971
699.468	0.0159438
699.546	0.0157653
699.624	0.0158868
699.703	0.0158602
699.781	0.0158707
699.859	0.0158145
699.937	0.0158087
700.015	0.0158882
700.093	0.0158772
700.171	0.0159612
700.249	0.0157269
700.328	0.0157528
700.406	0.0158288
700.484	0.0158723
700.562	0.0158406
700.640	0.0158571
700.718	0.0157344
700.796	0.0158344
700.874	0.0158971
700.953	0.0159268
701.031	0.0158801
701.109	0.0157564
701.187	0.0159059
701.265	0.0160638
701.343	0.0160361
701.421	0.0158092
701.499	0.0159789
701.578	0.0157095
701.656	0.0158624
701.734	0.0159243
701.812	0.0159434
701.890	0.0159753
701.968	0.0158839
702.046	0.0158868
702.124	0.0158353
702.203	0.0158645
702.281	0.0157764
702.359	0.0158321
702.437	0.0158671
702.515	0.0159338
702.593	0.0158401
702.671	0.0157236
702.749	0.0157300
702.828	0.0159389
702.906	0.0159850
702.984	0.0158714
703.062	0.0158936
703.140	0.0158446
703.218	0.0158080
703.296	0.0160502
703.374	0.0159820
703.453	0.0157890
703.531	0.0159850
703.609	0.0157746
703.687	0.0159106
703.765	0.0158539
703.843	0.0159077
703.921	0.0159729
703.999	0.0158165
704.078	0.0157672
704.156	0.0158425
704.234	0.0159149
704.312	0.0157491
704.390	0.0157515
704.468	0.0158371
704.546	0.0159018
704.624	0.0159543
704.703	0.0158176
704.781	0.0159410
704.859	0.0158355
704.937	0.0159395
705.015	0.0159901
705.093	0.0159213
705.171	0.0159886
705.249	0.0159818
705.328	0.0159461
705.406	0.0159737
705.484	0.0160593
705.562	0.0159377
705.640	0.0160351
705.718	0.0160394
705.796	0.0158733
705.874	0.0159386
705.953	0.0160351
706.031	0.0160518
706.109	0.0160155
706.187	0.0160773
706.265	0.0158427
706.343	0.0160606
706.421	0.0160215
706.499	0.0158133
706.578	0.0159461
706.656	0.0161946
706.734	0.0159126
706.812	0.0159750
706.890	0.0159081
706.968	0.0159421
707.046	0.0159552
707.124	0.0160555
707.203	0.0159827
707.281	0.0158652
707.359	0.0160361
707.437	0.0158697
707.515	0.0160133
707.593	0.0160091
707.671	0.0159200
707.749	0.0159380
707.828	0.0159793
707.906	0.0159372
707.984	0.0159540
708.062	0.0158824
708.140	0.0159323
708.218	0.0159415
708.296	0.0157599
708.374	0.0157723
708.453	0.0159495
708.531	0.0159637
708.609	0.0158977
708.687	0.0158466
708.765	0.0157700
708.843	0.0157825
708.921	0.0159721
708.999	0.0158746
709.078	0.0158301
709.156	0.0158915
709.234	0.0159695
709.312	0.0158212
709.390	0.0159246
709.468	0.0160647
709.546	0.0159979
709.624	0.0159870
709.703	0.0160432
709.781	0.0160299
709.859	0.0159283
709.937	0.0160645
710.015	0.0159815
710.093	0.0158775
710.171	0.0159783
710.249	0.0159770
710.328	0.0159206
710.406	0.0160010
710.484	0.0159505
710.562	0.0158853
710.640	0.0159505
710.718	0.0160062
710.796	0.0160186
710.874	0.0158833
710.953	0.0158777
711.031	0.0158222
711.109	0.0158517
711.187	0.0159418
711.265	0.0159066
711.343	0.0158002
711.421	0.0158864
711.499	0.0159424
711.578	0.0157893
711.656	0.0157611
711.734	0.0159222
711.812	0.0158731
711.890	0.0157615
711.968	0.0160501
712.046	0.0159085
712.124	0.0158275
712.203	0.0158796
712.281	0.0157864
712.359	0.0159903
712.437	0.0157083
712.515	0.0158173
712.593	0.0159921
712.671	0.0157465
712.749	0.0158501
712.828	0.0158719
712.906	0.0159243
712.984	0.0157578
713.062	0.0158968
713.140	0.0160010
713.218	0.0158069
713.296	0.0158938
713.374	0.0159767
713.453	0.0159429
713.531	0.0159240
713.609	0.0158983
713.687	0.0158511
713.765	0.0158865
713.843	0.0158475
713.921	0.0159975
713.999	0.0160550
714.078	0.0160162
714.156	0.0160296
714.234	0.0159018
714.312	0.0159131
714.390	0.0159148
714.468	0.0158617
714.546	0.0160761
714.624	0.0159771
714.703	0.0160049
714.781	0.0158842
714.859	0.0158664
714.937	0.0159455
715.015	0.0159056
715.093	0.0159660
715.171	0.0159167
715.249	0.0158822
715.328	0.0157835
715.406	0.0158290
715.484	0.0159068
715.562	0.0159189
715.640	0.0158971
715.718	0.0158431
715.796	0.0157982
715.874	0.0157928
715.953	0.0157494
716.031	0.0157681
716.109	0.0158024
716.187	0.0157992
716.265	0.0158762
716.343	0.0158875
716.421	0.0158801
716.499	0.0159983
716.578	0.0158783
716.656	0.0158556
716.734	0.0159093
716.812	0.0160971
716.890	0.0160640
716.968	0.0161296
717.046	0.0161104
717.124	0.0161092
717.203	0.0160939
717.281	0.0160442
717.359	0.0160239
717.437	0.0160709
717.515	0.0160896
717.593	0.0159604
717.671	0.0159438
717.749	0.0158861
717.828	0.0158017
717.906	0.0157951
717.984	0.0157412
718.062	0.0158804
718.140	0.0157516
718.218	0.0156847
718.296	0.0157817
718.374	0.0157851
718.453	0.0158772
718.531	0.0157654
718.609	0.0158539
718.687	0.0157430
718.765	0.0160040
718.843	0.0161043
718.921	0.0160151
718.999	0.0159565
719.078	0.0160537
719.156	0.0159052
719.234	0.0160814
719.312	0.0160763
719.390	0.0159956
719.468	0.0159136
719.546	0.0160227
719.624	0.0159344
719.703	0.0158344
719.781	0.0160342
719.859	0.0158528
719.937	0.0157436
720.015	0.0158657
720.093	0.0158104
720.171	0.0158840
720.249	0.0158323
720.328	0.0157590
720.406	0.0158514
720.484	0.0158260
720.562	0.0156628
720.640	0.0156721
720.718	0.0156910
720.796	0.0158022
720.874	0.0158430
720.953	0.0157666
721.031	0.0156983
721.109	0.0158463
721.187	0.0158014
721.265	0.0157858
721.343	0.0159702
721.421	0.0158955
721.499	0.0159082
721.578	0.0161101
721.656	0.0160307
721.734	0.0158214
721.812	0.0158539
721.890	0.0159637
721.968	0.0157844
722.046	0.0158369
722.124	0.0159110
722.203	0.0158896
722.281	0.0158807
722.359	0.0157771
722.437	0.0157961
722.515	0.0157497
722.593	0.0157944
722.671	0.0158199
722.749	0.0158579
722.828	0.0160358
722.906	0.0158360
722.984	0.0157062
723.062	0.0158801
723.140	0.0158873
723.218	0.0159247
723.296	0.0158723
723.374	0.0156700
723.453	0.0159035
723.531	0.0158170
723.609	0.0157706
723.687	0.0158163
723.765	0.0159062
723.843	0.0158498
723.921	0.0157969
723.999	0.0158149
724.078	0.0159608
724.156	0.0159290
724.234	0.0159095
724.312	0.0159724
724.390	0.0160571
724.468	0.0158175
724.546	0.0158797
724.624	0.0159104
724.703	0.0159027
724.781	0.0157874
724.859	0.0159586
724.937	0.0158096
725.015	0.0160413
725.093	0.0159464
725.171	0.0156654
725.249	0.0158176
725.328	0.0158306
725.406	0.0157108
725.484	0.0159338
725.562	0.0157269
725.640	0.0157358
725.718	0.0158865
725.796	0.0159645
725.874	0.0158495
725.953	0.0159138
726.031	0.0158914
726.109	0.0160459
726.187	0.0159516
726.265	0.0158032
726.343	0.0159097
726.421	0.0160036
726.499	0.0158521
726.578	0.0159364
726.656	0.0159217
726.734	0.0158310
726.812	0.0158121
726.890	0.0158174
726.968	0.0159665
727.046	0.0159426
727.124	0.0157745
727.203	0.0157892
727.281	0.0159581
727.359	0.0159121
727.437	0.0159512
727.515	0.0158977
727.593	0.0158587
727.671	0.0158947
727.749	0.0158843
727.828	0.0158126
727.906	0.0159598
727.984	0.0158623
728.062	0.0159287
728.140	0.0158730
728.218	0.0158898
728.296	0.0158615
728.374	0.0159840
728.453	0.0159219
728.531	0.0159147
728.609	0.0159470
728.687	0.0158321
728.765	0.0158475
728.843	0.0158695
728.921	0.0160233
728.999	0.0159012
729.078	0.0159636
729.156	0.0158889
729.234	0.0159280
729.312	0.0159004
729.390	0.0159264
729.468	0.0158789
729.546	0.0159067
729.624	0.0157851
729.703	0.0157153
729.781	0.0158517
729.859	0.0159206
729.937	0.0158504
730.015	0.0158710
730.093	0.0158198
730.171	0.0158943
730.249	0.0160007
730.328	0.0159165
730.406	0.0158083
730.484	0.0159840
730.562	0.0159216
730.640	0.0158326
730.718	0.0159439
730.796	0.0158132
730.874	0.0159268
730.953	0.0158498
731.031	0.0158903
731.109	0.0159344
731.187	0.0160592
731.265	0.0159303
731.343	0.0160303
731.421	0.0159668
731.499	0.0159252
731.578	0.0158288
731.656	0.0159695
731.734	0.0160298
731.812	0.0160831
731.890	0.0159212
731.968	0.0159062
732.046	0.0159766
732.124	0.0160635
732.203	0.0158120
732.281	0.0159695
732.359	0.0159850
732.437	0.0159325
732.515	0.0159513
732.593	0.0159386
732.671	0.0160499
732.749	0.0160397
732.828	0.0158607
732.906	0.0159377
732.984	0.0159932
733.062	0.0159924
733.140	0.0159789
733.218	0.0158998
733.296	0.0159016
733.374	0.0158175
733.453	0.0158685
733.531	0.0158108
733.609	0.0158894
733.687	0.0159687
733.765	0.0158533
733.843	0.0160722
733.921	0.0160023
733.999	0.0158794
734.078	0.0159936
734.156	0.0158183
734.234	0.0159306
734.312	0.0159646
734.390	0.0159363
734.468	0.0159253
734.546	0.0158704
734.624	0.0157336
734.703	0.0159071
734.781	0.0159431
734.859	0.0158369
734.937	0.0158498
735.015	0.0160107
735.093	0.0160064
735.171	0.0159207
735.249	0.0159322
735.328	0.0159312
735.406	0.0159323
735.484	0.0158671
735.562	0.0159036
735.640	0.0158591
735.718	0.0158601
735.796	0.0160248
735.874	0.0158832
735.953	0.0160049
736.031	0.0159947
736.109	0.0157427
736.187	0.0160191
736.265	0.0160191
736.343	0.0159373
736.421	0.0159065
736.499	0.0158253
736.578	0.0159485
736.656	0.0160027
736.734	0.0159764
736.812	0.0160240
736.890	0.0159585
736.968	0.0158985
737.046	0.0158962
737.124	0.0157970
737.203	0.0158698
737.281	0.0157628
737.359	0.0158101
737.437	0.0160361
737.515	0.0157534
737.593	0.0157870
737.671	0.0160649
737.749	0.0158889
737.828	0.0158555
737.906	0.0158409
737.984	0.0159711
738.062	0.0159206
738.140	0.0159146
738.218	0.0159060
738.296	0.0159821
738.374	0.0158776
738.453	0.0158247
738.531	0.0158520
738.609	0.0157546
738.687	0.0158533
738.765	0.0157492
738.843	0.0158379
738.921	0.0159315
738.999	0.0157349
739.078	0.0157940
739.156	0.0158494
739.234	0.0158717
739.312	0.0157487
739.390	0.0158383
739.468	0.0158324
739.546	0.0158559
739.624	0.0159280
739.703	0.0159208
739.781	0.0157664
739.859	0.0159367
739.937	0.0160064
740.015	0.0158929
740.093	0.0158751
740.171	0.0158109
740.249	0.0158865
740.328	0.0160088
740.406	0.0159103
740.484	0.0158510
740.562	0.0159313
740.640	0.0159917
740.718	0.0158775
740.796	0.0159458
740.874	0.0159164
740.953	0.0157327
741.031	0.0158056
741.109	0.0160009
741.187	0.0159238
741.265	0.0157173
741.343	0.0157886
741.421	0.0157243
741.499	0.0158073
741.578	0.0156955
741.656	0.0158001
741.734	0.0158419
741.812	0.0157347
741.890	0.0157928
741.968	0.0157966
742.046	0.0156681
742.124	0.0158033
742.203	0.0158194
742.281	0.0157047
742.359	0.0157961
742.437	0.0158510
742.515	0.0158425
742.593	0.0157411
742.671	0.0158672
742.749	0.0157731
742.828	0.0157839
742.906	0.0158344
742.984	0.0158127
743.062	0.0158927
743.140	0.0158617
743.218	0.0159343
743.296	0.0158337
743.374	0.0157890
743.453	0.0159231
743.531	0.0159142
743.609	0.0159033
743.687	0.0158019
743.765	0.0157848
743.843	0.0158547
743.921	0.0157639
743.999	0.0158775
744.078	0.0158231
744.156	0.0156794
744.234	0.0158629
744.312	0.0158286
744.390	0.0158878
744.468	0.0158835
744.546	0.0158218
744.624	0.0158182
744.703	0.0159126
744.781	0.0158599
744.859	0.0159124
744.937	0.0159360
745.015	0.0157922
745.093	0.0157647
745.171	0.0158183
745.249	0.0160020
745.328	0.0157692
745.406	0.0157767
745.484	0.0158415
745.562	0.0158944
745.640	0.0157320
745.718	0.0157774
745.796	0.0159115
745.874	0.0159455
745.953	0.0159447
746.031	0.0159917
746.109	0.0159238
746.187	0.0157970
746.265	0.0158157
746.343	0.0158512
746.421	0.0158813
746.499	0.0158842
746.578	0.0158075
746.656	0.0159022
746.734	0.0158382
746.812	0.0158578
746.890	0.0158932
746.968	0.0159666
747.046	0.0158370
747.124	0.0158225
747.203	0.0157951
747.281	0.0157876
747.359	0.0158951
747.437	0.0159070
747.515	0.0158128
747.593	0.0157453
747.671	0.0159018
747.749	0.0159772
747.828	0.0159282
747.906	0.0159215
747.984	0.0158472
748.062	0.0158976
748.140	0.0158517
748.218	0.0158975
748.296	0.0158436
748.374	0.0158696
748.453	0.0159354
748.531	0.0157536
748.609	0.0159317
748.687	0.0157491
748.765	0.0158279
748.843	0.0159081
748.921	0.0156929
748.999	0.0157938
749.078	0.0158132
749.156	0.0157626
749.234	0.0158540
749.312	0.0158253
749.390	0.0158357
749.468	0.0157437
749.546	0.0157448
749.624	0.0157185
749.703	0.0158022
749.781	0.0159042
749.859	0.0157282
749.937	0.0158237
750.015	0.0157680
750.093	0.0159067
750.171	0.0158525
750.249	0.0158240
750.328	0.0157956
750.406	0.0158231
750.484	0.0158096
750.562	0.0157130
750.640	0.0158362
750.718	0.0158414
750.796	0.0157664
750.874	0.0158907
750.953	0.0158607
751.031	0.0158204
751.109	0.0158585
751.187	0.0158406
751.265	0.0158939
751.343	0.0158115
751.421	0.0157578
751.499	0.0158520
751.578	0.0160234
751.656	0.0158337
751.734	0.0158749
751.812	0.0160205
751.890	0.0159389
751.968	0.0159430
752.046	0.0159515
752.124	0.0160133
752.203	0.0160991
752.281	0.0159740
752.359	0.0158967
752.437	0.0158566
752.515	0.0160703
752.593	0.0160249
752.671	0.0160270
752.749	0.0160262
752.828	0.0159373
752.906	0.0159001
752.984	0.0159332
753.062	0.0159433
753.140	0.0159875
753.218	0.0161151
753.296	0.0159234
753.374	0.0158663
753.453	0.0159629
753.531	0.0158199
753.609	0.0158132
753.687	0.0159357
753.765	0.0158408
753.843	0.0158018
753.921	0.0159792
753.999	0.0159882
754.078	0.0158099
754.156	0.0158650
754.234	0.0159538
754.312	0.0158105
754.390	0.0159215
754.468	0.0158585
754.546	0.0157973
754.624	0.0158223
754.703	0.0158946
754.781	0.0158657
754.859	0.0158867
754.937	0.0158952
755.015	0.0159075
755.093	0.0158151
755.171	0.0157075
755.249	0.0158862
755.328	0.0158907
755.406	0.0159005
755.484	0.0159962
755.562	0.0159789
755.640	0.0159107
755.718	0.0158949
755.796	0.0158594
755.874	0.0159149
755.953	0.0159808
756.031	0.0160312
756.109	0.0160700
756.187	0.0159972
756.265	0.0159219
756.343	0.0158960
756.421	0.0158647
756.499	0.0159719
756.578	0.0158920
756.656	0.0158708
756.734	0.0157918
756.812	0.0157581
756.890	0.0158078
756.968	0.0158208
757.046	0.0157396
757.124	0.0157889
757.203	0.0157880
757.281	0.0157206
757.359	0.0158119
757.437	0.0156624
757.515	0.0158215
757.593	0.0157460
757.671	0.0159311
757.749	0.0157909
757.828	0.0157719
757.906	0.0157306
757.984	0.0157401
758.062	0.0158118
758.140	0.0159497
758.218	0.0158450
758.296	0.0158124
758.374	0.0160017
758.453	0.0159328
758.531	0.0158592
758.609	0.0157812
758.687	0.0157103
758.765	0.0159232
758.843	0.0158282
758.921	0.0157909
758.999	0.0158389
759.078	0.0159048
759.156	0.0157559
759.234	0.0156792
759.312	0.0157703
759.390	0.0157707
759.468	0.0157426
759.546	0.0158680
759.624	0.0158662
759.703	0.0156738
759.781	0.0157868
759.859	0.0157796
759.937	0.0158131
760.015	0.0157426
760.093	0.0157170
760.171	0.0155609
760.249	0.0156073
760.328	0.0156806
760.406	0.0156229
760.484	0.0156466
760.562	0.0156536
760.640	0.0154788
760.718	0.0157934
760.796	0.0156542
760.874	0.0158115
760.953	0.0157543
761.031	0.0157576
761.109	0.0159199
761.187	0.0160671
761.265	0.0160268
761.343	0.0161626
761.421	0.0160570
761.499	0.0161844
761.578	0.0161324
761.656	0.0161422
761.734	0.0161254
761.812	0.0159969
761.890	0.0161269
761.968	0.0161152
762.046	0.0160555
762.124	0.0160123
762.203	0.0159525
762.281	0.0159866
762.359	0.0158564
762.437	0.0159707
762.515	0.0157366
762.593	0.0156822
762.671	0.0158567
762.749	0.0157584
762.828	0.0155966
762.906	0.0157782
762.984	0.0156882
763.062	0.0156726
763.140	0.0156332
763.218	0.0156818
763.296	0.0157204
763.374	0.0155242
763.453	0.0155907
763.531	0.0154723
763.609	0.0156326
763.687	0.0154600
763.765	0.0155174
763.843	0.0156279
763.921	0.0156397
763.999	0.0156016
764.078	0.0158354
764.156	0.0158420
764.234	0.0158402
764.312	0.0158347
764.390	0.0158984
764.468	0.0161047
764.546	0.0159527
764.624	0.0159904
764.703	0.0162186
764.781	0.0160106
764.859	0.0161407
764.937	0.0160052
765.015	0.0159723
765.093	0.0160235
765.171	0.0161451
765.249	0.0160313
765.328	0.0161735
765.406	0.0160738
765.484	0.0159119
765.562	0.0160463
765.640	0.0161151
765.718	0.0161251
765.796	0.0160780
765.874	0.0159274
765.953	0.0158617
766.031	0.0159920
766.109	0.0159005
766.187	0.0159091
766.265	0.0158604
766.343	0.0157961
766.421	0.0159898
766.499	0.0159923
766.578	0.0158183
766.656	0.0159117
766.734	0.0158343
766.812	0.0157702
766.890	0.0157434
766.968	0.0159047
767.046	0.0156258
767.124	0.0157104
767.203	0.0155596
767.281	0.0155999
767.359	0.0155585
767.437	0.0156789
767.515	0.0154192
767.593	0.0155573
767.671	0.0156234
767.749	0.0156533
767.828	0.0156255
767.906	0.0156709
767.984	0.0159264
768.062	0.0160325
768.140	0.0160463
768.218	0.0161499
768.296	0.0160671
768.374	0.0161293
768.453	0.0162511
768.531	0.0162472
768.609	0.0161679
768.687	0.0162224
768.765	0.0163309
768.843	0.0162935
768.921	0.0163289
768.999	0.0162263
769.078	0.0161562
769.156	0.0161505
769.234	0.0161941
769.312	0.0158467
769.390	0.0160954
769.468	0.0161454
769.546	0.0160288
769.624	0.0159109
769.703	0.0157381
769.781	0.0156886
769.859	0.0156440
769.937	0.0154977
770.015	0.0155073
770.093	0.0153736
770.171	0.0154166
770.249	0.0153767
770.328	0.0155585
770.406	0.0153391
770.484	0.0154836
770.562	0.0154959
770.640	0.0155656
770.718	0.0155659
770.796	0.0155634
770.874	0.0156273
770.953	0.0155977
771.031	0.0156643
771.109	0.0157407
771.187	0.0157579
771.265	0.0158571
771.343	0.0158295
771.421	0.0158327
771.499	0.0160155
771.578	0.0159343
771.656	0.0159423
771.734	0.0159577
771.812	0.0159520
771.890	0.0159766
771.968	0.0160263
772.046	0.0158776
772.124	0.0158460
772.203	0.0160541
772.281	0.0161752
772.359	0.0159702
772.437	0.0159775
772.515	0.0160913
772.593	0.0161390
772.671	0.0161762
772.749	0.0158878
772.828	0.0160485
772.906	0.0160986
772.984	0.0160868
773.062	0.0161179
773.140	0.0159225
773.218	0.0161274
773.296	0.0158495
773.374	0.0158754
773.453	0.0157782
773.531	0.0156054
773.609	0.0157910
773.687	0.0158001
773.765	0.0156284
773.843	0.0155119
773.921	0.0157316
773.999	0.0157039
774.078	0.0155140
774.156	0.0156171
774.234	0.0155013
774.312	0.0154243
774.390	0.0156010
774.468	0.0154800
774.546	0.0153609
774.624	0.0154590
774.703	0.0155324
774.781	0.0153988
774.859	0.0156390
774.937	0.0155227
775.015	0.0156647
775.093	0.0155489
775.171	0.0156925
775.249	0.0156476
775.328	0.0158195
775.406	0.0158456
775.484	0.0158262
775.562	0.0158992
775.640	0.0160571
775.718	0.0160169
775.796	0.0159463
775.874	0.0160824
775.953	0.0160737
776.031	0.0160359
776.109	0.0160791
776.187	0.0162171
776.265	0.0164121
776.343	0.0164034
776.421	0.0163739
776.499	0.0162993
776.578	0.0162894
776.656	0.0161414
776.734	0.0163985
776.812	0.0162882
776.890	0.0163016
776.968	0.0161962
777.046	0.0162627
777.124	0.0161407
777.203	0.0160913
777.281	0.0158961
777.359	0.0159544
777.437	0.0159253
777.515	0.0158752
777.593	0.0160007
777.671	0.0157802
777.749	0.0158403
777.828	0.0158524
777.906	0.0157925
777.984	0.0157526
778.062	0.0156635
778.140	0.0157594
778.218	0.0156630
778.296	0.0156232
778.374	0.0157180
778.453	0.0157561
778.531	0.0156852
778.609	0.0156796
778.687	0.0155314
778.765	0.0156206
778.843	0.0156391
778.921	0.0156546
778.999	0.0156998
779.078	0.0157171
779.156	0.0157755
779.234	0.0157195
779.312	0.0158002
779.390	0.0158367
779.468	0.0158203
779.546	0.0158698
779.624	0.0160733
779.703	0.0160541
779.781	0.0162695
779.859	0.0162480
779.937	0.0162977
780.015	0.0163234
780.093	0.0162580
780.171	0.0162583
780.249	0.0163871
780.328	0.0163416
780.406	0.0163441
780.484	0.0161814
780.562	0.0162125
780.640	0.0160746
780.718	0.0160720
780.796	0.0161089
780.874	0.0161436
780.953	0.0159602
781.031	0.0159079
781.109	0.0157427
781.187	0.0156915
781.265	0.0157678
781.343	0.0155563
781.421	0.0154654
781.499	0.0154279
781.578	0.0152317
781.656	0.0154371
781.734	0.0154224
781.812	0.0153918
781.890	0.0154453
781.968	0.0155267
782.046	0.0155148
782.124	0.0154639
782.203	0.0155515
782.281	0.0153981
782.359	0.0154696
782.437	0.0158933
782.515	0.0158540
782.593	0.0159070
782.671	0.0160486
782.749	0.0160006
782.828	0.0160455
782.906	0.0164888
782.984	0.0164912
783.062	0.0165567
783.140	0.0166168
783.218	0.0166226
783.296	0.0166424
783.374	0.0168448
783.453	0.0167094
783.531	0.0167433
783.609	0.0164487
783.687	0.0163919
783.765	0.0163657
783.843	0.0162159
783.921	0.0161810
783.999	0.0161171
784.078	0.0159761
784.156	0.0157288
784.234	0.0155393
784.312	0.0155773
784.390	0.0153573
784.468	0.0153004
784.546	0.0150730
784.624	0.0150926
784.703	0.0151611
784.781	0.0153267
784.859	0.0151778
784.937	0.0151765
785.015	0.0151711
785.093	0.0151352
785.171	0.0152338
785.249	0.0153281
785.328	0.0154575
785.406	0.0154426
785.484	0.0155573
785.562	0.0156464
785.640	0.0156796
785.718	0.0158267
785.796	0.0157673
785.874	0.0160299
785.953	0.0161523
786.031	0.0160155
786.109	0.0160886
786.187	0.0161424
786.265	0.0160464
786.343	0.0161709
786.421	0.0159851
786.499	0.0161106
786.578	0.0162113
786.656	0.0162076
786.734	0.0161195
786.812	0.0161677
786.890	0.0163064
786.968	0.0163759
787.046	0.0162580
787.124	0.0164460
787.203	0.0163953
787.281	0.0163983
787.359	0.0165099
787.437	0.0164812
787.515	0.0163511
787.593	0.0163384
787.671	0.0163523
787.749	0.0161710
787.828	0.0161127
787.906	0.0159307
787.984	0.0160445
788.062	0.0159164
788.140	0.0157967
788.218	0.0155702
788.296	0.0156901
788.374	0.0153900
788.453	0.0154958
788.531	0.0153298
788.609	0.0153926
788.687	0.0152264
788.765	0.0153903
788.843	0.0154079
788.921	0.0152151
788.999	0.0153133
789.078	0.0153672
789.156	0.0152634
789.234	0.0153931
789.312	0.0154332
789.390	0.0154272
789.468	0.0153912
789.546	0.0154041
789.624	0.0155558
789.703	0.0156754
789.781	0.0158726
789.859	0.0157894
789.937	0.0159270
790.015	0.0160294
790.093	0.0160252
790.171	0.0160910
790.249	0.0160773
790.328	0.0163353
790.406	0.0161775
790.484	0.0162543
790.562	0.0163004
790.640	0.0162553
790.718	0.0163890
790.796	0.0162606
790.874	0.0160975
790.953	0.0162128
791.031	0.0160056
791.109	0.0159449
791.187	0.0159161
791.265	0.0158694
791.343	0.0157979
791.421	0.0157259
791.499	0.0155457
791.578	0.0156100
791.656	0.0155625
791.734	0.0156012
791.812	0.0155324
791.890	0.0154871
791.968	0.0154819
792.046	0.0158099
792.124	0.0156243
792.203	0.0156228
792.281	0.0156799
792.359	0.0158163
792.437	0.0159442
792.515	0.0159218
792.593	0.0159954
792.671	0.0160394
792.749	0.0159025
792.828	0.0161404
792.906	0.0161086
792.984	0.0160808
793.062	0.0162148
793.140	0.0161982
793.218	0.0163123
793.296	0.0162344
793.374	0.0162074
793.453	0.0163421
793.531	0.0162540
793.609	0.0162920
793.687	0.0162721
793.765	0.0162120
793.843	0.0161167
793.921	0.0162087
793.999	0.0161095
794.078	0.0160252
794.156	0.0160728
794.234	0.0157901
794.312	0.0157575
794.390	0.0157071
794.468	0.0154092
794.546	0.0156541
794.624	0.0155613
794.703	0.0155397
794.781	0.0155414
794.859	0.0153357
794.937	0.0153309
795.015	0.0154005
795.093	0.0153239
795.171	0.0151454
795.249	0.0152155
795.328	0.0153545
795.406	0.0152350
795.484	0.0153830
795.562	0.0153163
795.640	0.0153920
795.718	0.0154382
795.796	0.0155284
795.874	0.0155768
795.953	0.0156612
796.031	0.0157619
796.109	0.0158015
796.187	0.0159076
796.265	0.0160579
796.343	0.0161240
796.421	0.0161791
796.499	0.0164515
796.578	0.0165310
796.656	0.0166183
796.734	0.0165206
796.812	0.0166315
796.890	0.0165637
796.968	0.0165081
797.046	0.0164851
797.124	0.0164438
797.203	0.0163162
797.281	0.0163316
797.359	0.0162721
797.437	0.0162766
797.515	0.0161864
797.593	0.0161280
797.671	0.0162468
797.749	0.0161497
797.828	0.0161637
797.906	0.0160667
797.984	0.0160829
798.062	0.0161064
798.140	0.0160105
798.218	0.0161456
798.296	0.0161488
798.374	0.0161526
798.453	0.0160103
798.531	0.0160967
798.609	0.0158707
798.687	0.0157780
798.765	0.0158462
798.843	0.0157185
798.921	0.0157016
798.999	0.0156461
799.078	0.0155946
799.156	0.0154478
799.234	0.0154092
799.312	0.0155151
799.390	0.0153476
799.468	0.0152213
799.546	0.0153677
799.624	0.0154620
799.703	0.0153767
799.781	0.0156004
799.859	0.0155974
799.937	0.0154275
800.015	0.0156233
800.093	0.0155038
800.171	0.0157272
800.249	0.0156491
800.328	0.0155432
800.406	0.0157364
800.484	0.0156563
800.562	0.0158165
800.640	0.0157240
800.718	0.0157142
800.796	0.0158546
800.874	0.0160259
800.953	0.0159337
801.031	0.0158770
801.109	0.0162940
801.187	0.0160379
801.265	0.0159889
801.343	0.0161075
801.421	0.0161804
801.499	0.0161320
801.578	0.0160755
801.656	0.0160674
801.734	0.0161929
801.812	0.0161633
801.890	0.0161564
801.968	0.0163563
802.046	0.0163013
802.124	0.0161891
802.203	0.0163578
802.281	0.0162793
802.359	0.0162932
802.437	0.0163325
802.515	0.0164487
802.593	0.0163554
802.671	0.0163206
802.749	0.0163745
802.828	0.0164835
802.906	0.0161919
802.984	0.0161567
803.062	0.0161560
803.140	0.0161197
803.218	0.0160976
803.296	0.0160941
803.374	0.0159403
803.453	0.0159633
803.531	0.0158862
803.609	0.0157976
803.687	0.0158019
803.765	0.0158255
803.843	0.0156236
803.921	0.0155941
803.999	0.0157655
804.078	0.0155553
804.156	0.0154649
804.234	0.0156142
804.312	0.0156336
804.390	0.0155601
804.468	0.0154299
804.546	0.0154931
804.624	0.0154572
804.703	0.0155070
804.781	0.0154482
804.859	0.0156167
804.937	0.0154586
805.015	0.0154623
805.093	0.0155875
805.171	0.0157527
805.249	0.0158607
805.328	0.0157092
805.406	0.0157217
805.484	0.0158642
805.562	0.0159821
805.640	0.0158276
805.718	0.0160239
805.796	0.0159695
805.874	0.0160262
805.953	0.0160017
806.031	0.0159769
806.109	0.0160658
806.187	0.0158724
806.265	0.0158724
806.343	0.0160194
806.421	0.0160591
806.499	0.0159774
806.578	0.0159494
806.656	0.0159489
806.734	0.0160094
806.812	0.0160175
806.890	0.0160751
806.968	0.0161241
807.046	0.0161589
807.124	0.0161690
807.203	0.0163378
807.281	0.0164017
807.359	0.0162936
807.437	0.0163529
807.515	0.0164044
807.593	0.0163033
807.671	0.0163344
807.749	0.0163969
807.828	0.0162502
807.906	0.0161691
807.984	0.0163286
808.062	0.0160180
808.140	0.0160873
808.218	0.0162354
808.296	0.0160268
808.374	0.0160242
808.453	0.0160063
808.531	0.0160010
808.609	0.0158930
808.687	0.0160374
808.765	0.0160407
808.843	0.0159126
808.921	0.0160430
808.999	0.0160653
809.078	0.0157620
809.156	0.0157272
809.234	0.0158026
809.312	0.0156010
809.390	0.0154706
809.468	0.0155717
809.546	0.0153416
809.624	0.0153140
809.703	0.0154704
809.781	0.0151540
809.859	0.0151747
809.937	0.0151431
810.015	0.0150896
810.093	0.0150845
810.171	0.0150674
810.249	0.0151025
810.328	0.0150603
810.406	0.0150905
810.484	0.0152609
810.562	0.0153433
810.640	0.0153487
810.718	0.0155207
810.796	0.0157364
810.874	0.0158103
810.953	0.0159756
811.031	0.0161195
811.109	0.0162177
811.187	0.0162692
811.265	0.0164160
811.343	0.0163806
811.421	0.0165640
811.499	0.0165333
811.578	0.0165392
811.656	0.0167167
811.734	0.0165711
811.812	0.0166386
811.890	0.0165643
811.968	0.0165074
812.046	0.0165192
812.124	0.0165548
812.203	0.0164352
812.281	0.0164035
812.359	0.0164564
812.437	0.0164569
812.515	0.0162357
812.593	0.0161039
812.671	0.0160136
812.749	0.0159897
812.828	0.0159923
812.906	0.0158723
812.984	0.0159847
813.062	0.0157279
813.140	0.0156753
813.218	0.0156168
813.296	0.0155910
813.374	0.0155197
813.453	0.0155762
813.531	0.0154392
813.609	0.0154899
813.687	0.0154518
813.765	0.0154738
813.843	0.0154520
813.921	0.0153060
813.999	0.0153705
814.078	0.0154104
814.156	0.0155297
814.234	0.0154219
814.312	0.0155296
814.390	0.0155805
814.468	0.0155975
814.546	0.0155060
814.624	0.0155146
814.703	0.0156492
814.781	0.0156093
814.859	0.0156732
814.937	0.0156621
815.015	0.0157639
815.093	0.0157378
815.171	0.0158399
815.249	0.0159115
815.328	0.0159367
815.406	0.0159235
815.484	0.0159297
815.562	0.0160095
815.640	0.0159671
815.718	0.0159900
815.796	0.0160559
815.874	0.0159449
815.953	0.0159167
816.031	0.0159194
816.109	0.0159566
816.187	0.0158977
816.265	0.0158763
816.343	0.0158755
816.421	0.0156551
816.499	0.0158961
816.578	0.0159907
816.656	0.0159436
816.734	0.0158881
816.812	0.0160192
816.890	0.0159998
816.968	0.0159628
817.046	0.0159281
817.124	0.0159686
817.203	0.0160126
817.281	0.0159456
817.359	0.0159540
817.437	0.0160808
817.515	0.0160009
817.593	0.0159547
817.671	0.0159809
817.749	0.0158316
817.828	0.0158556
817.906	0.0158845
817.984	0.0159238
818.062	0.0158630
818.140	0.0158473
818.218	0.0156525
818.296	0.0157633
818.374	0.0158515
818.453	0.0156512
818.531	0.0155793
818.609	0.0156668
818.687	0.0155618
818.765	0.0155554
818.843	0.0154902
818.921	0.0154134
818.999	0.0154777
819.078	0.0154238
819.156	0.0154906
819.234	0.0154980
819.312	0.0156464
819.390	0.0155743
819.468	0.0154924
819.546	0.0156073
819.624	0.0157854
819.703	0.0157668
819.781	0.0158100
819.859	0.0158226
819.937	0.0157966
820.015	0.0157821
820.093	0.0159074
820.171	0.0159117
820.249	0.0158978
820.328	0.0158582
820.406	0.0158008
820.484	0.0157745
820.562	0.0156872
820.640	0.0156419
820.718	0.0156567
820.796	0.0155704
820.874	0.0155933
820.953	0.0155855
821.031	0.0156516
821.109	0.0154575
821.187	0.0155661
821.265	0.0157943
821.343	0.0157122
821.421	0.0156797
821.499	0.0157343
821.578	0.0157777
821.656	0.0159911
821.734	0.0159454
821.812	0.0159322
821.890	0.0161331
821.968	0.0161855
822.046	0.0163205
822.124	0.0164816
822.203	0.0164255
822.281	0.0165131
822.359	0.0163934
822.437	0.0166220
822.515	0.0165845
822.593	0.0165519
822.671	0.0166321
822.749	0.0165137
822.828	0.0163113
822.906	0.0162254
822.984	0.0162341
823.062	0.0162546
823.140	0.0160190
823.218	0.0158845
823.296	0.0156616
823.374	0.0156458
823.453	0.0154788
823.531	0.0153568
823.609	0.0152553
823.687	0.0152927
823.765	0.0153075
823.843	0.0152128
823.921	0.0152097
823.999	0.0151514
824.078	0.0151226
824.156	0.0151704
824.234	0.0152647
824.312	0.0151290
824.390	0.0151564
824.468	0.0153075
824.546	0.0155748
824.624	0.0153529
824.703	0.0154655
824.781	0.0155991
824.859	0.0158500
824.937	0.0158248
825.015	0.0159442
825.093	0.0160008
825.171	0.0160725
825.249	0.0161201
825.328	0.0162795
825.406	0.0163518
825.484	0.0162556
825.562	0.0163565
825.640	0.0164615
825.718	0.0164776
825.796	0.0165284
825.874	0.0165841
825.953	0.0165922
826.031	0.0164624
826.109	0.0164484
826.187	0.0164272
826.265	0.0163529
826.343	0.0164825
826.421	0.0162991
826.499	0.0160979
826.578	0.0160401
826.656	0.0159673
826.734	0.0158472
826.812	0.0156448
826.890	0.0157465
826.968	0.0156667
827.046	0.0155120
827.124	0.0153606
827.203	0.0156086
827.281	0.0153528
827.359	0.0153253
827.437	0.0154065
827.515	0.0154594
827.593	0.0154565
827.671	0.0154933
827.749	0.0156154
827.828	0.0156062
827.906	0.0156876
827.984	0.0156712
828.062	0.0157985
828.140	0.0158334
828.218	0.0158531
828.296	0.0158668
828.374	0.0158808
828.453	0.0158244
828.531	0.0158116
828.609	0.0159068
828.687	0.0158772
828.765	0.0159393
828.843	0.0157990
828.921	0.0158062
828.999	0.0158728
829.078	0.0158347
829.156	0.0157450
829.234	0.0159933
829.312	0.0159598
829.390	0.0160297
829.468	0.0159652
829.546	0.0159958
829.624	0.0160984
829.703	0.0160587
829.781	0.0159309
829.859	0.0160011
829.937	0.0159580
830.015	0.0159298
830.093	0.0160109
830.171	0.0160258
830.249	0.0157996
830.328	0.0158817
830.406	0.0159690
830.484	0.0158658
830.562	0.0158659
830.640	0.0159182
830.718	0.0159499
830.796	0.0158637
830.874	0.0159650
830.953	0.0159142
831.031	0.0157816
831.109	0.0159018
831.187	0.0159576
831.265	0.0159653
831.343	0.0157800
831.421	0.0159039
831.499	0.0158541
831.578	0.0157565
831.656	0.0157156
831.734	0.0157430
831.812	0.0158137
831.890	0.0157671
831.968	0.0158582
832.046	0.0158294
832.124	0.0158299
832.203	0.0158247
832.281	0.0158762
832.359	0.0159808
832.437	0.0158231
832.515	0.0157772
832.593	0.0158798
832.671	0.0159502
832.749	0.0158788
832.828	0.0159689
832.906	0.0159219
832.984	0.0158652
833.062	0.0159785
833.140	0.0159468
833.218	0.0159688
833.296	0.0158991
833.374	0.0159084
833.453	0.0159270
833.531	0.0160504
833.609	0.0159016
833.687	0.0159867
833.765	0.0159547
833.843	0.0159808
833.921	0.0159605
833.999	0.0158130
834.078	0.0158968
834.156	0.0158717
834.234	0.0157726
834.312	0.0157548
834.390	0.0158189
834.468	0.0158079
834.546	0.0157121
834.624	0.0156353
834.703	0.0155352
834.781	0.0155451
834.859	0.0156625
834.937	0.0156635
835.015	0.0154856
835.093	0.0154890
835.171	0.0155113
835.249	0.0155157
835.328	0.0156649
835.406	0.0158549
835.484	0.0155772
835.562	0.0156915
835.640	0.0157054
835.718	0.0157722
835.796	0.0157110
835.874	0.0159599
835.953	0.0158305
836.031	0.0159039
836.109	0.0158117
836.187	0.0159200
836.265	0.0158901
836.343	0.0159013
836.421	0.0159364
836.499	0.0159623
836.578	0.0161843
836.656	0.0161766
836.734	0.0160303
836.812	0.0161316
836.890	0.0162309
836.968	0.0160706
837.046	0.0160268
837.124	0.0160430
837.203	0.0159879
837.281	0.0160359
837.359	0.0159660
837.437	0.0158936
837.515	0.0159270
837.593	0.0159059
837.671	0.0158208
837.749	0.0157588
837.828	0.0158611
837.906	0.0158496
837.984	0.0155575
838.062	0.0155978
838.140	0.0156893
838.218	0.0155550
838.296	0.0155499
838.374	0.0157348
838.453	0.0156819
838.531	0.0156235
838.609	0.0156284
838.687	0.0155464
838.765	0.0157376
838.843	0.0156628
838.921	0.0156457
838.999	0.0156118
839.078	0.0156233
839.156	0.0157435
839.234	0.0157260
839.312	0.0157658
839.390	0.0156714
839.468	0.0158199
839.546	0.0158955
839.624	0.0159243
839.703	0.0159578
839.781	0.0159970
839.859	0.0159769
839.937	0.0160510
840.015	0.0159992
840.093	0.0159350
840.171	0.0159144
840.249	0.0160868
840.328	0.0160921
840.406	0.0162536
840.484	0.0161849
840.562	0.0162213
840.640	0.0160468
840.718	0.0160785
840.796	0.0160433
840.874	0.0159534
840.953	0.0159203
841.031	0.0159392
841.109	0.0157625
841.187	0.0155821
841.265	0.0155631
841.343	0.0156811
841.421	0.0155981
841.499	0.0157079
841.578	0.0155005
841.656	0.0154614
841.734	0.0155177
841.812	0.0153767
841.890	0.0155156
841.968	0.0155291
842.046	0.0155315
842.124	0.0155680
842.203	0.0155396
842.281	0.0153696
842.359	0.0157104
842.437	0.0156060
842.515	0.0155213
842.593	0.0156682
842.671	0.0157082
842.749	0.0155709
842.828	0.0156734
842.906	0.0157095
842.984	0.0158623
843.062	0.0158719
843.140	0.0159584
843.218	0.0161022
843.296	0.0161732
843.374	0.0161116
843.453	0.0161845
843.531	0.0161729
843.609	0.0161643
843.687	0.0161156
843.765	0.0161926
843.843	0.0164175
843.921	0.0164956
843.999	0.0163679
844.078	0.0163747
844.156	0.0162149
844.234	0.0161945
844.312	0.0161254
844.390	0.0161335
844.468	0.0159604
844.546	0.0160178
844.624	0.0160355
844.703	0.0159848
844.781	0.0158299
844.859	0.0158134
844.937	0.0158046
845.015	0.0157543
845.093	0.0157621
845.171	0.0156325
845.249	0.0156462
845.328	0.0157113
845.406	0.0156679
845.484	0.0156197
845.562	0.0155173
845.640	0.0155861
845.718	0.0156797
845.796	0.0155725
845.874	0.0155708
845.953	0.0155395
846.031	0.0154918
846.109	0.0156070
846.187	0.0158701
846.265	0.0157386
846.343	0.0157780
846.421	0.0157279
846.499	0.0158276
846.578	0.0157954
846.656	0.0158536
846.734	0.0158987
846.812	0.0159500
846.890	0.0159618
846.968	0.0160460
847.046	0.0160660
847.124	0.0158984
847.203	0.0159937
847.281	0.0160590
847.359	0.0160571
847.437	0.0159584
847.515	0.0160678
847.593	0.0159703
847.671	0.0158540
847.749	0.0160117
847.828	0.0161822
847.906	0.0160931
847.984	0.0160327
848.062	0.0160048
848.140	0.0159014
848.218	0.0161030
848.296	0.0159509
848.374	0.0158687
848.453	0.0159371
848.531	0.0158887
848.609	0.0159809
848.687	0.0158541
848.765	0.0158973
848.843	0.0156562
848.921	0.0157807
848.999	0.0159516
849.078	0.0159061
849.156	0.0159090
849.234	0.0158732
849.312	0.0158833
849.390	0.0158433
849.468	0.0159967
849.546	0.0159176
849.624	0.0159039
849.703	0.0159077
849.781	0.0160952
849.859	0.0161703
849.937	0.0161542
850.015	0.0160987
850.093	0.0161701
850.171	0.0161651
850.249	0.0161478
850.328	0.0162098
850.406	0.0161702
850.484	0.0160557
850.562	0.0161674
850.640	0.0161050
850.718	0.0161281
850.796	0.0161092
850.874	0.0160103
850.953	0.0160030
851.031	0.0159240
851.109	0.0160193
851.187	0.0159760
851.265	0.0159769
851.343	0.0159586
851.421	0.0159362
851.499	0.0158150
851.578	0.0158681
851.656	0.0156902
851.734	0.0156656
851.812	0.0156946
851.890	0.0156911
851.968	0.0154814
852.046	0.0156848
852.124	0.0156871
852.203	0.0155945
852.281	0.0154219
852.359	0.0155821
852.437	0.0156853
852.515	0.0157336
852.593	0.0156886
852.671	0.0156609
852.749	0.0156999
852.828	0.0158028
852.906	0.0158106
852.984	0.0158730
853.062	0.0158958
853.140	0.0159399
853.218	0.0160050
853.296	0.0159283
853.374	0.0159113
853.453	0.0159777
853.531	0.0160120
853.609	0.0159956
853.687	0.0160750
853.765	0.0161148
853.843	0.0160197
853.921	0.0161098
853.999	0.0159655
854.078	0.0159306
854.156	0.0160119
854.234	0.0162077
854.312	0.0161790
854.390	0.0160936
854.468	0.0161008
854.546	0.0159919
854.624	0.0159544
854.703	0.0160004
854.781	0.0160240
854.859	0.0158601
854.937	0.0158725
855.015	0.0158399
855.093	0.0160072
855.171	0.0157832
855.249	0.0159248
855.328	0.0158809
855.406	0.0160575
855.484	0.0157375
855.562	0.0156954
855.640	0.0158853
855.718	0.0159013
855.796	0.0157970
855.874	0.0157460
855.953	0.0157839
856.031	0.0158228
856.109	0.0158855
856.187	0.0158493
856.265	0.0157746
856.343	0.0157766
856.421	0.0159155
856.499	0.0156416
856.578	0.0157744
856.656	0.0159311
856.734	0.0158013
856.812	0.0158846
856.890	0.0157736
856.968	0.0157661
857.046	0.0158031
857.124	0.0157769
857.203	0.0157298
857.281	0.0158241
857.359	0.0157083
857.437	0.0159267
857.515	0.0158713
857.593	0.0158624
857.671	0.0158272
857.749	0.0158520
857.828	0.0157877
857.906	0.0157066
857.984	0.0157238
858.062	0.0158433
858.140	0.0156784
858.218	0.0157958
858.296	0.0158007
858.374	0.0155804
858.453	0.0157620
858.531	0.0158076
858.609	0.0159106
858.687	0.0158011
858.765	0.0157279
858.843	0.0159254
858.921	0.0159618
858.999	0.0158192
859.078	0.0159675
859.156	0.0159800
859.234	0.0159742
859.312	0.0159312
859.390	0.0159685
859.468	0.0160216
859.546	0.0159628
859.624	0.0158424
859.703	0.0159153
859.781	0.0160326
859.859	0.0157867
859.937	0.0157419
860.015	0.0159130
860.093	0.0157617
860.171	0.0157787
860.249	0.0158889
860.328	0.0158908
860.406	0.0158178
860.484	0.0159006
860.562	0.0156924
860.640	0.0159011
860.718	0.0158891
860.796	0.0158622
860.874	0.0159429
860.953	0.0160188
861.031	0.0159613
861.109	0.0159974
861.187	0.0160262
861.265	0.0161034
861.343	0.0160565
861.421	0.0161288
861.499	0.0159953
861.578	0.0161176
861.656	0.0159621
861.734	0.0160312
861.812	0.0160231
861.890	0.0159519
861.968	0.0160960
862.046	0.0159651
862.124	0.0159080
862.203	0.0157965
862.281	0.0156993
862.359	0.0159099
862.437	0.0158286
862.515	0.0157944
862.593	0.0158833
862.671	0.0158305
862.749	0.0159029
862.828	0.0159605
862.906	0.0157586
862.984	0.0157801
863.062	0.0158894
863.140	0.0159840
863.218	0.0158997
863.296	0.0159818
863.374	0.0158898
863.453	0.0159586
863.531	0.0160155
863.609	0.0159507
863.687	0.0160259
863.765	0.0158995
863.843	0.0157555
863.921	0.0160172
863.999	0.0157883
864.078	0.0159532
864.156	0.0157401
864.234	0.0157359
864.312	0.0159148
864.390	0.0158287
864.468	0.0157682
864.546	0.0158783
864.624	0.0159341
864.703	0.0159029
864.781	0.0159410
864.859	0.0159208
864.937	0.0159792
865.015	0.0159565
865.093	0.0159975
865.171	0.0159550
865.249	0.0159589
865.328	0.0161002
865.406	0.0160722
865.484	0.0160539
865.562	0.0160429
865.640	0.0162249
865.718	0.0160733
865.796	0.0160706
865.874	0.0159460
865.953	0.0159252
866.031	0.0160759
866.109	0.0160900
866.187	0.0159686
866.265	0.0159416
866.343	0.0158669
866.421	0.0158980
866.499	0.0159353
866.578	0.0160097
866.656	0.0159628
866.734	0.0159299
866.812	0.0158805
866.890	0.0159104
866.968	0.0161047
867.046	0.0158685
867.124	0.0159786
867.203	0.0161152
867.281	0.0159043
867.359	0.0159655
867.437	0.0161523
867.515	0.0159801
867.593	0.0161533
867.671	0.0161383
867.749	0.0158545
867.828	0.0160382
867.906	0.0160809
867.984	0.0159663
868.062	0.0160480
868.140	0.0159185
868.218	0.0159060
868.296	0.0160352
868.374	0.0158450
868.453	0.0158781
868.531	0.0158853
868.609	0.0159398
868.687	0.0159440
868.765	0.0159069
868.843	0.0159618
868.921	0.0157307
868.999	0.0157007
869.078	0.0158929
869.156	0.0158027
869.234	0.0157992
869.312	0.0158384
869.390	0.0159291
869.468	0.0158026
869.546	0.0157285
869.624	0.0157813
869.703	0.0159373
869.781	0.0158119
869.859	0.0157605
869.937	0.0158761
870.015	0.0158484
870.093	0.0157957
870.171	0.0158511
870.249	0.0159443
870.328	0.0159501
870.406	0.0158778
870.484	0.0160059
870.562	0.0159561
870.640	0.0159420
870.718	0.0159411
870.796	0.0160600
870.874	0.0158497
870.953	0.0160287
871.031	0.0161012
871.109	0.0159565
871.187	0.0158312
871.265	0.0159081
871.343	0.0159557
871.421	0.0158981
871.499	0.0159179
871.578	0.0158892
871.656	0.0157894
871.734	0.0160025
871.812	0.0158535
871.890	0.0158545
871.968	0.0159081
872.046	0.0158009
872.124	0.0158894
872.203	0.0158217
872.281	0.0158950
872.359	0.0158945
872.437	0.0159895
872.515	0.0159276
872.593	0.0159074
872.671	0.0159496
872.749	0.0160739
872.828	0.0161391
872.906	0.0160355
872.984	0.0158910
873.062	0.0159066
873.140	0.0159337
873.218	0.0160479
873.296	0.0160526
873.374	0.0159970
873.453	0.0160465
873.531	0.0158817
873.609	0.0159222
873.687	0.0158599
873.765	0.0157626
873.843	0.0159126
873.921	0.0159197
873.999	0.0159193
874.078	0.0159184
874.156	0.0157959
874.234	0.0157811
874.312	0.0158244
874.390	0.0158489
874.468	0.0158432
874.546	0.0158267
874.624	0.0157863
874.703	0.0157436
874.781	0.0158466
874.859	0.0159781
874.937	0.0157558
875.015	0.0157121
875.093	0.0157346
875.171	0.0157191
875.249	0.0158551
875.328	0.0157059
875.406	0.0158304
875.484	0.0158022
875.562	0.0158761
875.640	0.0158589
875.718	0.0158746
875.796	0.0158039
875.874	0.0158198
875.953	0.0158218
876.031	0.0159553
876.109	0.0158769
876.187	0.0159082
876.265	0.0159254
876.343	0.0159791
876.421	0.0159729
876.499	0.0159357
876.578	0.0160796
876.656	0.0159499
876.734	0.0159125
876.812	0.0157098
876.890	0.0158708
876.968	0.0158924
877.046	0.0158362
877.124	0.0157944
877.203	0.0159238
877.281	0.0157687
877.359	0.0157375
877.437	0.0158996
877.515	0.0158862
877.593	0.0158239
877.671	0.0158232
877.749	0.0159224
877.828	0.0157248
877.906	0.0158234
877.984	0.0157270
878.062	0.0158244
878.140	0.0156464
878.218	0.0157500
878.296	0.0157003
878.374	0.0158810
878.453	0.0158128
878.531	0.0156866
878.609	0.0155797
878.687	0.0157450
878.765	0.0157257
878.843	0.0156909
878.921	0.0157687
878.999	0.0157917
879.078	0.0157788
879.156	0.0158327
879.234	0.0157833
879.312	0.0157047
879.390	0.0158807
879.468	0.0157918
879.546	0.0157627
879.624	0.0158842
879.703	0.0159719
879.781	0.0160165
879.859	0.0159016
879.937	0.0159725
880.015	0.0158248
880.093	0.0158279
880.171	0.0160538
880.249	0.0159711
880.328	0.0160185
880.406	0.0159421
880.484	0.0159355
880.562	0.0158926
880.640	0.0160481
880.718	0.0159544
880.796	0.0160511
880.874	0.0160395
880.953	0.0159810
881.031	0.0160418
881.109	0.0159478
881.187	0.0160306
881.265	0.0159112
881.343	0.0160049
881.421	0.0158836
881.499	0.0159956
881.578	0.0159134
881.656	0.0159044
881.734	0.0157341
881.812	0.0156730
881.890	0.0158851
881.968	0.0157555
882.046	0.0158759
882.124	0.0159420
882.203	0.0159341
882.281	0.0159753
882.359	0.0160555
882.437	0.0158494
882.515	0.0160816
882.593	0.0161027
882.671	0.0158826
882.749	0.0159414
882.828	0.0159286
882.906	0.0159399
882.984	0.0161723
883.062	0.0160858
883.140	0.0160791
883.218	0.0161160
883.296	0.0160958
883.374	0.0160718
883.453	0.0160472
883.531	0.0160529
883.609	0.0159074
883.687	0.0159835
883.765	0.0159438
883.843	0.0160046
883.921	0.0158869
883.999	0.0159765
884.078	0.0158965
884.156	0.0158576
884.234	0.0157329
884.312	0.0158615
884.390	0.0159241
884.468	0.0158671
884.546	0.0157652
884.624	0.0157758
884.703	0.0157269
884.781	0.0159088
884.859	0.0158233
884.937	0.0157711
885.015	0.0158250
885.093	0.0159176
885.171	0.0158097
885.249	0.0159007
885.328	0.0158550
885.406	0.0160116
885.484	0.0159516
885.562	0.0158320
885.640	0.0157798
885.718	0.0159616
885.796	0.0158710
885.874	0.0160242
885.953	0.0157310
886.031	0.0159089
886.109	0.0160532
886.187	0.0160725
886.265	0.0160242
886.343	0.0160805
886.421	0.0161887
886.499	0.0160513
886.578	0.0162157
886.656	0.0161356
886.734	0.0160725
886.812	0.0162340
886.890	0.0163219
886.968	0.0160405
887.046	0.0161507
887.124	0.0161295
887.203	0.0162384
887.281	0.0161627
887.359	0.0160321
887.437	0.0161666
887.515	0.0161103
887.593	0.0160399
887.671	0.0160081
887.749	0.0160165
887.828	0.0159862
887.906	0.0160857
887.984	0.0159996
888.062	0.0159631
888.140	0.0159026
888.218	0.0160188
888.296	0.0159031
888.374	0.0158762
888.453	0.0159061
888.531	0.0160279
888.609	0.0161138
888.687	0.0160662
888.765	0.0159623
888.843	0.0160341
888.921	0.0161737
888.999	0.0160777
889.078	0.0160934
889.156	0.0160812
889.234	0.0159294
889.312	0.0159437
889.390	0.0160536
889.468	0.0159903
889.546	0.0161249
889.624	0.0161078
889.703	0.0160658
889.781	0.0161069
889.859	0.0160507
889.937	0.0160404
890.015	0.0160030
890.093	0.0160713
890.171	0.0159409
890.249	0.0161417
890.328	0.0160879
890.406	0.0161725
890.484	0.0160693
890.562	0.0160251
890.640	0.0160397
890.718	0.0159672
890.796	0.0159423
890.874	0.0159269
890.953	0.0159224
891.031	0.0159679
891.109	0.0159044
891.187	0.0158719
891.265	0.0158460
891.343	0.0159097
891.421	0.0158098
891.499	0.0156780
891.578	0.0156984
891.656	0.0158642
891.734	0.0157018
891.812	0.0159050
891.890	0.0158080
891.968	0.0158494
892.046	0.0158665
892.124	0.0157962
892.203	0.0157467
892.281	0.0156963
892.359	0.0158856
892.437	0.0159067
892.515	0.0158495
892.593	0.0158760
892.671	0.0159685
892.749	0.0158947
892.828	0.0159855
892.906	0.0161578
892.984	0.0160391
893.062	0.0159824
893.140	0.0160471
893.218	0.0159213
893.296	0.0159447
893.374	0.0160191
893.453	0.0158530
893.531	0.0160679
893.609	0.0159077
893.687	0.0158722
893.765	0.0160386
893.843	0.0159880
893.921	0.0160001
893.999	0.0158659
894.078	0.0157925
894.156	0.0159970
894.234	0.0159148
894.312	0.0158413
894.390	0.0158478
894.468	0.0159772
894.546	0.0158552
894.624	0.0159586
894.703	0.0160970
894.781	0.0159165
894.859	0.0158856
894.937	0.0159125
895.015	0.0159301
895.093	0.0160296
895.171	0.0159155
895.249	0.0160281
895.328	0.0159425
895.406	0.0159898
895.484	0.0160373
895.562	0.0159354
895.640	0.0159093
895.718	0.0159196
895.796	0.0160970
895.874	0.0158776
895.953	0.0159844
896.031	0.0159595
896.109	0.0160045
896.187	0.0160361
896.265	0.0159058
896.343	0.0159511
896.421	0.0159215
896.499	0.0158411
896.578	0.0157962
896.656	0.0159464
896.734	0.0161427
896.812	0.0158668
896.890	0.0158717
896.968	0.0158519
897.046	0.0159187
897.124	0.0158953
897.203	0.0159649
897.281	0.0157527
897.359	0.0157663
897.437	0.0157961
897.515	0.0157477
897.593	0.0158112
897.671	0.0159061
897.749	0.0159129
897.828	0.0157011
897.906	0.0157883
897.984	0.0156783
898.062	0.0156409
898.140	0.0159512
898.218	0.0158347
898.296	0.0157574
898.374	0.0158400
898.453	0.0156703
898.531	0.0159711
898.609	0.0158421
898.687	0.0158887
898.765	0.0157593
898.843	0.0159589
898.921	0.0158807
898.999	0.0157994
899.078	0.0159804
899.156	0.0160652
899.234	0.0158926
899.312	0.0157998
899.390	0.0159140
899.468	0.0157847
899.546	0.0158301
899.624	0.0158401
899.703	0.0157491
899.781	0.0158804
899.859	0.0158287
899.937	0.0156473
900.015	0.0157722
900.093	0.0157359
900.171	0.0155634
900.249	0.0157469
900.328	0.0156452
900.406	0.0157733
900.484	0.0157265
900.562	0.0157055
900.640	0.0157072
900.718	0.0154942
900.796	0.0155306
900.874	0.0158658
900.953	0.0157081
901.031	0.0158226
901.109	0.0157442
901.187	0.0155980
901.265	0.0158565
901.343	0.0158900
901.421	0.0158608
901.499	0.0159142
901.578	0.0158929
901.656	0.0158355
901.734	0.0159199
901.812	0.0159698
901.890	0.0159097
901.968	0.0159017
902.046	0.0157954
902.124	0.0158118
902.203	0.0158229
902.281	0.0158686
902.359	0.0159055
902.437	0.0157735
902.515	0.0156380
902.593	0.0157240
902.671	0.0157336
902.749	0.0157057
902.828	0.0157895
902.906	0.0157976
902.984	0.0157610
903.062	0.0158357
903.140	0.0155937
903.218	0.0158881
903.296	0.0157983
903.374	0.0157016
903.453	0.0156971
903.531	0.0158292
903.609	0.0157384
903.687	0.0157048
903.765	0.0160307
903.843	0.0158042
903.921	0.0158504
903.999	0.0158230
904.078	0.0158231
904.156	0.0158415
904.234	0.0158649
904.312	0.0156731
904.390	0.0158987
904.468	0.0159772
904.546	0.0159480
904.624	0.0159357
904.703	0.0158344
904.781	0.0157354
904.859	0.0159898
904.937	0.0159483
905.015	0.0160595
905.093	0.0159743
905.171	0.0158805
905.249	0.0158840
905.328	0.0159023
905.406	0.0160599
905.484	0.0160564
905.562	0.0159582
905.640	0.0159692
905.718	0.0160498
905.796	0.0159489
905.874	0.0157876
905.953	0.0158304
906.031	0.0157272
906.109	0.0157665
906.187	0.0158086
906.265	0.0159249
906.343	0.0158128
906.421	0.0157748
906.499	0.0156807
906.578	0.0157524
906.656	0.0155303
906.734	0.0156901
906.812	0.0157077
906.890	0.0155047
906.968	0.0157024
907.046	0.0157915
907.124	0.0156828
907.203	0.0157946
907.281	0.0159148
907.359	0.0159372
907.437	0.0161005
907.515	0.0159234
907.593	0.0161181
907.671	0.0160494
907.749	0.0160435
907.828	0.0159273
907.906	0.0159482
907.984	0.0160555
908.062	0.0160574
908.140	0.0160639
908.218	0.0161836
908.296	0.0159710
908.374	0.0160920
908.453	0.0160695
908.531	0.0160605
908.609	0.0161530
908.687	0.0160545
908.765	0.0161143
908.843	0.0161328
908.921	0.0161539
908.999	0.0161597
909.078	0.0160798
909.156	0.0160158
909.234	0.0160250
909.312	0.0159790
909.390	0.0159614
909.468	0.0159745
909.546	0.0159400
909.624	0.0158179
909.703	0.0159068
909.781	0.0158537
909.859	0.0158244
909.937	0.0159729
910.015	0.0159110
910.093	0.0158127
910.171	0.0157256
910.249	0.0159514
910.328	0.0158894
910.406	0.0158907
910.484	0.0157771
910.562	0.0158287
910.640	0.0158104
910.718	0.0157077
910.796	0.0159104
910.874	0.0159272
910.953	0.0158875
911.031	0.0158919
911.109	0.0159351
911.187	0.0158174
911.265	0.0160105
911.343	0.0159746
911.421	0.0159393
911.499	0.0159857
911.578	0.0160514
911.656	0.0160201
911.734	0.0159791
911.812	0.0161059
911.890	0.0159624
911.968	0.0160493
912.046	0.0158184
912.124	0.0159613
912.203	0.0160431
912.281	0.0158730
912.359	0.0158382
912.437	0.0159548
912.515	0.0159377
912.593	0.0160322
912.671	0.0159065
912.749	0.0158184
912.828	0.0157195
912.906	0.0159933
912.984	0.0159466
913.062	0.0158212
913.140	0.0158955
913.218	0.0158224
913.296	0.0158849
913.374	0.0159344
913.453	0.0159827
913.531	0.0160530
913.609	0.0158588
913.687	0.0159422
913.765	0.0159684
913.843	0.0158100
913.921	0.0158832
913.999	0.0160705
914.078	0.0159253
914.156	0.0159988
914.234	0.0159315
914.312	0.0159447
914.390	0.0161301
914.468	0.0158602
914.546	0.0158858
914.624	0.0159424
914.703	0.0157837
914.781	0.0160119
914.859	0.0158930
914.937	0.0159373
915.015	0.0157837
915.093	0.0158970
915.171	0.0160841
915.249	0.0159686
915.328	0.0158725
915.406	0.0158236
915.484	0.0158117
915.562	0.0157574
915.640	0.0158125
915.718	0.0158422
915.796	0.0156918
915.874	0.0158283
915.953	0.0156699
916.031	0.0157166
916.109	0.0157690
916.187	0.0157955
916.265	0.0157525
916.343	0.0157484
916.421	0.0156797
916.499	0.0156534
916.578	0.0156889
916.656	0.0157686
916.734	0.0156174
916.812	0.0156399
916.890	0.0156875
916.968	0.0156580
917.046	0.0157594
917.124	0.0155726
917.203	0.0156614
917.281	0.0156332
917.359	0.0156841
917.437	0.0158172
917.515	0.0158659
917.593	0.0156656
917.671	0.0157652
917.749	0.0159473
917.828	0.0158121
917.906	0.0158968
917.984	0.0158906
918.062	0.0159093
918.140	0.0157949
918.218	0.0158460
918.296	0.0157454
918.374	0.0159486
918.453	0.0157165
918.531	0.0156571
918.609	0.0158128
918.687	0.0157426
918.765	0.0157722
918.843	0.0158409
918.921	0.0158094
918.999	0.0156767
919.078	0.0158347
919.156	0.0158525
919.234	0.0158152
919.312	0.0157898
919.390	0.0156565
919.468	0.0156444
919.546	0.0158337
919.624	0.0157610
919.703	0.0157053
919.781	0.0158309
919.859	0.0157936
919.937	0.0156241
