06/10/2022	18:55:10	Ver.	4.1	UNKNOWN
Optical Delay	600.015094	Delta X		0.078125	Sweeps	1	Scan Rate	0/0
Coordinates	Axis 1	NaN	Axis 2	NaN	Axis 3	NaN	Axis 4	NaN	Axis 5	NaN	Axis 6	0.000000
TX Power	0.000000	RX Power	0.000000

600.015	0.0160522
600.093	0.0162042
600.171	0.0160815
600.249	0.0160368
600.328	0.0160608
600.406	0.0160567
600.484	0.0160329
600.562	0.0160350
600.640	0.0159409
600.718	0.0160445
600.796	0.0159733
600.874	0.0159751
600.953	0.0160190
601.031	0.0160519
601.109	0.0161155
601.187	0.0160228
601.265	0.0161095
601.343	0.0161163
601.421	0.0161609
601.499	0.0160124
601.578	0.0160407
601.656	0.0160842
601.734	0.0160087
601.812	0.0161298
601.890	0.0160591
601.968	0.0160416
602.046	0.0160901
602.124	0.0160771
602.203	0.0160638
602.281	0.0161743
602.359	0.0161202
602.437	0.0160390
602.515	0.0160403
602.593	0.0160732
602.671	0.0160178
602.749	0.0160690
602.828	0.0160586
602.906	0.0160528
602.984	0.0160439
603.062	0.0161121
603.140	0.0160783
603.218	0.0161283
603.296	0.0161144
603.374	0.0159974
603.453	0.0160182
603.531	0.0160173
603.609	0.0161284
603.687	0.0160105
603.765	0.0160928
603.843	0.0160303
603.921	0.0160983
603.999	0.0161604
604.078	0.0160752
604.156	0.0160029
604.234	0.0160768
604.312	0.0161207
604.390	0.0160059
604.468	0.0161096
604.546	0.0161137
604.624	0.0159401
604.703	0.0160451
604.781	0.0160506
604.859	0.0159761
604.937	0.0159718
605.015	0.0160949
605.093	0.0160365
605.171	0.0160783
605.249	0.0161147
605.328	0.0161415
605.406	0.0160293
605.484	0.0159666
605.562	0.0160727
605.640	0.0160561
605.718	0.0161099
605.796	0.0161809
605.874	0.0160465
605.953	0.0161599
606.031	0.0160889
606.109	0.0161603
606.187	0.0160036
606.265	0.0160825
606.343	0.0160339
606.421	0.0160416
606.499	0.0160058
606.578	0.0161044
606.656	0.0160854
606.734	0.0160987
606.812	0.0161262
606.890	0.0161110
606.968	0.0160776
607.046	0.0160238
607.124	0.0160165
607.203	0.0161204
607.281	0.0161356
607.359	0.0160500
607.437	0.0160373
607.515	0.0161435
607.593	0.0159982
607.671	0.0161268
607.749	0.0160673
607.828	0.0160308
607.906	0.0160981
607.984	0.0161770
608.062	0.0161096
608.140	0.0160496
608.218	0.0160683
608.296	0.0159666
608.374	0.0160554
608.453	0.0161977
608.531	0.0160209
608.609	0.0162353
608.687	0.0161561
608.765	0.0160813
608.843	0.0161728
608.921	0.0160753
608.999	0.0161032
609.078	0.0159740
609.156	0.0160824
609.234	0.0160281
609.312	0.0161450
609.390	0.0161195
609.468	0.0161764
609.546	0.0160531
609.624	0.0160297
609.703	0.0161492
609.781	0.0161498
609.859	0.0160310
609.937	0.0160145
610.015	0.0159544
610.093	0.0160519
610.171	0.0161136
610.249	0.0160387
610.328	0.0160403
610.406	0.0159991
610.484	0.0161135
610.562	0.0161995
610.640	0.0161465
610.718	0.0160814
610.796	0.0160123
610.874	0.0160863
610.953	0.0160974
611.031	0.0160738
611.109	0.0161745
611.187	0.0160617
611.265	0.0160561
611.343	0.0161674
611.421	0.0160899
611.499	0.0160571
611.578	0.0160481
611.656	0.0160300
611.734	0.0161195
611.812	0.0160340
611.890	0.0160223
611.968	0.0160351
612.046	0.0161350
612.124	0.0163229
612.203	0.0161448
612.281	0.0159453
612.359	0.0161158
612.437	0.0161537
612.515	0.0160566
612.593	0.0161098
612.671	0.0160983
612.749	0.0160175
612.828	0.0161507
612.906	0.0160706
612.984	0.0161500
613.062	0.0161175
613.140	0.0161549
613.218	0.0160498
613.296	0.0161111
613.374	0.0160348
613.453	0.0161118
613.531	0.0161760
613.609	0.0159361
613.687	0.0160227
613.765	0.0160858
613.843	0.0161073
613.921	0.0160444
613.999	0.0161153
614.078	0.0160603
614.156	0.0162017
614.234	0.0159606
614.312	0.0161908
614.390	0.0162184
614.468	0.0161051
614.546	0.0160397
614.624	0.0161942
614.703	0.0161195
614.781	0.0159083
614.859	0.0161095
614.937	0.0160680
615.015	0.0160350
615.093	0.0160356
615.171	0.0161023
615.249	0.0159657
615.328	0.0160939
615.406	0.0160724
615.484	0.0160892
615.562	0.0160503
615.640	0.0161491
615.718	0.0159267
615.796	0.0159526
615.874	0.0159068
615.953	0.0160694
616.031	0.0160770
616.109	0.0160361
616.187	0.0160574
616.265	0.0161339
616.343	0.0161220
616.421	0.0159933
616.499	0.0159979
616.578	0.0161080
616.656	0.0162099
616.734	0.0160589
616.812	0.0162135
616.890	0.0159538
616.968	0.0161283
617.046	0.0160664
617.124	0.0159815
617.203	0.0160891
617.281	0.0160819
617.359	0.0160513
617.437	0.0160931
617.515	0.0160571
617.593	0.0160710
617.671	0.0161067
617.749	0.0161171
617.828	0.0160179
617.906	0.0159906
617.984	0.0159747
618.062	0.0160451
618.140	0.0160187
618.218	0.0160770
618.296	0.0160429
618.374	0.0160323
618.453	0.0159787
618.531	0.0159647
618.609	0.0159289
618.687	0.0160263
618.765	0.0159974
618.843	0.0161349
618.921	0.0160896
618.999	0.0159505
619.078	0.0160020
619.156	0.0159418
619.234	0.0159312
619.312	0.0161127
619.390	0.0159042
619.468	0.0160411
619.546	0.0160941
619.624	0.0159312
619.703	0.0159589
619.781	0.0160732
619.859	0.0160203
619.937	0.0161406
620.015	0.0161639
620.093	0.0160072
620.171	0.0159953
620.249	0.0161105
620.328	0.0160323
620.406	0.0162106
620.484	0.0159271
620.562	0.0160436
620.640	0.0160527
620.718	0.0159386
620.796	0.0159702
620.874	0.0160590
620.953	0.0161566
621.031	0.0161788
621.109	0.0162124
621.187	0.0161235
621.265	0.0159794
621.343	0.0160446
621.421	0.0160204
621.499	0.0159805
621.578	0.0160806
621.656	0.0161002
621.734	0.0160461
621.812	0.0160187
621.890	0.0159710
621.968	0.0160262
622.046	0.0159689
622.124	0.0161257
622.203	0.0160700
622.281	0.0160822
622.359	0.0159390
622.437	0.0160640
622.515	0.0160576
622.593	0.0159592
622.671	0.0160201
622.749	0.0161546
622.828	0.0160930
622.906	0.0160190
622.984	0.0159688
623.062	0.0160038
623.140	0.0160974
623.218	0.0161067
623.296	0.0160281
623.374	0.0159087
623.453	0.0159027
623.531	0.0160387
623.609	0.0159750
623.687	0.0161143
623.765	0.0161082
623.843	0.0160922
623.921	0.0161018
623.999	0.0158101
624.078	0.0158985
624.156	0.0160891
624.234	0.0159751
624.312	0.0160411
624.390	0.0161121
624.468	0.0161376
624.546	0.0159335
624.624	0.0159375
624.703	0.0161060
624.781	0.0161047
624.859	0.0159486
624.937	0.0161024
625.015	0.0161021
625.093	0.0160740
625.171	0.0159611
625.249	0.0160434
625.328	0.0159913
625.406	0.0159450
625.484	0.0161567
625.562	0.0161977
625.640	0.0159502
625.718	0.0159888
625.796	0.0160320
625.874	0.0160400
625.953	0.0160171
626.031	0.0159803
626.109	0.0160474
626.187	0.0161514
626.265	0.0159614
626.343	0.0160873
626.421	0.0161871
626.499	0.0159395
626.578	0.0159101
626.656	0.0160673
626.734	0.0160987
626.812	0.0160143
626.890	0.0161282
626.968	0.0159235
627.046	0.0159912
627.124	0.0158827
627.203	0.0160017
627.281	0.0160316
627.359	0.0160677
627.437	0.0159584
627.515	0.0159479
627.593	0.0160554
627.671	0.0160793
627.749	0.0160214
627.828	0.0161199
627.906	0.0160680
627.984	0.0159311
628.062	0.0160794
628.140	0.0162181
628.218	0.0159688
628.296	0.0160475
628.374	0.0159189
628.453	0.0159396
628.531	0.0160679
628.609	0.0160714
628.687	0.0160745
628.765	0.0160810
628.843	0.0160526
628.921	0.0159911
628.999	0.0160745
629.078	0.0162222
629.156	0.0159972
629.234	0.0159860
629.312	0.0161472
629.390	0.0161526
629.468	0.0160413
629.546	0.0160054
629.624	0.0160889
629.703	0.0159929
629.781	0.0160168
629.859	0.0160760
629.937	0.0159830
630.015	0.0161228
630.093	0.0160159
630.171	0.0161025
630.249	0.0160390
630.328	0.0160551
630.406	0.0159939
630.484	0.0159572
630.562	0.0160059
630.640	0.0161369
630.718	0.0160954
630.796	0.0161406
630.874	0.0160428
630.953	0.0159415
631.031	0.0160683
631.109	0.0159896
631.187	0.0161817
631.265	0.0160087
631.343	0.0161734
631.421	0.0161214
631.499	0.0160562
631.578	0.0160193
631.656	0.0161402
631.734	0.0161813
631.812	0.0160947
631.890	0.0161958
631.968	0.0160833
632.046	0.0160958
632.124	0.0159903
632.203	0.0160907
632.281	0.0159219
632.359	0.0161651
632.437	0.0160661
632.515	0.0161094
632.593	0.0161340
632.671	0.0160920
632.749	0.0161102
632.828	0.0160181
632.906	0.0159840
632.984	0.0160253
633.062	0.0160854
633.140	0.0161476
633.218	0.0161907
633.296	0.0160616
633.374	0.0160960
633.453	0.0162064
633.531	0.0160174
633.609	0.0160538
633.687	0.0160532
633.765	0.0160043
633.843	0.0160037
633.921	0.0159926
633.999	0.0160715
634.078	0.0161120
634.156	0.0159778
634.234	0.0161066
634.312	0.0161462
634.390	0.0162810
634.468	0.0161000
634.546	0.0159420
634.624	0.0160941
634.703	0.0159516
634.781	0.0160544
634.859	0.0161603
634.937	0.0160862
635.015	0.0161469
635.093	0.0161710
635.171	0.0161240
635.249	0.0159374
635.328	0.0160115
635.406	0.0160676
635.484	0.0161349
635.562	0.0161257
635.640	0.0161035
635.718	0.0160205
635.796	0.0158913
635.874	0.0160435
635.953	0.0161440
636.031	0.0161395
636.109	0.0161118
636.187	0.0159427
636.265	0.0159517
636.343	0.0160052
636.421	0.0160109
636.499	0.0160334
636.578	0.0160135
636.656	0.0159977
636.734	0.0159829
636.812	0.0160212
636.890	0.0159713
636.968	0.0159825
637.046	0.0160126
637.124	0.0161213
637.203	0.0161057
637.281	0.0161406
637.359	0.0161615
637.437	0.0159861
637.515	0.0161420
637.593	0.0159819
637.671	0.0160613
637.749	0.0160136
637.828	0.0160564
637.906	0.0162041
637.984	0.0161255
638.062	0.0159438
638.140	0.0159930
638.218	0.0161703
638.296	0.0160919
638.374	0.0159226
638.453	0.0160613
638.531	0.0160603
638.609	0.0159610
638.687	0.0161105
638.765	0.0160742
638.843	0.0159542
638.921	0.0158968
638.999	0.0160572
639.078	0.0162238
639.156	0.0160583
639.234	0.0159372
639.312	0.0160870
639.390	0.0161031
639.468	0.0160805
639.546	0.0160002
639.624	0.0160403
639.703	0.0160345
639.781	0.0158472
639.859	0.0160754
639.937	0.0159894
640.015	0.0160184
640.093	0.0160034
640.171	0.0160992
640.249	0.0160589
640.328	0.0160246
640.406	0.0159606
640.484	0.0161041
640.562	0.0160107
640.640	0.0161620
640.718	0.0161123
640.796	0.0159729
640.874	0.0160713
640.953	0.0160058
641.031	0.0160537
641.109	0.0158899
641.187	0.0159280
641.265	0.0160265
641.343	0.0160603
641.421	0.0160535
641.499	0.0159041
641.578	0.0158832
641.656	0.0160136
641.734	0.0159274
641.812	0.0160402
641.890	0.0160690
641.968	0.0159243
642.046	0.0160454
642.124	0.0160438
642.203	0.0158614
642.281	0.0160388
642.359	0.0160013
642.437	0.0159259
642.515	0.0160532
642.593	0.0159834
642.671	0.0160684
642.749	0.0160802
642.828	0.0160058
642.906	0.0159252
642.984	0.0159376
643.062	0.0161157
643.140	0.0160838
643.218	0.0160595
643.296	0.0161069
643.374	0.0159436
643.453	0.0160182
643.531	0.0160117
643.609	0.0158058
643.687	0.0159792
643.765	0.0160234
643.843	0.0159589
643.921	0.0159823
643.999	0.0159321
644.078	0.0158994
644.156	0.0160445
644.234	0.0159422
644.312	0.0159383
644.390	0.0159893
644.468	0.0159252
644.546	0.0158739
644.624	0.0159572
644.703	0.0158806
644.781	0.0158893
644.859	0.0159293
644.937	0.0160743
645.015	0.0160891
645.093	0.0159589
645.171	0.0159914
645.249	0.0160756
645.328	0.0158600
645.406	0.0160188
645.484	0.0159911
645.562	0.0158537
645.640	0.0158409
645.718	0.0160712
645.796	0.0159849
645.874	0.0159972
645.953	0.0159084
646.031	0.0159884
646.109	0.0158878
646.187	0.0159843
646.265	0.0158920
646.343	0.0159701
646.421	0.0160172
646.499	0.0159802
646.578	0.0160332
646.656	0.0160091
646.734	0.0159753
646.812	0.0159344
646.890	0.0159945
646.968	0.0160696
647.046	0.0160403
647.124	0.0160438
647.203	0.0160396
647.281	0.0159825
647.359	0.0161589
647.437	0.0159029
647.515	0.0159866
647.593	0.0160184
647.671	0.0161725
647.749	0.0159859
647.828	0.0158867
647.906	0.0161031
647.984	0.0160728
648.062	0.0161941
648.140	0.0161721
648.218	0.0160197
648.296	0.0160434
648.374	0.0160294
648.453	0.0159900
648.531	0.0160012
648.609	0.0161166
648.687	0.0160903
648.765	0.0160516
648.843	0.0161464
648.921	0.0160095
648.999	0.0160031
649.078	0.0159636
649.156	0.0159348
649.234	0.0161831
649.312	0.0161499
649.390	0.0160505
649.468	0.0160101
649.546	0.0160162
649.624	0.0160775
649.703	0.0160715
649.781	0.0160679
649.859	0.0160689
649.937	0.0159965
650.015	0.0161228
650.093	0.0161062
650.171	0.0160299
650.249	0.0160243
650.328	0.0158879
650.406	0.0160735
650.484	0.0160889
650.562	0.0159332
650.640	0.0158863
650.718	0.0160317
650.796	0.0160372
650.874	0.0160991
650.953	0.0159608
651.031	0.0160596
651.109	0.0161334
651.187	0.0160978
651.265	0.0160355
651.343	0.0160342
651.421	0.0160618
651.499	0.0161954
651.578	0.0159701
651.656	0.0159756
651.734	0.0160632
651.812	0.0160200
651.890	0.0160363
651.968	0.0160289
652.046	0.0161873
652.124	0.0160106
652.203	0.0161341
652.281	0.0161341
652.359	0.0159975
652.437	0.0159402
652.515	0.0160481
652.593	0.0160844
652.671	0.0159632
652.749	0.0160065
652.828	0.0160722
652.906	0.0159843
652.984	0.0159917
653.062	0.0161752
653.140	0.0160737
653.218	0.0161017
653.296	0.0160204
653.374	0.0161133
653.453	0.0160153
653.531	0.0159426
653.609	0.0159391
653.687	0.0159980
653.765	0.0161391
653.843	0.0160612
653.921	0.0160294
653.999	0.0161333
654.078	0.0159458
654.156	0.0159512
654.234	0.0160684
654.312	0.0159810
654.390	0.0159856
654.468	0.0161030
654.546	0.0158706
654.624	0.0160610
654.703	0.0161572
654.781	0.0160392
654.859	0.0159812
654.937	0.0160684
655.015	0.0160506
655.093	0.0160551
655.171	0.0158518
655.249	0.0160966
655.328	0.0163147
655.406	0.0160728
655.484	0.0160499
655.562	0.0161096
655.640	0.0159666
655.718	0.0159650
655.796	0.0160041
655.874	0.0160826
655.953	0.0161634
656.031	0.0159801
656.109	0.0160458
656.187	0.0160757
656.265	0.0158878
656.343	0.0160796
656.421	0.0161193
656.499	0.0159997
656.578	0.0159972
656.656	0.0161018
656.734	0.0160538
656.812	0.0160314
656.890	0.0161317
656.968	0.0160112
657.046	0.0161919
657.124	0.0161275
657.203	0.0161629
657.281	0.0161287
657.359	0.0160223
657.437	0.0161929
657.515	0.0160124
657.593	0.0160147
657.671	0.0159760
657.749	0.0162090
657.828	0.0161382
657.906	0.0160732
657.984	0.0160535
658.062	0.0160629
658.140	0.0159989
658.218	0.0160863
658.296	0.0159684
658.374	0.0160117
658.453	0.0161658
658.531	0.0160322
658.609	0.0160406
658.687	0.0161342
658.765	0.0159956
658.843	0.0160501
658.921	0.0160088
658.999	0.0160625
659.078	0.0159956
659.156	0.0161066
659.234	0.0161909
659.312	0.0162366
659.390	0.0159868
659.468	0.0161180
659.546	0.0160923
659.624	0.0160378
659.703	0.0159840
659.781	0.0159875
659.859	0.0160390
659.937	0.0159208
660.015	0.0159869
660.093	0.0161143
660.171	0.0160625
660.249	0.0161036
660.328	0.0160285
660.406	0.0159532
660.484	0.0160267
660.562	0.0160555
660.640	0.0160287
660.718	0.0159949
660.796	0.0161021
660.874	0.0161030
660.953	0.0160658
661.031	0.0160318
661.109	0.0160486
661.187	0.0159310
661.265	0.0160465
661.343	0.0159664
661.421	0.0160363
661.499	0.0160910
661.578	0.0159306
661.656	0.0160446
661.734	0.0161834
661.812	0.0160990
661.890	0.0159744
661.968	0.0160574
662.046	0.0159699
662.124	0.0159952
662.203	0.0159338
662.281	0.0160008
662.359	0.0160573
662.437	0.0159244
662.515	0.0160575
662.593	0.0161473
662.671	0.0159440
662.749	0.0160857
662.828	0.0158957
662.906	0.0160117
662.984	0.0159012
663.062	0.0161880
663.140	0.0160028
663.218	0.0159705
663.296	0.0159692
663.374	0.0159327
663.453	0.0160307
663.531	0.0160526
663.609	0.0159821
663.687	0.0160846
663.765	0.0160312
663.843	0.0159557
663.921	0.0159295
663.999	0.0159348
664.078	0.0160176
664.156	0.0161301
664.234	0.0159784
664.312	0.0159170
664.390	0.0159655
664.468	0.0159995
664.546	0.0159051
664.624	0.0159078
664.703	0.0160233
664.781	0.0158479
664.859	0.0159941
664.937	0.0160192
665.015	0.0159657
665.093	0.0159669
665.171	0.0160618
665.249	0.0160047
665.328	0.0160793
665.406	0.0161446
665.484	0.0160123
665.562	0.0160316
665.640	0.0160124
665.718	0.0159780
665.796	0.0160040
665.874	0.0160174
665.953	0.0160170
666.031	0.0159333
666.109	0.0159841
666.187	0.0160223
666.265	0.0158266
666.343	0.0159144
666.421	0.0160688
666.499	0.0159406
666.578	0.0159627
666.656	0.0160703
666.734	0.0159431
666.812	0.0159418
666.890	0.0159327
666.968	0.0159359
667.046	0.0158951
667.124	0.0160389
667.203	0.0159863
667.281	0.0160011
667.359	0.0159498
667.437	0.0158851
667.515	0.0160225
667.593	0.0158828
667.671	0.0159446
667.749	0.0161028
667.828	0.0159899
667.906	0.0159028
667.984	0.0160522
668.062	0.0159357
668.140	0.0159931
668.218	0.0159714
668.296	0.0159917
668.374	0.0160522
668.453	0.0160104
668.531	0.0158904
668.609	0.0160003
668.687	0.0159541
668.765	0.0158363
668.843	0.0160155
668.921	0.0160089
668.999	0.0159571
669.078	0.0159688
669.156	0.0160290
669.234	0.0160954
669.312	0.0159871
669.390	0.0159810
669.468	0.0160581
669.546	0.0160228
669.624	0.0158662
669.703	0.0159258
669.781	0.0160013
669.859	0.0160845
669.937	0.0160192
670.015	0.0159780
670.093	0.0159249
670.171	0.0160058
670.249	0.0160207
670.328	0.0160385
670.406	0.0159931
670.484	0.0159911
670.562	0.0159529
670.640	0.0160242
670.718	0.0159770
670.796	0.0159402
670.874	0.0160982
670.953	0.0161417
671.031	0.0161179
671.109	0.0160728
671.187	0.0160015
671.265	0.0160883
671.343	0.0161614
671.421	0.0161543
671.499	0.0160960
671.578	0.0160640
671.656	0.0159760
671.734	0.0160701
671.812	0.0161667
671.890	0.0161114
671.968	0.0160214
672.046	0.0160336
672.124	0.0161761
672.203	0.0160016
672.281	0.0160840
672.359	0.0161455
672.437	0.0159304
672.515	0.0160228
672.593	0.0159380
672.671	0.0159969
672.749	0.0161295
672.828	0.0161954
672.906	0.0158815
672.984	0.0159985
673.062	0.0161012
673.140	0.0160442
673.218	0.0162257
673.296	0.0161563
673.374	0.0160770
673.453	0.0161953
673.531	0.0160443
673.609	0.0159403
673.687	0.0160657
673.765	0.0160318
673.843	0.0160456
673.921	0.0160761
673.999	0.0160509
674.078	0.0159441
674.156	0.0159201
674.234	0.0159099
674.312	0.0159966
674.390	0.0161108
674.468	0.0160099
674.546	0.0160753
674.624	0.0159821
674.703	0.0161385
674.781	0.0160369
674.859	0.0159041
674.937	0.0159859
675.015	0.0160220
675.093	0.0159798
675.171	0.0159952
675.249	0.0159708
675.328	0.0160931
675.406	0.0160558
675.484	0.0159616
675.562	0.0159357
675.640	0.0159631
675.718	0.0160046
675.796	0.0159972
675.874	0.0160104
675.953	0.0160203
676.031	0.0159504
676.109	0.0160027
676.187	0.0161154
676.265	0.0160317
676.343	0.0160232
676.421	0.0160878
676.499	0.0160490
676.578	0.0159441
676.656	0.0160332
676.734	0.0159759
676.812	0.0159673
676.890	0.0159821
676.968	0.0159148
677.046	0.0160339
677.124	0.0158414
677.203	0.0160815
677.281	0.0159447
677.359	0.0159196
677.437	0.0160764
677.515	0.0159698
677.593	0.0161073
677.671	0.0160961
677.749	0.0160668
677.828	0.0160373
677.906	0.0161147
677.984	0.0160448
678.062	0.0160818
678.140	0.0160117
678.218	0.0159900
678.296	0.0160458
678.374	0.0159736
678.453	0.0159251
678.531	0.0160571
678.609	0.0160575
678.687	0.0160333
678.765	0.0160625
678.843	0.0160596
678.921	0.0160174
678.999	0.0160947
679.078	0.0160580
679.156	0.0161082
679.234	0.0160628
679.312	0.0161304
679.390	0.0161715
679.468	0.0159425
679.546	0.0161357
679.624	0.0160942
679.703	0.0160648
679.781	0.0160890
679.859	0.0159698
679.937	0.0161532
680.015	0.0161151
680.093	0.0160533
680.171	0.0160957
680.249	0.0160114
680.328	0.0159436
680.406	0.0160409
680.484	0.0160504
680.562	0.0161652
680.640	0.0160725
680.718	0.0160524
680.796	0.0160864
680.874	0.0160852
680.953	0.0159956
681.031	0.0162405
681.109	0.0159856
681.187	0.0160670
681.265	0.0160867
681.343	0.0159798
681.421	0.0161207
681.499	0.0159983
681.578	0.0160177
681.656	0.0160979
681.734	0.0160393
681.812	0.0160982
681.890	0.0160820
681.968	0.0160746
682.046	0.0161159
682.124	0.0160879
682.203	0.0159270
682.281	0.0161298
682.359	0.0159894
682.437	0.0160385
682.515	0.0159543
682.593	0.0159688
682.671	0.0160957
682.749	0.0159994
682.828	0.0160239
682.906	0.0161151
682.984	0.0159982
683.062	0.0160802
683.140	0.0160314
683.218	0.0159442
683.296	0.0159071
683.374	0.0161584
683.453	0.0159996
683.531	0.0159922
683.609	0.0160355
683.687	0.0160054
683.765	0.0160173
683.843	0.0159463
683.921	0.0159473
683.999	0.0160839
684.078	0.0161248
684.156	0.0158752
684.234	0.0161840
684.312	0.0160600
684.390	0.0159810
684.468	0.0161334
684.546	0.0159382
684.624	0.0159872
684.703	0.0161794
684.781	0.0160046
684.859	0.0160043
684.937	0.0159961
685.015	0.0160181
685.093	0.0160934
685.171	0.0159790
685.249	0.0161407
685.328	0.0160340
685.406	0.0160744
685.484	0.0159430
685.562	0.0159720
685.640	0.0160658
685.718	0.0160449
685.796	0.0160406
685.874	0.0160986
685.953	0.0161076
686.031	0.0158270
686.109	0.0159559
686.187	0.0160726
686.265	0.0159289
686.343	0.0159500
686.421	0.0160020
686.499	0.0160655
686.578	0.0160744
686.656	0.0159652
686.734	0.0158990
686.812	0.0160629
686.890	0.0160211
686.968	0.0160218
687.046	0.0160541
687.124	0.0159595
687.203	0.0160554
687.281	0.0160845
687.359	0.0159678
687.437	0.0159603
687.515	0.0159707
687.593	0.0162495
687.671	0.0160230
687.749	0.0161053
687.828	0.0160889
687.906	0.0159683
687.984	0.0159290
688.062	0.0159499
688.140	0.0161093
688.218	0.0159991
688.296	0.0160210
688.374	0.0161629
688.453	0.0160236
688.531	0.0159343
688.609	0.0160631
688.687	0.0160553
688.765	0.0160087
688.843	0.0161455
688.921	0.0159917
688.999	0.0160428
689.078	0.0160026
689.156	0.0160483
689.234	0.0161673
689.312	0.0161531
689.390	0.0159213
689.468	0.0161800
689.546	0.0161773
689.624	0.0160353
689.703	0.0160620
689.781	0.0159790
689.859	0.0160703
689.937	0.0160872
690.015	0.0161511
690.093	0.0161204
690.171	0.0161569
690.249	0.0159307
690.328	0.0160551
690.406	0.0160367
690.484	0.0162411
690.562	0.0161598
690.640	0.0160686
690.718	0.0160373
690.796	0.0160895
690.874	0.0160923
690.953	0.0160121
691.031	0.0160082
691.109	0.0160551
691.187	0.0159999
691.265	0.0160721
691.343	0.0160873
691.421	0.0158994
691.499	0.0161076
691.578	0.0161700
691.656	0.0159325
691.734	0.0159413
691.812	0.0160565
691.890	0.0160381
691.968	0.0160650
692.046	0.0161306
692.124	0.0160775
692.203	0.0161517
692.281	0.0159483
692.359	0.0160006
692.437	0.0160088
692.515	0.0159522
692.593	0.0160007
692.671	0.0159927
692.749	0.0160924
692.828	0.0162210
692.906	0.0158570
692.984	0.0160667
693.062	0.0162396
693.140	0.0161126
693.218	0.0161237
693.296	0.0160391
693.374	0.0161591
693.453	0.0160104
693.531	0.0159341
693.609	0.0160921
693.687	0.0160664
693.765	0.0160355
693.843	0.0160249
693.921	0.0160658
693.999	0.0161446
694.078	0.0161482
694.156	0.0160888
694.234	0.0161226
694.312	0.0160485
694.390	0.0160777
694.468	0.0162043
694.546	0.0160099
694.624	0.0161363
694.703	0.0160255
694.781	0.0159987
694.859	0.0160075
694.937	0.0161304
695.015	0.0160336
695.093	0.0160785
695.171	0.0159348
695.249	0.0160525
695.328	0.0160238
695.406	0.0160950
695.484	0.0161144
695.562	0.0159880
695.640	0.0159986
695.718	0.0159657
695.796	0.0161163
695.874	0.0160115
695.953	0.0159985
696.031	0.0160598
696.109	0.0159554
696.187	0.0159552
696.265	0.0159716
696.343	0.0160183
696.421	0.0160303
696.499	0.0158871
696.578	0.0161053
696.656	0.0161024
696.734	0.0159863
696.812	0.0159389
696.890	0.0159878
696.968	0.0159165
697.046	0.0159322
697.124	0.0160814
697.203	0.0160919
697.281	0.0160146
697.359	0.0160111
697.437	0.0160775
697.515	0.0159451
697.593	0.0161567
697.671	0.0161214
697.749	0.0159708
697.828	0.0160395
697.906	0.0159796
697.984	0.0161310
698.062	0.0160003
698.140	0.0160447
698.218	0.0160603
698.296	0.0161842
698.374	0.0161456
698.453	0.0159138
698.531	0.0160259
698.609	0.0161470
698.687	0.0160969
698.765	0.0160674
698.843	0.0159994
698.921	0.0160696
698.999	0.0160414
699.078	0.0161042
699.156	0.0159840
699.234	0.0160125
699.312	0.0161113
699.390	0.0160850
699.468	0.0159355
699.546	0.0158389
699.624	0.0159296
699.703	0.0161025
699.781	0.0159562
699.859	0.0159715
699.937	0.0159582
700.015	0.0160616
700.093	0.0161393
700.171	0.0160806
700.249	0.0161475
700.328	0.0161029
700.406	0.0160622
700.484	0.0160632
700.562	0.0160965
700.640	0.0161012
700.718	0.0161340
700.796	0.0161150
700.874	0.0162346
700.953	0.0161682
701.031	0.0162164
701.109	0.0161872
701.187	0.0162021
701.265	0.0159881
701.343	0.0162460
701.421	0.0161541
701.499	0.0161620
701.578	0.0161236
701.656	0.0160570
701.734	0.0161442
701.812	0.0161382
701.890	0.0160927
701.968	0.0161414
702.046	0.0161513
702.124	0.0161214
702.203	0.0162497
702.281	0.0161185
702.359	0.0160057
702.437	0.0161449
702.515	0.0160394
702.593	0.0161398
702.671	0.0161794
702.749	0.0161623
702.828	0.0161801
702.906	0.0159573
702.984	0.0162207
703.062	0.0161523
703.140	0.0160631
703.218	0.0159872
703.296	0.0161206
703.374	0.0159969
703.453	0.0160577
703.531	0.0159278
703.609	0.0160426
703.687	0.0160090
703.765	0.0159865
703.843	0.0160651
703.921	0.0160609
703.999	0.0161453
704.078	0.0162332
704.156	0.0160435
704.234	0.0159251
704.312	0.0162080
704.390	0.0161206
704.468	0.0160189
704.546	0.0160294
704.624	0.0161205
704.703	0.0161643
704.781	0.0160654
704.859	0.0161438
704.937	0.0161622
705.015	0.0161346
705.093	0.0161206
705.171	0.0162387
705.249	0.0161533
705.328	0.0161148
705.406	0.0160126
705.484	0.0161744
705.562	0.0160187
705.640	0.0160844
705.718	0.0160612
705.796	0.0159859
705.874	0.0160964
705.953	0.0161024
706.031	0.0160628
706.109	0.0159505
706.187	0.0159754
706.265	0.0160702
706.343	0.0159379
706.421	0.0159917
706.499	0.0160098
706.578	0.0160470
706.656	0.0160448
706.734	0.0158861
706.812	0.0159859
706.890	0.0159225
706.968	0.0160034
707.046	0.0159893
707.124	0.0159046
707.203	0.0160151
707.281	0.0158754
707.359	0.0160135
707.437	0.0159380
707.515	0.0160613
707.593	0.0159779
707.671	0.0158878
707.749	0.0159718
707.828	0.0160297
707.906	0.0158820
707.984	0.0160397
708.062	0.0159435
708.140	0.0159225
708.218	0.0161326
708.296	0.0160229
708.374	0.0159799
708.453	0.0160822
708.531	0.0162175
708.609	0.0160860
708.687	0.0160500
708.765	0.0161116
708.843	0.0160161
708.921	0.0161832
708.999	0.0161360
709.078	0.0159942
709.156	0.0161740
709.234	0.0161086
709.312	0.0161281
709.390	0.0159842
709.468	0.0160836
709.546	0.0162614
709.624	0.0161531
709.703	0.0161766
709.781	0.0160905
709.859	0.0160199
709.937	0.0161493
710.015	0.0160576
710.093	0.0159795
710.171	0.0161063
710.249	0.0160288
710.328	0.0159637
710.406	0.0161162
710.484	0.0160026
710.562	0.0160395
710.640	0.0160093
710.718	0.0159766
710.796	0.0160561
710.874	0.0159803
710.953	0.0161761
711.031	0.0161029
711.109	0.0159406
711.187	0.0161530
711.265	0.0161775
711.343	0.0160711
711.421	0.0159206
711.499	0.0160748
711.578	0.0161011
711.656	0.0161652
711.734	0.0160748
711.812	0.0160358
711.890	0.0160342
711.968	0.0160714
712.046	0.0160547
712.124	0.0160876
712.203	0.0160125
712.281	0.0160580
712.359	0.0162164
712.437	0.0161369
712.515	0.0160928
712.593	0.0159707
712.671	0.0160590
712.749	0.0160751
712.828	0.0160484
712.906	0.0159426
712.984	0.0160354
713.062	0.0161660
713.140	0.0160726
713.218	0.0159430
713.296	0.0158878
713.374	0.0162189
713.453	0.0160506
713.531	0.0161021
713.609	0.0160666
713.687	0.0161954
713.765	0.0160867
713.843	0.0160024
713.921	0.0161781
713.999	0.0160384
714.078	0.0159011
714.156	0.0161033
714.234	0.0159624
714.312	0.0159737
714.390	0.0160030
714.468	0.0160344
714.546	0.0160612
714.624	0.0159538
714.703	0.0161048
714.781	0.0160205
714.859	0.0160149
714.937	0.0160312
715.015	0.0159053
715.093	0.0159600
715.171	0.0158469
715.249	0.0159499
715.328	0.0158647
715.406	0.0158324
715.484	0.0159409
715.562	0.0159017
715.640	0.0159419
715.718	0.0161872
715.796	0.0158539
715.874	0.0160640
715.953	0.0160383
716.031	0.0159718
716.109	0.0161439
716.187	0.0161268
716.265	0.0161203
716.343	0.0162255
716.421	0.0160900
716.499	0.0161609
716.578	0.0162418
716.656	0.0162171
716.734	0.0161557
716.812	0.0159540
716.890	0.0159943
716.968	0.0160256
717.046	0.0158199
717.124	0.0159377
717.203	0.0157658
717.281	0.0159060
717.359	0.0159502
717.437	0.0158955
717.515	0.0158995
717.593	0.0157272
717.671	0.0159859
717.749	0.0159579
717.828	0.0159711
717.906	0.0159283
717.984	0.0159093
718.062	0.0161173
718.140	0.0161400
718.218	0.0160014
718.296	0.0160187
718.374	0.0161049
718.453	0.0160123
718.531	0.0161496
718.609	0.0160544
718.687	0.0161336
718.765	0.0161703
718.843	0.0160623
718.921	0.0160439
718.999	0.0161334
719.078	0.0161156
719.156	0.0161026
719.234	0.0159463
719.312	0.0159380
719.390	0.0160178
719.468	0.0160007
719.546	0.0158293
719.624	0.0158749
719.703	0.0158166
719.781	0.0159366
719.859	0.0159312
719.937	0.0159147
720.015	0.0159843
720.093	0.0159133
720.171	0.0159083
720.249	0.0160903
720.328	0.0159869
720.406	0.0160329
720.484	0.0161121
720.562	0.0161508
720.640	0.0161789
720.718	0.0161294
720.796	0.0162167
720.874	0.0160626
720.953	0.0161849
721.031	0.0161705
721.109	0.0160485
721.187	0.0160653
721.265	0.0161095
721.343	0.0160110
721.421	0.0160007
721.499	0.0160851
721.578	0.0160627
721.656	0.0160854
721.734	0.0159936
721.812	0.0159473
721.890	0.0159866
721.968	0.0159388
722.046	0.0159198
722.124	0.0160827
722.203	0.0159030
722.281	0.0161362
722.359	0.0160184
722.437	0.0160760
722.515	0.0160159
722.593	0.0159705
722.671	0.0159846
722.749	0.0160339
722.828	0.0159784
722.906	0.0160116
722.984	0.0160696
723.062	0.0160310
723.140	0.0161744
723.218	0.0159481
723.296	0.0159934
723.374	0.0160213
723.453	0.0160536
723.531	0.0161105
723.609	0.0160159
723.687	0.0162866
723.765	0.0161749
723.843	0.0160501
723.921	0.0159379
723.999	0.0160827
724.078	0.0161824
724.156	0.0160155
724.234	0.0160050
724.312	0.0160100
724.390	0.0160799
724.468	0.0160762
724.546	0.0160934
724.624	0.0160848
724.703	0.0161184
724.781	0.0160000
724.859	0.0159701
724.937	0.0162480
725.015	0.0161140
725.093	0.0159738
725.171	0.0161552
725.249	0.0161172
725.328	0.0161713
725.406	0.0160420
725.484	0.0160200
725.562	0.0161481
725.640	0.0160885
725.718	0.0161606
725.796	0.0160569
725.874	0.0161040
725.953	0.0160441
726.031	0.0161716
726.109	0.0161277
726.187	0.0160763
726.265	0.0160722
726.343	0.0161253
726.421	0.0161217
726.499	0.0161041
726.578	0.0160536
726.656	0.0159841
726.734	0.0161614
726.812	0.0162485
726.890	0.0161073
726.968	0.0160674
727.046	0.0159998
727.124	0.0160682
727.203	0.0160610
727.281	0.0159881
727.359	0.0161085
727.437	0.0161559
727.515	0.0160622
727.593	0.0160212
727.671	0.0159927
727.749	0.0160535
727.828	0.0159882
727.906	0.0161140
727.984	0.0162499
728.062	0.0162032
728.140	0.0159770
728.218	0.0160612
728.296	0.0160895
728.374	0.0161805
728.453	0.0161024
728.531	0.0161008
728.609	0.0161765
728.687	0.0160162
728.765	0.0159002
728.843	0.0160732
728.921	0.0160216
728.999	0.0160142
729.078	0.0159401
729.156	0.0162470
729.234	0.0161211
729.312	0.0160226
729.390	0.0160580
729.468	0.0159957
729.546	0.0160147
729.624	0.0161263
729.703	0.0160346
729.781	0.0160839
729.859	0.0160741
729.937	0.0160086
730.015	0.0161179
730.093	0.0161060
730.171	0.0161201
730.249	0.0161047
730.328	0.0160168
730.406	0.0159929
730.484	0.0161793
730.562	0.0160146
730.640	0.0159328
730.718	0.0159448
730.796	0.0159981
730.874	0.0160224
730.953	0.0160744
731.031	0.0160162
731.109	0.0162136
731.187	0.0161481
731.265	0.0161141
731.343	0.0159612
731.421	0.0160610
731.499	0.0159470
731.578	0.0161909
731.656	0.0160612
731.734	0.0160527
731.812	0.0162447
731.890	0.0161514
731.968	0.0160498
732.046	0.0161056
732.124	0.0160631
732.203	0.0161466
732.281	0.0160115
732.359	0.0159617
732.437	0.0160796
732.515	0.0160003
732.593	0.0160691
732.671	0.0160137
732.749	0.0160286
732.828	0.0159716
732.906	0.0159965
732.984	0.0159801
733.062	0.0160179
733.140	0.0159648
733.218	0.0158668
733.296	0.0159322
733.374	0.0160325
733.453	0.0160409
733.531	0.0160453
733.609	0.0160885
733.687	0.0160587
733.765	0.0158313
733.843	0.0158643
733.921	0.0160535
733.999	0.0159689
734.078	0.0159686
734.156	0.0159335
734.234	0.0159453
734.312	0.0159390
734.390	0.0160375
734.468	0.0160764
734.546	0.0159426
734.624	0.0159851
734.703	0.0160214
734.781	0.0159837
734.859	0.0158517
734.937	0.0158698
735.015	0.0159334
735.093	0.0159933
735.171	0.0160060
735.249	0.0160413
735.328	0.0160406
735.406	0.0160407
735.484	0.0159670
735.562	0.0159637
735.640	0.0161220
735.718	0.0160163
735.796	0.0160720
735.874	0.0161148
735.953	0.0161147
736.031	0.0159581
736.109	0.0159882
736.187	0.0159705
736.265	0.0160453
736.343	0.0160846
736.421	0.0160376
736.499	0.0158815
736.578	0.0160246
736.656	0.0160356
736.734	0.0159778
736.812	0.0158508
736.890	0.0158925
736.968	0.0159609
737.046	0.0161266
737.124	0.0161083
737.203	0.0159410
737.281	0.0160445
737.359	0.0159815
737.437	0.0159981
737.515	0.0159227
737.593	0.0161714
737.671	0.0160316
737.749	0.0159814
737.828	0.0159515
737.906	0.0158648
737.984	0.0159085
738.062	0.0160808
738.140	0.0160176
738.218	0.0159286
738.296	0.0160915
738.374	0.0159656
738.453	0.0159424
738.531	0.0160071
738.609	0.0159837
738.687	0.0161414
738.765	0.0159222
738.843	0.0159734
738.921	0.0158746
738.999	0.0159601
739.078	0.0158949
739.156	0.0160070
739.234	0.0160783
739.312	0.0159915
739.390	0.0158382
739.468	0.0159278
739.546	0.0159614
739.624	0.0160442
739.703	0.0160002
739.781	0.0159521
739.859	0.0160890
739.937	0.0158804
740.015	0.0161008
740.093	0.0160428
740.171	0.0158976
740.249	0.0160831
740.328	0.0160751
740.406	0.0160712
740.484	0.0160564
740.562	0.0159712
740.640	0.0160572
740.718	0.0161053
740.796	0.0158969
740.874	0.0160586
740.953	0.0158495
741.031	0.0160121
741.109	0.0159998
741.187	0.0159786
741.265	0.0159403
741.343	0.0158604
741.421	0.0161243
741.499	0.0159696
741.578	0.0158888
741.656	0.0160495
741.734	0.0159834
741.812	0.0160167
741.890	0.0158913
741.968	0.0159327
742.046	0.0160619
742.124	0.0161327
742.203	0.0160418
742.281	0.0160130
742.359	0.0160324
742.437	0.0160460
742.515	0.0160520
742.593	0.0158847
742.671	0.0160896
742.749	0.0161200
742.828	0.0160780
742.906	0.0160849
742.984	0.0160319
743.062	0.0159818
743.140	0.0161678
743.218	0.0160846
743.296	0.0160416
743.374	0.0160740
743.453	0.0159716
743.531	0.0161184
743.609	0.0159934
743.687	0.0160220
743.765	0.0161487
743.843	0.0159865
743.921	0.0161098
743.999	0.0159778
744.078	0.0158951
744.156	0.0159907
744.234	0.0160117
744.312	0.0160697
744.390	0.0160271
744.468	0.0160677
744.546	0.0160980
744.624	0.0159921
744.703	0.0159901
744.781	0.0159460
744.859	0.0160602
744.937	0.0160801
745.015	0.0159659
745.093	0.0159835
745.171	0.0160313
745.249	0.0159526
745.328	0.0160111
745.406	0.0160699
745.484	0.0159728
745.562	0.0160078
745.640	0.0160526
745.718	0.0159348
745.796	0.0159331
745.874	0.0159943
745.953	0.0161343
746.031	0.0159624
746.109	0.0160827
746.187	0.0159915
746.265	0.0160975
746.343	0.0160554
746.421	0.0160113
746.499	0.0159745
746.578	0.0159426
746.656	0.0159384
746.734	0.0159272
746.812	0.0160519
746.890	0.0160450
746.968	0.0160551
747.046	0.0161046
747.124	0.0161001
747.203	0.0159612
747.281	0.0159709
747.359	0.0160413
747.437	0.0161985
747.515	0.0161557
747.593	0.0161030
747.671	0.0161304
747.749	0.0160724
747.828	0.0160710
747.906	0.0160435
747.984	0.0159697
748.062	0.0162109
748.140	0.0160590
748.218	0.0160950
748.296	0.0161355
748.374	0.0160831
748.453	0.0161485
748.531	0.0160653
748.609	0.0159554
748.687	0.0159725
748.765	0.0160331
748.843	0.0159296
748.921	0.0160730
748.999	0.0160535
749.078	0.0160474
749.156	0.0159835
749.234	0.0159789
749.312	0.0162070
749.390	0.0161711
749.468	0.0159745
749.546	0.0160922
749.624	0.0161073
749.703	0.0160486
749.781	0.0161554
749.859	0.0160776
749.937	0.0161636
750.015	0.0159941
750.093	0.0159373
750.171	0.0161254
750.249	0.0161578
750.328	0.0160601
750.406	0.0160196
750.484	0.0160201
750.562	0.0162225
750.640	0.0159303
750.718	0.0159720
750.796	0.0160086
750.874	0.0159227
750.953	0.0160877
751.031	0.0161182
751.109	0.0161364
751.187	0.0160856
751.265	0.0159089
751.343	0.0160902
751.421	0.0160437
751.499	0.0160140
751.578	0.0159854
751.656	0.0161822
751.734	0.0159739
751.812	0.0160458
751.890	0.0160245
751.968	0.0160484
752.046	0.0161854
752.124	0.0161354
752.203	0.0161292
752.281	0.0160503
752.359	0.0160236
752.437	0.0159999
752.515	0.0159131
752.593	0.0161317
752.671	0.0160479
752.749	0.0161017
752.828	0.0160574
752.906	0.0160841
752.984	0.0159697
753.062	0.0159190
753.140	0.0160076
753.218	0.0161000
753.296	0.0160265
753.374	0.0160040
753.453	0.0159216
753.531	0.0159206
753.609	0.0158829
753.687	0.0159528
753.765	0.0160370
753.843	0.0159140
753.921	0.0158059
753.999	0.0159328
754.078	0.0159328
754.156	0.0158105
754.234	0.0159921
754.312	0.0158846
754.390	0.0160937
754.468	0.0158954
754.546	0.0160226
754.624	0.0159077
754.703	0.0159801
754.781	0.0159095
754.859	0.0158532
754.937	0.0160016
755.015	0.0159157
755.093	0.0159750
755.171	0.0159444
755.249	0.0160796
755.328	0.0158735
755.406	0.0159848
755.484	0.0160648
755.562	0.0160436
755.640	0.0159638
755.718	0.0161587
755.796	0.0161341
755.874	0.0160362
755.953	0.0161384
756.031	0.0162566
756.109	0.0161163
756.187	0.0161743
756.265	0.0161303
756.343	0.0161079
756.421	0.0160194
756.499	0.0160313
756.578	0.0160000
756.656	0.0158408
756.734	0.0160501
756.812	0.0159470
756.890	0.0159921
756.968	0.0159543
757.046	0.0158928
757.124	0.0161079
757.203	0.0159991
757.281	0.0160553
757.359	0.0160760
757.437	0.0159984
757.515	0.0160183
757.593	0.0159663
757.671	0.0159097
757.749	0.0158929
757.828	0.0160405
757.906	0.0159839
757.984	0.0158944
758.062	0.0160648
758.140	0.0159857
758.218	0.0160800
758.296	0.0161201
758.374	0.0162247
758.453	0.0160316
758.531	0.0160959
758.609	0.0160902
758.687	0.0161687
758.765	0.0161407
758.843	0.0161610
758.921	0.0162090
758.999	0.0161382
759.078	0.0159898
759.156	0.0160394
759.234	0.0161162
759.312	0.0159641
759.390	0.0159749
759.468	0.0161036
759.546	0.0159836
759.624	0.0159959
759.703	0.0160174
759.781	0.0159428
759.859	0.0159592
759.937	0.0159457
760.015	0.0158324
760.093	0.0158823
760.171	0.0160963
760.249	0.0157683
760.328	0.0158605
760.406	0.0159760
760.484	0.0159068
760.562	0.0158391
760.640	0.0158874
760.718	0.0161285
760.796	0.0161575
760.874	0.0162537
760.953	0.0162183
761.031	0.0160041
761.109	0.0162336
761.187	0.0161861
761.265	0.0163264
761.343	0.0163245
761.421	0.0164278
761.499	0.0163835
761.578	0.0164482
761.656	0.0163118
761.734	0.0163592
761.812	0.0162837
761.890	0.0162907
761.968	0.0161492
762.046	0.0160505
762.124	0.0162736
762.203	0.0161066
762.281	0.0161259
762.359	0.0161401
762.437	0.0159953
762.515	0.0159633
762.593	0.0159676
762.671	0.0159196
762.749	0.0158984
762.828	0.0158662
762.906	0.0159624
762.984	0.0158287
763.062	0.0157922
763.140	0.0158956
763.218	0.0158897
763.296	0.0158620
763.374	0.0157777
763.453	0.0157721
763.531	0.0158346
763.609	0.0157793
763.687	0.0159377
763.765	0.0158784
763.843	0.0157891
763.921	0.0158031
763.999	0.0159025
764.078	0.0160137
764.156	0.0161329
764.234	0.0161780
764.312	0.0161938
764.390	0.0161726
764.468	0.0161657
764.546	0.0162669
764.624	0.0161907
764.703	0.0163099
764.781	0.0162461
764.859	0.0162209
764.937	0.0162418
765.015	0.0163222
765.093	0.0161768
765.171	0.0162119
765.249	0.0160811
765.328	0.0161990
765.406	0.0161572
765.484	0.0162112
765.562	0.0161618
765.640	0.0161500
765.718	0.0161043
765.796	0.0161342
765.874	0.0161049
765.953	0.0160776
766.031	0.0160764
766.109	0.0160139
766.187	0.0159193
766.265	0.0159901
766.343	0.0159896
766.421	0.0158620
766.499	0.0159544
766.578	0.0160026
766.656	0.0158952
766.734	0.0159789
766.812	0.0157978
766.890	0.0158118
766.968	0.0158301
767.046	0.0157741
767.124	0.0156714
767.203	0.0155372
767.281	0.0155204
767.359	0.0155609
767.437	0.0155976
767.515	0.0157127
767.593	0.0156206
767.671	0.0157038
767.749	0.0156361
767.828	0.0157742
767.906	0.0159772
767.984	0.0161697
768.062	0.0160031
768.140	0.0160849
768.218	0.0161794
768.296	0.0161861
768.374	0.0162791
768.453	0.0163585
768.531	0.0162605
768.609	0.0163725
768.687	0.0163235
768.765	0.0163308
768.843	0.0163060
768.921	0.0163291
768.999	0.0162944
769.078	0.0163350
769.156	0.0162518
769.234	0.0162749
769.312	0.0161233
769.390	0.0160353
769.468	0.0162156
769.546	0.0159538
769.624	0.0160288
769.703	0.0160379
769.781	0.0158450
769.859	0.0158173
769.937	0.0158678
770.015	0.0156979
770.093	0.0156380
770.171	0.0154972
770.249	0.0154987
770.328	0.0155555
770.406	0.0156693
770.484	0.0156463
770.562	0.0156688
770.640	0.0157756
770.718	0.0157692
770.796	0.0157475
770.874	0.0157927
770.953	0.0159482
771.031	0.0160020
771.109	0.0159052
771.187	0.0159750
771.265	0.0160128
771.343	0.0162644
771.421	0.0161359
771.499	0.0162397
771.578	0.0162775
771.656	0.0162836
771.734	0.0162882
771.812	0.0164041
771.890	0.0164536
771.968	0.0162750
772.046	0.0163647
772.124	0.0162502
772.203	0.0162492
772.281	0.0164470
772.359	0.0161284
772.437	0.0162926
772.515	0.0163923
772.593	0.0163388
772.671	0.0163958
772.749	0.0162223
772.828	0.0163626
772.906	0.0162834
772.984	0.0163639
773.062	0.0163274
773.140	0.0162027
773.218	0.0159926
773.296	0.0160968
773.374	0.0160508
773.453	0.0159566
773.531	0.0160493
773.609	0.0159616
773.687	0.0160340
773.765	0.0158773
773.843	0.0159207
773.921	0.0159599
773.999	0.0159205
774.078	0.0157905
774.156	0.0158621
774.234	0.0157562
774.312	0.0157661
774.390	0.0158595
774.468	0.0156984
774.546	0.0156824
774.624	0.0157398
774.703	0.0156891
774.781	0.0156448
774.859	0.0158848
774.937	0.0158803
775.015	0.0159396
775.093	0.0159574
775.171	0.0160789
775.249	0.0159489
775.328	0.0159766
775.406	0.0160303
775.484	0.0157649
775.562	0.0160861
775.640	0.0160713
775.718	0.0160034
775.796	0.0160449
775.874	0.0160899
775.953	0.0162185
776.031	0.0162624
776.109	0.0163998
776.187	0.0164250
776.265	0.0164312
776.343	0.0166094
776.421	0.0164036
776.499	0.0165107
776.578	0.0166054
776.656	0.0165127
776.734	0.0165009
776.812	0.0164875
776.890	0.0162928
776.968	0.0161505
777.046	0.0160622
777.124	0.0160946
777.203	0.0161850
777.281	0.0160526
777.359	0.0158144
777.437	0.0158934
777.515	0.0158148
777.593	0.0157624
777.671	0.0158060
777.749	0.0157711
777.828	0.0157049
777.906	0.0157126
777.984	0.0156922
778.062	0.0157368
778.140	0.0157711
778.218	0.0158033
778.296	0.0157384
778.374	0.0157857
778.453	0.0158286
778.531	0.0156902
778.609	0.0158788
778.687	0.0157740
778.765	0.0158677
778.843	0.0158304
778.921	0.0157182
778.999	0.0159103
779.078	0.0159306
779.156	0.0157787
779.234	0.0159566
779.312	0.0158506
779.390	0.0159275
779.468	0.0160346
779.546	0.0160139
779.624	0.0161599
779.703	0.0162304
779.781	0.0161986
779.859	0.0163290
779.937	0.0164375
780.015	0.0163776
780.093	0.0165486
780.171	0.0163861
780.249	0.0163554
780.328	0.0163799
780.406	0.0162730
780.484	0.0163742
780.562	0.0162337
780.640	0.0162725
780.718	0.0162096
780.796	0.0161871
780.874	0.0160233
780.953	0.0160695
781.031	0.0160464
781.109	0.0159555
781.187	0.0160127
781.265	0.0158112
781.343	0.0157062
781.421	0.0158462
781.499	0.0155869
781.578	0.0156278
781.656	0.0156419
781.734	0.0153959
781.812	0.0154281
781.890	0.0155884
781.968	0.0156161
782.046	0.0156020
782.124	0.0156699
782.203	0.0157195
782.281	0.0157482
782.359	0.0158022
782.437	0.0158026
782.515	0.0158131
782.593	0.0160332
782.671	0.0162192
782.749	0.0162183
782.828	0.0163058
782.906	0.0162936
782.984	0.0165952
783.062	0.0166302
783.140	0.0166383
783.218	0.0166664
783.296	0.0168050
783.374	0.0167104
783.453	0.0167942
783.531	0.0169030
783.609	0.0166895
783.687	0.0167032
783.765	0.0166321
783.843	0.0164240
783.921	0.0163283
783.999	0.0162167
784.078	0.0162511
784.156	0.0158787
784.234	0.0158452
784.312	0.0158078
784.390	0.0157203
784.468	0.0154411
784.546	0.0153777
784.624	0.0153950
784.703	0.0153843
784.781	0.0151709
784.859	0.0153413
784.937	0.0152592
785.015	0.0152469
785.093	0.0153317
785.171	0.0153940
785.249	0.0155195
785.328	0.0154828
785.406	0.0156281
785.484	0.0157510
785.562	0.0157381
785.640	0.0157354
785.718	0.0158445
785.796	0.0160509
785.874	0.0160424
785.953	0.0162142
786.031	0.0162339
786.109	0.0161798
786.187	0.0163187
786.265	0.0161745
786.343	0.0162446
786.421	0.0163998
786.499	0.0163480
786.578	0.0163560
786.656	0.0163663
786.734	0.0164899
786.812	0.0164886
786.890	0.0164658
786.968	0.0165871
787.046	0.0165597
787.124	0.0166176
787.203	0.0166098
787.281	0.0166233
787.359	0.0166013
787.437	0.0164957
787.515	0.0165313
787.593	0.0164453
787.671	0.0163902
787.749	0.0162613
787.828	0.0162637
787.906	0.0160920
787.984	0.0161994
788.062	0.0160423
788.140	0.0159047
788.218	0.0158323
788.296	0.0158273
788.374	0.0156850
788.453	0.0156801
788.531	0.0156944
788.609	0.0154398
788.687	0.0154827
788.765	0.0154894
788.843	0.0153767
788.921	0.0155314
788.999	0.0154972
789.078	0.0155786
789.156	0.0154921
789.234	0.0155856
789.312	0.0156471
789.390	0.0155274
789.468	0.0157137
789.546	0.0156754
789.624	0.0156282
789.703	0.0158351
789.781	0.0158649
789.859	0.0158873
789.937	0.0159371
790.015	0.0160497
790.093	0.0161213
790.171	0.0162328
790.249	0.0162581
790.328	0.0164380
790.406	0.0163877
790.484	0.0164810
790.562	0.0164156
790.640	0.0164127
790.718	0.0164333
790.796	0.0164369
790.874	0.0164729
790.953	0.0163593
791.031	0.0163449
791.109	0.0162599
791.187	0.0161647
791.265	0.0161894
791.343	0.0160822
791.421	0.0160705
791.499	0.0159387
791.578	0.0159714
791.656	0.0158157
791.734	0.0157864
791.812	0.0157816
791.890	0.0157379
791.968	0.0159476
792.046	0.0158409
792.124	0.0158411
792.203	0.0159026
792.281	0.0159306
792.359	0.0157762
792.437	0.0158878
792.515	0.0159577
792.593	0.0158538
792.671	0.0160322
792.749	0.0160150
792.828	0.0160458
792.906	0.0160540
792.984	0.0161169
793.062	0.0161243
793.140	0.0161533
793.218	0.0161332
793.296	0.0162716
793.374	0.0162942
793.453	0.0163654
793.531	0.0164714
793.609	0.0164709
793.687	0.0163793
793.765	0.0163559
793.843	0.0163501
793.921	0.0164803
793.999	0.0166120
794.078	0.0164041
794.156	0.0163589
794.234	0.0160526
794.312	0.0161171
794.390	0.0161378
794.468	0.0159798
794.546	0.0158306
794.624	0.0158085
794.703	0.0158151
794.781	0.0157634
794.859	0.0156246
794.937	0.0156033
795.015	0.0155841
795.093	0.0155656
795.171	0.0154264
795.249	0.0154384
795.328	0.0154156
795.406	0.0154276
795.484	0.0156506
795.562	0.0156458
795.640	0.0155760
795.718	0.0155295
795.796	0.0155243
795.874	0.0156442
795.953	0.0157055
796.031	0.0157592
796.109	0.0157555
796.187	0.0158910
796.265	0.0160209
796.343	0.0161049
796.421	0.0162471
796.499	0.0163112
796.578	0.0162316
796.656	0.0164046
796.734	0.0166116
796.812	0.0165572
796.890	0.0167761
796.968	0.0167458
797.046	0.0166776
797.124	0.0168343
797.203	0.0167346
797.281	0.0166087
797.359	0.0165932
797.437	0.0166595
797.515	0.0164829
797.593	0.0165165
797.671	0.0165287
797.749	0.0162644
797.828	0.0162957
797.906	0.0163502
797.984	0.0162933
798.062	0.0163687
798.140	0.0161639
798.218	0.0161332
798.296	0.0160696
798.374	0.0160333
798.453	0.0160532
798.531	0.0160953
798.609	0.0160321
798.687	0.0159962
798.765	0.0158778
798.843	0.0156714
798.921	0.0157712
798.999	0.0155733
799.078	0.0156133
799.156	0.0154287
799.234	0.0155418
799.312	0.0153416
799.390	0.0154644
799.468	0.0154848
799.546	0.0155966
799.624	0.0155602
799.703	0.0156468
799.781	0.0156491
799.859	0.0157101
799.937	0.0155898
800.015	0.0156123
800.093	0.0156412
800.171	0.0156841
800.249	0.0157780
800.328	0.0159175
800.406	0.0158812
800.484	0.0160691
800.562	0.0158739
800.640	0.0159297
800.718	0.0161256
800.796	0.0161562
800.874	0.0160790
800.953	0.0161784
801.031	0.0162597
801.109	0.0162003
801.187	0.0163577
801.265	0.0164386
801.343	0.0162431
801.421	0.0163596
801.499	0.0164735
801.578	0.0162729
801.656	0.0163148
801.734	0.0163036
801.812	0.0162175
801.890	0.0162299
801.968	0.0163578
802.046	0.0162766
802.124	0.0164318
802.203	0.0163905
802.281	0.0163874
802.359	0.0162609
802.437	0.0163641
802.515	0.0165015
802.593	0.0162709
802.671	0.0162405
802.749	0.0164201
802.828	0.0163457
802.906	0.0161472
802.984	0.0162614
803.062	0.0162000
803.140	0.0162593
803.218	0.0162643
803.296	0.0161417
803.374	0.0160590
803.453	0.0160973
803.531	0.0160141
803.609	0.0159759
803.687	0.0159956
803.765	0.0159634
803.843	0.0157490
803.921	0.0159074
803.999	0.0158237
804.078	0.0157017
804.156	0.0158224
804.234	0.0157348
804.312	0.0157102
804.390	0.0157225
804.468	0.0156326
804.546	0.0156197
804.624	0.0155743
804.703	0.0156313
804.781	0.0157697
804.859	0.0157849
804.937	0.0156304
805.015	0.0157594
805.093	0.0155269
805.171	0.0156746
805.249	0.0156947
805.328	0.0157537
805.406	0.0157985
805.484	0.0157727
805.562	0.0158976
805.640	0.0160836
805.718	0.0160625
805.796	0.0159639
805.874	0.0160050
805.953	0.0161966
806.031	0.0161347
806.109	0.0160589
806.187	0.0160838
806.265	0.0160975
806.343	0.0160579
806.421	0.0160707
806.499	0.0161086
806.578	0.0163512
806.656	0.0162354
806.734	0.0160947
806.812	0.0161777
806.890	0.0163596
806.968	0.0163041
807.046	0.0163167
807.124	0.0163096
807.203	0.0163721
807.281	0.0166599
807.359	0.0165029
807.437	0.0164326
807.515	0.0163914
807.593	0.0164323
807.671	0.0165038
807.749	0.0164648
807.828	0.0164239
807.906	0.0163531
807.984	0.0162904
808.062	0.0163647
808.140	0.0162988
808.218	0.0161455
808.296	0.0161629
808.374	0.0160278
808.453	0.0160242
808.531	0.0159339
808.609	0.0159454
808.687	0.0158853
808.765	0.0159380
808.843	0.0160077
808.921	0.0160020
808.999	0.0159305
809.078	0.0160460
809.156	0.0160832
809.234	0.0159001
809.312	0.0160484
809.390	0.0158917
809.468	0.0158125
809.546	0.0157466
809.624	0.0155829
809.703	0.0155744
809.781	0.0155157
809.859	0.0156028
809.937	0.0154147
810.015	0.0153272
810.093	0.0154549
810.171	0.0153149
810.249	0.0152888
810.328	0.0152979
810.406	0.0153149
810.484	0.0153362
810.562	0.0152882
810.640	0.0154555
810.718	0.0154552
810.796	0.0155981
810.874	0.0155562
810.953	0.0156055
811.031	0.0157630
811.109	0.0159864
811.187	0.0160390
811.265	0.0161588
811.343	0.0162189
811.421	0.0163750
811.499	0.0163734
811.578	0.0165575
811.656	0.0166069
811.734	0.0164474
811.812	0.0166499
811.890	0.0166870
811.968	0.0167255
812.046	0.0165751
812.124	0.0167239
812.203	0.0165579
812.281	0.0165655
812.359	0.0166630
812.437	0.0166238
812.515	0.0165447
812.593	0.0163601
812.671	0.0166740
812.749	0.0163194
812.828	0.0163467
812.906	0.0162549
812.984	0.0163065
813.062	0.0160743
813.140	0.0158829
813.218	0.0158313
813.296	0.0157545
813.374	0.0155352
813.453	0.0155080
813.531	0.0155262
813.609	0.0154904
813.687	0.0152294
813.765	0.0152767
813.843	0.0152464
813.921	0.0151147
813.999	0.0152242
814.078	0.0153213
814.156	0.0152070
814.234	0.0153160
814.312	0.0154717
814.390	0.0154004
814.468	0.0156238
814.546	0.0156472
814.624	0.0157496
814.703	0.0158398
814.781	0.0158984
814.859	0.0159024
814.937	0.0158926
815.015	0.0160056
815.093	0.0160500
815.171	0.0159565
815.249	0.0160453
815.328	0.0160866
815.406	0.0160843
815.484	0.0160925
815.562	0.0161575
815.640	0.0161368
815.718	0.0161578
815.796	0.0161516
815.874	0.0161736
815.953	0.0161151
816.031	0.0160601
816.109	0.0159510
816.187	0.0159223
816.265	0.0159148
816.343	0.0159338
816.421	0.0159501
816.499	0.0159045
816.578	0.0158563
816.656	0.0158582
816.734	0.0160683
816.812	0.0160384
816.890	0.0160231
816.968	0.0160769
817.046	0.0162280
817.124	0.0161789
817.203	0.0162101
817.281	0.0164327
817.359	0.0162100
817.437	0.0162777
817.515	0.0163696
817.593	0.0163052
817.671	0.0161008
817.749	0.0162771
817.828	0.0162821
817.906	0.0162195
817.984	0.0162440
818.062	0.0161118
818.140	0.0161630
818.218	0.0160171
818.296	0.0161033
818.374	0.0159962
818.453	0.0160965
818.531	0.0159756
818.609	0.0158270
818.687	0.0158130
818.765	0.0159565
818.843	0.0158772
818.921	0.0158521
818.999	0.0157111
819.078	0.0157009
819.156	0.0156617
819.234	0.0156994
819.312	0.0157736
819.390	0.0157859
819.468	0.0156186
819.546	0.0155937
819.624	0.0158186
819.703	0.0156514
819.781	0.0158057
819.859	0.0157705
819.937	0.0158074
820.015	0.0159065
820.093	0.0159813
820.171	0.0159856
820.249	0.0161684
820.328	0.0161799
820.406	0.0160664
820.484	0.0162507
820.562	0.0162193
820.640	0.0160884
820.718	0.0162354
820.796	0.0161642
820.874	0.0161435
820.953	0.0161617
821.031	0.0161387
821.109	0.0161370
821.187	0.0161227
821.265	0.0160306
821.343	0.0159795
821.421	0.0158621
821.499	0.0159990
821.578	0.0157847
821.656	0.0158749
821.734	0.0160862
821.812	0.0160697
821.890	0.0159199
821.968	0.0159541
822.046	0.0158861
822.124	0.0160591
822.203	0.0160709
822.281	0.0161524
822.359	0.0160535
822.437	0.0162657
822.515	0.0162099
822.593	0.0161899
822.671	0.0164149
822.749	0.0164991
822.828	0.0164338
822.906	0.0165676
822.984	0.0166824
823.062	0.0165668
823.140	0.0164691
823.218	0.0165579
823.296	0.0167020
823.374	0.0163960
823.453	0.0162675
823.531	0.0162845
823.609	0.0161408
823.687	0.0159309
823.765	0.0160232
823.843	0.0157302
823.921	0.0157742
823.999	0.0156499
824.078	0.0154629
824.156	0.0153529
824.234	0.0154965
824.312	0.0153856
824.390	0.0153522
824.468	0.0153400
824.546	0.0152825
824.624	0.0154253
824.703	0.0152902
824.781	0.0153622
824.859	0.0155481
824.937	0.0155326
825.015	0.0154950
825.093	0.0156269
825.171	0.0157238
825.249	0.0158276
825.328	0.0159873
825.406	0.0159589
825.484	0.0161732
825.562	0.0162278
825.640	0.0163485
825.718	0.0162745
825.796	0.0161551
825.874	0.0164428
825.953	0.0165766
826.031	0.0165945
826.109	0.0165755
826.187	0.0166606
826.265	0.0166225
826.343	0.0165928
826.421	0.0165753
826.499	0.0165524
826.578	0.0165500
826.656	0.0165708
826.734	0.0164512
826.812	0.0164515
826.890	0.0163255
826.968	0.0162349
827.046	0.0162466
827.124	0.0160160
827.203	0.0158413
827.281	0.0159796
827.359	0.0160336
827.437	0.0159245
827.515	0.0158758
827.593	0.0157932
827.671	0.0156772
827.749	0.0156641
827.828	0.0158301
827.906	0.0157140
827.984	0.0156075
828.062	0.0155536
828.140	0.0155487
828.218	0.0156463
828.296	0.0155769
828.374	0.0156745
828.453	0.0156914
828.531	0.0158233
828.609	0.0156439
828.687	0.0157065
828.765	0.0157820
828.843	0.0158414
828.921	0.0158379
828.999	0.0159653
829.078	0.0159389
829.156	0.0160349
829.234	0.0160529
829.312	0.0159200
829.390	0.0158936
829.468	0.0159267
829.546	0.0159961
829.624	0.0160149
829.703	0.0159879
829.781	0.0160602
829.859	0.0161443
829.937	0.0160805
830.015	0.0161711
830.093	0.0162831
830.171	0.0161717
830.249	0.0162889
830.328	0.0162941
830.406	0.0162562
830.484	0.0163934
830.562	0.0163676
830.640	0.0162175
830.718	0.0162712
830.796	0.0161077
830.874	0.0161232
830.953	0.0161621
831.031	0.0159863
831.109	0.0160019
831.187	0.0160382
831.265	0.0160218
831.343	0.0159370
831.421	0.0159303
831.499	0.0159612
831.578	0.0157326
831.656	0.0158000
831.734	0.0158753
831.812	0.0158221
831.890	0.0157941
831.968	0.0157874
832.046	0.0158541
832.124	0.0157218
832.203	0.0158094
832.281	0.0159167
832.359	0.0158571
832.437	0.0157535
832.515	0.0155512
832.593	0.0157915
832.671	0.0157099
832.749	0.0156293
832.828	0.0156593
832.906	0.0157507
832.984	0.0158627
833.062	0.0158553
833.140	0.0158681
833.218	0.0158556
833.296	0.0158678
833.374	0.0159366
833.453	0.0159328
833.531	0.0160056
833.609	0.0160674
833.687	0.0160658
833.765	0.0158975
833.843	0.0161154
833.921	0.0162464
833.999	0.0161990
834.078	0.0161438
834.156	0.0161591
834.234	0.0161045
834.312	0.0161812
834.390	0.0161790
834.468	0.0160049
834.546	0.0159575
834.624	0.0159531
834.703	0.0160682
834.781	0.0159412
834.859	0.0158904
834.937	0.0158740
835.015	0.0157981
835.093	0.0158337
835.171	0.0158524
835.249	0.0158962
835.328	0.0157973
835.406	0.0157677
835.484	0.0156247
835.562	0.0157555
835.640	0.0157463
835.718	0.0155835
835.796	0.0156572
835.874	0.0157378
835.953	0.0157212
836.031	0.0157507
836.109	0.0156857
836.187	0.0157666
836.265	0.0159202
836.343	0.0157958
836.421	0.0157523
836.499	0.0159273
836.578	0.0159250
836.656	0.0159489
836.734	0.0159468
836.812	0.0160202
836.890	0.0161743
836.968	0.0161409
837.046	0.0159195
837.124	0.0161241
837.203	0.0162891
837.281	0.0162411
837.359	0.0162113
837.437	0.0162885
837.515	0.0164212
837.593	0.0162168
837.671	0.0162519
837.749	0.0160492
837.828	0.0162128
837.906	0.0160493
837.984	0.0160569
838.062	0.0160381
838.140	0.0160788
838.218	0.0160565
838.296	0.0158321
838.374	0.0157547
838.453	0.0159521
838.531	0.0158341
838.609	0.0157515
838.687	0.0157948
838.765	0.0159468
838.843	0.0158832
838.921	0.0157799
838.999	0.0158636
839.078	0.0157381
839.156	0.0158110
839.234	0.0158194
839.312	0.0157549
839.390	0.0156548
839.468	0.0157320
839.546	0.0158155
839.624	0.0159245
839.703	0.0158453
839.781	0.0158174
839.859	0.0158794
839.937	0.0157892
840.015	0.0158854
840.093	0.0159830
840.171	0.0160303
840.249	0.0161212
840.328	0.0159989
840.406	0.0160416
840.484	0.0161268
840.562	0.0161673
840.640	0.0159564
840.718	0.0161129
840.796	0.0160818
840.874	0.0161473
840.953	0.0163017
841.031	0.0161767
841.109	0.0161891
841.187	0.0163549
841.265	0.0161311
841.343	0.0159977
841.421	0.0160166
841.499	0.0162030
841.578	0.0160980
841.656	0.0161106
841.734	0.0161925
841.812	0.0161157
841.890	0.0158831
841.968	0.0159390
842.046	0.0159585
842.124	0.0159514
842.203	0.0158270
842.281	0.0158415
842.359	0.0159273
842.437	0.0158407
842.515	0.0160131
842.593	0.0158602
842.671	0.0157025
842.749	0.0158073
842.828	0.0158530
842.906	0.0159299
842.984	0.0159277
843.062	0.0158026
843.140	0.0160348
843.218	0.0160543
843.296	0.0161449
843.374	0.0160435
843.453	0.0160880
843.531	0.0160773
843.609	0.0160619
843.687	0.0161234
843.765	0.0163306
843.843	0.0163612
843.921	0.0163940
843.999	0.0164896
844.078	0.0163679
844.156	0.0164301
844.234	0.0164017
844.312	0.0164917
844.390	0.0165173
844.468	0.0164395
844.546	0.0164922
844.624	0.0163499
844.703	0.0162387
844.781	0.0162008
844.859	0.0162082
844.937	0.0162679
845.015	0.0161393
845.093	0.0161128
845.171	0.0160977
845.249	0.0160970
845.328	0.0159976
845.406	0.0159015
845.484	0.0160254
845.562	0.0160150
845.640	0.0160877
845.718	0.0159304
845.796	0.0158656
845.874	0.0157554
845.953	0.0158607
846.031	0.0159206
846.109	0.0158512
846.187	0.0156420
846.265	0.0157429
846.343	0.0157641
846.421	0.0157774
846.499	0.0156944
846.578	0.0157738
846.656	0.0157111
846.734	0.0158678
846.812	0.0159659
846.890	0.0159411
846.968	0.0158298
847.046	0.0160605
847.124	0.0160698
847.203	0.0161205
847.281	0.0160057
847.359	0.0160231
847.437	0.0160592
847.515	0.0161229
847.593	0.0161601
847.671	0.0161956
847.749	0.0161782
847.828	0.0162038
847.906	0.0162551
847.984	0.0161720
848.062	0.0162793
848.140	0.0163268
848.218	0.0163544
848.296	0.0161358
848.374	0.0163261
848.453	0.0162727
848.531	0.0162156
848.609	0.0161695
848.687	0.0161427
848.765	0.0162106
848.843	0.0161135
848.921	0.0161594
848.999	0.0161375
849.078	0.0160213
849.156	0.0160470
849.234	0.0160210
849.312	0.0158879
849.390	0.0158334
849.468	0.0158003
849.546	0.0159468
849.624	0.0160384
849.703	0.0159820
849.781	0.0158992
849.859	0.0160864
849.937	0.0160104
850.015	0.0160011
850.093	0.0159973
850.171	0.0159688
850.249	0.0160485
850.328	0.0160237
850.406	0.0161260
850.484	0.0160259
850.562	0.0160220
850.640	0.0161088
850.718	0.0160017
850.796	0.0162070
850.874	0.0162057
850.953	0.0161870
851.031	0.0161103
851.109	0.0160474
851.187	0.0161089
851.265	0.0160818
851.343	0.0161089
851.421	0.0160318
851.499	0.0161487
851.578	0.0160021
851.656	0.0159172
851.734	0.0159543
851.812	0.0158521
851.890	0.0158229
851.968	0.0158726
852.046	0.0157919
852.124	0.0158427
852.203	0.0157989
852.281	0.0157619
852.359	0.0156013
852.437	0.0157391
852.515	0.0156886
852.593	0.0157530
852.671	0.0156300
852.749	0.0158473
852.828	0.0158469
852.906	0.0158158
852.984	0.0159576
853.062	0.0158688
853.140	0.0158099
853.218	0.0159125
853.296	0.0158348
853.374	0.0157542
853.453	0.0158640
853.531	0.0158043
853.609	0.0160591
853.687	0.0160262
853.765	0.0160384
853.843	0.0158131
853.921	0.0159177
853.999	0.0160658
854.078	0.0160435
854.156	0.0161198
854.234	0.0160712
854.312	0.0161291
854.390	0.0162666
854.468	0.0161026
854.546	0.0160908
854.624	0.0162278
854.703	0.0162051
854.781	0.0160393
854.859	0.0162538
854.937	0.0161756
855.015	0.0161016
855.093	0.0161517
855.171	0.0162523
855.249	0.0162866
855.328	0.0162238
855.406	0.0159769
855.484	0.0161726
855.562	0.0161458
855.640	0.0161909
855.718	0.0161597
855.796	0.0161985
855.874	0.0161552
855.953	0.0160694
856.031	0.0161387
856.109	0.0159912
856.187	0.0160074
856.265	0.0159907
856.343	0.0159432
856.421	0.0160264
856.499	0.0158466
856.578	0.0158273
856.656	0.0158266
856.734	0.0160197
856.812	0.0159289
856.890	0.0159157
856.968	0.0158336
857.046	0.0159145
857.124	0.0160090
857.203	0.0159540
857.281	0.0158547
857.359	0.0159767
857.437	0.0160491
857.515	0.0159572
857.593	0.0159143
857.671	0.0159400
857.749	0.0159230
857.828	0.0159573
857.906	0.0160108
857.984	0.0160316
858.062	0.0159552
858.140	0.0159428
858.218	0.0161020
858.296	0.0159645
858.374	0.0158986
858.453	0.0159091
858.531	0.0159772
858.609	0.0160198
858.687	0.0160384
858.765	0.0160123
858.843	0.0159072
858.921	0.0161525
858.999	0.0161409
859.078	0.0161239
859.156	0.0162292
859.234	0.0162203
859.312	0.0160981
859.390	0.0163347
859.468	0.0164725
859.546	0.0161158
859.624	0.0161710
859.703	0.0161671
859.781	0.0161174
859.859	0.0161298
859.937	0.0159770
860.015	0.0161079
860.093	0.0161134
860.171	0.0159734
860.249	0.0159471
860.328	0.0161469
860.406	0.0160598
860.484	0.0160564
860.562	0.0160360
860.640	0.0159789
860.718	0.0158678
860.796	0.0159693
860.874	0.0160947
860.953	0.0160476
861.031	0.0161356
861.109	0.0160196
861.187	0.0161404
861.265	0.0159926
861.343	0.0161932
861.421	0.0162075
861.499	0.0162968
861.578	0.0162590
861.656	0.0161388
861.734	0.0161492
861.812	0.0162591
861.890	0.0162170
861.968	0.0161324
862.046	0.0161665
862.124	0.0162410
862.203	0.0161856
862.281	0.0161053
862.359	0.0161216
862.437	0.0161176
862.515	0.0161409
862.593	0.0160205
862.671	0.0160152
862.749	0.0159436
862.828	0.0159624
862.906	0.0159200
862.984	0.0159510
863.062	0.0158302
863.140	0.0161507
863.218	0.0159311
863.296	0.0159270
863.374	0.0159246
863.453	0.0159505
863.531	0.0160069
863.609	0.0161426
863.687	0.0159734
863.765	0.0160977
863.843	0.0161091
863.921	0.0161089
863.999	0.0161678
864.078	0.0160183
864.156	0.0160873
864.234	0.0160735
864.312	0.0159740
864.390	0.0160174
864.468	0.0159637
864.546	0.0160322
864.624	0.0161095
864.703	0.0160764
864.781	0.0159289
864.859	0.0158086
864.937	0.0159705
865.015	0.0159415
865.093	0.0159819
865.171	0.0159882
865.249	0.0159599
865.328	0.0160274
865.406	0.0159971
865.484	0.0161068
865.562	0.0161118
865.640	0.0160413
865.718	0.0162186
865.796	0.0161269
865.874	0.0161127
865.953	0.0160836
866.031	0.0161140
866.109	0.0160766
866.187	0.0160684
866.265	0.0160121
866.343	0.0159900
866.421	0.0160932
866.499	0.0160777
866.578	0.0159863
866.656	0.0160847
866.734	0.0159958
866.812	0.0160607
866.890	0.0160408
866.968	0.0158624
867.046	0.0158682
867.124	0.0160489
867.203	0.0160094
867.281	0.0160387
867.359	0.0159255
867.437	0.0160026
867.515	0.0160319
867.593	0.0160149
867.671	0.0161069
867.749	0.0160479
867.828	0.0161567
867.906	0.0161060
867.984	0.0161918
868.062	0.0161671
868.140	0.0162409
868.218	0.0161309
868.296	0.0160989
868.374	0.0160871
868.453	0.0161089
868.531	0.0161236
868.609	0.0161351
868.687	0.0161290
868.765	0.0159608
868.843	0.0160345
868.921	0.0161418
868.999	0.0160958
869.078	0.0160223
869.156	0.0159444
869.234	0.0159257
869.312	0.0159952
869.390	0.0160158
869.468	0.0160083
869.546	0.0160545
869.624	0.0160842
869.703	0.0160403
869.781	0.0158809
869.859	0.0160159
869.937	0.0160307
870.015	0.0160461
870.093	0.0159914
870.171	0.0161140
870.249	0.0160825
870.328	0.0159466
870.406	0.0160766
870.484	0.0159573
870.562	0.0160281
870.640	0.0159880
870.718	0.0159354
870.796	0.0159832
870.874	0.0159464
870.953	0.0159471
871.031	0.0161088
871.109	0.0160152
871.187	0.0159991
871.265	0.0161366
871.343	0.0160771
871.421	0.0161101
871.499	0.0161294
871.578	0.0158935
871.656	0.0160695
871.734	0.0159742
871.812	0.0160069
871.890	0.0159557
871.968	0.0160340
872.046	0.0160002
872.124	0.0158713
872.203	0.0158283
872.281	0.0159178
872.359	0.0160061
872.437	0.0159438
872.515	0.0159789
872.593	0.0158514
872.671	0.0158656
872.749	0.0159906
872.828	0.0159945
872.906	0.0159862
872.984	0.0161017
873.062	0.0160974
873.140	0.0160569
873.218	0.0160102
873.296	0.0159216
873.374	0.0160453
873.453	0.0160988
873.531	0.0160415
873.609	0.0160220
873.687	0.0160670
873.765	0.0160340
873.843	0.0160500
873.921	0.0159329
873.999	0.0159103
874.078	0.0159840
874.156	0.0158905
874.234	0.0158904
874.312	0.0158948
874.390	0.0159373
874.468	0.0160168
874.546	0.0159030
874.624	0.0158134
874.703	0.0159219
874.781	0.0158882
874.859	0.0159671
874.937	0.0159914
875.015	0.0159188
875.093	0.0158790
875.171	0.0159588
875.249	0.0159875
875.328	0.0159344
875.406	0.0158824
875.484	0.0159018
875.562	0.0160825
875.640	0.0159536
875.718	0.0158857
875.796	0.0159418
875.874	0.0161002
875.953	0.0160072
876.031	0.0161102
876.109	0.0160272
876.187	0.0160793
876.265	0.0161915
876.343	0.0161446
876.421	0.0161514
876.499	0.0160650
876.578	0.0162514
876.656	0.0160918
876.734	0.0159999
876.812	0.0160100
876.890	0.0161418
876.968	0.0160315
877.046	0.0162428
877.124	0.0162370
877.203	0.0161324
877.281	0.0161024
877.359	0.0161655
877.437	0.0160728
877.515	0.0160831
877.593	0.0161765
877.671	0.0160213
877.749	0.0160901
877.828	0.0162927
877.906	0.0160393
877.984	0.0160722
878.062	0.0161269
878.140	0.0159657
878.218	0.0159867
878.296	0.0158873
878.374	0.0159406
878.453	0.0158681
878.531	0.0159362
878.609	0.0159494
878.687	0.0159966
878.765	0.0158192
878.843	0.0159958
878.921	0.0159315
878.999	0.0159161
879.078	0.0159252
879.156	0.0159539
879.234	0.0160300
879.312	0.0160966
879.390	0.0160286
879.468	0.0161087
879.546	0.0161143
879.624	0.0160633
879.703	0.0160909
879.781	0.0161150
879.859	0.0162180
879.937	0.0160851
880.015	0.0160692
880.093	0.0161417
880.171	0.0160546
880.249	0.0161337
880.328	0.0161210
880.406	0.0160588
880.484	0.0160436
880.562	0.0161086
880.640	0.0161679
880.718	0.0161188
880.796	0.0160255
880.874	0.0162383
880.953	0.0161405
881.031	0.0160041
881.109	0.0160811
881.187	0.0162087
881.265	0.0161597
881.343	0.0161117
881.421	0.0159486
881.499	0.0161980
881.578	0.0161330
881.656	0.0161567
881.734	0.0160654
881.812	0.0160674
881.890	0.0162325
881.968	0.0160912
882.046	0.0161327
882.124	0.0160720
882.203	0.0161436
882.281	0.0161408
882.359	0.0162096
882.437	0.0161504
882.515	0.0162546
882.593	0.0162059
882.671	0.0162028
882.749	0.0160057
882.828	0.0163193
882.906	0.0162193
882.984	0.0162914
883.062	0.0162363
883.140	0.0163313
883.218	0.0164339
883.296	0.0163200
883.374	0.0162246
883.453	0.0164129
883.531	0.0163219
883.609	0.0163071
883.687	0.0163886
883.765	0.0162634
883.843	0.0162963
883.921	0.0161590
883.999	0.0161091
884.078	0.0162457
884.156	0.0162411
884.234	0.0161166
884.312	0.0160789
884.390	0.0159337
884.468	0.0160594
884.546	0.0161398
884.624	0.0159832
884.703	0.0159203
884.781	0.0160387
884.859	0.0159624
884.937	0.0159504
885.015	0.0160207
885.093	0.0160010
885.171	0.0159968
885.249	0.0159781
885.328	0.0159497
885.406	0.0158674
885.484	0.0160731
885.562	0.0160941
885.640	0.0158978
885.718	0.0160545
885.796	0.0160813
885.874	0.0161451
885.953	0.0160974
886.031	0.0160097
886.109	0.0160016
886.187	0.0160115
886.265	0.0160912
886.343	0.0160490
886.421	0.0160878
886.499	0.0161186
886.578	0.0162285
886.656	0.0160463
886.734	0.0160889
886.812	0.0162193
886.890	0.0160831
886.968	0.0162555
887.046	0.0162476
887.124	0.0162344
887.203	0.0161436
887.281	0.0160881
887.359	0.0162521
887.437	0.0160422
887.515	0.0159402
887.593	0.0160701
887.671	0.0160838
887.749	0.0161837
887.828	0.0159340
887.906	0.0160725
887.984	0.0160955
888.062	0.0159900
888.140	0.0159446
888.218	0.0158920
888.296	0.0159741
888.374	0.0160669
888.453	0.0159560
888.531	0.0159774
888.609	0.0158973
888.687	0.0160158
888.765	0.0160227
888.843	0.0159779
888.921	0.0160180
888.999	0.0159341
889.078	0.0160119
889.156	0.0159039
889.234	0.0159548
889.312	0.0161227
889.390	0.0160569
889.468	0.0159306
889.546	0.0159553
889.624	0.0161792
889.703	0.0159564
889.781	0.0159828
889.859	0.0159962
889.937	0.0159040
890.015	0.0159737
890.093	0.0161613
890.171	0.0160145
890.249	0.0159997
890.328	0.0159499
890.406	0.0160706
890.484	0.0159252
890.562	0.0159814
890.640	0.0159529
890.718	0.0159506
890.796	0.0160538
890.874	0.0159072
890.953	0.0160122
891.031	0.0159060
891.109	0.0159905
891.187	0.0159734
891.265	0.0158984
891.343	0.0159779
891.421	0.0161024
891.499	0.0160221
891.578	0.0159225
891.656	0.0161044
891.734	0.0160316
891.812	0.0159112
891.890	0.0159656
891.968	0.0160352
892.046	0.0158299
892.124	0.0158443
892.203	0.0159873
892.281	0.0159188
892.359	0.0158620
892.437	0.0157549
892.515	0.0160610
892.593	0.0158989
892.671	0.0159763
892.749	0.0159464
892.828	0.0159292
892.906	0.0160706
892.984	0.0160746
893.062	0.0160003
893.140	0.0160669
893.218	0.0159693
893.296	0.0159924
893.374	0.0160941
893.453	0.0160407
893.531	0.0160984
893.609	0.0159438
893.687	0.0160265
893.765	0.0160958
893.843	0.0160824
893.921	0.0161148
893.999	0.0159924
894.078	0.0158635
894.156	0.0158992
894.234	0.0159547
894.312	0.0158553
894.390	0.0158223
894.468	0.0158682
894.546	0.0156923
894.624	0.0159267
894.703	0.0159350
894.781	0.0158696
894.859	0.0158649
894.937	0.0159291
895.015	0.0158733
895.093	0.0159078
895.171	0.0158797
895.249	0.0158290
895.328	0.0158324
895.406	0.0159052
895.484	0.0159214
895.562	0.0159819
895.640	0.0158251
895.718	0.0158844
895.796	0.0160050
895.874	0.0159470
895.953	0.0159188
896.031	0.0158611
896.109	0.0159743
896.187	0.0159561
896.265	0.0159390
896.343	0.0158970
896.421	0.0159009
896.499	0.0159106
896.578	0.0159139
896.656	0.0159738
896.734	0.0158996
896.812	0.0159045
896.890	0.0158164
896.968	0.0158746
897.046	0.0158445
897.124	0.0158205
897.203	0.0159804
897.281	0.0158212
897.359	0.0157511
897.437	0.0158142
897.515	0.0156950
897.593	0.0157566
897.671	0.0158038
897.749	0.0158149
897.828	0.0157756
897.906	0.0158635
897.984	0.0159014
898.062	0.0158694
898.140	0.0158679
898.218	0.0158810
898.296	0.0159824
898.374	0.0159916
898.453	0.0160134
898.531	0.0160711
898.609	0.0160639
898.687	0.0160164
898.765	0.0161585
898.843	0.0161483
898.921	0.0160488
898.999	0.0160353
899.078	0.0160464
899.156	0.0161243
899.234	0.0162180
899.312	0.0161108
899.390	0.0161945
899.468	0.0163158
899.546	0.0161770
899.624	0.0161405
899.703	0.0159026
899.781	0.0160773
899.859	0.0160892
899.937	0.0161259
900.015	0.0161469
900.093	0.0159872
900.171	0.0159167
900.249	0.0161187
900.328	0.0160173
900.406	0.0159122
900.484	0.0158990
900.562	0.0160204
900.640	0.0159636
900.718	0.0159477
900.796	0.0158418
900.874	0.0157852
900.953	0.0161509
901.031	0.0160590
901.109	0.0159407
901.187	0.0160242
901.265	0.0159123
901.343	0.0160974
901.421	0.0160310
901.499	0.0160176
901.578	0.0161229
901.656	0.0162688
901.734	0.0161292
901.812	0.0162424
901.890	0.0161868
901.968	0.0163723
902.046	0.0162067
902.124	0.0161571
902.203	0.0162355
902.281	0.0161143
902.359	0.0160952
902.437	0.0161337
902.515	0.0161899
902.593	0.0162055
902.671	0.0160542
902.749	0.0161144
902.828	0.0160714
902.906	0.0160798
902.984	0.0160895
903.062	0.0160327
903.140	0.0160604
903.218	0.0160953
903.296	0.0160090
903.374	0.0159339
903.453	0.0161023
903.531	0.0159808
903.609	0.0159505
903.687	0.0160729
903.765	0.0159750
903.843	0.0159394
903.921	0.0159839
903.999	0.0160497
904.078	0.0161379
904.156	0.0161331
904.234	0.0159706
904.312	0.0159063
904.390	0.0161487
904.468	0.0161620
904.546	0.0160933
904.624	0.0161052
904.703	0.0161764
904.781	0.0160509
904.859	0.0159853
904.937	0.0162438
905.015	0.0160753
905.093	0.0161745
905.171	0.0161017
905.249	0.0161286
905.328	0.0161404
905.406	0.0161078
905.484	0.0162169
905.562	0.0161337
905.640	0.0160258
905.718	0.0161057
905.796	0.0160333
905.874	0.0161642
905.953	0.0160567
906.031	0.0161346
906.109	0.0160146
906.187	0.0159687
906.265	0.0159669
906.343	0.0159633
906.421	0.0159465
906.499	0.0159887
906.578	0.0158317
906.656	0.0159763
906.734	0.0158553
906.812	0.0160043
906.890	0.0159568
906.968	0.0159809
907.046	0.0159017
907.124	0.0159043
907.203	0.0160455
907.281	0.0160835
907.359	0.0160197
907.437	0.0160313
907.515	0.0160400
907.593	0.0160603
907.671	0.0162495
907.749	0.0160484
907.828	0.0161956
907.906	0.0162328
907.984	0.0161787
908.062	0.0162904
908.140	0.0164020
908.218	0.0162495
908.296	0.0163167
908.374	0.0163477
908.453	0.0162440
908.531	0.0163412
908.609	0.0162596
908.687	0.0162183
908.765	0.0162008
908.843	0.0162238
908.921	0.0160668
908.999	0.0161385
909.078	0.0162505
909.156	0.0160545
909.234	0.0159962
909.312	0.0160765
909.390	0.0160436
909.468	0.0159431
909.546	0.0160516
909.624	0.0159962
909.703	0.0160006
909.781	0.0158549
909.859	0.0159544
909.937	0.0159870
910.015	0.0158815
910.093	0.0158693
910.171	0.0159426
910.249	0.0159644
910.328	0.0157171
910.406	0.0158213
910.484	0.0158777
910.562	0.0157779
910.640	0.0158807
910.718	0.0159419
910.796	0.0158498
910.874	0.0159013
910.953	0.0158582
911.031	0.0158813
911.109	0.0158257
911.187	0.0157733
911.265	0.0159191
911.343	0.0159356
911.421	0.0159930
911.499	0.0159811
911.578	0.0161278
911.656	0.0161069
911.734	0.0158797
911.812	0.0160401
911.890	0.0161040
911.968	0.0160290
912.046	0.0160543
912.124	0.0160825
912.203	0.0160322
912.281	0.0160526
912.359	0.0159624
912.437	0.0160748
912.515	0.0160261
912.593	0.0159610
912.671	0.0160292
912.749	0.0159084
912.828	0.0159370
912.906	0.0159164
912.984	0.0158766
913.062	0.0158732
913.140	0.0160226
913.218	0.0158563
913.296	0.0159888
913.374	0.0159125
913.453	0.0159311
913.531	0.0159999
913.609	0.0159625
913.687	0.0158920
913.765	0.0159250
913.843	0.0159547
913.921	0.0159962
913.999	0.0159821
914.078	0.0160679
914.156	0.0160762
914.234	0.0159379
914.312	0.0160140
914.390	0.0160484
914.468	0.0160471
914.546	0.0159908
914.624	0.0159523
914.703	0.0160815
914.781	0.0160643
914.859	0.0159544
914.937	0.0159558
915.015	0.0160916
915.093	0.0159425
915.171	0.0158604
915.249	0.0160339
915.328	0.0158989
915.406	0.0158585
915.484	0.0159563
915.562	0.0158086
915.640	0.0158814
915.718	0.0157852
915.796	0.0158640
915.874	0.0158787
915.953	0.0156848
916.031	0.0157585
916.109	0.0158582
916.187	0.0159444
916.265	0.0158863
916.343	0.0158260
916.421	0.0158366
916.499	0.0158589
916.578	0.0158438
916.656	0.0158183
916.734	0.0158729
916.812	0.0159807
916.890	0.0157929
916.968	0.0157329
917.046	0.0157613
917.124	0.0158569
917.203	0.0158339
917.281	0.0159034
917.359	0.0160018
917.437	0.0159921
917.515	0.0158701
917.593	0.0159678
917.671	0.0160367
917.749	0.0159732
917.828	0.0159403
917.906	0.0160184
917.984	0.0159821
918.062	0.0159772
918.140	0.0160994
918.218	0.0161023
918.296	0.0161214
918.374	0.0160568
918.453	0.0162428
918.531	0.0161149
918.609	0.0160847
918.687	0.0160544
918.765	0.0161719
918.843	0.0160493
918.921	0.0161613
918.999	0.0160527
919.078	0.0158881
919.156	0.0160313
919.234	0.0159251
919.312	0.0161125
919.390	0.0160926
919.468	0.0159406
919.546	0.0160261
919.624	0.0160424
919.703	0.0160658
919.781	0.0159850
919.859	0.0160434
919.937	0.0160325
