05/26/2022	00:45:59	Ver.	4.1	UNKNOWN
Optical Delay	599.988409	Delta X		0.078125	Sweeps	1	Scan Rate	0/0
Coordinates	Axis 1	NaN	Axis 2	NaN	Axis 3	NaN	Axis 4	NaN	Axis 5	NaN	Axis 6	0.000000
TX Power	0.000000	RX Power	0.000000

599.988	0.0165370
600.067	0.0164757
600.145	0.0165734
600.223	0.0164761
600.301	0.0164703
600.379	0.0164639
600.457	0.0164272
600.535	0.0164661
600.613	0.0164315
600.692	0.0164046
600.770	0.0164660
600.848	0.0164989
600.926	0.0164088
601.004	0.0164265
601.082	0.0164919
601.160	0.0164429
601.238	0.0165412
601.317	0.0165089
601.395	0.0164590
601.473	0.0163634
601.551	0.0164426
601.629	0.0164745
601.707	0.0165806
601.785	0.0164803
601.863	0.0165181
601.942	0.0165112
602.020	0.0164307
602.098	0.0164427
602.176	0.0165363
602.254	0.0165056
602.332	0.0165609
602.410	0.0164133
602.488	0.0164297
602.567	0.0165902
602.645	0.0164658
602.723	0.0164632
602.801	0.0164357
602.879	0.0164941
602.957	0.0164183
603.035	0.0165251
603.113	0.0164458
603.192	0.0165305
603.270	0.0164056
603.348	0.0164381
603.426	0.0165148
603.504	0.0164400
603.582	0.0163937
603.660	0.0164293
603.738	0.0165311
603.817	0.0166244
603.895	0.0166168
603.973	0.0163969
604.051	0.0163267
604.129	0.0164645
604.207	0.0165866
604.285	0.0165308
604.363	0.0165091
604.442	0.0164023
604.520	0.0164211
604.598	0.0165029
604.676	0.0165253
604.754	0.0165075
604.832	0.0164237
604.910	0.0164501
604.988	0.0165682
605.067	0.0166037
605.145	0.0165520
605.223	0.0164545
605.301	0.0165617
605.379	0.0164548
605.457	0.0166580
605.535	0.0164765
605.613	0.0165940
605.692	0.0165119
605.770	0.0164108
605.848	0.0164724
605.926	0.0165727
606.004	0.0164580
606.082	0.0165055
606.160	0.0165088
606.238	0.0164919
606.317	0.0164237
606.395	0.0165261
606.473	0.0167061
606.551	0.0164703
606.629	0.0164959
606.707	0.0165495
606.785	0.0166430
606.863	0.0164075
606.942	0.0165746
607.020	0.0165055
607.098	0.0164958
607.176	0.0165202
607.254	0.0163163
607.332	0.0165529
607.410	0.0165479
607.488	0.0164095
607.567	0.0163681
607.645	0.0164378
607.723	0.0165280
607.801	0.0165196
607.879	0.0165411
607.957	0.0165137
608.035	0.0165470
608.113	0.0165253
608.192	0.0164843
608.270	0.0166920
608.348	0.0165280
608.426	0.0165414
608.504	0.0164745
608.582	0.0164596
608.660	0.0164984
608.738	0.0165040
608.817	0.0166138
608.895	0.0164870
608.973	0.0163837
609.051	0.0164362
609.129	0.0163615
609.207	0.0164300
609.285	0.0163474
609.363	0.0164362
609.442	0.0163715
609.520	0.0162983
609.598	0.0162757
609.676	0.0164209
609.754	0.0163634
609.832	0.0162328
609.910	0.0165233
609.988	0.0165633
610.067	0.0165755
610.145	0.0163651
610.223	0.0164316
610.301	0.0164960
610.379	0.0165530
610.457	0.0166980
610.535	0.0165071
610.613	0.0166370
610.692	0.0166850
610.770	0.0165573
610.848	0.0165256
610.926	0.0167583
611.004	0.0167393
611.082	0.0165385
611.160	0.0166887
611.238	0.0166362
611.317	0.0165946
611.395	0.0165803
611.473	0.0164754
611.551	0.0164606
611.629	0.0163768
611.707	0.0163827
611.785	0.0163948
611.863	0.0165902
611.942	0.0164195
612.020	0.0162524
612.098	0.0163383
612.176	0.0162969
612.254	0.0163107
612.332	0.0163287
612.410	0.0162727
612.488	0.0164145
612.567	0.0163336
612.645	0.0162908
612.723	0.0163725
612.801	0.0164114
612.879	0.0162509
612.957	0.0163789
613.035	0.0164108
613.113	0.0165163
613.192	0.0164881
613.270	0.0164647
613.348	0.0163904
613.426	0.0163394
613.504	0.0165431
613.582	0.0165075
613.660	0.0165395
613.738	0.0164789
613.817	0.0164803
613.895	0.0165025
613.973	0.0165444
614.051	0.0165725
614.129	0.0166616
614.207	0.0165842
614.285	0.0164510
614.363	0.0166315
614.442	0.0165920
614.520	0.0165896
614.598	0.0164410
614.676	0.0165376
614.754	0.0166256
614.832	0.0165385
614.910	0.0166015
614.988	0.0165949
615.067	0.0166286
615.145	0.0165768
615.223	0.0164626
615.301	0.0164706
615.379	0.0165829
615.457	0.0167289
615.535	0.0165350
615.613	0.0164410
615.692	0.0165520
615.770	0.0165234
615.848	0.0164504
615.926	0.0164880
616.004	0.0164555
616.082	0.0163904
616.160	0.0165578
616.238	0.0165633
616.317	0.0164357
616.395	0.0164899
616.473	0.0164977
616.551	0.0164320
616.629	0.0163291
616.707	0.0165137
616.785	0.0164521
616.863	0.0163262
616.942	0.0163525
617.020	0.0164229
617.098	0.0166105
617.176	0.0164000
617.254	0.0164941
617.332	0.0165300
617.410	0.0163027
617.488	0.0162769
617.567	0.0164787
617.645	0.0165321
617.723	0.0164615
617.801	0.0164977
617.879	0.0165255
617.957	0.0162897
618.035	0.0163927
618.113	0.0164207
618.192	0.0164751
618.270	0.0163744
618.348	0.0165480
618.426	0.0165726
618.504	0.0164820
618.582	0.0163938
618.660	0.0164596
618.738	0.0164420
618.817	0.0165096
618.895	0.0164462
618.973	0.0163390
619.051	0.0164243
619.129	0.0165735
619.207	0.0164946
619.285	0.0164822
619.363	0.0165657
619.442	0.0164295
619.520	0.0164895
619.598	0.0165127
619.676	0.0165987
619.754	0.0165063
619.832	0.0164890
619.910	0.0165224
619.988	0.0164932
620.067	0.0166159
620.145	0.0165160
620.223	0.0164785
620.301	0.0166119
620.379	0.0166398
620.457	0.0165942
620.535	0.0166029
620.613	0.0166645
620.692	0.0165485
620.770	0.0165237
620.848	0.0165002
620.926	0.0165260
621.004	0.0165471
621.082	0.0165112
621.160	0.0165054
621.238	0.0164631
621.317	0.0165871
621.395	0.0164992
621.473	0.0166343
621.551	0.0165044
621.629	0.0164502
621.707	0.0164432
621.785	0.0165643
621.863	0.0166197
621.942	0.0165308
622.020	0.0165452
622.098	0.0165508
622.176	0.0164856
622.254	0.0164517
622.332	0.0164720
622.410	0.0165645
622.488	0.0166461
622.567	0.0166112
622.645	0.0164596
622.723	0.0164279
622.801	0.0165153
622.879	0.0163480
622.957	0.0164546
623.035	0.0165488
623.113	0.0164116
623.192	0.0165216
623.270	0.0163711
623.348	0.0165106
623.426	0.0165038
623.504	0.0165066
623.582	0.0165228
623.660	0.0164587
623.738	0.0164610
623.817	0.0165641
623.895	0.0166304
623.973	0.0165926
624.051	0.0165681
624.129	0.0163513
624.207	0.0165086
624.285	0.0166164
624.363	0.0164287
624.442	0.0166259
624.520	0.0165141
624.598	0.0164651
624.676	0.0165804
624.754	0.0166568
624.832	0.0164619
624.910	0.0165088
624.988	0.0165009
625.067	0.0165480
625.145	0.0164342
625.223	0.0165432
625.301	0.0164889
625.379	0.0164993
625.457	0.0165269
625.535	0.0165363
625.613	0.0166357
625.692	0.0164979
625.770	0.0166604
625.848	0.0165359
625.926	0.0165351
626.004	0.0166049
626.082	0.0164928
626.160	0.0164153
626.238	0.0165177
626.317	0.0164706
626.395	0.0165423
626.473	0.0164650
626.551	0.0166088
626.629	0.0166467
626.707	0.0165051
626.785	0.0164130
626.863	0.0163390
626.942	0.0166096
627.020	0.0164555
627.098	0.0164613
627.176	0.0165170
627.254	0.0164476
627.332	0.0165332
627.410	0.0165265
627.488	0.0165967
627.567	0.0165961
627.645	0.0164996
627.723	0.0163939
627.801	0.0163284
627.879	0.0165430
627.957	0.0166055
628.035	0.0166488
628.113	0.0165578
628.192	0.0165532
628.270	0.0165520
628.348	0.0166157
628.426	0.0164828
628.504	0.0166284
628.582	0.0166026
628.660	0.0165302
628.738	0.0166170
628.817	0.0165676
628.895	0.0165879
628.973	0.0165330
629.051	0.0166105
629.129	0.0165810
629.207	0.0165816
629.285	0.0166915
629.363	0.0167728
629.442	0.0166158
629.520	0.0166416
629.598	0.0164525
629.676	0.0166176
629.754	0.0165613
629.832	0.0166209
629.910	0.0165323
629.988	0.0165296
630.067	0.0164774
630.145	0.0164703
630.223	0.0164421
630.301	0.0165778
630.379	0.0166300
630.457	0.0164989
630.535	0.0165387
630.613	0.0164815
630.692	0.0164812
630.770	0.0165288
630.848	0.0164462
630.926	0.0164188
631.004	0.0165903
631.082	0.0164970
631.160	0.0165663
631.238	0.0165800
631.317	0.0164703
631.395	0.0164833
631.473	0.0164497
631.551	0.0164576
631.629	0.0164596
631.707	0.0163158
631.785	0.0164284
631.863	0.0164820
631.942	0.0164451
632.020	0.0164601
632.098	0.0166278
632.176	0.0164600
632.254	0.0163667
632.332	0.0164272
632.410	0.0165460
632.488	0.0164724
632.567	0.0165540
632.645	0.0165361
632.723	0.0165401
632.801	0.0165579
632.879	0.0165454
632.957	0.0164285
633.035	0.0164675
633.113	0.0164866
633.192	0.0165031
633.270	0.0164681
633.348	0.0163657
633.426	0.0165432
633.504	0.0165034
633.582	0.0165061
633.660	0.0166843
633.738	0.0165427
633.817	0.0164218
633.895	0.0165411
633.973	0.0166264
634.051	0.0166710
634.129	0.0164823
634.207	0.0164750
634.285	0.0164951
634.363	0.0164576
634.442	0.0165913
634.520	0.0165350
634.598	0.0165320
634.676	0.0165878
634.754	0.0166205
634.832	0.0164777
634.910	0.0165564
634.988	0.0164033
635.067	0.0165388
635.145	0.0164878
635.223	0.0165094
635.301	0.0164745
635.379	0.0166203
635.457	0.0165549
635.535	0.0164983
635.613	0.0164272
635.692	0.0164610
635.770	0.0165312
635.848	0.0165194
635.926	0.0165936
636.004	0.0166212
636.082	0.0166084
636.160	0.0165382
636.238	0.0165730
636.317	0.0166817
636.395	0.0166716
636.473	0.0166602
636.551	0.0164394
636.629	0.0164741
636.707	0.0164702
636.785	0.0165117
636.863	0.0165321
636.942	0.0165328
637.020	0.0165743
637.098	0.0164824
637.176	0.0165591
637.254	0.0165878
637.332	0.0164474
637.410	0.0165218
637.488	0.0163787
637.567	0.0163565
637.645	0.0165042
637.723	0.0165578
637.801	0.0164095
637.879	0.0165254
637.957	0.0165379
638.035	0.0164573
638.113	0.0166155
638.192	0.0165195
638.270	0.0164294
638.348	0.0164945
638.426	0.0165954
638.504	0.0166343
638.582	0.0164891
638.660	0.0165764
638.738	0.0164996
638.817	0.0165907
638.895	0.0165241
638.973	0.0164998
639.051	0.0164951
639.129	0.0163285
639.207	0.0165025
639.285	0.0164428
639.363	0.0164612
639.442	0.0166320
639.520	0.0164740
639.598	0.0165191
639.676	0.0163857
639.754	0.0165064
639.832	0.0164857
639.910	0.0164746
639.988	0.0164108
640.067	0.0163001
640.145	0.0165110
640.223	0.0165326
640.301	0.0164985
640.379	0.0164412
640.457	0.0164478
640.535	0.0165257
640.613	0.0164347
640.692	0.0163747
640.770	0.0163593
640.848	0.0165035
640.926	0.0163913
641.004	0.0165182
641.082	0.0165066
641.160	0.0164404
641.238	0.0164480
641.317	0.0164698
641.395	0.0164079
641.473	0.0164433
641.551	0.0165262
641.629	0.0163079
641.707	0.0163920
641.785	0.0165961
641.863	0.0166751
641.942	0.0165955
642.020	0.0164938
642.098	0.0164324
642.176	0.0164835
642.254	0.0165044
642.332	0.0166353
642.410	0.0166007
642.488	0.0165041
642.567	0.0163238
642.645	0.0165512
642.723	0.0165713
642.801	0.0165189
642.879	0.0165737
642.957	0.0165741
643.035	0.0164889
643.113	0.0165223
643.192	0.0165147
643.270	0.0166087
643.348	0.0166523
643.426	0.0166336
643.504	0.0164664
643.582	0.0167384
643.660	0.0165540
643.738	0.0164806
643.817	0.0164868
643.895	0.0165858
643.973	0.0165309
644.051	0.0164506
644.129	0.0166210
644.207	0.0166447
644.285	0.0165036
644.363	0.0166025
644.442	0.0165897
644.520	0.0165723
644.598	0.0165251
644.676	0.0165289
644.754	0.0166139
644.832	0.0165697
644.910	0.0164236
644.988	0.0163911
645.067	0.0166182
645.145	0.0165494
645.223	0.0165201
645.301	0.0165592
645.379	0.0164555
645.457	0.0164385
645.535	0.0165589
645.613	0.0164752
645.692	0.0165230
645.770	0.0164362
645.848	0.0165411
645.926	0.0164721
646.004	0.0165678
646.082	0.0164820
646.160	0.0164169
646.238	0.0165704
646.317	0.0165974
646.395	0.0164807
646.473	0.0164812
646.551	0.0163853
646.629	0.0166117
646.707	0.0164191
646.785	0.0164928
646.863	0.0165522
646.942	0.0164767
647.020	0.0165348
647.098	0.0165858
647.176	0.0166108
647.254	0.0165143
647.332	0.0165194
647.410	0.0164984
647.488	0.0163937
647.567	0.0165382
647.645	0.0163543
647.723	0.0165336
647.801	0.0165363
647.879	0.0165034
647.957	0.0164602
648.035	0.0164581
648.113	0.0166004
648.192	0.0163891
648.270	0.0164222
648.348	0.0164611
648.426	0.0164308
648.504	0.0165755
648.582	0.0164767
648.660	0.0165220
648.738	0.0165406
648.817	0.0165095
648.895	0.0163852
648.973	0.0163487
649.051	0.0165594
649.129	0.0164861
649.207	0.0165443
649.285	0.0165854
649.363	0.0164750
649.442	0.0163835
649.520	0.0164612
649.598	0.0165205
649.676	0.0166493
649.754	0.0164832
649.832	0.0165533
649.910	0.0165036
649.988	0.0165995
650.067	0.0165470
650.145	0.0165678
650.223	0.0165803
650.301	0.0164880
650.379	0.0165312
650.457	0.0165717
650.535	0.0165462
650.613	0.0166380
650.692	0.0164706
650.770	0.0164709
650.848	0.0165150
650.926	0.0164592
651.004	0.0164978
651.082	0.0165983
651.160	0.0165889
651.238	0.0164451
651.317	0.0165780
651.395	0.0165893
651.473	0.0166022
651.551	0.0165553
651.629	0.0166869
651.707	0.0166312
651.785	0.0165958
651.863	0.0166724
651.942	0.0165641
652.020	0.0165526
652.098	0.0166370
652.176	0.0165586
652.254	0.0166677
652.332	0.0166050
652.410	0.0165332
652.488	0.0164504
652.567	0.0166383
652.645	0.0166178
652.723	0.0164143
652.801	0.0164008
652.879	0.0165832
652.957	0.0166646
653.035	0.0165493
653.113	0.0165577
653.192	0.0165353
653.270	0.0164834
653.348	0.0164877
653.426	0.0165311
653.504	0.0165363
653.582	0.0164922
653.660	0.0164492
653.738	0.0164788
653.817	0.0166124
653.895	0.0163979
653.973	0.0164841
654.051	0.0165852
654.129	0.0165393
654.207	0.0164647
654.285	0.0164650
654.363	0.0165567
654.442	0.0166651
654.520	0.0165445
654.598	0.0164181
654.676	0.0166685
654.754	0.0164626
654.832	0.0165975
654.910	0.0165801
654.988	0.0165154
655.067	0.0166205
655.145	0.0164320
655.223	0.0165296
655.301	0.0165120
655.379	0.0165966
655.457	0.0166710
655.535	0.0164599
655.613	0.0165392
655.692	0.0165550
655.770	0.0163940
655.848	0.0164410
655.926	0.0165355
656.004	0.0164611
656.082	0.0165182
656.160	0.0165046
656.238	0.0164634
656.317	0.0164677
656.395	0.0164071
656.473	0.0164824
656.551	0.0164725
656.629	0.0165266
656.707	0.0165360
656.785	0.0163929
656.863	0.0165278
656.942	0.0167077
657.020	0.0165920
657.098	0.0166408
657.176	0.0165892
657.254	0.0166779
657.332	0.0166104
657.410	0.0166190
657.488	0.0165269
657.567	0.0166293
657.645	0.0165607
657.723	0.0164713
657.801	0.0165611
657.879	0.0166026
657.957	0.0165448
658.035	0.0165305
658.113	0.0165058
658.192	0.0166114
658.270	0.0165276
658.348	0.0166795
658.426	0.0164450
658.504	0.0165153
658.582	0.0165334
658.660	0.0165599
658.738	0.0165012
658.817	0.0163582
658.895	0.0165546
658.973	0.0165355
659.051	0.0163657
659.129	0.0165164
659.207	0.0165054
659.285	0.0164823
659.363	0.0165474
659.442	0.0165514
659.520	0.0165298
659.598	0.0166086
659.676	0.0165426
659.754	0.0165668
659.832	0.0165261
659.910	0.0164954
659.988	0.0165894
660.067	0.0164700
660.145	0.0165607
660.223	0.0166598
660.301	0.0165789
660.379	0.0164753
660.457	0.0165617
660.535	0.0164994
660.613	0.0165233
660.692	0.0165845
660.770	0.0164431
660.848	0.0165321
660.926	0.0165287
661.004	0.0164835
661.082	0.0165945
661.160	0.0166288
661.238	0.0165800
661.317	0.0165450
661.395	0.0165089
661.473	0.0165023
661.551	0.0166014
661.629	0.0165388
661.707	0.0165550
661.785	0.0165656
661.863	0.0166256
661.942	0.0165407
662.020	0.0164201
662.098	0.0164956
662.176	0.0163785
662.254	0.0165875
662.332	0.0165958
662.410	0.0164619
662.488	0.0165282
662.567	0.0164171
662.645	0.0165249
662.723	0.0165148
662.801	0.0165014
662.879	0.0163963
662.957	0.0165796
663.035	0.0165519
663.113	0.0166163
663.192	0.0165660
663.270	0.0165218
663.348	0.0165176
663.426	0.0164820
663.504	0.0165320
663.582	0.0164858
663.660	0.0164722
663.738	0.0165148
663.817	0.0165627
663.895	0.0165544
663.973	0.0164123
664.051	0.0165719
664.129	0.0165546
664.207	0.0165093
664.285	0.0166234
664.363	0.0166065
664.442	0.0165536
664.520	0.0165424
664.598	0.0164961
664.676	0.0165416
664.754	0.0166315
664.832	0.0165112
664.910	0.0165067
664.988	0.0166779
665.067	0.0164407
665.145	0.0164707
665.223	0.0165662
665.301	0.0166056
665.379	0.0163833
665.457	0.0165069
665.535	0.0165285
665.613	0.0164710
665.692	0.0166549
665.770	0.0164964
665.848	0.0163956
665.926	0.0165244
666.004	0.0165226
666.082	0.0163728
666.160	0.0165347
666.238	0.0166076
666.317	0.0165735
666.395	0.0164663
666.473	0.0166591
666.551	0.0165412
666.629	0.0165256
666.707	0.0164152
666.785	0.0165164
666.863	0.0165081
666.942	0.0165612
667.020	0.0165203
667.098	0.0164761
667.176	0.0165243
667.254	0.0165275
667.332	0.0165215
667.410	0.0164993
667.488	0.0165278
667.567	0.0164557
667.645	0.0164929
667.723	0.0165893
667.801	0.0163902
667.879	0.0165126
667.957	0.0165150
668.035	0.0165886
668.113	0.0164647
668.192	0.0164089
668.270	0.0166278
668.348	0.0164693
668.426	0.0165783
668.504	0.0164025
668.582	0.0164619
668.660	0.0165027
668.738	0.0164438
668.817	0.0164355
668.895	0.0163908
668.973	0.0164243
669.051	0.0166106
669.129	0.0165231
669.207	0.0165277
669.285	0.0165411
669.363	0.0165132
669.442	0.0166496
669.520	0.0164451
669.598	0.0164352
669.676	0.0164895
669.754	0.0165629
669.832	0.0165100
669.910	0.0166358
669.988	0.0165692
670.067	0.0164941
670.145	0.0166483
670.223	0.0165704
670.301	0.0164192
670.379	0.0164384
670.457	0.0164039
670.535	0.0166236
670.613	0.0165038
670.692	0.0163946
670.770	0.0165398
670.848	0.0165799
670.926	0.0164959
671.004	0.0166500
671.082	0.0165554
671.160	0.0165863
671.238	0.0166042
671.317	0.0165562
671.395	0.0164722
671.473	0.0165332
671.551	0.0165169
671.629	0.0165756
671.707	0.0165857
671.785	0.0165468
671.863	0.0163861
671.942	0.0165204
672.020	0.0165864
672.098	0.0164604
672.176	0.0165258
672.254	0.0164987
672.332	0.0163814
672.410	0.0164304
672.488	0.0166568
672.567	0.0164323
672.645	0.0163928
672.723	0.0165350
672.801	0.0165734
672.879	0.0164764
672.957	0.0165830
673.035	0.0164652
673.113	0.0165535
673.192	0.0165215
673.270	0.0165430
673.348	0.0164946
673.426	0.0165828
673.504	0.0165038
673.582	0.0165588
673.660	0.0166458
673.738	0.0165580
673.817	0.0165369
673.895	0.0165085
673.973	0.0165580
674.051	0.0166068
674.129	0.0164368
674.207	0.0165231
674.285	0.0167621
674.363	0.0164825
674.442	0.0164972
674.520	0.0165981
674.598	0.0164926
674.676	0.0165527
674.754	0.0164507
674.832	0.0164782
674.910	0.0164462
674.988	0.0165723
675.067	0.0165771
675.145	0.0165264
675.223	0.0164892
675.301	0.0166169
675.379	0.0165308
675.457	0.0164420
675.535	0.0164382
675.613	0.0165163
675.692	0.0164866
675.770	0.0165443
675.848	0.0164806
675.926	0.0165932
676.004	0.0166851
676.082	0.0164439
676.160	0.0164455
676.238	0.0165287
676.317	0.0165126
676.395	0.0164995
676.473	0.0165274
676.551	0.0165098
676.629	0.0164571
676.707	0.0164696
676.785	0.0166352
676.863	0.0163746
676.942	0.0163157
677.020	0.0164368
677.098	0.0164258
677.176	0.0163702
677.254	0.0164214
677.332	0.0164960
677.410	0.0165218
677.488	0.0164310
677.567	0.0164427
677.645	0.0165229
677.723	0.0163914
677.801	0.0165509
677.879	0.0164754
677.957	0.0164513
678.035	0.0164516
678.113	0.0165353
678.192	0.0165343
678.270	0.0164502
678.348	0.0165951
678.426	0.0166577
678.504	0.0165102
678.582	0.0166322
678.660	0.0165438
678.738	0.0166565
678.817	0.0165485
678.895	0.0165585
678.973	0.0164581
679.051	0.0164137
679.129	0.0165825
679.207	0.0166696
679.285	0.0165148
679.363	0.0165006
679.442	0.0165348
679.520	0.0165102
679.598	0.0165302
679.676	0.0165586
679.754	0.0165280
679.832	0.0163925
679.910	0.0163493
679.988	0.0164236
680.067	0.0163979
680.145	0.0164288
680.223	0.0162811
680.301	0.0164389
680.379	0.0163875
680.457	0.0164046
680.535	0.0163085
680.613	0.0164132
680.692	0.0164011
680.770	0.0165173
680.848	0.0164607
680.926	0.0163512
681.004	0.0164915
681.082	0.0164715
681.160	0.0164595
681.238	0.0165657
681.317	0.0165750
681.395	0.0166106
681.473	0.0166112
681.551	0.0165055
681.629	0.0166216
681.707	0.0166723
681.785	0.0167505
681.863	0.0166002
681.942	0.0166377
682.020	0.0166704
682.098	0.0165952
682.176	0.0165186
682.254	0.0165064
682.332	0.0165509
682.410	0.0165044
682.488	0.0164388
682.567	0.0166515
682.645	0.0164717
682.723	0.0165692
682.801	0.0166009
682.879	0.0163847
682.957	0.0165153
683.035	0.0163557
683.113	0.0164462
683.192	0.0164584
683.270	0.0163836
683.348	0.0163951
683.426	0.0164297
683.504	0.0165668
683.582	0.0164722
683.660	0.0163763
683.738	0.0165495
683.817	0.0164925
683.895	0.0164491
683.973	0.0164860
684.051	0.0165003
684.129	0.0165626
684.207	0.0167400
684.285	0.0166893
684.363	0.0166030
684.442	0.0165788
684.520	0.0165231
684.598	0.0166624
684.676	0.0166087
684.754	0.0167379
684.832	0.0166479
684.910	0.0166106
684.988	0.0167321
685.067	0.0167594
685.145	0.0164864
685.223	0.0165708
685.301	0.0165926
685.379	0.0164368
685.457	0.0165514
685.535	0.0164401
685.613	0.0165083
685.692	0.0163432
685.770	0.0165944
685.848	0.0164017
685.926	0.0164718
686.004	0.0166083
686.082	0.0165131
686.160	0.0163312
686.238	0.0162948
686.317	0.0163422
686.395	0.0162515
686.473	0.0161526
686.551	0.0161059
686.629	0.0158067
686.707	0.0155072
686.785	0.0154567
686.863	0.0151106
686.942	0.0150449
687.020	0.0150652
687.098	0.0156237
687.176	0.0163895
687.254	0.0176608
687.332	0.0194688
687.410	0.0217657
687.488	0.0241653
687.567	0.0263672
687.645	0.0281154
687.723	0.0290785
687.801	0.0288726
687.879	0.0276221
687.957	0.0252296
688.035	0.0218050
688.113	0.0178146
688.192	0.0130595
688.270	0.00807091
688.348	0.00323235
688.426	-0.00156754
688.504	-0.00565620
688.582	-0.00868698
688.660	-0.0107589
688.738	-0.0116418
688.817	-0.0111878
688.895	-0.00986710
688.973	-0.00737953
689.051	-0.00379036
689.129	0.000256729
689.207	0.00508316
689.285	0.0102082
689.363	0.0154104
689.442	0.0207340
689.520	0.0260148
689.598	0.0311510
689.676	0.0357185
689.754	0.0401342
689.832	0.0442903
689.910	0.0479331
689.988	0.0512036
690.067	0.0533452
690.145	0.0549452
690.223	0.0556271
690.301	0.0553233
690.379	0.0538669
690.457	0.0516172
690.535	0.0483993
690.613	0.0443739
690.692	0.0394317
690.770	0.0338261
690.848	0.0282290
690.926	0.0220992
691.004	0.0158659
691.082	0.00943680
691.160	0.00350403
691.238	-0.00212509
691.317	-0.00735901
691.395	-0.0121210
691.473	-0.0160741
691.551	-0.0192849
691.629	-0.0217791
691.707	-0.0236559
691.785	-0.0242891
691.863	-0.0240913
691.942	-0.0230972
692.020	-0.0213390
692.098	-0.0188597
692.176	-0.0157536
692.254	-0.0122161
692.332	-0.00843498
692.410	-0.00437813
692.488	-0.000308304
692.567	0.00384583
692.645	0.00806366
692.723	0.0118742
692.801	0.0156055
692.879	0.0189186
692.957	0.0217793
693.035	0.0243477
693.113	0.0264973
693.192	0.0283782
693.270	0.0296984
693.348	0.0311590
693.426	0.0324709
693.504	0.0334736
693.582	0.0343757
693.660	0.0353661
693.738	0.0362955
693.817	0.0372404
693.895	0.0379195
693.973	0.0385542
694.051	0.0390084
694.129	0.0394882
694.207	0.0395473
694.285	0.0394296
694.363	0.0389946
694.442	0.0383813
694.520	0.0374903
694.598	0.0364393
694.676	0.0348863
694.754	0.0334940
694.832	0.0317998
694.910	0.0299314
694.988	0.0278783
695.067	0.0260714
695.145	0.0240223
695.223	0.0220300
695.301	0.0199340
695.379	0.0180482
695.457	0.0161018
695.535	0.0141193
695.613	0.0123256
695.692	0.0108347
695.770	0.00922096
695.848	0.00785683
695.926	0.00652870
696.004	0.00524643
696.082	0.00427330
696.160	0.00339615
696.238	0.00269081
696.317	0.00213242
696.395	0.00159660
696.473	0.000956879
696.551	0.000703888
696.629	0.000361557
696.707	0.000132751
696.785	-0.0000203705
696.863	-0.0000745392
696.942	-0.000266495
697.020	0.0000998688
697.098	0.000205002
697.176	0.000550842
697.254	0.00108505
697.332	0.00183350
697.410	0.00272667
697.488	0.00368416
697.567	0.00480202
697.645	0.00605713
697.723	0.00744057
697.801	0.00908905
697.879	0.0105107
697.957	0.0120908
698.035	0.0135920
698.113	0.0150934
698.192	0.0165166
698.270	0.0180056
698.348	0.0191994
698.426	0.0203345
698.504	0.0213695
698.582	0.0219635
698.660	0.0227998
698.738	0.0232712
698.817	0.0237854
698.895	0.0239970
698.973	0.0240807
699.051	0.0241714
699.129	0.0243271
699.207	0.0241963
699.285	0.0239915
699.363	0.0238029
699.442	0.0237156
699.520	0.0233811
699.598	0.0232211
699.676	0.0230499
699.754	0.0228769
699.832	0.0229677
699.910	0.0231546
699.988	0.0236287
700.067	0.0238435
700.145	0.0241526
700.223	0.0248332
700.301	0.0252179
700.379	0.0257388
700.457	0.0264158
700.535	0.0268192
700.613	0.0272443
700.692	0.0272820
700.770	0.0273186
700.848	0.0271095
700.926	0.0267182
701.004	0.0261588
701.082	0.0252473
701.160	0.0241708
701.238	0.0230083
701.317	0.0217232
701.395	0.0203796
701.473	0.0191524
701.551	0.0178676
701.629	0.0163769
701.707	0.0154247
701.785	0.0141763
701.863	0.0132333
701.942	0.0122552
702.020	0.0113697
702.098	0.0107649
702.176	0.00998131
702.254	0.00954803
702.332	0.00926979
702.410	0.00911713
702.488	0.00917290
702.567	0.00925102
702.645	0.00944809
702.723	0.00978577
702.801	0.0102272
702.879	0.0105775
702.957	0.0109008
703.035	0.0111354
703.113	0.0114999
703.192	0.0116161
703.270	0.0116884
703.348	0.0117289
703.426	0.0116623
703.504	0.0114031
703.582	0.0111511
703.660	0.0107806
703.738	0.0104765
703.817	0.00996132
703.895	0.00951683
703.973	0.00914505
704.051	0.00901512
704.129	0.00881767
704.207	0.00882240
704.285	0.00905457
704.363	0.00937637
704.442	0.00993805
704.520	0.0103921
704.598	0.0110571
704.676	0.0118893
704.754	0.0124459
704.832	0.0132520
704.910	0.0141239
704.988	0.0149400
705.067	0.0157765
705.145	0.0162831
705.223	0.0173095
705.301	0.0179834
705.379	0.0186283
705.457	0.0190514
705.535	0.0194511
705.613	0.0197218
705.692	0.0202137
705.770	0.0203987
705.848	0.0203651
705.926	0.0207158
706.004	0.0207748
706.082	0.0207600
706.160	0.0207584
706.238	0.0209000
706.317	0.0207954
706.395	0.0207769
706.473	0.0206281
706.551	0.0204414
706.629	0.0204314
706.707	0.0204534
706.785	0.0204192
706.863	0.0205637
706.942	0.0205531
707.020	0.0206534
707.098	0.0207971
707.176	0.0210008
707.254	0.0211754
707.332	0.0211806
707.410	0.0214771
707.488	0.0216991
707.567	0.0218259
707.645	0.0218454
707.723	0.0220971
707.801	0.0222969
707.879	0.0222614
707.957	0.0221767
708.035	0.0221800
708.113	0.0219460
708.192	0.0213833
708.270	0.0211155
708.348	0.0207214
708.426	0.0201134
708.504	0.0195546
708.582	0.0188286
708.660	0.0182444
708.738	0.0176402
708.817	0.0170380
708.895	0.0165427
708.973	0.0158382
709.051	0.0153416
709.129	0.0147979
709.207	0.0144998
709.285	0.0143031
709.363	0.0137527
709.442	0.0134278
709.520	0.0135570
709.598	0.0133507
709.676	0.0130927
709.754	0.0132466
709.832	0.0131754
709.910	0.0131752
709.988	0.0131250
710.067	0.0133178
710.145	0.0131441
710.223	0.0132011
710.301	0.0132486
710.379	0.0132718
710.457	0.0132991
710.535	0.0134525
710.613	0.0134579
710.692	0.0135456
710.770	0.0134131
710.848	0.0133366
710.926	0.0132310
711.004	0.0131618
711.082	0.0131536
711.160	0.0129217
711.238	0.0128093
711.317	0.0124280
711.395	0.0123452
711.473	0.0122749
711.551	0.0121633
711.629	0.0121418
711.707	0.0119001
711.785	0.0120432
711.863	0.0120953
711.942	0.0122478
712.020	0.0124621
712.098	0.0127208
712.176	0.0128923
712.254	0.0134558
712.332	0.0137479
712.410	0.0141978
712.488	0.0146033
712.567	0.0150165
712.645	0.0155531
712.723	0.0158567
712.801	0.0163754
712.879	0.0167359
712.957	0.0172491
713.035	0.0176034
713.113	0.0177589
713.192	0.0180868
713.270	0.0185590
713.348	0.0188068
713.426	0.0190996
713.504	0.0193410
713.582	0.0194790
713.660	0.0195456
713.738	0.0197073
713.817	0.0195941
713.895	0.0195528
713.973	0.0195306
714.051	0.0192795
714.129	0.0190675
714.207	0.0190008
714.285	0.0189230
714.363	0.0188056
714.442	0.0186591
714.520	0.0186804
714.598	0.0185821
714.676	0.0188483
714.754	0.0188940
714.832	0.0190910
714.910	0.0192564
714.988	0.0196634
715.067	0.0199969
715.145	0.0202369
715.223	0.0205208
715.301	0.0208684
715.379	0.0208367
715.457	0.0209689
715.535	0.0208655
715.613	0.0206669
715.692	0.0206724
715.770	0.0202908
715.848	0.0201247
715.926	0.0197305
716.004	0.0192396
716.082	0.0188925
716.160	0.0184919
716.238	0.0180308
716.317	0.0176401
716.395	0.0174773
716.473	0.0169335
716.551	0.0166530
716.629	0.0164630
716.707	0.0163362
716.785	0.0161146
716.863	0.0159673
716.942	0.0156998
717.020	0.0157215
717.098	0.0157204
717.176	0.0155353
717.254	0.0153068
717.332	0.0154991
717.410	0.0153317
717.488	0.0153759
717.567	0.0153470
717.645	0.0152353
717.723	0.0152267
717.801	0.0152573
717.879	0.0151453
717.957	0.0151601
718.035	0.0152636
718.113	0.0151131
718.192	0.0148809
718.270	0.0149280
718.348	0.0147730
718.426	0.0146141
718.504	0.0144576
718.582	0.0143449
718.660	0.0142748
718.738	0.0140048
718.817	0.0136843
718.895	0.0135545
718.973	0.0133836
719.051	0.0130837
719.129	0.0128730
719.207	0.0126678
719.285	0.0124624
719.363	0.0123218
719.442	0.0121478
719.520	0.0121568
719.598	0.0121954
719.676	0.0121715
719.754	0.0124230
719.832	0.0127288
719.910	0.0130746
719.988	0.0134060
720.067	0.0136926
720.145	0.0141488
720.223	0.0144585
720.301	0.0147923
720.379	0.0153461
720.457	0.0158521
720.535	0.0159741
720.613	0.0162718
720.692	0.0166759
720.770	0.0169618
720.848	0.0171957
720.926	0.0174137
721.004	0.0175434
721.082	0.0175561
721.160	0.0177541
721.238	0.0179076
721.317	0.0178934
721.395	0.0178801
721.473	0.0178848
721.551	0.0178859
721.629	0.0179070
721.707	0.0178560
721.785	0.0179879
721.863	0.0179630
721.942	0.0180390
722.020	0.0179758
722.098	0.0180431
722.176	0.0182324
722.254	0.0184537
722.332	0.0184439
722.410	0.0186122
722.488	0.0189175
722.567	0.0191666
722.645	0.0195137
722.723	0.0197251
722.801	0.0199227
722.879	0.0202235
722.957	0.0206235
723.035	0.0207513
723.113	0.0206731
723.192	0.0208656
723.270	0.0206566
723.348	0.0205051
723.426	0.0204018
723.504	0.0201161
723.582	0.0198702
723.660	0.0194435
723.738	0.0190821
723.817	0.0187124
723.895	0.0184325
723.973	0.0180444
724.051	0.0176331
724.129	0.0174254
724.207	0.0172066
724.285	0.0169618
724.363	0.0169191
724.442	0.0166560
724.520	0.0164294
724.598	0.0162520
724.676	0.0161610
724.754	0.0160037
724.832	0.0159224
724.910	0.0158560
724.988	0.0157726
725.067	0.0154607
725.145	0.0156871
725.223	0.0156310
725.301	0.0154005
725.379	0.0152945
725.457	0.0154779
725.535	0.0155761
725.613	0.0155045
725.692	0.0156899
725.770	0.0156288
725.848	0.0155117
725.926	0.0156407
726.004	0.0154908
726.082	0.0153757
726.160	0.0153471
726.238	0.0151389
726.317	0.0149470
726.395	0.0148669
726.473	0.0146221
726.551	0.0145766
726.629	0.0143587
726.707	0.0140406
726.785	0.0137323
726.863	0.0135255
726.942	0.0132127
727.020	0.0131238
727.098	0.0128810
727.176	0.0128615
727.254	0.0127806
727.332	0.0126891
727.410	0.0126119
727.488	0.0126820
727.567	0.0127762
727.645	0.0130435
727.723	0.0132758
727.801	0.0133405
727.879	0.0137843
727.957	0.0140733
728.035	0.0142345
728.113	0.0146842
728.192	0.0150232
728.270	0.0154021
728.348	0.0156403
728.426	0.0158470
728.504	0.0163766
728.582	0.0164994
728.660	0.0166730
728.738	0.0168281
728.817	0.0170192
728.895	0.0171201
728.973	0.0171859
729.051	0.0173547
729.129	0.0176985
729.207	0.0178325
729.285	0.0178694
729.363	0.0178499
729.442	0.0181239
729.520	0.0181543
729.598	0.0182899
729.676	0.0185716
729.754	0.0185944
729.832	0.0185275
729.910	0.0184093
729.988	0.0184900
730.067	0.0185855
730.145	0.0185391
730.223	0.0184027
730.301	0.0185175
730.379	0.0185123
730.457	0.0186101
730.535	0.0186287
730.613	0.0188343
730.692	0.0189352
730.770	0.0189861
730.848	0.0191998
730.926	0.0194685
731.004	0.0195661
731.082	0.0196826
731.160	0.0196653
731.238	0.0198231
731.317	0.0198093
731.395	0.0197254
731.473	0.0196525
731.551	0.0194877
731.629	0.0192084
731.707	0.0190579
731.785	0.0187038
731.863	0.0184109
731.942	0.0180946
732.020	0.0177804
732.098	0.0174316
732.176	0.0169054
732.254	0.0166418
732.332	0.0164679
732.410	0.0160678
732.488	0.0157603
732.567	0.0156397
732.645	0.0155863
732.723	0.0153870
732.801	0.0152483
732.879	0.0152277
732.957	0.0150974
733.035	0.0149139
733.113	0.0151014
733.192	0.0151259
733.270	0.0150962
733.348	0.0151157
733.426	0.0152624
733.504	0.0152355
733.582	0.0153527
733.660	0.0153994
733.738	0.0154158
733.817	0.0153110
733.895	0.0154152
733.973	0.0153127
734.051	0.0151474
734.129	0.0151776
734.207	0.0152005
734.285	0.0150232
734.363	0.0149497
734.442	0.0149069
734.520	0.0148804
734.598	0.0147038
734.676	0.0147428
734.754	0.0146704
734.832	0.0144131
734.910	0.0144447
734.988	0.0142507
735.067	0.0142279
735.145	0.0142439
735.223	0.0142339
735.301	0.0142002
735.379	0.0142239
735.457	0.0142957
735.535	0.0143980
735.613	0.0144257
735.692	0.0145120
735.770	0.0147086
735.848	0.0149419
735.926	0.0151608
736.004	0.0153875
736.082	0.0154993
736.160	0.0158159
736.238	0.0161288
736.317	0.0162091
736.395	0.0165914
736.473	0.0166803
736.551	0.0168015
736.629	0.0169563
736.707	0.0173795
736.785	0.0173188
736.863	0.0172984
736.942	0.0175111
737.020	0.0176222
737.098	0.0178199
737.176	0.0177305
737.254	0.0177342
737.332	0.0179050
737.410	0.0178101
737.488	0.0177203
737.567	0.0176729
737.645	0.0175805
737.723	0.0176344
737.801	0.0176290
737.879	0.0174777
737.957	0.0174872
738.035	0.0175084
738.113	0.0173631
738.192	0.0174019
738.270	0.0174957
738.348	0.0175888
738.426	0.0175507
738.504	0.0180902
738.582	0.0181577
738.660	0.0183293
738.738	0.0185301
738.817	0.0187588
738.895	0.0190639
738.973	0.0188819
739.051	0.0192019
739.129	0.0194032
739.207	0.0193359
739.285	0.0193805
739.363	0.0191381
739.442	0.0192237
739.520	0.0191597
739.598	0.0187546
739.676	0.0185365
739.754	0.0184312
739.832	0.0181075
739.910	0.0178324
739.988	0.0176086
740.067	0.0172596
740.145	0.0169965
740.223	0.0166577
740.301	0.0163422
740.379	0.0160807
740.457	0.0159138
740.535	0.0155677
740.613	0.0152812
740.692	0.0151955
740.770	0.0149112
740.848	0.0149045
740.926	0.0145422
741.004	0.0145683
741.082	0.0146283
741.160	0.0144913
741.238	0.0144664
741.317	0.0144781
741.395	0.0145659
741.473	0.0145966
741.551	0.0146186
741.629	0.0148707
741.707	0.0150412
741.785	0.0151029
741.863	0.0152668
741.942	0.0151985
742.020	0.0154034
742.098	0.0156492
742.176	0.0157796
742.254	0.0156967
742.332	0.0158978
742.410	0.0159204
742.488	0.0161255
742.567	0.0160849
742.645	0.0159590
742.723	0.0160081
742.801	0.0158929
742.879	0.0159010
742.957	0.0158982
743.035	0.0157239
743.113	0.0155715
743.192	0.0155698
743.270	0.0156081
743.348	0.0154462
743.426	0.0153860
743.504	0.0154904
743.582	0.0156972
743.660	0.0156135
743.738	0.0157945
743.817	0.0157506
743.895	0.0158951
743.973	0.0160754
744.051	0.0161868
744.129	0.0162763
744.207	0.0162617
744.285	0.0162925
744.363	0.0164322
744.442	0.0165673
744.520	0.0165511
744.598	0.0165285
744.676	0.0164629
744.754	0.0166517
744.832	0.0166454
744.910	0.0167645
744.988	0.0168553
745.067	0.0166917
745.145	0.0166457
745.223	0.0166872
745.301	0.0167509
745.379	0.0169839
745.457	0.0169535
745.535	0.0170654
745.613	0.0171110
745.692	0.0170637
745.770	0.0171140
745.848	0.0172099
745.926	0.0172187
746.004	0.0172900
746.082	0.0174541
746.160	0.0174397
746.238	0.0174556
746.317	0.0175787
746.395	0.0176488
746.473	0.0176868
746.551	0.0175887
746.629	0.0178872
746.707	0.0179099
746.785	0.0179235
746.863	0.0178438
746.942	0.0180293
747.020	0.0178970
747.098	0.0179607
747.176	0.0179433
747.254	0.0180467
747.332	0.0179406
747.410	0.0178020
747.488	0.0177234
747.567	0.0176117
747.645	0.0175427
747.723	0.0173724
747.801	0.0170978
747.879	0.0171099
747.957	0.0168163
748.035	0.0168108
748.113	0.0167514
748.192	0.0165169
748.270	0.0164113
748.348	0.0162568
748.426	0.0161803
748.504	0.0161326
748.582	0.0159661
748.660	0.0159311
748.738	0.0158881
748.817	0.0159409
748.895	0.0156882
748.973	0.0156574
749.051	0.0154694
749.129	0.0154846
749.207	0.0154494
749.285	0.0153757
749.363	0.0154557
749.442	0.0154202
749.520	0.0152699
749.598	0.0153622
749.676	0.0154857
749.754	0.0154947
749.832	0.0155863
749.910	0.0158190
749.988	0.0159786
750.067	0.0160436
750.145	0.0161672
750.223	0.0163203
750.301	0.0163772
750.379	0.0164657
750.457	0.0165300
750.535	0.0166634
750.613	0.0165171
750.692	0.0164283
750.770	0.0164027
750.848	0.0163388
750.926	0.0161098
751.004	0.0158957
751.082	0.0157692
751.160	0.0155758
751.238	0.0153547
751.317	0.0151750
751.395	0.0151044
751.473	0.0148434
751.551	0.0147968
751.629	0.0148354
751.707	0.0148251
751.785	0.0148929
751.863	0.0151192
751.942	0.0152426
752.020	0.0152979
752.098	0.0154686
752.176	0.0156805
752.254	0.0158338
752.332	0.0161459
752.410	0.0163124
752.488	0.0165860
752.567	0.0165849
752.645	0.0169057
752.723	0.0170436
752.801	0.0171304
752.879	0.0173048
752.957	0.0173405
753.035	0.0174863
753.113	0.0174973
753.192	0.0174911
753.270	0.0175979
753.348	0.0173689
753.426	0.0175089
753.504	0.0173795
753.582	0.0173274
753.660	0.0174384
753.738	0.0171576
753.817	0.0171197
753.895	0.0170228
753.973	0.0170617
754.051	0.0169948
754.129	0.0169699
754.207	0.0169937
754.285	0.0169738
754.363	0.0170942
754.442	0.0169923
754.520	0.0171126
754.598	0.0172988
754.676	0.0173008
754.754	0.0172942
754.832	0.0174651
754.910	0.0174840
754.988	0.0175943
755.067	0.0177650
755.145	0.0177735
755.223	0.0176826
755.301	0.0177132
755.379	0.0176328
755.457	0.0176189
755.535	0.0175704
755.613	0.0174953
755.692	0.0173806
755.770	0.0173047
755.848	0.0170463
755.926	0.0167854
756.004	0.0166654
756.082	0.0165663
756.160	0.0165155
756.238	0.0163345
756.317	0.0161861
756.395	0.0161069
756.473	0.0161192
756.551	0.0159047
756.629	0.0158833
756.707	0.0158163
756.785	0.0158008
756.863	0.0158339
756.942	0.0156854
757.020	0.0157127
757.098	0.0156633
757.176	0.0155893
757.254	0.0154362
757.332	0.0155936
757.410	0.0156176
757.488	0.0157230
757.567	0.0157594
757.645	0.0156451
757.723	0.0156900
757.801	0.0157828
757.879	0.0158029
757.957	0.0158528
758.035	0.0159177
758.113	0.0158947
758.192	0.0161340
758.270	0.0160946
758.348	0.0163624
758.426	0.0162369
758.504	0.0161352
758.582	0.0163110
758.660	0.0164493
758.738	0.0163123
758.817	0.0162791
758.895	0.0164001
758.973	0.0162080
759.051	0.0162657
759.129	0.0163504
759.207	0.0162989
759.285	0.0162537
759.363	0.0161144
759.442	0.0160699
759.520	0.0159301
759.598	0.0160628
759.676	0.0161086
759.754	0.0160243
759.832	0.0161083
759.910	0.0160954
759.988	0.0161355
760.067	0.0163714
760.145	0.0163680
760.223	0.0163710
760.301	0.0164375
760.379	0.0164748
760.457	0.0163873
760.535	0.0165954
760.613	0.0167462
760.692	0.0167647
760.770	0.0167521
760.848	0.0167962
760.926	0.0169206
761.004	0.0169153
761.082	0.0169598
761.160	0.0169028
761.238	0.0170049
761.317	0.0169578
761.395	0.0169492
761.473	0.0169620
761.551	0.0168328
761.629	0.0168488
761.707	0.0167561
761.785	0.0167212
761.863	0.0166191
761.942	0.0166484
762.020	0.0166054
762.098	0.0164455
762.176	0.0166542
762.254	0.0165741
762.332	0.0165736
762.410	0.0165638
762.488	0.0165996
762.567	0.0166306
762.645	0.0167199
762.723	0.0168235
762.801	0.0170232
762.879	0.0169398
762.957	0.0170432
763.035	0.0170518
763.113	0.0172814
763.192	0.0172883
763.270	0.0172498
763.348	0.0173774
763.426	0.0174977
763.504	0.0173838
763.582	0.0174261
763.660	0.0174032
763.738	0.0174435
763.817	0.0173882
763.895	0.0172983
763.973	0.0172989
764.051	0.0171089
764.129	0.0169373
764.207	0.0167866
764.285	0.0166749
764.363	0.0164579
764.442	0.0162691
764.520	0.0162910
764.598	0.0160635
764.676	0.0159058
764.754	0.0158212
764.832	0.0157792
764.910	0.0157120
764.988	0.0156436
765.067	0.0156966
765.145	0.0156448
765.223	0.0158721
765.301	0.0158383
765.379	0.0158438
765.457	0.0157962
765.535	0.0160432
765.613	0.0162298
765.692	0.0161324
765.770	0.0162782
765.848	0.0163719
765.926	0.0164289
766.004	0.0165735
766.082	0.0163915
766.160	0.0164412
766.238	0.0165603
766.317	0.0166039
766.395	0.0164835
766.473	0.0164902
766.551	0.0164965
766.629	0.0166232
766.707	0.0164486
766.785	0.0163554
766.863	0.0164632
766.942	0.0164232
767.020	0.0164224
767.098	0.0164367
767.176	0.0163496
767.254	0.0160606
767.332	0.0162479
767.410	0.0161279
767.488	0.0159763
767.567	0.0159428
767.645	0.0158606
767.723	0.0159573
767.801	0.0157674
767.879	0.0158670
767.957	0.0159376
768.035	0.0159436
768.113	0.0160152
768.192	0.0161373
768.270	0.0161848
768.348	0.0161893
768.426	0.0161366
768.504	0.0163680
768.582	0.0165443
768.660	0.0165845
768.738	0.0166824
768.817	0.0167158
768.895	0.0166509
768.973	0.0168849
769.051	0.0167287
769.129	0.0168534
769.207	0.0168590
769.285	0.0169534
769.363	0.0169295
769.442	0.0168843
769.520	0.0170809
769.598	0.0170300
769.676	0.0168695
769.754	0.0169215
769.832	0.0167093
769.910	0.0167862
769.988	0.0167472
770.067	0.0165977
770.145	0.0167042
770.223	0.0164349
770.301	0.0163795
770.379	0.0162993
770.457	0.0164211
770.535	0.0164394
770.613	0.0164213
770.692	0.0164306
770.770	0.0163364
770.848	0.0163465
770.926	0.0163681
771.004	0.0165204
771.082	0.0164735
771.160	0.0164664
771.238	0.0165411
771.317	0.0166483
771.395	0.0166067
771.473	0.0166428
771.551	0.0168106
771.629	0.0166842
771.707	0.0167441
771.785	0.0167062
771.863	0.0167881
771.942	0.0167159
772.020	0.0166283
772.098	0.0166937
772.176	0.0165894
772.254	0.0166816
772.332	0.0165746
772.410	0.0164643
772.488	0.0163759
772.567	0.0165884
772.645	0.0165784
772.723	0.0165504
772.801	0.0167129
772.879	0.0165194
772.957	0.0164269
773.035	0.0166209
773.113	0.0167755
773.192	0.0167034
773.270	0.0168034
773.348	0.0167419
773.426	0.0167970
773.504	0.0169585
773.582	0.0168135
773.660	0.0167214
773.738	0.0167788
773.817	0.0168209
773.895	0.0167181
773.973	0.0166937
774.051	0.0166909
774.129	0.0166916
774.207	0.0166541
774.285	0.0168375
774.363	0.0167829
774.442	0.0165981
774.520	0.0166158
774.598	0.0165419
774.676	0.0165964
774.754	0.0165208
774.832	0.0164493
774.910	0.0164645
774.988	0.0165363
775.067	0.0163192
775.145	0.0161808
775.223	0.0161044
775.301	0.0161781
775.379	0.0159821
775.457	0.0159956
775.535	0.0159586
775.613	0.0158321
775.692	0.0158909
775.770	0.0157362
775.848	0.0158095
775.926	0.0159583
776.004	0.0158389
776.082	0.0158687
776.160	0.0158337
776.238	0.0158719
776.317	0.0159585
776.395	0.0158971
776.473	0.0161089
776.551	0.0160398
776.629	0.0160494
776.707	0.0162325
776.785	0.0159986
776.863	0.0161994
776.942	0.0162386
777.020	0.0162082
777.098	0.0162598
777.176	0.0162453
777.254	0.0164917
777.332	0.0164912
777.410	0.0165672
777.488	0.0165748
777.567	0.0165640
777.645	0.0166151
777.723	0.0167096
777.801	0.0167518
777.879	0.0167310
777.957	0.0167514
778.035	0.0168833
778.113	0.0168742
778.192	0.0168117
778.270	0.0166733
778.348	0.0168556
778.426	0.0168869
778.504	0.0167625
778.582	0.0167077
778.660	0.0168215
778.738	0.0167182
778.817	0.0168649
778.895	0.0167939
778.973	0.0167293
779.051	0.0167475
779.129	0.0167461
779.207	0.0168446
779.285	0.0166696
779.363	0.0168707
779.442	0.0169489
779.520	0.0169405
779.598	0.0168621
779.676	0.0170204
779.754	0.0170099
779.832	0.0169836
779.910	0.0170134
779.988	0.0169504
780.067	0.0169940
780.145	0.0169910
780.223	0.0169598
780.301	0.0169248
780.379	0.0168206
780.457	0.0169874
780.535	0.0167406
780.613	0.0166779
780.692	0.0166206
780.770	0.0165202
780.848	0.0165896
780.926	0.0165127
781.004	0.0166341
781.082	0.0164989
781.160	0.0165506
781.238	0.0165525
781.317	0.0164230
781.395	0.0165540
781.473	0.0165250
781.551	0.0164095
781.629	0.0164653
781.707	0.0163985
781.785	0.0164663
781.863	0.0164138
781.942	0.0163839
782.020	0.0162502
782.098	0.0163017
782.176	0.0162060
782.254	0.0163277
782.332	0.0162241
782.410	0.0162316
782.488	0.0161510
782.567	0.0160183
782.645	0.0161098
782.723	0.0161572
782.801	0.0160923
782.879	0.0160878
782.957	0.0159216
783.035	0.0162083
783.113	0.0161308
783.192	0.0161529
783.270	0.0161803
783.348	0.0161440
783.426	0.0162913
783.504	0.0162279
783.582	0.0162333
783.660	0.0164196
783.738	0.0164046
783.817	0.0166662
783.895	0.0168661
783.973	0.0167613
784.051	0.0168456
784.129	0.0169495
784.207	0.0168723
784.285	0.0167805
784.363	0.0167157
784.442	0.0166163
784.520	0.0164541
784.598	0.0162867
784.676	0.0159301
784.754	0.0157613
784.832	0.0154762
784.910	0.0151591
784.988	0.0149194
785.067	0.0147424
785.145	0.0144997
785.223	0.0144269
785.301	0.0144860
785.379	0.0143651
785.457	0.0143132
785.535	0.0146834
785.613	0.0148486
785.692	0.0148565
785.770	0.0151852
785.848	0.0156036
785.926	0.0160114
786.004	0.0164887
786.082	0.0171001
786.160	0.0176804
786.238	0.0182478
786.317	0.0188402
786.395	0.0194543
786.473	0.0200507
786.551	0.0204572
786.629	0.0207260
786.707	0.0208803
786.785	0.0209824
786.863	0.0209601
786.942	0.0207954
787.020	0.0206540
787.098	0.0205701
787.176	0.0200901
787.254	0.0194169
787.332	0.0190744
787.410	0.0184128
787.488	0.0179301
787.567	0.0174316
787.645	0.0166191
787.723	0.0161182
787.801	0.0155917
787.879	0.0148135
787.957	0.0142129
788.035	0.0138612
788.113	0.0133401
788.192	0.0127975
788.270	0.0126706
788.348	0.0123602
788.426	0.0122891
788.504	0.0121586
788.582	0.0121179
788.660	0.0121800
788.738	0.0121666
788.817	0.0122155
788.895	0.0126379
788.973	0.0129280
789.051	0.0132256
789.129	0.0135665
789.207	0.0139014
789.285	0.0141820
789.363	0.0146181
789.442	0.0150420
789.520	0.0155041
789.598	0.0159076
789.676	0.0163259
789.754	0.0167408
789.832	0.0172005
789.910	0.0174321
789.988	0.0178163
790.067	0.0182596
790.145	0.0185737
790.223	0.0188598
790.301	0.0192287
790.379	0.0194982
790.457	0.0196468
790.535	0.0197871
790.613	0.0198795
790.692	0.0198564
790.770	0.0201575
790.848	0.0201984
790.926	0.0200922
791.004	0.0201173
791.082	0.0200232
791.160	0.0200366
791.238	0.0198921
791.317	0.0196240
791.395	0.0192397
791.473	0.0190829
791.551	0.0186908
791.629	0.0183461
791.707	0.0181352
791.785	0.0177196
791.863	0.0172047
791.942	0.0170087
792.020	0.0166863
792.098	0.0162078
792.176	0.0160222
792.254	0.0156818
792.332	0.0154267
792.410	0.0152761
792.488	0.0149573
792.567	0.0147157
792.645	0.0145995
792.723	0.0145252
792.801	0.0144295
792.879	0.0143633
792.957	0.0140991
793.035	0.0140174
793.113	0.0140004
793.192	0.0139324
793.270	0.0136559
793.348	0.0135194
793.426	0.0132516
793.504	0.0134019
793.582	0.0130752
793.660	0.0131766
793.738	0.0131406
793.817	0.0131226
793.895	0.0131120
793.973	0.0134056
794.051	0.0134904
794.129	0.0135825
794.207	0.0138686
794.285	0.0140710
794.363	0.0145273
794.442	0.0148193
794.520	0.0150861
794.598	0.0154453
794.676	0.0158673
794.754	0.0161780
794.832	0.0164265
794.910	0.0167928
794.988	0.0170615
795.067	0.0172179
795.145	0.0173997
795.223	0.0175739
795.301	0.0178215
795.379	0.0179781
795.457	0.0181557
795.535	0.0181953
795.613	0.0182378
795.692	0.0184615
795.770	0.0185435
795.848	0.0187681
795.926	0.0187782
796.004	0.0188261
796.082	0.0189886
796.160	0.0190458
796.238	0.0189887
796.317	0.0191184
796.395	0.0191778
796.473	0.0191112
796.551	0.0191285
796.629	0.0189154
796.707	0.0189983
796.785	0.0189420
796.863	0.0189172
796.942	0.0187436
797.020	0.0187029
797.098	0.0184679
797.176	0.0182864
797.254	0.0182919
797.332	0.0181147
797.410	0.0178018
797.488	0.0176238
797.567	0.0175372
797.645	0.0173778
797.723	0.0170748
797.801	0.0169152
797.879	0.0167947
797.957	0.0166059
798.035	0.0164081
798.113	0.0163769
798.192	0.0162184
798.270	0.0159396
798.348	0.0157149
798.426	0.0156748
798.504	0.0156224
798.582	0.0153812
798.660	0.0151624
798.738	0.0149583
798.817	0.0149592
798.895	0.0148567
798.973	0.0149435
799.051	0.0147898
799.129	0.0145412
799.207	0.0144839
799.285	0.0147011
799.363	0.0145874
799.442	0.0144854
799.520	0.0144846
799.598	0.0146073
799.676	0.0145950
799.754	0.0145467
799.832	0.0146848
799.910	0.0145365
799.988	0.0145507
800.067	0.0146352
800.145	0.0147864
800.223	0.0147308
800.301	0.0146222
800.379	0.0146698
800.457	0.0146841
800.535	0.0149582
800.613	0.0148798
800.692	0.0148969
800.770	0.0150428
800.848	0.0151192
800.926	0.0150838
801.004	0.0152560
801.082	0.0154847
801.160	0.0154622
801.238	0.0157713
801.317	0.0159044
801.395	0.0161522
801.473	0.0163711
801.551	0.0165419
801.629	0.0166788
801.707	0.0169479
801.785	0.0172799
801.863	0.0172926
801.942	0.0174156
802.020	0.0175712
802.098	0.0178244
802.176	0.0180315
802.254	0.0182180
802.332	0.0182255
802.410	0.0182919
802.488	0.0183801
802.567	0.0184995
802.645	0.0186537
802.723	0.0187594
802.801	0.0186447
802.879	0.0185344
802.957	0.0186290
803.035	0.0186177
803.113	0.0184653
803.192	0.0183076
803.270	0.0182254
803.348	0.0180197
803.426	0.0178890
803.504	0.0176933
803.582	0.0174794
803.660	0.0173119
803.738	0.0172398
803.817	0.0172617
803.895	0.0170631
803.973	0.0168243
804.051	0.0166978
804.129	0.0166985
804.207	0.0167641
804.285	0.0164574
804.363	0.0166266
804.442	0.0165913
804.520	0.0163069
804.598	0.0164504
804.676	0.0164157
804.754	0.0164117
804.832	0.0163196
804.910	0.0164383
804.988	0.0162878
805.067	0.0160651
805.145	0.0162390
805.223	0.0161832
805.301	0.0160451
805.379	0.0160339
805.457	0.0160364
805.535	0.0159874
805.613	0.0158765
805.692	0.0157799
805.770	0.0157923
805.848	0.0157816
805.926	0.0157755
806.004	0.0158107
806.082	0.0157254
806.160	0.0158254
806.238	0.0157283
806.317	0.0158470
806.395	0.0159673
806.473	0.0158196
806.551	0.0160011
806.629	0.0160235
806.707	0.0160575
806.785	0.0160786
806.863	0.0162691
806.942	0.0161914
807.020	0.0162660
807.098	0.0164360
807.176	0.0162105
807.254	0.0160911
807.332	0.0161514
807.410	0.0158590
807.488	0.0158281
807.567	0.0158109
807.645	0.0159406
807.723	0.0160081
807.801	0.0157990
807.879	0.0157569
807.957	0.0157671
808.035	0.0159311
808.113	0.0158254
808.192	0.0161150
808.270	0.0160717
808.348	0.0160967
808.426	0.0159626
808.504	0.0159198
808.582	0.0157842
808.660	0.0157389
808.738	0.0158809
808.817	0.0156924
808.895	0.0156368
808.973	0.0155772
809.051	0.0158607
809.129	0.0158340
809.207	0.0156007
809.285	0.0159230
809.363	0.0159277
809.442	0.0160883
809.520	0.0161654
809.598	0.0163749
809.676	0.0164073
809.754	0.0165138
809.832	0.0166286
809.910	0.0165694
809.988	0.0168284
810.067	0.0168367
810.145	0.0169319
810.223	0.0170121
810.301	0.0170394
810.379	0.0171899
810.457	0.0171853
810.535	0.0172169
810.613	0.0171657
810.692	0.0171278
810.770	0.0172637
810.848	0.0173916
810.926	0.0173671
811.004	0.0173291
811.082	0.0174734
811.160	0.0174023
811.238	0.0173629
811.317	0.0172610
811.395	0.0174062
811.473	0.0175687
811.551	0.0174561
811.629	0.0173100
811.707	0.0172765
811.785	0.0174206
811.863	0.0172663
811.942	0.0173961
812.020	0.0174120
812.098	0.0175483
812.176	0.0173244
812.254	0.0173618
812.332	0.0172560
812.410	0.0173196
812.488	0.0170953
812.567	0.0169913
812.645	0.0169866
812.723	0.0169254
812.801	0.0167525
812.879	0.0163819
812.957	0.0164320
813.035	0.0161722
813.113	0.0162263
813.192	0.0159846
813.270	0.0160287
813.348	0.0157645
813.426	0.0156394
813.504	0.0157378
813.582	0.0159020
813.660	0.0159020
813.738	0.0157662
813.817	0.0160226
813.895	0.0161672
813.973	0.0162303
814.051	0.0161785
814.129	0.0163135
814.207	0.0164420
814.285	0.0165790
814.363	0.0166412
814.442	0.0166615
814.520	0.0165927
814.598	0.0167094
814.676	0.0164168
814.754	0.0165265
814.832	0.0164281
814.910	0.0161937
814.988	0.0161737
815.067	0.0159489
815.145	0.0156927
815.223	0.0154814
815.301	0.0154173
815.379	0.0151452
815.457	0.0152616
815.535	0.0152273
815.613	0.0152309
815.692	0.0152391
815.770	0.0152275
815.848	0.0152891
815.926	0.0154107
816.004	0.0154385
816.082	0.0154836
816.160	0.0156605
816.238	0.0158655
816.317	0.0160080
816.395	0.0160041
816.473	0.0163970
816.551	0.0162443
816.629	0.0164152
816.707	0.0165047
816.785	0.0167489
816.863	0.0166858
816.942	0.0167262
817.020	0.0168605
817.098	0.0169600
817.176	0.0168362
817.254	0.0167848
817.332	0.0169026
817.410	0.0169980
817.488	0.0170023
817.567	0.0168504
817.645	0.0166456
817.723	0.0167461
817.801	0.0168488
817.879	0.0165968
817.957	0.0165919
818.035	0.0165215
818.113	0.0163507
818.192	0.0164560
818.270	0.0164487
818.348	0.0164241
818.426	0.0164610
818.504	0.0163259
818.582	0.0162249
818.660	0.0163316
818.738	0.0163371
818.817	0.0162519
818.895	0.0163741
818.973	0.0164319
819.051	0.0165145
819.129	0.0165633
819.207	0.0166338
819.285	0.0167306
819.363	0.0167861
819.442	0.0169619
819.520	0.0170256
819.598	0.0171764
819.676	0.0173449
819.754	0.0174284
819.832	0.0176481
819.910	0.0177335
819.988	0.0176720
820.067	0.0176560
820.145	0.0176664
820.223	0.0176474
820.301	0.0176088
820.379	0.0174900
820.457	0.0174137
820.535	0.0171134
820.613	0.0171644
820.692	0.0170147
820.770	0.0169771
820.848	0.0171231
820.926	0.0167668
821.004	0.0167042
821.082	0.0165279
821.160	0.0165301
821.238	0.0164807
821.317	0.0164331
821.395	0.0163428
821.473	0.0165431
821.551	0.0162807
821.629	0.0162144
821.707	0.0162472
821.785	0.0161234
821.863	0.0163480
821.942	0.0162406
822.020	0.0161063
822.098	0.0161285
822.176	0.0161399
822.254	0.0161897
822.332	0.0161884
822.410	0.0162568
822.488	0.0160994
822.567	0.0161584
822.645	0.0160310
822.723	0.0163693
822.801	0.0163419
822.879	0.0162089
822.957	0.0163416
823.035	0.0162935
823.113	0.0162991
823.192	0.0164792
823.270	0.0163714
823.348	0.0161721
823.426	0.0161118
823.504	0.0161162
823.582	0.0160712
823.660	0.0160289
823.738	0.0158301
823.817	0.0158810
823.895	0.0156848
823.973	0.0154478
824.051	0.0155763
824.129	0.0154319
824.207	0.0154619
824.285	0.0152979
824.363	0.0151997
824.442	0.0152905
824.520	0.0154523
824.598	0.0154232
824.676	0.0154141
824.754	0.0156416
824.832	0.0156298
824.910	0.0156684
824.988	0.0159846
825.067	0.0160985
825.145	0.0162101
825.223	0.0164033
825.301	0.0164257
825.379	0.0165331
825.457	0.0166422
825.535	0.0167471
825.613	0.0168681
825.692	0.0168789
825.770	0.0169044
825.848	0.0170373
825.926	0.0170794
826.004	0.0170679
826.082	0.0171513
826.160	0.0172301
826.238	0.0170639
826.317	0.0171333
826.395	0.0170219
826.473	0.0171753
826.551	0.0171150
826.629	0.0172102
826.707	0.0172112
826.785	0.0171415
826.863	0.0172379
826.942	0.0174151
827.020	0.0173057
827.098	0.0173111
827.176	0.0174087
827.254	0.0175578
827.332	0.0175739
827.410	0.0175765
827.488	0.0176308
827.567	0.0174839
827.645	0.0174475
827.723	0.0175179
827.801	0.0174919
827.879	0.0174552
827.957	0.0174850
828.035	0.0173696
828.113	0.0173338
828.192	0.0172839
828.270	0.0172053
828.348	0.0169766
828.426	0.0169617
828.504	0.0168272
828.582	0.0168552
828.660	0.0166026
828.738	0.0165421
828.817	0.0162923
828.895	0.0162899
828.973	0.0160384
829.051	0.0160624
829.129	0.0160217
829.207	0.0158693
829.285	0.0158302
829.363	0.0156941
829.442	0.0156354
829.520	0.0156508
829.598	0.0157195
829.676	0.0156270
829.754	0.0156936
829.832	0.0156908
829.910	0.0156689
829.988	0.0157306
830.067	0.0157529
830.145	0.0156995
830.223	0.0157245
830.301	0.0157165
830.379	0.0156026
830.457	0.0157138
830.535	0.0157442
830.613	0.0157993
830.692	0.0157728
830.770	0.0158161
830.848	0.0159527
830.926	0.0159585
831.004	0.0158913
831.082	0.0159016
831.160	0.0159565
831.238	0.0158960
831.317	0.0160710
831.395	0.0162147
831.473	0.0161652
831.551	0.0162614
831.629	0.0163551
831.707	0.0163947
831.785	0.0163287
831.863	0.0167178
831.942	0.0166770
832.020	0.0167551
832.098	0.0168775
832.176	0.0168682
832.254	0.0171117
832.332	0.0172439
832.410	0.0170974
832.488	0.0171458
832.567	0.0171698
832.645	0.0171906
832.723	0.0173273
832.801	0.0172135
832.879	0.0170226
832.957	0.0170760
833.035	0.0172366
833.113	0.0170918
833.192	0.0169261
833.270	0.0168449
833.348	0.0169049
833.426	0.0168374
833.504	0.0168665
833.582	0.0166572
833.660	0.0167773
833.738	0.0166342
833.817	0.0166947
833.895	0.0166814
833.973	0.0166638
834.051	0.0166402
834.129	0.0164706
834.207	0.0165534
834.285	0.0164259
834.363	0.0164648
834.442	0.0162378
834.520	0.0163276
834.598	0.0162169
834.676	0.0162972
834.754	0.0162893
834.832	0.0160983
834.910	0.0161915
834.988	0.0162046
835.067	0.0160957
835.145	0.0161309
835.223	0.0161716
835.301	0.0162337
835.379	0.0163375
835.457	0.0163145
835.535	0.0164082
835.613	0.0164758
835.692	0.0165311
835.770	0.0164515
835.848	0.0166082
835.926	0.0165558
836.004	0.0165793
836.082	0.0165228
836.160	0.0166517
836.238	0.0168156
836.317	0.0167495
836.395	0.0168507
836.473	0.0169229
836.551	0.0168509
836.629	0.0168831
836.707	0.0169109
836.785	0.0168831
836.863	0.0168066
836.942	0.0167864
837.020	0.0168003
837.098	0.0169111
837.176	0.0168941
837.254	0.0168925
837.332	0.0168533
837.410	0.0167800
837.488	0.0168299
837.567	0.0167213
837.645	0.0167362
837.723	0.0167999
837.801	0.0167262
837.879	0.0167069
837.957	0.0168298
838.035	0.0166900
838.113	0.0166040
838.192	0.0166327
838.270	0.0167905
838.348	0.0166975
838.426	0.0166986
838.504	0.0166430
838.582	0.0168653
838.660	0.0167770
838.738	0.0165221
838.817	0.0166640
838.895	0.0165773
838.973	0.0165809
839.051	0.0166171
839.129	0.0165302
839.207	0.0166010
839.285	0.0165091
839.363	0.0163263
839.442	0.0163618
839.520	0.0162484
839.598	0.0162574
839.676	0.0163177
839.754	0.0161970
839.832	0.0160406
839.910	0.0159367
839.988	0.0159811
840.067	0.0158822
840.145	0.0158036
840.223	0.0159966
840.301	0.0157653
840.379	0.0158089
840.457	0.0159071
840.535	0.0160085
840.613	0.0158785
840.692	0.0160218
840.770	0.0160606
840.848	0.0160511
840.926	0.0160972
841.004	0.0161067
841.082	0.0161629
841.160	0.0161732
841.238	0.0160432
841.317	0.0161666
841.395	0.0162948
841.473	0.0162418
841.551	0.0162385
841.629	0.0162193
841.707	0.0162253
841.785	0.0162729
841.863	0.0161884
841.942	0.0162174
842.020	0.0162201
842.098	0.0162083
842.176	0.0163101
842.254	0.0162432
842.332	0.0162125
842.410	0.0164413
842.488	0.0165919
842.567	0.0165084
842.645	0.0165424
842.723	0.0164184
842.801	0.0163873
842.879	0.0166212
842.957	0.0166735
843.035	0.0167548
843.113	0.0167759
843.192	0.0167793
843.270	0.0168841
843.348	0.0170364
843.426	0.0171007
843.504	0.0169376
843.582	0.0170866
843.660	0.0172201
843.738	0.0172196
843.817	0.0172659
843.895	0.0172392
843.973	0.0172551
844.051	0.0172639
844.129	0.0172688
844.207	0.0172412
844.285	0.0173015
844.363	0.0173769
844.442	0.0172721
844.520	0.0173530
844.598	0.0170654
844.676	0.0170222
844.754	0.0169282
844.832	0.0171036
844.910	0.0169763
844.988	0.0168589
845.067	0.0168305
845.145	0.0165543
845.223	0.0164542
845.301	0.0165704
845.379	0.0164585
845.457	0.0162526
845.535	0.0164121
845.613	0.0163378
845.692	0.0162750
845.770	0.0161823
845.848	0.0161362
845.926	0.0162469
846.004	0.0161758
846.082	0.0161200
846.160	0.0161877
846.238	0.0162511
846.317	0.0162373
846.395	0.0162731
846.473	0.0161655
846.551	0.0161253
846.629	0.0162282
846.707	0.0162039
846.785	0.0161632
846.863	0.0160699
846.942	0.0162048
847.020	0.0161383
847.098	0.0162041
847.176	0.0161802
847.254	0.0161452
847.332	0.0160681
847.410	0.0160160
847.488	0.0161880
847.567	0.0160693
847.645	0.0160027
847.723	0.0159866
847.801	0.0159983
847.879	0.0159803
847.957	0.0159995
848.035	0.0159367
848.113	0.0160532
848.192	0.0158714
848.270	0.0158075
848.348	0.0158102
848.426	0.0159420
848.504	0.0158907
848.582	0.0160491
848.660	0.0162260
848.738	0.0161571
848.817	0.0161742
848.895	0.0163397
848.973	0.0164808
849.051	0.0164980
849.129	0.0165729
849.207	0.0165798
849.285	0.0167723
849.363	0.0168233
849.442	0.0168510
849.520	0.0168565
849.598	0.0169533
849.676	0.0170513
849.754	0.0169382
849.832	0.0170137
849.910	0.0171575
849.988	0.0170300
850.067	0.0171859
850.145	0.0170169
850.223	0.0171204
850.301	0.0171488
850.379	0.0170693
850.457	0.0170824
850.535	0.0169410
850.613	0.0170480
850.692	0.0168736
850.770	0.0169108
850.848	0.0168863
850.926	0.0168359
851.004	0.0167869
851.082	0.0168249
851.160	0.0165675
851.238	0.0165723
851.317	0.0166695
851.395	0.0166831
851.473	0.0162631
851.551	0.0163416
851.629	0.0164784
851.707	0.0164015
851.785	0.0161937
851.863	0.0162918
851.942	0.0160808
852.020	0.0161983
852.098	0.0161962
852.176	0.0161680
852.254	0.0161383
852.332	0.0160944
852.410	0.0161037
852.488	0.0161972
852.567	0.0161094
852.645	0.0161771
852.723	0.0162913
852.801	0.0162984
852.879	0.0161798
852.957	0.0162492
853.035	0.0164702
853.113	0.0163476
853.192	0.0165150
853.270	0.0166135
853.348	0.0165978
853.426	0.0165120
853.504	0.0164999
853.582	0.0165075
853.660	0.0164962
853.738	0.0166066
853.817	0.0167059
853.895	0.0167415
853.973	0.0165666
854.051	0.0166873
854.129	0.0167421
854.207	0.0168685
854.285	0.0167925
854.363	0.0168763
854.442	0.0166368
854.520	0.0168209
854.598	0.0167616
854.676	0.0165114
854.754	0.0165631
854.832	0.0164912
854.910	0.0165960
854.988	0.0165317
855.067	0.0163141
855.145	0.0163016
855.223	0.0164408
855.301	0.0164627
855.379	0.0163418
855.457	0.0164032
855.535	0.0164275
855.613	0.0162987
855.692	0.0162584
855.770	0.0164173
855.848	0.0164790
855.926	0.0162981
856.004	0.0164883
856.082	0.0164417
856.160	0.0163187
856.238	0.0164381
856.317	0.0165558
856.395	0.0164450
856.473	0.0165272
856.551	0.0165133
856.629	0.0164292
856.707	0.0163938
856.785	0.0165549
856.863	0.0164364
856.942	0.0165271
857.020	0.0165185
857.098	0.0164093
857.176	0.0163720
857.254	0.0162786
857.332	0.0162949
857.410	0.0163958
857.488	0.0163764
857.567	0.0164532
857.645	0.0165896
857.723	0.0165616
857.801	0.0165932
857.879	0.0165712
857.957	0.0166402
858.035	0.0165719
858.113	0.0166345
858.192	0.0165337
858.270	0.0164085
858.348	0.0165478
858.426	0.0165009
858.504	0.0164985
858.582	0.0164384
858.660	0.0163293
858.738	0.0163361
858.817	0.0163342
858.895	0.0164079
858.973	0.0163489
859.051	0.0162201
859.129	0.0161659
859.207	0.0161579
859.285	0.0164101
859.363	0.0162859
859.442	0.0162767
859.520	0.0163873
859.598	0.0161837
859.676	0.0163050
859.754	0.0164210
859.832	0.0164429
859.910	0.0164803
859.988	0.0164123
860.067	0.0163792
860.145	0.0166022
860.223	0.0166535
860.301	0.0167280
860.379	0.0167277
860.457	0.0169209
860.535	0.0169054
860.613	0.0168798
860.692	0.0169433
860.770	0.0171064
860.848	0.0168361
860.926	0.0169777
861.004	0.0169659
861.082	0.0169348
861.160	0.0168551
861.238	0.0169688
861.317	0.0169824
861.395	0.0169265
861.473	0.0167589
861.551	0.0167603
861.629	0.0168952
861.707	0.0168900
861.785	0.0168006
861.863	0.0167177
861.942	0.0168404
862.020	0.0167051
862.098	0.0166727
862.176	0.0165582
862.254	0.0165239
862.332	0.0164991
862.410	0.0164743
862.488	0.0163384
862.567	0.0163873
862.645	0.0162695
862.723	0.0162650
862.801	0.0162144
862.879	0.0163536
862.957	0.0161916
863.035	0.0164107
863.113	0.0163589
863.192	0.0163486
863.270	0.0163010
863.348	0.0163987
863.426	0.0164672
863.504	0.0163718
863.582	0.0163911
863.660	0.0164235
863.738	0.0162013
863.817	0.0161561
863.895	0.0161795
863.973	0.0160384
864.051	0.0160495
864.129	0.0161548
864.207	0.0159354
864.285	0.0160235
864.363	0.0162085
864.442	0.0163059
864.520	0.0163249
864.598	0.0164072
864.676	0.0163976
864.754	0.0164626
864.832	0.0164129
864.910	0.0165372
864.988	0.0162975
865.067	0.0163454
865.145	0.0163188
865.223	0.0162778
865.301	0.0162219
865.379	0.0161912
865.457	0.0160824
865.535	0.0160760
865.613	0.0161281
865.692	0.0161148
865.770	0.0161927
865.848	0.0164263
865.926	0.0163196
866.004	0.0163065
866.082	0.0165378
866.160	0.0166439
866.238	0.0166114
866.317	0.0167305
866.395	0.0167206
866.473	0.0165580
866.551	0.0166532
866.629	0.0166220
866.707	0.0165418
866.785	0.0165563
866.863	0.0165385
866.942	0.0163879
867.020	0.0164870
867.098	0.0165424
867.176	0.0165618
867.254	0.0165829
867.332	0.0166678
867.410	0.0166600
867.488	0.0166772
867.567	0.0169713
867.645	0.0168129
867.723	0.0168314
867.801	0.0168660
867.879	0.0169865
867.957	0.0169307
868.035	0.0169818
868.113	0.0169086
868.192	0.0166811
868.270	0.0167729
868.348	0.0168146
868.426	0.0167213
868.504	0.0167869
868.582	0.0166266
868.660	0.0166725
868.738	0.0165531
868.817	0.0166103
868.895	0.0166269
868.973	0.0165541
869.051	0.0163143
869.129	0.0164841
869.207	0.0164687
869.285	0.0164140
869.363	0.0163673
869.442	0.0164046
869.520	0.0164137
869.598	0.0164779
869.676	0.0163570
869.754	0.0163025
869.832	0.0163756
869.910	0.0164579
869.988	0.0162891
870.067	0.0164468
870.145	0.0162131
870.223	0.0163947
870.301	0.0164590
870.379	0.0164616
870.457	0.0164313
870.535	0.0162735
870.613	0.0164795
870.692	0.0165164
870.770	0.0165981
870.848	0.0165699
870.926	0.0165905
871.004	0.0167916
871.082	0.0167043
871.160	0.0167122
871.238	0.0168021
871.317	0.0167008
871.395	0.0165900
871.473	0.0166822
871.551	0.0165511
871.629	0.0165292
871.707	0.0164865
871.785	0.0166573
871.863	0.0165449
871.942	0.0163911
872.020	0.0165143
872.098	0.0164812
872.176	0.0165449
872.254	0.0165575
872.332	0.0163445
872.410	0.0165595
872.488	0.0165832
872.567	0.0164969
872.645	0.0164457
872.723	0.0163472
872.801	0.0163415
872.879	0.0164484
872.957	0.0164069
873.035	0.0163969
873.113	0.0165066
873.192	0.0162843
873.270	0.0163798
873.348	0.0163694
873.426	0.0163826
873.504	0.0165321
873.582	0.0163624
873.660	0.0161428
873.738	0.0163056
873.817	0.0163792
873.895	0.0163391
873.973	0.0162756
874.051	0.0162473
874.129	0.0162395
874.207	0.0162823
874.285	0.0162989
874.363	0.0162428
874.442	0.0161977
874.520	0.0163228
874.598	0.0164285
874.676	0.0163973
874.754	0.0163597
874.832	0.0162749
874.910	0.0162920
874.988	0.0163770
875.067	0.0164520
875.145	0.0163778
875.223	0.0164706
875.301	0.0163191
875.379	0.0164427
875.457	0.0163966
875.535	0.0163208
875.613	0.0163539
875.692	0.0164527
875.770	0.0164165
875.848	0.0165643
875.926	0.0165712
876.004	0.0165101
876.082	0.0165051
876.160	0.0166861
876.238	0.0167019
876.317	0.0167493
876.395	0.0168533
876.473	0.0169414
876.551	0.0169452
876.629	0.0171101
876.707	0.0170351
876.785	0.0170446
876.863	0.0169740
876.942	0.0170921
877.020	0.0170420
877.098	0.0169671
877.176	0.0171118
877.254	0.0170962
877.332	0.0168391
877.410	0.0169216
877.488	0.0167953
877.567	0.0168258
877.645	0.0167302
877.723	0.0166814
877.801	0.0166341
877.879	0.0165939
877.957	0.0166096
878.035	0.0164873
878.113	0.0164778
878.192	0.0163847
878.270	0.0164531
878.348	0.0162422
878.426	0.0162096
878.504	0.0162422
878.582	0.0161957
878.660	0.0161521
878.738	0.0161163
878.817	0.0161721
878.895	0.0162321
878.973	0.0164265
879.051	0.0165543
879.129	0.0168298
879.207	0.0169323
879.285	0.0170720
879.363	0.0173183
879.442	0.0173277
879.520	0.0174080
879.598	0.0172504
879.676	0.0170654
879.754	0.0168585
879.832	0.0163632
879.910	0.0159353
879.988	0.0154179
880.067	0.0148516
880.145	0.0145011
880.223	0.0141315
880.301	0.0137523
880.379	0.0136201
880.457	0.0138223
880.535	0.0142694
880.613	0.0144823
880.692	0.0152077
880.770	0.0155990
880.848	0.0164494
880.926	0.0171270
881.004	0.0176881
881.082	0.0182777
881.160	0.0187688
881.238	0.0191660
881.317	0.0194995
881.395	0.0196002
881.473	0.0197140
881.551	0.0197300
881.629	0.0196686
881.707	0.0195387
881.785	0.0190598
881.863	0.0189214
881.942	0.0184307
882.020	0.0179698
882.098	0.0173917
882.176	0.0168214
882.254	0.0162397
882.332	0.0156577
882.410	0.0151712
882.488	0.0145812
882.567	0.0141537
882.645	0.0138871
882.723	0.0135063
882.801	0.0131317
882.879	0.0129646
882.957	0.0129873
883.035	0.0130032
883.113	0.0130314
883.192	0.0132317
883.270	0.0133139
883.348	0.0137419
883.426	0.0140739
883.504	0.0144609
883.582	0.0147694
883.660	0.0151183
883.738	0.0155824
883.817	0.0161716
883.895	0.0166298
883.973	0.0169884
884.051	0.0174564
884.129	0.0178600
884.207	0.0182178
884.285	0.0186146
884.363	0.0188178
884.442	0.0189377
884.520	0.0191952
884.598	0.0191689
884.676	0.0190823
884.754	0.0189747
884.832	0.0188072
884.910	0.0185075
884.988	0.0184675
885.067	0.0180381
885.145	0.0178360
885.223	0.0176636
885.301	0.0174339
885.379	0.0172807
885.457	0.0172242
885.535	0.0171767
885.613	0.0167627
885.692	0.0167488
885.770	0.0166631
885.848	0.0164516
885.926	0.0163562
886.004	0.0161786
886.082	0.0161586
886.160	0.0161318
886.238	0.0161997
886.317	0.0163126
886.395	0.0163062
886.473	0.0163081
886.551	0.0164728
886.629	0.0164760
886.707	0.0164782
886.785	0.0166134
886.863	0.0164825
886.942	0.0163378
887.020	0.0162050
887.098	0.0161242
887.176	0.0160696
887.254	0.0160033
887.332	0.0159676
887.410	0.0157594
887.488	0.0158020
887.567	0.0156911
887.645	0.0156803
887.723	0.0157351
887.801	0.0157458
887.879	0.0157093
887.957	0.0156992
888.035	0.0158009
888.113	0.0159199
888.192	0.0158915
888.270	0.0159972
888.348	0.0161975
888.426	0.0161004
888.504	0.0162643
888.582	0.0162482
888.660	0.0164476
888.738	0.0163906
888.817	0.0164106
888.895	0.0165098
888.973	0.0165236
889.051	0.0165632
889.129	0.0167783
889.207	0.0169297
889.285	0.0167987
889.363	0.0169260
889.442	0.0169600
889.520	0.0168044
889.598	0.0169104
889.676	0.0169932
889.754	0.0169691
889.832	0.0170233
889.910	0.0172000
889.988	0.0170822
890.067	0.0170513
890.145	0.0170403
890.223	0.0170964
890.301	0.0170783
890.379	0.0169629
890.457	0.0169083
890.535	0.0167084
890.613	0.0166562
890.692	0.0166779
890.770	0.0164430
890.848	0.0161770
890.926	0.0162078
891.004	0.0158479
891.082	0.0159946
891.160	0.0157809
891.238	0.0157962
891.317	0.0157143
891.395	0.0157262
891.473	0.0155882
891.551	0.0157149
891.629	0.0157482
891.707	0.0157818
891.785	0.0157290
891.863	0.0159724
891.942	0.0159406
892.020	0.0160390
892.098	0.0162666
892.176	0.0162885
892.254	0.0162769
892.332	0.0162903
892.410	0.0164962
892.488	0.0164881
892.567	0.0165856
892.645	0.0164377
892.723	0.0165558
892.801	0.0165882
892.879	0.0164363
892.957	0.0164873
893.035	0.0166228
893.113	0.0166644
893.192	0.0165865
893.270	0.0165578
893.348	0.0166687
893.426	0.0167136
893.504	0.0167941
893.582	0.0167568
893.660	0.0168665
893.738	0.0169408
893.817	0.0170196
893.895	0.0172202
893.973	0.0171700
894.051	0.0172019
894.129	0.0173038
894.207	0.0175211
894.285	0.0175330
894.363	0.0176392
894.442	0.0175424
894.520	0.0177087
894.598	0.0178143
894.676	0.0178046
894.754	0.0175735
894.832	0.0176190
894.910	0.0175827
894.988	0.0175080
895.067	0.0173077
895.145	0.0172755
895.223	0.0171103
895.301	0.0168378
895.379	0.0168134
895.457	0.0165893
895.535	0.0164490
895.613	0.0163310
895.692	0.0162910
895.770	0.0160784
895.848	0.0160635
895.926	0.0160150
896.004	0.0160304
896.082	0.0161148
896.160	0.0160017
896.238	0.0159966
896.317	0.0160105
896.395	0.0160373
896.473	0.0161060
896.551	0.0161214
896.629	0.0161485
896.707	0.0162756
896.785	0.0163468
896.863	0.0161395
896.942	0.0161712
897.020	0.0163532
897.098	0.0162286
897.176	0.0162792
897.254	0.0162823
897.332	0.0162755
897.410	0.0164027
897.488	0.0163226
897.567	0.0161169
897.645	0.0161547
897.723	0.0160307
897.801	0.0159540
897.879	0.0158221
897.957	0.0157317
898.035	0.0156216
898.113	0.0155348
898.192	0.0152818
898.270	0.0152688
898.348	0.0152701
898.426	0.0150964
898.504	0.0149779
898.582	0.0150036
898.660	0.0149079
898.738	0.0149738
898.817	0.0149880
898.895	0.0148766
898.973	0.0149107
899.051	0.0150368
899.129	0.0152041
899.207	0.0154538
899.285	0.0156500
899.363	0.0158928
899.442	0.0161246
899.520	0.0164480
899.598	0.0167945
899.676	0.0170726
899.754	0.0174348
899.832	0.0176773
899.910	0.0178915
899.988	0.0181007
900.067	0.0182609
900.145	0.0183407
900.223	0.0184713
900.301	0.0185149
900.379	0.0184259
900.457	0.0184042
900.535	0.0185006
900.613	0.0183907
900.692	0.0181831
900.770	0.0180072
900.848	0.0179021
900.926	0.0178436
901.004	0.0176225
901.082	0.0175446
901.160	0.0174883
901.238	0.0172784
901.317	0.0172026
901.395	0.0172183
901.473	0.0170174
901.551	0.0168883
901.629	0.0168246
901.707	0.0168286
901.785	0.0167899
901.863	0.0167201
901.942	0.0167471
902.020	0.0166998
902.098	0.0165723
902.176	0.0166429
902.254	0.0166857
902.332	0.0164559
902.410	0.0165079
902.488	0.0164799
902.567	0.0162793
902.645	0.0163094
902.723	0.0161465
902.801	0.0160735
902.879	0.0160139
902.957	0.0159006
903.035	0.0161924
903.113	0.0160254
903.192	0.0158801
903.270	0.0158405
903.348	0.0158818
903.426	0.0157634
903.504	0.0158344
903.582	0.0158508
903.660	0.0157714
903.738	0.0158215
903.817	0.0159295
903.895	0.0158333
903.973	0.0159339
904.051	0.0158479
904.129	0.0159861
904.207	0.0160201
904.285	0.0160120
904.363	0.0159068
904.442	0.0160736
904.520	0.0161307
904.598	0.0159736
904.676	0.0160960
904.754	0.0161518
904.832	0.0160961
904.910	0.0160143
904.988	0.0159963
905.067	0.0160732
905.145	0.0161261
905.223	0.0160545
905.301	0.0161937
905.379	0.0161072
905.457	0.0161907
905.535	0.0161520
905.613	0.0160729
905.692	0.0159889
905.770	0.0159743
905.848	0.0160415
905.926	0.0160497
906.004	0.0160332
906.082	0.0161020
906.160	0.0162850
906.238	0.0161783
906.317	0.0162315
906.395	0.0162239
906.473	0.0164982
906.551	0.0165591
906.629	0.0167239
906.707	0.0166232
906.785	0.0167276
906.863	0.0168794
906.942	0.0167640
907.020	0.0168285
907.098	0.0168918
907.176	0.0169767
907.254	0.0169456
907.332	0.0169321
907.410	0.0168448
907.488	0.0166769
907.567	0.0167633
907.645	0.0168310
907.723	0.0168132
907.801	0.0166689
907.879	0.0167223
907.957	0.0166225
908.035	0.0166483
908.113	0.0167475
908.192	0.0167651
908.270	0.0167432
908.348	0.0170250
908.426	0.0170766
908.504	0.0170956
908.582	0.0170994
908.660	0.0169939
908.738	0.0171124
908.817	0.0171413
908.895	0.0171315
908.973	0.0171232
909.051	0.0170403
909.129	0.0170512
909.207	0.0168516
909.285	0.0167829
909.363	0.0169642
909.442	0.0170016
909.520	0.0167274
909.598	0.0166515
909.676	0.0166893
909.754	0.0167022
909.832	0.0166650
909.910	0.0166919
909.988	0.0167574
910.067	0.0165482
910.145	0.0167510
910.223	0.0167178
910.301	0.0165713
910.379	0.0166741
910.457	0.0166415
910.535	0.0164816
910.613	0.0163746
910.692	0.0163615
910.770	0.0163104
910.848	0.0162007
910.926	0.0161687
911.004	0.0161235
911.082	0.0161161
911.160	0.0160330
911.238	0.0160831
911.317	0.0160944
911.395	0.0160828
911.473	0.0160581
911.551	0.0161459
911.629	0.0161916
911.707	0.0160944
911.785	0.0163925
911.863	0.0165305
911.942	0.0164027
912.020	0.0164516
912.098	0.0164543
912.176	0.0165345
912.254	0.0165214
912.332	0.0164117
912.410	0.0163775
912.488	0.0165018
912.567	0.0165937
912.645	0.0166144
912.723	0.0165989
912.801	0.0165688
912.879	0.0166567
912.957	0.0164232
913.035	0.0164993
913.113	0.0164897
913.192	0.0163476
913.270	0.0163127
913.348	0.0163091
913.426	0.0161967
913.504	0.0161818
913.582	0.0162029
913.660	0.0161375
913.738	0.0161310
913.817	0.0161545
913.895	0.0160830
913.973	0.0160187
914.051	0.0160113
914.129	0.0158819
914.207	0.0159824
914.285	0.0161671
914.363	0.0160387
914.442	0.0161460
914.520	0.0161320
914.598	0.0162170
914.676	0.0159671
914.754	0.0158741
914.832	0.0160075
914.910	0.0159216
914.988	0.0160154
915.067	0.0159749
915.145	0.0160333
915.223	0.0160915
915.301	0.0161010
915.379	0.0159617
915.457	0.0160922
915.535	0.0159863
915.613	0.0160370
915.692	0.0161417
915.770	0.0161548
915.848	0.0160824
915.926	0.0161698
916.004	0.0162712
916.082	0.0162572
916.160	0.0162979
916.238	0.0163178
916.317	0.0164000
916.395	0.0163881
916.473	0.0163985
916.551	0.0165681
916.629	0.0166976
916.707	0.0166714
916.785	0.0169465
916.863	0.0171906
916.942	0.0173071
917.020	0.0173418
917.098	0.0175159
917.176	0.0177500
917.254	0.0177960
917.332	0.0178825
917.410	0.0179327
917.488	0.0179783
917.567	0.0179584
917.645	0.0180837
917.723	0.0181000
917.801	0.0181004
917.879	0.0179132
917.957	0.0178342
918.035	0.0176621
918.113	0.0174969
918.192	0.0173682
918.270	0.0174123
918.348	0.0172748
918.426	0.0171229
918.504	0.0169569
918.582	0.0170879
918.660	0.0169098
918.738	0.0166810
918.817	0.0167058
918.895	0.0165069
918.973	0.0164259
919.051	0.0164379
919.129	0.0163046
919.207	0.0160866
919.285	0.0160831
919.363	0.0161711
919.442	0.0160076
919.520	0.0158963
919.598	0.0158691
919.676	0.0158878
919.754	0.0157040
919.832	0.0157714
919.910	0.0157391
