05/26/2022	00:41:49	Ver.	4.1	UNKNOWN
Optical Delay	599.988409	Delta X		0.078125	Sweeps	1	Scan Rate	0/0
Coordinates	Axis 1	NaN	Axis 2	NaN	Axis 3	NaN	Axis 4	NaN	Axis 5	NaN	Axis 6	0.000000
TX Power	0.000000	RX Power	0.000000

599.988	0.0162140
600.067	0.0162428
600.145	0.0162167
600.223	0.0161213
600.301	0.0160984
600.379	0.0162151
600.457	0.0161571
600.535	0.0163641
600.613	0.0161681
600.692	0.0161504
600.770	0.0161725
600.848	0.0161675
600.926	0.0162523
601.004	0.0161196
601.082	0.0161422
601.160	0.0162051
601.238	0.0162344
601.317	0.0161393
601.395	0.0161375
601.473	0.0162671
601.551	0.0162163
601.629	0.0161835
601.707	0.0161278
601.785	0.0162442
601.863	0.0163043
601.942	0.0162087
602.020	0.0161708
602.098	0.0161739
602.176	0.0161617
602.254	0.0161851
602.332	0.0160685
602.410	0.0161464
602.488	0.0162652
602.567	0.0162639
602.645	0.0161126
602.723	0.0161539
602.801	0.0162286
602.879	0.0163318
602.957	0.0163358
603.035	0.0161931
603.113	0.0161929
603.192	0.0162682
603.270	0.0162494
603.348	0.0161760
603.426	0.0162621
603.504	0.0161828
603.582	0.0161504
603.660	0.0162213
603.738	0.0161665
603.817	0.0161244
603.895	0.0160916
603.973	0.0162340
604.051	0.0162015
604.129	0.0162908
604.207	0.0162056
604.285	0.0162255
604.363	0.0161708
604.442	0.0162228
604.520	0.0160711
604.598	0.0161617
604.676	0.0162267
604.754	0.0161681
604.832	0.0162988
604.910	0.0162114
604.988	0.0161555
605.067	0.0162966
605.145	0.0162780
605.223	0.0162814
605.301	0.0161269
605.379	0.0160114
605.457	0.0162569
605.535	0.0161652
605.613	0.0161632
605.692	0.0163206
605.770	0.0163207
605.848	0.0163042
605.926	0.0162908
606.004	0.0162022
606.082	0.0162634
606.160	0.0161013
606.238	0.0162459
606.317	0.0162345
606.395	0.0162671
606.473	0.0162048
606.551	0.0161584
606.629	0.0161816
606.707	0.0162087
606.785	0.0162895
606.863	0.0162495
606.942	0.0163309
607.020	0.0161674
607.098	0.0162453
607.176	0.0161650
607.254	0.0162829
607.332	0.0161614
607.410	0.0162001
607.488	0.0161591
607.567	0.0161726
607.645	0.0161478
607.723	0.0162528
607.801	0.0161812
607.879	0.0163152
607.957	0.0161899
608.035	0.0161987
608.113	0.0163230
608.192	0.0163393
608.270	0.0162166
608.348	0.0162695
608.426	0.0163058
608.504	0.0162804
608.582	0.0162858
608.660	0.0162643
608.738	0.0163387
608.817	0.0161983
608.895	0.0161456
608.973	0.0161376
609.051	0.0163254
609.129	0.0161567
609.207	0.0161649
609.285	0.0160268
609.363	0.0160262
609.442	0.0161832
609.520	0.0161091
609.598	0.0161324
609.676	0.0161547
609.754	0.0161222
609.832	0.0159756
609.910	0.0160479
609.988	0.0162243
610.067	0.0163517
610.145	0.0160303
610.223	0.0162286
610.301	0.0162619
610.379	0.0161702
610.457	0.0162394
610.535	0.0163376
610.613	0.0163083
610.692	0.0163823
610.770	0.0163310
610.848	0.0163426
610.926	0.0163268
611.004	0.0163776
611.082	0.0163557
611.160	0.0163767
611.238	0.0163460
611.317	0.0163361
611.395	0.0163485
611.473	0.0163065
611.551	0.0163400
611.629	0.0162607
611.707	0.0163410
611.785	0.0161957
611.863	0.0162723
611.942	0.0160706
612.020	0.0160849
612.098	0.0162160
612.176	0.0160513
612.254	0.0160994
612.332	0.0162003
612.410	0.0159572
612.488	0.0160194
612.567	0.0159921
612.645	0.0160524
612.723	0.0160326
612.801	0.0159618
612.879	0.0160389
612.957	0.0160846
613.035	0.0160809
613.113	0.0161906
613.192	0.0162052
613.270	0.0161337
613.348	0.0162088
613.426	0.0162409
613.504	0.0160870
613.582	0.0161938
613.660	0.0162813
613.738	0.0163895
613.817	0.0163039
613.895	0.0162089
613.973	0.0162074
614.051	0.0163524
614.129	0.0163005
614.207	0.0163657
614.285	0.0163255
614.363	0.0162631
614.442	0.0162400
614.520	0.0163364
614.598	0.0163313
614.676	0.0162407
614.754	0.0162497
614.832	0.0162369
614.910	0.0162785
614.988	0.0162141
615.067	0.0163234
615.145	0.0163683
615.223	0.0163844
615.301	0.0162109
615.379	0.0162859
615.457	0.0163331
615.535	0.0162621
615.613	0.0163985
615.692	0.0163706
615.770	0.0162088
615.848	0.0161732
615.926	0.0162395
616.004	0.0161560
616.082	0.0163567
616.160	0.0163078
616.238	0.0163258
616.317	0.0162306
616.395	0.0161883
616.473	0.0161765
616.551	0.0162093
616.629	0.0162505
616.707	0.0161429
616.785	0.0161769
616.863	0.0162445
616.942	0.0161061
617.020	0.0160997
617.098	0.0160783
617.176	0.0161192
617.254	0.0160578
617.332	0.0162294
617.410	0.0161381
617.488	0.0161294
617.567	0.0161594
617.645	0.0161390
617.723	0.0161636
617.801	0.0161832
617.879	0.0162084
617.957	0.0161286
618.035	0.0160682
618.113	0.0160989
618.192	0.0161556
618.270	0.0160670
618.348	0.0159929
618.426	0.0161204
618.504	0.0162771
618.582	0.0161058
618.660	0.0162486
618.738	0.0163908
618.817	0.0161359
618.895	0.0161511
618.973	0.0161525
619.051	0.0161813
619.129	0.0164176
619.207	0.0162543
619.285	0.0162037
619.363	0.0161637
619.442	0.0161684
619.520	0.0161776
619.598	0.0162057
619.676	0.0161664
619.754	0.0162769
619.832	0.0163506
619.910	0.0162138
619.988	0.0160738
620.067	0.0162633
620.145	0.0162987
620.223	0.0163602
620.301	0.0161307
620.379	0.0162470
620.457	0.0162231
620.535	0.0162449
620.613	0.0162112
620.692	0.0162370
620.770	0.0161684
620.848	0.0162407
620.926	0.0161702
621.004	0.0161401
621.082	0.0162963
621.160	0.0161750
621.238	0.0161609
621.317	0.0162448
621.395	0.0163123
621.473	0.0163423
621.551	0.0160817
621.629	0.0161185
621.707	0.0162344
621.785	0.0162557
621.863	0.0163073
621.942	0.0163108
622.020	0.0162052
622.098	0.0161559
622.176	0.0162949
622.254	0.0163082
622.332	0.0161575
622.410	0.0161230
622.488	0.0162863
622.567	0.0160857
622.645	0.0162272
622.723	0.0162690
622.801	0.0161416
622.879	0.0161631
622.957	0.0161864
623.035	0.0162376
623.113	0.0160213
623.192	0.0162064
623.270	0.0161224
623.348	0.0161855
623.426	0.0161212
623.504	0.0161378
623.582	0.0160413
623.660	0.0161816
623.738	0.0161781
623.817	0.0162724
623.895	0.0161533
623.973	0.0160601
624.051	0.0161098
624.129	0.0160976
624.207	0.0160953
624.285	0.0161710
624.363	0.0160653
624.442	0.0162021
624.520	0.0162068
624.598	0.0162290
624.676	0.0162203
624.754	0.0162754
624.832	0.0161342
624.910	0.0162650
624.988	0.0161562
625.067	0.0162345
625.145	0.0161421
625.223	0.0160852
625.301	0.0162666
625.379	0.0161486
625.457	0.0161001
625.535	0.0161819
625.613	0.0162848
625.692	0.0162330
625.770	0.0160941
625.848	0.0162205
625.926	0.0161201
626.004	0.0161705
626.082	0.0161434
626.160	0.0162151
626.238	0.0162499
626.317	0.0161662
626.395	0.0163085
626.473	0.0163548
626.551	0.0161500
626.629	0.0160450
626.707	0.0161630
626.785	0.0162445
626.863	0.0162863
626.942	0.0161806
627.020	0.0162225
627.098	0.0162466
627.176	0.0161240
627.254	0.0162603
627.332	0.0161373
627.410	0.0161294
627.488	0.0161443
627.567	0.0162067
627.645	0.0161948
627.723	0.0161797
627.801	0.0161546
627.879	0.0162295
627.957	0.0161885
628.035	0.0162721
628.113	0.0163792
628.192	0.0161636
628.270	0.0161291
628.348	0.0161912
628.426	0.0162421
628.504	0.0163490
628.582	0.0162123
628.660	0.0162240
628.738	0.0161181
628.817	0.0161909
628.895	0.0162135
628.973	0.0162039
629.051	0.0162714
629.129	0.0161826
629.207	0.0163870
629.285	0.0162064
629.363	0.0161458
629.442	0.0161752
629.520	0.0161584
629.598	0.0161252
629.676	0.0161332
629.754	0.0162614
629.832	0.0161792
629.910	0.0161163
629.988	0.0161141
630.067	0.0162537
630.145	0.0162265
630.223	0.0160606
630.301	0.0162179
630.379	0.0161733
630.457	0.0161171
630.535	0.0162643
630.613	0.0162222
630.692	0.0161419
630.770	0.0161919
630.848	0.0160544
630.926	0.0163009
631.004	0.0161243
631.082	0.0161122
631.160	0.0160994
631.238	0.0161884
631.317	0.0162466
631.395	0.0161090
631.473	0.0161123
631.551	0.0161762
631.629	0.0162139
631.707	0.0161556
631.785	0.0161054
631.863	0.0161051
631.942	0.0162953
632.020	0.0162494
632.098	0.0161052
632.176	0.0161720
632.254	0.0161272
632.332	0.0161856
632.410	0.0162679
632.488	0.0161309
632.567	0.0161652
632.645	0.0160999
632.723	0.0161517
632.801	0.0162019
632.879	0.0162105
632.957	0.0160893
633.035	0.0161590
633.113	0.0161510
633.192	0.0161432
633.270	0.0161713
633.348	0.0161713
633.426	0.0163084
633.504	0.0160870
633.582	0.0162592
633.660	0.0161869
633.738	0.0162661
633.817	0.0161080
633.895	0.0161562
633.973	0.0162234
634.051	0.0160583
634.129	0.0163017
634.207	0.0162809
634.285	0.0162485
634.363	0.0162077
634.442	0.0162026
634.520	0.0161716
634.598	0.0161750
634.676	0.0161582
634.754	0.0163113
634.832	0.0160694
634.910	0.0162223
634.988	0.0162605
635.067	0.0161821
635.145	0.0162749
635.223	0.0162856
635.301	0.0161175
635.379	0.0161989
635.457	0.0163049
635.535	0.0162252
635.613	0.0162698
635.692	0.0162357
635.770	0.0162673
635.848	0.0164103
635.926	0.0163371
636.004	0.0162203
636.082	0.0160758
636.160	0.0161794
636.238	0.0162290
636.317	0.0163348
636.395	0.0162115
636.473	0.0161395
636.551	0.0161664
636.629	0.0160449
636.707	0.0162453
636.785	0.0162437
636.863	0.0161897
636.942	0.0161867
637.020	0.0161318
637.098	0.0162019
637.176	0.0162631
637.254	0.0161950
637.332	0.0162711
637.410	0.0160880
637.488	0.0162150
637.567	0.0161800
637.645	0.0161609
637.723	0.0162106
637.801	0.0162854
637.879	0.0162457
637.957	0.0162360
638.035	0.0160925
638.113	0.0162126
638.192	0.0162226
638.270	0.0161909
638.348	0.0161243
638.426	0.0162653
638.504	0.0162398
638.582	0.0161651
638.660	0.0161806
638.738	0.0162800
638.817	0.0162676
638.895	0.0160876
638.973	0.0162629
639.051	0.0161836
639.129	0.0161771
639.207	0.0161907
639.285	0.0161465
639.363	0.0161545
639.442	0.0162785
639.520	0.0161136
639.598	0.0160561
639.676	0.0162651
639.754	0.0162390
639.832	0.0160789
639.910	0.0162135
639.988	0.0161295
640.067	0.0162148
640.145	0.0163198
640.223	0.0161821
640.301	0.0162954
640.379	0.0162315
640.457	0.0161312
640.535	0.0161689
640.613	0.0162225
640.692	0.0162065
640.770	0.0161823
640.848	0.0161606
640.926	0.0162437
641.004	0.0162503
641.082	0.0161018
641.160	0.0160174
641.238	0.0161541
641.317	0.0161708
641.395	0.0161848
641.473	0.0162372
641.551	0.0161268
641.629	0.0160979
641.707	0.0162275
641.785	0.0162473
641.863	0.0161168
641.942	0.0161912
642.020	0.0160880
642.098	0.0161217
642.176	0.0161649
642.254	0.0161971
642.332	0.0162597
642.410	0.0162270
642.488	0.0160894
642.567	0.0160786
642.645	0.0161969
642.723	0.0162452
642.801	0.0162124
642.879	0.0162066
642.957	0.0162121
643.035	0.0162525
643.113	0.0162206
643.192	0.0161232
643.270	0.0161069
643.348	0.0162655
643.426	0.0162396
643.504	0.0162305
643.582	0.0161757
643.660	0.0162949
643.738	0.0162222
643.817	0.0160765
643.895	0.0160648
643.973	0.0161681
644.051	0.0162992
644.129	0.0163310
644.207	0.0161057
644.285	0.0161423
644.363	0.0160571
644.442	0.0161769
644.520	0.0161419
644.598	0.0162620
644.676	0.0162427
644.754	0.0161313
644.832	0.0161220
644.910	0.0161734
644.988	0.0162110
645.067	0.0162198
645.145	0.0163036
645.223	0.0163732
645.301	0.0163530
645.379	0.0162091
645.457	0.0163879
645.535	0.0160472
645.613	0.0162248
645.692	0.0162486
645.770	0.0160903
645.848	0.0162697
645.926	0.0160990
646.004	0.0162435
646.082	0.0161607
646.160	0.0162457
646.238	0.0161553
646.317	0.0162972
646.395	0.0162401
646.473	0.0160700
646.551	0.0162125
646.629	0.0161478
646.707	0.0161728
646.785	0.0162625
646.863	0.0162225
646.942	0.0161787
647.020	0.0161613
647.098	0.0162170
647.176	0.0162511
647.254	0.0161333
647.332	0.0161894
647.410	0.0161837
647.488	0.0162421
647.567	0.0161642
647.645	0.0162337
647.723	0.0162752
647.801	0.0160756
647.879	0.0161742
647.957	0.0160894
648.035	0.0162800
648.113	0.0161900
648.192	0.0161270
648.270	0.0161312
648.348	0.0162459
648.426	0.0161283
648.504	0.0160954
648.582	0.0161684
648.660	0.0161781
648.738	0.0162091
648.817	0.0161269
648.895	0.0162688
648.973	0.0161707
649.051	0.0161008
649.129	0.0163077
649.207	0.0162891
649.285	0.0160247
649.363	0.0160887
649.442	0.0162038
649.520	0.0161207
649.598	0.0163457
649.676	0.0163531
649.754	0.0162546
649.832	0.0162221
649.910	0.0162836
649.988	0.0162973
650.067	0.0161988
650.145	0.0162129
650.223	0.0162955
650.301	0.0162456
650.379	0.0163316
650.457	0.0162185
650.535	0.0162878
650.613	0.0162567
650.692	0.0162341
650.770	0.0161953
650.848	0.0161916
650.926	0.0162355
651.004	0.0162724
651.082	0.0163863
651.160	0.0162493
651.238	0.0162337
651.317	0.0161333
651.395	0.0162779
651.473	0.0161890
651.551	0.0161481
651.629	0.0162253
651.707	0.0161616
651.785	0.0162769
651.863	0.0163691
651.942	0.0160715
652.020	0.0163326
652.098	0.0161095
652.176	0.0160958
652.254	0.0162883
652.332	0.0161949
652.410	0.0161435
652.488	0.0162662
652.567	0.0162360
652.645	0.0161732
652.723	0.0161831
652.801	0.0163879
652.879	0.0161417
652.957	0.0162212
653.035	0.0161517
653.113	0.0161618
653.192	0.0163242
653.270	0.0162037
653.348	0.0162933
653.426	0.0161844
653.504	0.0161330
653.582	0.0160877
653.660	0.0161479
653.738	0.0162648
653.817	0.0162489
653.895	0.0161523
653.973	0.0161887
654.051	0.0161678
654.129	0.0161618
654.207	0.0162994
654.285	0.0162337
654.363	0.0160907
654.442	0.0161391
654.520	0.0161732
654.598	0.0162900
654.676	0.0159869
654.754	0.0161240
654.832	0.0161615
654.910	0.0161926
654.988	0.0161559
655.067	0.0162379
655.145	0.0162570
655.223	0.0161769
655.301	0.0162682
655.379	0.0163610
655.457	0.0162764
655.535	0.0162596
655.613	0.0160996
655.692	0.0162862
655.770	0.0162585
655.848	0.0162901
655.926	0.0162576
656.004	0.0162630
656.082	0.0161834
656.160	0.0162368
656.238	0.0162238
656.317	0.0161835
656.395	0.0161388
656.473	0.0162824
656.551	0.0162158
656.629	0.0162939
656.707	0.0162538
656.785	0.0161803
656.863	0.0161007
656.942	0.0161956
657.020	0.0162099
657.098	0.0161333
657.176	0.0162782
657.254	0.0162014
657.332	0.0161299
657.410	0.0162595
657.488	0.0160911
657.567	0.0163364
657.645	0.0162790
657.723	0.0162278
657.801	0.0162466
657.879	0.0161972
657.957	0.0162580
658.035	0.0162712
658.113	0.0162141
658.192	0.0161737
658.270	0.0162592
658.348	0.0162252
658.426	0.0162154
658.504	0.0161851
658.582	0.0160983
658.660	0.0161034
658.738	0.0163090
658.817	0.0161025
658.895	0.0161295
658.973	0.0163620
659.051	0.0162881
659.129	0.0162350
659.207	0.0161867
659.285	0.0161365
659.363	0.0163546
659.442	0.0163748
659.520	0.0161784
659.598	0.0162651
659.676	0.0162707
659.754	0.0163009
659.832	0.0162817
659.910	0.0161828
659.988	0.0162602
660.067	0.0162228
660.145	0.0161023
660.223	0.0163630
660.301	0.0161470
660.379	0.0162363
660.457	0.0161980
660.535	0.0163527
660.613	0.0161160
660.692	0.0162991
660.770	0.0162079
660.848	0.0162395
660.926	0.0160616
661.004	0.0161360
661.082	0.0162391
661.160	0.0161147
661.238	0.0162105
661.317	0.0162378
661.395	0.0161346
661.473	0.0163237
661.551	0.0163020
661.629	0.0162238
661.707	0.0161343
661.785	0.0161218
661.863	0.0162781
661.942	0.0161748
662.020	0.0161693
662.098	0.0162752
662.176	0.0161909
662.254	0.0161558
662.332	0.0162232
662.410	0.0162605
662.488	0.0162032
662.567	0.0162097
662.645	0.0160986
662.723	0.0161692
662.801	0.0161007
662.879	0.0163069
662.957	0.0160287
663.035	0.0162415
663.113	0.0161692
663.192	0.0163120
663.270	0.0162090
663.348	0.0162554
663.426	0.0162701
663.504	0.0162589
663.582	0.0161602
663.660	0.0161421
663.738	0.0162742
663.817	0.0163185
663.895	0.0159895
663.973	0.0162239
664.051	0.0162101
664.129	0.0162186
664.207	0.0162691
664.285	0.0161560
664.363	0.0163393
664.442	0.0163371
664.520	0.0163831
664.598	0.0162002
664.676	0.0162318
664.754	0.0163556
664.832	0.0162448
664.910	0.0163128
664.988	0.0161801
665.067	0.0162417
665.145	0.0162489
665.223	0.0162854
665.301	0.0162550
665.379	0.0162950
665.457	0.0161904
665.535	0.0162437
665.613	0.0162871
665.692	0.0163125
665.770	0.0162677
665.848	0.0160535
665.926	0.0161672
666.004	0.0161767
666.082	0.0163210
666.160	0.0162006
666.238	0.0161649
666.317	0.0162569
666.395	0.0161118
666.473	0.0161692
666.551	0.0161985
666.629	0.0161226
666.707	0.0163590
666.785	0.0161852
666.863	0.0161699
666.942	0.0162269
667.020	0.0162542
667.098	0.0161757
667.176	0.0162338
667.254	0.0161812
667.332	0.0161098
667.410	0.0161755
667.488	0.0161264
667.567	0.0162164
667.645	0.0162328
667.723	0.0161432
667.801	0.0162416
667.879	0.0162381
667.957	0.0161335
668.035	0.0160673
668.113	0.0162210
668.192	0.0162973
668.270	0.0162189
668.348	0.0161896
668.426	0.0161736
668.504	0.0163096
668.582	0.0161396
668.660	0.0161714
668.738	0.0161963
668.817	0.0160658
668.895	0.0161480
668.973	0.0162300
669.051	0.0163949
669.129	0.0161329
669.207	0.0160750
669.285	0.0162550
669.363	0.0162874
669.442	0.0161657
669.520	0.0162160
669.598	0.0162225
669.676	0.0162371
669.754	0.0160857
669.832	0.0161880
669.910	0.0161353
669.988	0.0162219
670.067	0.0161639
670.145	0.0162167
670.223	0.0163663
670.301	0.0161245
670.379	0.0161750
670.457	0.0163811
670.535	0.0161906
670.613	0.0162010
670.692	0.0162890
670.770	0.0163214
670.848	0.0161642
670.926	0.0160297
671.004	0.0162748
671.082	0.0161379
671.160	0.0162042
671.238	0.0162579
671.317	0.0162627
671.395	0.0162235
671.473	0.0161768
671.551	0.0161615
671.629	0.0162547
671.707	0.0161930
671.785	0.0161845
671.863	0.0162592
671.942	0.0161824
672.020	0.0160458
672.098	0.0162280
672.176	0.0162149
672.254	0.0161253
672.332	0.0162033
672.410	0.0162691
672.488	0.0162163
672.567	0.0163053
672.645	0.0162360
672.723	0.0160738
672.801	0.0162766
672.879	0.0160763
672.957	0.0163212
673.035	0.0160256
673.113	0.0161682
673.192	0.0161874
673.270	0.0163174
673.348	0.0163713
673.426	0.0162594
673.504	0.0160896
673.582	0.0162064
673.660	0.0161511
673.738	0.0161980
673.817	0.0161901
673.895	0.0162176
673.973	0.0161184
674.051	0.0162765
674.129	0.0161118
674.207	0.0163538
674.285	0.0163155
674.363	0.0163616
674.442	0.0161825
674.520	0.0162421
674.598	0.0161454
674.676	0.0162362
674.754	0.0162677
674.832	0.0162343
674.910	0.0161979
674.988	0.0162346
675.067	0.0163346
675.145	0.0161900
675.223	0.0161519
675.301	0.0162008
675.379	0.0162299
675.457	0.0161751
675.535	0.0161955
675.613	0.0162988
675.692	0.0162426
675.770	0.0163057
675.848	0.0162500
675.926	0.0162081
676.004	0.0163583
676.082	0.0162153
676.160	0.0162866
676.238	0.0161633
676.317	0.0162732
676.395	0.0161449
676.473	0.0160695
676.551	0.0161985
676.629	0.0163445
676.707	0.0162041
676.785	0.0162478
676.863	0.0161754
676.942	0.0162534
677.020	0.0160305
677.098	0.0161453
677.176	0.0163013
677.254	0.0161433
677.332	0.0160133
677.410	0.0160712
677.488	0.0162132
677.567	0.0162702
677.645	0.0162206
677.723	0.0161793
677.801	0.0162023
677.879	0.0162652
677.957	0.0161914
678.035	0.0162217
678.113	0.0161772
678.192	0.0163156
678.270	0.0162739
678.348	0.0162004
678.426	0.0163200
678.504	0.0163016
678.582	0.0163480
678.660	0.0163078
678.738	0.0163642
678.817	0.0163557
678.895	0.0162641
678.973	0.0163364
679.051	0.0163103
679.129	0.0162752
679.207	0.0162496
679.285	0.0162157
679.363	0.0161536
679.442	0.0163390
679.520	0.0159959
679.598	0.0162535
679.676	0.0162213
679.754	0.0162566
679.832	0.0160194
679.910	0.0160990
679.988	0.0161933
680.067	0.0161752
680.145	0.0161549
680.223	0.0160427
680.301	0.0161195
680.379	0.0160882
680.457	0.0161467
680.535	0.0161589
680.613	0.0161942
680.692	0.0161652
680.770	0.0159361
680.848	0.0161516
680.926	0.0159818
681.004	0.0162321
681.082	0.0162372
681.160	0.0162914
681.238	0.0162823
681.317	0.0161823
681.395	0.0162720
681.473	0.0162143
681.551	0.0162883
681.629	0.0163673
681.707	0.0162604
681.785	0.0162354
681.863	0.0163095
681.942	0.0164104
682.020	0.0162357
682.098	0.0163595
682.176	0.0162421
682.254	0.0162435
682.332	0.0163710
682.410	0.0162354
682.488	0.0162408
682.567	0.0161911
682.645	0.0162623
682.723	0.0163274
682.801	0.0161772
682.879	0.0162234
682.957	0.0161871
683.035	0.0161876
683.113	0.0161401
683.192	0.0161339
683.270	0.0161249
683.348	0.0161773
683.426	0.0160429
683.504	0.0162019
683.582	0.0161974
683.660	0.0162457
683.738	0.0161978
683.817	0.0161423
683.895	0.0162729
683.973	0.0162722
684.051	0.0162794
684.129	0.0161248
684.207	0.0162003
684.285	0.0161919
684.363	0.0161504
684.442	0.0162969
684.520	0.0163036
684.598	0.0162929
684.676	0.0164311
684.754	0.0163174
684.832	0.0161836
684.910	0.0162786
684.988	0.0163451
685.067	0.0163385
685.145	0.0163651
685.223	0.0163553
685.301	0.0162007
685.379	0.0161286
685.457	0.0161836
685.535	0.0163437
685.613	0.0162267
685.692	0.0163029
685.770	0.0161691
685.848	0.0163766
685.926	0.0161969
686.004	0.0162087
686.082	0.0161198
686.160	0.0160198
686.238	0.0161525
686.317	0.0161487
686.395	0.0160706
686.473	0.0159370
686.551	0.0159459
686.629	0.0156416
686.707	0.0156062
686.785	0.0152824
686.863	0.0150641
686.942	0.0149422
687.020	0.0149773
687.098	0.0150775
687.176	0.0154372
687.254	0.0163408
687.332	0.0176604
687.410	0.0192280
687.488	0.0213773
687.567	0.0234888
687.645	0.0251711
687.723	0.0265166
687.801	0.0272385
687.879	0.0272054
687.957	0.0259775
688.035	0.0239149
688.113	0.0212267
688.192	0.0174161
688.270	0.0131799
688.348	0.00866478
688.426	0.00413055
688.504	-0.000231476
688.582	-0.00399010
688.660	-0.00696770
688.738	-0.00914291
688.817	-0.0103593
688.895	-0.0102316
688.973	-0.00920845
689.051	-0.00721291
689.129	-0.00394020
689.207	-0.0000808716
689.285	0.00424400
689.363	0.00915115
689.442	0.0141909
689.520	0.0194376
689.598	0.0245606
689.676	0.0298145
689.754	0.0346249
689.832	0.0391821
689.910	0.0431811
689.988	0.0469289
690.067	0.0499302
690.145	0.0521680
690.223	0.0534177
690.301	0.0538978
690.379	0.0534275
690.457	0.0520540
690.535	0.0497308
690.613	0.0464346
690.692	0.0425211
690.770	0.0379740
690.848	0.0327857
690.926	0.0272420
691.004	0.0215212
691.082	0.0155579
691.160	0.00942467
691.238	0.00382614
691.317	-0.00152336
691.395	-0.00656792
691.473	-0.0110914
691.551	-0.0149291
691.629	-0.0179800
691.707	-0.0202540
691.785	-0.0217053
691.863	-0.0223038
691.942	-0.0220304
692.020	-0.0209369
692.098	-0.0193371
692.176	-0.0168417
692.254	-0.0139616
692.332	-0.0107046
692.410	-0.00712570
692.488	-0.00346275
692.567	0.000512085
692.645	0.00440674
692.723	0.00808319
692.801	0.0116212
692.879	0.0149162
692.957	0.0180275
693.035	0.0206532
693.113	0.0229596
693.192	0.0250333
693.270	0.0265824
693.348	0.0279004
693.426	0.0292813
693.504	0.0305515
693.582	0.0314613
693.660	0.0323126
693.738	0.0333261
693.817	0.0341891
693.895	0.0348076
693.973	0.0355154
694.051	0.0363472
694.129	0.0369395
694.207	0.0373793
694.285	0.0375514
694.363	0.0376823
694.442	0.0375177
694.520	0.0370565
694.598	0.0363792
694.676	0.0355650
694.754	0.0345110
694.832	0.0329329
694.910	0.0316309
694.988	0.0301368
695.067	0.0282000
695.145	0.0263907
695.223	0.0242876
695.301	0.0222084
695.379	0.0204078
695.457	0.0184138
695.535	0.0165108
695.613	0.0147317
695.692	0.0130129
695.770	0.0114289
695.848	0.00993568
695.926	0.00843506
696.004	0.00706032
696.082	0.00601997
696.160	0.00504974
696.238	0.00415543
696.317	0.00324486
696.395	0.00275833
696.473	0.00218933
696.551	0.00168480
696.629	0.00117790
696.707	0.000799179
696.785	0.000638428
696.863	0.000330811
696.942	0.000122681
697.020	0.0000926208
697.098	0.0000377655
697.176	0.000299530
697.254	0.000613632
697.332	0.00112144
697.410	0.00154694
697.488	0.00246208
697.567	0.00338966
697.645	0.00444611
697.723	0.00555878
697.801	0.00688339
697.879	0.00815002
697.957	0.00973785
698.035	0.0112910
698.113	0.0128138
698.192	0.0142204
698.270	0.0156709
698.348	0.0169802
698.426	0.0182922
698.504	0.0195428
698.582	0.0202023
698.660	0.0211680
698.738	0.0219765
698.817	0.0223260
698.895	0.0229139
698.973	0.0232448
699.051	0.0233685
699.129	0.0233890
699.207	0.0234386
699.285	0.0235174
699.363	0.0233768
699.442	0.0232087
699.520	0.0230961
699.598	0.0229218
699.676	0.0226479
699.754	0.0226188
699.832	0.0226409
699.910	0.0226784
699.988	0.0228940
700.067	0.0231719
700.145	0.0233263
700.223	0.0238568
700.301	0.0243500
700.379	0.0249434
700.457	0.0252964
700.535	0.0259158
700.613	0.0263891
700.692	0.0267743
700.770	0.0269428
700.848	0.0269569
700.926	0.0267052
701.004	0.0262933
701.082	0.0256716
701.160	0.0248010
701.238	0.0238858
701.317	0.0227216
701.395	0.0215122
701.473	0.0203624
701.551	0.0189201
701.629	0.0177087
701.707	0.0164178
701.785	0.0152769
701.863	0.0140827
701.942	0.0129974
702.020	0.0122023
702.098	0.0112482
702.176	0.0105590
702.254	0.0100211
702.332	0.00949066
702.410	0.00918625
702.488	0.00910545
702.567	0.00912590
702.645	0.00930328
702.723	0.00947685
702.801	0.00981636
702.879	0.0101489
702.957	0.0105558
703.035	0.0107954
703.113	0.0111366
703.192	0.0113265
703.270	0.0116238
703.348	0.0115854
703.426	0.0116319
703.504	0.0115317
703.582	0.0112502
703.660	0.0110199
703.738	0.0107662
703.817	0.0101862
703.895	0.00985855
703.973	0.00939240
704.051	0.00899132
704.129	0.00883217
704.207	0.00861710
704.285	0.00882080
704.363	0.00889137
704.442	0.00912483
704.520	0.00954567
704.598	0.0101373
704.676	0.0107216
704.754	0.0113406
704.832	0.0121105
704.910	0.0127238
704.988	0.0134025
705.067	0.0145300
705.145	0.0153874
705.223	0.0160787
705.301	0.0168695
705.379	0.0174918
705.457	0.0180871
705.535	0.0185857
705.613	0.0189947
705.692	0.0192915
705.770	0.0196016
705.848	0.0198364
705.926	0.0200917
706.004	0.0200206
706.082	0.0202287
706.160	0.0201383
706.238	0.0201498
706.317	0.0201246
706.395	0.0201083
706.473	0.0200079
706.551	0.0200654
706.629	0.0198936
706.707	0.0197485
706.785	0.0199167
706.863	0.0199697
706.942	0.0200686
707.020	0.0201890
707.098	0.0202111
707.176	0.0204055
707.254	0.0206747
707.332	0.0207924
707.410	0.0209020
707.488	0.0211539
707.567	0.0211539
707.645	0.0214050
707.723	0.0216937
707.801	0.0218011
707.879	0.0220074
707.957	0.0222353
708.035	0.0219526
708.113	0.0217502
708.192	0.0217276
708.270	0.0213931
708.348	0.0207926
708.426	0.0205598
708.504	0.0199172
708.582	0.0193224
708.660	0.0187807
708.738	0.0183223
708.817	0.0176347
708.895	0.0169705
708.973	0.0162251
709.051	0.0157490
709.129	0.0151838
709.207	0.0147430
709.285	0.0142525
709.363	0.0140401
709.442	0.0136906
709.520	0.0134917
709.598	0.0133340
709.676	0.0133491
709.754	0.0130167
709.832	0.0130419
709.910	0.0130256
709.988	0.0129494
710.067	0.0128828
710.145	0.0129793
710.223	0.0130222
710.301	0.0129412
710.379	0.0130663
710.457	0.0130887
710.535	0.0131419
710.613	0.0131248
710.692	0.0132582
710.770	0.0132294
710.848	0.0131876
710.926	0.0130237
711.004	0.0129417
711.082	0.0127197
711.160	0.0127332
711.238	0.0126402
711.317	0.0123649
711.395	0.0122259
711.473	0.0121021
711.551	0.0119092
711.629	0.0117368
711.707	0.0117084
711.785	0.0118820
711.863	0.0118870
711.942	0.0118407
712.020	0.0121276
712.098	0.0121672
712.176	0.0122783
712.254	0.0127813
712.332	0.0130420
712.410	0.0134712
712.488	0.0138607
712.567	0.0141850
712.645	0.0146596
712.723	0.0150472
712.801	0.0156148
712.879	0.0159150
712.957	0.0164634
713.035	0.0167715
713.113	0.0170995
713.192	0.0175089
713.270	0.0178776
713.348	0.0181261
713.426	0.0183661
713.504	0.0185689
713.582	0.0188012
713.660	0.0189452
713.738	0.0190952
713.817	0.0190464
713.895	0.0190304
713.973	0.0189424
714.051	0.0189878
714.129	0.0187868
714.207	0.0187439
714.285	0.0185548
714.363	0.0184077
714.442	0.0182799
714.520	0.0184084
714.598	0.0182635
714.676	0.0183946
714.754	0.0184495
714.832	0.0185970
714.910	0.0187548
714.988	0.0189619
715.067	0.0192770
715.145	0.0196033
715.223	0.0197386
715.301	0.0199702
715.379	0.0204169
715.457	0.0204560
715.535	0.0205787
715.613	0.0204941
715.692	0.0203332
715.770	0.0204447
715.848	0.0200494
715.926	0.0198335
716.004	0.0194116
716.082	0.0190280
716.160	0.0186527
716.238	0.0180733
716.317	0.0177909
716.395	0.0172998
716.473	0.0170879
716.551	0.0166197
716.629	0.0164329
716.707	0.0161674
716.785	0.0159105
716.863	0.0157808
716.942	0.0155527
717.020	0.0155750
717.098	0.0154791
717.176	0.0155226
717.254	0.0153777
717.332	0.0153244
717.410	0.0152069
717.488	0.0152344
717.567	0.0151387
717.645	0.0150512
717.723	0.0149527
717.801	0.0152239
717.879	0.0150643
717.957	0.0150139
718.035	0.0149567
718.113	0.0147586
718.192	0.0146816
718.270	0.0148293
718.348	0.0147186
718.426	0.0144073
718.504	0.0142737
718.582	0.0142047
718.660	0.0139893
718.738	0.0137945
718.817	0.0137727
718.895	0.0133795
718.973	0.0132219
719.051	0.0131157
719.129	0.0128219
719.207	0.0127184
719.285	0.0124553
719.363	0.0121804
719.442	0.0121655
719.520	0.0118866
719.598	0.0120699
719.676	0.0119987
719.754	0.0121574
719.832	0.0121426
719.910	0.0123450
719.988	0.0127472
720.067	0.0131367
720.145	0.0133680
720.223	0.0136124
720.301	0.0140484
720.379	0.0145522
720.457	0.0148344
720.535	0.0153614
720.613	0.0157156
720.692	0.0158920
720.770	0.0163637
720.848	0.0165470
720.926	0.0167157
721.004	0.0168570
721.082	0.0170683
721.160	0.0172247
721.238	0.0172317
721.317	0.0174189
721.395	0.0174184
721.473	0.0174613
721.551	0.0175223
721.629	0.0172597
721.707	0.0173933
721.785	0.0174660
721.863	0.0173705
721.942	0.0174505
722.020	0.0175354
722.098	0.0176403
722.176	0.0176427
722.254	0.0177817
722.332	0.0180260
722.410	0.0181461
722.488	0.0180653
722.567	0.0186016
722.645	0.0189008
722.723	0.0190633
722.801	0.0193231
722.879	0.0195944
722.957	0.0199441
723.035	0.0201500
723.113	0.0203273
723.192	0.0202594
723.270	0.0204489
723.348	0.0203925
723.426	0.0203430
723.504	0.0199934
723.582	0.0197295
723.660	0.0194301
723.738	0.0191034
723.817	0.0189404
723.895	0.0185202
723.973	0.0181773
724.051	0.0178242
724.129	0.0176215
724.207	0.0171664
724.285	0.0170029
724.363	0.0167667
724.442	0.0165584
724.520	0.0163198
724.598	0.0162295
724.676	0.0159937
724.754	0.0158928
724.832	0.0158559
724.910	0.0158484
724.988	0.0157742
725.067	0.0154898
725.145	0.0155051
725.223	0.0154037
725.301	0.0153815
725.379	0.0153458
725.457	0.0154359
725.535	0.0154439
725.613	0.0152247
725.692	0.0153342
725.770	0.0154538
725.848	0.0153989
725.926	0.0153159
726.004	0.0151781
726.082	0.0151714
726.160	0.0150632
726.238	0.0149650
726.317	0.0149780
726.395	0.0147057
726.473	0.0146826
726.551	0.0143954
726.629	0.0141222
726.707	0.0140734
726.785	0.0138490
726.863	0.0134763
726.942	0.0133328
727.020	0.0131614
727.098	0.0128964
727.176	0.0127769
727.254	0.0126099
727.332	0.0124786
727.410	0.0124734
727.488	0.0124815
727.567	0.0123979
727.645	0.0125268
727.723	0.0128336
727.801	0.0130184
727.879	0.0130661
727.957	0.0134593
728.035	0.0137880
728.113	0.0141196
728.192	0.0143665
728.270	0.0147164
728.348	0.0149985
728.426	0.0152473
728.504	0.0154934
728.582	0.0157849
728.660	0.0160557
728.738	0.0163286
728.817	0.0164194
728.895	0.0166115
728.973	0.0168214
729.051	0.0167624
729.129	0.0169489
729.207	0.0171571
729.285	0.0173610
729.363	0.0173721
729.442	0.0175016
729.520	0.0176971
729.598	0.0176780
729.676	0.0177553
729.754	0.0178929
729.832	0.0180959
729.910	0.0180499
729.988	0.0178798
730.067	0.0179001
730.145	0.0182248
730.223	0.0183232
730.301	0.0181313
730.379	0.0182093
730.457	0.0182778
730.535	0.0183540
730.613	0.0182771
730.692	0.0183310
730.770	0.0185365
730.848	0.0186376
730.926	0.0189215
731.004	0.0191321
731.082	0.0192012
731.160	0.0193225
731.238	0.0194447
731.317	0.0194218
731.395	0.0195091
731.473	0.0193010
731.551	0.0190638
731.629	0.0190504
731.707	0.0189312
731.785	0.0186671
731.863	0.0184872
731.942	0.0181873
732.020	0.0178906
732.098	0.0174517
732.176	0.0172689
732.254	0.0168173
732.332	0.0164099
732.410	0.0161430
732.488	0.0159005
732.567	0.0156792
732.645	0.0155133
732.723	0.0153452
732.801	0.0152490
732.879	0.0150702
732.957	0.0150954
733.035	0.0149511
733.113	0.0148312
733.192	0.0147826
733.270	0.0148393
733.348	0.0148371
733.426	0.0149370
733.504	0.0150249
733.582	0.0150520
733.660	0.0150752
733.738	0.0150799
733.817	0.0150855
733.895	0.0150111
733.973	0.0150546
734.051	0.0150438
734.129	0.0149777
734.207	0.0149644
734.285	0.0149049
734.363	0.0148612
734.442	0.0147368
734.520	0.0146830
734.598	0.0145940
734.676	0.0144824
734.754	0.0144261
734.832	0.0143636
734.910	0.0142056
734.988	0.0141974
735.067	0.0140102
735.145	0.0140086
735.223	0.0141510
735.301	0.0138747
735.379	0.0139782
735.457	0.0139531
735.535	0.0139758
735.613	0.0139425
735.692	0.0141195
735.770	0.0144244
735.848	0.0145322
735.926	0.0146571
736.004	0.0147968
736.082	0.0150339
736.160	0.0151812
736.238	0.0155556
736.317	0.0157986
736.395	0.0159167
736.473	0.0161102
736.551	0.0162803
736.629	0.0164360
736.707	0.0166479
736.785	0.0168551
736.863	0.0168603
736.942	0.0169329
737.020	0.0172084
737.098	0.0173569
737.176	0.0174761
737.254	0.0175419
737.332	0.0174386
737.410	0.0173466
737.488	0.0174711
737.567	0.0174268
737.645	0.0172703
737.723	0.0173658
737.801	0.0172138
737.879	0.0172485
737.957	0.0171852
738.035	0.0170513
738.113	0.0171341
738.192	0.0172816
738.270	0.0170564
738.348	0.0173070
738.426	0.0172510
738.504	0.0174330
738.582	0.0176302
738.660	0.0176396
738.738	0.0178812
738.817	0.0181737
738.895	0.0183786
738.973	0.0183434
739.051	0.0186317
739.129	0.0188846
739.207	0.0188492
739.285	0.0189088
739.363	0.0189655
739.442	0.0189125
739.520	0.0187762
739.598	0.0184881
739.676	0.0185308
739.754	0.0182812
739.832	0.0181955
739.910	0.0177392
739.988	0.0175402
740.067	0.0172999
740.145	0.0169711
740.223	0.0166299
740.301	0.0163351
740.379	0.0162150
740.457	0.0159729
740.535	0.0155625
740.613	0.0152233
740.692	0.0150628
740.770	0.0150037
740.848	0.0148325
740.926	0.0146373
741.004	0.0146102
741.082	0.0144077
741.160	0.0144088
741.238	0.0143258
741.317	0.0143384
741.395	0.0142809
741.473	0.0142778
741.551	0.0145463
741.629	0.0144592
741.707	0.0145898
741.785	0.0146620
741.863	0.0147202
741.942	0.0148858
742.020	0.0150739
742.098	0.0151566
742.176	0.0151773
742.254	0.0154220
742.332	0.0155615
742.410	0.0155337
742.488	0.0156454
742.567	0.0156659
742.645	0.0155481
742.723	0.0157038
742.801	0.0156544
742.879	0.0155217
742.957	0.0156124
743.035	0.0155924
743.113	0.0153994
743.192	0.0153094
743.270	0.0153239
743.348	0.0152473
743.426	0.0152308
743.504	0.0151753
743.582	0.0152078
743.660	0.0152444
743.738	0.0152663
743.817	0.0153990
743.895	0.0155061
743.973	0.0156371
744.051	0.0157262
744.129	0.0158148
744.207	0.0158921
744.285	0.0159808
744.363	0.0161848
744.442	0.0161819
744.520	0.0162575
744.598	0.0162256
744.676	0.0162345
744.754	0.0163123
744.832	0.0163499
744.910	0.0163919
744.988	0.0164085
745.067	0.0164092
745.145	0.0163960
745.223	0.0164071
745.301	0.0164556
745.379	0.0166367
745.457	0.0165434
745.535	0.0166532
745.613	0.0167222
745.692	0.0167939
745.770	0.0168408
745.848	0.0169656
745.926	0.0170529
746.004	0.0170206
746.082	0.0170350
746.160	0.0170850
746.238	0.0170218
746.317	0.0171984
746.395	0.0172918
746.473	0.0171849
746.551	0.0173237
746.629	0.0174373
746.707	0.0173468
746.785	0.0175648
746.863	0.0175698
746.942	0.0176860
747.020	0.0176575
747.098	0.0177176
747.176	0.0176424
747.254	0.0176818
747.332	0.0177427
747.410	0.0176753
747.488	0.0176183
747.567	0.0173812
747.645	0.0173897
747.723	0.0172248
747.801	0.0171679
747.879	0.0169402
747.957	0.0168570
748.035	0.0167274
748.113	0.0165501
748.192	0.0165071
748.270	0.0163309
748.348	0.0162428
748.426	0.0161015
748.504	0.0157510
748.582	0.0156274
748.660	0.0156176
748.738	0.0155889
748.817	0.0153811
748.895	0.0153069
748.973	0.0153026
749.051	0.0155666
749.129	0.0154093
749.207	0.0153692
749.285	0.0154489
749.363	0.0153544
749.442	0.0154945
749.520	0.0156622
749.598	0.0156307
749.676	0.0156689
749.754	0.0156866
749.832	0.0157334
749.910	0.0157997
749.988	0.0159396
750.067	0.0158175
750.145	0.0157755
750.223	0.0157843
750.301	0.0158311
750.379	0.0156877
750.457	0.0158614
750.535	0.0157396
750.613	0.0157033
750.692	0.0155037
750.770	0.0155070
750.848	0.0155756
750.926	0.0154050
751.004	0.0154244
751.082	0.0154555
751.160	0.0153017
751.238	0.0152466
751.317	0.0151815
751.395	0.0151937
751.473	0.0151277
751.551	0.0151025
751.629	0.0151469
751.707	0.0151945
751.785	0.0153060
751.863	0.0153809
751.942	0.0152940
752.020	0.0152912
752.098	0.0153808
752.176	0.0154652
752.254	0.0156547
752.332	0.0157738
752.410	0.0159033
752.488	0.0160925
752.567	0.0162827
752.645	0.0162581
752.723	0.0163841
752.801	0.0164819
752.879	0.0167606
752.957	0.0166844
753.035	0.0167633
753.113	0.0168306
753.192	0.0168873
753.270	0.0170918
753.348	0.0168797
753.426	0.0170824
753.504	0.0172577
753.582	0.0169455
753.660	0.0169430
753.738	0.0168855
753.817	0.0168340
753.895	0.0166375
753.973	0.0166667
754.051	0.0166302
754.129	0.0166673
754.207	0.0165012
754.285	0.0165221
754.363	0.0164368
754.442	0.0165744
754.520	0.0165782
754.598	0.0165594
754.676	0.0166745
754.754	0.0168010
754.832	0.0167272
754.910	0.0167987
754.988	0.0169317
755.067	0.0171172
755.145	0.0171799
755.223	0.0172233
755.301	0.0173628
755.379	0.0171650
755.457	0.0172295
755.535	0.0172970
755.613	0.0171965
755.692	0.0171875
755.770	0.0170727
755.848	0.0169121
755.926	0.0169562
756.004	0.0166489
756.082	0.0165913
756.160	0.0165108
756.238	0.0165488
756.317	0.0164156
756.395	0.0162993
756.473	0.0161608
756.551	0.0159687
756.629	0.0160239
756.707	0.0159290
756.785	0.0157457
756.863	0.0158817
756.942	0.0158231
757.020	0.0157163
757.098	0.0158258
757.176	0.0157397
757.254	0.0155650
757.332	0.0157225
757.410	0.0156137
757.488	0.0156117
757.567	0.0156261
757.645	0.0157343
757.723	0.0156371
757.801	0.0156200
757.879	0.0158292
757.957	0.0157991
758.035	0.0158569
758.113	0.0157987
758.192	0.0159286
758.270	0.0158138
758.348	0.0159465
758.426	0.0160323
758.504	0.0159298
758.582	0.0159473
758.660	0.0158028
758.738	0.0160361
758.817	0.0157974
758.895	0.0157335
758.973	0.0157277
759.051	0.0156455
759.129	0.0156002
759.207	0.0154413
759.285	0.0154945
759.363	0.0155201
759.442	0.0153571
759.520	0.0152953
759.598	0.0153433
759.676	0.0153117
759.754	0.0153703
759.832	0.0155437
759.910	0.0155742
759.988	0.0156221
760.067	0.0154942
760.145	0.0156110
760.223	0.0157884
760.301	0.0159798
760.379	0.0160223
760.457	0.0161134
760.535	0.0161695
760.613	0.0163894
760.692	0.0163404
760.770	0.0163670
760.848	0.0163569
760.926	0.0164767
761.004	0.0165083
761.082	0.0165530
761.160	0.0165808
761.238	0.0165535
761.317	0.0166043
761.395	0.0167107
761.473	0.0166567
761.551	0.0167534
761.629	0.0168233
761.707	0.0167813
761.785	0.0167221
761.863	0.0168240
761.942	0.0168559
762.020	0.0168343
762.098	0.0168875
762.176	0.0168478
762.254	0.0168274
762.332	0.0167818
762.410	0.0167267
762.488	0.0167799
762.567	0.0166741
762.645	0.0166098
762.723	0.0165928
762.801	0.0166942
762.879	0.0166359
762.957	0.0166941
763.035	0.0166625
763.113	0.0165638
763.192	0.0165958
763.270	0.0165680
763.348	0.0165662
763.426	0.0166631
763.504	0.0167310
763.582	0.0166759
763.660	0.0167599
763.738	0.0167175
763.817	0.0167881
763.895	0.0166994
763.973	0.0166907
764.051	0.0166730
764.129	0.0164578
764.207	0.0165796
764.285	0.0164713
764.363	0.0164227
764.442	0.0163614
764.520	0.0160894
764.598	0.0160368
764.676	0.0159168
764.754	0.0159204
764.832	0.0157597
764.910	0.0157117
764.988	0.0156131
765.067	0.0155937
765.145	0.0156296
765.223	0.0156159
765.301	0.0156890
765.379	0.0158205
765.457	0.0158632
765.535	0.0158878
765.613	0.0160061
765.692	0.0160761
765.770	0.0162282
765.848	0.0161681
765.926	0.0163068
766.004	0.0164865
766.082	0.0165310
766.160	0.0166891
766.238	0.0165164
766.317	0.0165883
766.395	0.0166290
766.473	0.0166251
766.551	0.0165791
766.629	0.0165833
766.707	0.0165248
766.785	0.0164484
766.863	0.0164158
766.942	0.0161876
767.020	0.0162303
767.098	0.0161077
767.176	0.0160046
767.254	0.0157613
767.332	0.0156094
767.410	0.0155890
767.488	0.0153226
767.567	0.0151668
767.645	0.0151314
767.723	0.0149332
767.801	0.0148564
767.879	0.0146247
767.957	0.0148462
768.035	0.0149052
768.113	0.0147865
768.192	0.0149525
768.270	0.0149545
768.348	0.0152912
768.426	0.0153127
768.504	0.0153200
768.582	0.0155972
768.660	0.0158097
768.738	0.0158484
768.817	0.0161766
768.895	0.0161835
768.973	0.0162132
769.051	0.0163604
769.129	0.0165180
769.207	0.0166384
769.285	0.0166980
769.363	0.0168030
769.442	0.0167754
769.520	0.0169753
769.598	0.0168185
769.676	0.0167966
769.754	0.0169266
769.832	0.0169545
769.910	0.0168435
769.988	0.0168827
770.067	0.0168235
770.145	0.0165942
770.223	0.0166525
770.301	0.0166031
770.379	0.0164281
770.457	0.0164590
770.535	0.0165771
770.613	0.0165457
770.692	0.0166836
770.770	0.0164773
770.848	0.0165286
770.926	0.0165767
771.004	0.0166940
771.082	0.0166028
771.160	0.0167173
771.238	0.0167590
771.317	0.0167690
771.395	0.0168742
771.473	0.0168717
771.551	0.0168379
771.629	0.0169292
771.707	0.0168733
771.785	0.0168921
771.863	0.0168702
771.942	0.0166842
772.020	0.0166803
772.098	0.0167121
772.176	0.0165620
772.254	0.0163894
772.332	0.0163998
772.410	0.0164309
772.488	0.0163601
772.567	0.0161760
772.645	0.0161871
772.723	0.0160178
772.801	0.0160905
772.879	0.0159461
772.957	0.0159930
773.035	0.0160329
773.113	0.0160579
773.192	0.0157204
773.270	0.0159644
773.348	0.0160827
773.426	0.0159975
773.504	0.0160886
773.582	0.0159798
773.660	0.0158984
773.738	0.0161753
773.817	0.0160177
773.895	0.0158766
773.973	0.0160656
774.051	0.0160599
774.129	0.0160023
774.207	0.0159451
774.285	0.0160229
774.363	0.0159997
774.442	0.0160646
774.520	0.0160729
774.598	0.0159676
774.676	0.0159878
774.754	0.0160191
774.832	0.0159566
774.910	0.0159126
774.988	0.0159087
775.067	0.0159589
775.145	0.0158449
775.223	0.0157746
775.301	0.0157769
775.379	0.0158492
775.457	0.0156944
775.535	0.0156792
775.613	0.0156100
775.692	0.0155661
775.770	0.0153161
775.848	0.0155628
775.926	0.0155919
776.004	0.0155889
776.082	0.0156133
776.160	0.0155902
776.238	0.0156223
776.317	0.0157259
776.395	0.0158302
776.473	0.0158927
776.551	0.0158604
776.629	0.0159497
776.707	0.0159337
776.785	0.0159679
776.863	0.0159719
776.942	0.0161278
777.020	0.0162086
777.098	0.0162987
777.176	0.0162411
777.254	0.0163375
777.332	0.0163685
777.410	0.0164009
777.488	0.0164568
777.567	0.0164903
777.645	0.0167139
777.723	0.0167406
777.801	0.0167773
777.879	0.0167486
777.957	0.0167619
778.035	0.0167368
778.113	0.0167890
778.192	0.0168253
778.270	0.0166168
778.348	0.0166534
778.426	0.0166448
778.504	0.0167622
778.582	0.0166902
778.660	0.0165403
778.738	0.0167868
778.817	0.0167516
778.895	0.0165231
778.973	0.0164156
779.051	0.0164585
779.129	0.0165195
779.207	0.0165575
779.285	0.0166619
779.363	0.0166515
779.442	0.0165933
779.520	0.0165074
779.598	0.0166684
779.676	0.0165779
779.754	0.0165213
779.832	0.0166850
779.910	0.0166841
779.988	0.0165757
780.067	0.0166214
780.145	0.0165507
780.223	0.0164333
780.301	0.0162616
780.379	0.0163242
780.457	0.0163975
780.535	0.0162974
780.613	0.0160397
780.692	0.0160809
780.770	0.0159572
780.848	0.0161290
780.926	0.0160040
781.004	0.0159610
781.082	0.0160308
781.160	0.0159511
781.238	0.0159273
781.317	0.0159689
781.395	0.0159766
781.473	0.0161067
781.551	0.0159645
781.629	0.0159442
781.707	0.0160917
781.785	0.0161171
781.863	0.0159641
781.942	0.0158928
782.020	0.0159488
782.098	0.0157677
782.176	0.0159159
782.254	0.0158351
782.332	0.0157264
782.410	0.0157153
782.488	0.0157675
782.567	0.0158555
782.645	0.0156507
782.723	0.0156548
782.801	0.0156944
782.879	0.0157230
782.957	0.0156043
783.035	0.0157289
783.113	0.0158138
783.192	0.0157187
783.270	0.0157829
783.348	0.0159209
783.426	0.0159338
783.504	0.0159196
783.582	0.0159261
783.660	0.0160996
783.738	0.0162247
783.817	0.0164027
783.895	0.0164366
783.973	0.0166261
784.051	0.0167048
784.129	0.0167635
784.207	0.0167004
784.285	0.0168318
784.363	0.0167056
784.442	0.0166706
784.520	0.0165340
784.598	0.0163879
784.676	0.0161349
784.754	0.0159451
784.832	0.0156878
784.910	0.0153295
784.988	0.0151083
785.067	0.0149713
785.145	0.0146984
785.223	0.0145069
785.301	0.0142719
785.379	0.0143705
785.457	0.0143871
785.535	0.0143330
785.613	0.0144630
785.692	0.0146698
785.770	0.0148827
785.848	0.0150850
785.926	0.0154443
786.004	0.0159615
786.082	0.0163956
786.160	0.0169056
786.238	0.0174004
786.317	0.0180604
786.395	0.0185835
786.473	0.0190326
786.551	0.0196096
786.629	0.0197903
786.707	0.0202013
786.785	0.0204584
786.863	0.0204185
786.942	0.0206307
787.020	0.0204102
787.098	0.0202003
787.176	0.0199416
787.254	0.0194687
787.332	0.0190002
787.410	0.0186837
787.488	0.0180599
787.567	0.0173539
787.645	0.0169090
787.723	0.0163476
787.801	0.0157316
787.879	0.0151231
787.957	0.0146971
788.035	0.0140256
788.113	0.0134047
788.192	0.0130820
788.270	0.0127155
788.348	0.0124347
788.426	0.0121156
788.504	0.0119418
788.582	0.0119651
788.660	0.0120058
788.738	0.0119382
788.817	0.0119788
788.895	0.0121011
788.973	0.0124087
789.051	0.0126525
789.129	0.0127670
789.207	0.0131402
789.285	0.0135339
789.363	0.0139416
789.442	0.0143408
789.520	0.0146932
789.598	0.0149732
789.676	0.0154774
789.754	0.0158740
789.832	0.0162067
789.910	0.0166797
789.988	0.0170036
790.067	0.0173376
790.145	0.0176962
790.223	0.0179543
790.301	0.0181552
790.379	0.0186497
790.457	0.0187872
790.535	0.0189365
790.613	0.0191847
790.692	0.0192982
790.770	0.0194067
790.848	0.0196587
790.926	0.0195053
791.004	0.0196825
791.082	0.0196157
791.160	0.0196963
791.238	0.0195483
791.317	0.0194319
791.395	0.0192702
791.473	0.0190699
791.551	0.0189462
791.629	0.0184171
791.707	0.0183526
791.785	0.0179304
791.863	0.0176175
791.942	0.0173272
792.020	0.0169317
792.098	0.0164970
792.176	0.0163534
792.254	0.0161469
792.332	0.0157497
792.410	0.0153831
792.488	0.0152584
792.567	0.0150412
792.645	0.0148428
792.723	0.0146870
792.801	0.0146193
792.879	0.0144291
792.957	0.0142880
793.035	0.0140920
793.113	0.0140965
793.192	0.0139034
793.270	0.0137103
793.348	0.0136747
793.426	0.0134539
793.504	0.0133630
793.582	0.0131913
793.660	0.0131491
793.738	0.0130483
793.817	0.0130774
793.895	0.0131073
793.973	0.0130416
794.051	0.0131570
794.129	0.0134109
794.207	0.0136053
794.285	0.0137279
794.363	0.0139880
794.442	0.0142683
794.520	0.0148118
794.598	0.0148558
794.676	0.0150851
794.754	0.0153984
794.832	0.0158750
794.910	0.0160728
794.988	0.0163349
795.067	0.0164883
795.145	0.0170010
795.223	0.0170084
795.301	0.0170699
795.379	0.0175811
795.457	0.0174221
795.535	0.0175529
795.613	0.0177705
795.692	0.0178594
795.770	0.0180261
795.848	0.0179900
795.926	0.0182088
796.004	0.0181427
796.082	0.0182091
796.160	0.0183127
796.238	0.0184543
796.317	0.0184075
796.395	0.0184535
796.473	0.0186325
796.551	0.0186076
796.629	0.0186092
796.707	0.0185994
796.785	0.0186359
796.863	0.0186308
796.942	0.0185904
797.020	0.0183839
797.098	0.0182893
797.176	0.0181786
797.254	0.0179692
797.332	0.0177869
797.410	0.0176701
797.488	0.0175204
797.567	0.0173246
797.645	0.0172137
797.723	0.0170338
797.801	0.0168086
797.879	0.0166331
797.957	0.0164691
798.035	0.0163147
798.113	0.0160968
798.192	0.0160870
798.270	0.0158664
798.348	0.0157935
798.426	0.0156467
798.504	0.0152613
798.582	0.0152416
798.660	0.0152034
798.738	0.0150524
798.817	0.0148507
798.895	0.0147922
798.973	0.0145612
799.051	0.0145779
799.129	0.0144118
799.207	0.0143372
799.285	0.0142902
799.363	0.0143398
799.442	0.0143760
799.520	0.0142799
799.598	0.0142805
799.676	0.0144312
799.754	0.0143845
799.832	0.0143407
799.910	0.0142817
799.988	0.0144919
800.067	0.0143602
800.145	0.0145840
800.223	0.0145712
800.301	0.0145389
800.379	0.0146786
800.457	0.0145783
800.535	0.0148488
800.613	0.0146357
800.692	0.0146914
800.770	0.0149247
800.848	0.0148448
800.926	0.0148871
801.004	0.0151782
801.082	0.0150960
801.160	0.0152072
801.238	0.0154300
801.317	0.0156152
801.395	0.0157482
801.473	0.0158936
801.551	0.0161298
801.629	0.0163359
801.707	0.0165389
801.785	0.0165910
801.863	0.0169085
801.942	0.0169520
802.020	0.0171023
802.098	0.0174339
802.176	0.0176111
802.254	0.0177737
802.332	0.0178183
802.410	0.0180360
802.488	0.0181860
802.567	0.0182204
802.645	0.0183575
802.723	0.0184510
802.801	0.0182111
802.879	0.0181268
802.957	0.0182573
803.035	0.0182327
803.113	0.0181217
803.192	0.0180383
803.270	0.0176727
803.348	0.0178001
803.426	0.0176248
803.504	0.0174845
803.582	0.0173750
803.660	0.0170800
803.738	0.0170664
803.817	0.0168441
803.895	0.0165285
803.973	0.0165834
804.051	0.0164895
804.129	0.0164159
804.207	0.0162910
804.285	0.0162608
804.363	0.0161655
804.442	0.0162004
804.520	0.0160759
804.598	0.0160641
804.676	0.0160501
804.754	0.0160077
804.832	0.0160703
804.910	0.0160027
804.988	0.0159662
805.067	0.0158593
805.145	0.0159061
805.223	0.0159731
805.301	0.0159732
805.379	0.0159586
805.457	0.0158581
805.535	0.0157268
805.613	0.0157912
805.692	0.0156474
805.770	0.0156996
805.848	0.0156007
805.926	0.0154832
806.004	0.0155711
806.082	0.0155614
806.160	0.0155926
806.238	0.0156292
806.317	0.0156392
806.395	0.0156358
806.473	0.0156894
806.551	0.0157252
806.629	0.0157561
806.707	0.0157076
806.785	0.0158572
806.863	0.0158314
806.942	0.0160509
807.020	0.0159321
807.098	0.0158662
807.176	0.0160162
807.254	0.0159705
807.332	0.0159164
807.410	0.0158149
807.488	0.0157700
807.567	0.0158328
807.645	0.0156583
807.723	0.0158151
807.801	0.0156902
807.879	0.0157238
807.957	0.0157092
808.035	0.0157423
808.113	0.0158701
808.192	0.0156759
808.270	0.0157152
808.348	0.0158549
808.426	0.0158468
808.504	0.0156854
808.582	0.0156470
808.660	0.0157169
808.738	0.0157337
808.817	0.0154734
808.895	0.0155322
808.973	0.0156061
809.051	0.0156140
809.129	0.0155830
809.207	0.0157087
809.285	0.0157240
809.363	0.0159507
809.442	0.0158281
809.520	0.0160385
809.598	0.0162678
809.676	0.0163621
809.754	0.0164941
809.832	0.0164936
809.910	0.0164906
809.988	0.0167171
810.067	0.0166663
810.145	0.0166196
810.223	0.0166968
810.301	0.0166167
810.379	0.0167384
810.457	0.0167864
810.535	0.0167104
810.613	0.0167483
810.692	0.0167059
810.770	0.0167525
810.848	0.0167422
810.926	0.0167260
811.004	0.0168489
811.082	0.0168591
811.160	0.0166920
811.238	0.0168759
811.317	0.0168794
811.395	0.0169182
811.473	0.0169889
811.551	0.0169711
811.629	0.0170552
811.707	0.0169454
811.785	0.0169925
811.863	0.0171413
811.942	0.0170975
812.020	0.0170303
812.098	0.0169305
812.176	0.0170608
812.254	0.0168732
812.332	0.0170039
812.410	0.0168578
812.488	0.0167989
812.567	0.0169003
812.645	0.0166743
812.723	0.0165179
812.801	0.0164233
812.879	0.0162913
812.957	0.0162524
813.035	0.0161459
813.113	0.0159445
813.192	0.0157516
813.270	0.0157610
813.348	0.0156870
813.426	0.0157130
813.504	0.0155595
813.582	0.0154984
813.660	0.0156467
813.738	0.0156944
813.817	0.0157156
813.895	0.0157401
813.973	0.0157661
814.051	0.0158725
814.129	0.0161703
814.207	0.0160314
814.285	0.0162509
814.363	0.0162840
814.442	0.0164403
814.520	0.0163347
814.598	0.0164201
814.676	0.0163336
814.754	0.0163190
814.832	0.0162811
814.910	0.0160468
814.988	0.0160831
815.067	0.0157951
815.145	0.0157066
815.223	0.0155278
815.301	0.0152961
815.379	0.0152708
815.457	0.0151982
815.535	0.0151109
815.613	0.0148325
815.692	0.0149633
815.770	0.0149925
815.848	0.0151956
815.926	0.0151665
816.004	0.0153178
816.082	0.0153777
816.160	0.0153938
816.238	0.0155237
816.317	0.0156992
816.395	0.0159275
816.473	0.0160703
816.551	0.0160938
816.629	0.0161205
816.707	0.0161570
816.785	0.0162617
816.863	0.0163577
816.942	0.0164599
817.020	0.0165553
817.098	0.0164395
817.176	0.0165099
817.254	0.0164307
817.332	0.0165279
817.410	0.0165733
817.488	0.0166051
817.567	0.0165033
817.645	0.0164697
817.723	0.0165531
817.801	0.0164102
817.879	0.0164390
817.957	0.0163155
818.035	0.0163276
818.113	0.0162012
818.192	0.0161029
818.270	0.0162664
818.348	0.0161536
818.426	0.0160789
818.504	0.0161259
818.582	0.0159858
818.660	0.0161268
818.738	0.0160297
818.817	0.0160329
818.895	0.0160438
818.973	0.0161081
819.051	0.0161378
819.129	0.0160806
819.207	0.0163345
819.285	0.0162553
819.363	0.0163393
819.442	0.0165615
819.520	0.0166350
819.598	0.0167103
819.676	0.0167831
819.754	0.0169144
819.832	0.0170644
819.910	0.0171310
819.988	0.0172713
820.067	0.0171952
820.145	0.0172652
820.223	0.0171943
820.301	0.0173153
820.379	0.0171555
820.457	0.0171200
820.535	0.0171310
820.613	0.0169825
820.692	0.0168583
820.770	0.0168286
820.848	0.0167563
820.926	0.0165565
821.004	0.0165318
821.082	0.0165202
821.160	0.0162979
821.238	0.0162659
821.317	0.0161824
821.395	0.0161515
821.473	0.0160571
821.551	0.0159783
821.629	0.0159238
821.707	0.0159431
821.785	0.0159350
821.863	0.0160022
821.942	0.0160651
822.020	0.0160401
822.098	0.0159928
822.176	0.0158886
822.254	0.0159682
822.332	0.0159988
822.410	0.0159928
822.488	0.0160009
822.567	0.0159581
822.645	0.0160947
822.723	0.0161312
822.801	0.0160345
822.879	0.0160396
822.957	0.0160236
823.035	0.0161034
823.113	0.0160130
823.192	0.0160770
823.270	0.0159731
823.348	0.0160757
823.426	0.0159488
823.504	0.0159560
823.582	0.0157032
823.660	0.0156459
823.738	0.0155533
823.817	0.0155966
823.895	0.0154642
823.973	0.0153932
824.051	0.0153175
824.129	0.0152723
824.207	0.0151320
824.285	0.0150166
824.363	0.0150764
824.442	0.0150555
824.520	0.0149656
824.598	0.0151067
824.676	0.0152631
824.754	0.0150574
824.832	0.0152464
824.910	0.0153664
824.988	0.0155154
825.067	0.0156432
825.145	0.0157977
825.223	0.0158044
825.301	0.0159828
825.379	0.0160657
825.457	0.0162304
825.535	0.0163554
825.613	0.0165297
825.692	0.0164952
825.770	0.0165467
825.848	0.0165598
825.926	0.0166721
826.004	0.0166219
826.082	0.0167149
826.160	0.0165343
826.238	0.0167173
826.317	0.0167921
826.395	0.0166243
826.473	0.0166795
826.551	0.0166988
826.629	0.0167864
826.707	0.0167966
826.785	0.0167416
826.863	0.0166941
826.942	0.0168369
827.020	0.0169170
827.098	0.0169225
827.176	0.0170785
827.254	0.0171667
827.332	0.0171312
827.410	0.0171483
827.488	0.0173089
827.567	0.0172731
827.645	0.0172491
827.723	0.0172987
827.801	0.0173524
827.879	0.0172482
827.957	0.0173071
828.035	0.0172297
828.113	0.0172626
828.192	0.0169953
828.270	0.0168900
828.348	0.0169344
828.426	0.0167515
828.504	0.0166519
828.582	0.0165945
828.660	0.0164035
828.738	0.0164165
828.817	0.0163759
828.895	0.0161336
828.973	0.0159575
829.051	0.0158690
829.129	0.0157344
829.207	0.0155821
829.285	0.0155389
829.363	0.0155684
829.442	0.0155038
829.520	0.0154399
829.598	0.0152833
829.676	0.0154124
829.754	0.0152389
829.832	0.0153371
829.910	0.0153413
829.988	0.0153291
830.067	0.0153967
830.145	0.0154093
830.223	0.0154591
830.301	0.0155010
830.379	0.0155499
830.457	0.0155294
830.535	0.0156591
830.613	0.0157124
830.692	0.0155811
830.770	0.0157227
830.848	0.0157433
830.926	0.0156157
831.004	0.0157404
831.082	0.0156642
831.160	0.0157445
831.238	0.0157841
831.317	0.0157142
831.395	0.0157135
831.473	0.0157552
831.551	0.0157796
831.629	0.0158844
831.707	0.0158566
831.785	0.0158860
831.863	0.0159888
831.942	0.0162172
832.020	0.0160918
832.098	0.0161919
832.176	0.0164346
832.254	0.0165596
832.332	0.0164650
832.410	0.0166309
832.488	0.0166547
832.567	0.0167885
832.645	0.0167301
832.723	0.0167200
832.801	0.0167950
832.879	0.0168679
832.957	0.0169348
833.035	0.0168889
833.113	0.0167711
833.192	0.0167279
833.270	0.0167917
833.348	0.0167809
833.426	0.0166079
833.504	0.0165620
833.582	0.0166508
833.660	0.0165420
833.738	0.0163672
833.817	0.0166487
833.895	0.0165008
833.973	0.0163789
834.051	0.0163464
834.129	0.0165342
834.207	0.0162631
834.285	0.0162276
834.363	0.0162024
834.442	0.0161569
834.520	0.0161236
834.598	0.0160240
834.676	0.0159190
834.754	0.0161285
834.832	0.0158601
834.910	0.0159630
834.988	0.0159873
835.067	0.0158444
835.145	0.0158093
835.223	0.0158696
835.301	0.0158955
835.379	0.0158474
835.457	0.0158998
835.535	0.0159539
835.613	0.0158821
835.692	0.0160590
835.770	0.0161254
835.848	0.0161303
835.926	0.0162020
836.004	0.0162667
836.082	0.0162682
836.160	0.0161439
836.238	0.0163303
836.317	0.0162965
836.395	0.0163960
836.473	0.0162709
836.551	0.0163599
836.629	0.0164042
836.707	0.0165063
836.785	0.0163517
836.863	0.0162833
836.942	0.0163653
837.020	0.0163778
837.098	0.0164377
837.176	0.0165598
837.254	0.0165160
837.332	0.0163883
837.410	0.0164715
837.488	0.0164596
837.567	0.0164634
837.645	0.0165378
837.723	0.0164377
837.801	0.0164297
837.879	0.0163935
837.957	0.0163243
838.035	0.0164134
838.113	0.0163187
838.192	0.0164079
838.270	0.0164165
838.348	0.0165098
838.426	0.0164259
838.504	0.0164178
838.582	0.0165791
838.660	0.0165410
838.738	0.0164017
838.817	0.0165031
838.895	0.0166494
838.973	0.0163522
839.051	0.0164624
839.129	0.0163877
839.207	0.0164719
839.285	0.0162750
839.363	0.0163174
839.442	0.0160895
839.520	0.0161378
839.598	0.0160238
839.676	0.0159502
839.754	0.0159988
839.832	0.0159207
839.910	0.0158173
839.988	0.0155861
840.067	0.0155524
840.145	0.0156669
840.223	0.0156339
840.301	0.0156471
840.379	0.0155889
840.457	0.0156678
840.535	0.0155457
840.613	0.0157700
840.692	0.0158789
840.770	0.0157034
840.848	0.0157369
840.926	0.0157312
841.004	0.0159430
841.082	0.0160037
841.160	0.0159829
841.238	0.0159332
841.317	0.0158656
841.395	0.0160587
841.473	0.0158566
841.551	0.0158568
841.629	0.0157807
841.707	0.0158504
841.785	0.0159217
841.863	0.0157977
841.942	0.0159023
842.020	0.0160213
842.098	0.0159382
842.176	0.0159101
842.254	0.0159060
842.332	0.0159531
842.410	0.0160400
842.488	0.0160340
842.567	0.0161013
842.645	0.0160844
842.723	0.0161005
842.801	0.0161303
842.879	0.0161707
842.957	0.0163879
843.035	0.0163663
843.113	0.0163922
843.192	0.0164747
843.270	0.0164876
843.348	0.0165878
843.426	0.0166571
843.504	0.0166965
843.582	0.0167661
843.660	0.0168942
843.738	0.0168649
843.817	0.0169492
843.895	0.0170293
843.973	0.0169878
844.051	0.0169337
844.129	0.0171587
844.207	0.0170930
844.285	0.0170181
844.363	0.0169956
844.442	0.0169230
844.520	0.0169553
844.598	0.0167687
844.676	0.0167514
844.754	0.0168320
844.832	0.0167346
844.910	0.0165733
844.988	0.0165430
845.067	0.0165878
845.145	0.0164568
845.223	0.0164127
845.301	0.0163202
845.379	0.0163179
845.457	0.0162377
845.535	0.0161761
845.613	0.0160730
845.692	0.0160384
845.770	0.0160744
845.848	0.0159621
845.926	0.0159880
846.004	0.0160367
846.082	0.0159464
846.160	0.0158802
846.238	0.0160152
846.317	0.0159762
846.395	0.0158475
846.473	0.0157745
846.551	0.0158329
846.629	0.0159280
846.707	0.0156895
846.785	0.0157408
846.863	0.0158305
846.942	0.0157884
847.020	0.0157623
847.098	0.0158920
847.176	0.0159159
847.254	0.0160271
847.332	0.0158221
847.410	0.0158258
847.488	0.0158791
847.567	0.0158760
847.645	0.0159538
847.723	0.0158228
847.801	0.0158173
847.879	0.0157840
847.957	0.0156890
848.035	0.0158620
848.113	0.0156499
848.192	0.0155335
848.270	0.0157453
848.348	0.0157224
848.426	0.0155582
848.504	0.0157434
848.582	0.0157446
848.660	0.0158310
848.738	0.0158701
848.817	0.0158881
848.895	0.0159414
848.973	0.0160947
849.051	0.0162059
849.129	0.0162019
849.207	0.0162749
849.285	0.0163771
849.363	0.0164893
849.442	0.0162376
849.520	0.0165614
849.598	0.0167558
849.676	0.0166235
849.754	0.0165774
849.832	0.0166354
849.910	0.0167553
849.988	0.0167394
850.067	0.0167672
850.145	0.0167613
850.223	0.0166768
850.301	0.0168920
850.379	0.0168293
850.457	0.0167868
850.535	0.0168240
850.613	0.0167065
850.692	0.0167514
850.770	0.0166473
850.848	0.0167264
850.926	0.0166077
851.004	0.0166140
851.082	0.0165503
851.160	0.0166014
851.238	0.0163840
851.317	0.0164901
851.395	0.0163290
851.473	0.0163368
851.551	0.0162032
851.629	0.0162052
851.707	0.0161068
851.785	0.0161124
851.863	0.0161034
851.942	0.0160747
852.020	0.0159359
852.098	0.0158171
852.176	0.0159682
852.254	0.0159069
852.332	0.0158916
852.410	0.0160817
852.488	0.0159443
852.567	0.0160318
852.645	0.0160284
852.723	0.0160391
852.801	0.0159348
852.879	0.0161285
852.957	0.0161163
853.035	0.0160623
853.113	0.0162481
853.192	0.0161869
853.270	0.0162321
853.348	0.0162048
853.426	0.0161381
853.504	0.0162828
853.582	0.0161247
853.660	0.0161280
853.738	0.0162103
853.817	0.0163557
853.895	0.0162220
853.973	0.0163213
854.051	0.0163390
854.129	0.0164677
854.207	0.0163020
854.285	0.0163740
854.363	0.0162724
854.442	0.0163492
854.520	0.0161072
854.598	0.0161892
854.676	0.0163544
854.754	0.0162172
854.832	0.0161655
854.910	0.0161193
854.988	0.0161343
855.067	0.0160894
855.145	0.0160275
855.223	0.0162106
855.301	0.0162072
855.379	0.0160751
855.457	0.0160361
855.535	0.0161325
855.613	0.0160987
855.692	0.0162270
855.770	0.0161544
855.848	0.0160327
855.926	0.0162968
856.004	0.0163414
856.082	0.0161390
856.160	0.0161005
856.238	0.0161034
856.317	0.0161437
856.395	0.0160793
856.473	0.0161926
856.551	0.0163679
856.629	0.0161359
856.707	0.0160508
856.785	0.0163280
856.863	0.0163543
856.942	0.0161855
857.020	0.0161969
857.098	0.0163402
857.176	0.0161540
857.254	0.0161310
857.332	0.0161397
857.410	0.0161040
857.488	0.0161127
857.567	0.0161325
857.645	0.0161481
857.723	0.0162321
857.801	0.0162194
857.879	0.0164569
857.957	0.0163421
858.035	0.0164288
858.113	0.0163734
858.192	0.0162803
858.270	0.0164420
858.348	0.0163396
858.426	0.0162987
858.504	0.0162574
858.582	0.0162671
858.660	0.0161478
858.738	0.0161040
858.817	0.0162028
858.895	0.0160007
858.973	0.0160593
859.051	0.0160993
859.129	0.0159349
859.207	0.0158090
859.285	0.0158743
859.363	0.0159024
859.442	0.0157252
859.520	0.0159661
859.598	0.0160423
859.676	0.0158503
859.754	0.0159032
859.832	0.0159892
859.910	0.0159955
859.988	0.0160003
860.067	0.0160456
860.145	0.0161457
860.223	0.0163206
860.301	0.0161947
860.379	0.0164118
860.457	0.0165112
860.535	0.0164960
860.613	0.0167364
860.692	0.0167207
860.770	0.0167653
860.848	0.0167355
860.926	0.0166012
861.004	0.0167847
861.082	0.0166477
861.160	0.0166297
861.238	0.0167348
861.317	0.0167847
861.395	0.0166805
861.473	0.0164867
861.551	0.0165989
861.629	0.0165806
861.707	0.0164981
861.785	0.0165053
861.863	0.0165295
861.942	0.0166100
862.020	0.0165395
862.098	0.0164340
862.176	0.0165176
862.254	0.0163445
862.332	0.0161893
862.410	0.0162450
862.488	0.0161691
862.567	0.0160461
862.645	0.0160458
862.723	0.0160825
862.801	0.0159866
862.879	0.0159949
862.957	0.0158589
863.035	0.0159128
863.113	0.0159277
863.192	0.0157607
863.270	0.0161047
863.348	0.0159469
863.426	0.0160719
863.504	0.0159411
863.582	0.0160059
863.660	0.0159452
863.738	0.0159184
863.817	0.0159495
863.895	0.0158484
863.973	0.0158472
864.051	0.0158244
864.129	0.0157967
864.207	0.0158640
864.285	0.0157478
864.363	0.0157422
864.442	0.0158013
864.520	0.0158163
864.598	0.0159623
864.676	0.0160005
864.754	0.0160140
864.832	0.0160218
864.910	0.0160753
864.988	0.0161710
865.067	0.0160473
865.145	0.0159667
865.223	0.0161054
865.301	0.0159875
865.379	0.0160284
865.457	0.0159853
865.535	0.0158599
865.613	0.0159284
865.692	0.0161055
865.770	0.0160133
865.848	0.0158683
865.926	0.0160156
866.004	0.0161631
866.082	0.0162953
866.160	0.0163084
866.238	0.0163493
866.317	0.0162334
866.395	0.0164461
866.473	0.0164896
866.551	0.0164607
866.629	0.0163296
866.707	0.0165006
866.785	0.0164403
866.863	0.0162650
866.942	0.0163974
867.020	0.0163998
867.098	0.0162816
867.176	0.0163299
867.254	0.0163197
867.332	0.0162434
867.410	0.0163712
867.488	0.0163161
867.567	0.0164483
867.645	0.0166625
867.723	0.0166579
867.801	0.0165968
867.879	0.0165827
867.957	0.0167288
868.035	0.0165211
868.113	0.0166519
868.192	0.0166306
868.270	0.0165527
868.348	0.0164140
868.426	0.0163921
868.504	0.0164148
868.582	0.0163542
868.660	0.0163522
868.738	0.0163045
868.817	0.0162129
868.895	0.0163039
868.973	0.0161148
869.051	0.0159246
869.129	0.0160778
869.207	0.0161497
869.285	0.0161079
869.363	0.0160114
869.442	0.0159975
869.520	0.0160493
869.598	0.0159853
869.676	0.0160435
869.754	0.0160125
869.832	0.0159194
869.910	0.0159190
869.988	0.0158755
870.067	0.0159878
870.145	0.0160842
870.223	0.0160496
870.301	0.0160938
870.379	0.0160164
870.457	0.0161104
870.535	0.0160732
870.613	0.0162093
870.692	0.0162902
870.770	0.0162713
870.848	0.0162517
870.926	0.0162147
871.004	0.0164229
871.082	0.0163889
871.160	0.0164876
871.238	0.0165116
871.317	0.0164497
871.395	0.0164332
871.473	0.0164516
871.551	0.0162876
871.629	0.0162101
871.707	0.0162821
871.785	0.0161805
871.863	0.0162871
871.942	0.0161953
872.020	0.0162491
872.098	0.0162796
872.176	0.0161601
872.254	0.0162042
872.332	0.0161436
872.410	0.0161278
872.488	0.0162683
872.567	0.0163334
872.645	0.0162018
872.723	0.0161308
872.801	0.0162079
872.879	0.0162254
872.957	0.0162164
873.035	0.0161100
873.113	0.0161869
873.192	0.0161305
873.270	0.0163285
873.348	0.0161490
873.426	0.0161401
873.504	0.0160507
873.582	0.0160764
873.660	0.0161541
873.738	0.0159406
873.817	0.0160364
873.895	0.0161266
873.973	0.0160679
874.051	0.0159969
874.129	0.0159800
874.207	0.0160302
874.285	0.0159678
874.363	0.0159558
874.442	0.0160557
874.520	0.0160320
874.598	0.0160489
874.676	0.0162041
874.754	0.0161935
874.832	0.0162198
874.910	0.0160889
874.988	0.0161588
875.067	0.0160976
875.145	0.0161741
875.223	0.0161358
875.301	0.0162457
875.379	0.0161481
875.457	0.0161143
875.535	0.0160979
875.613	0.0161115
875.692	0.0161327
875.770	0.0160566
875.848	0.0161275
875.926	0.0161201
876.004	0.0162645
876.082	0.0161752
876.160	0.0163113
876.238	0.0162273
876.317	0.0162195
876.395	0.0163354
876.473	0.0163925
876.551	0.0165259
876.629	0.0166246
876.707	0.0165014
876.785	0.0167058
876.863	0.0165883
876.942	0.0165503
877.020	0.0165450
877.098	0.0166603
877.176	0.0165842
877.254	0.0166035
877.332	0.0164802
877.410	0.0164570
877.488	0.0163934
877.567	0.0164178
877.645	0.0162093
877.723	0.0163616
877.801	0.0162889
877.879	0.0162439
877.957	0.0164063
878.035	0.0160979
878.113	0.0161077
878.192	0.0160245
878.270	0.0161233
878.348	0.0161142
878.426	0.0159917
878.504	0.0160047
878.582	0.0159238
878.660	0.0158752
878.738	0.0159070
878.817	0.0160307
878.895	0.0159612
878.973	0.0160073
879.051	0.0162026
879.129	0.0163140
879.207	0.0163893
879.285	0.0168034
879.363	0.0168781
879.442	0.0169611
879.520	0.0170379
879.598	0.0169559
879.676	0.0169370
879.754	0.0168590
879.832	0.0164544
879.910	0.0161620
879.988	0.0158277
880.067	0.0152013
880.145	0.0147218
880.223	0.0143821
880.301	0.0140453
880.379	0.0139413
880.457	0.0136816
880.535	0.0138129
880.613	0.0140972
880.692	0.0144258
880.770	0.0149503
880.848	0.0154324
880.926	0.0160657
881.004	0.0166959
881.082	0.0173343
881.160	0.0177942
881.238	0.0182821
881.317	0.0187870
881.395	0.0191070
881.473	0.0193754
881.551	0.0194486
881.629	0.0194980
881.707	0.0193475
881.785	0.0192351
881.863	0.0188354
881.942	0.0184642
882.020	0.0182334
882.098	0.0176223
882.176	0.0171239
882.254	0.0165248
882.332	0.0160213
882.410	0.0154666
882.488	0.0149725
882.567	0.0144669
882.645	0.0141698
882.723	0.0136257
882.801	0.0133880
882.879	0.0131879
882.957	0.0129852
883.035	0.0128885
883.113	0.0128503
883.192	0.0130117
883.270	0.0130876
883.348	0.0133679
883.426	0.0135157
883.504	0.0138124
883.582	0.0140979
883.660	0.0145345
883.738	0.0150779
883.817	0.0154085
883.895	0.0158387
883.973	0.0161691
884.051	0.0166493
884.129	0.0170445
884.207	0.0175394
884.285	0.0178856
884.363	0.0181069
884.442	0.0183724
884.520	0.0184570
884.598	0.0185226
884.676	0.0186427
884.754	0.0184699
884.832	0.0184119
884.910	0.0183221
884.988	0.0180633
885.067	0.0179675
885.145	0.0177427
885.223	0.0175235
885.301	0.0173783
885.379	0.0171610
885.457	0.0169099
885.535	0.0169714
885.613	0.0165742
885.692	0.0165845
885.770	0.0163127
885.848	0.0162019
885.926	0.0160752
886.004	0.0161503
886.082	0.0161407
886.160	0.0160963
886.238	0.0159043
886.317	0.0158785
886.395	0.0160766
886.473	0.0160696
886.551	0.0162604
886.629	0.0161704
886.707	0.0160929
886.785	0.0160715
886.863	0.0161665
886.942	0.0161814
887.020	0.0159727
887.098	0.0160036
887.176	0.0159297
887.254	0.0157848
887.332	0.0155788
887.410	0.0157172
887.488	0.0154919
887.567	0.0154991
887.645	0.0155549
887.723	0.0153010
887.801	0.0153496
887.879	0.0155589
887.957	0.0152588
888.035	0.0154509
888.113	0.0155430
888.192	0.0154781
888.270	0.0155865
888.348	0.0155701
888.426	0.0157125
888.504	0.0157558
888.582	0.0158498
888.660	0.0159332
888.738	0.0160550
888.817	0.0161391
888.895	0.0161356
888.973	0.0163180
889.051	0.0162451
889.129	0.0164720
889.207	0.0164273
889.285	0.0164957
889.363	0.0166167
889.442	0.0165358
889.520	0.0165660
889.598	0.0167343
889.676	0.0167061
889.754	0.0166898
889.832	0.0166468
889.910	0.0168560
889.988	0.0167639
890.067	0.0167468
890.145	0.0167878
890.223	0.0168066
890.301	0.0166816
890.379	0.0167574
890.457	0.0166573
890.535	0.0166595
890.613	0.0165407
890.692	0.0164271
890.770	0.0163361
890.848	0.0162231
890.926	0.0160210
891.004	0.0159378
891.082	0.0157579
891.160	0.0156760
891.238	0.0155981
891.317	0.0154417
891.395	0.0153788
891.473	0.0155179
891.551	0.0153029
891.629	0.0152531
891.707	0.0152133
891.785	0.0152693
891.863	0.0154433
891.942	0.0155424
892.020	0.0156178
892.098	0.0155518
892.176	0.0156676
892.254	0.0158205
892.332	0.0158730
892.410	0.0160114
892.488	0.0160574
892.567	0.0161659
892.645	0.0161624
892.723	0.0159985
892.801	0.0161183
892.879	0.0161485
892.957	0.0160423
893.035	0.0161729
893.113	0.0161343
893.192	0.0161459
893.270	0.0161667
893.348	0.0162318
893.426	0.0162076
893.504	0.0161835
893.582	0.0163161
893.660	0.0165472
893.738	0.0166022
893.817	0.0165373
893.895	0.0167747
893.973	0.0169272
894.051	0.0168137
894.129	0.0169765
894.207	0.0170719
894.285	0.0172726
894.363	0.0172793
894.442	0.0173283
894.520	0.0173455
894.598	0.0172059
894.676	0.0174594
894.754	0.0174425
894.832	0.0174821
894.910	0.0173623
894.988	0.0173943
895.067	0.0172797
895.145	0.0171985
895.223	0.0169086
895.301	0.0167480
895.379	0.0167314
895.457	0.0164974
895.535	0.0164644
895.613	0.0162451
895.692	0.0160976
895.770	0.0160607
895.848	0.0159417
895.926	0.0158591
896.004	0.0158966
896.082	0.0158208
896.160	0.0158318
896.238	0.0157706
896.317	0.0159175
896.395	0.0158488
896.473	0.0158337
896.551	0.0158219
896.629	0.0158017
896.707	0.0159183
896.785	0.0157852
896.863	0.0159273
896.942	0.0160962
897.020	0.0160343
897.098	0.0160606
897.176	0.0160984
897.254	0.0160388
897.332	0.0160815
897.410	0.0159492
897.488	0.0159132
897.567	0.0159982
897.645	0.0158197
897.723	0.0156876
897.801	0.0155518
897.879	0.0155373
897.957	0.0155054
898.035	0.0153976
898.113	0.0152693
898.192	0.0152057
898.270	0.0150000
898.348	0.0149726
898.426	0.0149194
898.504	0.0147683
898.582	0.0147320
898.660	0.0147649
898.738	0.0147388
898.817	0.0146395
898.895	0.0146342
898.973	0.0146487
899.051	0.0148451
899.129	0.0148869
899.207	0.0149705
899.285	0.0150932
899.363	0.0154404
899.442	0.0157448
899.520	0.0159651
899.598	0.0162512
899.676	0.0166433
899.754	0.0169927
899.832	0.0170267
899.910	0.0173722
899.988	0.0175374
900.067	0.0178004
900.145	0.0179355
900.223	0.0179814
900.301	0.0182145
900.379	0.0181885
900.457	0.0180188
900.535	0.0180334
900.613	0.0179729
900.692	0.0179614
900.770	0.0178847
900.848	0.0177624
900.926	0.0176036
901.004	0.0173785
901.082	0.0172664
901.160	0.0170377
901.238	0.0170881
901.317	0.0168964
901.395	0.0166978
901.473	0.0166451
901.551	0.0165569
901.629	0.0166424
901.707	0.0164636
901.785	0.0163842
901.863	0.0165193
901.942	0.0165401
902.020	0.0164948
902.098	0.0165363
902.176	0.0165030
902.254	0.0163004
902.332	0.0162866
902.410	0.0162831
902.488	0.0162665
902.567	0.0162057
902.645	0.0160803
902.723	0.0160939
902.801	0.0159586
902.879	0.0158299
902.957	0.0159396
903.035	0.0157572
903.113	0.0159686
903.192	0.0157852
903.270	0.0158149
903.348	0.0156126
903.426	0.0155576
903.504	0.0157219
903.582	0.0157131
903.660	0.0154846
903.738	0.0156967
903.817	0.0156479
903.895	0.0157062
903.973	0.0155813
904.051	0.0156540
904.129	0.0155902
904.207	0.0157762
904.285	0.0157893
904.363	0.0157999
904.442	0.0158664
904.520	0.0158794
904.598	0.0158261
904.676	0.0157478
904.754	0.0157320
904.832	0.0158243
904.910	0.0158736
904.988	0.0158251
905.067	0.0158047
905.145	0.0157742
905.223	0.0157932
905.301	0.0158633
905.379	0.0158987
905.457	0.0156988
905.535	0.0157365
905.613	0.0159020
905.692	0.0157500
905.770	0.0155949
905.848	0.0159001
905.926	0.0157800
906.004	0.0156693
906.082	0.0157050
906.160	0.0157197
906.238	0.0157626
906.317	0.0157540
906.395	0.0159917
906.473	0.0160049
906.551	0.0160899
906.629	0.0160753
906.707	0.0161016
906.785	0.0162695
906.863	0.0165459
906.942	0.0164004
907.020	0.0164111
907.098	0.0165728
907.176	0.0167246
907.254	0.0165086
907.332	0.0166105
907.410	0.0165591
907.488	0.0164863
907.567	0.0165276
907.645	0.0164973
907.723	0.0164840
907.801	0.0164269
907.879	0.0162960
907.957	0.0164562
908.035	0.0163884
908.113	0.0164559
908.192	0.0165248
908.270	0.0164597
908.348	0.0165301
908.426	0.0166319
908.504	0.0167102
908.582	0.0167507
908.660	0.0168729
908.738	0.0168245
908.817	0.0168578
908.895	0.0169816
908.973	0.0167883
909.051	0.0168819
909.129	0.0167201
909.207	0.0168266
909.285	0.0167719
909.363	0.0167619
909.442	0.0166341
909.520	0.0164925
909.598	0.0165665
909.676	0.0164022
909.754	0.0163847
909.832	0.0164115
909.910	0.0163094
909.988	0.0163895
910.067	0.0163684
910.145	0.0163667
910.223	0.0163770
910.301	0.0163863
910.379	0.0163180
910.457	0.0162821
910.535	0.0163032
910.613	0.0161163
910.692	0.0160925
910.770	0.0160839
910.848	0.0161301
910.926	0.0161133
911.004	0.0160093
911.082	0.0158109
911.160	0.0158058
911.238	0.0158562
911.317	0.0158497
911.395	0.0157058
911.473	0.0158760
911.551	0.0158208
911.629	0.0159213
911.707	0.0159455
911.785	0.0158656
911.863	0.0159092
911.942	0.0161476
912.020	0.0162551
912.098	0.0161036
912.176	0.0162012
912.254	0.0162113
912.332	0.0162963
912.410	0.0163415
912.488	0.0162588
912.567	0.0163008
912.645	0.0163301
912.723	0.0163100
912.801	0.0163879
912.879	0.0163858
912.957	0.0163802
913.035	0.0161800
913.113	0.0162053
913.192	0.0162402
913.270	0.0162719
913.348	0.0159973
913.426	0.0159705
913.504	0.0161575
913.582	0.0160036
913.660	0.0158183
913.738	0.0158640
913.817	0.0158424
913.895	0.0158684
913.973	0.0158171
914.051	0.0158546
914.129	0.0158616
914.207	0.0156279
914.285	0.0158210
914.363	0.0157380
914.442	0.0158125
914.520	0.0157400
914.598	0.0157912
914.676	0.0157668
914.754	0.0158309
914.832	0.0156042
914.910	0.0156822
914.988	0.0158002
915.067	0.0158520
915.145	0.0158251
915.223	0.0157725
915.301	0.0158165
915.379	0.0158485
915.457	0.0159499
915.535	0.0158544
915.613	0.0159153
915.692	0.0157629
915.770	0.0159776
915.848	0.0159641
915.926	0.0158247
916.004	0.0159302
916.082	0.0159991
916.160	0.0159426
916.238	0.0159393
916.317	0.0160110
916.395	0.0161486
916.473	0.0160006
916.551	0.0161362
916.629	0.0163255
916.707	0.0164633
916.785	0.0165101
916.863	0.0167122
916.942	0.0168554
917.020	0.0169219
917.098	0.0170785
917.176	0.0172490
917.254	0.0173698
917.332	0.0175259
917.410	0.0175978
917.488	0.0177790
917.567	0.0177711
917.645	0.0177748
917.723	0.0176574
917.801	0.0176851
917.879	0.0176002
917.957	0.0175333
918.035	0.0174964
918.113	0.0175030
918.192	0.0173679
918.270	0.0172950
918.348	0.0171371
918.426	0.0168250
918.504	0.0168593
918.582	0.0168787
918.660	0.0166979
918.738	0.0165070
918.817	0.0164431
918.895	0.0164045
918.973	0.0161959
919.051	0.0161434
919.129	0.0161058
919.207	0.0160406
919.285	0.0160439
919.363	0.0157861
919.442	0.0159168
919.520	0.0157748
919.598	0.0155266
919.676	0.0156815
919.754	0.0156156
919.832	0.0155494
919.910	0.0154479
