05/26/2022	00:40:09	Ver.	4.1	UNKNOWN
Optical Delay	599.988409	Delta X		0.078125	Sweeps	1	Scan Rate	0/0
Coordinates	Axis 1	NaN	Axis 2	NaN	Axis 3	NaN	Axis 4	NaN	Axis 5	NaN	Axis 6	0.000000
TX Power	0.000000	RX Power	0.000000

599.988	0.0166095
600.067	0.0166541
600.145	0.0165796
600.223	0.0164945
600.301	0.0166889
600.379	0.0166930
600.457	0.0166790
600.535	0.0166486
600.613	0.0166299
600.692	0.0166000
600.770	0.0165269
600.848	0.0166271
600.926	0.0166022
601.004	0.0166269
601.082	0.0166883
601.160	0.0166103
601.238	0.0165202
601.317	0.0166906
601.395	0.0166580
601.473	0.0166377
601.551	0.0166479
601.629	0.0165744
601.707	0.0166996
601.785	0.0166321
601.863	0.0165083
601.942	0.0165897
602.020	0.0166599
602.098	0.0166243
602.176	0.0165445
602.254	0.0166900
602.332	0.0166739
602.410	0.0165999
602.488	0.0165543
602.567	0.0167726
602.645	0.0166384
602.723	0.0165476
602.801	0.0166140
602.879	0.0166390
602.957	0.0167242
603.035	0.0167095
603.113	0.0165663
603.192	0.0166091
603.270	0.0167097
603.348	0.0165944
603.426	0.0165519
603.504	0.0166323
603.582	0.0166800
603.660	0.0165861
603.738	0.0167026
603.817	0.0168155
603.895	0.0167152
603.973	0.0166553
604.051	0.0165426
604.129	0.0166058
604.207	0.0166329
604.285	0.0167014
604.363	0.0166985
604.442	0.0167158
604.520	0.0166126
604.598	0.0166399
604.676	0.0167424
604.754	0.0165943
604.832	0.0166245
604.910	0.0166224
604.988	0.0166724
605.067	0.0164731
605.145	0.0166576
605.223	0.0167123
605.301	0.0166571
605.379	0.0165704
605.457	0.0166505
605.535	0.0166862
605.613	0.0165513
605.692	0.0166262
605.770	0.0167174
605.848	0.0167276
605.926	0.0165035
606.004	0.0166223
606.082	0.0166561
606.160	0.0166138
606.238	0.0165372
606.317	0.0166068
606.395	0.0166802
606.473	0.0165912
606.551	0.0165567
606.629	0.0166682
606.707	0.0166404
606.785	0.0166238
606.863	0.0165749
606.942	0.0167725
607.020	0.0167243
607.098	0.0166052
607.176	0.0166307
607.254	0.0164986
607.332	0.0164979
607.410	0.0165834
607.488	0.0166307
607.567	0.0166318
607.645	0.0165147
607.723	0.0167342
607.801	0.0166131
607.879	0.0165778
607.957	0.0164962
608.035	0.0166526
608.113	0.0167518
608.192	0.0168233
608.270	0.0165894
608.348	0.0165677
608.426	0.0166058
608.504	0.0166241
608.582	0.0167059
608.660	0.0165616
608.738	0.0167384
608.817	0.0166698
608.895	0.0166628
608.973	0.0166514
609.051	0.0166045
609.129	0.0164282
609.207	0.0164947
609.285	0.0166235
609.363	0.0165414
609.442	0.0164899
609.520	0.0165143
609.598	0.0165621
609.676	0.0164902
609.754	0.0166087
609.832	0.0164474
609.910	0.0164687
609.988	0.0166126
610.067	0.0166354
610.145	0.0165818
610.223	0.0166187
610.301	0.0166615
610.379	0.0166751
610.457	0.0166986
610.535	0.0168418
610.613	0.0166025
610.692	0.0167258
610.770	0.0168250
610.848	0.0166326
610.926	0.0165630
611.004	0.0168976
611.082	0.0167721
611.160	0.0166998
611.238	0.0165578
611.317	0.0166711
611.395	0.0166985
611.473	0.0167753
611.551	0.0167426
611.629	0.0165742
611.707	0.0166132
611.785	0.0165495
611.863	0.0165038
611.942	0.0165186
612.020	0.0165422
612.098	0.0165334
612.176	0.0164859
612.254	0.0164720
612.332	0.0164980
612.410	0.0165482
612.488	0.0164318
612.567	0.0165160
612.645	0.0165525
612.723	0.0165719
612.801	0.0164838
612.879	0.0166808
612.957	0.0164256
613.035	0.0166083
613.113	0.0166407
613.192	0.0165793
613.270	0.0165465
613.348	0.0166402
613.426	0.0169126
613.504	0.0165864
613.582	0.0165909
613.660	0.0165462
613.738	0.0166029
613.817	0.0168097
613.895	0.0167409
613.973	0.0166553
614.051	0.0166975
614.129	0.0167788
614.207	0.0167014
614.285	0.0166222
614.363	0.0166574
614.442	0.0166508
614.520	0.0167825
614.598	0.0167458
614.676	0.0166769
614.754	0.0167160
614.832	0.0166022
614.910	0.0166482
614.988	0.0167039
615.067	0.0166778
615.145	0.0167131
615.223	0.0166754
615.301	0.0165161
615.379	0.0166587
615.457	0.0166238
615.535	0.0166901
615.613	0.0166851
615.692	0.0166605
615.770	0.0167052
615.848	0.0166445
615.926	0.0166675
616.004	0.0165390
616.082	0.0166003
616.160	0.0165074
616.238	0.0166211
616.317	0.0165422
616.395	0.0165166
616.473	0.0165602
616.551	0.0164192
616.629	0.0166524
616.707	0.0166871
616.785	0.0165733
616.863	0.0165210
616.942	0.0165553
617.020	0.0166460
617.098	0.0166348
617.176	0.0165630
617.254	0.0166711
617.332	0.0166010
617.410	0.0165540
617.488	0.0166402
617.567	0.0166721
617.645	0.0165636
617.723	0.0165559
617.801	0.0166535
617.879	0.0167159
617.957	0.0165467
618.035	0.0166122
618.113	0.0167838
618.192	0.0165656
618.270	0.0164954
618.348	0.0166588
618.426	0.0164434
618.504	0.0166210
618.582	0.0167015
618.660	0.0165339
618.738	0.0166405
618.817	0.0166975
618.895	0.0166001
618.973	0.0166290
619.051	0.0166854
619.129	0.0167059
619.207	0.0164852
619.285	0.0167403
619.363	0.0166628
619.442	0.0167609
619.520	0.0166592
619.598	0.0166390
619.676	0.0166902
619.754	0.0166145
619.832	0.0166387
619.910	0.0167048
619.988	0.0165788
620.067	0.0167031
620.145	0.0166727
620.223	0.0167853
620.301	0.0166292
620.379	0.0167215
620.457	0.0165911
620.535	0.0166057
620.613	0.0166151
620.692	0.0165681
620.770	0.0166737
620.848	0.0167267
620.926	0.0166270
621.004	0.0167667
621.082	0.0165753
621.160	0.0167513
621.238	0.0168658
621.317	0.0165943
621.395	0.0167136
621.473	0.0166714
621.551	0.0165237
621.629	0.0166256
621.707	0.0167667
621.785	0.0165331
621.863	0.0168066
621.942	0.0167258
622.020	0.0166680
622.098	0.0166014
622.176	0.0165536
622.254	0.0166540
622.332	0.0165953
622.410	0.0167567
622.488	0.0166432
622.567	0.0166648
622.645	0.0167078
622.723	0.0168125
622.801	0.0167158
622.879	0.0167583
622.957	0.0165376
623.035	0.0166729
623.113	0.0166653
623.192	0.0166877
623.270	0.0167754
623.348	0.0166329
623.426	0.0165968
623.504	0.0165228
623.582	0.0167197
623.660	0.0167083
623.738	0.0166622
623.817	0.0166763
623.895	0.0165431
623.973	0.0166769
624.051	0.0165977
624.129	0.0166309
624.207	0.0165939
624.285	0.0166368
624.363	0.0165736
624.442	0.0165816
624.520	0.0167020
624.598	0.0166141
624.676	0.0164603
624.754	0.0167757
624.832	0.0165504
624.910	0.0166901
624.988	0.0165730
625.067	0.0164545
625.145	0.0166603
625.223	0.0165739
625.301	0.0166998
625.379	0.0165881
625.457	0.0164512
625.535	0.0166853
625.613	0.0167094
625.692	0.0165630
625.770	0.0166154
625.848	0.0166717
625.926	0.0167074
626.004	0.0166380
626.082	0.0166714
626.160	0.0167140
626.238	0.0166953
626.317	0.0165969
626.395	0.0166758
626.473	0.0167577
626.551	0.0166435
626.629	0.0166696
626.707	0.0167855
626.785	0.0165604
626.863	0.0167076
626.942	0.0166982
627.020	0.0166344
627.098	0.0167507
627.176	0.0166894
627.254	0.0166850
627.332	0.0168114
627.410	0.0166875
627.488	0.0165804
627.567	0.0166006
627.645	0.0166904
627.723	0.0167410
627.801	0.0165579
627.879	0.0166597
627.957	0.0166833
628.035	0.0166753
628.113	0.0167770
628.192	0.0166660
628.270	0.0166814
628.348	0.0167149
628.426	0.0167307
628.504	0.0166900
628.582	0.0164671
628.660	0.0166596
628.738	0.0166276
628.817	0.0166679
628.895	0.0167584
628.973	0.0165491
629.051	0.0165268
629.129	0.0166970
629.207	0.0166473
629.285	0.0165917
629.363	0.0165350
629.442	0.0167458
629.520	0.0165698
629.598	0.0166416
629.676	0.0167139
629.754	0.0165856
629.832	0.0165954
629.910	0.0166936
629.988	0.0166894
630.067	0.0166505
630.145	0.0165826
630.223	0.0166782
630.301	0.0167452
630.379	0.0165511
630.457	0.0165720
630.535	0.0165851
630.613	0.0167342
630.692	0.0167486
630.770	0.0165198
630.848	0.0166126
630.926	0.0166608
631.004	0.0166768
631.082	0.0166383
631.160	0.0166245
631.238	0.0166101
631.317	0.0165488
631.395	0.0166573
631.473	0.0167126
631.551	0.0164764
631.629	0.0165314
631.707	0.0165090
631.785	0.0166156
631.863	0.0165415
631.942	0.0165984
632.020	0.0166788
632.098	0.0167343
632.176	0.0165046
632.254	0.0165472
632.332	0.0164674
632.410	0.0166264
632.488	0.0166025
632.567	0.0167741
632.645	0.0168310
632.723	0.0165297
632.801	0.0165559
632.879	0.0165576
632.957	0.0165988
633.035	0.0166081
633.113	0.0166172
633.192	0.0165892
633.270	0.0167048
633.348	0.0166432
633.426	0.0166028
633.504	0.0166769
633.582	0.0165593
633.660	0.0165969
633.738	0.0166499
633.817	0.0165285
633.895	0.0165786
633.973	0.0167500
634.051	0.0165952
634.129	0.0166777
634.207	0.0165997
634.285	0.0166956
634.363	0.0166498
634.442	0.0165652
634.520	0.0167123
634.598	0.0165963
634.676	0.0166163
634.754	0.0167009
634.832	0.0166682
634.910	0.0166991
634.988	0.0166370
635.067	0.0166304
635.145	0.0165542
635.223	0.0167260
635.301	0.0168121
635.379	0.0165388
635.457	0.0167777
635.535	0.0167104
635.613	0.0166994
635.692	0.0166679
635.770	0.0165836
635.848	0.0165937
635.926	0.0166288
636.004	0.0166470
636.082	0.0166635
636.160	0.0166696
636.238	0.0166669
636.317	0.0166771
636.395	0.0167155
636.473	0.0167616
636.551	0.0166024
636.629	0.0166655
636.707	0.0167504
636.785	0.0166819
636.863	0.0166521
636.942	0.0166539
637.020	0.0166290
637.098	0.0166718
637.176	0.0167265
637.254	0.0166996
637.332	0.0168530
637.410	0.0165732
637.488	0.0165379
637.567	0.0166743
637.645	0.0166860
637.723	0.0164986
637.801	0.0165893
637.879	0.0165639
637.957	0.0167357
638.035	0.0165118
638.113	0.0165620
638.192	0.0165916
638.270	0.0168251
638.348	0.0166176
638.426	0.0167772
638.504	0.0166544
638.582	0.0166764
638.660	0.0166742
638.738	0.0165736
638.817	0.0166283
638.895	0.0165997
638.973	0.0167954
639.051	0.0167104
639.129	0.0167085
639.207	0.0165632
639.285	0.0166171
639.363	0.0165901
639.442	0.0165653
639.520	0.0167030
639.598	0.0164427
639.676	0.0166346
639.754	0.0166765
639.832	0.0166199
639.910	0.0166266
639.988	0.0166277
640.067	0.0166525
640.145	0.0166415
640.223	0.0165950
640.301	0.0166615
640.379	0.0166399
640.457	0.0166672
640.535	0.0165679
640.613	0.0167353
640.692	0.0165644
640.770	0.0165508
640.848	0.0166696
640.926	0.0166183
641.004	0.0165878
641.082	0.0165072
641.160	0.0165732
641.238	0.0166777
641.317	0.0165499
641.395	0.0165985
641.473	0.0166419
641.551	0.0166110
641.629	0.0165401
641.707	0.0165958
641.785	0.0166559
641.863	0.0167490
641.942	0.0166419
642.020	0.0166613
642.098	0.0165638
642.176	0.0165250
642.254	0.0165983
642.332	0.0166780
642.410	0.0165276
642.488	0.0166142
642.567	0.0166634
642.645	0.0166220
642.723	0.0166805
642.801	0.0165858
642.879	0.0165380
642.957	0.0166147
643.035	0.0166660
643.113	0.0167088
643.192	0.0166908
643.270	0.0166711
643.348	0.0167948
643.426	0.0166172
643.504	0.0165943
643.582	0.0165247
643.660	0.0166501
643.738	0.0166425
643.817	0.0165421
643.895	0.0166567
643.973	0.0166357
644.051	0.0166582
644.129	0.0166800
644.207	0.0166139
644.285	0.0167738
644.363	0.0168248
644.442	0.0167348
644.520	0.0165446
644.598	0.0168526
644.676	0.0167710
644.754	0.0166742
644.832	0.0168185
644.910	0.0167395
644.988	0.0166072
645.067	0.0166207
645.145	0.0166969
645.223	0.0167857
645.301	0.0167287
645.379	0.0167405
645.457	0.0167906
645.535	0.0164735
645.613	0.0165656
645.692	0.0166779
645.770	0.0165843
645.848	0.0166798
645.926	0.0167707
646.004	0.0166963
646.082	0.0165728
646.160	0.0167857
646.238	0.0166875
646.317	0.0166348
646.395	0.0167139
646.473	0.0166103
646.551	0.0166128
646.629	0.0168265
646.707	0.0165042
646.785	0.0167130
646.863	0.0166318
646.942	0.0165890
647.020	0.0166786
647.098	0.0165702
647.176	0.0167081
647.254	0.0166230
647.332	0.0165910
647.410	0.0166502
647.488	0.0166841
647.567	0.0166499
647.645	0.0166398
647.723	0.0166086
647.801	0.0166911
647.879	0.0167063
647.957	0.0166520
648.035	0.0166255
648.113	0.0165811
648.192	0.0166105
648.270	0.0166454
648.348	0.0167278
648.426	0.0167648
648.504	0.0165047
648.582	0.0167187
648.660	0.0165583
648.738	0.0165787
648.817	0.0166238
648.895	0.0166608
648.973	0.0165013
649.051	0.0166875
649.129	0.0168262
649.207	0.0167579
649.285	0.0166276
649.363	0.0166142
649.442	0.0166010
649.520	0.0166599
649.598	0.0166798
649.676	0.0167113
649.754	0.0166743
649.832	0.0165575
649.910	0.0166940
649.988	0.0166928
650.067	0.0166520
650.145	0.0166467
650.223	0.0166611
650.301	0.0165755
650.379	0.0167101
650.457	0.0166195
650.535	0.0167409
650.613	0.0167476
650.692	0.0166773
650.770	0.0166766
650.848	0.0166404
650.926	0.0167263
651.004	0.0167170
651.082	0.0165852
651.160	0.0167826
651.238	0.0167777
651.317	0.0166894
651.395	0.0166374
651.473	0.0167149
651.551	0.0166750
651.629	0.0166576
651.707	0.0167478
651.785	0.0166604
651.863	0.0166216
651.942	0.0166030
652.020	0.0166595
652.098	0.0168093
652.176	0.0167566
652.254	0.0166642
652.332	0.0166838
652.410	0.0164858
652.488	0.0167171
652.567	0.0168131
652.645	0.0166400
652.723	0.0166995
652.801	0.0167143
652.879	0.0167203
652.957	0.0166628
653.035	0.0166528
653.113	0.0167279
653.192	0.0167204
653.270	0.0166539
653.348	0.0167074
653.426	0.0166764
653.504	0.0165897
653.582	0.0167134
653.660	0.0164976
653.738	0.0166362
653.817	0.0165419
653.895	0.0165858
653.973	0.0166737
654.051	0.0166216
654.129	0.0165032
654.207	0.0167078
654.285	0.0166702
654.363	0.0167612
654.442	0.0166695
654.520	0.0165715
654.598	0.0166782
654.676	0.0166339
654.754	0.0165909
654.832	0.0166416
654.910	0.0166964
654.988	0.0167193
655.067	0.0166304
655.145	0.0165379
655.223	0.0167775
655.301	0.0166465
655.379	0.0167377
655.457	0.0166013
655.535	0.0167343
655.613	0.0166528
655.692	0.0166311
655.770	0.0166753
655.848	0.0166501
655.926	0.0166986
656.004	0.0167031
656.082	0.0166618
656.160	0.0165846
656.238	0.0165529
656.317	0.0167088
656.395	0.0165208
656.473	0.0165953
656.551	0.0166763
656.629	0.0167400
656.707	0.0166875
656.785	0.0167133
656.863	0.0165113
656.942	0.0165650
657.020	0.0166827
657.098	0.0165456
657.176	0.0166819
657.254	0.0167023
657.332	0.0166301
657.410	0.0165685
657.488	0.0166805
657.567	0.0166454
657.645	0.0167680
657.723	0.0167343
657.801	0.0166196
657.879	0.0166565
657.957	0.0166962
658.035	0.0166035
658.113	0.0166199
658.192	0.0165823
658.270	0.0166258
658.348	0.0166644
658.426	0.0167113
658.504	0.0167296
658.582	0.0166380
658.660	0.0166149
658.738	0.0166949
658.817	0.0167059
658.895	0.0165987
658.973	0.0166055
659.051	0.0166994
659.129	0.0167244
659.207	0.0166610
659.285	0.0166969
659.363	0.0166679
659.442	0.0165945
659.520	0.0166114
659.598	0.0167329
659.676	0.0167995
659.754	0.0167696
659.832	0.0167545
659.910	0.0166741
659.988	0.0166772
660.067	0.0167440
660.145	0.0166709
660.223	0.0165189
660.301	0.0166907
660.379	0.0166620
660.457	0.0167623
660.535	0.0165957
660.613	0.0166268
660.692	0.0165881
660.770	0.0166486
660.848	0.0166206
660.926	0.0165791
661.004	0.0166102
661.082	0.0165741
661.160	0.0166818
661.238	0.0165937
661.317	0.0165483
661.395	0.0167132
661.473	0.0167347
661.551	0.0166660
661.629	0.0167002
661.707	0.0166615
661.785	0.0166314
661.863	0.0164413
661.942	0.0166606
662.020	0.0165611
662.098	0.0167115
662.176	0.0167043
662.254	0.0166199
662.332	0.0165488
662.410	0.0166007
662.488	0.0165517
662.567	0.0166166
662.645	0.0167178
662.723	0.0166219
662.801	0.0166473
662.879	0.0164724
662.957	0.0165833
663.035	0.0167406
663.113	0.0165891
663.192	0.0167028
663.270	0.0165456
663.348	0.0165905
663.426	0.0166166
663.504	0.0166045
663.582	0.0165662
663.660	0.0166087
663.738	0.0166967
663.817	0.0165524
663.895	0.0166967
663.973	0.0166582
664.051	0.0168079
664.129	0.0166397
664.207	0.0165568
664.285	0.0166005
664.363	0.0166089
664.442	0.0166148
664.520	0.0166022
664.598	0.0165812
664.676	0.0167028
664.754	0.0165843
664.832	0.0167444
664.910	0.0166464
664.988	0.0166446
665.067	0.0166542
665.145	0.0167920
665.223	0.0167096
665.301	0.0165800
665.379	0.0165514
665.457	0.0166549
665.535	0.0166911
665.613	0.0166751
665.692	0.0167290
665.770	0.0166698
665.848	0.0166692
665.926	0.0166975
666.004	0.0165601
666.082	0.0165435
666.160	0.0166328
666.238	0.0166033
666.317	0.0166131
666.395	0.0167564
666.473	0.0165336
666.551	0.0166158
666.629	0.0165649
666.707	0.0165407
666.785	0.0164640
666.863	0.0166383
666.942	0.0167438
667.020	0.0166351
667.098	0.0166448
667.176	0.0165891
667.254	0.0165884
667.332	0.0167546
667.410	0.0165676
667.488	0.0166898
667.567	0.0167344
667.645	0.0165784
667.723	0.0165507
667.801	0.0166666
667.879	0.0166455
667.957	0.0167031
668.035	0.0166467
668.113	0.0165836
668.192	0.0165224
668.270	0.0166769
668.348	0.0166534
668.426	0.0166068
668.504	0.0166393
668.582	0.0165035
668.660	0.0166001
668.738	0.0166515
668.817	0.0165020
668.895	0.0165370
668.973	0.0166418
669.051	0.0166751
669.129	0.0166039
669.207	0.0167210
669.285	0.0165591
669.363	0.0166346
669.442	0.0166330
669.520	0.0166711
669.598	0.0166592
669.676	0.0167242
669.754	0.0166391
669.832	0.0165723
669.910	0.0166911
669.988	0.0167063
670.067	0.0166333
670.145	0.0166228
670.223	0.0165421
670.301	0.0166081
670.379	0.0166747
670.457	0.0167052
670.535	0.0165420
670.613	0.0166584
670.692	0.0166948
670.770	0.0166550
670.848	0.0165658
670.926	0.0165245
671.004	0.0166180
671.082	0.0166113
671.160	0.0164346
671.238	0.0166219
671.317	0.0166460
671.395	0.0167287
671.473	0.0166566
671.551	0.0165137
671.629	0.0165755
671.707	0.0165334
671.785	0.0166571
671.863	0.0164773
671.942	0.0165941
672.020	0.0166325
672.098	0.0166190
672.176	0.0164603
672.254	0.0166420
672.332	0.0166721
672.410	0.0165981
672.488	0.0167126
672.567	0.0165900
672.645	0.0167546
672.723	0.0166064
672.801	0.0165228
672.879	0.0166121
672.957	0.0166248
673.035	0.0166849
673.113	0.0166985
673.192	0.0166832
673.270	0.0167142
673.348	0.0166151
673.426	0.0164886
673.504	0.0166265
673.582	0.0166140
673.660	0.0166706
673.738	0.0166067
673.817	0.0167928
673.895	0.0166385
673.973	0.0166720
674.051	0.0166706
674.129	0.0166235
674.207	0.0166898
674.285	0.0165515
674.363	0.0166336
674.442	0.0167215
674.520	0.0166653
674.598	0.0165871
674.676	0.0165659
674.754	0.0165579
674.832	0.0166475
674.910	0.0167756
674.988	0.0165816
675.067	0.0167341
675.145	0.0166456
675.223	0.0165389
675.301	0.0165930
675.379	0.0166068
675.457	0.0166919
675.535	0.0166418
675.613	0.0166647
675.692	0.0166473
675.770	0.0166053
675.848	0.0165675
675.926	0.0166710
676.004	0.0164842
676.082	0.0167281
676.160	0.0167492
676.238	0.0167677
676.317	0.0167393
676.395	0.0166282
676.473	0.0165441
676.551	0.0165228
676.629	0.0165641
676.707	0.0165268
676.785	0.0165880
676.863	0.0165878
676.942	0.0165383
677.020	0.0165367
677.098	0.0164983
677.176	0.0164897
677.254	0.0166319
677.332	0.0165900
677.410	0.0165321
677.488	0.0166039
677.567	0.0166324
677.645	0.0165518
677.723	0.0165941
677.801	0.0166064
677.879	0.0166673
677.957	0.0165033
678.035	0.0166385
678.113	0.0167555
678.192	0.0165974
678.270	0.0166886
678.348	0.0167047
678.426	0.0167265
678.504	0.0167197
678.582	0.0166914
678.660	0.0166979
678.738	0.0167450
678.817	0.0165701
678.895	0.0166622
678.973	0.0166245
679.051	0.0166039
679.129	0.0167285
679.207	0.0167786
679.285	0.0166500
679.363	0.0166402
679.442	0.0165453
679.520	0.0166792
679.598	0.0167034
679.676	0.0165282
679.754	0.0166532
679.832	0.0165150
679.910	0.0165852
679.988	0.0165584
680.067	0.0166143
680.145	0.0165840
680.223	0.0164797
680.301	0.0165181
680.379	0.0165002
680.457	0.0165424
680.535	0.0164639
680.613	0.0165927
680.692	0.0165716
680.770	0.0166186
680.848	0.0165172
680.926	0.0165738
681.004	0.0164787
681.082	0.0165674
681.160	0.0167225
681.238	0.0165717
681.317	0.0166394
681.395	0.0165768
681.473	0.0166582
681.551	0.0165891
681.629	0.0167460
681.707	0.0165504
681.785	0.0166669
681.863	0.0167213
681.942	0.0166370
682.020	0.0166231
682.098	0.0167050
682.176	0.0166370
682.254	0.0166378
682.332	0.0167759
682.410	0.0165656
682.488	0.0165537
682.567	0.0167113
682.645	0.0165966
682.723	0.0167135
682.801	0.0166745
682.879	0.0165897
682.957	0.0165739
683.035	0.0166623
683.113	0.0166171
683.192	0.0165897
683.270	0.0165599
683.348	0.0164735
683.426	0.0165266
683.504	0.0165894
683.582	0.0165457
683.660	0.0166112
683.738	0.0165475
683.817	0.0166167
683.895	0.0165305
683.973	0.0165697
684.051	0.0165385
684.129	0.0165383
684.207	0.0165771
684.285	0.0165293
684.363	0.0165926
684.442	0.0166628
684.520	0.0167376
684.598	0.0166511
684.676	0.0167847
684.754	0.0166391
684.832	0.0166929
684.910	0.0168129
684.988	0.0168380
685.067	0.0166393
685.145	0.0167498
685.223	0.0167611
685.301	0.0166397
685.379	0.0165795
685.457	0.0166590
685.535	0.0166098
685.613	0.0166542
685.692	0.0166016
685.770	0.0165647
685.848	0.0164637
685.926	0.0166291
686.004	0.0166480
686.082	0.0165050
686.160	0.0164249
686.238	0.0165200
686.317	0.0164352
686.395	0.0164746
686.473	0.0164809
686.551	0.0163884
686.629	0.0160992
686.707	0.0160851
686.785	0.0159860
686.863	0.0158679
686.942	0.0156653
687.020	0.0156778
687.098	0.0157849
687.176	0.0161377
687.254	0.0169389
687.332	0.0179076
687.410	0.0191241
687.488	0.0206223
687.567	0.0220757
687.645	0.0232706
687.723	0.0243365
687.801	0.0247999
687.879	0.0247808
687.957	0.0239151
688.035	0.0225205
688.113	0.0204012
688.192	0.0176467
688.270	0.0146232
688.348	0.0112615
688.426	0.00801880
688.504	0.00461258
688.582	0.00166183
688.660	-0.000918884
688.738	-0.00254761
688.817	-0.00351273
688.895	-0.00371727
688.973	-0.00294678
689.051	-0.00157562
689.129	0.000900116
689.207	0.00374870
689.285	0.00721336
689.363	0.0110463
689.442	0.0152393
689.520	0.0196281
689.598	0.0236010
689.676	0.0277444
689.754	0.0317355
689.832	0.0354956
689.910	0.0388705
689.988	0.0417003
690.067	0.0438761
690.145	0.0453791
690.223	0.0462243
690.301	0.0463091
690.379	0.0454541
690.457	0.0437384
690.535	0.0414912
690.613	0.0386598
690.692	0.0352306
690.770	0.0313716
690.848	0.0267640
690.926	0.0224253
691.004	0.0176884
691.082	0.0129955
691.160	0.00848450
691.238	0.00437469
691.317	0.000225754
691.395	-0.00325699
691.473	-0.00635185
691.551	-0.00892204
691.629	-0.0108382
691.707	-0.0120251
691.785	-0.0126429
691.863	-0.0128677
691.942	-0.0120626
692.020	-0.0106164
692.098	-0.00907188
692.176	-0.00669662
692.254	-0.00417473
692.332	-0.00133804
692.410	0.00170830
692.488	0.00491211
692.567	0.00790970
692.645	0.0110166
692.723	0.0140591
692.801	0.0166255
692.879	0.0189643
692.957	0.0210738
693.035	0.0230035
693.113	0.0244188
693.192	0.0255482
693.270	0.0265067
693.348	0.0270520
693.426	0.0277457
693.504	0.0280077
693.582	0.0282794
693.660	0.0288425
693.738	0.0290137
693.817	0.0291666
693.895	0.0294209
693.973	0.0298061
694.051	0.0300760
694.129	0.0303526
694.207	0.0305638
694.285	0.0306389
694.363	0.0306540
694.442	0.0304896
694.520	0.0302037
694.598	0.0298389
694.676	0.0291194
694.754	0.0282565
694.832	0.0274101
694.910	0.0262106
694.988	0.0249577
695.067	0.0236786
695.145	0.0221602
695.223	0.0207851
695.301	0.0193040
695.379	0.0178487
695.457	0.0165340
695.535	0.0153059
695.613	0.0140335
695.692	0.0130062
695.770	0.0120265
695.848	0.0113314
695.926	0.0103363
696.004	0.00965958
696.082	0.00913216
696.160	0.00870201
696.238	0.00815552
696.317	0.00793961
696.395	0.00756859
696.473	0.00721863
696.551	0.00712944
696.629	0.00677002
696.707	0.00666901
696.785	0.00674126
696.863	0.00666733
696.942	0.00644455
697.020	0.00657616
697.098	0.00678879
697.176	0.00693192
697.254	0.00731331
697.332	0.00772949
697.410	0.00804031
697.488	0.00865234
697.567	0.00911606
697.645	0.00988235
697.723	0.0106351
697.801	0.0114043
697.879	0.0122318
697.957	0.0131788
698.035	0.0140620
698.113	0.0148730
698.192	0.0156633
698.270	0.0165354
698.348	0.0172452
698.426	0.0179347
698.504	0.0183938
698.582	0.0190720
698.660	0.0193383
698.738	0.0197449
698.817	0.0201183
698.895	0.0203993
698.973	0.0205073
699.051	0.0205610
699.129	0.0206116
699.207	0.0207547
699.285	0.0206702
699.363	0.0206099
699.442	0.0204230
699.520	0.0203448
699.598	0.0202821
699.676	0.0202708
699.754	0.0202110
699.832	0.0203638
699.910	0.0203016
699.988	0.0207279
700.067	0.0208497
700.145	0.0212045
700.223	0.0217156
700.301	0.0220116
700.379	0.0224280
700.457	0.0229580
700.535	0.0232188
700.613	0.0236375
700.692	0.0240862
700.770	0.0243539
700.848	0.0243955
700.926	0.0242783
701.004	0.0240405
701.082	0.0237120
701.160	0.0231888
701.238	0.0223184
701.317	0.0215192
701.395	0.0205215
701.473	0.0195353
701.551	0.0185044
701.629	0.0177132
701.707	0.0167480
701.785	0.0157426
701.863	0.0148813
701.942	0.0141753
702.020	0.0134880
702.098	0.0127029
702.176	0.0122608
702.254	0.0118643
702.332	0.0116324
702.410	0.0116364
702.488	0.0116594
702.567	0.0116513
702.645	0.0118785
702.723	0.0122543
702.801	0.0123830
702.879	0.0127447
702.957	0.0131032
703.035	0.0132850
703.113	0.0135528
703.192	0.0138725
703.270	0.0139828
703.348	0.0140229
703.426	0.0140400
703.504	0.0138789
703.582	0.0137988
703.660	0.0136768
703.738	0.0130465
703.817	0.0127974
703.895	0.0124526
703.973	0.0121665
704.051	0.0118608
704.129	0.0116846
704.207	0.0116088
704.285	0.0115851
704.363	0.0115485
704.442	0.0117572
704.520	0.0119476
704.598	0.0122687
704.676	0.0127671
704.754	0.0133728
704.832	0.0137681
704.910	0.0143066
704.988	0.0149148
705.067	0.0153968
705.145	0.0159970
705.223	0.0165642
705.301	0.0172963
705.379	0.0177087
705.457	0.0180009
705.535	0.0183453
705.613	0.0187732
705.692	0.0189818
705.770	0.0190036
705.848	0.0191277
705.926	0.0192877
706.004	0.0191874
706.082	0.0193069
706.160	0.0192587
706.238	0.0192892
706.317	0.0191304
706.395	0.0190969
706.473	0.0189828
706.551	0.0189500
706.629	0.0188380
706.707	0.0188226
706.785	0.0187790
706.863	0.0188183
706.942	0.0187881
707.020	0.0188548
707.098	0.0191268
707.176	0.0191690
707.254	0.0190536
707.332	0.0192882
707.410	0.0195187
707.488	0.0194525
707.567	0.0197174
707.645	0.0199762
707.723	0.0201301
707.801	0.0201541
707.879	0.0201772
707.957	0.0202198
708.035	0.0203161
708.113	0.0201933
708.192	0.0201168
708.270	0.0197237
708.348	0.0195425
708.426	0.0193174
708.504	0.0189536
708.582	0.0185116
708.660	0.0180418
708.738	0.0177406
708.817	0.0171845
708.895	0.0167595
708.973	0.0162428
709.051	0.0158424
709.129	0.0156995
709.207	0.0153565
709.285	0.0150612
709.363	0.0147658
709.442	0.0147926
709.520	0.0146842
709.598	0.0146768
709.676	0.0146803
709.754	0.0146293
709.832	0.0148166
709.910	0.0149170
709.988	0.0150340
710.067	0.0151001
710.145	0.0151087
710.223	0.0151128
710.301	0.0153630
710.379	0.0153721
710.457	0.0155366
710.535	0.0155994
710.613	0.0156268
710.692	0.0155379
710.770	0.0156757
710.848	0.0154964
710.926	0.0154366
711.004	0.0153744
711.082	0.0152362
711.160	0.0148969
711.238	0.0147568
711.317	0.0147018
711.395	0.0145097
711.473	0.0142712
711.551	0.0140742
711.629	0.0138950
711.707	0.0138091
711.785	0.0136365
711.863	0.0136170
711.942	0.0136711
712.020	0.0135144
712.098	0.0137286
712.176	0.0139309
712.254	0.0140987
712.332	0.0142679
712.410	0.0145816
712.488	0.0148296
712.567	0.0151698
712.645	0.0155259
712.723	0.0158515
712.801	0.0160507
712.879	0.0163126
712.957	0.0164281
713.035	0.0168708
713.113	0.0172018
713.192	0.0171958
713.270	0.0173481
713.348	0.0173817
713.426	0.0176189
713.504	0.0177871
713.582	0.0178461
713.660	0.0178104
713.738	0.0176887
713.817	0.0178677
713.895	0.0178710
713.973	0.0176258
714.051	0.0176894
714.129	0.0177680
714.207	0.0175941
714.285	0.0173828
714.363	0.0174538
714.442	0.0174071
714.520	0.0173173
714.598	0.0174932
714.676	0.0175669
714.754	0.0176802
714.832	0.0178381
714.910	0.0179337
714.988	0.0180434
715.067	0.0184916
715.145	0.0186396
715.223	0.0189679
715.301	0.0192682
715.379	0.0194368
715.457	0.0195115
715.535	0.0196333
715.613	0.0197161
715.692	0.0197005
715.770	0.0196534
715.848	0.0195853
715.926	0.0193607
716.004	0.0190909
716.082	0.0188618
716.160	0.0186548
716.238	0.0184058
716.317	0.0180797
716.395	0.0175533
716.473	0.0174245
716.551	0.0172155
716.629	0.0171017
716.707	0.0168471
716.785	0.0167535
716.863	0.0164411
716.942	0.0166711
717.020	0.0164562
717.098	0.0163242
717.176	0.0164131
717.254	0.0165437
717.332	0.0165342
717.410	0.0164811
717.488	0.0164858
717.567	0.0164187
717.645	0.0164518
717.723	0.0164932
717.801	0.0162706
717.879	0.0163319
717.957	0.0164281
718.035	0.0164074
718.113	0.0161820
718.192	0.0160942
718.270	0.0160264
718.348	0.0158086
718.426	0.0157067
718.504	0.0157260
718.582	0.0155215
718.660	0.0151274
718.738	0.0149106
718.817	0.0148856
718.895	0.0146989
718.973	0.0144098
719.051	0.0142968
719.129	0.0141860
719.207	0.0138985
719.285	0.0138317
719.363	0.0137502
719.442	0.0135391
719.520	0.0133927
719.598	0.0134454
719.676	0.0134119
719.754	0.0135377
719.832	0.0137170
719.910	0.0138242
719.988	0.0139709
720.067	0.0142182
720.145	0.0145590
720.223	0.0149769
720.301	0.0151958
720.379	0.0153905
720.457	0.0156516
720.535	0.0159395
720.613	0.0162851
720.692	0.0163538
720.770	0.0167189
720.848	0.0169090
720.926	0.0169385
721.004	0.0169203
721.082	0.0171065
721.160	0.0170766
721.238	0.0171224
721.317	0.0171850
721.395	0.0172095
721.473	0.0171717
721.551	0.0172581
721.629	0.0170116
721.707	0.0172079
721.785	0.0171400
721.863	0.0170953
721.942	0.0170244
722.020	0.0170924
722.098	0.0170537
722.176	0.0171212
722.254	0.0173054
722.332	0.0174456
722.410	0.0175323
722.488	0.0176140
722.567	0.0178843
722.645	0.0181365
722.723	0.0183483
722.801	0.0185977
722.879	0.0188354
722.957	0.0190551
723.035	0.0192073
723.113	0.0193420
723.192	0.0195014
723.270	0.0195013
723.348	0.0195183
723.426	0.0195311
723.504	0.0194743
723.582	0.0190424
723.660	0.0190706
723.738	0.0189247
723.817	0.0185082
723.895	0.0183092
723.973	0.0180759
724.051	0.0178914
724.129	0.0175396
724.207	0.0173711
724.285	0.0172068
724.363	0.0171419
724.442	0.0169640
724.520	0.0169682
724.598	0.0169059
724.676	0.0166494
724.754	0.0166740
724.832	0.0166298
724.910	0.0165517
724.988	0.0165513
725.067	0.0164339
725.145	0.0164422
725.223	0.0163900
725.301	0.0163699
725.379	0.0163688
725.457	0.0165060
725.535	0.0163377
725.613	0.0163596
725.692	0.0163243
725.770	0.0164397
725.848	0.0164868
725.926	0.0163612
726.004	0.0161784
726.082	0.0161582
726.160	0.0161265
726.238	0.0161549
726.317	0.0159614
726.395	0.0157806
726.473	0.0157565
726.551	0.0156581
726.629	0.0153598
726.707	0.0150931
726.785	0.0150732
726.863	0.0147863
726.942	0.0145326
727.020	0.0143623
727.098	0.0142608
727.176	0.0140804
727.254	0.0140157
727.332	0.0138904
727.410	0.0138371
727.488	0.0138984
727.567	0.0139425
727.645	0.0138780
727.723	0.0139794
727.801	0.0142013
727.879	0.0142976
727.957	0.0146295
728.035	0.0148341
728.113	0.0151458
728.192	0.0153860
728.270	0.0157137
728.348	0.0157864
728.426	0.0160133
728.504	0.0163020
728.582	0.0165594
728.660	0.0165493
728.738	0.0168663
728.817	0.0170128
728.895	0.0169985
728.973	0.0169477
729.051	0.0171220
729.129	0.0171320
729.207	0.0170951
729.285	0.0171120
729.363	0.0172792
729.442	0.0173111
729.520	0.0173055
729.598	0.0173591
729.676	0.0173959
729.754	0.0174291
729.832	0.0174351
729.910	0.0174396
729.988	0.0175136
730.067	0.0176522
730.145	0.0175732
730.223	0.0175430
730.301	0.0176097
730.379	0.0176551
730.457	0.0176508
730.535	0.0176712
730.613	0.0178876
730.692	0.0178320
730.770	0.0180013
730.848	0.0182022
730.926	0.0183564
731.004	0.0185463
731.082	0.0186481
731.160	0.0187047
731.238	0.0187363
731.317	0.0187390
731.395	0.0190514
731.473	0.0188471
731.551	0.0185841
731.629	0.0187179
731.707	0.0185738
731.785	0.0184595
731.863	0.0182762
731.942	0.0179551
732.020	0.0178814
732.098	0.0174930
732.176	0.0173523
732.254	0.0169906
732.332	0.0168777
732.410	0.0167669
732.488	0.0164899
732.567	0.0165218
732.645	0.0164205
732.723	0.0162143
732.801	0.0161073
732.879	0.0160773
732.957	0.0159760
733.035	0.0158984
733.113	0.0158720
733.192	0.0160248
733.270	0.0160112
733.348	0.0161082
733.426	0.0160974
733.504	0.0161185
733.582	0.0163428
733.660	0.0161707
733.738	0.0162015
733.817	0.0162006
733.895	0.0160939
733.973	0.0162051
734.051	0.0161188
734.129	0.0162124
734.207	0.0161177
734.285	0.0160178
734.363	0.0159405
734.442	0.0158591
734.520	0.0157964
734.598	0.0157178
734.676	0.0156334
734.754	0.0154651
734.832	0.0153352
734.910	0.0152580
734.988	0.0152584
735.067	0.0150600
735.145	0.0150812
735.223	0.0149495
735.301	0.0148528
735.379	0.0149701
735.457	0.0148500
735.535	0.0148569
735.613	0.0150204
735.692	0.0150464
735.770	0.0151369
735.848	0.0152680
735.926	0.0153969
736.004	0.0154604
736.082	0.0157143
736.160	0.0158126
736.238	0.0159904
736.317	0.0160587
736.395	0.0161397
736.473	0.0164366
736.551	0.0166808
736.629	0.0166504
736.707	0.0167735
736.785	0.0168472
736.863	0.0170034
736.942	0.0170155
737.020	0.0170697
737.098	0.0170798
737.176	0.0171069
737.254	0.0171380
737.332	0.0171277
737.410	0.0169984
737.488	0.0170900
737.567	0.0170694
737.645	0.0171983
737.723	0.0171164
737.801	0.0170398
737.879	0.0169916
737.957	0.0169400
738.035	0.0169093
738.113	0.0169740
738.192	0.0171341
738.270	0.0170439
738.348	0.0170708
738.426	0.0173058
738.504	0.0174177
738.582	0.0174630
738.660	0.0176018
738.738	0.0179082
738.817	0.0179238
738.895	0.0181070
738.973	0.0182926
739.051	0.0184403
739.129	0.0185434
739.207	0.0185319
739.285	0.0185473
739.363	0.0185716
739.442	0.0187077
739.520	0.0186079
739.598	0.0185295
739.676	0.0184624
739.754	0.0183069
739.832	0.0182180
739.910	0.0178640
739.988	0.0176846
740.067	0.0175413
740.145	0.0172466
740.223	0.0171059
740.301	0.0169927
740.379	0.0166718
740.457	0.0163915
740.535	0.0164377
740.613	0.0162333
740.692	0.0158784
740.770	0.0157565
740.848	0.0157007
740.926	0.0158019
741.004	0.0156670
741.082	0.0156590
741.160	0.0156257
741.238	0.0156342
741.317	0.0156062
741.395	0.0156032
741.473	0.0156030
741.551	0.0155505
741.629	0.0156015
741.707	0.0158437
741.785	0.0158697
741.863	0.0159882
741.942	0.0160226
742.020	0.0161352
742.098	0.0161648
742.176	0.0162708
742.254	0.0162723
742.332	0.0163284
742.410	0.0163052
742.488	0.0164468
742.567	0.0161858
742.645	0.0162649
742.723	0.0162120
742.801	0.0162207
742.879	0.0161630
742.957	0.0160035
743.035	0.0160899
743.113	0.0159924
743.192	0.0157959
743.270	0.0158134
743.348	0.0158434
743.426	0.0156055
743.504	0.0156767
743.582	0.0156789
743.660	0.0157633
743.738	0.0159727
743.817	0.0158217
743.895	0.0158799
743.973	0.0160912
744.051	0.0160416
744.129	0.0161372
744.207	0.0161752
744.285	0.0163233
744.363	0.0163548
744.442	0.0165273
744.520	0.0164758
744.598	0.0166177
744.676	0.0165684
744.754	0.0166634
744.832	0.0166461
744.910	0.0166859
744.988	0.0166944
745.067	0.0165900
745.145	0.0167713
745.223	0.0166100
745.301	0.0166489
745.379	0.0168285
745.457	0.0166296
745.535	0.0167245
745.613	0.0168422
745.692	0.0169881
745.770	0.0168748
745.848	0.0167837
745.926	0.0168235
746.004	0.0168808
746.082	0.0168011
746.160	0.0169691
746.238	0.0171056
746.317	0.0169476
746.395	0.0167136
746.473	0.0169570
746.551	0.0171111
746.629	0.0170444
746.707	0.0172913
746.785	0.0173023
746.863	0.0173959
746.942	0.0176291
747.020	0.0179428
747.098	0.0179792
747.176	0.0180124
747.254	0.0181400
747.332	0.0183133
747.410	0.0183263
747.488	0.0183076
747.567	0.0183607
747.645	0.0182762
747.723	0.0180515
747.801	0.0179485
747.879	0.0176601
747.957	0.0176329
748.035	0.0172800
748.113	0.0169743
748.192	0.0168485
748.270	0.0164869
748.348	0.0162632
748.426	0.0160052
748.504	0.0159283
748.582	0.0158647
748.660	0.0155556
748.738	0.0155285
748.817	0.0154743
748.895	0.0155836
748.973	0.0155272
749.051	0.0157542
749.129	0.0158379
749.207	0.0158722
749.285	0.0160455
749.363	0.0162651
749.442	0.0163973
749.520	0.0164081
749.598	0.0166032
749.676	0.0166072
749.754	0.0167373
749.832	0.0169283
749.910	0.0167289
749.988	0.0168685
750.067	0.0167598
750.145	0.0166716
750.223	0.0167029
750.301	0.0165709
750.379	0.0164148
750.457	0.0162149
750.535	0.0163639
750.613	0.0160405
750.692	0.0159783
750.770	0.0158212
750.848	0.0158180
750.926	0.0156506
751.004	0.0157200
751.082	0.0155112
751.160	0.0154046
751.238	0.0154323
751.317	0.0154143
751.395	0.0153688
751.473	0.0155059
751.551	0.0155711
751.629	0.0156339
751.707	0.0157001
751.785	0.0158449
751.863	0.0160061
751.942	0.0161881
752.020	0.0162838
752.098	0.0163288
752.176	0.0164059
752.254	0.0166904
752.332	0.0168920
752.410	0.0168642
752.488	0.0169506
752.567	0.0170769
752.645	0.0171628
752.723	0.0171550
752.801	0.0172260
752.879	0.0173077
752.957	0.0172273
753.035	0.0171947
753.113	0.0172318
753.192	0.0172864
753.270	0.0172124
753.348	0.0172048
753.426	0.0172495
753.504	0.0172173
753.582	0.0171576
753.660	0.0169867
753.738	0.0171540
753.817	0.0170087
753.895	0.0168873
753.973	0.0168172
754.051	0.0168221
754.129	0.0169390
754.207	0.0169148
754.285	0.0168152
754.363	0.0166541
754.442	0.0167035
754.520	0.0167466
754.598	0.0169032
754.676	0.0168833
754.754	0.0170212
754.832	0.0167109
754.910	0.0168518
754.988	0.0170728
755.067	0.0169476
755.145	0.0170030
755.223	0.0169725
755.301	0.0169965
755.379	0.0171666
755.457	0.0170905
755.535	0.0170204
755.613	0.0171001
755.692	0.0171916
755.770	0.0168694
755.848	0.0169952
755.926	0.0168703
756.004	0.0169179
756.082	0.0167397
756.160	0.0166823
756.238	0.0165730
756.317	0.0164512
756.395	0.0164272
756.473	0.0164668
756.551	0.0164740
756.629	0.0162035
756.707	0.0161942
756.785	0.0161714
756.863	0.0162294
756.942	0.0161633
757.020	0.0162207
757.098	0.0161649
757.176	0.0161357
757.254	0.0162019
757.332	0.0162880
757.410	0.0163300
757.488	0.0164294
757.567	0.0165282
757.645	0.0166100
757.723	0.0166248
757.801	0.0167193
757.879	0.0167334
757.957	0.0169206
758.035	0.0169290
758.113	0.0169681
758.192	0.0170744
758.270	0.0169722
758.348	0.0168708
758.426	0.0169002
758.504	0.0170215
758.582	0.0170137
758.660	0.0168117
758.738	0.0168200
758.817	0.0167133
758.895	0.0165303
758.973	0.0165804
759.051	0.0164750
759.129	0.0162267
759.207	0.0162950
759.285	0.0162423
759.363	0.0161925
759.442	0.0160522
759.520	0.0160293
759.598	0.0159406
759.676	0.0159399
759.754	0.0159887
759.832	0.0160377
759.910	0.0159668
759.988	0.0160263
760.067	0.0160278
760.145	0.0161080
760.223	0.0162265
760.301	0.0162100
760.379	0.0162969
760.457	0.0164770
760.535	0.0164455
760.613	0.0164824
760.692	0.0166000
760.770	0.0166576
760.848	0.0165900
760.926	0.0164199
761.004	0.0165182
761.082	0.0164700
761.160	0.0165350
761.238	0.0166219
761.317	0.0165183
761.395	0.0164281
761.473	0.0164850
761.551	0.0164770
761.629	0.0163876
761.707	0.0164770
761.785	0.0164871
761.863	0.0165834
761.942	0.0166098
762.020	0.0165530
762.098	0.0164951
762.176	0.0167105
762.254	0.0166068
762.332	0.0166612
762.410	0.0166618
762.488	0.0165417
762.567	0.0166528
762.645	0.0167435
762.723	0.0166786
762.801	0.0168197
762.879	0.0168874
762.957	0.0169227
763.035	0.0170963
763.113	0.0171032
763.192	0.0171587
763.270	0.0171458
763.348	0.0171848
763.426	0.0172882
763.504	0.0172665
763.582	0.0172640
763.660	0.0171251
763.738	0.0172459
763.817	0.0172158
763.895	0.0171568
763.973	0.0171000
764.051	0.0171938
764.129	0.0170869
764.207	0.0170442
764.285	0.0169658
764.363	0.0169595
764.442	0.0168927
764.520	0.0168741
764.598	0.0167362
764.676	0.0166457
764.754	0.0166192
764.832	0.0166699
764.910	0.0165306
764.988	0.0165740
765.067	0.0166592
765.145	0.0165692
765.223	0.0164842
765.301	0.0165383
765.379	0.0166171
765.457	0.0165849
765.535	0.0166846
765.613	0.0167070
765.692	0.0167143
765.770	0.0166001
765.848	0.0166301
765.926	0.0165950
766.004	0.0167088
766.082	0.0166891
766.160	0.0165910
766.238	0.0166336
766.317	0.0166548
766.395	0.0165771
766.473	0.0165739
766.551	0.0166305
766.629	0.0165068
766.707	0.0166137
766.785	0.0165300
766.863	0.0165350
766.942	0.0165484
767.020	0.0164926
767.098	0.0164609
767.176	0.0163068
767.254	0.0162411
767.332	0.0163007
767.410	0.0162038
767.488	0.0161168
767.567	0.0160745
767.645	0.0160734
767.723	0.0158857
767.801	0.0159389
767.879	0.0159710
767.957	0.0160064
768.035	0.0159290
768.113	0.0159280
768.192	0.0161514
768.270	0.0159835
768.348	0.0161637
768.426	0.0161371
768.504	0.0162268
768.582	0.0163369
768.660	0.0163561
768.738	0.0167175
768.817	0.0166143
768.895	0.0166230
768.973	0.0167583
769.051	0.0167278
769.129	0.0167174
769.207	0.0167401
769.285	0.0167553
769.363	0.0168610
769.442	0.0169710
769.520	0.0170148
769.598	0.0169584
769.676	0.0170380
769.754	0.0169398
769.832	0.0170010
769.910	0.0170071
769.988	0.0167740
770.067	0.0167241
770.145	0.0167625
770.223	0.0167073
770.301	0.0166979
770.379	0.0166210
770.457	0.0165260
770.535	0.0165196
770.613	0.0164832
770.692	0.0165832
770.770	0.0165856
770.848	0.0165060
770.926	0.0165574
771.004	0.0166054
771.082	0.0167643
771.160	0.0166785
771.238	0.0166745
771.317	0.0168667
771.395	0.0169002
771.473	0.0169925
771.551	0.0170441
771.629	0.0169878
771.707	0.0170634
771.785	0.0171461
771.863	0.0170631
771.942	0.0171286
772.020	0.0170805
772.098	0.0172446
772.176	0.0170863
772.254	0.0170274
772.332	0.0171076
772.410	0.0167771
772.488	0.0170074
772.567	0.0169726
772.645	0.0167928
772.723	0.0167102
772.801	0.0168101
772.879	0.0167850
772.957	0.0168068
773.035	0.0168280
773.113	0.0168485
773.192	0.0166815
773.270	0.0166295
773.348	0.0168229
773.426	0.0168374
773.504	0.0167233
773.582	0.0167069
773.660	0.0168047
773.738	0.0166783
773.817	0.0167249
773.895	0.0168380
773.973	0.0167699
774.051	0.0166836
774.129	0.0167723
774.207	0.0167947
774.285	0.0165728
774.363	0.0167503
774.442	0.0166047
774.520	0.0166995
774.598	0.0165859
774.676	0.0165341
774.754	0.0166463
774.832	0.0166995
774.910	0.0164579
774.988	0.0163952
775.067	0.0164424
775.145	0.0163685
775.223	0.0161224
775.301	0.0162518
775.379	0.0163314
775.457	0.0163169
775.535	0.0162119
775.613	0.0160317
775.692	0.0159313
775.770	0.0160056
775.848	0.0160770
775.926	0.0159586
776.004	0.0160709
776.082	0.0161160
776.160	0.0162065
776.238	0.0162310
776.317	0.0162597
776.395	0.0161927
776.473	0.0162740
776.551	0.0162098
776.629	0.0163527
776.707	0.0162192
776.785	0.0163576
776.863	0.0163507
776.942	0.0163439
777.020	0.0163990
777.098	0.0163574
777.176	0.0164925
777.254	0.0165888
777.332	0.0166140
777.410	0.0165069
777.488	0.0164919
777.567	0.0165863
777.645	0.0166762
777.723	0.0166177
777.801	0.0168182
777.879	0.0168637
777.957	0.0168253
778.035	0.0166641
778.113	0.0166941
778.192	0.0169590
778.270	0.0169273
778.348	0.0167328
778.426	0.0167547
778.504	0.0170390
778.582	0.0168803
778.660	0.0167229
778.738	0.0169056
778.817	0.0167583
778.895	0.0168581
778.973	0.0168785
779.051	0.0169213
779.129	0.0168948
779.207	0.0168577
779.285	0.0170168
779.363	0.0168939
779.442	0.0169793
779.520	0.0171633
779.598	0.0171145
779.676	0.0170511
779.754	0.0170727
779.832	0.0169991
779.910	0.0172016
779.988	0.0171954
780.067	0.0171037
780.145	0.0171555
780.223	0.0169566
780.301	0.0170554
780.379	0.0170068
780.457	0.0170988
780.535	0.0170196
780.613	0.0167616
780.692	0.0168019
780.770	0.0169169
780.848	0.0166808
780.926	0.0167200
781.004	0.0168423
781.082	0.0166693
781.160	0.0168223
781.238	0.0168341
781.317	0.0167352
781.395	0.0167634
781.473	0.0166801
781.551	0.0167754
781.629	0.0166657
781.707	0.0166191
781.785	0.0165839
781.863	0.0167374
781.942	0.0166875
782.020	0.0165454
782.098	0.0165370
782.176	0.0165125
782.254	0.0166446
782.332	0.0165423
782.410	0.0164014
782.488	0.0164655
782.567	0.0163658
782.645	0.0163888
782.723	0.0162866
782.801	0.0163363
782.879	0.0163676
782.957	0.0162624
783.035	0.0163728
783.113	0.0162342
783.192	0.0162952
783.270	0.0162294
783.348	0.0161854
783.426	0.0162045
783.504	0.0163979
783.582	0.0162703
783.660	0.0164268
783.738	0.0165086
783.817	0.0166135
783.895	0.0165241
783.973	0.0167246
784.051	0.0168449
784.129	0.0169160
784.207	0.0167284
784.285	0.0167687
784.363	0.0169954
784.442	0.0169152
784.520	0.0167500
784.598	0.0166035
784.676	0.0166747
784.754	0.0163557
784.832	0.0160184
784.910	0.0158731
784.988	0.0157218
785.067	0.0154811
785.145	0.0153471
785.223	0.0152505
785.301	0.0150713
785.379	0.0150132
785.457	0.0151446
785.535	0.0152379
785.613	0.0151340
785.692	0.0152367
785.770	0.0155385
785.848	0.0158157
785.926	0.0159444
786.004	0.0162768
786.082	0.0167905
786.160	0.0171604
786.238	0.0176419
786.317	0.0180196
786.395	0.0185908
786.473	0.0188710
786.551	0.0191238
786.629	0.0196012
786.707	0.0197742
786.785	0.0198772
786.863	0.0199935
786.942	0.0198751
787.020	0.0198184
787.098	0.0196077
787.176	0.0194660
787.254	0.0191820
787.332	0.0186962
787.410	0.0185132
787.488	0.0179117
787.567	0.0174778
787.645	0.0172561
787.723	0.0167394
787.801	0.0161966
787.879	0.0157227
787.957	0.0152630
788.035	0.0150196
788.113	0.0145322
788.192	0.0143970
788.270	0.0140806
788.348	0.0137071
788.426	0.0137437
788.504	0.0136194
788.582	0.0135950
788.660	0.0136783
788.738	0.0136831
788.817	0.0138145
788.895	0.0139080
788.973	0.0143799
789.051	0.0144114
789.129	0.0146693
789.207	0.0148763
789.285	0.0150850
789.363	0.0154282
789.442	0.0157434
789.520	0.0160847
789.598	0.0163165
789.676	0.0164297
789.754	0.0168974
789.832	0.0170274
789.910	0.0173292
789.988	0.0176131
790.067	0.0178503
790.145	0.0180186
790.223	0.0181191
790.301	0.0182094
790.379	0.0184367
790.457	0.0185848
790.535	0.0186910
790.613	0.0186869
790.692	0.0188302
790.770	0.0187344
790.848	0.0188132
790.926	0.0187463
791.004	0.0189081
791.082	0.0187583
791.160	0.0187066
791.238	0.0185723
791.317	0.0184065
791.395	0.0183139
791.473	0.0181956
791.551	0.0180346
791.629	0.0179686
791.707	0.0177632
791.785	0.0175067
791.863	0.0172881
791.942	0.0171352
792.020	0.0168806
792.098	0.0166877
792.176	0.0164471
792.254	0.0162638
792.332	0.0160706
792.410	0.0157571
792.488	0.0156808
792.567	0.0155693
792.645	0.0155540
792.723	0.0152889
792.801	0.0155313
792.879	0.0153242
792.957	0.0151917
793.035	0.0151842
793.113	0.0153008
793.192	0.0151353
793.270	0.0149239
793.348	0.0150610
793.426	0.0149645
793.504	0.0147719
793.582	0.0148098
793.660	0.0147203
793.738	0.0145911
793.817	0.0146252
793.895	0.0145625
793.973	0.0146805
794.051	0.0147536
794.129	0.0149301
794.207	0.0149810
794.285	0.0150542
794.363	0.0151278
794.442	0.0154194
794.520	0.0156736
794.598	0.0158425
794.676	0.0159461
794.754	0.0161983
794.832	0.0162974
794.910	0.0167080
794.988	0.0169073
795.067	0.0169215
795.145	0.0170563
795.223	0.0173022
795.301	0.0174933
795.379	0.0173936
795.457	0.0176535
795.535	0.0175586
795.613	0.0176997
795.692	0.0176817
795.770	0.0178558
795.848	0.0178764
795.926	0.0179282
796.004	0.0179468
796.082	0.0178891
796.160	0.0181023
796.238	0.0180716
796.317	0.0180335
796.395	0.0182430
796.473	0.0182214
796.551	0.0183965
796.629	0.0183298
796.707	0.0181606
796.785	0.0182328
796.863	0.0184569
796.942	0.0183875
797.020	0.0184048
797.098	0.0183318
797.176	0.0180933
797.254	0.0178800
797.332	0.0178976
797.410	0.0178119
797.488	0.0177264
797.567	0.0175051
797.645	0.0174345
797.723	0.0172645
797.801	0.0171125
797.879	0.0170113
797.957	0.0171355
798.035	0.0167875
798.113	0.0166084
798.192	0.0167716
798.270	0.0164575
798.348	0.0164058
798.426	0.0163548
798.504	0.0162821
798.582	0.0158764
798.660	0.0158952
798.738	0.0159193
798.817	0.0157281
798.895	0.0154942
798.973	0.0155012
799.051	0.0153868
799.129	0.0155173
799.207	0.0154574
799.285	0.0153542
799.363	0.0151767
799.442	0.0153104
799.520	0.0152204
799.598	0.0153561
799.676	0.0154085
799.754	0.0154031
799.832	0.0153220
799.910	0.0153230
799.988	0.0155656
800.067	0.0153496
800.145	0.0153409
800.223	0.0155794
800.301	0.0155305
800.379	0.0155365
800.457	0.0154095
800.535	0.0155619
800.613	0.0155494
800.692	0.0154610
800.770	0.0155894
800.848	0.0155934
800.926	0.0154899
801.004	0.0157315
801.082	0.0158537
801.160	0.0159024
801.238	0.0158679
801.317	0.0160218
801.395	0.0162148
801.473	0.0163104
801.551	0.0162933
801.629	0.0165079
801.707	0.0167139
801.785	0.0167238
801.863	0.0169802
801.942	0.0169684
802.020	0.0170982
802.098	0.0172311
802.176	0.0174057
802.254	0.0175782
802.332	0.0177186
802.410	0.0177848
802.488	0.0178311
802.567	0.0180560
802.645	0.0179216
802.723	0.0179758
802.801	0.0182305
802.879	0.0180708
802.957	0.0180930
803.035	0.0182524
803.113	0.0179213
803.192	0.0177653
803.270	0.0178903
803.348	0.0178909
803.426	0.0176064
803.504	0.0178011
803.582	0.0176261
803.660	0.0174215
803.738	0.0173209
803.817	0.0171260
803.895	0.0172205
803.973	0.0170647
804.051	0.0169008
804.129	0.0168585
804.207	0.0169034
804.285	0.0169051
804.363	0.0167548
804.442	0.0166770
804.520	0.0166075
804.598	0.0166196
804.676	0.0166096
804.754	0.0166106
804.832	0.0165131
804.910	0.0162894
804.988	0.0163655
805.067	0.0165045
805.145	0.0164862
805.223	0.0163939
805.301	0.0163334
805.379	0.0163815
805.457	0.0164354
805.535	0.0164242
805.613	0.0162773
805.692	0.0163049
805.770	0.0163464
805.848	0.0164527
805.926	0.0162578
806.004	0.0162736
806.082	0.0163132
806.160	0.0163516
806.238	0.0163332
806.317	0.0163555
806.395	0.0163311
806.473	0.0163671
806.551	0.0164660
806.629	0.0163113
806.707	0.0163721
806.785	0.0166029
806.863	0.0164027
806.942	0.0164310
807.020	0.0164472
807.098	0.0165189
807.176	0.0164944
807.254	0.0164060
807.332	0.0165259
807.410	0.0163882
807.488	0.0163365
807.567	0.0164721
807.645	0.0164697
807.723	0.0162983
807.801	0.0163290
807.879	0.0162946
807.957	0.0162213
808.035	0.0162035
808.113	0.0161846
808.192	0.0161510
808.270	0.0161671
808.348	0.0160973
808.426	0.0160612
808.504	0.0160126
808.582	0.0158115
808.660	0.0158395
808.738	0.0158106
808.817	0.0158288
808.895	0.0157513
808.973	0.0158201
809.051	0.0159227
809.129	0.0157767
809.207	0.0160403
809.285	0.0160070
809.363	0.0160619
809.442	0.0161770
809.520	0.0162211
809.598	0.0163936
809.676	0.0167145
809.754	0.0167966
809.832	0.0167760
809.910	0.0169675
809.988	0.0168724
810.067	0.0170477
810.145	0.0170724
810.223	0.0169578
810.301	0.0172011
810.379	0.0171288
810.457	0.0172352
810.535	0.0171691
810.613	0.0170739
810.692	0.0172099
810.770	0.0172036
810.848	0.0170259
810.926	0.0170164
811.004	0.0171107
811.082	0.0172320
811.160	0.0172259
811.238	0.0171168
811.317	0.0171239
811.395	0.0171718
811.473	0.0172498
811.551	0.0173940
811.629	0.0173540
811.707	0.0174504
811.785	0.0173129
811.863	0.0175087
811.942	0.0174713
812.020	0.0173996
812.098	0.0173961
812.176	0.0174437
812.254	0.0174551
812.332	0.0173856
812.410	0.0173389
812.488	0.0173232
812.567	0.0172327
812.645	0.0170477
812.723	0.0169804
812.801	0.0169043
812.879	0.0167616
812.957	0.0165502
813.035	0.0165923
813.113	0.0163953
813.192	0.0162941
813.270	0.0162746
813.348	0.0160921
813.426	0.0160796
813.504	0.0159544
813.582	0.0160370
813.660	0.0161063
813.738	0.0161977
813.817	0.0163374
813.895	0.0162796
813.973	0.0164143
814.051	0.0164919
814.129	0.0164979
814.207	0.0165036
814.285	0.0168387
814.363	0.0166766
814.442	0.0166713
814.520	0.0168266
814.598	0.0167504
814.676	0.0167625
814.754	0.0168250
814.832	0.0165939
814.910	0.0165481
814.988	0.0163992
815.067	0.0163638
815.145	0.0162753
815.223	0.0160620
815.301	0.0160383
815.379	0.0159640
815.457	0.0158811
815.535	0.0156982
815.613	0.0157249
815.692	0.0158279
815.770	0.0158477
815.848	0.0159016
815.926	0.0158649
816.004	0.0160480
816.082	0.0161522
816.160	0.0163110
816.238	0.0162594
816.317	0.0162766
816.395	0.0165399
816.473	0.0165807
816.551	0.0167033
816.629	0.0166718
816.707	0.0168175
816.785	0.0167337
816.863	0.0166685
816.942	0.0167508
817.020	0.0168037
817.098	0.0168661
817.176	0.0168636
817.254	0.0167690
817.332	0.0168564
817.410	0.0168336
817.488	0.0166766
817.567	0.0167577
817.645	0.0168171
817.723	0.0166579
817.801	0.0166677
817.879	0.0167519
817.957	0.0167308
818.035	0.0165521
818.113	0.0166038
818.192	0.0166639
818.270	0.0165900
818.348	0.0164122
818.426	0.0164518
818.504	0.0165811
818.582	0.0164962
818.660	0.0164144
818.738	0.0165365
818.817	0.0163789
818.895	0.0165137
818.973	0.0166206
819.051	0.0165761
819.129	0.0166924
819.207	0.0167007
819.285	0.0167178
819.363	0.0168678
819.442	0.0169078
819.520	0.0169978
819.598	0.0171106
819.676	0.0172249
819.754	0.0172656
819.832	0.0172111
819.910	0.0174926
819.988	0.0175081
820.067	0.0174348
820.145	0.0175237
820.223	0.0175834
820.301	0.0175372
820.379	0.0175461
820.457	0.0174738
820.535	0.0173613
820.613	0.0172936
820.692	0.0172649
820.770	0.0171827
820.848	0.0170787
820.926	0.0169946
821.004	0.0169540
821.082	0.0167941
821.160	0.0169435
821.238	0.0167190
821.317	0.0166468
821.395	0.0166939
821.473	0.0166371
821.551	0.0165359
821.629	0.0166091
821.707	0.0165939
821.785	0.0166224
821.863	0.0165037
821.942	0.0164875
822.020	0.0165366
822.098	0.0166210
822.176	0.0165503
822.254	0.0166293
822.332	0.0164777
822.410	0.0165102
822.488	0.0165785
822.567	0.0164369
822.645	0.0165051
822.723	0.0166644
822.801	0.0165511
822.879	0.0165605
822.957	0.0164596
823.035	0.0165086
823.113	0.0166400
823.192	0.0165739
823.270	0.0165327
823.348	0.0164946
823.426	0.0165995
823.504	0.0164883
823.582	0.0162835
823.660	0.0163109
823.738	0.0163811
823.817	0.0161861
823.895	0.0162067
823.973	0.0159275
824.051	0.0158099
824.129	0.0160601
824.207	0.0158353
824.285	0.0157722
824.363	0.0159588
824.442	0.0160229
824.520	0.0157728
824.598	0.0158771
824.676	0.0158788
824.754	0.0159039
824.832	0.0160852
824.910	0.0159116
824.988	0.0160034
825.067	0.0161534
825.145	0.0163094
825.223	0.0165374
825.301	0.0164706
825.379	0.0165775
825.457	0.0166994
825.535	0.0167232
825.613	0.0167567
825.692	0.0168115
825.770	0.0167843
825.848	0.0169258
825.926	0.0168314
826.004	0.0168333
826.082	0.0169340
826.160	0.0169315
826.238	0.0169580
826.317	0.0169019
826.395	0.0169167
826.473	0.0170238
826.551	0.0169779
826.629	0.0169775
826.707	0.0170336
826.785	0.0172118
826.863	0.0172390
826.942	0.0170621
827.020	0.0172317
827.098	0.0172079
827.176	0.0173615
827.254	0.0173587
827.332	0.0172493
827.410	0.0173643
827.488	0.0173897
827.567	0.0173801
827.645	0.0173894
827.723	0.0174513
827.801	0.0174637
827.879	0.0175945
827.957	0.0174209
828.035	0.0175709
828.113	0.0173028
828.192	0.0173802
828.270	0.0174165
828.348	0.0171834
828.426	0.0171426
828.504	0.0171584
828.582	0.0169168
828.660	0.0168585
828.738	0.0168566
828.817	0.0168633
828.895	0.0167014
828.973	0.0165704
829.051	0.0165096
829.129	0.0165308
829.207	0.0163332
829.285	0.0162791
829.363	0.0162005
829.442	0.0163606
829.520	0.0163393
829.598	0.0162444
829.676	0.0160615
829.754	0.0162368
829.832	0.0161196
829.910	0.0161913
829.988	0.0160387
830.067	0.0160905
830.145	0.0161940
830.223	0.0160827
830.301	0.0161755
830.379	0.0162103
830.457	0.0160128
830.535	0.0161668
830.613	0.0161736
830.692	0.0161578
830.770	0.0162493
830.848	0.0162587
830.926	0.0161782
831.004	0.0161941
831.082	0.0162808
831.160	0.0162339
831.238	0.0161958
831.317	0.0161728
831.395	0.0162845
831.473	0.0163169
831.551	0.0163797
831.629	0.0161787
831.707	0.0163372
831.785	0.0164407
831.863	0.0164423
831.942	0.0166374
832.020	0.0166637
832.098	0.0165697
832.176	0.0167481
832.254	0.0168652
832.332	0.0169868
832.410	0.0169145
832.488	0.0168779
832.567	0.0170696
832.645	0.0171773
832.723	0.0170472
832.801	0.0169778
832.879	0.0169760
832.957	0.0170526
833.035	0.0170213
833.113	0.0169886
833.192	0.0169852
833.270	0.0168189
833.348	0.0169475
833.426	0.0169963
833.504	0.0167463
833.582	0.0167261
833.660	0.0167653
833.738	0.0168227
833.817	0.0168162
833.895	0.0166917
833.973	0.0167735
834.051	0.0168006
834.129	0.0166164
834.207	0.0166895
834.285	0.0164809
834.363	0.0166763
834.442	0.0168730
834.520	0.0166800
834.598	0.0165799
834.676	0.0165327
834.754	0.0166672
834.832	0.0165458
834.910	0.0165508
834.988	0.0165951
835.067	0.0162981
835.145	0.0164838
835.223	0.0165701
835.301	0.0165206
835.379	0.0165633
835.457	0.0165919
835.535	0.0164973
835.613	0.0166235
835.692	0.0167139
835.770	0.0166695
835.848	0.0167062
835.926	0.0167354
836.004	0.0166763
836.082	0.0168357
836.160	0.0168089
836.238	0.0169083
836.317	0.0169256
836.395	0.0170030
836.473	0.0169438
836.551	0.0169519
836.629	0.0169808
836.707	0.0168687
836.785	0.0168957
836.863	0.0170573
836.942	0.0168483
837.020	0.0169791
837.098	0.0169238
837.176	0.0168534
837.254	0.0168662
837.332	0.0169604
837.410	0.0167978
837.488	0.0168266
837.567	0.0168876
837.645	0.0168014
837.723	0.0168336
837.801	0.0167362
837.879	0.0168015
837.957	0.0167174
838.035	0.0167062
838.113	0.0168435
838.192	0.0168410
838.270	0.0166782
838.348	0.0166473
838.426	0.0167011
838.504	0.0167243
838.582	0.0167384
838.660	0.0167065
838.738	0.0166916
838.817	0.0168410
838.895	0.0167208
838.973	0.0167356
839.051	0.0168079
839.129	0.0168241
839.207	0.0166989
839.285	0.0165419
839.363	0.0165900
839.442	0.0166620
839.520	0.0165707
839.598	0.0165034
839.676	0.0165685
839.754	0.0165819
839.832	0.0164169
839.910	0.0162929
839.988	0.0162908
840.067	0.0164156
840.145	0.0162485
840.223	0.0161980
840.301	0.0162418
840.379	0.0162696
840.457	0.0161153
840.535	0.0161507
840.613	0.0164005
840.692	0.0162782
840.770	0.0164053
840.848	0.0162953
840.926	0.0164520
841.004	0.0164642
841.082	0.0162579
841.160	0.0163773
841.238	0.0165632
841.317	0.0165456
841.395	0.0163954
841.473	0.0164413
841.551	0.0165408
841.629	0.0163829
841.707	0.0164739
841.785	0.0164500
841.863	0.0164905
841.942	0.0165072
842.020	0.0163187
842.098	0.0163813
842.176	0.0165891
842.254	0.0164155
842.332	0.0164568
842.410	0.0165133
842.488	0.0164439
842.567	0.0166465
842.645	0.0166956
842.723	0.0165396
842.801	0.0168349
842.879	0.0167400
842.957	0.0167741
843.035	0.0166682
843.113	0.0168291
843.192	0.0170630
843.270	0.0170538
843.348	0.0169398
843.426	0.0169781
843.504	0.0169868
843.582	0.0170656
843.660	0.0171395
843.738	0.0170650
843.817	0.0171647
843.895	0.0171007
843.973	0.0171525
844.051	0.0171899
844.129	0.0171915
844.207	0.0171426
844.285	0.0171636
844.363	0.0171233
844.442	0.0172082
844.520	0.0171453
844.598	0.0171060
844.676	0.0170776
844.754	0.0169377
844.832	0.0169640
844.910	0.0168471
844.988	0.0168295
845.067	0.0168029
845.145	0.0169611
845.223	0.0168014
845.301	0.0168465
845.379	0.0166812
845.457	0.0166755
845.535	0.0167336
845.613	0.0166593
845.692	0.0164941
845.770	0.0165357
845.848	0.0165646
845.926	0.0165009
846.004	0.0166273
846.082	0.0166119
846.160	0.0165403
846.238	0.0164645
846.317	0.0164433
846.395	0.0164072
846.473	0.0164816
846.551	0.0163004
846.629	0.0165132
846.707	0.0164700
846.785	0.0163907
846.863	0.0162842
846.942	0.0163797
847.020	0.0163715
847.098	0.0163273
847.176	0.0163869
847.254	0.0163605
847.332	0.0163945
847.410	0.0165258
847.488	0.0163394
847.567	0.0164390
847.645	0.0164282
847.723	0.0163078
847.801	0.0163232
847.879	0.0164972
847.957	0.0163421
848.035	0.0163047
848.113	0.0164357
848.192	0.0163097
848.270	0.0163052
848.348	0.0163077
848.426	0.0162088
848.504	0.0162733
848.582	0.0163331
848.660	0.0163464
848.738	0.0165006
848.817	0.0164235
848.895	0.0163766
848.973	0.0165743
849.051	0.0165202
849.129	0.0166274
849.207	0.0166381
849.285	0.0168821
849.363	0.0168669
849.442	0.0168675
849.520	0.0168364
849.598	0.0170467
849.676	0.0171468
849.754	0.0171094
849.832	0.0170569
849.910	0.0169570
849.988	0.0169692
850.067	0.0170709
850.145	0.0170522
850.223	0.0170497
850.301	0.0168269
850.379	0.0169340
850.457	0.0170219
850.535	0.0168896
850.613	0.0168317
850.692	0.0169178
850.770	0.0169331
850.848	0.0167397
850.926	0.0168768
851.004	0.0168216
851.082	0.0167844
851.160	0.0167795
851.238	0.0166192
851.317	0.0165383
851.395	0.0166364
851.473	0.0166260
851.551	0.0165832
851.629	0.0165171
851.707	0.0166032
851.785	0.0164904
851.863	0.0165134
851.942	0.0164796
852.020	0.0163960
852.098	0.0163173
852.176	0.0163464
852.254	0.0164694
852.332	0.0164500
852.410	0.0164672
852.488	0.0163905
852.567	0.0164115
852.645	0.0164771
852.723	0.0164520
852.801	0.0165217
852.879	0.0165403
852.957	0.0165257
853.035	0.0166116
853.113	0.0166394
853.192	0.0166287
853.270	0.0166225
853.348	0.0167265
853.426	0.0166390
853.504	0.0167049
853.582	0.0167825
853.660	0.0166733
853.738	0.0167166
853.817	0.0167905
853.895	0.0167344
853.973	0.0167892
854.051	0.0166824
854.129	0.0167724
854.207	0.0167936
854.285	0.0168761
854.363	0.0167377
854.442	0.0167839
854.520	0.0168008
854.598	0.0166960
854.676	0.0166641
854.754	0.0167193
854.832	0.0165809
854.910	0.0165498
854.988	0.0165685
855.067	0.0165584
855.145	0.0165688
855.223	0.0165244
855.301	0.0166336
855.379	0.0165897
855.457	0.0164701
855.535	0.0165385
855.613	0.0165403
855.692	0.0165632
855.770	0.0166380
855.848	0.0165073
855.926	0.0165568
856.004	0.0166212
856.082	0.0165152
856.160	0.0164274
856.238	0.0165666
856.317	0.0166398
856.395	0.0165794
856.473	0.0165127
856.551	0.0166145
856.629	0.0165770
856.707	0.0166819
856.785	0.0167412
856.863	0.0166977
856.942	0.0166156
857.020	0.0164874
857.098	0.0165963
857.176	0.0165128
857.254	0.0165359
857.332	0.0166322
857.410	0.0165800
857.488	0.0165544
857.567	0.0166150
857.645	0.0165427
857.723	0.0165925
857.801	0.0166307
857.879	0.0165864
857.957	0.0166669
858.035	0.0167029
858.113	0.0166513
858.192	0.0167074
858.270	0.0166087
858.348	0.0167616
858.426	0.0166753
858.504	0.0165717
858.582	0.0164995
858.660	0.0165207
858.738	0.0165189
858.817	0.0165723
858.895	0.0165536
858.973	0.0163466
859.051	0.0163094
859.129	0.0163271
859.207	0.0164745
859.285	0.0162821
859.363	0.0163831
859.442	0.0163818
859.520	0.0163004
859.598	0.0165073
859.676	0.0164465
859.754	0.0163859
859.832	0.0163802
859.910	0.0166236
859.988	0.0167095
860.067	0.0167616
860.145	0.0167040
860.223	0.0167691
860.301	0.0167980
860.379	0.0168520
860.457	0.0167950
860.535	0.0169614
860.613	0.0170303
860.692	0.0169697
860.770	0.0170052
860.848	0.0171549
860.926	0.0170943
861.004	0.0170557
861.082	0.0170850
861.160	0.0169720
861.238	0.0170322
861.317	0.0170489
861.395	0.0169875
861.473	0.0168195
861.551	0.0168636
861.629	0.0168352
861.707	0.0167235
861.785	0.0167176
861.863	0.0168221
861.942	0.0167651
862.020	0.0168089
862.098	0.0167603
862.176	0.0166582
862.254	0.0166534
862.332	0.0165403
862.410	0.0165981
862.488	0.0165229
862.567	0.0166310
862.645	0.0165131
862.723	0.0164958
862.801	0.0163234
862.879	0.0165693
862.957	0.0165285
863.035	0.0164393
863.113	0.0165882
863.192	0.0165082
863.270	0.0164625
863.348	0.0166060
863.426	0.0165437
863.504	0.0165453
863.582	0.0165593
863.660	0.0166349
863.738	0.0165558
863.817	0.0165813
863.895	0.0164366
863.973	0.0163221
864.051	0.0164064
864.129	0.0163733
864.207	0.0163551
864.285	0.0163268
864.363	0.0163273
864.442	0.0163334
864.520	0.0163875
864.598	0.0163663
864.676	0.0165763
864.754	0.0165157
864.832	0.0165487
864.910	0.0166518
864.988	0.0165703
865.067	0.0166128
865.145	0.0166283
865.223	0.0165072
865.301	0.0164896
865.379	0.0164836
865.457	0.0165356
865.535	0.0164582
865.613	0.0163940
865.692	0.0164284
865.770	0.0164825
865.848	0.0164477
865.926	0.0163977
866.004	0.0165575
866.082	0.0164893
866.160	0.0166630
866.238	0.0166695
866.317	0.0167211
866.395	0.0167047
866.473	0.0168870
866.551	0.0168298
866.629	0.0167941
866.707	0.0167367
866.785	0.0168047
866.863	0.0167722
866.942	0.0167027
867.020	0.0166309
867.098	0.0167341
867.176	0.0166596
867.254	0.0167464
867.332	0.0165927
867.410	0.0166831
867.488	0.0166084
867.567	0.0166598
867.645	0.0167857
867.723	0.0168148
867.801	0.0169249
867.879	0.0168906
867.957	0.0169357
868.035	0.0170290
868.113	0.0167716
868.192	0.0167757
868.270	0.0169926
868.348	0.0169035
868.426	0.0168096
868.504	0.0167616
868.582	0.0168182
868.660	0.0167269
868.738	0.0168134
868.817	0.0167745
868.895	0.0165947
868.973	0.0167081
869.051	0.0166552
869.129	0.0166138
869.207	0.0166527
869.285	0.0165034
869.363	0.0164537
869.442	0.0165363
869.520	0.0167161
869.598	0.0166425
869.676	0.0165163
869.754	0.0166071
869.832	0.0165243
869.910	0.0165009
869.988	0.0166839
870.067	0.0165352
870.145	0.0163113
870.223	0.0166120
870.301	0.0166199
870.379	0.0165525
870.457	0.0166949
870.535	0.0164948
870.613	0.0166712
870.692	0.0167262
870.770	0.0166412
870.848	0.0167027
870.926	0.0166354
871.004	0.0167184
871.082	0.0167470
871.160	0.0167734
871.238	0.0167501
871.317	0.0167522
871.395	0.0166248
871.473	0.0167996
871.551	0.0166595
871.629	0.0166801
871.707	0.0165726
871.785	0.0165076
871.863	0.0166911
871.942	0.0165818
872.020	0.0164467
872.098	0.0166009
872.176	0.0166575
872.254	0.0165371
872.332	0.0165717
872.410	0.0166284
872.488	0.0164725
872.567	0.0165562
872.645	0.0166251
872.723	0.0165164
872.801	0.0166334
872.879	0.0167372
872.957	0.0167199
873.035	0.0167834
873.113	0.0167612
873.192	0.0165302
873.270	0.0166870
873.348	0.0166345
873.426	0.0166205
873.504	0.0167171
873.582	0.0164843
873.660	0.0164327
873.738	0.0165681
873.817	0.0165555
873.895	0.0164801
873.973	0.0163789
874.051	0.0165658
874.129	0.0164664
874.207	0.0163409
874.285	0.0163942
874.363	0.0165156
874.442	0.0165372
874.520	0.0164858
874.598	0.0164471
874.676	0.0165141
874.754	0.0165646
874.832	0.0164005
874.910	0.0164921
874.988	0.0164622
875.067	0.0164520
875.145	0.0165874
875.223	0.0164222
875.301	0.0166003
875.379	0.0166716
875.457	0.0164067
875.535	0.0164585
875.613	0.0164047
875.692	0.0165150
875.770	0.0164974
875.848	0.0164961
875.926	0.0167156
876.004	0.0166391
876.082	0.0167512
876.160	0.0167198
876.238	0.0166921
876.317	0.0166594
876.395	0.0168244
876.473	0.0169401
876.551	0.0169621
876.629	0.0169327
876.707	0.0167243
876.785	0.0169634
876.863	0.0170266
876.942	0.0169520
877.020	0.0171110
877.098	0.0169121
877.176	0.0170136
877.254	0.0170767
877.332	0.0168087
877.410	0.0170490
877.488	0.0169438
877.567	0.0169514
877.645	0.0169328
877.723	0.0169831
877.801	0.0167632
877.879	0.0166640
877.957	0.0167017
878.035	0.0166686
878.113	0.0167555
878.192	0.0164977
878.270	0.0165852
878.348	0.0165109
878.426	0.0166212
878.504	0.0163792
878.582	0.0163075
878.660	0.0165564
878.738	0.0164669
878.817	0.0163190
878.895	0.0164011
878.973	0.0164424
879.051	0.0164767
879.129	0.0167278
879.207	0.0168038
879.285	0.0170097
879.363	0.0171375
879.442	0.0171948
879.520	0.0171572
879.598	0.0170100
879.676	0.0170522
879.754	0.0171538
879.832	0.0167435
879.910	0.0165684
879.988	0.0162438
880.067	0.0158406
880.145	0.0156087
880.223	0.0152290
880.301	0.0148219
880.379	0.0147675
880.457	0.0147372
880.535	0.0148064
880.613	0.0149501
880.692	0.0151569
880.770	0.0154432
880.848	0.0158309
880.926	0.0163818
881.004	0.0169547
881.082	0.0172279
881.160	0.0178378
881.238	0.0181278
881.317	0.0183980
881.395	0.0188327
881.473	0.0190754
881.551	0.0192348
881.629	0.0190868
881.707	0.0191954
881.785	0.0188929
881.863	0.0187334
881.942	0.0183401
882.020	0.0181737
882.098	0.0178411
882.176	0.0172002
882.254	0.0168209
882.332	0.0164556
882.410	0.0160400
882.488	0.0154691
882.567	0.0150616
882.645	0.0148010
882.723	0.0143428
882.801	0.0141430
882.879	0.0141804
882.957	0.0141808
883.035	0.0141599
883.113	0.0140314
883.192	0.0141153
883.270	0.0143296
883.348	0.0145200
883.426	0.0148049
883.504	0.0149934
883.582	0.0152948
883.660	0.0156784
883.738	0.0160056
883.817	0.0162160
883.895	0.0164761
883.973	0.0168400
884.051	0.0172652
884.129	0.0174303
884.207	0.0177923
884.285	0.0180346
884.363	0.0180679
884.442	0.0182487
884.520	0.0183718
884.598	0.0184459
884.676	0.0183724
884.754	0.0183012
884.832	0.0183608
884.910	0.0181937
884.988	0.0179384
885.067	0.0177011
885.145	0.0175664
885.223	0.0175940
885.301	0.0172742
885.379	0.0171125
885.457	0.0169066
885.535	0.0167827
885.613	0.0167219
885.692	0.0166604
885.770	0.0166151
885.848	0.0165662
885.926	0.0164744
886.004	0.0163823
886.082	0.0163648
886.160	0.0163567
886.238	0.0162876
886.317	0.0165242
886.395	0.0164700
886.473	0.0164713
886.551	0.0166260
886.629	0.0165789
886.707	0.0166360
886.785	0.0167406
886.863	0.0167200
886.942	0.0167644
887.020	0.0166740
887.098	0.0165116
887.176	0.0164801
887.254	0.0163255
887.332	0.0164446
887.410	0.0163127
887.488	0.0163000
887.567	0.0162095
887.645	0.0161195
887.723	0.0159894
887.801	0.0161340
887.879	0.0160613
887.957	0.0161871
888.035	0.0160236
888.113	0.0161543
888.192	0.0160980
888.270	0.0162482
888.348	0.0163802
888.426	0.0164449
888.504	0.0163870
888.582	0.0164610
888.660	0.0164510
888.738	0.0166064
888.817	0.0167562
888.895	0.0166002
888.973	0.0166315
889.051	0.0167349
889.129	0.0167445
889.207	0.0167967
889.285	0.0167855
889.363	0.0169639
889.442	0.0168900
889.520	0.0168583
889.598	0.0167216
889.676	0.0168322
889.754	0.0168731
889.832	0.0168085
889.910	0.0169138
889.988	0.0168539
890.067	0.0169402
890.145	0.0168731
890.223	0.0168539
890.301	0.0168954
890.379	0.0167558
890.457	0.0167551
890.535	0.0168631
890.613	0.0165945
890.692	0.0167499
890.770	0.0166633
890.848	0.0165820
890.926	0.0165073
891.004	0.0163898
891.082	0.0163219
891.160	0.0164190
891.238	0.0162376
891.317	0.0161604
891.395	0.0160965
891.473	0.0161761
891.551	0.0162109
891.629	0.0160904
891.707	0.0161150
891.785	0.0162118
891.863	0.0162753
891.942	0.0162703
892.020	0.0162479
892.098	0.0164286
892.176	0.0165162
892.254	0.0164210
892.332	0.0164490
892.410	0.0165191
892.488	0.0166625
892.567	0.0166751
892.645	0.0165358
892.723	0.0165805
892.801	0.0166058
892.879	0.0165751
892.957	0.0166161
893.035	0.0166512
893.113	0.0165388
893.192	0.0166302
893.270	0.0165260
893.348	0.0165142
893.426	0.0165838
893.504	0.0164870
893.582	0.0165772
893.660	0.0167352
893.738	0.0167384
893.817	0.0167857
893.895	0.0168739
893.973	0.0169523
894.051	0.0169661
894.129	0.0170224
894.207	0.0172391
894.285	0.0173656
894.363	0.0173129
894.442	0.0173355
894.520	0.0172790
894.598	0.0173608
894.676	0.0175534
894.754	0.0173689
894.832	0.0175256
894.910	0.0174172
894.988	0.0174176
895.067	0.0173500
895.145	0.0172808
895.223	0.0170391
895.301	0.0170078
895.379	0.0168950
895.457	0.0168176
895.535	0.0168615
895.613	0.0166257
895.692	0.0164837
895.770	0.0165553
895.848	0.0165427
895.926	0.0164872
896.004	0.0164314
896.082	0.0162476
896.160	0.0164182
896.238	0.0164117
896.317	0.0164030
896.395	0.0163728
896.473	0.0164076
896.551	0.0166400
896.629	0.0165102
896.707	0.0165162
896.785	0.0166370
896.863	0.0165977
896.942	0.0166322
897.020	0.0165710
897.098	0.0166196
897.176	0.0165636
897.254	0.0165675
897.332	0.0166991
897.410	0.0164172
897.488	0.0165505
897.567	0.0165522
897.645	0.0164584
897.723	0.0164015
897.801	0.0163541
897.879	0.0162106
897.957	0.0161383
898.035	0.0161711
898.113	0.0158620
898.192	0.0158026
898.270	0.0156527
898.348	0.0157018
898.426	0.0156625
898.504	0.0156523
898.582	0.0156107
898.660	0.0154378
898.738	0.0154659
898.817	0.0153004
898.895	0.0153555
898.973	0.0155546
899.051	0.0155821
899.129	0.0154498
899.207	0.0156837
899.285	0.0157614
899.363	0.0159666
899.442	0.0161626
899.520	0.0164404
899.598	0.0165497
899.676	0.0168715
899.754	0.0170293
899.832	0.0172195
899.910	0.0172565
899.988	0.0176284
900.067	0.0178004
900.145	0.0177589
900.223	0.0179452
900.301	0.0180360
900.379	0.0180849
900.457	0.0180779
900.535	0.0179497
900.613	0.0180050
900.692	0.0179238
900.770	0.0177039
900.848	0.0176858
900.926	0.0175619
901.004	0.0174339
901.082	0.0174083
901.160	0.0172237
901.238	0.0170985
901.317	0.0171478
901.395	0.0168922
901.473	0.0168687
901.551	0.0168915
901.629	0.0169669
901.707	0.0167624
901.785	0.0167700
901.863	0.0168147
901.942	0.0169344
902.020	0.0167207
902.098	0.0167319
902.176	0.0167391
902.254	0.0167506
902.332	0.0166734
902.410	0.0168541
902.488	0.0167572
902.567	0.0166299
902.645	0.0166177
902.723	0.0164690
902.801	0.0164951
902.879	0.0163951
902.957	0.0162777
903.035	0.0164030
903.113	0.0164090
903.192	0.0162559
903.270	0.0160764
903.348	0.0162609
903.426	0.0161397
903.504	0.0159429
903.582	0.0161525
903.660	0.0161076
903.738	0.0162320
903.817	0.0160208
903.895	0.0163825
903.973	0.0161633
904.051	0.0162592
904.129	0.0161946
904.207	0.0162314
904.285	0.0162926
904.363	0.0164484
904.442	0.0162683
904.520	0.0161636
904.598	0.0164046
904.676	0.0165029
904.754	0.0163773
904.832	0.0163294
904.910	0.0162179
904.988	0.0161751
905.067	0.0163245
905.145	0.0163948
905.223	0.0162453
905.301	0.0162677
905.379	0.0163758
905.457	0.0163171
905.535	0.0164017
905.613	0.0162394
905.692	0.0161913
905.770	0.0164215
905.848	0.0163460
905.926	0.0162964
906.004	0.0162527
906.082	0.0163816
906.160	0.0163892
906.238	0.0164561
906.317	0.0164664
906.395	0.0164745
906.473	0.0165208
906.551	0.0164673
906.629	0.0167434
906.707	0.0167234
906.785	0.0166170
906.863	0.0167470
906.942	0.0168611
907.020	0.0167253
907.098	0.0170113
907.176	0.0168743
907.254	0.0168461
907.332	0.0169187
907.410	0.0169057
907.488	0.0169911
907.567	0.0168159
907.645	0.0169165
907.723	0.0167798
907.801	0.0167109
907.879	0.0167078
907.957	0.0167693
908.035	0.0167347
908.113	0.0168537
908.192	0.0167725
908.270	0.0168745
908.348	0.0166843
908.426	0.0166772
908.504	0.0168245
908.582	0.0168722
908.660	0.0169911
908.738	0.0169141
908.817	0.0170412
908.895	0.0169956
908.973	0.0169026
909.051	0.0169870
909.129	0.0170032
909.207	0.0169553
909.285	0.0169080
909.363	0.0169032
909.442	0.0169134
909.520	0.0168180
909.598	0.0167968
909.676	0.0167994
909.754	0.0167921
909.832	0.0168591
909.910	0.0167641
909.988	0.0166600
910.067	0.0167376
910.145	0.0166249
910.223	0.0166891
910.301	0.0167628
910.379	0.0166502
910.457	0.0166501
910.535	0.0168065
910.613	0.0165938
910.692	0.0165567
910.770	0.0165103
910.848	0.0166237
910.926	0.0165836
911.004	0.0163882
911.082	0.0164851
911.160	0.0164215
911.238	0.0163618
911.317	0.0163834
911.395	0.0163387
911.473	0.0163350
911.551	0.0164735
911.629	0.0164419
911.707	0.0165122
911.785	0.0164549
911.863	0.0165856
911.942	0.0167496
912.020	0.0166151
912.098	0.0167313
912.176	0.0165892
912.254	0.0167046
912.332	0.0167415
912.410	0.0168106
912.488	0.0167250
912.567	0.0168558
912.645	0.0167601
912.723	0.0166182
912.801	0.0167152
912.879	0.0167749
912.957	0.0166254
913.035	0.0167790
913.113	0.0166821
913.192	0.0167300
913.270	0.0168243
913.348	0.0165743
913.426	0.0164739
913.504	0.0165144
913.582	0.0164951
913.660	0.0165250
913.738	0.0164084
913.817	0.0163888
913.895	0.0162331
913.973	0.0162148
914.051	0.0162376
914.129	0.0161281
914.207	0.0162775
914.285	0.0162590
914.363	0.0162681
914.442	0.0161633
914.520	0.0162524
914.598	0.0162823
914.676	0.0162516
914.754	0.0163290
914.832	0.0161470
914.910	0.0161891
914.988	0.0161708
915.067	0.0161295
915.145	0.0161356
915.223	0.0161584
915.301	0.0162740
915.379	0.0162730
915.457	0.0163028
915.535	0.0163222
915.613	0.0161698
915.692	0.0162437
915.770	0.0162279
915.848	0.0162140
915.926	0.0163833
916.004	0.0163968
916.082	0.0164024
916.160	0.0164582
916.238	0.0164185
916.317	0.0165150
916.395	0.0164116
916.473	0.0164530
916.551	0.0166226
916.629	0.0166159
916.707	0.0168395
916.785	0.0168273
916.863	0.0169572
916.942	0.0170256
917.020	0.0172067
917.098	0.0173011
917.176	0.0174986
917.254	0.0175661
917.332	0.0175662
917.410	0.0174878
917.488	0.0178387
917.567	0.0176347
917.645	0.0176667
917.723	0.0176838
917.801	0.0177809
917.879	0.0177152
917.957	0.0176829
918.035	0.0177419
918.113	0.0175240
918.192	0.0174388
918.270	0.0172098
918.348	0.0172202
918.426	0.0172385
918.504	0.0170916
918.582	0.0169138
918.660	0.0168927
918.738	0.0167101
918.817	0.0168102
918.895	0.0166966
918.973	0.0166482
919.051	0.0167044
919.129	0.0166699
919.207	0.0164063
919.285	0.0164191
919.363	0.0164706
919.442	0.0163897
919.520	0.0164587
919.598	0.0163705
919.676	0.0162379
919.754	0.0163225
919.832	0.0162980
919.910	0.0162807
