05/26/2022	00:27:03	Ver.	4.1	UNKNOWN
Optical Delay	599.988409	Delta X		0.078125	Sweeps	1	Scan Rate	0/0
Coordinates	Axis 1	NaN	Axis 2	NaN	Axis 3	NaN	Axis 4	NaN	Axis 5	NaN	Axis 6	0.000000
TX Power	0.000000	RX Power	0.000000

599.988	0.0161508
600.067	0.0161028
600.145	0.0161307
600.223	0.0161137
600.301	0.0161095
600.379	0.0161334
600.457	0.0162751
600.535	0.0160859
600.613	0.0160861
600.692	0.0160928
600.770	0.0163026
600.848	0.0161467
600.926	0.0162071
601.004	0.0161993
601.082	0.0161200
601.160	0.0162006
601.238	0.0162890
601.317	0.0162733
601.395	0.0160906
601.473	0.0161067
601.551	0.0161764
601.629	0.0162152
601.707	0.0162644
601.785	0.0161189
601.863	0.0161411
601.942	0.0161020
602.020	0.0161002
602.098	0.0162720
602.176	0.0160380
602.254	0.0161759
602.332	0.0161684
602.410	0.0161322
602.488	0.0162788
602.567	0.0161994
602.645	0.0161245
602.723	0.0161191
602.801	0.0160886
602.879	0.0162225
602.957	0.0162318
603.035	0.0160870
603.113	0.0161192
603.192	0.0161737
603.270	0.0161565
603.348	0.0161572
603.426	0.0162075
603.504	0.0161738
603.582	0.0161640
603.660	0.0160306
603.738	0.0161200
603.817	0.0161828
603.895	0.0162247
603.973	0.0161897
604.051	0.0161345
604.129	0.0159930
604.207	0.0161266
604.285	0.0161868
604.363	0.0161523
604.442	0.0160844
604.520	0.0162090
604.598	0.0161128
604.676	0.0161961
604.754	0.0161868
604.832	0.0161615
604.910	0.0161214
604.988	0.0161884
605.067	0.0161712
605.145	0.0161958
605.223	0.0160845
605.301	0.0161784
605.379	0.0161651
605.457	0.0162811
605.535	0.0160715
605.613	0.0161559
605.692	0.0161806
605.770	0.0161649
605.848	0.0161680
605.926	0.0160729
606.004	0.0160984
606.082	0.0161674
606.160	0.0162841
606.238	0.0162395
606.317	0.0161393
606.395	0.0161084
606.473	0.0161613
606.551	0.0161832
606.629	0.0161980
606.707	0.0161367
606.785	0.0160060
606.863	0.0161659
606.942	0.0162330
607.020	0.0161367
607.098	0.0161140
607.176	0.0162104
607.254	0.0160973
607.332	0.0161518
607.410	0.0161794
607.488	0.0161510
607.567	0.0162653
607.645	0.0161026
607.723	0.0160818
607.801	0.0161052
607.879	0.0161837
607.957	0.0162209
608.035	0.0160844
608.113	0.0161663
608.192	0.0161975
608.270	0.0162854
608.348	0.0160213
608.426	0.0162038
608.504	0.0162088
608.582	0.0161011
608.660	0.0161194
608.738	0.0161217
608.817	0.0162029
608.895	0.0161909
608.973	0.0162489
609.051	0.0161347
609.129	0.0161945
609.207	0.0160445
609.285	0.0160284
609.363	0.0161919
609.442	0.0160857
609.520	0.0160915
609.598	0.0161684
609.676	0.0162622
609.754	0.0160268
609.832	0.0161292
609.910	0.0162492
609.988	0.0161365
610.067	0.0161108
610.145	0.0161823
610.223	0.0161371
610.301	0.0161455
610.379	0.0161929
610.457	0.0160648
610.535	0.0161402
610.613	0.0163081
610.692	0.0163114
610.770	0.0161887
610.848	0.0161391
610.926	0.0162408
611.004	0.0161172
611.082	0.0161296
611.160	0.0161874
611.238	0.0159672
611.317	0.0161231
611.395	0.0160662
611.473	0.0162268
611.551	0.0162027
611.629	0.0162336
611.707	0.0162260
611.785	0.0161427
611.863	0.0160200
611.942	0.0160663
612.020	0.0161180
612.098	0.0159206
612.176	0.0161544
612.254	0.0161252
612.332	0.0160908
612.410	0.0162550
612.488	0.0161150
612.567	0.0160258
612.645	0.0160896
612.723	0.0161694
612.801	0.0161364
612.879	0.0160487
612.957	0.0162328
613.035	0.0161496
613.113	0.0161268
613.192	0.0161635
613.270	0.0162498
613.348	0.0163150
613.426	0.0161924
613.504	0.0160328
613.582	0.0162740
613.660	0.0161823
613.738	0.0161251
613.817	0.0163402
613.895	0.0161956
613.973	0.0163096
614.051	0.0161420
614.129	0.0161509
614.207	0.0161406
614.285	0.0162234
614.363	0.0160687
614.442	0.0163245
614.520	0.0161366
614.598	0.0163036
614.676	0.0161729
614.754	0.0161725
614.832	0.0163139
614.910	0.0162242
614.988	0.0161162
615.067	0.0162148
615.145	0.0163140
615.223	0.0160557
615.301	0.0161801
615.379	0.0162093
615.457	0.0161049
615.535	0.0161500
615.613	0.0162535
615.692	0.0162112
615.770	0.0162315
615.848	0.0162437
615.926	0.0161887
616.004	0.0160526
616.082	0.0160770
616.160	0.0161015
616.238	0.0162619
616.317	0.0161900
616.395	0.0161916
616.473	0.0161409
616.551	0.0161771
616.629	0.0161795
616.707	0.0162360
616.785	0.0161880
616.863	0.0161691
616.942	0.0161923
617.020	0.0161041
617.098	0.0160070
617.176	0.0162046
617.254	0.0161353
617.332	0.0161104
617.410	0.0161966
617.488	0.0161484
617.567	0.0161555
617.645	0.0162271
617.723	0.0160909
617.801	0.0161949
617.879	0.0160929
617.957	0.0162329
618.035	0.0162850
618.113	0.0162276
618.192	0.0159892
618.270	0.0160928
618.348	0.0161278
618.426	0.0162104
618.504	0.0160632
618.582	0.0160481
618.660	0.0162127
618.738	0.0160506
618.817	0.0161178
618.895	0.0163122
618.973	0.0162458
619.051	0.0161336
619.129	0.0161612
619.207	0.0161829
619.285	0.0161435
619.363	0.0161819
619.442	0.0161595
619.520	0.0162001
619.598	0.0162738
619.676	0.0161993
619.754	0.0162424
619.832	0.0160727
619.910	0.0161340
619.988	0.0161591
620.067	0.0161855
620.145	0.0160361
620.223	0.0161790
620.301	0.0162975
620.379	0.0161116
620.457	0.0160283
620.535	0.0161661
620.613	0.0160441
620.692	0.0160934
620.770	0.0161089
620.848	0.0161018
620.926	0.0160225
621.004	0.0161937
621.082	0.0163065
621.160	0.0161795
621.238	0.0161061
621.317	0.0160922
621.395	0.0160825
621.473	0.0163129
621.551	0.0162115
621.629	0.0162276
621.707	0.0161852
621.785	0.0161085
621.863	0.0162387
621.942	0.0161092
622.020	0.0161479
622.098	0.0160554
622.176	0.0161652
622.254	0.0160992
622.332	0.0161760
622.410	0.0161892
622.488	0.0160869
622.567	0.0160748
622.645	0.0161626
622.723	0.0160643
622.801	0.0162232
622.879	0.0161541
622.957	0.0161866
623.035	0.0162021
623.113	0.0161903
623.192	0.0160696
623.270	0.0161688
623.348	0.0162360
623.426	0.0162061
623.504	0.0162042
623.582	0.0162396
623.660	0.0161325
623.738	0.0162856
623.817	0.0161977
623.895	0.0161369
623.973	0.0161096
624.051	0.0161240
624.129	0.0162598
624.207	0.0161126
624.285	0.0161635
624.363	0.0161662
624.442	0.0159776
624.520	0.0162405
624.598	0.0161523
624.676	0.0161440
624.754	0.0162133
624.832	0.0161768
624.910	0.0161584
624.988	0.0162083
625.067	0.0160950
625.145	0.0161922
625.223	0.0159883
625.301	0.0161027
625.379	0.0162006
625.457	0.0163552
625.535	0.0161263
625.613	0.0161503
625.692	0.0161744
625.770	0.0161475
625.848	0.0161943
625.926	0.0162405
626.004	0.0162363
626.082	0.0161024
626.160	0.0161814
626.238	0.0161252
626.317	0.0161649
626.395	0.0161314
626.473	0.0161185
626.551	0.0162245
626.629	0.0161691
626.707	0.0161576
626.785	0.0161567
626.863	0.0161274
626.942	0.0161363
627.020	0.0161551
627.098	0.0162413
627.176	0.0161385
627.254	0.0162252
627.332	0.0162185
627.410	0.0162056
627.488	0.0161559
627.567	0.0161193
627.645	0.0161411
627.723	0.0161674
627.801	0.0161392
627.879	0.0161952
627.957	0.0161825
628.035	0.0161268
628.113	0.0160223
628.192	0.0160844
628.270	0.0161110
628.348	0.0162664
628.426	0.0161239
628.504	0.0162093
628.582	0.0160107
628.660	0.0161912
628.738	0.0161837
628.817	0.0161544
628.895	0.0160796
628.973	0.0161208
629.051	0.0162875
629.129	0.0161235
629.207	0.0161768
629.285	0.0160123
629.363	0.0160934
629.442	0.0162354
629.520	0.0161633
629.598	0.0162241
629.676	0.0161302
629.754	0.0161018
629.832	0.0161037
629.910	0.0160616
629.988	0.0161362
630.067	0.0162314
630.145	0.0162846
630.223	0.0162216
630.301	0.0162969
630.379	0.0160040
630.457	0.0162265
630.535	0.0161879
630.613	0.0162475
630.692	0.0161792
630.770	0.0161803
630.848	0.0160568
630.926	0.0161667
631.004	0.0161710
631.082	0.0161325
631.160	0.0160874
631.238	0.0161987
631.317	0.0162195
631.395	0.0162183
631.473	0.0160518
631.551	0.0160550
631.629	0.0162362
631.707	0.0161779
631.785	0.0161428
631.863	0.0161314
631.942	0.0161549
632.020	0.0161758
632.098	0.0162067
632.176	0.0161533
632.254	0.0161926
632.332	0.0161604
632.410	0.0161359
632.488	0.0161242
632.567	0.0160870
632.645	0.0162078
632.723	0.0162657
632.801	0.0162460
632.879	0.0162334
632.957	0.0162204
633.035	0.0160023
633.113	0.0161803
633.192	0.0162482
633.270	0.0160399
633.348	0.0161411
633.426	0.0161495
633.504	0.0161949
633.582	0.0161344
633.660	0.0161307
633.738	0.0162009
633.817	0.0161235
633.895	0.0160865
633.973	0.0162729
634.051	0.0162025
634.129	0.0161040
634.207	0.0161339
634.285	0.0162114
634.363	0.0162654
634.442	0.0161903
634.520	0.0161269
634.598	0.0161116
634.676	0.0161012
634.754	0.0161872
634.832	0.0161991
634.910	0.0161234
634.988	0.0160510
635.067	0.0160950
635.145	0.0160634
635.223	0.0161735
635.301	0.0162799
635.379	0.0161150
635.457	0.0162041
635.535	0.0161840
635.613	0.0161390
635.692	0.0162354
635.770	0.0161591
635.848	0.0161006
635.926	0.0160579
636.004	0.0160416
636.082	0.0161856
636.160	0.0162012
636.238	0.0160301
636.317	0.0163052
636.395	0.0162238
636.473	0.0161552
636.551	0.0160756
636.629	0.0162283
636.707	0.0162426
636.785	0.0162152
636.863	0.0162428
636.942	0.0162209
637.020	0.0161008
637.098	0.0161123
637.176	0.0161863
637.254	0.0162271
637.332	0.0160841
637.410	0.0160995
637.488	0.0161506
637.567	0.0162003
637.645	0.0161864
637.723	0.0161536
637.801	0.0162592
637.879	0.0162107
637.957	0.0161047
638.035	0.0162051
638.113	0.0162952
638.192	0.0161401
638.270	0.0161543
638.348	0.0161819
638.426	0.0159895
638.504	0.0161691
638.582	0.0161903
638.660	0.0161402
638.738	0.0162416
638.817	0.0161604
638.895	0.0161687
638.973	0.0162193
639.051	0.0161466
639.129	0.0160667
639.207	0.0160315
639.285	0.0161958
639.363	0.0161832
639.442	0.0160434
639.520	0.0161190
639.598	0.0160925
639.676	0.0160929
639.754	0.0162833
639.832	0.0161864
639.910	0.0162320
639.988	0.0162505
640.067	0.0162741
640.145	0.0162244
640.223	0.0161612
640.301	0.0162607
640.379	0.0161647
640.457	0.0160199
640.535	0.0162560
640.613	0.0162000
640.692	0.0161890
640.770	0.0162117
640.848	0.0162231
640.926	0.0162933
641.004	0.0161790
641.082	0.0162079
641.160	0.0163112
641.238	0.0162033
641.317	0.0160852
641.395	0.0161639
641.473	0.0161473
641.551	0.0161308
641.629	0.0161529
641.707	0.0163533
641.785	0.0162512
641.863	0.0161893
641.942	0.0161980
642.020	0.0163548
642.098	0.0161464
642.176	0.0162404
642.254	0.0161806
642.332	0.0161704
642.410	0.0161727
642.488	0.0161851
642.567	0.0161558
642.645	0.0160393
642.723	0.0160703
642.801	0.0161096
642.879	0.0162048
642.957	0.0160877
643.035	0.0161492
643.113	0.0162008
643.192	0.0162435
643.270	0.0160146
643.348	0.0160298
643.426	0.0161018
643.504	0.0161329
643.582	0.0161366
643.660	0.0160550
643.738	0.0161812
643.817	0.0161368
643.895	0.0161927
643.973	0.0160993
644.051	0.0161897
644.129	0.0161446
644.207	0.0160989
644.285	0.0161347
644.363	0.0162035
644.442	0.0161491
644.520	0.0161968
644.598	0.0162003
644.676	0.0162344
644.754	0.0161098
644.832	0.0162354
644.910	0.0162114
644.988	0.0162263
645.067	0.0161944
645.145	0.0161919
645.223	0.0161053
645.301	0.0161767
645.379	0.0161505
645.457	0.0160608
645.535	0.0160568
645.613	0.0160522
645.692	0.0163528
645.770	0.0162757
645.848	0.0162074
645.926	0.0161071
646.004	0.0160963
646.082	0.0162650
646.160	0.0161849
646.238	0.0161369
646.317	0.0162113
646.395	0.0161837
646.473	0.0161841
646.551	0.0161586
646.629	0.0161271
646.707	0.0162048
646.785	0.0161505
646.863	0.0160890
646.942	0.0160872
647.020	0.0161021
647.098	0.0161976
647.176	0.0161909
647.254	0.0160628
647.332	0.0161433
647.410	0.0161053
647.488	0.0162768
647.567	0.0161579
647.645	0.0161135
647.723	0.0162561
647.801	0.0161967
647.879	0.0161759
647.957	0.0161584
648.035	0.0161314
648.113	0.0161906
648.192	0.0161463
648.270	0.0161421
648.348	0.0161613
648.426	0.0162324
648.504	0.0160722
648.582	0.0162689
648.660	0.0161282
648.738	0.0161115
648.817	0.0162015
648.895	0.0162389
648.973	0.0160464
649.051	0.0161073
649.129	0.0163198
649.207	0.0161056
649.285	0.0161460
649.363	0.0161690
649.442	0.0160002
649.520	0.0159932
649.598	0.0161375
649.676	0.0161117
649.754	0.0161897
649.832	0.0161095
649.910	0.0161905
649.988	0.0161613
650.067	0.0161576
650.145	0.0162553
650.223	0.0161766
650.301	0.0161246
650.379	0.0162149
650.457	0.0162472
650.535	0.0161095
650.613	0.0160931
650.692	0.0161122
650.770	0.0162192
650.848	0.0161266
650.926	0.0161436
651.004	0.0160346
651.082	0.0161087
651.160	0.0160425
651.238	0.0160722
651.317	0.0162293
651.395	0.0162123
651.473	0.0160938
651.551	0.0161033
651.629	0.0161832
651.707	0.0160611
651.785	0.0160167
651.863	0.0161536
651.942	0.0161595
652.020	0.0160150
652.098	0.0161562
652.176	0.0163016
652.254	0.0160872
652.332	0.0161936
652.410	0.0161433
652.488	0.0161841
652.567	0.0160704
652.645	0.0161047
652.723	0.0160780
652.801	0.0162368
652.879	0.0162223
652.957	0.0161784
653.035	0.0161721
653.113	0.0160713
653.192	0.0160938
653.270	0.0160497
653.348	0.0162724
653.426	0.0160777
653.504	0.0160999
653.582	0.0161044
653.660	0.0161831
653.738	0.0161358
653.817	0.0161398
653.895	0.0161344
653.973	0.0161494
654.051	0.0161555
654.129	0.0162739
654.207	0.0160645
654.285	0.0160852
654.363	0.0161085
654.442	0.0161795
654.520	0.0162894
654.598	0.0162959
654.676	0.0162637
654.754	0.0162754
654.832	0.0161423
654.910	0.0161105
654.988	0.0160950
655.067	0.0161639
655.145	0.0162143
655.223	0.0162210
655.301	0.0162936
655.379	0.0162035
655.457	0.0161346
655.535	0.0160674
655.613	0.0161515
655.692	0.0160891
655.770	0.0162566
655.848	0.0162373
655.926	0.0161739
656.004	0.0160219
656.082	0.0161044
656.160	0.0162040
656.238	0.0161709
656.317	0.0160663
656.395	0.0160201
656.473	0.0161461
656.551	0.0160600
656.629	0.0160137
656.707	0.0161684
656.785	0.0161040
656.863	0.0160766
656.942	0.0161225
657.020	0.0161633
657.098	0.0161246
657.176	0.0160582
657.254	0.0160906
657.332	0.0161332
657.410	0.0161700
657.488	0.0161246
657.567	0.0161183
657.645	0.0160825
657.723	0.0162392
657.801	0.0160026
657.879	0.0160853
657.957	0.0161782
658.035	0.0162035
658.113	0.0162585
658.192	0.0161871
658.270	0.0160944
658.348	0.0161200
658.426	0.0160352
658.504	0.0161856
658.582	0.0161552
658.660	0.0161726
658.738	0.0161550
658.817	0.0161372
658.895	0.0160043
658.973	0.0162097
659.051	0.0161926
659.129	0.0161534
659.207	0.0161764
659.285	0.0161497
659.363	0.0161369
659.442	0.0160970
659.520	0.0161139
659.598	0.0160939
659.676	0.0161852
659.754	0.0160294
659.832	0.0160242
659.910	0.0162296
659.988	0.0161946
660.067	0.0161395
660.145	0.0162250
660.223	0.0162103
660.301	0.0161694
660.379	0.0160454
660.457	0.0161764
660.535	0.0160583
660.613	0.0161300
660.692	0.0162112
660.770	0.0161120
660.848	0.0161959
660.926	0.0162071
661.004	0.0161478
661.082	0.0161612
661.160	0.0161483
661.238	0.0160680
661.317	0.0161849
661.395	0.0161488
661.473	0.0161888
661.551	0.0161528
661.629	0.0161325
661.707	0.0159969
661.785	0.0162081
661.863	0.0161054
661.942	0.0161493
662.020	0.0162544
662.098	0.0160326
662.176	0.0159332
662.254	0.0161125
662.332	0.0160212
662.410	0.0160346
662.488	0.0161636
662.567	0.0162078
662.645	0.0161905
662.723	0.0160049
662.801	0.0160532
662.879	0.0161642
662.957	0.0159776
663.035	0.0161806
663.113	0.0161403
663.192	0.0161084
663.270	0.0160627
663.348	0.0161794
663.426	0.0159956
663.504	0.0159763
663.582	0.0161546
663.660	0.0160731
663.738	0.0162143
663.817	0.0161584
663.895	0.0160764
663.973	0.0161745
664.051	0.0162759
664.129	0.0160243
664.207	0.0161807
664.285	0.0162366
664.363	0.0161134
664.442	0.0161674
664.520	0.0161365
664.598	0.0160908
664.676	0.0162794
664.754	0.0162106
664.832	0.0161721
664.910	0.0160518
664.988	0.0161009
665.067	0.0161054
665.145	0.0161156
665.223	0.0160977
665.301	0.0162062
665.379	0.0162173
665.457	0.0162047
665.535	0.0162424
665.613	0.0161646
665.692	0.0161723
665.770	0.0161620
665.848	0.0161358
665.926	0.0161522
666.004	0.0160738
666.082	0.0162000
666.160	0.0160436
666.238	0.0162006
666.317	0.0162351
666.395	0.0162174
666.473	0.0161183
666.551	0.0161978
666.629	0.0162792
666.707	0.0162217
666.785	0.0162875
666.863	0.0161066
666.942	0.0161817
667.020	0.0160684
667.098	0.0162133
667.176	0.0161893
667.254	0.0161753
667.332	0.0161078
667.410	0.0160219
667.488	0.0161712
667.567	0.0160901
667.645	0.0161608
667.723	0.0161804
667.801	0.0161343
667.879	0.0161380
667.957	0.0160639
668.035	0.0162038
668.113	0.0161458
668.192	0.0162441
668.270	0.0161978
668.348	0.0162689
668.426	0.0160693
668.504	0.0161899
668.582	0.0162434
668.660	0.0161007
668.738	0.0160610
668.817	0.0161169
668.895	0.0160720
668.973	0.0160742
669.051	0.0162386
669.129	0.0161550
669.207	0.0163227
669.285	0.0160651
669.363	0.0161285
669.442	0.0162247
669.520	0.0161395
669.598	0.0162971
669.676	0.0162289
669.754	0.0160675
669.832	0.0161967
669.910	0.0161747
669.988	0.0162151
670.067	0.0161151
670.145	0.0161819
670.223	0.0160751
670.301	0.0161886
670.379	0.0162157
670.457	0.0161446
670.535	0.0161277
670.613	0.0161608
670.692	0.0161730
670.770	0.0161304
670.848	0.0162315
670.926	0.0161626
671.004	0.0161462
671.082	0.0161718
671.160	0.0161600
671.238	0.0162083
671.317	0.0162508
671.395	0.0163032
671.473	0.0160418
671.551	0.0161136
671.629	0.0161679
671.707	0.0162057
671.785	0.0163251
671.863	0.0160394
671.942	0.0160822
672.020	0.0161221
672.098	0.0159999
672.176	0.0162592
672.254	0.0162318
672.332	0.0162054
672.410	0.0160460
672.488	0.0161707
672.567	0.0161559
672.645	0.0161990
672.723	0.0161363
672.801	0.0161640
672.879	0.0162672
672.957	0.0162607
673.035	0.0163687
673.113	0.0161621
673.192	0.0161513
673.270	0.0161333
673.348	0.0161515
673.426	0.0161333
673.504	0.0162717
673.582	0.0161419
673.660	0.0161280
673.738	0.0162289
673.817	0.0161711
673.895	0.0161083
673.973	0.0161610
674.051	0.0162011
674.129	0.0161797
674.207	0.0160229
674.285	0.0161331
674.363	0.0163180
674.442	0.0161391
674.520	0.0160423
674.598	0.0162081
674.676	0.0161580
674.754	0.0160966
674.832	0.0162008
674.910	0.0161931
674.988	0.0162129
675.067	0.0161050
675.145	0.0162161
675.223	0.0161219
675.301	0.0161735
675.379	0.0160149
675.457	0.0161855
675.535	0.0161885
675.613	0.0161150
675.692	0.0160976
675.770	0.0161078
675.848	0.0161693
675.926	0.0161637
676.004	0.0161581
676.082	0.0161497
676.160	0.0161483
676.238	0.0161710
676.317	0.0160943
676.395	0.0161961
676.473	0.0162003
676.551	0.0160320
676.629	0.0161967
676.707	0.0162101
676.785	0.0160827
676.863	0.0161454
676.942	0.0161360
677.020	0.0159730
677.098	0.0160091
677.176	0.0161436
677.254	0.0160654
677.332	0.0159922
677.410	0.0162099
677.488	0.0161616
677.567	0.0160500
677.645	0.0161939
677.723	0.0162125
677.801	0.0161462
677.879	0.0162113
677.957	0.0161023
678.035	0.0160825
678.113	0.0161322
678.192	0.0162724
678.270	0.0162972
678.348	0.0162202
678.426	0.0160500
678.504	0.0162087
678.582	0.0161696
678.660	0.0162997
678.738	0.0162038
678.817	0.0161516
678.895	0.0161879
678.973	0.0161617
679.051	0.0161442
679.129	0.0162808
679.207	0.0162483
679.285	0.0160843
679.363	0.0162171
679.442	0.0160855
679.520	0.0162023
679.598	0.0163592
679.676	0.0160452
679.754	0.0161388
679.832	0.0160815
679.910	0.0162211
679.988	0.0160957
680.067	0.0160654
680.145	0.0160498
680.223	0.0161560
680.301	0.0161057
680.379	0.0161619
680.457	0.0162025
680.535	0.0161529
680.613	0.0163069
680.692	0.0161015
680.770	0.0161545
680.848	0.0162202
680.926	0.0162969
681.004	0.0160979
681.082	0.0161525
681.160	0.0161533
681.238	0.0162658
681.317	0.0161470
681.395	0.0161593
681.473	0.0159761
681.551	0.0162033
681.629	0.0161642
681.707	0.0161241
681.785	0.0162048
681.863	0.0162011
681.942	0.0160967
682.020	0.0160757
682.098	0.0160556
682.176	0.0162648
682.254	0.0161351
682.332	0.0160670
682.410	0.0160503
682.488	0.0161703
682.567	0.0161378
682.645	0.0162398
682.723	0.0160429
682.801	0.0160053
682.879	0.0160129
682.957	0.0162154
683.035	0.0161696
683.113	0.0161370
683.192	0.0161832
683.270	0.0160911
683.348	0.0161118
683.426	0.0160938
683.504	0.0160373
683.582	0.0161243
683.660	0.0161263
683.738	0.0163113
683.817	0.0162548
683.895	0.0161849
683.973	0.0161169
684.051	0.0161893
684.129	0.0162303
684.207	0.0160183
684.285	0.0162516
684.363	0.0161916
684.442	0.0161282
684.520	0.0161996
684.598	0.0161121
684.676	0.0162630
684.754	0.0162414
684.832	0.0161647
684.910	0.0162554
684.988	0.0161877
685.067	0.0161340
685.145	0.0162006
685.223	0.0162292
685.301	0.0162455
685.379	0.0161377
685.457	0.0162842
685.535	0.0161839
685.613	0.0161481
685.692	0.0161301
685.770	0.0161742
685.848	0.0162241
685.926	0.0163381
686.004	0.0161980
686.082	0.0162603
686.160	0.0161994
686.238	0.0161071
686.317	0.0161848
686.395	0.0162013
686.473	0.0161237
686.551	0.0160324
686.629	0.0160046
686.707	0.0160201
686.785	0.0159650
686.863	0.0159792
686.942	0.0158382
687.020	0.0158094
687.098	0.0157443
687.176	0.0159212
687.254	0.0161202
687.332	0.0165713
687.410	0.0170054
687.488	0.0175641
687.567	0.0181269
687.645	0.0188412
687.723	0.0190272
687.801	0.0190125
687.879	0.0187433
687.957	0.0181081
688.035	0.0172720
688.113	0.0161343
688.192	0.0148072
688.270	0.0135542
688.348	0.0123295
688.426	0.0111773
688.504	0.0103426
688.582	0.00983513
688.660	0.00963661
688.738	0.00985397
688.817	0.0103518
688.895	0.0111900
688.973	0.0122128
689.051	0.0134211
689.129	0.0148668
689.207	0.0163381
689.285	0.0176601
689.363	0.0188632
689.442	0.0200423
689.520	0.0210890
689.598	0.0217944
689.676	0.0224242
689.754	0.0230480
689.832	0.0234779
689.910	0.0236729
689.988	0.0238422
690.067	0.0236956
690.145	0.0234078
690.223	0.0230914
690.301	0.0225121
690.379	0.0218494
690.457	0.0209231
690.535	0.0197234
690.613	0.0186169
690.692	0.0173296
690.770	0.0161429
690.848	0.0148391
690.926	0.0135623
691.004	0.0122770
691.082	0.0110659
691.160	0.0100069
691.238	0.00925888
691.317	0.00847137
691.395	0.00796265
691.473	0.00738708
691.551	0.00720558
691.629	0.00710579
691.707	0.00713959
691.785	0.00761314
691.863	0.00808800
691.942	0.00885826
692.020	0.00990730
692.098	0.0108913
692.176	0.0120720
692.254	0.0130840
692.332	0.0142682
692.410	0.0154804
692.488	0.0165351
692.567	0.0175177
692.645	0.0185004
692.723	0.0190907
692.801	0.0198716
692.879	0.0203870
692.957	0.0207832
693.035	0.0212891
693.113	0.0214497
693.192	0.0215265
693.270	0.0216088
693.348	0.0216151
693.426	0.0215955
693.504	0.0214678
693.582	0.0214168
693.660	0.0211452
693.738	0.0210912
693.817	0.0209770
693.895	0.0206218
693.973	0.0203466
694.051	0.0201498
694.129	0.0199710
694.207	0.0196208
694.285	0.0191160
694.363	0.0188595
694.442	0.0184122
694.520	0.0180196
694.598	0.0174410
694.676	0.0168919
694.754	0.0163990
694.832	0.0159792
694.910	0.0153655
694.988	0.0148178
695.067	0.0143054
695.145	0.0140903
695.223	0.0135455
695.301	0.0131229
695.379	0.0131117
695.457	0.0128194
695.535	0.0126807
695.613	0.0124590
695.692	0.0124674
695.770	0.0124961
695.848	0.0124622
695.926	0.0127249
696.004	0.0128602
696.082	0.0127139
696.160	0.0128656
696.238	0.0129508
696.317	0.0131467
696.395	0.0133556
696.473	0.0136078
696.551	0.0136826
696.629	0.0140087
696.707	0.0140663
696.785	0.0143687
696.863	0.0146073
696.942	0.0147624
697.020	0.0150536
697.098	0.0152956
697.176	0.0154688
697.254	0.0159592
697.332	0.0162267
697.410	0.0163908
697.488	0.0167918
697.567	0.0169762
697.645	0.0170654
697.723	0.0173973
697.801	0.0176077
697.879	0.0177496
697.957	0.0178931
698.035	0.0181648
698.113	0.0180898
698.192	0.0181647
698.270	0.0182329
698.348	0.0183103
698.426	0.0183009
698.504	0.0180532
698.582	0.0180874
698.660	0.0181213
698.738	0.0179382
698.817	0.0178536
698.895	0.0177862
698.973	0.0174628
699.051	0.0173790
699.129	0.0172091
699.207	0.0170168
699.285	0.0169774
699.363	0.0167348
699.442	0.0165650
699.520	0.0164220
699.598	0.0163975
699.676	0.0163326
699.754	0.0161984
699.832	0.0162696
699.910	0.0162543
699.988	0.0163132
700.067	0.0163892
700.145	0.0165788
700.223	0.0166348
700.301	0.0167658
700.379	0.0168639
700.457	0.0170154
700.535	0.0170126
700.613	0.0170157
700.692	0.0170371
700.770	0.0169459
700.848	0.0168887
700.926	0.0166753
701.004	0.0164931
701.082	0.0163168
701.160	0.0160595
701.238	0.0157983
701.317	0.0156492
701.395	0.0152212
701.473	0.0150578
701.551	0.0147572
701.629	0.0147424
701.707	0.0147347
701.785	0.0147087
701.863	0.0145361
701.942	0.0144682
702.020	0.0145261
702.098	0.0146964
702.176	0.0149352
702.254	0.0148392
702.332	0.0148000
702.410	0.0149313
702.488	0.0150948
702.567	0.0153797
702.645	0.0155219
702.723	0.0156980
702.801	0.0158429
702.879	0.0160661
702.957	0.0162148
703.035	0.0164091
703.113	0.0163979
703.192	0.0164198
703.270	0.0164622
703.348	0.0164072
703.426	0.0162569
703.504	0.0163754
703.582	0.0163294
703.660	0.0160707
703.738	0.0160026
703.817	0.0160123
703.895	0.0157537
703.973	0.0156374
704.051	0.0155951
704.129	0.0156561
704.207	0.0156590
704.285	0.0156880
704.363	0.0157659
704.442	0.0160356
704.520	0.0159699
704.598	0.0161636
704.676	0.0162380
704.754	0.0164604
704.832	0.0165067
704.910	0.0166715
704.988	0.0166672
705.067	0.0167383
705.145	0.0168307
705.223	0.0168831
705.301	0.0169356
705.379	0.0168397
705.457	0.0168133
705.535	0.0168343
705.613	0.0168316
705.692	0.0167967
705.770	0.0165500
705.848	0.0164957
705.926	0.0164292
706.004	0.0163256
706.082	0.0162704
706.160	0.0162608
706.238	0.0162766
706.317	0.0162157
706.395	0.0162319
706.473	0.0160592
706.551	0.0161688
706.629	0.0159696
706.707	0.0160275
706.785	0.0158579
706.863	0.0158601
706.942	0.0159789
707.020	0.0158453
707.098	0.0157996
707.176	0.0160139
707.254	0.0160413
707.332	0.0162035
707.410	0.0161208
707.488	0.0162118
707.567	0.0161555
707.645	0.0163098
707.723	0.0163925
707.801	0.0164733
707.879	0.0166205
707.957	0.0166277
708.035	0.0166801
708.113	0.0166358
708.192	0.0166997
708.270	0.0167209
708.348	0.0166097
708.426	0.0165785
708.504	0.0165049
708.582	0.0165383
708.660	0.0165916
708.738	0.0163045
708.817	0.0163160
708.895	0.0162552
708.973	0.0161955
709.051	0.0162386
709.129	0.0161872
709.207	0.0161761
709.285	0.0160315
709.363	0.0161024
709.442	0.0162080
709.520	0.0161114
709.598	0.0161220
709.676	0.0162589
709.754	0.0161341
709.832	0.0163407
709.910	0.0162884
709.988	0.0162856
710.067	0.0162759
710.145	0.0162052
710.223	0.0160991
710.301	0.0160822
710.379	0.0162875
710.457	0.0161574
710.535	0.0159899
710.613	0.0159804
710.692	0.0159344
710.770	0.0158866
710.848	0.0157687
710.926	0.0157403
711.004	0.0157183
711.082	0.0155146
711.160	0.0155112
711.238	0.0153991
711.317	0.0153521
711.395	0.0152367
711.473	0.0152559
711.551	0.0152499
711.629	0.0152225
711.707	0.0151843
711.785	0.0151758
711.863	0.0152165
711.942	0.0153168
712.020	0.0153265
712.098	0.0153839
712.176	0.0156995
712.254	0.0155036
712.332	0.0155212
712.410	0.0156921
712.488	0.0159058
712.567	0.0160209
712.645	0.0161962
712.723	0.0162676
712.801	0.0162612
712.879	0.0162807
712.957	0.0164758
713.035	0.0166000
713.113	0.0165603
713.192	0.0166564
713.270	0.0166514
713.348	0.0167091
713.426	0.0166664
713.504	0.0167368
713.582	0.0166559
713.660	0.0167329
713.738	0.0166898
713.817	0.0166383
713.895	0.0165460
713.973	0.0164267
714.051	0.0166570
714.129	0.0165548
714.207	0.0164622
714.285	0.0164165
714.363	0.0164011
714.442	0.0164560
714.520	0.0162338
714.598	0.0163274
714.676	0.0163293
714.754	0.0163843
714.832	0.0164615
714.910	0.0166091
714.988	0.0166853
715.067	0.0167912
715.145	0.0167228
715.223	0.0168724
715.301	0.0169035
715.379	0.0170464
715.457	0.0170374
715.535	0.0169135
715.613	0.0169199
715.692	0.0169717
715.770	0.0168803
715.848	0.0166205
715.926	0.0166413
716.004	0.0166245
716.082	0.0163985
716.160	0.0164819
716.238	0.0162851
716.317	0.0162753
716.395	0.0163337
716.473	0.0161679
716.551	0.0159486
716.629	0.0160503
716.707	0.0161622
716.785	0.0160921
716.863	0.0160697
716.942	0.0161195
717.020	0.0160177
717.098	0.0161435
717.176	0.0159899
717.254	0.0160068
717.332	0.0161156
717.410	0.0159968
717.488	0.0159221
717.567	0.0159549
717.645	0.0159334
717.723	0.0158702
717.801	0.0159057
717.879	0.0158863
717.957	0.0158232
718.035	0.0158305
718.113	0.0158708
718.192	0.0157659
718.270	0.0157097
718.348	0.0157420
718.426	0.0157708
718.504	0.0156513
718.582	0.0157155
718.660	0.0157442
718.738	0.0155184
718.817	0.0156902
718.895	0.0154994
718.973	0.0153974
719.051	0.0155836
719.129	0.0154898
719.207	0.0153747
719.285	0.0154313
719.363	0.0154296
719.442	0.0154028
719.520	0.0154712
719.598	0.0153526
719.676	0.0153336
719.754	0.0154489
719.832	0.0154624
719.910	0.0156796
719.988	0.0157530
720.067	0.0157198
720.145	0.0159195
720.223	0.0158126
720.301	0.0162054
720.379	0.0161343
720.457	0.0161622
720.535	0.0163052
720.613	0.0163212
720.692	0.0163522
720.770	0.0165546
720.848	0.0165618
720.926	0.0164565
721.004	0.0162998
721.082	0.0165479
721.160	0.0163784
721.238	0.0165597
721.317	0.0166182
721.395	0.0165227
721.473	0.0163818
721.551	0.0164619
721.629	0.0163672
721.707	0.0164776
721.785	0.0164527
721.863	0.0164243
721.942	0.0164248
722.020	0.0164566
722.098	0.0164493
722.176	0.0164450
722.254	0.0165574
722.332	0.0164807
722.410	0.0166518
722.488	0.0167509
722.567	0.0167368
722.645	0.0169193
722.723	0.0169972
722.801	0.0169421
722.879	0.0171764
722.957	0.0170210
723.035	0.0171356
723.113	0.0169839
723.192	0.0171724
723.270	0.0170244
723.348	0.0170042
723.426	0.0168811
723.504	0.0167861
723.582	0.0165956
723.660	0.0165139
723.738	0.0164474
723.817	0.0162818
723.895	0.0163517
723.973	0.0162743
724.051	0.0161777
724.129	0.0159715
724.207	0.0159961
724.285	0.0158925
724.363	0.0161121
724.442	0.0159409
724.520	0.0159720
724.598	0.0160773
724.676	0.0161341
724.754	0.0158858
724.832	0.0160085
724.910	0.0159460
724.988	0.0157445
725.067	0.0157380
725.145	0.0158591
725.223	0.0158259
725.301	0.0158809
725.379	0.0158496
725.457	0.0158829
725.535	0.0158557
725.613	0.0158477
725.692	0.0159327
725.770	0.0159227
725.848	0.0159460
725.926	0.0159782
726.004	0.0158512
726.082	0.0159080
726.160	0.0160133
726.238	0.0159528
726.317	0.0158816
726.395	0.0157533
726.473	0.0159024
726.551	0.0158317
726.629	0.0157654
726.707	0.0157373
726.785	0.0157159
726.863	0.0156441
726.942	0.0156419
727.020	0.0154797
727.098	0.0154830
727.176	0.0155458
727.254	0.0155535
727.332	0.0155750
727.410	0.0154870
727.488	0.0156161
727.567	0.0155960
727.645	0.0157394
727.723	0.0157923
727.801	0.0158484
727.879	0.0158485
727.957	0.0158358
728.035	0.0160788
728.113	0.0161673
728.192	0.0162428
728.270	0.0162372
728.348	0.0162539
728.426	0.0162666
728.504	0.0164124
728.582	0.0164452
728.660	0.0163760
728.738	0.0164142
728.817	0.0165704
728.895	0.0165858
728.973	0.0164615
729.051	0.0164115
729.129	0.0164476
729.207	0.0164848
729.285	0.0164610
729.363	0.0165565
729.442	0.0166048
729.520	0.0166007
729.598	0.0168034
729.676	0.0167506
729.754	0.0166312
729.832	0.0165429
729.910	0.0166487
729.988	0.0165461
730.067	0.0166122
730.145	0.0164611
730.223	0.0166560
730.301	0.0166124
730.379	0.0165990
730.457	0.0165761
730.535	0.0165356
730.613	0.0165732
730.692	0.0165059
730.770	0.0165749
730.848	0.0166677
730.926	0.0165980
731.004	0.0166805
731.082	0.0167056
731.160	0.0168371
731.238	0.0167432
731.317	0.0166039
731.395	0.0166880
731.473	0.0166544
731.551	0.0166243
731.629	0.0164238
731.707	0.0163297
731.785	0.0163188
731.863	0.0162349
731.942	0.0162524
732.020	0.0162258
732.098	0.0160069
732.176	0.0160152
732.254	0.0158767
732.332	0.0159496
732.410	0.0160477
732.488	0.0158115
732.567	0.0157692
732.645	0.0157816
732.723	0.0159258
732.801	0.0158660
732.879	0.0158990
732.957	0.0158398
733.035	0.0159012
733.113	0.0159458
733.192	0.0160239
733.270	0.0159972
733.348	0.0159135
733.426	0.0160654
733.504	0.0160165
733.582	0.0159162
733.660	0.0160440
733.738	0.0162514
733.817	0.0161005
733.895	0.0160920
733.973	0.0159964
734.051	0.0160284
734.129	0.0159161
734.207	0.0159446
734.285	0.0158733
734.363	0.0160527
734.442	0.0160158
734.520	0.0158389
734.598	0.0158260
734.676	0.0157906
734.754	0.0158446
734.832	0.0158237
734.910	0.0158746
734.988	0.0156767
735.067	0.0156039
735.145	0.0158151
735.223	0.0157148
735.301	0.0157840
735.379	0.0156599
735.457	0.0157948
735.535	0.0158805
735.613	0.0157806
735.692	0.0157848
735.770	0.0158381
735.848	0.0159057
735.926	0.0160011
736.004	0.0160553
736.082	0.0161769
736.160	0.0161011
736.238	0.0161158
736.317	0.0162940
736.395	0.0162864
736.473	0.0163562
736.551	0.0163643
736.629	0.0162950
736.707	0.0163849
736.785	0.0163511
736.863	0.0164104
736.942	0.0164067
737.020	0.0165125
737.098	0.0164686
737.176	0.0165400
737.254	0.0164861
737.332	0.0165048
737.410	0.0165993
737.488	0.0165318
737.567	0.0164805
737.645	0.0164532
737.723	0.0166064
737.801	0.0165504
737.879	0.0164468
737.957	0.0164464
738.035	0.0163929
738.113	0.0163399
738.192	0.0164655
738.270	0.0163404
738.348	0.0165534
738.426	0.0165020
738.504	0.0165903
738.582	0.0165086
738.660	0.0166296
738.738	0.0165800
738.817	0.0165405
738.895	0.0166299
738.973	0.0167080
739.051	0.0167085
739.129	0.0168158
739.207	0.0166170
739.285	0.0166434
739.363	0.0166833
739.442	0.0165371
739.520	0.0165819
739.598	0.0164517
739.676	0.0164243
739.754	0.0163963
739.832	0.0163509
739.910	0.0162439
739.988	0.0161053
740.067	0.0160651
740.145	0.0159535
740.223	0.0158912
740.301	0.0158445
740.379	0.0159271
740.457	0.0158278
740.535	0.0156319
740.613	0.0155361
740.692	0.0156700
740.770	0.0156927
740.848	0.0155787
740.926	0.0156121
741.004	0.0155665
741.082	0.0156527
741.160	0.0155373
741.238	0.0154950
741.317	0.0156573
741.395	0.0156818
741.473	0.0157547
741.551	0.0158191
741.629	0.0159221
741.707	0.0159476
741.785	0.0160712
741.863	0.0161467
741.942	0.0162453
742.020	0.0163042
742.098	0.0164467
742.176	0.0164352
742.254	0.0163753
742.332	0.0163992
742.410	0.0163387
742.488	0.0165480
742.567	0.0164207
742.645	0.0163866
742.723	0.0162015
742.801	0.0162833
742.879	0.0161317
742.957	0.0161051
743.035	0.0161737
743.113	0.0160626
743.192	0.0158617
743.270	0.0159621
743.348	0.0160211
743.426	0.0158514
743.504	0.0158491
743.582	0.0158947
743.660	0.0160830
743.738	0.0159591
743.817	0.0159682
743.895	0.0160091
743.973	0.0159484
744.051	0.0160334
744.129	0.0160690
744.207	0.0161682
744.285	0.0162347
744.363	0.0161675
744.442	0.0161813
744.520	0.0161962
744.598	0.0159277
744.676	0.0160300
744.754	0.0160737
744.832	0.0159597
744.910	0.0160433
744.988	0.0160573
745.067	0.0160674
745.145	0.0160593
745.223	0.0160997
745.301	0.0160991
745.379	0.0161157
745.457	0.0160572
745.535	0.0161759
745.613	0.0162222
745.692	0.0162216
745.770	0.0164026
745.848	0.0163300
745.926	0.0164240
746.004	0.0164532
746.082	0.0164321
746.160	0.0164537
746.238	0.0164754
746.317	0.0166135
746.395	0.0165548
746.473	0.0165730
746.551	0.0165630
746.629	0.0166957
746.707	0.0165092
746.785	0.0164915
746.863	0.0166670
746.942	0.0167692
747.020	0.0165882
747.098	0.0166716
747.176	0.0164906
747.254	0.0165739
747.332	0.0165999
747.410	0.0165498
747.488	0.0165103
747.567	0.0164378
747.645	0.0164499
747.723	0.0163875
747.801	0.0163175
747.879	0.0162569
747.957	0.0164124
748.035	0.0162006
748.113	0.0161826
748.192	0.0162697
748.270	0.0159732
748.348	0.0159850
748.426	0.0160933
748.504	0.0159021
748.582	0.0160569
748.660	0.0158775
748.738	0.0161333
748.817	0.0159579
748.895	0.0158895
748.973	0.0158720
749.051	0.0158453
749.129	0.0160013
749.207	0.0157996
749.285	0.0158985
749.363	0.0160085
749.442	0.0160732
749.520	0.0158564
749.598	0.0159547
749.676	0.0158652
749.754	0.0159583
749.832	0.0160430
749.910	0.0160113
749.988	0.0160765
750.067	0.0160664
750.145	0.0160845
750.223	0.0160653
750.301	0.0160554
750.379	0.0159468
750.457	0.0160481
750.535	0.0159292
750.613	0.0161426
750.692	0.0160081
750.770	0.0162222
750.848	0.0159558
750.926	0.0158523
751.004	0.0160480
751.082	0.0158601
751.160	0.0160117
751.238	0.0159027
751.317	0.0158952
751.395	0.0159608
751.473	0.0159433
751.551	0.0161272
751.629	0.0160609
751.707	0.0160766
751.785	0.0160957
751.863	0.0161676
751.942	0.0161818
752.020	0.0160726
752.098	0.0161557
752.176	0.0163023
752.254	0.0163615
752.332	0.0162482
752.410	0.0163272
752.488	0.0163336
752.567	0.0164579
752.645	0.0165131
752.723	0.0164717
752.801	0.0165701
752.879	0.0164705
752.957	0.0164816
753.035	0.0165257
753.113	0.0164855
753.192	0.0165048
753.270	0.0164218
753.348	0.0164869
753.426	0.0164628
753.504	0.0164648
753.582	0.0164891
753.660	0.0162773
753.738	0.0161979
753.817	0.0163770
753.895	0.0164324
753.973	0.0162885
754.051	0.0162820
754.129	0.0161684
754.207	0.0163373
754.285	0.0162725
754.363	0.0163200
754.442	0.0163965
754.520	0.0163293
754.598	0.0163161
754.676	0.0163661
754.754	0.0162864
754.832	0.0165597
754.910	0.0164663
754.988	0.0163920
755.067	0.0164139
755.145	0.0164234
755.223	0.0163461
755.301	0.0164404
755.379	0.0164543
755.457	0.0163801
755.535	0.0164144
755.613	0.0162187
755.692	0.0161671
755.770	0.0161172
755.848	0.0162159
755.926	0.0160896
756.004	0.0160193
756.082	0.0158447
756.160	0.0159486
756.238	0.0161005
756.317	0.0159270
756.395	0.0158759
756.473	0.0159731
756.551	0.0159587
756.629	0.0159180
756.707	0.0158387
756.785	0.0158455
756.863	0.0158440
756.942	0.0159575
757.020	0.0159078
757.098	0.0159113
757.176	0.0158205
757.254	0.0158439
757.332	0.0158716
757.410	0.0158521
757.488	0.0159314
757.567	0.0158849
757.645	0.0160126
757.723	0.0160722
757.801	0.0161491
757.879	0.0160899
757.957	0.0163013
758.035	0.0161910
758.113	0.0161017
758.192	0.0162557
758.270	0.0161968
758.348	0.0161686
758.426	0.0161782
758.504	0.0162359
758.582	0.0162148
758.660	0.0162285
758.738	0.0162321
758.817	0.0162673
758.895	0.0162491
758.973	0.0162704
759.051	0.0160411
759.129	0.0161937
759.207	0.0160612
759.285	0.0160731
759.363	0.0160026
759.442	0.0162004
759.520	0.0161660
759.598	0.0161152
759.676	0.0160735
759.754	0.0161481
759.832	0.0161584
759.910	0.0161440
759.988	0.0163026
760.067	0.0161934
760.145	0.0162566
760.223	0.0162265
760.301	0.0162651
760.379	0.0163152
760.457	0.0162585
760.535	0.0161839
760.613	0.0161112
760.692	0.0161209
760.770	0.0162714
760.848	0.0164356
760.926	0.0163024
761.004	0.0162273
761.082	0.0161921
761.160	0.0163284
761.238	0.0162426
761.317	0.0162743
761.395	0.0162070
761.473	0.0162477
761.551	0.0164048
761.629	0.0162414
761.707	0.0163327
761.785	0.0162369
761.863	0.0163271
761.942	0.0164423
762.020	0.0163142
762.098	0.0162045
762.176	0.0163340
762.254	0.0164565
762.332	0.0163784
762.410	0.0162249
762.488	0.0163348
762.567	0.0162178
762.645	0.0162265
762.723	0.0162701
762.801	0.0164233
762.879	0.0162801
762.957	0.0163292
763.035	0.0163735
763.113	0.0162361
763.192	0.0162096
763.270	0.0163945
763.348	0.0162366
763.426	0.0163425
763.504	0.0162885
763.582	0.0162814
763.660	0.0163295
763.738	0.0161995
763.817	0.0162928
763.895	0.0162617
763.973	0.0161919
764.051	0.0161609
764.129	0.0161281
764.207	0.0161529
764.285	0.0160144
764.363	0.0160488
764.442	0.0161078
764.520	0.0160559
764.598	0.0161123
764.676	0.0159587
764.754	0.0159734
764.832	0.0159879
764.910	0.0158758
764.988	0.0159377
765.067	0.0158508
765.145	0.0159850
765.223	0.0159762
765.301	0.0160612
765.379	0.0159824
765.457	0.0160843
765.535	0.0160388
765.613	0.0161925
765.692	0.0160501
765.770	0.0162091
765.848	0.0162064
765.926	0.0162117
766.004	0.0161606
766.082	0.0160448
766.160	0.0160585
766.238	0.0161309
766.317	0.0161661
766.395	0.0161092
766.473	0.0161467
766.551	0.0162504
766.629	0.0160826
766.707	0.0160698
766.785	0.0161656
766.863	0.0160436
766.942	0.0162083
767.020	0.0162151
767.098	0.0161057
767.176	0.0161188
767.254	0.0158710
767.332	0.0160950
767.410	0.0161362
767.488	0.0159614
767.567	0.0160790
767.645	0.0158752
767.723	0.0159752
767.801	0.0159549
767.879	0.0160939
767.957	0.0160283
768.035	0.0160934
768.113	0.0160756
768.192	0.0161466
768.270	0.0160664
768.348	0.0162514
768.426	0.0162982
768.504	0.0162831
768.582	0.0162826
768.660	0.0163719
768.738	0.0163463
768.817	0.0164049
768.895	0.0164999
768.973	0.0164502
769.051	0.0163940
769.129	0.0163678
769.207	0.0162646
769.285	0.0163486
769.363	0.0163184
769.442	0.0165079
769.520	0.0163123
769.598	0.0162914
769.676	0.0163132
769.754	0.0163306
769.832	0.0162508
769.910	0.0161433
769.988	0.0161557
770.067	0.0162209
770.145	0.0161951
770.223	0.0162424
770.301	0.0161378
770.379	0.0162173
770.457	0.0160867
770.535	0.0160495
770.613	0.0161319
770.692	0.0161989
770.770	0.0161914
770.848	0.0160210
770.926	0.0161124
771.004	0.0161383
771.082	0.0163403
771.160	0.0161800
771.238	0.0160224
771.317	0.0161359
771.395	0.0162764
771.473	0.0161931
771.551	0.0162196
771.629	0.0164185
771.707	0.0163412
771.785	0.0162732
771.863	0.0163057
771.942	0.0162174
772.020	0.0161346
772.098	0.0162429
772.176	0.0162103
772.254	0.0162308
772.332	0.0161314
772.410	0.0160914
772.488	0.0161292
772.567	0.0161966
772.645	0.0162462
772.723	0.0161636
772.801	0.0160960
772.879	0.0160634
772.957	0.0160448
773.035	0.0161832
773.113	0.0162096
773.192	0.0162625
773.270	0.0162058
773.348	0.0161250
773.426	0.0163394
773.504	0.0162047
773.582	0.0160933
773.660	0.0160854
773.738	0.0162373
773.817	0.0162389
773.895	0.0161743
773.973	0.0161578
774.051	0.0160976
774.129	0.0161506
774.207	0.0162042
774.285	0.0161298
774.363	0.0161866
774.442	0.0160679
774.520	0.0162012
774.598	0.0160961
774.676	0.0161202
774.754	0.0160246
774.832	0.0161250
774.910	0.0161124
774.988	0.0160379
775.067	0.0160469
775.145	0.0161448
775.223	0.0159834
775.301	0.0160400
775.379	0.0159782
775.457	0.0159425
775.535	0.0159646
775.613	0.0159315
775.692	0.0160011
775.770	0.0160310
775.848	0.0158910
775.926	0.0160374
776.004	0.0160056
776.082	0.0160966
776.160	0.0161619
776.238	0.0160918
776.317	0.0161996
776.395	0.0161815
776.473	0.0160795
776.551	0.0161831
776.629	0.0161684
776.707	0.0163053
776.785	0.0163058
776.863	0.0160726
776.942	0.0161410
777.020	0.0162652
777.098	0.0162966
777.176	0.0162049
777.254	0.0162443
777.332	0.0163570
777.410	0.0162708
777.488	0.0162927
777.567	0.0162912
777.645	0.0162965
777.723	0.0162959
777.801	0.0162820
777.879	0.0162811
777.957	0.0164256
778.035	0.0164017
778.113	0.0163171
778.192	0.0162469
778.270	0.0162316
778.348	0.0162085
778.426	0.0163598
778.504	0.0162301
778.582	0.0163750
778.660	0.0163043
778.738	0.0162945
778.817	0.0161991
778.895	0.0161520
778.973	0.0162270
779.051	0.0161785
779.129	0.0160732
779.207	0.0161726
779.285	0.0162487
779.363	0.0163163
779.442	0.0161189
779.520	0.0163049
779.598	0.0161805
779.676	0.0162479
779.754	0.0162486
779.832	0.0161245
779.910	0.0161230
779.988	0.0162233
780.067	0.0163202
780.145	0.0160905
780.223	0.0161365
780.301	0.0160796
780.379	0.0158982
780.457	0.0159388
780.535	0.0160081
780.613	0.0160034
780.692	0.0159778
780.770	0.0160388
780.848	0.0160905
780.926	0.0160054
781.004	0.0161421
781.082	0.0161909
781.160	0.0161331
781.238	0.0161108
781.317	0.0162796
781.395	0.0162071
781.473	0.0161974
781.551	0.0161855
781.629	0.0161568
781.707	0.0161626
781.785	0.0163068
781.863	0.0160510
781.942	0.0162891
782.020	0.0162558
782.098	0.0162344
782.176	0.0161539
782.254	0.0161259
782.332	0.0161653
782.410	0.0160668
782.488	0.0162051
782.567	0.0161730
782.645	0.0159898
782.723	0.0160041
782.801	0.0161037
782.879	0.0160569
782.957	0.0159570
783.035	0.0158716
783.113	0.0159077
783.192	0.0160045
783.270	0.0160010
783.348	0.0162085
783.426	0.0160690
783.504	0.0160751
783.582	0.0160381
783.660	0.0161623
783.738	0.0162661
783.817	0.0161584
783.895	0.0161636
783.973	0.0162143
784.051	0.0163501
784.129	0.0162805
784.207	0.0164018
784.285	0.0161385
784.363	0.0163290
784.442	0.0163150
784.520	0.0161268
784.598	0.0160473
784.676	0.0160350
784.754	0.0159896
784.832	0.0158549
784.910	0.0157516
784.988	0.0158218
785.067	0.0157867
785.145	0.0157798
785.223	0.0158356
785.301	0.0158585
785.379	0.0160434
785.457	0.0160327
785.535	0.0159356
785.613	0.0161431
785.692	0.0162473
785.770	0.0161899
785.848	0.0162961
785.926	0.0164777
786.004	0.0165472
786.082	0.0165826
786.160	0.0165963
786.238	0.0169193
786.317	0.0171236
786.395	0.0170795
786.473	0.0172017
786.551	0.0171613
786.629	0.0174531
786.707	0.0172834
786.785	0.0170678
786.863	0.0171232
786.942	0.0169546
787.020	0.0168710
787.098	0.0167781
787.176	0.0166287
787.254	0.0164766
787.332	0.0162157
787.410	0.0160648
787.488	0.0160486
787.567	0.0159913
787.645	0.0158411
787.723	0.0155820
787.801	0.0155947
787.879	0.0153316
787.957	0.0152500
788.035	0.0151261
788.113	0.0151313
788.192	0.0149922
788.270	0.0149895
788.348	0.0149767
788.426	0.0148813
788.504	0.0149567
788.582	0.0152012
788.660	0.0152129
788.738	0.0152244
788.817	0.0153532
788.895	0.0156220
788.973	0.0156950
789.051	0.0156953
789.129	0.0158727
789.207	0.0159801
789.285	0.0161400
789.363	0.0160716
789.442	0.0164353
789.520	0.0164632
789.598	0.0166008
789.676	0.0166509
789.754	0.0166458
789.832	0.0167957
789.910	0.0169114
789.988	0.0169489
790.067	0.0170997
790.145	0.0168886
790.223	0.0169756
790.301	0.0171537
790.379	0.0170470
790.457	0.0170006
790.535	0.0170248
790.613	0.0170116
790.692	0.0169418
790.770	0.0169745
790.848	0.0167175
790.926	0.0167771
791.004	0.0168558
791.082	0.0168786
791.160	0.0165973
791.238	0.0166374
791.317	0.0164669
791.395	0.0164660
791.473	0.0163448
791.551	0.0162166
791.629	0.0161516
791.707	0.0160732
791.785	0.0160249
791.863	0.0160345
791.942	0.0159811
792.020	0.0158300
792.098	0.0157603
792.176	0.0157060
792.254	0.0156538
792.332	0.0155753
792.410	0.0156794
792.488	0.0154188
792.567	0.0155665
792.645	0.0156412
792.723	0.0155476
792.801	0.0154308
792.879	0.0156062
792.957	0.0155602
793.035	0.0155730
793.113	0.0155522
793.192	0.0154832
793.270	0.0155293
793.348	0.0155424
793.426	0.0157229
793.504	0.0156284
793.582	0.0155019
793.660	0.0156148
793.738	0.0157134
793.817	0.0156157
793.895	0.0158059
793.973	0.0156995
794.051	0.0156515
794.129	0.0159077
794.207	0.0160896
794.285	0.0160583
794.363	0.0160657
794.442	0.0162472
794.520	0.0163033
794.598	0.0164948
794.676	0.0163976
794.754	0.0164030
794.832	0.0166029
794.910	0.0165979
794.988	0.0165910
795.067	0.0168126
795.145	0.0165551
795.223	0.0165747
795.301	0.0166207
795.379	0.0166974
795.457	0.0165706
795.535	0.0165446
795.613	0.0166068
795.692	0.0165835
795.770	0.0165929
795.848	0.0165573
795.926	0.0164638
796.004	0.0164315
796.082	0.0164622
796.160	0.0166324
796.238	0.0165324
796.317	0.0165639
796.395	0.0163766
796.473	0.0165125
796.551	0.0164060
796.629	0.0165707
796.707	0.0164346
796.785	0.0164030
796.863	0.0163841
796.942	0.0164862
797.020	0.0164051
797.098	0.0163809
797.176	0.0162907
797.254	0.0163361
797.332	0.0163269
797.410	0.0162947
797.488	0.0160946
797.567	0.0159579
797.645	0.0159666
797.723	0.0160447
797.801	0.0160545
797.879	0.0160846
797.957	0.0159978
798.035	0.0159299
798.113	0.0160275
798.192	0.0159049
798.270	0.0158002
798.348	0.0156944
798.426	0.0158064
798.504	0.0159575
798.582	0.0157538
798.660	0.0157908
798.738	0.0158220
798.817	0.0157107
798.895	0.0158086
798.973	0.0158301
799.051	0.0157350
799.129	0.0157180
799.207	0.0159272
799.285	0.0158783
799.363	0.0157856
799.442	0.0158363
799.520	0.0158084
799.598	0.0158841
799.676	0.0158311
799.754	0.0158752
799.832	0.0159502
799.910	0.0159039
799.988	0.0159606
800.067	0.0160242
800.145	0.0160310
800.223	0.0159654
800.301	0.0159952
800.379	0.0161584
800.457	0.0160178
800.535	0.0160831
800.613	0.0160101
800.692	0.0159871
800.770	0.0161211
800.848	0.0161706
800.926	0.0160608
801.004	0.0161583
801.082	0.0162610
801.160	0.0162090
801.238	0.0163699
801.317	0.0163290
801.395	0.0162823
801.473	0.0163235
801.551	0.0165232
801.629	0.0164052
801.707	0.0163656
801.785	0.0164410
801.863	0.0164475
801.942	0.0165120
802.020	0.0164350
802.098	0.0165937
802.176	0.0166072
802.254	0.0166283
802.332	0.0165212
802.410	0.0165358
802.488	0.0164951
802.567	0.0166386
802.645	0.0166095
802.723	0.0164936
802.801	0.0165055
802.879	0.0165076
802.957	0.0162962
803.035	0.0163513
803.113	0.0163494
803.192	0.0163658
803.270	0.0162337
803.348	0.0163380
803.426	0.0160676
803.504	0.0160388
803.582	0.0161521
803.660	0.0162180
803.738	0.0159144
803.817	0.0158112
803.895	0.0160055
803.973	0.0158498
804.051	0.0158411
804.129	0.0159749
804.207	0.0159482
804.285	0.0159600
804.363	0.0159451
804.442	0.0159363
804.520	0.0159041
804.598	0.0160004
804.676	0.0160004
804.754	0.0160210
804.832	0.0161719
804.910	0.0159777
804.988	0.0160046
805.067	0.0160783
805.145	0.0160398
805.223	0.0160905
805.301	0.0161572
805.379	0.0162323
805.457	0.0161434
805.535	0.0162553
805.613	0.0162646
805.692	0.0162138
805.770	0.0161715
805.848	0.0162350
805.926	0.0161476
806.004	0.0161175
806.082	0.0162688
806.160	0.0161891
806.238	0.0162444
806.317	0.0161652
806.395	0.0161557
806.473	0.0161422
806.551	0.0162530
806.629	0.0162602
806.707	0.0162373
806.785	0.0160642
806.863	0.0161568
806.942	0.0161509
807.020	0.0162370
807.098	0.0162785
807.176	0.0161764
807.254	0.0160414
807.332	0.0160614
807.410	0.0161784
807.488	0.0160863
807.567	0.0159247
807.645	0.0159264
807.723	0.0160801
807.801	0.0160416
807.879	0.0159435
807.957	0.0160187
808.035	0.0160120
808.113	0.0159843
808.192	0.0159602
808.270	0.0159737
808.348	0.0160056
808.426	0.0160366
808.504	0.0159827
808.582	0.0161346
808.660	0.0159682
808.738	0.0159203
808.817	0.0160762
808.895	0.0159550
808.973	0.0160114
809.051	0.0160973
809.129	0.0160796
809.207	0.0159453
809.285	0.0161166
809.363	0.0160812
809.442	0.0161423
809.520	0.0161185
809.598	0.0161730
809.676	0.0164054
809.754	0.0162267
809.832	0.0162699
809.910	0.0163599
809.988	0.0164196
810.067	0.0162689
810.145	0.0162400
810.223	0.0162814
810.301	0.0163412
810.379	0.0163725
810.457	0.0164061
810.535	0.0162688
810.613	0.0162820
810.692	0.0163900
810.770	0.0162579
810.848	0.0162675
810.926	0.0162511
811.004	0.0162698
811.082	0.0163120
811.160	0.0163403
811.238	0.0162568
811.317	0.0164022
811.395	0.0162904
811.473	0.0161884
811.551	0.0163675
811.629	0.0164503
811.707	0.0163265
811.785	0.0162769
811.863	0.0161826
811.942	0.0163728
812.020	0.0163138
812.098	0.0163715
812.176	0.0163500
812.254	0.0162333
812.332	0.0162370
812.410	0.0162439
812.488	0.0162431
812.567	0.0161147
812.645	0.0161526
812.723	0.0162055
812.801	0.0162109
812.879	0.0159895
812.957	0.0160186
813.035	0.0160632
813.113	0.0160857
813.192	0.0160063
813.270	0.0160294
813.348	0.0159498
813.426	0.0159531
813.504	0.0159429
813.582	0.0160195
813.660	0.0158777
813.738	0.0160919
813.817	0.0160214
813.895	0.0161156
813.973	0.0160799
814.051	0.0161018
814.129	0.0162707
814.207	0.0162515
814.285	0.0163026
814.363	0.0163132
814.442	0.0162386
814.520	0.0161467
814.598	0.0162309
814.676	0.0161920
814.754	0.0162326
814.832	0.0161883
814.910	0.0160817
814.988	0.0161007
815.067	0.0160625
815.145	0.0159468
815.223	0.0158820
815.301	0.0157176
815.379	0.0160214
815.457	0.0158871
815.535	0.0159091
815.613	0.0157976
815.692	0.0158383
815.770	0.0157719
815.848	0.0159903
815.926	0.0159746
816.004	0.0159328
816.082	0.0160065
816.160	0.0160378
816.238	0.0160696
816.317	0.0161700
816.395	0.0162141
816.473	0.0163313
816.551	0.0162718
816.629	0.0162412
816.707	0.0163940
816.785	0.0162265
816.863	0.0163310
816.942	0.0163489
817.020	0.0163995
817.098	0.0163968
817.176	0.0163946
817.254	0.0162497
817.332	0.0162743
817.410	0.0163075
817.488	0.0162117
817.567	0.0161103
817.645	0.0162076
817.723	0.0163264
817.801	0.0161125
817.879	0.0162136
817.957	0.0161510
818.035	0.0160766
818.113	0.0161783
818.192	0.0160328
818.270	0.0161219
818.348	0.0161259
818.426	0.0161753
818.504	0.0160754
818.582	0.0160936
818.660	0.0160382
818.738	0.0161257
818.817	0.0161407
818.895	0.0163072
818.973	0.0161315
819.051	0.0161855
819.129	0.0162905
819.207	0.0164088
819.285	0.0161689
819.363	0.0161972
819.442	0.0161674
819.520	0.0164302
819.598	0.0164119
819.676	0.0163537
819.754	0.0164635
819.832	0.0164086
819.910	0.0164371
819.988	0.0163947
820.067	0.0164697
820.145	0.0163952
820.223	0.0162931
820.301	0.0163400
820.379	0.0163927
820.457	0.0161595
820.535	0.0161404
820.613	0.0162034
820.692	0.0161939
820.770	0.0160788
820.848	0.0160463
820.926	0.0161272
821.004	0.0162681
821.082	0.0160952
821.160	0.0160669
821.238	0.0159487
821.317	0.0160526
821.395	0.0159009
821.473	0.0160912
821.551	0.0161026
821.629	0.0159757
821.707	0.0159209
821.785	0.0160949
821.863	0.0161286
821.942	0.0161078
822.020	0.0160870
822.098	0.0161747
822.176	0.0159763
822.254	0.0161480
822.332	0.0161408
822.410	0.0160343
822.488	0.0160677
822.567	0.0161504
822.645	0.0160900
822.723	0.0161373
822.801	0.0160136
822.879	0.0160735
822.957	0.0159895
823.035	0.0160718
823.113	0.0160769
823.192	0.0159360
823.270	0.0160902
823.348	0.0160236
823.426	0.0161385
823.504	0.0160376
823.582	0.0159869
823.660	0.0160150
823.738	0.0158649
823.817	0.0160003
823.895	0.0161140
823.973	0.0158751
824.051	0.0160050
824.129	0.0159172
824.207	0.0160296
824.285	0.0159585
824.363	0.0160159
824.442	0.0160052
824.520	0.0158633
824.598	0.0159242
824.676	0.0161602
824.754	0.0160203
824.832	0.0161954
824.910	0.0161052
824.988	0.0161468
825.067	0.0162222
825.145	0.0160580
825.223	0.0161520
825.301	0.0163026
825.379	0.0162785
825.457	0.0163250
825.535	0.0163103
825.613	0.0163055
825.692	0.0163770
825.770	0.0162998
825.848	0.0164848
825.926	0.0165094
826.004	0.0163756
826.082	0.0164753
826.160	0.0163435
826.238	0.0163683
826.317	0.0164068
826.395	0.0162414
826.473	0.0163033
826.551	0.0164153
826.629	0.0162402
826.707	0.0162834
826.785	0.0163081
826.863	0.0163719
826.942	0.0163644
827.020	0.0165450
827.098	0.0163199
827.176	0.0162736
827.254	0.0162885
827.332	0.0163757
827.410	0.0163502
827.488	0.0163911
827.567	0.0162188
827.645	0.0163240
827.723	0.0162592
827.801	0.0162151
827.879	0.0162426
827.957	0.0162621
828.035	0.0161867
828.113	0.0161093
828.192	0.0161340
828.270	0.0163092
828.348	0.0161048
828.426	0.0161016
828.504	0.0160146
828.582	0.0159719
828.660	0.0160152
828.738	0.0159196
828.817	0.0158950
828.895	0.0159489
828.973	0.0158585
829.051	0.0157887
829.129	0.0159348
829.207	0.0159217
829.285	0.0159533
829.363	0.0159592
829.442	0.0159398
829.520	0.0158983
829.598	0.0160295
829.676	0.0158173
829.754	0.0159593
829.832	0.0159835
829.910	0.0158422
829.988	0.0159245
830.067	0.0161074
830.145	0.0159108
830.223	0.0159001
830.301	0.0160103
830.379	0.0160254
830.457	0.0162090
830.535	0.0161758
830.613	0.0161145
830.692	0.0159842
830.770	0.0160700
830.848	0.0161903
830.926	0.0161201
831.004	0.0161569
831.082	0.0161285
831.160	0.0162601
831.238	0.0162241
831.317	0.0160769
831.395	0.0160395
831.473	0.0161349
831.551	0.0162785
831.629	0.0161106
831.707	0.0161850
831.785	0.0162659
831.863	0.0163696
831.942	0.0162357
832.020	0.0163873
832.098	0.0163579
832.176	0.0163554
832.254	0.0161007
832.332	0.0162791
832.410	0.0163647
832.488	0.0163249
832.567	0.0163139
832.645	0.0163011
832.723	0.0162341
832.801	0.0162354
832.879	0.0161541
832.957	0.0162415
833.035	0.0161343
833.113	0.0161061
833.192	0.0160197
833.270	0.0160170
833.348	0.0160326
833.426	0.0161636
833.504	0.0161454
833.582	0.0161762
833.660	0.0160897
833.738	0.0160207
833.817	0.0161929
833.895	0.0160677
833.973	0.0159931
834.051	0.0160499
834.129	0.0161501
834.207	0.0160896
834.285	0.0160293
834.363	0.0160706
834.442	0.0162886
834.520	0.0161299
834.598	0.0161034
834.676	0.0160526
834.754	0.0160756
834.832	0.0161983
834.910	0.0161035
834.988	0.0160975
835.067	0.0160604
835.145	0.0161397
835.223	0.0161600
835.301	0.0160773
835.379	0.0162223
835.457	0.0160907
835.535	0.0161604
835.613	0.0161528
835.692	0.0160883
835.770	0.0161443
835.848	0.0162024
835.926	0.0160651
836.004	0.0161178
836.082	0.0160889
836.160	0.0161600
836.238	0.0160211
836.317	0.0161580
836.395	0.0161552
836.473	0.0163190
836.551	0.0162556
836.629	0.0161289
836.707	0.0160668
836.785	0.0159945
836.863	0.0160979
836.942	0.0160587
837.020	0.0161020
837.098	0.0161462
837.176	0.0162257
837.254	0.0161739
837.332	0.0162135
837.410	0.0161437
837.488	0.0162189
837.567	0.0160411
837.645	0.0161375
837.723	0.0162917
837.801	0.0161266
837.879	0.0160883
837.957	0.0161928
838.035	0.0162024
838.113	0.0161883
838.192	0.0163308
838.270	0.0161729
838.348	0.0162341
838.426	0.0162144
838.504	0.0161756
838.582	0.0163084
838.660	0.0162043
838.738	0.0161488
838.817	0.0161942
838.895	0.0161304
838.973	0.0162228
839.051	0.0162019
839.129	0.0162317
839.207	0.0161695
839.285	0.0160718
839.363	0.0161243
839.442	0.0160973
839.520	0.0161494
839.598	0.0162492
839.676	0.0160267
839.754	0.0160184
839.832	0.0160123
839.910	0.0160465
839.988	0.0159595
840.067	0.0160182
840.145	0.0159805
840.223	0.0160713
840.301	0.0160713
840.379	0.0160297
840.457	0.0160756
840.535	0.0161278
840.613	0.0160595
840.692	0.0161459
840.770	0.0161123
840.848	0.0161305
840.926	0.0161428
841.004	0.0161387
841.082	0.0161780
841.160	0.0161385
841.238	0.0160958
841.317	0.0162460
841.395	0.0160340
841.473	0.0161755
841.551	0.0162399
841.629	0.0161658
841.707	0.0160860
841.785	0.0162211
841.863	0.0161925
841.942	0.0161131
842.020	0.0160077
842.098	0.0160155
842.176	0.0162529
842.254	0.0161664
842.332	0.0161863
842.410	0.0160782
842.488	0.0161082
842.567	0.0162933
842.645	0.0162650
842.723	0.0160762
842.801	0.0160844
842.879	0.0162113
842.957	0.0161639
843.035	0.0163200
843.113	0.0162511
843.192	0.0163316
843.270	0.0163385
843.348	0.0162992
843.426	0.0162508
843.504	0.0164102
843.582	0.0162566
843.660	0.0162525
843.738	0.0163661
843.817	0.0163379
843.895	0.0163567
843.973	0.0162878
844.051	0.0162511
844.129	0.0163065
844.207	0.0163695
844.285	0.0161755
844.363	0.0162010
844.442	0.0162485
844.520	0.0162254
844.598	0.0161433
844.676	0.0162722
844.754	0.0162498
844.832	0.0161570
844.910	0.0160439
844.988	0.0161372
845.067	0.0160297
845.145	0.0161981
845.223	0.0161202
845.301	0.0161559
845.379	0.0161523
845.457	0.0159857
845.535	0.0159893
845.613	0.0160442
845.692	0.0161832
845.770	0.0160219
845.848	0.0161086
845.926	0.0160564
846.004	0.0162441
846.082	0.0160556
846.160	0.0161056
846.238	0.0160332
846.317	0.0160252
846.395	0.0160896
846.473	0.0160452
846.551	0.0161913
846.629	0.0160111
846.707	0.0162104
846.785	0.0163027
846.863	0.0161555
846.942	0.0160525
847.020	0.0161108
847.098	0.0161859
847.176	0.0161530
847.254	0.0160948
847.332	0.0163348
847.410	0.0161536
847.488	0.0161309
847.567	0.0161089
847.645	0.0160896
847.723	0.0161795
847.801	0.0160934
847.879	0.0161675
847.957	0.0161643
848.035	0.0160094
848.113	0.0160304
848.192	0.0161637
848.270	0.0160876
848.348	0.0161653
848.426	0.0159254
848.504	0.0161038
848.582	0.0162216
848.660	0.0160180
848.738	0.0161980
848.817	0.0162654
848.895	0.0161759
848.973	0.0162238
849.051	0.0161672
849.129	0.0162295
849.207	0.0162699
849.285	0.0162090
849.363	0.0163120
849.442	0.0162798
849.520	0.0162000
849.598	0.0162904
849.676	0.0163866
849.754	0.0163340
849.832	0.0163238
849.910	0.0163029
849.988	0.0161569
850.067	0.0162746
850.145	0.0162221
850.223	0.0162917
850.301	0.0161826
850.379	0.0163496
850.457	0.0162103
850.535	0.0163089
850.613	0.0163064
850.692	0.0162035
850.770	0.0161630
850.848	0.0162011
850.926	0.0161809
851.004	0.0161210
851.082	0.0161671
851.160	0.0161549
851.238	0.0161598
851.317	0.0161237
851.395	0.0162183
851.473	0.0160460
851.551	0.0161502
851.629	0.0160979
851.707	0.0161816
851.785	0.0161597
851.863	0.0161008
851.942	0.0161402
852.020	0.0160154
852.098	0.0160483
852.176	0.0159892
852.254	0.0161179
852.332	0.0160304
852.410	0.0160497
852.488	0.0160112
852.567	0.0161482
852.645	0.0160433
852.723	0.0161656
852.801	0.0162130
852.879	0.0161647
852.957	0.0160960
853.035	0.0160923
853.113	0.0161894
853.192	0.0162186
853.270	0.0161022
853.348	0.0162529
853.426	0.0161767
853.504	0.0162001
853.582	0.0162594
853.660	0.0162419
853.738	0.0162437
853.817	0.0161933
853.895	0.0162903
853.973	0.0161998
854.051	0.0162316
854.129	0.0162537
854.207	0.0162158
854.285	0.0161770
854.363	0.0162671
854.442	0.0160889
854.520	0.0162099
854.598	0.0162255
854.676	0.0163129
854.754	0.0160784
854.832	0.0160207
854.910	0.0161251
854.988	0.0163256
855.067	0.0160533
855.145	0.0160498
855.223	0.0161321
855.301	0.0160446
855.379	0.0160871
855.457	0.0160537
855.535	0.0161675
855.613	0.0160780
855.692	0.0161451
855.770	0.0161186
855.848	0.0161933
855.926	0.0161560
856.004	0.0161615
856.082	0.0160732
856.160	0.0162320
856.238	0.0161758
856.317	0.0162109
856.395	0.0162650
856.473	0.0160250
856.551	0.0161538
856.629	0.0161766
856.707	0.0161533
856.785	0.0161946
856.863	0.0161485
856.942	0.0161133
857.020	0.0161423
857.098	0.0161589
857.176	0.0161105
857.254	0.0160899
857.332	0.0161074
857.410	0.0161143
857.488	0.0162189
857.567	0.0162179
857.645	0.0160839
857.723	0.0162695
857.801	0.0162760
857.879	0.0163785
857.957	0.0160722
858.035	0.0161542
858.113	0.0162038
858.192	0.0162042
858.270	0.0161835
858.348	0.0162399
858.426	0.0161116
858.504	0.0161266
858.582	0.0160846
858.660	0.0162159
858.738	0.0159633
858.817	0.0161349
858.895	0.0162397
858.973	0.0159989
859.051	0.0161218
859.129	0.0161631
859.207	0.0161028
859.285	0.0160339
859.363	0.0160300
859.442	0.0162108
859.520	0.0160868
859.598	0.0161565
859.676	0.0160870
859.754	0.0160912
859.832	0.0160970
859.910	0.0162504
859.988	0.0163049
860.067	0.0161998
860.145	0.0161662
860.223	0.0161861
860.301	0.0162518
860.379	0.0163440
860.457	0.0162489
860.535	0.0162755
860.613	0.0163289
860.692	0.0162341
860.770	0.0161959
860.848	0.0161502
860.926	0.0163309
861.004	0.0162447
861.082	0.0163076
861.160	0.0162996
861.238	0.0161820
861.317	0.0161421
861.395	0.0162943
861.473	0.0162437
861.551	0.0160609
861.629	0.0162287
861.707	0.0163037
861.785	0.0162505
861.863	0.0160540
861.942	0.0161185
862.020	0.0161861
862.098	0.0161423
862.176	0.0161870
862.254	0.0161356
862.332	0.0161017
862.410	0.0161933
862.488	0.0160118
862.567	0.0162151
862.645	0.0162570
862.723	0.0160714
862.801	0.0160728
862.879	0.0159884
862.957	0.0160209
863.035	0.0161290
863.113	0.0161062
863.192	0.0160871
863.270	0.0161441
863.348	0.0161441
863.426	0.0161974
863.504	0.0161276
863.582	0.0160493
863.660	0.0160875
863.738	0.0161116
863.817	0.0160911
863.895	0.0160740
863.973	0.0160245
864.051	0.0159906
864.129	0.0160384
864.207	0.0159734
864.285	0.0159940
864.363	0.0160479
864.442	0.0161106
864.520	0.0160156
864.598	0.0161826
864.676	0.0162031
864.754	0.0160154
864.832	0.0162056
864.910	0.0160699
864.988	0.0160876
865.067	0.0161545
865.145	0.0162790
865.223	0.0160210
865.301	0.0160313
865.379	0.0160775
865.457	0.0161250
865.535	0.0160011
865.613	0.0160852
865.692	0.0163120
865.770	0.0161238
865.848	0.0160461
865.926	0.0161569
866.004	0.0162698
866.082	0.0162140
866.160	0.0162601
866.238	0.0161777
866.317	0.0161378
866.395	0.0162187
866.473	0.0161073
866.551	0.0162460
866.629	0.0162063
866.707	0.0161803
866.785	0.0161700
866.863	0.0161465
866.942	0.0161763
867.020	0.0161699
867.098	0.0161750
867.176	0.0161919
867.254	0.0162031
867.332	0.0161639
867.410	0.0162217
867.488	0.0164117
867.567	0.0162381
867.645	0.0161972
867.723	0.0162049
867.801	0.0163228
867.879	0.0162561
867.957	0.0162551
868.035	0.0162213
868.113	0.0161520
868.192	0.0162280
868.270	0.0162971
868.348	0.0162445
868.426	0.0161517
868.504	0.0162215
868.582	0.0163099
868.660	0.0161367
868.738	0.0161442
868.817	0.0162047
868.895	0.0162875
868.973	0.0161186
869.051	0.0160806
869.129	0.0160897
869.207	0.0161589
869.285	0.0161125
869.363	0.0162051
869.442	0.0161031
869.520	0.0161035
869.598	0.0161035
869.676	0.0161929
869.754	0.0162084
869.832	0.0161964
869.910	0.0160280
869.988	0.0162484
870.067	0.0160603
870.145	0.0160603
870.223	0.0161805
870.301	0.0161933
870.379	0.0161768
870.457	0.0160690
870.535	0.0161338
870.613	0.0160777
870.692	0.0162090
870.770	0.0159776
870.848	0.0159604
870.926	0.0162301
871.004	0.0162679
871.082	0.0159924
871.160	0.0160728
871.238	0.0161449
871.317	0.0160851
871.395	0.0161015
871.473	0.0161687
871.551	0.0162991
871.629	0.0161696
871.707	0.0161653
871.785	0.0161185
871.863	0.0161088
871.942	0.0162377
872.020	0.0163323
872.098	0.0162074
872.176	0.0162074
872.254	0.0162525
872.332	0.0161722
872.410	0.0161656
872.488	0.0161478
872.567	0.0161360
872.645	0.0162173
872.723	0.0161049
872.801	0.0161862
872.879	0.0161427
872.957	0.0161970
873.035	0.0161099
873.113	0.0162045
873.192	0.0161584
873.270	0.0160855
873.348	0.0162295
873.426	0.0161320
873.504	0.0160761
873.582	0.0162331
873.660	0.0162051
873.738	0.0161915
873.817	0.0161422
873.895	0.0161625
873.973	0.0161552
874.051	0.0162479
874.129	0.0161788
874.207	0.0160983
874.285	0.0162482
874.363	0.0161680
874.442	0.0161490
874.520	0.0159949
874.598	0.0162135
874.676	0.0162298
874.754	0.0162335
874.832	0.0160915
874.910	0.0160860
874.988	0.0161777
875.067	0.0161847
875.145	0.0161864
875.223	0.0161300
875.301	0.0160378
875.379	0.0161895
875.457	0.0161886
875.535	0.0161232
875.613	0.0161769
875.692	0.0161596
875.770	0.0161356
875.848	0.0160799
875.926	0.0161272
876.004	0.0162355
876.082	0.0161334
876.160	0.0162031
876.238	0.0161575
876.317	0.0161932
876.395	0.0162978
876.473	0.0161945
876.551	0.0161681
876.629	0.0161316
876.707	0.0161476
876.785	0.0163436
876.863	0.0163218
876.942	0.0162507
877.020	0.0161490
877.098	0.0162263
877.176	0.0161703
877.254	0.0162840
877.332	0.0161323
877.410	0.0161810
877.488	0.0161983
877.567	0.0162771
877.645	0.0161108
877.723	0.0161247
877.801	0.0160759
877.879	0.0159753
877.957	0.0161268
878.035	0.0161762
878.113	0.0160651
878.192	0.0159975
878.270	0.0161123
878.348	0.0160958
878.426	0.0161033
878.504	0.0158739
878.582	0.0160197
878.660	0.0160863
878.738	0.0160815
878.817	0.0160395
878.895	0.0159980
878.973	0.0159692
879.051	0.0161209
879.129	0.0162074
879.207	0.0162210
879.285	0.0162965
879.363	0.0163789
879.442	0.0163264
879.520	0.0163133
879.598	0.0162466
879.676	0.0162472
879.754	0.0162210
879.832	0.0160956
879.910	0.0160134
879.988	0.0160166
880.067	0.0158039
880.145	0.0156493
880.223	0.0155719
880.301	0.0155112
880.379	0.0156013
880.457	0.0156036
880.535	0.0156995
880.613	0.0158756
880.692	0.0159975
880.770	0.0161479
880.848	0.0164710
880.926	0.0166350
881.004	0.0168150
881.082	0.0168198
881.160	0.0169663
881.238	0.0170392
881.317	0.0170049
881.395	0.0169762
881.473	0.0169065
881.551	0.0167175
881.629	0.0167079
881.707	0.0166671
881.785	0.0165678
881.863	0.0164299
881.942	0.0162659
882.020	0.0161993
882.098	0.0159566
882.176	0.0159225
882.254	0.0156595
882.332	0.0156996
882.410	0.0155002
882.488	0.0154462
882.567	0.0153787
882.645	0.0151848
882.723	0.0152557
882.801	0.0152579
882.879	0.0152822
882.957	0.0153516
883.035	0.0154292
883.113	0.0155002
883.192	0.0154446
883.270	0.0156297
883.348	0.0156755
883.426	0.0158601
883.504	0.0159756
883.582	0.0159353
883.660	0.0160970
883.738	0.0163885
883.817	0.0164422
883.895	0.0165472
883.973	0.0165066
884.051	0.0167502
884.129	0.0168341
884.207	0.0167372
884.285	0.0168290
884.363	0.0169270
884.442	0.0169788
884.520	0.0167986
884.598	0.0167079
884.676	0.0166531
884.754	0.0168018
884.832	0.0166169
884.910	0.0165311
884.988	0.0164429
885.067	0.0162041
885.145	0.0163084
885.223	0.0163643
885.301	0.0161136
885.379	0.0161673
885.457	0.0161256
885.535	0.0160517
885.613	0.0159628
885.692	0.0159459
885.770	0.0160500
885.848	0.0158099
885.926	0.0159082
886.004	0.0160038
886.082	0.0158984
886.160	0.0159447
886.238	0.0159092
886.317	0.0160403
886.395	0.0160678
886.473	0.0159446
886.551	0.0160494
886.629	0.0160284
886.707	0.0161044
886.785	0.0160842
886.863	0.0160502
886.942	0.0160955
887.020	0.0160496
887.098	0.0160467
887.176	0.0160508
887.254	0.0160287
887.332	0.0159792
887.410	0.0159947
887.488	0.0160189
887.567	0.0159682
887.645	0.0161069
887.723	0.0160518
887.801	0.0161115
887.879	0.0161493
887.957	0.0162014
888.035	0.0161343
888.113	0.0161143
888.192	0.0161194
888.270	0.0161290
888.348	0.0161437
888.426	0.0162841
888.504	0.0162655
888.582	0.0161549
888.660	0.0163208
888.738	0.0163705
888.817	0.0162080
888.895	0.0162818
888.973	0.0163250
889.051	0.0162814
889.129	0.0162414
889.207	0.0163017
889.285	0.0162920
889.363	0.0162173
889.442	0.0163096
889.520	0.0162508
889.598	0.0162150
889.676	0.0162280
889.754	0.0162540
889.832	0.0161761
889.910	0.0160856
889.988	0.0162208
890.067	0.0163117
890.145	0.0161453
890.223	0.0162302
890.301	0.0161052
890.379	0.0160952
890.457	0.0161388
890.535	0.0161428
890.613	0.0161359
890.692	0.0161968
890.770	0.0159802
890.848	0.0160413
890.926	0.0159917
891.004	0.0160061
891.082	0.0160830
891.160	0.0158160
891.238	0.0159257
891.317	0.0161083
891.395	0.0160886
891.473	0.0158749
891.551	0.0159962
891.629	0.0160985
891.707	0.0161858
891.785	0.0163355
891.863	0.0162067
891.942	0.0160963
892.020	0.0162223
892.098	0.0162145
892.176	0.0162568
892.254	0.0162882
892.332	0.0163689
892.410	0.0162029
892.488	0.0161652
892.567	0.0163364
892.645	0.0162669
892.723	0.0162013
892.801	0.0163298
892.879	0.0161693
892.957	0.0161107
893.035	0.0161423
893.113	0.0161715
893.192	0.0161936
893.270	0.0160573
893.348	0.0161935
893.426	0.0160780
893.504	0.0161283
893.582	0.0161825
893.660	0.0161310
893.738	0.0162939
893.817	0.0162376
893.895	0.0162423
893.973	0.0163674
894.051	0.0161749
894.129	0.0163484
894.207	0.0163651
894.285	0.0162608
894.363	0.0164226
894.442	0.0162773
894.520	0.0163199
894.598	0.0164338
894.676	0.0163143
894.754	0.0163615
894.832	0.0162459
894.910	0.0163689
894.988	0.0162394
895.067	0.0162953
895.145	0.0161835
895.223	0.0161753
895.301	0.0162364
895.379	0.0160459
895.457	0.0161559
895.535	0.0160034
895.613	0.0160707
895.692	0.0160382
895.770	0.0158803
895.848	0.0159979
895.926	0.0159550
896.004	0.0159480
896.082	0.0160169
896.160	0.0160647
896.238	0.0159667
896.317	0.0159880
896.395	0.0161339
896.473	0.0159437
896.551	0.0161230
896.629	0.0161795
896.707	0.0161973
896.785	0.0160575
896.863	0.0160728
896.942	0.0161185
897.020	0.0161466
897.098	0.0161082
897.176	0.0160642
897.254	0.0159293
897.332	0.0160658
897.410	0.0160297
897.488	0.0160843
897.567	0.0160602
897.645	0.0160979
897.723	0.0160284
897.801	0.0160692
897.879	0.0160454
897.957	0.0159450
898.035	0.0159982
898.113	0.0160456
898.192	0.0159213
898.270	0.0159601
898.348	0.0159874
898.426	0.0158625
898.504	0.0158267
898.582	0.0158980
898.660	0.0158617
898.738	0.0156735
898.817	0.0157536
898.895	0.0159243
898.973	0.0159480
899.051	0.0157329
899.129	0.0160126
899.207	0.0161059
899.285	0.0162299
899.363	0.0161749
899.442	0.0163055
899.520	0.0163005
899.598	0.0164286
899.676	0.0165591
899.754	0.0166225
899.832	0.0166023
899.910	0.0165700
899.988	0.0166650
900.067	0.0166173
900.145	0.0166235
900.223	0.0166896
900.301	0.0165601
900.379	0.0166833
900.457	0.0165970
900.535	0.0165371
900.613	0.0165235
900.692	0.0164759
900.770	0.0164844
900.848	0.0163534
900.926	0.0162307
901.004	0.0162917
901.082	0.0160956
901.160	0.0161488
901.238	0.0163530
901.317	0.0161321
901.395	0.0161247
901.473	0.0160940
901.551	0.0160712
901.629	0.0161014
901.707	0.0161929
901.785	0.0160468
901.863	0.0160822
901.942	0.0161913
902.020	0.0161227
902.098	0.0160007
902.176	0.0159203
902.254	0.0161100
902.332	0.0160127
902.410	0.0159163
902.488	0.0159477
902.567	0.0159826
902.645	0.0159509
902.723	0.0158975
902.801	0.0159074
902.879	0.0159114
902.957	0.0158442
903.035	0.0160021
903.113	0.0157284
903.192	0.0158677
903.270	0.0158789
903.348	0.0158763
903.426	0.0159813
903.504	0.0158710
903.582	0.0159584
903.660	0.0159444
903.738	0.0158878
903.817	0.0160465
903.895	0.0160437
903.973	0.0160526
904.051	0.0161131
904.129	0.0161533
904.207	0.0161430
904.285	0.0162408
904.363	0.0162284
904.442	0.0161492
904.520	0.0162955
904.598	0.0162289
904.676	0.0162115
904.754	0.0162827
904.832	0.0162937
904.910	0.0163842
904.988	0.0161761
905.067	0.0162002
905.145	0.0163388
905.223	0.0162515
905.301	0.0162466
905.379	0.0163342
905.457	0.0162132
905.535	0.0161369
905.613	0.0161959
905.692	0.0161941
905.770	0.0160505
905.848	0.0162112
905.926	0.0161698
906.004	0.0162392
906.082	0.0160619
906.160	0.0161275
906.238	0.0160514
906.317	0.0160659
906.395	0.0161320
906.473	0.0161067
906.551	0.0160598
906.629	0.0162660
906.707	0.0162302
906.785	0.0161914
906.863	0.0160947
906.942	0.0161818
907.020	0.0162683
907.098	0.0163321
907.176	0.0162467
907.254	0.0161870
907.332	0.0162105
907.410	0.0159361
907.488	0.0160840
907.567	0.0161917
907.645	0.0161449
907.723	0.0160316
907.801	0.0159924
907.879	0.0162125
907.957	0.0160364
908.035	0.0160878
908.113	0.0159875
908.192	0.0159915
908.270	0.0160786
908.348	0.0161660
908.426	0.0162761
908.504	0.0160942
908.582	0.0160622
908.660	0.0160970
908.738	0.0161404
908.817	0.0162315
908.895	0.0161549
908.973	0.0161797
909.051	0.0161755
909.129	0.0161410
909.207	0.0161982
909.285	0.0162150
909.363	0.0161378
909.442	0.0161218
909.520	0.0161082
909.598	0.0162086
909.676	0.0162109
909.754	0.0161676
909.832	0.0162246
909.910	0.0160267
909.988	0.0162931
910.067	0.0161377
910.145	0.0161182
910.223	0.0162151
910.301	0.0160660
910.379	0.0162348
910.457	0.0161651
910.535	0.0161510
910.613	0.0162424
910.692	0.0160636
910.770	0.0160767
910.848	0.0159976
910.926	0.0159677
911.004	0.0160664
911.082	0.0161701
911.160	0.0160748
911.238	0.0160619
911.317	0.0161480
911.395	0.0157967
911.473	0.0161063
911.551	0.0160056
911.629	0.0161680
911.707	0.0161095
911.785	0.0160766
911.863	0.0161370
911.942	0.0161150
912.020	0.0159687
912.098	0.0163372
912.176	0.0161205
912.254	0.0162274
912.332	0.0162175
912.410	0.0160122
912.488	0.0162291
912.567	0.0161153
912.645	0.0161738
912.723	0.0161854
912.801	0.0162579
912.879	0.0162351
912.957	0.0162321
913.035	0.0162175
913.113	0.0161410
913.192	0.0162179
913.270	0.0161867
913.348	0.0161331
913.426	0.0160484
913.504	0.0161636
913.582	0.0161979
913.660	0.0159940
913.738	0.0160761
913.817	0.0160867
913.895	0.0161340
913.973	0.0161305
914.051	0.0161497
914.129	0.0160239
914.207	0.0162316
914.285	0.0159920
914.363	0.0160504
914.442	0.0161974
914.520	0.0160814
914.598	0.0160671
914.676	0.0160458
914.754	0.0160575
914.832	0.0160089
914.910	0.0159119
914.988	0.0161259
915.067	0.0162094
915.145	0.0161185
915.223	0.0160646
915.301	0.0161047
915.379	0.0162761
915.457	0.0161599
915.535	0.0161770
915.613	0.0160499
915.692	0.0162352
915.770	0.0159875
915.848	0.0162564
915.926	0.0162376
916.004	0.0161504
916.082	0.0161063
916.160	0.0160545
916.238	0.0160307
916.317	0.0161228
916.395	0.0161934
916.473	0.0162547
916.551	0.0162543
916.629	0.0161980
916.707	0.0162943
916.785	0.0162257
916.863	0.0161654
916.942	0.0164187
917.020	0.0163567
917.098	0.0164668
917.176	0.0164571
917.254	0.0164331
917.332	0.0166380
917.410	0.0166543
917.488	0.0163334
917.567	0.0165041
917.645	0.0164563
917.723	0.0164020
917.801	0.0163756
917.879	0.0164417
917.957	0.0163786
918.035	0.0162260
918.113	0.0162480
918.192	0.0163447
918.270	0.0162142
918.348	0.0163084
918.426	0.0160902
918.504	0.0161616
918.582	0.0160076
918.660	0.0161285
918.738	0.0160952
918.817	0.0160114
918.895	0.0159857
918.973	0.0159683
919.051	0.0158896
919.129	0.0159998
919.207	0.0160094
919.285	0.0158662
919.363	0.0158784
919.442	0.0160495
919.520	0.0158352
919.598	0.0160091
919.676	0.0158743
919.754	0.0158754
919.832	0.0159429
919.910	0.0160045
