05/25/2022	23:01:50	Ver.	4.1	UNKNOWN
Optical Delay	599.995081	Delta X		0.078125	Sweeps	1	Scan Rate	0/0
Coordinates	Axis 1	NaN	Axis 2	NaN	Axis 3	NaN	Axis 4	NaN	Axis 5	NaN	Axis 6	0.000000
TX Power	0.000000	RX Power	0.000000

599.995	0.0160896
600.073	0.0162270
600.151	0.0160249
600.229	0.0160710
600.308	0.0158920
600.386	0.0161006
600.464	0.0159824
600.542	0.0160590
600.620	0.0160710
600.698	0.0160896
600.776	0.0160128
600.854	0.0160937
600.933	0.0160677
601.011	0.0160213
601.089	0.0160409
601.167	0.0161349
601.245	0.0161195
601.323	0.0161597
601.401	0.0160985
601.479	0.0161018
601.558	0.0160809
601.636	0.0161341
601.714	0.0161532
601.792	0.0160898
601.870	0.0160680
601.948	0.0161369
602.026	0.0161514
602.104	0.0160832
602.183	0.0160738
602.261	0.0160803
602.339	0.0160917
602.417	0.0161375
602.495	0.0160506
602.573	0.0161080
602.651	0.0161897
602.729	0.0161400
602.808	0.0161533
602.886	0.0160255
602.964	0.0161003
603.042	0.0159763
603.120	0.0160703
603.198	0.0160413
603.276	0.0160766
603.354	0.0161044
603.433	0.0160157
603.511	0.0160457
603.589	0.0162103
603.667	0.0160756
603.745	0.0161728
603.823	0.0161479
603.901	0.0159370
603.979	0.0159738
604.058	0.0161208
604.136	0.0159933
604.214	0.0160654
604.292	0.0161007
604.370	0.0161744
604.448	0.0162604
604.526	0.0159381
604.604	0.0160303
604.683	0.0159608
604.761	0.0159292
604.839	0.0161229
604.917	0.0161189
604.995	0.0159763
605.073	0.0160977
605.151	0.0161951
605.229	0.0159773
605.308	0.0161171
605.386	0.0161551
605.464	0.0159409
605.542	0.0160883
605.620	0.0162433
605.698	0.0161473
605.776	0.0159956
605.854	0.0161022
605.933	0.0161667
606.011	0.0160753
606.089	0.0159734
606.167	0.0160193
606.245	0.0159663
606.323	0.0161367
606.401	0.0160783
606.479	0.0160686
606.558	0.0160243
606.636	0.0161084
606.714	0.0160030
606.792	0.0160386
606.870	0.0161198
606.948	0.0160203
607.026	0.0161535
607.104	0.0160268
607.183	0.0160625
607.261	0.0160057
607.339	0.0159988
607.417	0.0159710
607.495	0.0160201
607.573	0.0159989
607.651	0.0161542
607.729	0.0161129
607.808	0.0159663
607.886	0.0159658
607.964	0.0160637
608.042	0.0160696
608.120	0.0160693
608.198	0.0162279
608.276	0.0162077
608.354	0.0161246
608.433	0.0160562
608.511	0.0161417
608.589	0.0161435
608.667	0.0159822
608.745	0.0160161
608.823	0.0160917
608.901	0.0160642
608.979	0.0160254
609.058	0.0160578
609.136	0.0161543
609.214	0.0160941
609.292	0.0160779
609.370	0.0160116
609.448	0.0161882
609.526	0.0161261
609.604	0.0161000
609.683	0.0160563
609.761	0.0161007
609.839	0.0159267
609.917	0.0159449
609.995	0.0159613
610.073	0.0160748
610.151	0.0160371
610.229	0.0161417
610.308	0.0161183
610.386	0.0162558
610.464	0.0161981
610.542	0.0161272
610.620	0.0161705
610.698	0.0162174
610.776	0.0161246
610.854	0.0161275
610.933	0.0161339
611.011	0.0161992
611.089	0.0161784
611.167	0.0161366
611.245	0.0161135
611.323	0.0162162
611.401	0.0162051
611.479	0.0160831
611.558	0.0161302
611.636	0.0161047
611.714	0.0160661
611.792	0.0161657
611.870	0.0160814
611.948	0.0159673
612.026	0.0160271
612.104	0.0160178
612.183	0.0159252
612.261	0.0159518
612.339	0.0161119
612.417	0.0160387
612.495	0.0159235
612.573	0.0160005
612.651	0.0160650
612.729	0.0161074
612.808	0.0161057
612.886	0.0160732
612.964	0.0161527
613.042	0.0162286
613.120	0.0160163
613.198	0.0161009
613.276	0.0160310
613.354	0.0161463
613.433	0.0161660
613.511	0.0161606
613.589	0.0161969
613.667	0.0161459
613.745	0.0160989
613.823	0.0161998
613.901	0.0161080
613.979	0.0159727
614.058	0.0161462
614.136	0.0160098
614.214	0.0161823
614.292	0.0161768
614.370	0.0162114
614.448	0.0161018
614.526	0.0162476
614.604	0.0161169
614.683	0.0161430
614.761	0.0160689
614.839	0.0160462
614.917	0.0161695
614.995	0.0162090
615.073	0.0161311
615.151	0.0162348
615.229	0.0161855
615.308	0.0161378
615.386	0.0161095
615.464	0.0162714
615.542	0.0162254
615.620	0.0161568
615.698	0.0160599
615.776	0.0160857
615.854	0.0161539
615.933	0.0161019
616.011	0.0160501
616.089	0.0159435
616.167	0.0161823
616.245	0.0161575
616.323	0.0160784
616.401	0.0160777
616.479	0.0160278
616.558	0.0160979
616.636	0.0160541
616.714	0.0160052
616.792	0.0161805
616.870	0.0161746
616.948	0.0160167
617.026	0.0160046
617.104	0.0161490
617.183	0.0159847
617.261	0.0160190
617.339	0.0160464
617.417	0.0161199
617.495	0.0160592
617.573	0.0161292
617.651	0.0161101
617.729	0.0162560
617.808	0.0160503
617.886	0.0161612
617.964	0.0161694
618.042	0.0159887
618.120	0.0161141
618.198	0.0160551
618.276	0.0161497
618.354	0.0161311
618.433	0.0161232
618.511	0.0161592
618.589	0.0161093
618.667	0.0160883
618.745	0.0160627
618.823	0.0161027
618.901	0.0161207
618.979	0.0161259
619.058	0.0161001
619.136	0.0160547
619.214	0.0161292
619.292	0.0161614
619.370	0.0162074
619.448	0.0162615
619.526	0.0160992
619.604	0.0160763
619.683	0.0161607
619.761	0.0162711
619.839	0.0161890
619.917	0.0161620
619.995	0.0161900
620.073	0.0160493
620.151	0.0160412
620.229	0.0162736
620.308	0.0163237
620.386	0.0160787
620.464	0.0160738
620.542	0.0161926
620.620	0.0161907
620.698	0.0162655
620.776	0.0162183
620.854	0.0161646
620.933	0.0161157
621.011	0.0160892
621.089	0.0161589
621.167	0.0161333
621.245	0.0162700
621.323	0.0162698
621.401	0.0162211
621.479	0.0161861
621.558	0.0160187
621.636	0.0160751
621.714	0.0159645
621.792	0.0160734
621.870	0.0162611
621.948	0.0161830
622.026	0.0159860
622.104	0.0161372
622.183	0.0162298
622.261	0.0161831
622.339	0.0161404
622.417	0.0161590
622.495	0.0160442
622.573	0.0160313
622.651	0.0160426
622.729	0.0160664
622.808	0.0160743
622.886	0.0160725
622.964	0.0159042
623.042	0.0160576
623.120	0.0161761
623.198	0.0160437
623.276	0.0160303
623.354	0.0160935
623.433	0.0160923
623.511	0.0160435
623.589	0.0159940
623.667	0.0160644
623.745	0.0161983
623.823	0.0160831
623.901	0.0160442
623.979	0.0160368
624.058	0.0160490
624.136	0.0161780
624.214	0.0162000
624.292	0.0161047
624.370	0.0161787
624.448	0.0160765
624.526	0.0162101
624.604	0.0160749
624.683	0.0162395
624.761	0.0160470
624.839	0.0160459
624.917	0.0160928
624.995	0.0161000
625.073	0.0160052
625.151	0.0161391
625.229	0.0161555
625.308	0.0160088
625.386	0.0160139
625.464	0.0160722
625.542	0.0162152
625.620	0.0160819
625.698	0.0161417
625.776	0.0162038
625.854	0.0160993
625.933	0.0162385
626.011	0.0161581
626.089	0.0161085
626.167	0.0161609
626.245	0.0161885
626.323	0.0163785
626.401	0.0161871
626.479	0.0161368
626.558	0.0161623
626.636	0.0160959
626.714	0.0160474
626.792	0.0160812
626.870	0.0161163
626.948	0.0161886
627.026	0.0163251
627.104	0.0160690
627.183	0.0161177
627.261	0.0161187
627.339	0.0162459
627.417	0.0160294
627.495	0.0161601
627.573	0.0160861
627.651	0.0161679
627.729	0.0162249
627.808	0.0160538
627.886	0.0159400
627.964	0.0161478
628.042	0.0160982
628.120	0.0162228
628.198	0.0161555
628.276	0.0162250
628.354	0.0161899
628.433	0.0160826
628.511	0.0162269
628.589	0.0162613
628.667	0.0161790
628.745	0.0161529
628.823	0.0160954
628.901	0.0160229
628.979	0.0159817
629.058	0.0161427
629.136	0.0162273
629.214	0.0160209
629.292	0.0160504
629.370	0.0161232
629.448	0.0160865
629.526	0.0160946
629.604	0.0161485
629.683	0.0161656
629.761	0.0161271
629.839	0.0161217
629.917	0.0161583
629.995	0.0161172
630.073	0.0162466
630.151	0.0162225
630.229	0.0160837
630.308	0.0161327
630.386	0.0161238
630.464	0.0162133
630.542	0.0162370
630.620	0.0160699
630.698	0.0160992
630.776	0.0161280
630.854	0.0162030
630.933	0.0161228
631.011	0.0160823
631.089	0.0162099
631.167	0.0160049
631.245	0.0161386
631.323	0.0160818
631.401	0.0161114
631.479	0.0160404
631.558	0.0161049
631.636	0.0161320
631.714	0.0160545
631.792	0.0159783
631.870	0.0161866
631.948	0.0161135
632.026	0.0160208
632.104	0.0160427
632.183	0.0160947
632.261	0.0161396
632.339	0.0160152
632.417	0.0160690
632.495	0.0160209
632.573	0.0161654
632.651	0.0162045
632.729	0.0160428
632.808	0.0160719
632.886	0.0160117
632.964	0.0160818
633.042	0.0161293
633.120	0.0160856
633.198	0.0161243
633.276	0.0160719
633.354	0.0160612
633.433	0.0162287
633.511	0.0160525
633.589	0.0160379
633.667	0.0160106
633.745	0.0162646
633.823	0.0161201
633.901	0.0160101
633.979	0.0162242
634.058	0.0161414
634.136	0.0161128
634.214	0.0160870
634.292	0.0159969
634.370	0.0161292
634.448	0.0162557
634.526	0.0160501
634.604	0.0161073
634.683	0.0160095
634.761	0.0160768
634.839	0.0160367
634.917	0.0161730
634.995	0.0162585
635.073	0.0160674
635.151	0.0160011
635.229	0.0161756
635.308	0.0161086
635.386	0.0161546
635.464	0.0159995
635.542	0.0161731
635.620	0.0161840
635.698	0.0161084
635.776	0.0160696
635.854	0.0161050
635.933	0.0162673
636.011	0.0160936
636.089	0.0160894
636.167	0.0160684
636.245	0.0162412
636.323	0.0160947
636.401	0.0161104
636.479	0.0160787
636.558	0.0161122
636.636	0.0161119
636.714	0.0161381
636.792	0.0162666
636.870	0.0161717
636.948	0.0160680
637.026	0.0161434
637.104	0.0162387
637.183	0.0161174
637.261	0.0161015
637.339	0.0163110
637.417	0.0160226
637.495	0.0160745
637.573	0.0161367
637.651	0.0161227
637.729	0.0161539
637.808	0.0162038
637.886	0.0161078
637.964	0.0162092
638.042	0.0161162
638.120	0.0161318
638.198	0.0160271
638.276	0.0161320
638.354	0.0160058
638.433	0.0160699
638.511	0.0161806
638.589	0.0159997
638.667	0.0160660
638.745	0.0160777
638.823	0.0160645
638.901	0.0162238
638.979	0.0161221
639.058	0.0161005
639.136	0.0159799
639.214	0.0159216
639.292	0.0160658
639.370	0.0161267
639.448	0.0161971
639.526	0.0160673
639.604	0.0160706
639.683	0.0162254
639.761	0.0161864
639.839	0.0162244
639.917	0.0160496
639.995	0.0160905
640.073	0.0161338
640.151	0.0160525
640.229	0.0161231
640.308	0.0160635
640.386	0.0160635
640.464	0.0160144
640.542	0.0161076
640.620	0.0160327
640.698	0.0160957
640.776	0.0160459
640.854	0.0161848
640.933	0.0162599
641.011	0.0161456
641.089	0.0161082
641.167	0.0161229
641.245	0.0161644
641.323	0.0160575
641.401	0.0162320
641.479	0.0161174
641.558	0.0160642
641.636	0.0161021
641.714	0.0161156
641.792	0.0160036
641.870	0.0161649
641.948	0.0160724
642.026	0.0161503
642.104	0.0161887
642.183	0.0160442
642.261	0.0160363
642.339	0.0162296
642.417	0.0161892
642.495	0.0161771
642.573	0.0161446
642.651	0.0161679
642.729	0.0162206
642.808	0.0162181
642.886	0.0162228
642.964	0.0160741
643.042	0.0161256
643.120	0.0159791
643.198	0.0162884
643.276	0.0161534
643.354	0.0160903
643.433	0.0160835
643.511	0.0161471
643.589	0.0161227
643.667	0.0160233
643.745	0.0161887
643.823	0.0162045
643.901	0.0160762
643.979	0.0160021
644.058	0.0162502
644.136	0.0161817
644.214	0.0161517
644.292	0.0160256
644.370	0.0160893
644.448	0.0161138
644.526	0.0161981
644.604	0.0161721
644.683	0.0161440
644.761	0.0161145
644.839	0.0161889
644.917	0.0160583
644.995	0.0160671
645.073	0.0161651
645.151	0.0161373
645.229	0.0160763
645.308	0.0160743
645.386	0.0162289
645.464	0.0161385
645.542	0.0159892
645.620	0.0160617
645.698	0.0161687
645.776	0.0161313
645.854	0.0161153
645.933	0.0161012
646.011	0.0162223
646.089	0.0161688
646.167	0.0160128
646.245	0.0160074
646.323	0.0160511
646.401	0.0161909
646.479	0.0161946
646.558	0.0161309
646.636	0.0160188
646.714	0.0160278
646.792	0.0160668
646.870	0.0161646
646.948	0.0160823
647.026	0.0160619
647.104	0.0161806
647.183	0.0161463
647.261	0.0159862
647.339	0.0161222
647.417	0.0160784
647.495	0.0160094
647.573	0.0160572
647.651	0.0161003
647.729	0.0162209
647.808	0.0160654
647.886	0.0161192
647.964	0.0161127
648.042	0.0160902
648.120	0.0160722
648.198	0.0161980
648.276	0.0162476
648.354	0.0160879
648.433	0.0163733
648.511	0.0161379
648.589	0.0161149
648.667	0.0160558
648.745	0.0160802
648.823	0.0161451
648.901	0.0161816
648.979	0.0159673
649.058	0.0160081
649.136	0.0161783
649.214	0.0161108
649.292	0.0160829
649.370	0.0160860
649.448	0.0159957
649.526	0.0161219
649.604	0.0160366
649.683	0.0161416
649.761	0.0161321
649.839	0.0160099
649.917	0.0159820
649.995	0.0161725
650.073	0.0161301
650.151	0.0160880
650.229	0.0160825
650.308	0.0160500
650.386	0.0161417
650.464	0.0159621
650.542	0.0161549
650.620	0.0161995
650.698	0.0161367
650.776	0.0162717
650.854	0.0161404
650.933	0.0161395
651.011	0.0161899
651.089	0.0161952
651.167	0.0160791
651.245	0.0161237
651.323	0.0160759
651.401	0.0161076
651.479	0.0161412
651.558	0.0160849
651.636	0.0160229
651.714	0.0161116
651.792	0.0162907
651.870	0.0161784
651.948	0.0160732
652.026	0.0160049
652.104	0.0160518
652.183	0.0160279
652.261	0.0160206
652.339	0.0159931
652.417	0.0162507
652.495	0.0161600
652.573	0.0160431
652.651	0.0161263
652.729	0.0162595
652.808	0.0161466
652.886	0.0161119
652.964	0.0160332
653.042	0.0161375
653.120	0.0161079
653.198	0.0161923
653.276	0.0161857
653.354	0.0161056
653.433	0.0160265
653.511	0.0160172
653.589	0.0161201
653.667	0.0162404
653.745	0.0162385
653.823	0.0160849
653.901	0.0159975
653.979	0.0161291
654.058	0.0161237
654.136	0.0161562
654.214	0.0162011
654.292	0.0162017
654.370	0.0159977
654.448	0.0159677
654.526	0.0161531
654.604	0.0161997
654.683	0.0162550
654.761	0.0161536
654.839	0.0159773
654.917	0.0160947
654.995	0.0161057
655.073	0.0159953
655.151	0.0160710
655.229	0.0160741
655.308	0.0161370
655.386	0.0161576
655.464	0.0161386
655.542	0.0160112
655.620	0.0162003
655.698	0.0160387
655.776	0.0162516
655.854	0.0162360
655.933	0.0161224
656.011	0.0160797
656.089	0.0159803
656.167	0.0161317
656.245	0.0159715
656.323	0.0161417
656.401	0.0161170
656.479	0.0160680
656.558	0.0162470
656.636	0.0161217
656.714	0.0160453
656.792	0.0161790
656.870	0.0161600
656.948	0.0160340
657.026	0.0161916
657.104	0.0162357
657.183	0.0161335
657.261	0.0161443
657.339	0.0161988
657.417	0.0161399
657.495	0.0161177
657.573	0.0159583
657.651	0.0161542
657.729	0.0160886
657.808	0.0159192
657.886	0.0161365
657.964	0.0161028
658.042	0.0161027
658.120	0.0160996
658.198	0.0161943
658.276	0.0160810
658.354	0.0161093
658.433	0.0159959
658.511	0.0160951
658.589	0.0160418
658.667	0.0160626
658.745	0.0161140
658.823	0.0161868
658.901	0.0160388
658.979	0.0159842
659.058	0.0161090
659.136	0.0161101
659.214	0.0160807
659.292	0.0161234
659.370	0.0161747
659.448	0.0160950
659.526	0.0162006
659.604	0.0161566
659.683	0.0160075
659.761	0.0160237
659.839	0.0161485
659.917	0.0160825
659.995	0.0161044
660.073	0.0160809
660.151	0.0160726
660.229	0.0161200
660.308	0.0161340
660.386	0.0160616
660.464	0.0160603
660.542	0.0161481
660.620	0.0160881
660.698	0.0161158
660.776	0.0161137
660.854	0.0160849
660.933	0.0159280
661.011	0.0161945
661.089	0.0161569
661.167	0.0161043
661.245	0.0162404
661.323	0.0161032
661.401	0.0161005
661.479	0.0160293
661.558	0.0160245
661.636	0.0161979
661.714	0.0159629
661.792	0.0160468
661.870	0.0160691
661.948	0.0161473
662.026	0.0159965
662.104	0.0159994
662.183	0.0161880
662.261	0.0160511
662.339	0.0160242
662.417	0.0160228
662.495	0.0159013
662.573	0.0160989
662.651	0.0162078
662.729	0.0161703
662.808	0.0160314
662.886	0.0160479
662.964	0.0161951
663.042	0.0161758
663.120	0.0160337
663.198	0.0160457
663.276	0.0160005
663.354	0.0161865
663.433	0.0161860
663.511	0.0161616
663.589	0.0160390
663.667	0.0161368
663.745	0.0162862
663.823	0.0160696
663.901	0.0161019
663.979	0.0161446
664.058	0.0160417
664.136	0.0160530
664.214	0.0161298
664.292	0.0160141
664.370	0.0160110
664.448	0.0160525
664.526	0.0160614
664.604	0.0160442
664.683	0.0161600
664.761	0.0162390
664.839	0.0161433
664.917	0.0160975
664.995	0.0160588
665.073	0.0161259
665.151	0.0161485
665.229	0.0160912
665.308	0.0161478
665.386	0.0160575
665.464	0.0161668
665.542	0.0161330
665.620	0.0161573
665.698	0.0161217
665.776	0.0161767
665.854	0.0160371
665.933	0.0160868
666.011	0.0161152
666.089	0.0161857
666.167	0.0160784
666.245	0.0161463
666.323	0.0161712
666.401	0.0160001
666.479	0.0161391
666.558	0.0161626
666.636	0.0160979
666.714	0.0160545
666.792	0.0161349
666.870	0.0158870
666.948	0.0160998
667.026	0.0161057
667.104	0.0161002
667.183	0.0160215
667.261	0.0161469
667.339	0.0160675
667.417	0.0161234
667.495	0.0161317
667.573	0.0159910
667.651	0.0159480
667.729	0.0161590
667.808	0.0160587
667.886	0.0162055
667.964	0.0162119
668.042	0.0161913
668.120	0.0161762
668.198	0.0160290
668.276	0.0161287
668.354	0.0160318
668.433	0.0161751
668.511	0.0161063
668.589	0.0160732
668.667	0.0160432
668.745	0.0160574
668.823	0.0162207
668.901	0.0161748
668.979	0.0161576
669.058	0.0161925
669.136	0.0161266
669.214	0.0159669
669.292	0.0160230
669.370	0.0160495
669.448	0.0160361
669.526	0.0162852
669.604	0.0160708
669.683	0.0160985
669.761	0.0161299
669.839	0.0161221
669.917	0.0161895
669.995	0.0161224
670.073	0.0161887
670.151	0.0161478
670.229	0.0161044
670.308	0.0160970
670.386	0.0161669
670.464	0.0162225
670.542	0.0161545
670.620	0.0161553
670.698	0.0161956
670.776	0.0160077
670.854	0.0161725
670.933	0.0161142
671.011	0.0161365
671.089	0.0161428
671.167	0.0160971
671.245	0.0160756
671.323	0.0160296
671.401	0.0159817
671.479	0.0161926
671.558	0.0161618
671.636	0.0160490
671.714	0.0162881
671.792	0.0161661
671.870	0.0161168
671.948	0.0160560
672.026	0.0161143
672.104	0.0160893
672.183	0.0162481
672.261	0.0160857
672.339	0.0161040
672.417	0.0160625
672.495	0.0162612
672.573	0.0161028
672.651	0.0161323
672.729	0.0161799
672.808	0.0161966
672.886	0.0160997
672.964	0.0161243
673.042	0.0160609
673.120	0.0161312
673.198	0.0161229
673.276	0.0159893
673.354	0.0160778
673.433	0.0160150
673.511	0.0161090
673.589	0.0161118
673.667	0.0161923
673.745	0.0161745
673.823	0.0160191
673.901	0.0160938
673.979	0.0161287
674.058	0.0160860
674.136	0.0160303
674.214	0.0161062
674.292	0.0160223
674.370	0.0161010
674.448	0.0160249
674.526	0.0161128
674.604	0.0161470
674.683	0.0160668
674.761	0.0160786
674.839	0.0161162
674.917	0.0162277
674.995	0.0162524
675.073	0.0161516
675.151	0.0161754
675.229	0.0159923
675.308	0.0161584
675.386	0.0162165
675.464	0.0160796
675.542	0.0159332
675.620	0.0161073
675.698	0.0160419
675.776	0.0162182
675.854	0.0161524
675.933	0.0161389
676.011	0.0160941
676.089	0.0161980
676.167	0.0161856
676.245	0.0160784
676.323	0.0160301
676.401	0.0162219
676.479	0.0162421
676.558	0.0160153
676.636	0.0159489
676.714	0.0160721
676.792	0.0160426
676.870	0.0160510
676.948	0.0161190
677.026	0.0160261
677.104	0.0160104
677.183	0.0160915
677.261	0.0161723
677.339	0.0159921
677.417	0.0160989
677.495	0.0159699
677.573	0.0160661
677.651	0.0160780
677.729	0.0160522
677.808	0.0160991
677.886	0.0161024
677.964	0.0160999
678.042	0.0161233
678.120	0.0160433
678.198	0.0160675
678.276	0.0160962
678.354	0.0160606
678.433	0.0160895
678.511	0.0162260
678.589	0.0159775
678.667	0.0161285
678.745	0.0162811
678.823	0.0160317
678.901	0.0160712
678.979	0.0161433
679.058	0.0160821
679.136	0.0160253
679.214	0.0160175
679.292	0.0160576
679.370	0.0161021
679.448	0.0161044
679.526	0.0162328
679.604	0.0161495
679.683	0.0160847
679.761	0.0162186
679.839	0.0160889
679.917	0.0160560
679.995	0.0160658
680.073	0.0160347
680.151	0.0159691
680.229	0.0160020
680.308	0.0161965
680.386	0.0160564
680.464	0.0159968
680.542	0.0161465
680.620	0.0160931
680.698	0.0159985
680.776	0.0160626
680.854	0.0161063
680.933	0.0161316
681.011	0.0162135
681.089	0.0160547
681.167	0.0161683
681.245	0.0161533
681.323	0.0160800
681.401	0.0161198
681.479	0.0161223
681.558	0.0160728
681.636	0.0160516
681.714	0.0162070
681.792	0.0160654
681.870	0.0160439
681.948	0.0160029
682.026	0.0161001
682.104	0.0160625
682.183	0.0161373
682.261	0.0161404
682.339	0.0162363
682.417	0.0161965
682.495	0.0161459
682.573	0.0159906
682.651	0.0160411
682.729	0.0161306
682.808	0.0161189
682.886	0.0160674
682.964	0.0161570
683.042	0.0160738
683.120	0.0161273
683.198	0.0160604
683.276	0.0160060
683.354	0.0161610
683.433	0.0160213
683.511	0.0161040
683.589	0.0159494
683.667	0.0160509
683.745	0.0161039
683.823	0.0161996
683.901	0.0160461
683.979	0.0160007
684.058	0.0161427
684.136	0.0160917
684.214	0.0161307
684.292	0.0160662
684.370	0.0161600
684.448	0.0161361
684.526	0.0161801
684.604	0.0161874
684.683	0.0161460
684.761	0.0162086
684.839	0.0160957
684.917	0.0161602
684.995	0.0161633
685.073	0.0162383
685.151	0.0160940
685.229	0.0160284
685.308	0.0159799
685.386	0.0161192
685.464	0.0163067
685.542	0.0161266
685.620	0.0160389
685.698	0.0160217
685.776	0.0160746
685.854	0.0162304
685.933	0.0160799
686.011	0.0161088
686.089	0.0161551
686.167	0.0162116
686.245	0.0160636
686.323	0.0160953
686.401	0.0160581
686.479	0.0159898
686.558	0.0160560
686.636	0.0158630
686.714	0.0158467
686.792	0.0156095
686.870	0.0156702
686.948	0.0155649
687.026	0.0156462
687.104	0.0157038
687.183	0.0160170
687.261	0.0164233
687.339	0.0169566
687.417	0.0178325
687.495	0.0188853
687.573	0.0196581
687.651	0.0203520
687.729	0.0209113
687.808	0.0210084
687.886	0.0205644
687.964	0.0198117
688.042	0.0183650
688.120	0.0168100
688.198	0.0149895
688.276	0.0129711
688.354	0.0109585
688.433	0.00907280
688.511	0.00753662
688.589	0.00630028
688.667	0.00548241
688.745	0.00516647
688.823	0.00535141
688.901	0.00591759
688.979	0.00713142
689.058	0.00839149
689.136	0.0101467
689.214	0.0119926
689.292	0.0139682
689.370	0.0160519
689.448	0.0180919
689.526	0.0201452
689.604	0.0219837
689.683	0.0239549
689.761	0.0254737
689.839	0.0270890
689.917	0.0285012
689.995	0.0298160
690.073	0.0306673
690.151	0.0313275
690.229	0.0314206
690.308	0.0312524
690.386	0.0308834
690.464	0.0299093
690.542	0.0286320
690.620	0.0268068
690.698	0.0247260
690.776	0.0226105
690.854	0.0201951
690.933	0.0174470
691.011	0.0147788
691.089	0.0120437
691.167	0.00946854
691.245	0.00693596
691.323	0.00484512
691.401	0.00269844
691.479	0.00107018
691.558	-0.000219879
691.636	-0.00133469
691.714	-0.00189323
691.792	-0.00203934
691.870	-0.00190414
691.948	-0.00108658
692.026	-0.0000608063
692.104	0.00131073
692.183	0.00293549
692.261	0.00464569
692.339	0.00661285
692.417	0.00861977
692.495	0.0107675
692.573	0.0128761
692.651	0.0147193
692.729	0.0166334
692.808	0.0185664
692.886	0.0199304
692.964	0.0212168
693.042	0.0222858
693.120	0.0232738
693.198	0.0241447
693.276	0.0245900
693.354	0.0250571
693.433	0.0254963
693.511	0.0257353
693.589	0.0258657
693.667	0.0260201
693.745	0.0262424
693.823	0.0263560
693.901	0.0263921
693.979	0.0264835
694.058	0.0263889
694.136	0.0262154
694.214	0.0259496
694.292	0.0257070
694.370	0.0251981
694.448	0.0245145
694.526	0.0237961
694.604	0.0229284
694.683	0.0219994
694.761	0.0209658
694.839	0.0199390
694.917	0.0188586
694.995	0.0178566
695.073	0.0168430
695.151	0.0158211
695.229	0.0149357
695.308	0.0138820
695.386	0.0130338
695.464	0.0122691
695.542	0.0116673
695.620	0.0110405
695.698	0.0105092
695.776	0.0100489
695.854	0.00971855
695.933	0.00932762
696.011	0.00916451
696.089	0.00919434
696.167	0.00886177
696.245	0.00904388
696.323	0.00890495
696.401	0.00905396
696.479	0.00939568
696.558	0.00949905
696.636	0.00953552
696.714	0.00974289
696.792	0.00996910
696.870	0.0102239
696.948	0.0105003
697.026	0.0107602
697.104	0.0110860
697.183	0.0114702
697.261	0.0118908
697.339	0.0124137
697.417	0.0127155
697.495	0.0131525
697.573	0.0137867
697.651	0.0143155
697.729	0.0147295
697.808	0.0153893
697.886	0.0159367
697.964	0.0165504
698.042	0.0169017
698.120	0.0174475
698.198	0.0180011
698.276	0.0184903
698.354	0.0186795
698.433	0.0190440
698.511	0.0194532
698.589	0.0197166
698.667	0.0198739
698.745	0.0200751
698.823	0.0201035
698.901	0.0201378
698.979	0.0201990
699.058	0.0201411
699.136	0.0200620
699.214	0.0199049
699.292	0.0197178
699.370	0.0197333
699.448	0.0192667
699.526	0.0191754
699.604	0.0191666
699.683	0.0189770
699.761	0.0187749
699.839	0.0186536
699.917	0.0185312
699.995	0.0187148
700.073	0.0186915
700.151	0.0188007
700.229	0.0190324
700.308	0.0190595
700.386	0.0191494
700.464	0.0193439
700.542	0.0195052
700.620	0.0196732
700.698	0.0195075
700.776	0.0194009
700.854	0.0194064
700.933	0.0190672
701.011	0.0188387
701.089	0.0183549
701.167	0.0179464
701.245	0.0173494
701.323	0.0168641
701.401	0.0164316
701.479	0.0155737
701.558	0.0150661
701.636	0.0146584
701.714	0.0140664
701.792	0.0135974
701.870	0.0131956
701.948	0.0128332
702.026	0.0124243
702.104	0.0120455
702.183	0.0119085
702.261	0.0117638
702.339	0.0117323
702.417	0.0117087
702.495	0.0116953
702.573	0.0118069
702.651	0.0120290
702.729	0.0123824
702.808	0.0125909
702.886	0.0129298
702.964	0.0131345
703.042	0.0133460
703.120	0.0137112
703.198	0.0137914
703.276	0.0139433
703.354	0.0141499
703.433	0.0143686
703.511	0.0144772
703.589	0.0144594
703.667	0.0144933
703.745	0.0146432
703.823	0.0145699
703.901	0.0144758
703.979	0.0145081
704.058	0.0145633
704.136	0.0144615
704.214	0.0145087
704.292	0.0148058
704.370	0.0149196
704.448	0.0151759
704.526	0.0153735
704.604	0.0156008
704.683	0.0157937
704.761	0.0161736
704.839	0.0164490
704.917	0.0165340
704.995	0.0167616
705.073	0.0170828
705.151	0.0173372
705.229	0.0177260
705.308	0.0178687
705.386	0.0181485
705.464	0.0182503
705.542	0.0184509
705.620	0.0185671
705.698	0.0185064
705.776	0.0185189
705.854	0.0186118
705.933	0.0185481
706.011	0.0184984
706.089	0.0183211
706.167	0.0184280
706.245	0.0183970
706.323	0.0182109
706.401	0.0180597
706.479	0.0180896
706.558	0.0179990
706.636	0.0177387
706.714	0.0175802
706.792	0.0175034
706.870	0.0174604
706.948	0.0173965
707.026	0.0173120
707.104	0.0173940
707.183	0.0172621
707.261	0.0172021
707.339	0.0171718
707.417	0.0173866
707.495	0.0172112
707.573	0.0172455
707.651	0.0172101
707.729	0.0174660
707.808	0.0173592
707.886	0.0175025
707.964	0.0174199
708.042	0.0173670
708.120	0.0172375
708.198	0.0169611
708.276	0.0169503
708.354	0.0169020
708.433	0.0166515
708.511	0.0164415
708.589	0.0163940
708.667	0.0158801
708.745	0.0157483
708.823	0.0153883
708.901	0.0152799
708.979	0.0150149
709.058	0.0148317
709.136	0.0147005
709.214	0.0144666
709.292	0.0143642
709.370	0.0143598
709.448	0.0142503
709.526	0.0142081
709.604	0.0142440
709.683	0.0141873
709.761	0.0143089
709.839	0.0143089
709.917	0.0144120
709.995	0.0144228
710.073	0.0146597
710.151	0.0146140
710.229	0.0147494
710.308	0.0148020
710.386	0.0149229
710.464	0.0149067
710.542	0.0150311
710.620	0.0151275
710.698	0.0152238
710.776	0.0151990
710.854	0.0152677
710.933	0.0154769
711.011	0.0154357
711.089	0.0153925
711.167	0.0152316
711.245	0.0153732
711.323	0.0153142
711.401	0.0151527
711.479	0.0150814
711.558	0.0152583
711.636	0.0151752
711.714	0.0150748
711.792	0.0149894
711.870	0.0150685
711.948	0.0151823
712.026	0.0152346
712.104	0.0150708
712.183	0.0153150
712.261	0.0153130
712.339	0.0155573
712.417	0.0156609
712.495	0.0157883
712.573	0.0159718
712.651	0.0161375
712.729	0.0162222
712.808	0.0164886
712.886	0.0166300
712.964	0.0167464
713.042	0.0169975
713.120	0.0171159
713.198	0.0172037
713.276	0.0173122
713.354	0.0174103
713.433	0.0175826
713.511	0.0175971
713.589	0.0177246
713.667	0.0176164
713.745	0.0176612
713.823	0.0176906
713.901	0.0177055
713.979	0.0174631
714.058	0.0174055
714.136	0.0173024
714.214	0.0170763
714.292	0.0170520
714.370	0.0169123
714.448	0.0168806
714.526	0.0167960
714.604	0.0167661
714.683	0.0166803
714.761	0.0168108
714.839	0.0168895
714.917	0.0169826
714.995	0.0169893
715.073	0.0171664
715.151	0.0171719
715.229	0.0173145
715.308	0.0173798
715.386	0.0175171
715.464	0.0174409
715.542	0.0173895
715.620	0.0174043
715.698	0.0173212
715.776	0.0172360
715.854	0.0172141
715.933	0.0169553
716.011	0.0166507
716.089	0.0167142
716.167	0.0165588
716.245	0.0163124
716.323	0.0161571
716.401	0.0159673
716.479	0.0158469
716.558	0.0156784
716.636	0.0156495
716.714	0.0153971
716.792	0.0153873
716.870	0.0154134
716.948	0.0153358
717.026	0.0153249
717.104	0.0152237
717.183	0.0151861
717.261	0.0154093
717.339	0.0152734
717.417	0.0152468
717.495	0.0152167
717.573	0.0151923
717.651	0.0152583
717.729	0.0153334
717.808	0.0152766
717.886	0.0154080
717.964	0.0154227
718.042	0.0152364
718.120	0.0153371
718.198	0.0152540
718.276	0.0153007
718.354	0.0152422
718.433	0.0151526
718.511	0.0150998
718.589	0.0151540
718.667	0.0151749
718.745	0.0149633
718.823	0.0149590
718.901	0.0149773
718.979	0.0148698
719.058	0.0147762
719.136	0.0146947
719.214	0.0145689
719.292	0.0145886
719.370	0.0144741
719.448	0.0144244
719.526	0.0145101
719.604	0.0144903
719.683	0.0146161
719.761	0.0147542
719.839	0.0147023
719.917	0.0150333
719.995	0.0151352
720.073	0.0152819
720.151	0.0155853
720.229	0.0157081
720.308	0.0158076
720.386	0.0161974
720.464	0.0163715
720.542	0.0163818
720.620	0.0166321
720.698	0.0168838
720.776	0.0168954
720.854	0.0171001
720.933	0.0170915
721.011	0.0172392
721.089	0.0171981
721.167	0.0172427
721.245	0.0172089
721.323	0.0173672
721.401	0.0173117
721.479	0.0173575
721.558	0.0172906
721.636	0.0174225
721.714	0.0172195
721.792	0.0173033
721.870	0.0172822
721.948	0.0172257
722.026	0.0171594
722.104	0.0172408
722.183	0.0171455
722.261	0.0172684
722.339	0.0171855
722.417	0.0171365
722.495	0.0173702
722.573	0.0173606
722.651	0.0173260
722.729	0.0175015
722.808	0.0173906
722.886	0.0175098
722.964	0.0176973
723.042	0.0175108
723.120	0.0175507
723.198	0.0175426
723.276	0.0174121
723.354	0.0172668
723.433	0.0172948
723.511	0.0171027
723.589	0.0169306
723.667	0.0167569
723.745	0.0167505
723.823	0.0165637
723.901	0.0163815
723.979	0.0161774
724.058	0.0161400
724.136	0.0159903
724.214	0.0158474
724.292	0.0157359
724.370	0.0156002
724.448	0.0154729
724.526	0.0154716
724.604	0.0153452
724.683	0.0154372
724.761	0.0151204
724.839	0.0150859
724.917	0.0149624
724.995	0.0150747
725.073	0.0151435
725.151	0.0149690
725.229	0.0150781
725.308	0.0149931
725.386	0.0150948
725.464	0.0151315
725.542	0.0151276
725.620	0.0152345
725.698	0.0149986
725.776	0.0151086
725.854	0.0152016
725.933	0.0152155
726.011	0.0152459
726.089	0.0150783
726.167	0.0152495
726.245	0.0153279
726.323	0.0151993
726.401	0.0151971
726.479	0.0151716
726.558	0.0152808
726.636	0.0150673
726.714	0.0151033
726.792	0.0149832
726.870	0.0149934
726.948	0.0150587
727.026	0.0147701
727.104	0.0148230
727.183	0.0148605
727.261	0.0149207
727.339	0.0147942
727.417	0.0150587
727.495	0.0149744
727.573	0.0150903
727.651	0.0151820
727.729	0.0152574
727.808	0.0154601
727.886	0.0155061
727.964	0.0157330
728.042	0.0158892
728.120	0.0160508
728.198	0.0161806
728.276	0.0164552
728.354	0.0166203
728.433	0.0167334
728.511	0.0168707
728.589	0.0168369
728.667	0.0170103
728.745	0.0171777
728.823	0.0171725
728.901	0.0172733
728.979	0.0173341
729.058	0.0172797
729.136	0.0174199
729.214	0.0174911
729.292	0.0173581
729.370	0.0173792
729.448	0.0175171
729.526	0.0172887
729.604	0.0173811
729.683	0.0173154
729.761	0.0171385
729.839	0.0171389
729.917	0.0172518
729.995	0.0170879
730.073	0.0171346
730.151	0.0170374
730.229	0.0169125
730.308	0.0168408
730.386	0.0168324
730.464	0.0167934
730.542	0.0167480
730.620	0.0166997
730.698	0.0167546
730.776	0.0168623
730.854	0.0168433
730.933	0.0167820
731.011	0.0168691
731.089	0.0168565
731.167	0.0169698
731.245	0.0169408
731.323	0.0168711
731.401	0.0167913
731.479	0.0167449
731.558	0.0167016
731.636	0.0165919
731.714	0.0163826
731.792	0.0162766
731.870	0.0163200
731.948	0.0160999
732.026	0.0157909
732.104	0.0157782
732.183	0.0157284
732.261	0.0155409
732.339	0.0155208
732.417	0.0153546
732.495	0.0153467
732.573	0.0152299
732.651	0.0153123
732.729	0.0151260
732.808	0.0150950
732.886	0.0151227
732.964	0.0150761
733.042	0.0151386
733.120	0.0151813
733.198	0.0150945
733.276	0.0151494
733.354	0.0151704
733.433	0.0152623
733.511	0.0152132
733.589	0.0153157
733.667	0.0153375
733.745	0.0152878
733.823	0.0153644
733.901	0.0155185
733.979	0.0154837
734.058	0.0154079
734.136	0.0154153
734.214	0.0154209
734.292	0.0153904
734.370	0.0154188
734.448	0.0154960
734.526	0.0155271
734.604	0.0155505
734.683	0.0155279
734.761	0.0154188
734.839	0.0154644
734.917	0.0157165
734.995	0.0157684
735.073	0.0156293
735.151	0.0158343
735.229	0.0158305
735.308	0.0157214
735.386	0.0157198
735.464	0.0157458
735.542	0.0158578
735.620	0.0158020
735.698	0.0158500
735.776	0.0159942
735.854	0.0158855
735.933	0.0158083
736.011	0.0160098
736.089	0.0160371
736.167	0.0161749
736.245	0.0163628
736.323	0.0162807
736.401	0.0163358
736.479	0.0164296
736.558	0.0165346
736.636	0.0165102
736.714	0.0166219
736.792	0.0168179
736.870	0.0168332
736.948	0.0167937
737.026	0.0168033
737.104	0.0169633
737.183	0.0169730
737.261	0.0169926
737.339	0.0169901
737.417	0.0169463
737.495	0.0169490
737.573	0.0168056
737.651	0.0166563
737.729	0.0167401
737.808	0.0166250
737.886	0.0166692
737.964	0.0164764
738.042	0.0163260
738.120	0.0165433
738.198	0.0163412
738.276	0.0164698
738.354	0.0164809
738.433	0.0163599
738.511	0.0165944
738.589	0.0165168
738.667	0.0167458
738.745	0.0166659
738.823	0.0168820
738.901	0.0169048
738.979	0.0167296
739.058	0.0169030
739.136	0.0169714
739.214	0.0169565
739.292	0.0169028
739.370	0.0169396
739.448	0.0168468
739.526	0.0167982
739.604	0.0166611
739.683	0.0166320
739.761	0.0163468
739.839	0.0163966
739.917	0.0162739
739.995	0.0162222
740.073	0.0161502
740.151	0.0159852
740.229	0.0158331
740.308	0.0156934
740.386	0.0155890
740.464	0.0154144
740.542	0.0153065
740.620	0.0152608
740.698	0.0152643
740.776	0.0151031
740.854	0.0151048
740.933	0.0150954
741.011	0.0151265
741.089	0.0150902
741.167	0.0150397
741.245	0.0149549
741.323	0.0150884
741.401	0.0152616
741.479	0.0151737
741.558	0.0150613
741.636	0.0151914
741.714	0.0151582
741.792	0.0153760
741.870	0.0153910
741.948	0.0155401
742.026	0.0156260
742.104	0.0156616
742.183	0.0156303
742.261	0.0157457
742.339	0.0159029
742.417	0.0160275
742.495	0.0161140
742.573	0.0160091
742.651	0.0161335
742.729	0.0160617
742.808	0.0161724
742.886	0.0161448
742.964	0.0161555
743.042	0.0160589
743.120	0.0160728
743.198	0.0162276
743.276	0.0159325
743.354	0.0159547
743.433	0.0160168
743.511	0.0160081
743.589	0.0160415
743.667	0.0160714
743.745	0.0160529
743.823	0.0159645
743.901	0.0160696
743.979	0.0161030
744.058	0.0161631
744.136	0.0163101
744.214	0.0162279
744.292	0.0163855
744.370	0.0165099
744.448	0.0164496
744.526	0.0165687
744.604	0.0165926
744.683	0.0165830
744.761	0.0165282
744.839	0.0165368
744.917	0.0165386
744.995	0.0166813
745.073	0.0165710
745.151	0.0166850
745.229	0.0167123
745.308	0.0166032
745.386	0.0166721
745.464	0.0167422
745.542	0.0168181
745.620	0.0165428
745.698	0.0166708
745.776	0.0166434
745.854	0.0166510
745.933	0.0165627
746.011	0.0166386
746.089	0.0166388
746.167	0.0165089
746.245	0.0163822
746.323	0.0164883
746.401	0.0165820
746.479	0.0164041
746.558	0.0166319
746.636	0.0164812
746.714	0.0164579
746.792	0.0164709
746.870	0.0164909
746.948	0.0164626
747.026	0.0164658
747.104	0.0165748
747.183	0.0164357
747.261	0.0164981
747.339	0.0163944
747.417	0.0162496
747.495	0.0161738
747.573	0.0161515
747.651	0.0161988
747.729	0.0162336
747.808	0.0159705
747.886	0.0157855
747.964	0.0158435
748.042	0.0157691
748.120	0.0155831
748.198	0.0156667
748.276	0.0156268
748.354	0.0155895
748.433	0.0153568
748.511	0.0154350
748.589	0.0154836
748.667	0.0154422
748.745	0.0154610
748.823	0.0153030
748.901	0.0152329
748.979	0.0154659
749.058	0.0154623
749.136	0.0154916
749.214	0.0154263
749.292	0.0156178
749.370	0.0156761
749.448	0.0157011
749.526	0.0158430
749.604	0.0158440
749.683	0.0157593
749.761	0.0158147
749.839	0.0158223
749.917	0.0158743
749.995	0.0158492
750.073	0.0159917
750.151	0.0160355
750.229	0.0160976
750.308	0.0159586
750.386	0.0160427
750.464	0.0160199
750.542	0.0161153
750.620	0.0160917
750.698	0.0159935
750.776	0.0161086
750.854	0.0160722
750.933	0.0160714
751.011	0.0159836
751.089	0.0160730
751.167	0.0160770
751.245	0.0161201
751.323	0.0158893
751.401	0.0160368
751.479	0.0159215
751.558	0.0159216
751.636	0.0159358
751.714	0.0159246
751.792	0.0159940
751.870	0.0158572
751.948	0.0160501
752.026	0.0159464
752.104	0.0161529
752.183	0.0161462
752.261	0.0163083
752.339	0.0163884
752.417	0.0162457
752.495	0.0163100
752.573	0.0163803
752.651	0.0165316
752.729	0.0165290
752.808	0.0165747
752.886	0.0165877
752.964	0.0165285
753.042	0.0166772
753.120	0.0165858
753.198	0.0164078
753.276	0.0166515
753.354	0.0165463
753.433	0.0166228
753.511	0.0167973
753.589	0.0167814
753.667	0.0165540
753.745	0.0164256
753.823	0.0164456
753.901	0.0163786
753.979	0.0163426
754.058	0.0162106
754.136	0.0162336
754.214	0.0162307
754.292	0.0162234
754.370	0.0162289
754.448	0.0163680
754.526	0.0161530
754.604	0.0160642
754.683	0.0162215
754.761	0.0162112
754.839	0.0161362
754.917	0.0161677
754.995	0.0161984
755.073	0.0163407
755.151	0.0162698
755.229	0.0161468
755.308	0.0162383
755.386	0.0162236
755.464	0.0162140
755.542	0.0162475
755.620	0.0161947
755.698	0.0160960
755.776	0.0160142
755.854	0.0160440
755.933	0.0160413
756.011	0.0159155
756.089	0.0159293
756.167	0.0159489
756.245	0.0158155
756.323	0.0157522
756.401	0.0157346
756.479	0.0156303
756.558	0.0156961
756.636	0.0156863
756.714	0.0156431
756.792	0.0156109
756.870	0.0156360
756.948	0.0156322
757.026	0.0156941
757.104	0.0158558
757.183	0.0158067
757.261	0.0157544
757.339	0.0157255
757.417	0.0159064
757.495	0.0158759
757.573	0.0159035
757.651	0.0159492
757.729	0.0161292
757.808	0.0159485
757.886	0.0160383
757.964	0.0159669
758.042	0.0161684
758.120	0.0160049
758.198	0.0161380
758.276	0.0162574
758.354	0.0161713
758.433	0.0162309
758.511	0.0161611
758.589	0.0161723
758.667	0.0161442
758.745	0.0160811
758.823	0.0162291
758.901	0.0160555
758.979	0.0160916
759.058	0.0161707
759.136	0.0161108
759.214	0.0160955
759.292	0.0159789
759.370	0.0160298
759.448	0.0160289
759.526	0.0160308
759.604	0.0158768
759.683	0.0160272
759.761	0.0160049
759.839	0.0160653
759.917	0.0162769
759.995	0.0161358
760.073	0.0160832
760.151	0.0161810
760.229	0.0162529
760.308	0.0162025
760.386	0.0164434
760.464	0.0162040
760.542	0.0163164
760.620	0.0163952
760.698	0.0163865
760.776	0.0164234
760.854	0.0164246
760.933	0.0163023
761.011	0.0162310
761.089	0.0162566
761.167	0.0164498
761.245	0.0164087
761.323	0.0164176
761.401	0.0163809
761.479	0.0163177
761.558	0.0162683
761.636	0.0163188
761.714	0.0163318
761.792	0.0163117
761.870	0.0162390
761.948	0.0161343
762.026	0.0161191
762.104	0.0160942
762.183	0.0160223
762.261	0.0161502
762.339	0.0160875
762.417	0.0160535
762.495	0.0161810
762.573	0.0161469
762.651	0.0160121
762.729	0.0159579
762.808	0.0160349
762.886	0.0159101
762.964	0.0160511
763.042	0.0160781
763.120	0.0161270
763.198	0.0162728
763.276	0.0163093
763.354	0.0161786
763.433	0.0160736
763.511	0.0161508
763.589	0.0162462
763.667	0.0161764
763.745	0.0162202
763.823	0.0163065
763.901	0.0160992
763.979	0.0161214
764.058	0.0160853
764.136	0.0161308
764.214	0.0161176
764.292	0.0158521
764.370	0.0158786
764.448	0.0160090
764.526	0.0159402
764.604	0.0157375
764.683	0.0157986
764.761	0.0158151
764.839	0.0156854
764.917	0.0156841
764.995	0.0157839
765.073	0.0158298
765.151	0.0157551
765.229	0.0157820
765.308	0.0158295
765.386	0.0156767
765.464	0.0158085
765.542	0.0157677
765.620	0.0157780
765.698	0.0160561
765.776	0.0160368
765.854	0.0159997
765.933	0.0160490
766.011	0.0161607
766.089	0.0161349
766.167	0.0162485
766.245	0.0162852
766.323	0.0160889
766.401	0.0160990
766.479	0.0162997
766.558	0.0160915
766.636	0.0161108
766.714	0.0162590
766.792	0.0162177
766.870	0.0162087
766.948	0.0162036
767.026	0.0161423
767.104	0.0162167
767.183	0.0161345
767.261	0.0161259
767.339	0.0160579
767.417	0.0158771
767.495	0.0158163
767.573	0.0159206
767.651	0.0159232
767.729	0.0158267
767.808	0.0158508
767.886	0.0159135
767.964	0.0160248
768.042	0.0158426
768.120	0.0159633
768.198	0.0159724
768.276	0.0159703
768.354	0.0159631
768.433	0.0162096
768.511	0.0160524
768.589	0.0161549
768.667	0.0163057
768.745	0.0161844
768.823	0.0162711
768.901	0.0162804
768.979	0.0162856
769.058	0.0163896
769.136	0.0164059
769.214	0.0164193
769.292	0.0164540
769.370	0.0163438
769.448	0.0164333
769.526	0.0163954
769.604	0.0165113
769.683	0.0163842
769.761	0.0162630
769.839	0.0163205
769.917	0.0162441
769.995	0.0162196
770.073	0.0160595
770.151	0.0161257
770.229	0.0160674
770.308	0.0160099
770.386	0.0159779
770.464	0.0159726
770.542	0.0159717
770.620	0.0159885
770.698	0.0160658
770.776	0.0159045
770.854	0.0157890
770.933	0.0159358
771.011	0.0158971
771.089	0.0158414
771.167	0.0158282
771.245	0.0160722
771.323	0.0159679
771.401	0.0161004
771.479	0.0162125
771.558	0.0161099
771.636	0.0161182
771.714	0.0160078
771.792	0.0162636
771.870	0.0161902
771.948	0.0161681
772.026	0.0162598
772.104	0.0162326
772.183	0.0162160
772.261	0.0161423
772.339	0.0161180
772.417	0.0160433
772.495	0.0160644
772.573	0.0161771
772.651	0.0159612
772.729	0.0160347
772.808	0.0161942
772.886	0.0161038
772.964	0.0160618
773.042	0.0160146
773.120	0.0161256
773.198	0.0160237
773.276	0.0161597
773.354	0.0161277
773.433	0.0161522
773.511	0.0162059
773.589	0.0161391
773.667	0.0161513
773.745	0.0161404
773.823	0.0161372
773.901	0.0161295
773.979	0.0161690
774.058	0.0161768
774.136	0.0162251
774.214	0.0160843
774.292	0.0160229
774.370	0.0161159
774.448	0.0158887
774.526	0.0160022
774.604	0.0159959
774.683	0.0160540
774.761	0.0159953
774.839	0.0159492
774.917	0.0158181
774.995	0.0158200
775.073	0.0159938
775.151	0.0160162
775.229	0.0158905
775.308	0.0158671
775.386	0.0158066
775.464	0.0158939
775.542	0.0158466
775.620	0.0160155
775.698	0.0159324
775.776	0.0159210
775.854	0.0159431
775.933	0.0160987
776.011	0.0162180
776.089	0.0159962
776.167	0.0161903
776.245	0.0161246
776.323	0.0161325
776.401	0.0161404
776.479	0.0161007
776.558	0.0160303
776.636	0.0161266
776.714	0.0161447
776.792	0.0161173
776.870	0.0162442
776.948	0.0160530
777.026	0.0160957
777.104	0.0161085
777.183	0.0161192
777.261	0.0161772
777.339	0.0162391
777.417	0.0162083
777.495	0.0161466
777.573	0.0163094
777.651	0.0162173
777.729	0.0162553
777.808	0.0164529
777.886	0.0165424
777.964	0.0162378
778.042	0.0163365
778.120	0.0163676
778.198	0.0164099
778.276	0.0164602
778.354	0.0164568
778.433	0.0163580
778.511	0.0163101
778.589	0.0164157
778.667	0.0163353
778.745	0.0163686
778.823	0.0163473
778.901	0.0162135
778.979	0.0163477
779.058	0.0161980
779.136	0.0161066
779.214	0.0161341
779.292	0.0161635
779.370	0.0161529
779.448	0.0161053
779.526	0.0161086
779.604	0.0160828
779.683	0.0160696
779.761	0.0160538
779.839	0.0160545
779.917	0.0162511
779.995	0.0160867
780.073	0.0160793
780.151	0.0160602
780.229	0.0160778
780.308	0.0161081
780.386	0.0160921
780.464	0.0160127
780.542	0.0159323
780.620	0.0159629
780.698	0.0161936
780.776	0.0159698
780.854	0.0160481
780.933	0.0161559
781.011	0.0160511
781.089	0.0161755
781.167	0.0161375
781.245	0.0159543
781.323	0.0160671
781.401	0.0161349
781.479	0.0161076
781.558	0.0162698
781.636	0.0161754
781.714	0.0160702
781.792	0.0160777
781.870	0.0161340
781.948	0.0160616
782.026	0.0160818
782.104	0.0159423
782.183	0.0160439
782.261	0.0161398
782.339	0.0160234
782.417	0.0160480
782.495	0.0160208
782.573	0.0160458
782.651	0.0159818
782.729	0.0160069
782.808	0.0160937
782.886	0.0160455
782.964	0.0160801
783.042	0.0160059
783.120	0.0160104
783.198	0.0159972
783.276	0.0159653
783.354	0.0160351
783.433	0.0160628
783.511	0.0161404
783.589	0.0161284
783.667	0.0162083
783.745	0.0161577
783.823	0.0161658
783.901	0.0162479
783.979	0.0163691
784.058	0.0163683
784.136	0.0161740
784.214	0.0162771
784.292	0.0163057
784.370	0.0163575
784.448	0.0161962
784.526	0.0160519
784.604	0.0159538
784.683	0.0159606
784.761	0.0159789
784.839	0.0157415
784.917	0.0156200
784.995	0.0154921
785.073	0.0153776
785.151	0.0152846
785.229	0.0151485
785.308	0.0153184
785.386	0.0153972
785.464	0.0151714
785.542	0.0154388
785.620	0.0155187
785.698	0.0155861
785.776	0.0156379
785.854	0.0156432
785.933	0.0160223
786.011	0.0160423
786.089	0.0163837
786.167	0.0165779
786.245	0.0168105
786.323	0.0171048
786.401	0.0174568
786.479	0.0174922
786.558	0.0176697
786.636	0.0179175
786.714	0.0179525
786.792	0.0178926
786.870	0.0179011
786.948	0.0179802
787.026	0.0178079
787.104	0.0176058
787.183	0.0175259
787.261	0.0173060
787.339	0.0168775
787.417	0.0166312
787.495	0.0164120
787.573	0.0162708
787.651	0.0158157
787.729	0.0155089
787.808	0.0152232
787.886	0.0149869
787.964	0.0148248
788.042	0.0145827
788.120	0.0143392
788.198	0.0143004
788.276	0.0141944
788.354	0.0141593
788.433	0.0141657
788.511	0.0141422
788.589	0.0141984
788.667	0.0142468
788.745	0.0143805
788.823	0.0145235
788.901	0.0146577
788.979	0.0147643
789.058	0.0148641
789.136	0.0151999
789.214	0.0153516
789.292	0.0155807
789.370	0.0155994
789.448	0.0158521
789.526	0.0160640
789.604	0.0163158
789.683	0.0164354
789.761	0.0166678
789.839	0.0168209
789.917	0.0170099
789.995	0.0170812
790.073	0.0171873
790.151	0.0173457
790.229	0.0175548
790.308	0.0174886
790.386	0.0174737
790.464	0.0175822
790.542	0.0176220
790.620	0.0176428
790.698	0.0175816
790.776	0.0177383
790.854	0.0176077
790.933	0.0175396
791.011	0.0175887
791.089	0.0174629
791.167	0.0172609
791.245	0.0171938
791.323	0.0170234
791.401	0.0167874
791.479	0.0167883
791.558	0.0166837
791.636	0.0163220
791.714	0.0162843
791.792	0.0160801
791.870	0.0159107
791.948	0.0156631
792.026	0.0156679
792.104	0.0155126
792.183	0.0154283
792.261	0.0151878
792.339	0.0151791
792.417	0.0149528
792.495	0.0151490
792.573	0.0150758
792.651	0.0150118
792.729	0.0150273
792.808	0.0149951
792.886	0.0149100
792.964	0.0149150
793.042	0.0148901
793.120	0.0150465
793.198	0.0149964
793.276	0.0149680
793.354	0.0151579
793.433	0.0149786
793.511	0.0149799
793.589	0.0151488
793.667	0.0152474
793.745	0.0151485
793.823	0.0150533
793.901	0.0152299
793.979	0.0150878
794.058	0.0152635
794.136	0.0154563
794.214	0.0155502
794.292	0.0156018
794.370	0.0157388
794.448	0.0158121
794.526	0.0159394
794.604	0.0161749
794.683	0.0162090
794.761	0.0164142
794.839	0.0164134
794.917	0.0165628
794.995	0.0165478
795.073	0.0167337
795.151	0.0168920
795.229	0.0169008
795.308	0.0171011
795.386	0.0169865
795.464	0.0170343
795.542	0.0171154
795.620	0.0171355
795.698	0.0171478
795.776	0.0170493
795.854	0.0171339
795.933	0.0171610
796.011	0.0170694
796.089	0.0170547
796.167	0.0171426
796.245	0.0171843
796.323	0.0171901
796.401	0.0169748
796.479	0.0169454
796.558	0.0170396
796.636	0.0169424
796.714	0.0168102
796.792	0.0167079
796.870	0.0167622
796.948	0.0167365
797.026	0.0165878
797.104	0.0165301
797.183	0.0163428
797.261	0.0162221
797.339	0.0162427
797.417	0.0161704
797.495	0.0161015
797.573	0.0159297
797.651	0.0159257
797.729	0.0157767
797.808	0.0158959
797.886	0.0158823
797.964	0.0155547
798.042	0.0155665
798.120	0.0156004
798.198	0.0155953
798.276	0.0153875
798.354	0.0154597
798.433	0.0154353
798.511	0.0153954
798.589	0.0153953
798.667	0.0153473
798.745	0.0151827
798.823	0.0151550
798.901	0.0151555
798.979	0.0153238
799.058	0.0152819
799.136	0.0152230
799.214	0.0152225
799.292	0.0152172
799.370	0.0151570
799.448	0.0152329
799.526	0.0152776
799.604	0.0154025
799.683	0.0154205
799.761	0.0154884
799.839	0.0155477
799.917	0.0155075
799.995	0.0155693
800.073	0.0155643
800.151	0.0157302
800.229	0.0157469
800.308	0.0156944
800.386	0.0157845
800.464	0.0157942
800.542	0.0158302
800.620	0.0159872
800.698	0.0160237
800.776	0.0159737
800.854	0.0159293
800.933	0.0161097
801.011	0.0161535
801.089	0.0162058
801.167	0.0161734
801.245	0.0163822
801.323	0.0162568
801.401	0.0165030
801.479	0.0165803
801.558	0.0164880
801.636	0.0166766
801.714	0.0166030
801.792	0.0166420
801.870	0.0167757
801.948	0.0168710
802.026	0.0168108
802.104	0.0170338
802.183	0.0169876
802.261	0.0170512
802.339	0.0169916
802.417	0.0170171
802.495	0.0170292
802.573	0.0170580
802.651	0.0170319
802.729	0.0169431
802.808	0.0168217
802.886	0.0168459
802.964	0.0168062
803.042	0.0166679
803.120	0.0167412
803.198	0.0165730
803.276	0.0165052
803.354	0.0164619
803.433	0.0164059
803.511	0.0163360
803.589	0.0162711
803.667	0.0160558
803.745	0.0159788
803.823	0.0158080
803.901	0.0158521
803.979	0.0159484
804.058	0.0159135
804.136	0.0157186
804.214	0.0158727
804.292	0.0157964
804.370	0.0157316
804.448	0.0157493
804.526	0.0158272
804.604	0.0157123
804.683	0.0156918
804.761	0.0157560
804.839	0.0156875
804.917	0.0158804
804.995	0.0157877
805.073	0.0157539
805.151	0.0157196
805.229	0.0158786
805.308	0.0157544
805.386	0.0157835
805.464	0.0158907
805.542	0.0158563
805.620	0.0157608
805.698	0.0157837
805.776	0.0158880
805.854	0.0158846
805.933	0.0156219
806.011	0.0158934
806.089	0.0158858
806.167	0.0156861
806.245	0.0159034
806.323	0.0159309
806.401	0.0160161
806.479	0.0160441
806.558	0.0160690
806.636	0.0160664
806.714	0.0160941
806.792	0.0159440
806.870	0.0160998
806.948	0.0162153
807.026	0.0162398
807.104	0.0162018
807.183	0.0160009
807.261	0.0161185
807.339	0.0162193
807.417	0.0160921
807.495	0.0161322
807.573	0.0160668
807.651	0.0159946
807.729	0.0160221
807.808	0.0160146
807.886	0.0160567
807.964	0.0159828
808.042	0.0160710
808.120	0.0160630
808.198	0.0160031
808.276	0.0161287
808.354	0.0160300
808.433	0.0160355
808.511	0.0160561
808.589	0.0159995
808.667	0.0159077
808.745	0.0158672
808.823	0.0158025
808.901	0.0159373
808.979	0.0159986
809.058	0.0160329
809.136	0.0160752
809.214	0.0159573
809.292	0.0161075
809.370	0.0162410
809.448	0.0160901
809.526	0.0161411
809.604	0.0163284
809.683	0.0162509
809.761	0.0162842
809.839	0.0162746
809.917	0.0163597
809.995	0.0163907
810.073	0.0163948
810.151	0.0163464
810.229	0.0163293
810.308	0.0164407
810.386	0.0164819
810.464	0.0162582
810.542	0.0163030
810.620	0.0163905
810.698	0.0163962
810.776	0.0163244
810.854	0.0163857
810.933	0.0162636
811.011	0.0163226
811.089	0.0163099
811.167	0.0163344
811.245	0.0162429
811.323	0.0162281
811.401	0.0162436
811.479	0.0163676
811.558	0.0161983
811.636	0.0162285
811.714	0.0163128
811.792	0.0162945
811.870	0.0161493
811.948	0.0161449
812.026	0.0163172
812.104	0.0162549
812.183	0.0162057
812.261	0.0162295
812.339	0.0162117
812.417	0.0162772
812.495	0.0162502
812.573	0.0161080
812.651	0.0160599
812.729	0.0160336
812.808	0.0159299
812.886	0.0158683
812.964	0.0159167
813.042	0.0159787
813.120	0.0160355
813.198	0.0156863
813.276	0.0157632
813.354	0.0156933
813.433	0.0156996
813.511	0.0157137
813.589	0.0157613
813.667	0.0157796
813.745	0.0158141
813.823	0.0158283
813.901	0.0159069
813.979	0.0160332
814.058	0.0159958
814.136	0.0160024
814.214	0.0160333
814.292	0.0160918
814.370	0.0160892
814.448	0.0161285
814.526	0.0162692
814.604	0.0161687
814.683	0.0159217
814.761	0.0159952
814.839	0.0160097
814.917	0.0159227
814.995	0.0158378
815.073	0.0157729
815.151	0.0157192
815.229	0.0158018
815.308	0.0155888
815.386	0.0157094
815.464	0.0155273
815.542	0.0156527
815.620	0.0155946
815.698	0.0156114
815.776	0.0157113
815.854	0.0157557
815.933	0.0157984
816.011	0.0157042
816.089	0.0157465
816.167	0.0160170
816.245	0.0159255
816.323	0.0160062
816.401	0.0160429
816.479	0.0159702
816.558	0.0162479
816.636	0.0163216
816.714	0.0161686
816.792	0.0163141
816.870	0.0164440
816.948	0.0163197
817.026	0.0164602
817.104	0.0165428
817.183	0.0165337
817.261	0.0162833
817.339	0.0163600
817.417	0.0164944
817.495	0.0164982
817.573	0.0164439
817.651	0.0163811
817.729	0.0164952
817.808	0.0163703
817.886	0.0163491
817.964	0.0163676
818.042	0.0161777
818.120	0.0161868
818.198	0.0162001
818.276	0.0162975
818.354	0.0161675
818.433	0.0161572
818.511	0.0160376
818.589	0.0160451
818.667	0.0160129
818.745	0.0161747
818.823	0.0161391
818.901	0.0160389
818.979	0.0160153
819.058	0.0160968
819.136	0.0162138
819.214	0.0161689
819.292	0.0160437
819.370	0.0163087
819.448	0.0161783
819.526	0.0162229
819.604	0.0163525
819.683	0.0162875
819.761	0.0164171
819.839	0.0165235
819.917	0.0165005
819.995	0.0165232
820.073	0.0164497
820.151	0.0164835
820.229	0.0165188
820.308	0.0165614
820.386	0.0164004
820.464	0.0163640
820.542	0.0163769
820.620	0.0163478
820.698	0.0161276
820.776	0.0161742
820.854	0.0160684
820.933	0.0160709
821.011	0.0159784
821.089	0.0160279
821.167	0.0158360
821.245	0.0158214
821.323	0.0157733
821.401	0.0157128
821.479	0.0158399
821.558	0.0157701
821.636	0.0158742
821.714	0.0157803
821.792	0.0157211
821.870	0.0157945
821.948	0.0157739
822.026	0.0158211
822.104	0.0157665
822.183	0.0158103
822.261	0.0158386
822.339	0.0159328
822.417	0.0159277
822.495	0.0159033
822.573	0.0159716
822.651	0.0160014
822.729	0.0158611
822.808	0.0159332
822.886	0.0160049
822.964	0.0159969
823.042	0.0159868
823.120	0.0158986
823.198	0.0160666
823.276	0.0160019
823.354	0.0160367
823.433	0.0161099
823.511	0.0160603
823.589	0.0159798
823.667	0.0161320
823.745	0.0161510
823.823	0.0160100
823.901	0.0158655
823.979	0.0158000
824.058	0.0159676
824.136	0.0160737
824.214	0.0158991
824.292	0.0158014
824.370	0.0158533
824.448	0.0158951
824.526	0.0158125
824.604	0.0158103
824.683	0.0160191
824.761	0.0158253
824.839	0.0159077
824.917	0.0159947
824.995	0.0160758
825.073	0.0160639
825.151	0.0160471
825.229	0.0162949
825.308	0.0163309
825.386	0.0162051
825.464	0.0164480
825.542	0.0163677
825.620	0.0165247
825.698	0.0165678
825.776	0.0165569
825.854	0.0164234
825.933	0.0164346
826.011	0.0166498
826.089	0.0164002
826.167	0.0164527
826.245	0.0164685
826.323	0.0164763
826.401	0.0166098
826.479	0.0164190
826.558	0.0163975
826.636	0.0165351
826.714	0.0163451
826.792	0.0164056
826.870	0.0164555
826.948	0.0166204
827.026	0.0163397
827.104	0.0165238
827.183	0.0163914
827.261	0.0163713
827.339	0.0164884
827.417	0.0165279
827.495	0.0163451
827.573	0.0163119
827.651	0.0163590
827.729	0.0164055
827.808	0.0163257
827.886	0.0162695
827.964	0.0162856
828.042	0.0161160
828.120	0.0163573
828.198	0.0162418
828.276	0.0160972
828.354	0.0159543
828.433	0.0160571
828.511	0.0160060
828.589	0.0160613
828.667	0.0158740
828.745	0.0157182
828.823	0.0157589
828.901	0.0157112
828.979	0.0156903
829.058	0.0158151
829.136	0.0155499
829.214	0.0157133
829.292	0.0156036
829.370	0.0156162
829.448	0.0156388
829.526	0.0156181
829.604	0.0156744
829.683	0.0156696
829.761	0.0155167
829.839	0.0156522
829.917	0.0156609
829.995	0.0157152
830.073	0.0157558
830.151	0.0156641
830.229	0.0158176
830.308	0.0157346
830.386	0.0157215
830.464	0.0157941
830.542	0.0158056
830.620	0.0158567
830.698	0.0159114
830.776	0.0159045
830.854	0.0160999
830.933	0.0160016
831.011	0.0159794
831.089	0.0159767
831.167	0.0159895
831.245	0.0160825
831.323	0.0160321
831.401	0.0160632
831.479	0.0161273
831.558	0.0160856
831.636	0.0162766
831.714	0.0162547
831.792	0.0163816
831.870	0.0163071
831.948	0.0163868
832.026	0.0163716
832.104	0.0164138
832.183	0.0165692
832.261	0.0164183
832.339	0.0163926
832.417	0.0165316
832.495	0.0164668
832.573	0.0166560
832.651	0.0164866
832.729	0.0164558
832.808	0.0164741
832.886	0.0163972
832.964	0.0162688
833.042	0.0164517
833.120	0.0164977
833.198	0.0162215
833.276	0.0161880
833.354	0.0162354
833.433	0.0162048
833.511	0.0161971
833.589	0.0161626
833.667	0.0162248
833.745	0.0160696
833.823	0.0161926
833.901	0.0160444
833.979	0.0160364
834.058	0.0159973
834.136	0.0160210
834.214	0.0159289
834.292	0.0159679
834.370	0.0159312
834.448	0.0158306
834.526	0.0159475
834.604	0.0158595
834.683	0.0159069
834.761	0.0157629
834.839	0.0158873
834.917	0.0158922
834.995	0.0157082
835.073	0.0158275
835.151	0.0157526
835.229	0.0158497
835.308	0.0157793
835.386	0.0160353
835.464	0.0160348
835.542	0.0158836
835.620	0.0158212
835.698	0.0160265
835.776	0.0160098
835.854	0.0159427
835.933	0.0160308
836.011	0.0159784
836.089	0.0161058
836.167	0.0160658
836.245	0.0161319
836.323	0.0161458
836.401	0.0161922
836.479	0.0161478
836.558	0.0161786
836.636	0.0161323
836.714	0.0162259
836.792	0.0162278
836.870	0.0161979
836.948	0.0162007
837.026	0.0162708
837.104	0.0161827
837.183	0.0162869
837.261	0.0162436
837.339	0.0163157
837.417	0.0161604
837.495	0.0161591
837.573	0.0162348
837.651	0.0161507
837.729	0.0161626
837.808	0.0161732
837.886	0.0161524
837.964	0.0160258
838.042	0.0160846
838.120	0.0160107
838.198	0.0162150
838.276	0.0160870
838.354	0.0160425
838.433	0.0161193
838.511	0.0159836
838.589	0.0161160
838.667	0.0160547
838.745	0.0160283
838.823	0.0161369
838.901	0.0161127
838.979	0.0160983
839.058	0.0160841
839.136	0.0161697
839.214	0.0160587
839.292	0.0159041
839.370	0.0159322
839.448	0.0159199
839.526	0.0161161
839.604	0.0159998
839.683	0.0159373
839.761	0.0159673
839.839	0.0159499
839.917	0.0158851
839.995	0.0158770
840.073	0.0159457
840.151	0.0159731
840.229	0.0158035
840.308	0.0159377
840.386	0.0159710
840.464	0.0159495
840.542	0.0159985
840.620	0.0159406
840.698	0.0159924
840.776	0.0160812
840.854	0.0159813
840.933	0.0160096
841.011	0.0161554
841.089	0.0160108
841.167	0.0161153
841.245	0.0160316
841.323	0.0161749
841.401	0.0160276
841.479	0.0160305
841.558	0.0160432
841.636	0.0161269
841.714	0.0160712
841.792	0.0160614
841.870	0.0161317
841.948	0.0160654
842.026	0.0162283
842.104	0.0162217
842.183	0.0160887
842.261	0.0159860
842.339	0.0161868
842.417	0.0160665
842.495	0.0161257
842.573	0.0161493
842.651	0.0159735
842.729	0.0160944
842.808	0.0160617
842.886	0.0160449
842.964	0.0161449
843.042	0.0161036
843.120	0.0162387
843.198	0.0161817
843.276	0.0161199
843.354	0.0162644
843.433	0.0162331
843.511	0.0162796
843.589	0.0164594
843.667	0.0163414
843.745	0.0163097
843.823	0.0161610
843.901	0.0162997
843.979	0.0163573
844.058	0.0163649
844.136	0.0164182
844.214	0.0163312
844.292	0.0162103
844.370	0.0162727
844.448	0.0163493
844.526	0.0161663
844.604	0.0161286
844.683	0.0161089
844.761	0.0160344
844.839	0.0160484
844.917	0.0160413
844.995	0.0161162
845.073	0.0160457
845.151	0.0160868
845.229	0.0159561
845.308	0.0160316
845.386	0.0161156
845.464	0.0160016
845.542	0.0158038
845.620	0.0158954
845.698	0.0157333
845.776	0.0159348
845.854	0.0159647
845.933	0.0158232
846.011	0.0158744
846.089	0.0159192
846.167	0.0159096
846.245	0.0159050
846.323	0.0158829
846.401	0.0159248
846.479	0.0159642
846.558	0.0159864
846.636	0.0161561
846.714	0.0159328
846.792	0.0160597
846.870	0.0159836
846.948	0.0160191
847.026	0.0159570
847.104	0.0160812
847.183	0.0160758
847.261	0.0160857
847.339	0.0161069
847.417	0.0159136
847.495	0.0160767
847.573	0.0160574
847.651	0.0159703
847.729	0.0160316
847.808	0.0160043
847.886	0.0160796
847.964	0.0161014
848.042	0.0159840
848.120	0.0159296
848.198	0.0158071
848.276	0.0158952
848.354	0.0160929
848.433	0.0160577
848.511	0.0159502
848.589	0.0160471
848.667	0.0160600
848.745	0.0159449
848.823	0.0160668
848.901	0.0161221
848.979	0.0160981
849.058	0.0160870
849.136	0.0162193
849.214	0.0161431
849.292	0.0162232
849.370	0.0162892
849.448	0.0161308
849.526	0.0162218
849.604	0.0163369
849.683	0.0164143
849.761	0.0162293
849.839	0.0162773
849.917	0.0161858
849.995	0.0162733
850.073	0.0163558
850.151	0.0163080
850.229	0.0162639
850.308	0.0162918
850.386	0.0163154
850.464	0.0163144
850.542	0.0161734
850.620	0.0162601
850.698	0.0162807
850.776	0.0161908
850.854	0.0162473
850.933	0.0161821
851.011	0.0160114
851.089	0.0162608
851.167	0.0160847
851.245	0.0160738
851.323	0.0162505
851.401	0.0160707
851.479	0.0160149
851.558	0.0160851
851.636	0.0159714
851.714	0.0159005
851.792	0.0158531
851.870	0.0158797
851.948	0.0158913
852.026	0.0158994
852.104	0.0158648
852.183	0.0158788
852.261	0.0159595
852.339	0.0160276
852.417	0.0159568
852.495	0.0159933
852.573	0.0159277
852.651	0.0160053
852.729	0.0160500
852.808	0.0161527
852.886	0.0159610
852.964	0.0160008
853.042	0.0161195
853.120	0.0160754
853.198	0.0162015
853.276	0.0162714
853.354	0.0161540
853.433	0.0161114
853.511	0.0161364
853.589	0.0161443
853.667	0.0160639
853.745	0.0160864
853.823	0.0161864
853.901	0.0161870
853.979	0.0162131
854.058	0.0162738
854.136	0.0161628
854.214	0.0162903
854.292	0.0162037
854.370	0.0161348
854.448	0.0161229
854.526	0.0162241
854.604	0.0162964
854.683	0.0162209
854.761	0.0161150
854.839	0.0160824
854.917	0.0161617
854.995	0.0161349
855.073	0.0161007
855.151	0.0160114
855.229	0.0160236
855.308	0.0160764
855.386	0.0160074
855.464	0.0161605
855.542	0.0161579
855.620	0.0160616
855.698	0.0159810
855.776	0.0160067
855.854	0.0162156
855.933	0.0160901
856.011	0.0160433
856.089	0.0160059
856.167	0.0159462
856.245	0.0160702
856.323	0.0160561
856.401	0.0160186
856.479	0.0161598
856.558	0.0160836
856.636	0.0160302
856.714	0.0161398
856.792	0.0160053
856.870	0.0161457
856.948	0.0161657
857.026	0.0160488
857.104	0.0160800
857.183	0.0159113
857.261	0.0159988
857.339	0.0161021
857.417	0.0161416
857.495	0.0160693
857.573	0.0161116
857.651	0.0161536
857.729	0.0160835
857.808	0.0161122
857.886	0.0161353
857.964	0.0161005
858.042	0.0161314
858.120	0.0160559
858.198	0.0160156
858.276	0.0160560
858.354	0.0160758
858.433	0.0159832
858.511	0.0161557
858.589	0.0159873
858.667	0.0158778
858.745	0.0160331
858.823	0.0159604
858.901	0.0159049
858.979	0.0160133
859.058	0.0160028
859.136	0.0158612
859.214	0.0159400
859.292	0.0159963
859.370	0.0159335
859.448	0.0159154
859.526	0.0161204
859.604	0.0159995
859.683	0.0161052
859.761	0.0159949
859.839	0.0160425
859.917	0.0161906
859.995	0.0160858
860.073	0.0160358
860.151	0.0161770
860.229	0.0161146
860.308	0.0162116
860.386	0.0162252
860.464	0.0162317
860.542	0.0162912
860.620	0.0163476
860.698	0.0162807
860.776	0.0162598
860.854	0.0162106
860.933	0.0163300
861.011	0.0162924
861.089	0.0162643
861.167	0.0160937
861.245	0.0164054
861.323	0.0163834
861.401	0.0162103
861.479	0.0161598
861.558	0.0161668
861.636	0.0163296
861.714	0.0163118
861.792	0.0162404
861.870	0.0162274
861.948	0.0163661
862.026	0.0160728
862.104	0.0161549
862.183	0.0161895
862.261	0.0161907
862.339	0.0161313
862.417	0.0159067
862.495	0.0160162
862.573	0.0159579
862.651	0.0159391
862.729	0.0159776
862.808	0.0160482
862.886	0.0159709
862.964	0.0160399
863.042	0.0159547
863.120	0.0160128
863.198	0.0159158
863.276	0.0159393
863.354	0.0159548
863.433	0.0160005
863.511	0.0159969
863.589	0.0160600
863.667	0.0162035
863.745	0.0158881
863.823	0.0158924
863.901	0.0160269
863.979	0.0159589
864.058	0.0158993
864.136	0.0159270
864.214	0.0160388
864.292	0.0160259
864.370	0.0159125
864.448	0.0160627
864.526	0.0160916
864.604	0.0161028
864.683	0.0160410
864.761	0.0160960
864.839	0.0162452
864.917	0.0161663
864.995	0.0159654
865.073	0.0160008
865.151	0.0159338
865.229	0.0158748
865.308	0.0158756
865.386	0.0161095
865.464	0.0160442
865.542	0.0159737
865.620	0.0159239
865.698	0.0158727
865.776	0.0160500
865.854	0.0161400
865.933	0.0160678
866.011	0.0160654
866.089	0.0161056
866.167	0.0162157
866.245	0.0163362
866.323	0.0163446
866.401	0.0163280
866.479	0.0161803
866.558	0.0161196
866.636	0.0162261
866.714	0.0162353
866.792	0.0162183
866.870	0.0161993
866.948	0.0162182
867.026	0.0160934
867.104	0.0161036
867.183	0.0162656
867.261	0.0161656
867.339	0.0161943
867.417	0.0163873
867.495	0.0163255
867.573	0.0161942
867.651	0.0162448
867.729	0.0164385
867.808	0.0164425
867.886	0.0162682
867.964	0.0160941
868.042	0.0162429
868.120	0.0162344
868.198	0.0163028
868.276	0.0160659
868.354	0.0161378
868.433	0.0161400
868.511	0.0159921
868.589	0.0162325
868.667	0.0160599
868.745	0.0159981
868.823	0.0159603
868.901	0.0158729
868.979	0.0159444
869.058	0.0160083
869.136	0.0159061
869.214	0.0159631
869.292	0.0160242
869.370	0.0158851
869.448	0.0159781
869.526	0.0157742
869.604	0.0159959
869.683	0.0160369
869.761	0.0160393
869.839	0.0160069
869.917	0.0160330
869.995	0.0160141
870.073	0.0159817
870.151	0.0160920
870.229	0.0160085
870.308	0.0160668
870.386	0.0161616
870.464	0.0159356
870.542	0.0161167
870.620	0.0160380
870.698	0.0161657
870.776	0.0161643
870.854	0.0161846
870.933	0.0160890
871.011	0.0161821
871.089	0.0161239
871.167	0.0161713
871.245	0.0160779
871.323	0.0162098
871.401	0.0160928
871.479	0.0162019
871.558	0.0160935
871.636	0.0161021
871.714	0.0162309
871.792	0.0161594
871.870	0.0161095
871.948	0.0161692
872.026	0.0160134
872.104	0.0160947
872.183	0.0161907
872.261	0.0160925
872.339	0.0162236
872.417	0.0160894
872.495	0.0160653
872.573	0.0161449
872.651	0.0161820
872.729	0.0162512
872.808	0.0161318
872.886	0.0160820
872.964	0.0161649
873.042	0.0160976
873.120	0.0161273
873.198	0.0159854
873.276	0.0161108
873.354	0.0160632
873.433	0.0161430
873.511	0.0161693
873.589	0.0160986
873.667	0.0159757
873.745	0.0160207
873.823	0.0158924
873.901	0.0160210
873.979	0.0161858
874.058	0.0160987
874.136	0.0159615
874.214	0.0158568
874.292	0.0160425
874.370	0.0161108
874.448	0.0161304
874.526	0.0160542
874.604	0.0159391
874.683	0.0159651
874.761	0.0159760
874.839	0.0159627
874.917	0.0159640
874.995	0.0159678
875.073	0.0160796
875.151	0.0161268
875.229	0.0161072
875.308	0.0161077
875.386	0.0160719
875.464	0.0160924
875.542	0.0159720
875.620	0.0159627
875.698	0.0160752
875.776	0.0159708
875.854	0.0161004
875.933	0.0162180
876.011	0.0161303
876.089	0.0161198
876.167	0.0161655
876.245	0.0161379
876.323	0.0162225
876.401	0.0161787
876.479	0.0161821
876.558	0.0163187
876.636	0.0163083
876.714	0.0162083
876.792	0.0162315
876.870	0.0164830
876.948	0.0164217
877.026	0.0162705
877.104	0.0163808
877.183	0.0163168
877.261	0.0163277
877.339	0.0162073
877.417	0.0161813
877.495	0.0162135
877.573	0.0161484
877.651	0.0162064
877.729	0.0162174
877.808	0.0161956
877.886	0.0161148
877.964	0.0160852
878.042	0.0161272
878.120	0.0160866
878.198	0.0160146
878.276	0.0160056
878.354	0.0160799
878.433	0.0161577
878.511	0.0158459
878.589	0.0159248
878.667	0.0159134
878.745	0.0158229
878.823	0.0157840
878.901	0.0158053
878.979	0.0160823
879.058	0.0162726
879.136	0.0161086
879.214	0.0160366
879.292	0.0162041
879.370	0.0164412
879.448	0.0164420
879.526	0.0163703
879.604	0.0163241
879.683	0.0162408
879.761	0.0162666
879.839	0.0161062
879.917	0.0158918
879.995	0.0156425
880.073	0.0154630
880.151	0.0151634
880.229	0.0152676
880.308	0.0150648
880.386	0.0151305
880.464	0.0150800
880.542	0.0151495
880.620	0.0152588
880.698	0.0153810
880.776	0.0157294
880.854	0.0161823
880.933	0.0162943
881.011	0.0166084
881.089	0.0168448
881.167	0.0169527
881.245	0.0171273
881.323	0.0171777
881.401	0.0174358
881.479	0.0171830
881.558	0.0173570
881.636	0.0173251
881.714	0.0172951
881.792	0.0172333
881.870	0.0169765
881.948	0.0167801
882.026	0.0166851
882.104	0.0166692
882.183	0.0161757
882.261	0.0161511
882.339	0.0158907
882.417	0.0155350
882.495	0.0155245
882.573	0.0151537
882.651	0.0149699
882.729	0.0147735
882.808	0.0146994
882.886	0.0145812
882.964	0.0145264
883.042	0.0145012
883.120	0.0145654
883.198	0.0146290
883.276	0.0146471
883.354	0.0150323
883.433	0.0149302
883.511	0.0151292
883.589	0.0154351
883.667	0.0155560
883.745	0.0157603
883.823	0.0160559
883.901	0.0163827
883.979	0.0166325
884.058	0.0167736
884.136	0.0169238
884.214	0.0170589
884.292	0.0171734
884.370	0.0173174
884.448	0.0174754
884.526	0.0174728
884.604	0.0173055
884.683	0.0174297
884.761	0.0174098
884.839	0.0171848
884.917	0.0169907
884.995	0.0170404
885.073	0.0168892
885.151	0.0168698
885.229	0.0166400
885.308	0.0165240
885.386	0.0162959
885.464	0.0161936
885.542	0.0162051
885.620	0.0161309
885.698	0.0159599
885.776	0.0159046
885.854	0.0158047
885.933	0.0155490
886.011	0.0155825
886.089	0.0155968
886.167	0.0155328
886.245	0.0154883
886.323	0.0155666
886.401	0.0155193
886.479	0.0156188
886.558	0.0156406
886.636	0.0157250
886.714	0.0157804
886.792	0.0157893
886.870	0.0159053
886.948	0.0158952
887.026	0.0159625
887.104	0.0157641
887.183	0.0158325
887.261	0.0160685
887.339	0.0158304
887.417	0.0159573
887.495	0.0159369
887.573	0.0159567
887.651	0.0158434
887.729	0.0158842
887.808	0.0159681
887.886	0.0158899
887.964	0.0160139
888.042	0.0160076
888.120	0.0159093
888.198	0.0160298
888.276	0.0161118
888.354	0.0158981
888.433	0.0160443
888.511	0.0160727
888.589	0.0161427
888.667	0.0160424
888.745	0.0162082
888.823	0.0162684
888.901	0.0161745
888.979	0.0162355
889.058	0.0161763
889.136	0.0162898
889.214	0.0161774
889.292	0.0160798
889.370	0.0162885
889.448	0.0162511
889.526	0.0164049
889.604	0.0162542
889.683	0.0164009
889.761	0.0163404
889.839	0.0163108
889.917	0.0162256
889.995	0.0163662
890.073	0.0162461
890.151	0.0162550
890.229	0.0164583
890.308	0.0162453
890.386	0.0162740
890.464	0.0162143
890.542	0.0160670
890.620	0.0161405
890.698	0.0160887
890.776	0.0161092
890.854	0.0158961
890.933	0.0158995
891.011	0.0156397
891.089	0.0157818
891.167	0.0157594
891.245	0.0157208
891.323	0.0157397
891.401	0.0156879
891.479	0.0156784
891.558	0.0157662
891.636	0.0156870
891.714	0.0157153
891.792	0.0157527
891.870	0.0157242
891.948	0.0158434
892.026	0.0160006
892.104	0.0161132
892.183	0.0158034
892.261	0.0161301
892.339	0.0163688
892.417	0.0161239
892.495	0.0161844
892.573	0.0161314
892.651	0.0161730
892.729	0.0162445
892.808	0.0163623
892.886	0.0162193
892.964	0.0162704
893.042	0.0162102
893.120	0.0162988
893.198	0.0162456
893.276	0.0161815
893.354	0.0160892
893.433	0.0162667
893.511	0.0160287
893.589	0.0161502
893.667	0.0162170
893.745	0.0162304
893.823	0.0162892
893.901	0.0163214
893.979	0.0162808
894.058	0.0163447
894.136	0.0163988
894.214	0.0164159
894.292	0.0165334
894.370	0.0164823
894.448	0.0164043
894.526	0.0163474
894.604	0.0164837
894.683	0.0165276
894.761	0.0164938
894.839	0.0164342
894.917	0.0163593
894.995	0.0163750
895.073	0.0163585
895.151	0.0163311
895.229	0.0162663
895.308	0.0161214
895.386	0.0160229
895.464	0.0161492
895.542	0.0159734
895.620	0.0158463
895.698	0.0157448
895.776	0.0158040
895.854	0.0158302
895.933	0.0157728
896.011	0.0156905
896.089	0.0158208
896.167	0.0157577
896.245	0.0156699
896.323	0.0157832
896.401	0.0157436
896.479	0.0156847
896.558	0.0158171
896.636	0.0158501
896.714	0.0158225
896.792	0.0158712
896.870	0.0159187
896.948	0.0158303
897.026	0.0159470
897.104	0.0160341
897.183	0.0158023
897.261	0.0160241
897.339	0.0160330
897.417	0.0160136
897.495	0.0159725
897.573	0.0159454
897.651	0.0159583
897.729	0.0160035
897.808	0.0159225
897.886	0.0159208
897.964	0.0160968
898.042	0.0160232
898.120	0.0157759
898.198	0.0158120
898.276	0.0159120
898.354	0.0157579
898.433	0.0157527
898.511	0.0156434
898.589	0.0156577
898.667	0.0156410
898.745	0.0155525
898.823	0.0156207
898.901	0.0156909
898.979	0.0157679
899.058	0.0157558
899.136	0.0157372
899.214	0.0158221
899.292	0.0161900
899.370	0.0161142
899.448	0.0160769
899.526	0.0162367
899.604	0.0164473
899.683	0.0166106
899.761	0.0166280
899.839	0.0168361
899.917	0.0168101
899.995	0.0168758
900.073	0.0168467
900.151	0.0168636
900.229	0.0168053
900.308	0.0168538
900.386	0.0167793
900.464	0.0167406
900.542	0.0168212
900.620	0.0167266
900.698	0.0165236
900.776	0.0166022
900.854	0.0166620
900.933	0.0164716
901.011	0.0163129
901.089	0.0163719
901.167	0.0162262
901.245	0.0161594
901.323	0.0162524
901.401	0.0160015
901.479	0.0159932
901.558	0.0158791
901.636	0.0158141
901.714	0.0158621
901.792	0.0158593
901.870	0.0158045
901.948	0.0158236
902.026	0.0158308
902.104	0.0159550
902.183	0.0158646
902.261	0.0157407
902.339	0.0158707
902.417	0.0159232
902.495	0.0157889
902.573	0.0157703
902.651	0.0158799
902.729	0.0156902
902.808	0.0158051
902.886	0.0157227
902.964	0.0158820
903.042	0.0158120
903.120	0.0158630
903.198	0.0159136
903.276	0.0159180
903.354	0.0158351
903.433	0.0157565
903.511	0.0157841
903.589	0.0158016
903.667	0.0158076
903.745	0.0158886
903.823	0.0157479
903.901	0.0158510
903.979	0.0157606
904.058	0.0159415
904.136	0.0159863
904.214	0.0159229
904.292	0.0161237
904.370	0.0160011
904.448	0.0159822
904.526	0.0159174
904.604	0.0160655
904.683	0.0160181
904.761	0.0161388
904.839	0.0160741
904.917	0.0160465
904.995	0.0161620
905.073	0.0160876
905.151	0.0160557
905.229	0.0161112
905.308	0.0160464
905.386	0.0160704
905.464	0.0161025
905.542	0.0159499
905.620	0.0161189
905.698	0.0159775
905.776	0.0160027
905.854	0.0159216
905.933	0.0159444
906.011	0.0159584
906.089	0.0159790
906.167	0.0160451
906.245	0.0159242
906.323	0.0160613
906.401	0.0161711
906.479	0.0161049
906.558	0.0161673
906.636	0.0162331
906.714	0.0163435
906.792	0.0162779
906.870	0.0161714
906.948	0.0161563
907.026	0.0164262
907.104	0.0163049
907.183	0.0161356
907.261	0.0163750
907.339	0.0163116
907.417	0.0163725
907.495	0.0163589
907.573	0.0162728
907.651	0.0161288
907.729	0.0161293
907.808	0.0162665
907.886	0.0162444
907.964	0.0161492
908.042	0.0161532
908.120	0.0162917
908.198	0.0162077
908.276	0.0161152
908.354	0.0162624
908.433	0.0162643
908.511	0.0162650
908.589	0.0162878
908.667	0.0161697
908.745	0.0162402
908.823	0.0164254
908.901	0.0161662
908.979	0.0162797
909.058	0.0163278
909.136	0.0162792
909.214	0.0162205
909.292	0.0162877
909.370	0.0161430
909.448	0.0161974
909.526	0.0161675
909.604	0.0161159
909.683	0.0159008
909.761	0.0159472
909.839	0.0160751
909.917	0.0160304
909.995	0.0159705
910.073	0.0159059
910.151	0.0159341
910.229	0.0159095
910.308	0.0159225
910.386	0.0158884
910.464	0.0160781
910.542	0.0161234
910.620	0.0160703
910.698	0.0159068
910.776	0.0159648
910.854	0.0159839
910.933	0.0159107
911.011	0.0159315
911.089	0.0159378
911.167	0.0159770
911.245	0.0157967
911.323	0.0160145
911.401	0.0159089
911.479	0.0159676
911.558	0.0159063
911.636	0.0159823
911.714	0.0161195
911.792	0.0161293
911.870	0.0160405
911.948	0.0161309
912.026	0.0161175
912.104	0.0162009
912.183	0.0161667
912.261	0.0163556
912.339	0.0160520
912.417	0.0161683
912.495	0.0161716
912.573	0.0162263
912.651	0.0161625
912.729	0.0161443
912.808	0.0161086
912.886	0.0161973
912.964	0.0162836
913.042	0.0162033
913.120	0.0160380
913.198	0.0161572
913.276	0.0160081
913.354	0.0160101
913.433	0.0160465
913.511	0.0160579
913.589	0.0159366
913.667	0.0159713
913.745	0.0158868
913.823	0.0160797
913.901	0.0160305
913.979	0.0159608
914.058	0.0158105
914.136	0.0158563
914.214	0.0158945
914.292	0.0160123
914.370	0.0159283
914.448	0.0158657
914.526	0.0159345
914.604	0.0158897
914.683	0.0159393
914.761	0.0159158
914.839	0.0158906
914.917	0.0158812
914.995	0.0158880
915.073	0.0159114
915.151	0.0159845
915.229	0.0159307
915.308	0.0160918
915.386	0.0160817
915.464	0.0158665
915.542	0.0160406
915.620	0.0161834
915.698	0.0161460
915.776	0.0161578
915.854	0.0162250
915.933	0.0162076
916.011	0.0162112
916.089	0.0160740
916.167	0.0161964
916.245	0.0160378
916.323	0.0160263
916.401	0.0162508
916.479	0.0162090
916.558	0.0161184
916.636	0.0162071
916.714	0.0163583
916.792	0.0163380
916.870	0.0163437
916.948	0.0164236
917.026	0.0165076
917.104	0.0165208
917.183	0.0165999
917.261	0.0165214
917.339	0.0166609
917.417	0.0167799
917.495	0.0166202
917.573	0.0163885
917.651	0.0166511
917.729	0.0166560
917.808	0.0165083
917.886	0.0165027
917.964	0.0165324
918.042	0.0165557
918.120	0.0163391
918.198	0.0163239
918.276	0.0163886
918.354	0.0162987
918.433	0.0162532
918.511	0.0159821
918.589	0.0158906
918.667	0.0160947
918.745	0.0160083
918.823	0.0158755
918.901	0.0158914
918.979	0.0157708
919.058	0.0158620
919.136	0.0158480
919.214	0.0157632
919.292	0.0156312
919.370	0.0155856
919.448	0.0157056
919.526	0.0157838
919.604	0.0156338
919.683	0.0157370
919.761	0.0156960
919.839	0.0156957
919.917	0.0158299
