06/01/2022	22:06:29	Ver.	4.1	UNKNOWN
Optical Delay	599.988409	Delta X		0.078125	Sweeps	1	Scan Rate	0/0
Coordinates	Axis 1	NaN	Axis 2	NaN	Axis 3	NaN	Axis 4	NaN	Axis 5	NaN	Axis 6	0.000000
TX Power	0.000000	RX Power	0.000000

599.988	0.0178352
600.067	0.0178089
600.145	0.0178000
600.223	0.0178367
600.301	0.0178246
600.379	0.0179364
600.457	0.0178401
600.535	0.0178246
600.613	0.0177852
600.692	0.0178262
600.770	0.0178654
600.848	0.0178764
600.926	0.0177914
601.004	0.0178508
601.082	0.0177277
601.160	0.0178619
601.238	0.0177686
601.317	0.0178827
601.395	0.0178107
601.473	0.0178532
601.551	0.0176888
601.629	0.0177643
601.707	0.0178822
601.785	0.0178704
601.863	0.0177982
601.942	0.0177883
602.020	0.0178410
602.098	0.0178758
602.176	0.0178643
602.254	0.0177800
602.332	0.0178549
602.410	0.0177667
602.488	0.0178825
602.567	0.0177467
602.645	0.0177488
602.723	0.0176609
602.801	0.0179047
602.879	0.0178755
602.957	0.0177238
603.035	0.0178863
603.113	0.0177871
603.192	0.0178381
603.270	0.0179596
603.348	0.0179449
603.426	0.0179138
603.504	0.0178133
603.582	0.0177419
603.660	0.0178345
603.738	0.0178017
603.817	0.0178645
603.895	0.0178566
603.973	0.0179001
604.051	0.0177302
604.129	0.0179418
604.207	0.0179514
604.285	0.0177928
604.363	0.0178677
604.442	0.0179298
604.520	0.0178883
604.598	0.0179292
604.676	0.0177984
604.754	0.0177329
604.832	0.0178330
604.910	0.0179077
604.988	0.0178252
605.067	0.0178660
605.145	0.0178604
605.223	0.0177520
605.301	0.0178577
605.379	0.0177438
605.457	0.0178377
605.535	0.0177628
605.613	0.0178474
605.692	0.0178620
605.770	0.0178476
605.848	0.0178917
605.926	0.0178370
606.004	0.0178558
606.082	0.0178522
606.160	0.0177239
606.238	0.0176868
606.317	0.0179945
606.395	0.0177126
606.473	0.0177341
606.551	0.0178796
606.629	0.0178422
606.707	0.0177460
606.785	0.0178011
606.863	0.0178397
606.942	0.0178141
607.020	0.0177512
607.098	0.0179283
607.176	0.0177213
607.254	0.0178126
607.332	0.0178720
607.410	0.0178854
607.488	0.0177996
607.567	0.0177301
607.645	0.0177964
607.723	0.0177634
607.801	0.0177715
607.879	0.0177616
607.957	0.0177619
608.035	0.0177441
608.113	0.0177315
608.192	0.0178228
608.270	0.0178128
608.348	0.0179172
608.426	0.0177399
608.504	0.0177702
608.582	0.0177425
608.660	0.0178301
608.738	0.0178290
608.817	0.0176402
608.895	0.0177663
608.973	0.0178296
609.051	0.0178974
609.129	0.0179671
609.207	0.0179197
609.285	0.0179371
609.363	0.0178907
609.442	0.0179140
609.520	0.0178101
609.598	0.0178423
609.676	0.0178678
609.754	0.0178634
609.832	0.0178131
609.910	0.0178953
609.988	0.0177994
610.067	0.0179452
610.145	0.0178889
610.223	0.0179420
610.301	0.0177962
610.379	0.0179265
610.457	0.0177224
610.535	0.0177880
610.613	0.0178847
610.692	0.0179887
610.770	0.0179344
610.848	0.0177544
610.926	0.0177899
611.004	0.0178889
611.082	0.0178582
611.160	0.0177415
611.238	0.0179169
611.317	0.0180937
611.395	0.0179000
611.473	0.0180643
611.551	0.0179969
611.629	0.0179705
611.707	0.0179465
611.785	0.0178819
611.863	0.0178607
611.942	0.0177884
612.020	0.0177924
612.098	0.0179986
612.176	0.0180098
612.254	0.0178172
612.332	0.0179308
612.410	0.0178402
612.488	0.0179722
612.567	0.0179662
612.645	0.0178625
612.723	0.0178563
612.801	0.0179685
612.879	0.0179661
612.957	0.0179695
613.035	0.0179158
613.113	0.0180314
613.192	0.0180270
613.270	0.0178638
613.348	0.0178677
613.426	0.0179741
613.504	0.0178497
613.582	0.0179967
613.660	0.0179758
613.738	0.0179086
613.817	0.0179911
613.895	0.0179475
613.973	0.0178904
614.051	0.0178953
614.129	0.0179617
614.207	0.0178458
614.285	0.0179742
614.363	0.0177832
614.442	0.0179208
614.520	0.0179337
614.598	0.0178274
614.676	0.0179752
614.754	0.0178830
614.832	0.0179973
614.910	0.0179724
614.988	0.0178945
615.067	0.0179597
615.145	0.0178512
615.223	0.0178632
615.301	0.0179993
615.379	0.0179272
615.457	0.0178417
615.535	0.0178729
615.613	0.0179462
615.692	0.0178590
615.770	0.0178749
615.848	0.0177970
615.926	0.0177573
616.004	0.0178798
616.082	0.0177349
616.160	0.0177883
616.238	0.0178989
616.317	0.0179771
616.395	0.0179253
616.473	0.0177057
616.551	0.0176955
616.629	0.0177816
616.707	0.0178124
616.785	0.0176656
616.863	0.0177563
616.942	0.0178553
617.020	0.0178761
617.098	0.0178054
617.176	0.0178194
617.254	0.0177633
617.332	0.0176713
617.410	0.0177750
617.488	0.0177114
617.567	0.0177143
617.645	0.0178697
617.723	0.0175845
617.801	0.0176494
617.879	0.0178422
617.957	0.0177065
618.035	0.0177621
618.113	0.0177782
618.192	0.0176808
618.270	0.0178313
618.348	0.0177120
618.426	0.0177816
618.504	0.0176786
618.582	0.0175806
618.660	0.0176667
618.738	0.0177343
618.817	0.0178477
618.895	0.0178001
618.973	0.0176987
619.051	0.0177583
619.129	0.0177406
619.207	0.0176973
619.285	0.0176573
619.363	0.0177536
619.442	0.0176414
619.520	0.0177411
619.598	0.0177672
619.676	0.0177097
619.754	0.0176826
619.832	0.0177396
619.910	0.0178381
619.988	0.0176939
620.067	0.0178596
620.145	0.0177367
620.223	0.0177003
620.301	0.0177882
620.379	0.0179391
620.457	0.0178134
620.535	0.0178825
620.613	0.0178530
620.692	0.0178959
620.770	0.0179162
620.848	0.0178015
620.926	0.0177810
621.004	0.0177723
621.082	0.0178233
621.160	0.0177707
621.238	0.0178401
621.317	0.0177599
621.395	0.0178648
621.473	0.0177151
621.551	0.0178534
621.629	0.0178057
621.707	0.0178438
621.785	0.0178613
621.863	0.0179538
621.942	0.0178617
622.020	0.0179154
622.098	0.0179682
622.176	0.0179594
622.254	0.0177710
622.332	0.0178748
622.410	0.0178999
622.488	0.0177626
622.567	0.0179812
622.645	0.0179626
622.723	0.0178654
622.801	0.0178744
622.879	0.0179676
622.957	0.0179722
623.035	0.0178968
623.113	0.0179299
623.192	0.0179710
623.270	0.0178442
623.348	0.0178600
623.426	0.0179025
623.504	0.0179021
623.582	0.0179290
623.660	0.0179591
623.738	0.0180908
623.817	0.0179763
623.895	0.0177273
623.973	0.0178499
624.051	0.0180065
624.129	0.0179247
624.207	0.0178558
624.285	0.0179043
624.363	0.0179379
624.442	0.0179655
624.520	0.0179008
624.598	0.0177737
624.676	0.0179118
624.754	0.0179101
624.832	0.0178136
624.910	0.0179071
624.988	0.0178063
625.067	0.0176974
625.145	0.0178408
625.223	0.0178560
625.301	0.0177376
625.379	0.0179353
625.457	0.0178954
625.535	0.0176493
625.613	0.0176546
625.692	0.0178420
625.770	0.0179612
625.848	0.0178883
625.926	0.0177884
626.004	0.0179034
626.082	0.0178433
626.160	0.0177970
626.238	0.0178949
626.317	0.0178121
626.395	0.0176461
626.473	0.0177228
626.551	0.0178833
626.629	0.0178808
626.707	0.0177577
626.785	0.0176939
626.863	0.0177649
626.942	0.0179039
627.020	0.0177641
627.098	0.0178643
627.176	0.0179272
627.254	0.0177780
627.332	0.0177593
627.410	0.0177138
627.488	0.0177738
627.567	0.0179011
627.645	0.0177619
627.723	0.0176698
627.801	0.0177447
627.879	0.0178403
627.957	0.0176758
628.035	0.0177121
628.113	0.0178111
628.192	0.0176813
628.270	0.0177181
628.348	0.0177753
628.426	0.0177197
628.504	0.0177110
628.582	0.0177528
628.660	0.0179723
628.738	0.0177335
628.817	0.0177131
628.895	0.0177940
628.973	0.0178358
629.051	0.0175977
629.129	0.0177882
629.207	0.0177679
629.285	0.0177654
629.363	0.0178263
629.442	0.0176679
629.520	0.0177308
629.598	0.0179916
629.676	0.0178534
629.754	0.0177804
629.832	0.0178636
629.910	0.0179263
629.988	0.0179055
630.067	0.0178169
630.145	0.0178764
630.223	0.0178544
630.301	0.0178471
630.379	0.0177968
630.457	0.0178426
630.535	0.0178147
630.613	0.0178961
630.692	0.0179890
630.770	0.0178576
630.848	0.0178483
630.926	0.0178519
631.004	0.0179642
631.082	0.0179041
631.160	0.0178596
631.238	0.0179194
631.317	0.0179865
631.395	0.0179311
631.473	0.0178938
631.551	0.0179219
631.629	0.0178667
631.707	0.0179086
631.785	0.0179365
631.863	0.0180020
631.942	0.0178860
632.020	0.0179327
632.098	0.0179646
632.176	0.0178711
632.254	0.0179430
632.332	0.0180253
632.410	0.0178770
632.488	0.0179376
632.567	0.0178759
632.645	0.0179659
632.723	0.0180154
632.801	0.0178681
632.879	0.0179793
632.957	0.0179382
633.035	0.0180090
633.113	0.0179526
633.192	0.0178650
633.270	0.0178008
633.348	0.0178529
633.426	0.0177908
633.504	0.0179475
633.582	0.0178381
633.660	0.0177482
633.738	0.0178941
633.817	0.0180543
633.895	0.0178860
633.973	0.0178424
634.051	0.0178794
634.129	0.0179199
634.207	0.0177668
634.285	0.0178480
634.363	0.0178391
634.442	0.0179507
634.520	0.0178925
634.598	0.0179156
634.676	0.0179955
634.754	0.0178580
634.832	0.0177767
634.910	0.0178783
634.988	0.0178365
635.067	0.0178156
635.145	0.0177746
635.223	0.0177419
635.301	0.0178516
635.379	0.0178165
635.457	0.0178244
635.535	0.0177934
635.613	0.0177631
635.692	0.0177094
635.770	0.0177873
635.848	0.0177862
635.926	0.0177402
636.004	0.0178278
636.082	0.0177039
636.160	0.0178548
636.238	0.0178320
636.317	0.0179151
636.395	0.0180042
636.473	0.0178056
636.551	0.0178775
636.629	0.0179091
636.707	0.0178667
636.785	0.0178378
636.863	0.0178671
636.942	0.0178774
637.020	0.0177621
637.098	0.0179444
637.176	0.0178420
637.254	0.0178253
637.332	0.0179898
637.410	0.0178861
637.488	0.0176952
637.567	0.0178585
637.645	0.0178446
637.723	0.0178314
637.801	0.0177127
637.879	0.0177975
637.957	0.0177420
638.035	0.0177095
638.113	0.0176495
638.192	0.0177697
638.270	0.0176949
638.348	0.0177901
638.426	0.0177173
638.504	0.0177105
638.582	0.0176884
638.660	0.0177527
638.738	0.0178162
638.817	0.0177190
638.895	0.0177009
638.973	0.0177843
639.051	0.0178304
639.129	0.0177997
639.207	0.0179475
639.285	0.0179349
639.363	0.0178335
639.442	0.0177213
639.520	0.0176461
639.598	0.0178728
639.676	0.0178546
639.754	0.0176939
639.832	0.0179395
639.910	0.0179986
639.988	0.0179298
640.067	0.0178386
640.145	0.0177147
640.223	0.0178089
640.301	0.0179794
640.379	0.0179553
640.457	0.0177982
640.535	0.0178662
640.613	0.0178847
640.692	0.0178748
640.770	0.0178746
640.848	0.0179392
640.926	0.0179081
641.004	0.0177711
641.082	0.0179655
641.160	0.0178519
641.238	0.0177213
641.317	0.0178388
641.395	0.0176782
641.473	0.0176868
641.551	0.0178112
641.629	0.0178074
641.707	0.0176096
641.785	0.0177585
641.863	0.0177197
641.942	0.0177447
642.020	0.0176292
642.098	0.0176718
642.176	0.0177573
642.254	0.0177583
642.332	0.0178005
642.410	0.0177016
642.488	0.0178368
642.567	0.0176543
642.645	0.0177040
642.723	0.0178045
642.801	0.0177857
642.879	0.0178722
642.957	0.0179697
643.035	0.0178555
643.113	0.0178081
643.192	0.0177512
643.270	0.0177627
643.348	0.0178786
643.426	0.0178911
643.504	0.0175986
643.582	0.0179189
643.660	0.0178626
643.738	0.0178595
643.817	0.0179237
643.895	0.0177372
643.973	0.0178738
644.051	0.0178974
644.129	0.0178440
644.207	0.0178584
644.285	0.0178251
644.363	0.0177924
644.442	0.0177586
644.520	0.0179792
644.598	0.0177934
644.676	0.0176328
644.754	0.0176997
644.832	0.0177892
644.910	0.0177721
644.988	0.0176218
645.067	0.0177721
645.145	0.0176654
645.223	0.0177600
645.301	0.0178462
645.379	0.0177165
645.457	0.0176931
645.535	0.0177464
645.613	0.0179035
645.692	0.0179124
645.770	0.0177924
645.848	0.0178228
645.926	0.0178810
646.004	0.0178988
646.082	0.0178677
646.160	0.0179371
646.238	0.0178252
646.317	0.0178938
646.395	0.0179833
646.473	0.0177467
646.551	0.0177642
646.629	0.0178397
646.707	0.0177472
646.785	0.0178849
646.863	0.0178696
646.942	0.0178640
647.020	0.0178443
647.098	0.0177200
647.176	0.0177275
647.254	0.0177645
647.332	0.0177576
647.410	0.0178125
647.488	0.0176162
647.567	0.0176359
647.645	0.0178339
647.723	0.0177831
647.801	0.0176756
647.879	0.0176588
647.957	0.0176083
648.035	0.0178328
648.113	0.0179536
648.192	0.0177251
648.270	0.0178442
648.348	0.0179539
648.426	0.0177849
648.504	0.0178641
648.582	0.0177726
648.660	0.0178538
648.738	0.0179238
648.817	0.0179979
648.895	0.0180703
648.973	0.0180639
649.051	0.0180637
649.129	0.0179034
649.207	0.0179539
649.285	0.0179652
649.363	0.0181429
649.442	0.0180579
649.520	0.0178992
649.598	0.0180418
649.676	0.0179375
649.754	0.0179093
649.832	0.0180879
649.910	0.0179653
649.988	0.0180072
650.067	0.0178429
650.145	0.0179857
650.223	0.0180213
650.301	0.0177446
650.379	0.0177965
650.457	0.0178850
650.535	0.0179613
650.613	0.0176853
650.692	0.0180281
650.770	0.0178635
650.848	0.0177444
650.926	0.0177673
651.004	0.0177789
651.082	0.0177791
651.160	0.0177278
651.238	0.0177327
651.317	0.0178438
651.395	0.0178336
651.473	0.0178917
651.551	0.0177595
651.629	0.0178437
651.707	0.0180006
651.785	0.0177160
651.863	0.0177524
651.942	0.0177481
652.020	0.0177566
652.098	0.0178508
652.176	0.0177448
652.254	0.0177847
652.332	0.0177608
652.410	0.0177891
652.488	0.0178630
652.567	0.0177238
652.645	0.0177319
652.723	0.0178429
652.801	0.0178349
652.879	0.0178037
652.957	0.0176888
653.035	0.0177303
653.113	0.0177763
653.192	0.0178393
653.270	0.0178361
653.348	0.0178784
653.426	0.0178612
653.504	0.0178127
653.582	0.0177723
653.660	0.0177692
653.738	0.0177939
653.817	0.0180288
653.895	0.0178053
653.973	0.0177740
654.051	0.0178947
654.129	0.0179594
654.207	0.0178596
654.285	0.0178105
654.363	0.0179145
654.442	0.0177929
654.520	0.0178669
654.598	0.0178694
654.676	0.0177044
654.754	0.0177443
654.832	0.0178046
654.910	0.0177020
654.988	0.0177309
655.067	0.0177047
655.145	0.0176916
655.223	0.0176972
655.301	0.0177792
655.379	0.0178131
655.457	0.0176122
655.535	0.0176855
655.613	0.0177409
655.692	0.0177519
655.770	0.0177159
655.848	0.0177058
655.926	0.0177652
656.004	0.0177042
656.082	0.0175819
656.160	0.0176940
656.238	0.0178814
656.317	0.0177528
656.395	0.0178050
656.473	0.0178046
656.551	0.0177438
656.629	0.0177682
656.707	0.0178895
656.785	0.0177773
656.863	0.0177840
656.942	0.0178120
657.020	0.0177309
657.098	0.0178460
657.176	0.0178944
657.254	0.0181009
657.332	0.0178142
657.410	0.0178757
657.488	0.0178006
657.567	0.0179214
657.645	0.0179507
657.723	0.0179211
657.801	0.0179115
657.879	0.0178685
657.957	0.0178335
658.035	0.0179635
658.113	0.0180222
658.192	0.0180040
658.270	0.0178171
658.348	0.0179269
658.426	0.0178979
658.504	0.0179430
658.582	0.0178596
658.660	0.0179119
658.738	0.0180270
658.817	0.0181003
658.895	0.0178598
658.973	0.0179128
659.051	0.0180298
659.129	0.0180611
659.207	0.0180156
659.285	0.0181084
659.363	0.0180556
659.442	0.0181084
659.520	0.0179657
659.598	0.0180841
659.676	0.0179349
659.754	0.0181104
659.832	0.0180413
659.910	0.0178870
659.988	0.0179215
660.067	0.0181091
660.145	0.0179321
660.223	0.0179042
660.301	0.0180696
660.379	0.0179700
660.457	0.0180479
660.535	0.0179294
660.613	0.0179652
660.692	0.0181019
660.770	0.0180476
660.848	0.0180000
660.926	0.0179271
661.004	0.0179473
661.082	0.0180776
661.160	0.0180016
661.238	0.0178786
661.317	0.0179423
661.395	0.0181026
661.473	0.0179301
661.551	0.0179337
661.629	0.0179868
661.707	0.0179829
661.785	0.0179362
661.863	0.0180256
661.942	0.0180355
662.020	0.0180263
662.098	0.0180442
662.176	0.0179866
662.254	0.0180559
662.332	0.0179341
662.410	0.0179376
662.488	0.0179556
662.567	0.0180073
662.645	0.0180772
662.723	0.0177455
662.801	0.0179475
662.879	0.0180221
662.957	0.0178276
663.035	0.0179865
663.113	0.0179356
663.192	0.0178794
663.270	0.0177685
663.348	0.0179019
663.426	0.0179814
663.504	0.0180515
663.582	0.0180942
663.660	0.0179807
663.738	0.0178691
663.817	0.0179880
663.895	0.0179183
663.973	0.0178892
664.051	0.0179430
664.129	0.0178780
664.207	0.0179443
664.285	0.0179983
664.363	0.0179095
664.442	0.0178020
664.520	0.0178554
664.598	0.0179926
664.676	0.0179466
664.754	0.0178204
664.832	0.0179287
664.910	0.0179716
664.988	0.0178850
665.067	0.0178513
665.145	0.0177798
665.223	0.0177652
665.301	0.0177902
665.379	0.0177859
665.457	0.0178232
665.535	0.0176849
665.613	0.0176652
665.692	0.0177003
665.770	0.0178034
665.848	0.0176859
665.926	0.0177074
666.004	0.0175801
666.082	0.0176430
666.160	0.0176095
666.238	0.0177437
666.317	0.0176942
666.395	0.0178096
666.473	0.0178688
666.551	0.0178725
666.629	0.0177832
666.707	0.0178535
666.785	0.0178471
666.863	0.0178092
666.942	0.0180625
667.020	0.0180029
667.098	0.0179663
667.176	0.0180145
667.254	0.0180188
667.332	0.0179911
667.410	0.0179961
667.488	0.0181003
667.567	0.0179686
667.645	0.0178317
667.723	0.0179973
667.801	0.0179958
667.879	0.0176309
667.957	0.0177824
668.035	0.0179332
668.113	0.0177908
668.192	0.0177612
668.270	0.0177561
668.348	0.0177758
668.426	0.0177477
668.504	0.0178388
668.582	0.0177682
668.660	0.0175816
668.738	0.0177674
668.817	0.0179346
668.895	0.0178252
668.973	0.0176668
669.051	0.0177456
669.129	0.0177482
669.207	0.0177360
669.285	0.0177037
669.363	0.0178937
669.442	0.0177361
669.520	0.0176684
669.598	0.0178317
669.676	0.0177599
669.754	0.0176727
669.832	0.0177439
669.910	0.0176463
669.988	0.0177149
670.067	0.0176183
670.145	0.0177102
670.223	0.0176785
670.301	0.0176067
670.379	0.0175816
670.457	0.0176752
670.535	0.0176168
670.613	0.0177653
670.692	0.0176488
670.770	0.0176308
670.848	0.0176385
670.926	0.0176949
671.004	0.0176922
671.082	0.0176961
671.160	0.0177983
671.238	0.0178197
671.317	0.0178769
671.395	0.0178192
671.473	0.0178521
671.551	0.0178012
671.629	0.0179055
671.707	0.0178009
671.785	0.0177490
671.863	0.0176627
671.942	0.0177821
672.020	0.0178133
672.098	0.0176505
672.176	0.0176764
672.254	0.0176893
672.332	0.0177277
672.410	0.0175786
672.488	0.0176627
672.567	0.0177075
672.645	0.0177231
672.723	0.0175937
672.801	0.0176637
672.879	0.0177612
672.957	0.0178312
673.035	0.0177976
673.113	0.0177949
673.192	0.0177210
673.270	0.0176886
673.348	0.0179228
673.426	0.0181548
673.504	0.0180117
673.582	0.0179623
673.660	0.0180680
673.738	0.0181053
673.817	0.0179087
673.895	0.0180004
673.973	0.0179732
674.051	0.0179629
674.129	0.0178268
674.207	0.0177024
674.285	0.0176583
674.363	0.0177791
674.442	0.0176375
674.520	0.0175464
674.598	0.0176549
674.676	0.0176511
674.754	0.0175802
674.832	0.0175214
674.910	0.0176144
674.988	0.0175584
675.067	0.0175660
675.145	0.0177084
675.223	0.0176291
675.301	0.0177180
675.379	0.0178824
675.457	0.0178368
675.535	0.0178313
675.613	0.0179207
675.692	0.0181244
675.770	0.0179949
675.848	0.0179926
675.926	0.0179896
676.004	0.0179458
676.082	0.0179813
676.160	0.0178040
676.238	0.0178324
676.317	0.0177944
676.395	0.0177176
676.473	0.0176106
676.551	0.0176565
676.629	0.0176523
676.707	0.0175516
676.785	0.0178123
676.863	0.0176459
676.942	0.0177684
677.020	0.0179242
677.098	0.0178197
677.176	0.0179552
677.254	0.0180351
677.332	0.0181438
677.410	0.0180376
677.488	0.0181480
677.567	0.0182013
677.645	0.0183511
677.723	0.0182983
677.801	0.0182516
677.879	0.0183299
677.957	0.0181548
678.035	0.0182992
678.113	0.0181965
678.192	0.0181598
678.270	0.0181264
678.348	0.0179285
678.426	0.0177654
678.504	0.0178097
678.582	0.0176759
678.660	0.0175123
678.738	0.0176484
678.817	0.0175867
678.895	0.0175410
678.973	0.0175190
679.051	0.0176128
679.129	0.0177194
679.207	0.0176997
679.285	0.0176741
679.363	0.0178742
679.442	0.0175737
679.520	0.0177856
679.598	0.0178099
679.676	0.0178309
679.754	0.0178176
679.832	0.0178660
679.910	0.0177879
679.988	0.0178638
680.067	0.0179568
680.145	0.0179656
680.223	0.0179490
680.301	0.0181168
680.379	0.0182367
680.457	0.0182227
680.535	0.0182388
680.613	0.0183054
680.692	0.0182120
680.770	0.0182866
680.848	0.0182683
680.926	0.0182282
681.004	0.0182774
681.082	0.0182399
681.160	0.0180983
681.238	0.0180651
681.317	0.0180811
681.395	0.0179814
681.473	0.0179614
681.551	0.0178898
681.629	0.0179958
681.707	0.0178831
681.785	0.0177290
681.863	0.0177126
681.942	0.0178371
682.020	0.0175154
682.098	0.0176190
682.176	0.0174396
682.254	0.0174264
682.332	0.0173911
682.410	0.0174718
682.488	0.0174458
682.567	0.0174391
682.645	0.0174773
682.723	0.0176443
682.801	0.0175360
682.879	0.0178383
682.957	0.0178368
683.035	0.0177936
683.113	0.0178416
683.192	0.0182131
683.270	0.0180495
683.348	0.0183150
683.426	0.0184197
683.504	0.0183962
683.582	0.0184724
683.660	0.0184578
683.738	0.0185834
683.817	0.0185409
683.895	0.0186803
683.973	0.0186887
684.051	0.0186140
684.129	0.0184058
684.207	0.0183048
684.285	0.0182896
684.363	0.0182413
684.442	0.0180601
684.520	0.0180493
684.598	0.0179408
684.676	0.0177618
684.754	0.0176657
684.832	0.0177704
684.910	0.0176879
684.988	0.0176326
685.067	0.0176894
685.145	0.0175613
685.223	0.0174985
685.301	0.0175244
685.379	0.0174790
685.457	0.0174414
685.535	0.0174162
685.613	0.0173669
685.692	0.0174487
685.770	0.0174458
685.848	0.0174812
685.926	0.0175154
686.004	0.0176974
686.082	0.0176622
686.160	0.0177610
686.238	0.0179163
686.317	0.0181054
686.395	0.0179611
686.473	0.0181987
686.551	0.0183343
686.629	0.0183517
686.707	0.0185223
686.785	0.0186383
686.863	0.0186539
686.942	0.0187553
687.020	0.0187649
687.098	0.0187918
687.176	0.0186968
687.254	0.0188091
687.332	0.0187145
687.410	0.0187199
687.488	0.0186753
687.567	0.0184756
687.645	0.0184650
687.723	0.0184129
687.801	0.0182603
687.879	0.0181682
687.957	0.0181641
688.035	0.0178434
688.113	0.0177695
688.192	0.0177306
688.270	0.0174938
688.348	0.0174248
688.426	0.0173945
688.504	0.0173174
688.582	0.0171494
688.660	0.0172108
688.738	0.0169977
688.817	0.0167854
688.895	0.0168842
688.973	0.0169479
689.051	0.0170083
689.129	0.0170672
689.207	0.0170679
689.285	0.0172589
689.363	0.0172073
689.442	0.0172618
689.520	0.0173778
689.598	0.0175507
689.676	0.0177365
689.754	0.0177622
689.832	0.0178435
689.910	0.0179025
689.988	0.0179078
690.067	0.0181790
690.145	0.0179780
690.223	0.0181118
690.301	0.0181979
690.379	0.0180648
690.457	0.0182119
690.535	0.0183299
690.613	0.0181503
690.692	0.0183508
690.770	0.0183451
690.848	0.0181368
690.926	0.0182542
691.004	0.0182777
691.082	0.0182726
691.160	0.0182542
691.238	0.0182996
691.317	0.0182943
691.395	0.0183203
691.473	0.0183440
691.551	0.0184544
691.629	0.0184141
691.707	0.0184413
691.785	0.0184222
691.863	0.0185812
691.942	0.0186015
692.020	0.0184500
692.098	0.0183876
692.176	0.0182991
692.254	0.0182896
692.332	0.0181499
692.410	0.0180954
692.488	0.0180663
692.567	0.0178326
692.645	0.0176230
692.723	0.0176450
692.801	0.0175111
692.879	0.0172849
692.957	0.0172425
693.035	0.0171050
693.113	0.0170205
693.192	0.0168855
693.270	0.0167539
693.348	0.0166845
693.426	0.0168414
693.504	0.0168026
693.582	0.0166581
693.660	0.0166579
693.738	0.0165953
693.817	0.0165767
693.895	0.0166154
693.973	0.0166445
694.051	0.0166957
694.129	0.0165519
694.207	0.0166946
694.285	0.0167121
694.363	0.0168957
694.442	0.0169344
694.520	0.0170451
694.598	0.0172121
694.676	0.0171488
694.754	0.0174120
694.832	0.0174403
694.910	0.0175536
694.988	0.0176144
695.067	0.0177432
695.145	0.0179018
695.223	0.0177461
695.301	0.0180926
695.379	0.0181561
695.457	0.0181521
695.535	0.0183820
695.613	0.0184881
695.692	0.0185680
695.770	0.0187349
695.848	0.0187202
695.926	0.0189211
696.004	0.0191200
696.082	0.0191489
696.160	0.0193007
696.238	0.0193446
696.317	0.0192502
696.395	0.0191640
696.473	0.0193200
696.551	0.0194199
696.629	0.0192884
696.707	0.0193041
696.785	0.0192353
696.863	0.0189518
696.942	0.0189191
697.020	0.0188480
697.098	0.0186012
697.176	0.0184828
697.254	0.0181246
697.332	0.0178032
697.410	0.0176321
697.488	0.0174914
697.567	0.0172426
697.645	0.0169514
697.723	0.0167163
697.801	0.0165548
697.879	0.0163853
697.957	0.0161887
698.035	0.0161430
698.113	0.0160374
698.192	0.0159759
698.270	0.0158787
698.348	0.0160020
698.426	0.0161630
698.504	0.0160400
698.582	0.0160735
698.660	0.0163760
698.738	0.0165019
698.817	0.0164347
698.895	0.0166679
698.973	0.0166342
699.051	0.0170230
699.129	0.0170636
699.207	0.0172180
699.285	0.0174897
699.363	0.0175662
699.442	0.0177007
699.520	0.0178121
699.598	0.0180873
699.676	0.0182099
699.754	0.0182922
699.832	0.0184481
699.910	0.0185239
699.988	0.0187888
700.067	0.0188562
700.145	0.0189651
700.223	0.0191953
700.301	0.0190211
700.379	0.0191653
700.457	0.0192104
700.535	0.0192681
700.613	0.0192715
700.692	0.0193324
700.770	0.0193807
700.848	0.0193521
700.926	0.0193410
701.004	0.0192580
701.082	0.0192086
701.160	0.0192221
701.238	0.0191424
701.317	0.0191237
701.395	0.0189663
701.473	0.0189540
701.551	0.0188903
701.629	0.0186610
701.707	0.0187220
701.785	0.0184544
701.863	0.0181609
701.942	0.0180709
702.020	0.0180412
702.098	0.0177236
702.176	0.0176412
702.254	0.0174617
702.332	0.0172716
702.410	0.0173027
702.488	0.0171356
702.567	0.0170555
702.645	0.0168555
702.723	0.0167856
702.801	0.0167157
702.879	0.0166596
702.957	0.0165836
703.035	0.0165030
703.113	0.0164490
703.192	0.0162333
703.270	0.0162533
703.348	0.0162924
703.426	0.0162294
703.504	0.0161732
703.582	0.0162083
703.660	0.0162859
703.738	0.0161890
703.817	0.0162809
703.895	0.0165404
703.973	0.0165102
704.051	0.0167587
704.129	0.0167374
704.207	0.0169100
704.285	0.0169543
704.363	0.0171490
704.442	0.0174384
704.520	0.0176402
704.598	0.0176730
704.676	0.0178692
704.754	0.0182874
704.832	0.0183766
704.910	0.0185040
704.988	0.0186247
705.067	0.0189023
705.145	0.0190333
705.223	0.0190382
705.301	0.0192207
705.379	0.0193113
705.457	0.0193491
705.535	0.0193720
705.613	0.0193911
705.692	0.0195045
705.770	0.0193945
705.848	0.0194421
705.926	0.0192195
706.004	0.0192001
706.082	0.0192246
706.160	0.0190191
706.238	0.0189674
706.317	0.0189412
706.395	0.0188075
706.473	0.0186263
706.551	0.0184642
706.629	0.0183240
706.707	0.0182556
706.785	0.0180666
706.863	0.0178909
706.942	0.0180228
707.020	0.0177744
707.098	0.0176480
707.176	0.0176751
707.254	0.0176498
707.332	0.0175098
707.410	0.0174091
707.488	0.0174871
707.567	0.0173390
707.645	0.0174152
707.723	0.0173376
707.801	0.0172836
707.879	0.0171367
707.957	0.0171425
708.035	0.0171319
708.113	0.0170632
708.192	0.0170533
708.270	0.0168127
708.348	0.0169298
708.426	0.0168124
708.504	0.0166183
708.582	0.0165199
708.660	0.0165748
708.738	0.0165609
708.817	0.0165482
708.895	0.0167393
708.973	0.0167771
709.051	0.0167134
709.129	0.0168087
709.207	0.0169136
709.285	0.0169997
709.363	0.0172443
709.442	0.0173752
709.520	0.0173210
709.598	0.0174864
709.676	0.0175616
709.754	0.0176994
709.832	0.0177290
709.910	0.0178279
709.988	0.0180129
710.067	0.0180598
710.145	0.0180923
710.223	0.0183604
710.301	0.0184721
710.379	0.0185485
710.457	0.0186059
710.535	0.0187667
710.613	0.0189886
710.692	0.0191669
710.770	0.0192481
710.848	0.0192607
710.926	0.0193833
711.004	0.0193652
711.082	0.0194827
711.160	0.0195568
711.238	0.0194595
711.317	0.0192888
711.395	0.0194451
711.473	0.0191977
711.551	0.0192172
711.629	0.0190170
711.707	0.0187812
711.785	0.0188375
711.863	0.0186400
711.942	0.0185824
712.020	0.0182975
712.098	0.0179430
712.176	0.0179015
712.254	0.0178886
712.332	0.0176541
712.410	0.0175543
712.488	0.0172758
712.567	0.0172070
712.645	0.0170332
712.723	0.0168974
712.801	0.0168588
712.879	0.0167529
712.957	0.0166649
713.035	0.0166325
713.113	0.0167226
713.192	0.0165469
713.270	0.0164417
713.348	0.0166850
713.426	0.0166061
713.504	0.0168294
713.582	0.0167507
713.660	0.0166108
713.738	0.0167262
713.817	0.0167832
713.895	0.0168501
713.973	0.0167342
714.051	0.0167681
714.129	0.0168983
714.207	0.0169987
714.285	0.0170512
714.363	0.0171494
714.442	0.0171553
714.520	0.0172408
714.598	0.0173218
714.676	0.0175459
714.754	0.0176512
714.832	0.0176631
714.910	0.0177832
714.988	0.0177371
715.067	0.0181271
715.145	0.0181713
715.223	0.0182675
715.301	0.0182640
715.379	0.0185135
715.457	0.0184962
715.535	0.0185729
715.613	0.0186597
715.692	0.0185959
715.770	0.0186558
715.848	0.0185656
715.926	0.0184580
716.004	0.0185886
716.082	0.0188552
716.160	0.0185501
716.238	0.0184241
716.317	0.0184949
716.395	0.0183795
716.473	0.0183276
716.551	0.0183008
716.629	0.0180994
716.707	0.0180775
716.785	0.0181042
716.863	0.0180067
716.942	0.0179211
717.020	0.0178306
717.098	0.0178871
717.176	0.0178371
717.254	0.0178194
717.332	0.0177743
717.410	0.0178426
717.488	0.0178358
717.567	0.0176564
717.645	0.0177831
717.723	0.0176161
717.801	0.0176780
717.879	0.0175432
717.957	0.0174980
718.035	0.0174016
718.113	0.0174967
718.192	0.0173930
718.270	0.0172649
718.348	0.0172102
718.426	0.0171804
718.504	0.0172494
718.582	0.0170134
718.660	0.0171169
718.738	0.0169650
718.817	0.0170940
718.895	0.0170256
718.973	0.0170877
719.051	0.0171517
719.129	0.0171193
719.207	0.0172926
719.285	0.0174763
719.363	0.0175359
719.442	0.0176032
719.520	0.0177934
719.598	0.0176879
719.676	0.0178307
719.754	0.0178168
719.832	0.0177426
719.910	0.0177900
719.988	0.0177583
720.067	0.0175770
720.145	0.0175192
720.223	0.0175089
720.301	0.0174580
720.379	0.0174389
720.457	0.0173174
720.535	0.0174953
720.613	0.0173650
720.692	0.0173618
720.770	0.0174142
720.848	0.0175021
720.926	0.0176871
721.004	0.0178854
721.082	0.0180430
721.160	0.0179949
721.238	0.0180670
721.317	0.0182673
721.395	0.0183730
721.473	0.0184601
721.551	0.0183838
721.629	0.0184478
721.707	0.0184345
721.785	0.0183028
721.863	0.0182356
721.942	0.0181597
722.020	0.0180863
722.098	0.0181690
722.176	0.0179820
722.254	0.0179268
722.332	0.0179202
722.410	0.0179677
722.488	0.0178572
722.567	0.0178795
722.645	0.0178934
722.723	0.0179454
722.801	0.0179517
722.879	0.0180877
722.957	0.0178996
723.035	0.0180789
723.113	0.0180258
723.192	0.0178542
723.270	0.0180017
723.348	0.0179668
723.426	0.0178402
723.504	0.0177750
723.582	0.0178635
723.660	0.0178096
723.738	0.0177899
723.817	0.0177047
723.895	0.0177626
723.973	0.0177339
724.051	0.0177636
724.129	0.0178028
724.207	0.0178293
724.285	0.0178381
724.363	0.0177358
724.442	0.0177529
724.520	0.0179459
724.598	0.0178361
724.676	0.0178600
724.754	0.0179408
724.832	0.0181107
724.910	0.0181803
724.988	0.0180766
725.067	0.0181355
725.145	0.0181032
725.223	0.0180520
725.301	0.0180593
725.379	0.0181846
725.457	0.0180041
725.535	0.0181172
725.613	0.0181751
725.692	0.0180439
725.770	0.0180155
725.848	0.0180271
725.926	0.0179428
726.004	0.0179208
726.082	0.0179152
726.160	0.0178944
726.238	0.0179667
726.317	0.0179369
726.395	0.0180284
726.473	0.0179492
726.551	0.0179768
726.629	0.0178386
726.707	0.0177808
726.785	0.0179049
726.863	0.0177577
726.942	0.0176845
727.020	0.0177634
727.098	0.0178562
727.176	0.0176856
727.254	0.0175722
727.332	0.0175680
727.410	0.0176157
727.488	0.0176552
727.567	0.0177039
727.645	0.0176134
727.723	0.0175858
727.801	0.0177347
727.879	0.0177540
727.957	0.0177248
728.035	0.0178285
728.113	0.0180443
728.192	0.0178806
728.270	0.0178380
728.348	0.0180090
728.426	0.0180191
728.504	0.0179430
728.582	0.0180059
728.660	0.0181519
728.738	0.0181336
728.817	0.0181298
728.895	0.0181065
728.973	0.0181771
729.051	0.0180405
729.129	0.0180219
729.207	0.0179852
729.285	0.0180365
729.363	0.0179319
729.442	0.0178268
729.520	0.0178129
729.598	0.0177583
729.676	0.0176790
729.754	0.0177706
729.832	0.0177097
729.910	0.0177073
729.988	0.0178427
730.067	0.0177641
730.145	0.0177718
730.223	0.0175938
730.301	0.0178358
730.379	0.0178564
730.457	0.0176858
730.535	0.0177497
730.613	0.0178027
730.692	0.0177647
730.770	0.0177295
730.848	0.0177621
730.926	0.0177709
731.004	0.0178426
731.082	0.0176510
731.160	0.0177386
731.238	0.0179240
731.317	0.0178136
731.395	0.0179212
731.473	0.0174278
731.551	0.0176543
731.629	0.0176354
731.707	0.0176440
731.785	0.0174909
731.863	0.0175450
731.942	0.0175671
732.020	0.0176258
732.098	0.0175328
732.176	0.0173749
732.254	0.0174120
732.332	0.0175800
732.410	0.0175520
732.488	0.0174734
732.567	0.0174369
732.645	0.0176679
732.723	0.0176159
732.801	0.0177194
732.879	0.0176356
732.957	0.0176517
733.035	0.0176830
733.113	0.0178336
733.192	0.0177688
733.270	0.0178403
733.348	0.0177871
733.426	0.0177552
733.504	0.0178297
733.582	0.0178167
733.660	0.0176814
733.738	0.0176399
733.817	0.0176616
733.895	0.0176731
733.973	0.0175182
734.051	0.0176846
734.129	0.0175587
734.207	0.0175446
734.285	0.0174497
734.363	0.0174541
734.442	0.0175706
734.520	0.0175964
734.598	0.0175795
734.676	0.0177488
734.754	0.0179034
734.832	0.0179444
734.910	0.0180361
734.988	0.0180868
735.067	0.0181812
735.145	0.0182281
735.223	0.0180824
735.301	0.0179912
735.379	0.0178952
735.457	0.0180272
735.535	0.0179932
735.613	0.0179659
735.692	0.0178966
735.770	0.0179106
735.848	0.0179010
735.926	0.0178532
736.004	0.0177818
736.082	0.0178075
736.160	0.0177833
736.238	0.0178436
736.317	0.0178125
736.395	0.0179121
736.473	0.0179320
736.551	0.0178126
736.629	0.0178259
736.707	0.0177717
736.785	0.0180601
736.863	0.0177158
736.942	0.0178106
737.020	0.0178445
737.098	0.0177694
737.176	0.0176623
737.254	0.0176699
737.332	0.0175838
737.410	0.0175185
737.488	0.0175267
737.567	0.0175734
737.645	0.0174681
737.723	0.0174194
737.801	0.0175954
737.879	0.0174708
737.957	0.0174049
738.035	0.0174025
738.113	0.0174593
738.192	0.0174777
738.270	0.0173801
738.348	0.0175206
738.426	0.0174897
738.504	0.0175980
738.582	0.0174812
738.660	0.0175516
738.738	0.0176900
738.817	0.0177307
738.895	0.0177684
738.973	0.0177522
739.051	0.0179588
739.129	0.0179816
739.207	0.0180534
739.285	0.0181984
739.363	0.0180887
739.442	0.0181310
739.520	0.0181715
739.598	0.0179176
739.676	0.0180356
739.754	0.0179704
739.832	0.0178580
739.910	0.0180087
739.988	0.0180254
740.067	0.0178774
740.145	0.0178551
740.223	0.0177396
740.301	0.0177266
740.379	0.0176080
740.457	0.0176924
740.535	0.0175616
740.613	0.0176375
740.692	0.0175861
740.770	0.0175259
740.848	0.0175801
740.926	0.0175031
741.004	0.0174678
741.082	0.0175494
741.160	0.0175383
741.238	0.0174718
741.317	0.0174844
741.395	0.0174011
741.473	0.0175639
741.551	0.0176670
741.629	0.0175944
741.707	0.0176608
741.785	0.0177659
741.863	0.0177626
741.942	0.0178140
742.020	0.0178175
742.098	0.0179797
742.176	0.0181115
742.254	0.0179904
742.332	0.0180739
742.410	0.0180968
742.488	0.0180459
742.567	0.0178809
742.645	0.0180788
742.723	0.0179521
742.801	0.0178745
742.879	0.0180132
742.957	0.0178831
743.035	0.0179425
743.113	0.0178812
743.192	0.0178475
743.270	0.0179339
743.348	0.0179007
743.426	0.0178431
743.504	0.0180302
743.582	0.0181017
743.660	0.0182125
743.738	0.0181264
743.817	0.0180209
743.895	0.0180737
743.973	0.0180425
744.051	0.0179475
744.129	0.0180163
744.207	0.0179514
744.285	0.0177749
744.363	0.0178211
744.442	0.0177703
744.520	0.0176663
744.598	0.0176534
744.676	0.0176573
744.754	0.0177316
744.832	0.0177470
744.910	0.0177383
744.988	0.0179238
745.067	0.0177230
745.145	0.0179781
745.223	0.0179539
745.301	0.0180785
745.379	0.0180710
745.457	0.0181190
745.535	0.0182368
745.613	0.0182668
745.692	0.0182352
745.770	0.0180605
745.848	0.0180823
745.926	0.0182890
746.004	0.0181624
746.082	0.0181824
746.160	0.0180174
746.238	0.0179835
746.317	0.0180318
746.395	0.0181026
746.473	0.0181121
746.551	0.0179247
746.629	0.0179062
746.707	0.0179371
746.785	0.0180878
746.863	0.0180580
746.942	0.0178808
747.020	0.0178755
747.098	0.0180135
747.176	0.0181354
747.254	0.0179256
747.332	0.0178240
747.410	0.0180579
747.488	0.0180713
747.567	0.0178701
747.645	0.0178918
747.723	0.0179672
747.801	0.0177202
747.879	0.0177204
747.957	0.0176927
748.035	0.0176895
748.113	0.0176994
748.192	0.0177434
748.270	0.0179154
748.348	0.0178374
748.426	0.0177917
748.504	0.0178134
748.582	0.0177952
748.660	0.0178168
748.738	0.0179174
748.817	0.0179215
748.895	0.0178564
748.973	0.0179787
749.051	0.0178097
749.129	0.0179691
749.207	0.0179609
749.285	0.0179391
749.363	0.0179575
749.442	0.0179171
749.520	0.0179889
749.598	0.0181172
749.676	0.0180295
749.754	0.0179387
749.832	0.0178773
749.910	0.0178803
749.988	0.0180186
750.067	0.0179433
750.145	0.0176881
750.223	0.0176463
750.301	0.0178468
750.379	0.0178331
750.457	0.0177687
750.535	0.0177602
750.613	0.0177864
750.692	0.0177359
750.770	0.0176015
750.848	0.0176642
750.926	0.0176178
751.004	0.0176682
751.082	0.0176198
751.160	0.0175948
751.238	0.0177578
751.317	0.0176434
751.395	0.0176945
751.473	0.0177731
751.551	0.0178468
751.629	0.0178146
751.707	0.0178466
751.785	0.0179262
751.863	0.0178012
751.942	0.0180793
752.020	0.0179630
752.098	0.0179391
752.176	0.0179309
752.254	0.0180263
752.332	0.0178564
752.410	0.0178347
752.488	0.0178474
752.567	0.0177573
752.645	0.0177750
752.723	0.0176282
752.801	0.0175642
752.879	0.0175070
752.957	0.0175150
753.035	0.0174850
753.113	0.0174251
753.192	0.0174678
753.270	0.0176987
753.348	0.0176794
753.426	0.0176050
753.504	0.0176094
753.582	0.0176550
753.660	0.0176749
753.738	0.0177596
753.817	0.0178730
753.895	0.0177520
753.973	0.0177965
754.051	0.0179233
754.129	0.0179227
754.207	0.0178534
754.285	0.0177982
754.363	0.0178284
754.442	0.0178735
754.520	0.0178458
754.598	0.0177290
754.676	0.0176128
754.754	0.0176347
754.832	0.0176699
754.910	0.0176476
754.988	0.0177413
755.067	0.0176937
755.145	0.0177482
755.223	0.0177515
755.301	0.0177160
755.379	0.0177514
755.457	0.0177962
755.535	0.0179089
755.613	0.0180229
755.692	0.0180428
755.770	0.0179893
755.848	0.0180294
755.926	0.0180498
756.004	0.0181052
756.082	0.0181911
756.160	0.0180119
756.238	0.0182221
756.317	0.0182401
756.395	0.0182537
756.473	0.0182630
756.551	0.0182809
756.629	0.0181414
756.707	0.0181503
756.785	0.0179755
756.863	0.0182352
756.942	0.0181207
757.020	0.0180529
757.098	0.0179655
757.176	0.0179381
757.254	0.0181419
757.332	0.0179821
757.410	0.0179126
757.488	0.0178584
757.567	0.0179601
757.645	0.0177497
757.723	0.0176694
757.801	0.0177412
757.879	0.0176400
757.957	0.0176054
758.035	0.0175168
758.113	0.0175933
758.192	0.0175964
758.270	0.0174160
758.348	0.0174030
758.426	0.0173382
758.504	0.0176411
758.582	0.0176279
758.660	0.0175330
758.738	0.0174822
758.817	0.0175797
758.895	0.0174723
758.973	0.0174748
759.051	0.0175397
759.129	0.0176514
759.207	0.0175916
759.285	0.0175842
759.363	0.0176349
759.442	0.0176364
759.520	0.0175959
759.598	0.0174903
759.676	0.0176574
759.754	0.0175854
759.832	0.0177531
759.910	0.0176462
759.988	0.0177042
760.067	0.0177547
760.145	0.0177180
760.223	0.0176284
760.301	0.0175716
760.379	0.0176826
760.457	0.0178815
760.535	0.0177663
760.613	0.0176028
760.692	0.0176898
760.770	0.0177831
760.848	0.0177396
760.926	0.0177594
761.004	0.0177410
761.082	0.0179395
761.160	0.0178584
761.238	0.0179166
761.317	0.0178812
761.395	0.0179289
761.473	0.0180068
761.551	0.0179914
761.629	0.0180087
761.707	0.0180905
761.785	0.0180614
761.863	0.0180986
761.942	0.0182121
762.020	0.0182744
762.098	0.0181748
762.176	0.0182287
762.254	0.0182940
762.332	0.0181994
762.410	0.0180042
762.488	0.0180165
762.567	0.0180756
762.645	0.0180507
762.723	0.0180868
762.801	0.0179648
762.879	0.0178042
762.957	0.0178722
763.035	0.0180377
763.113	0.0179421
763.192	0.0180190
763.270	0.0178874
763.348	0.0180640
763.426	0.0179883
763.504	0.0178947
763.582	0.0179507
763.660	0.0180332
763.738	0.0179702
763.817	0.0181026
763.895	0.0179922
763.973	0.0179424
764.051	0.0181434
764.129	0.0177814
764.207	0.0178947
764.285	0.0179091
764.363	0.0178619
764.442	0.0178402
764.520	0.0177637
764.598	0.0177036
764.676	0.0177326
764.754	0.0175799
764.832	0.0175979
764.910	0.0176831
764.988	0.0174670
765.067	0.0176556
765.145	0.0175170
765.223	0.0174467
765.301	0.0175202
765.379	0.0175543
765.457	0.0175663
765.535	0.0175266
765.613	0.0175923
765.692	0.0175592
765.770	0.0176303
765.848	0.0176649
765.926	0.0175095
766.004	0.0175061
766.082	0.0176881
766.160	0.0176186
766.238	0.0175240
766.317	0.0177084
766.395	0.0176038
766.473	0.0176886
766.551	0.0176688
766.629	0.0175497
766.707	0.0177525
766.785	0.0179408
766.863	0.0176357
766.942	0.0178167
767.020	0.0179718
767.098	0.0177915
767.176	0.0177768
767.254	0.0178553
767.332	0.0176775
767.410	0.0178647
767.488	0.0178500
767.567	0.0177767
767.645	0.0178276
767.723	0.0177419
767.801	0.0177238
767.879	0.0178859
767.957	0.0178658
768.035	0.0179205
768.113	0.0179121
768.192	0.0178352
768.270	0.0178056
768.348	0.0178735
768.426	0.0179601
768.504	0.0180497
768.582	0.0179826
768.660	0.0181401
768.738	0.0181623
768.817	0.0181050
768.895	0.0179728
768.973	0.0182251
769.051	0.0183810
769.129	0.0181857
769.207	0.0181499
769.285	0.0181004
769.363	0.0180272
769.442	0.0180729
769.520	0.0181077
769.598	0.0180870
769.676	0.0180471
769.754	0.0182059
769.832	0.0179773
769.910	0.0179804
769.988	0.0179830
770.067	0.0181259
770.145	0.0180032
770.223	0.0180671
770.301	0.0179822
770.379	0.0181601
770.457	0.0180980
770.535	0.0177950
770.613	0.0180297
770.692	0.0179413
770.770	0.0180141
770.848	0.0181763
770.926	0.0179746
771.004	0.0180471
771.082	0.0180767
771.160	0.0179989
771.238	0.0180082
771.317	0.0181167
771.395	0.0180235
771.473	0.0181030
771.551	0.0179218
771.629	0.0179065
771.707	0.0179122
771.785	0.0178886
771.863	0.0180003
771.942	0.0177917
772.020	0.0175879
772.098	0.0177588
772.176	0.0178603
772.254	0.0177528
772.332	0.0175705
772.410	0.0174767
772.488	0.0176381
772.567	0.0175489
772.645	0.0174617
772.723	0.0175468
772.801	0.0174820
772.879	0.0173884
772.957	0.0175446
773.035	0.0174638
773.113	0.0174778
773.192	0.0176491
773.270	0.0176273
773.348	0.0175530
773.426	0.0177367
773.504	0.0177088
773.582	0.0178028
773.660	0.0178173
773.738	0.0177411
773.817	0.0177789
773.895	0.0177805
773.973	0.0177650
774.051	0.0177437
774.129	0.0177185
774.207	0.0178835
774.285	0.0177605
774.363	0.0178555
774.442	0.0176419
774.520	0.0177843
774.598	0.0176731
774.676	0.0178082
774.754	0.0178497
774.832	0.0177930
774.910	0.0178678
774.988	0.0180173
775.067	0.0180067
775.145	0.0179382
775.223	0.0180445
775.301	0.0181712
775.379	0.0181380
775.457	0.0180319
775.535	0.0180692
775.613	0.0181760
775.692	0.0179206
775.770	0.0181184
775.848	0.0180560
775.926	0.0179274
776.004	0.0179829
776.082	0.0179810
776.160	0.0179594
776.238	0.0180417
776.317	0.0179026
776.395	0.0178439
776.473	0.0179501
776.551	0.0179092
776.629	0.0178158
776.707	0.0177315
776.785	0.0179537
776.863	0.0178304
776.942	0.0177145
777.020	0.0179594
777.098	0.0178566
777.176	0.0177696
777.254	0.0176580
777.332	0.0177200
777.410	0.0177789
777.488	0.0178269
777.567	0.0176827
777.645	0.0176524
777.723	0.0177026
777.801	0.0175840
777.879	0.0175890
777.957	0.0177666
778.035	0.0177374
778.113	0.0176505
778.192	0.0176221
778.270	0.0177290
778.348	0.0177266
778.426	0.0176443
778.504	0.0176981
778.582	0.0177422
778.660	0.0178053
778.738	0.0177937
778.817	0.0178221
778.895	0.0177793
778.973	0.0177245
779.051	0.0179326
779.129	0.0179288
779.207	0.0178394
779.285	0.0177628
779.363	0.0178902
779.442	0.0179161
779.520	0.0178149
779.598	0.0178028
779.676	0.0177988
779.754	0.0179927
779.832	0.0178452
779.910	0.0177095
779.988	0.0177261
780.067	0.0177949
780.145	0.0177822
780.223	0.0179288
780.301	0.0177758
780.379	0.0177485
780.457	0.0177740
780.535	0.0176880
780.613	0.0178244
780.692	0.0177628
780.770	0.0176490
780.848	0.0178571
780.926	0.0179146
781.004	0.0179349
781.082	0.0178656
781.160	0.0178601
781.238	0.0178445
781.317	0.0178359
781.395	0.0178208
781.473	0.0180076
781.551	0.0180215
781.629	0.0179980
781.707	0.0180284
781.785	0.0180920
781.863	0.0181336
781.942	0.0182443
782.020	0.0180453
782.098	0.0181107
782.176	0.0180342
782.254	0.0182158
782.332	0.0181612
782.410	0.0182967
782.488	0.0181377
782.567	0.0180966
782.645	0.0181178
782.723	0.0181467
782.801	0.0181941
782.879	0.0180640
782.957	0.0180651
783.035	0.0180882
783.113	0.0180462
783.192	0.0179684
783.270	0.0179758
783.348	0.0179443
783.426	0.0180953
783.504	0.0181651
783.582	0.0180736
783.660	0.0179597
783.738	0.0179710
783.817	0.0180341
783.895	0.0181225
783.973	0.0180848
784.051	0.0180675
784.129	0.0182474
784.207	0.0180179
784.285	0.0179996
784.363	0.0180681
784.442	0.0182045
784.520	0.0182887
784.598	0.0181486
784.676	0.0180430
784.754	0.0179893
784.832	0.0180607
784.910	0.0180174
784.988	0.0178401
785.067	0.0179364
785.145	0.0178226
785.223	0.0180460
785.301	0.0179800
785.379	0.0178596
785.457	0.0177681
785.535	0.0178686
785.613	0.0178072
785.692	0.0177943
785.770	0.0181158
785.848	0.0179501
785.926	0.0179872
786.004	0.0180620
786.082	0.0180248
786.160	0.0180154
786.238	0.0181075
786.317	0.0179205
786.395	0.0180120
786.473	0.0180609
786.551	0.0179482
786.629	0.0181604
786.707	0.0180624
786.785	0.0181251
786.863	0.0179845
786.942	0.0179724
787.020	0.0180401
787.098	0.0179729
787.176	0.0178525
787.254	0.0180065
787.332	0.0179916
787.410	0.0177914
787.488	0.0177700
787.567	0.0179302
787.645	0.0178403
787.723	0.0178708
787.801	0.0178685
787.879	0.0178280
787.957	0.0180044
788.035	0.0180040
788.113	0.0179211
788.192	0.0178778
788.270	0.0178645
788.348	0.0179372
788.426	0.0178391
788.504	0.0179321
788.582	0.0177787
788.660	0.0179626
788.738	0.0179088
788.817	0.0179615
788.895	0.0178985
788.973	0.0178366
789.051	0.0179397
789.129	0.0179268
789.207	0.0179134
789.285	0.0178580
789.363	0.0179237
789.442	0.0179745
789.520	0.0179631
789.598	0.0179797
789.676	0.0180776
789.754	0.0180694
789.832	0.0179345
789.910	0.0178361
789.988	0.0180101
790.067	0.0179660
790.145	0.0178416
790.223	0.0179836
790.301	0.0178779
790.379	0.0179617
790.457	0.0179984
790.535	0.0177985
790.613	0.0176823
790.692	0.0177178
790.770	0.0177798
790.848	0.0179237
790.926	0.0178574
791.004	0.0178080
791.082	0.0178565
791.160	0.0178638
791.238	0.0178806
791.317	0.0179179
791.395	0.0178567
791.473	0.0178120
791.551	0.0179657
791.629	0.0180080
791.707	0.0178354
791.785	0.0179972
791.863	0.0179768
791.942	0.0178456
792.020	0.0180131
792.098	0.0180762
792.176	0.0181236
792.254	0.0180262
792.332	0.0179189
792.410	0.0179074
792.488	0.0182355
792.567	0.0180204
792.645	0.0182339
792.723	0.0180293
792.801	0.0180547
792.879	0.0180421
792.957	0.0181052
793.035	0.0179574
793.113	0.0181161
793.192	0.0179091
793.270	0.0179724
793.348	0.0179229
793.426	0.0180345
793.504	0.0179368
793.582	0.0178421
793.660	0.0180215
793.738	0.0180122
793.817	0.0179655
793.895	0.0179560
793.973	0.0179356
794.051	0.0179369
794.129	0.0179037
794.207	0.0180147
794.285	0.0177479
794.363	0.0176856
794.442	0.0178686
794.520	0.0178204
794.598	0.0177391
794.676	0.0176392
794.754	0.0176781
794.832	0.0177132
794.910	0.0176182
794.988	0.0177193
795.067	0.0176946
795.145	0.0176810
795.223	0.0177895
795.301	0.0177159
795.379	0.0177160
795.457	0.0176000
795.535	0.0174654
795.613	0.0175157
795.692	0.0176137
795.770	0.0178829
795.848	0.0177338
795.926	0.0176149
796.004	0.0175597
796.082	0.0177312
796.160	0.0177232
796.238	0.0178806
796.317	0.0177526
796.395	0.0177162
796.473	0.0177589
796.551	0.0177897
796.629	0.0178359
796.707	0.0178020
796.785	0.0178389
796.863	0.0178590
796.942	0.0180289
797.020	0.0180528
797.098	0.0179816
797.176	0.0178721
797.254	0.0180442
797.332	0.0178384
797.410	0.0179810
797.488	0.0179693
797.567	0.0179703
797.645	0.0179643
797.723	0.0179675
797.801	0.0178598
797.879	0.0178522
797.957	0.0178233
798.035	0.0178461
798.113	0.0178549
798.192	0.0177659
798.270	0.0179108
798.348	0.0178119
798.426	0.0176511
798.504	0.0178027
798.582	0.0178048
798.660	0.0176358
798.738	0.0176501
798.817	0.0176263
798.895	0.0176256
798.973	0.0177817
799.051	0.0177547
799.129	0.0176867
799.207	0.0175891
799.285	0.0175491
799.363	0.0175897
799.442	0.0176790
799.520	0.0173887
799.598	0.0176341
799.676	0.0177160
799.754	0.0175941
799.832	0.0175472
799.910	0.0177289
799.988	0.0175355
800.067	0.0176955
800.145	0.0175816
800.223	0.0175879
800.301	0.0176529
800.379	0.0177273
800.457	0.0176859
800.535	0.0177200
800.613	0.0177314
800.692	0.0177271
800.770	0.0177921
800.848	0.0176708
800.926	0.0177769
801.004	0.0178617
801.082	0.0178606
801.160	0.0179050
801.238	0.0180112
801.317	0.0180019
801.395	0.0179744
801.473	0.0181075
801.551	0.0179923
801.629	0.0181793
801.707	0.0180501
801.785	0.0181101
801.863	0.0181757
801.942	0.0181055
802.020	0.0181936
802.098	0.0183046
802.176	0.0180667
802.254	0.0182217
802.332	0.0182079
802.410	0.0180343
802.488	0.0180207
802.567	0.0180862
802.645	0.0180606
802.723	0.0179510
802.801	0.0180475
802.879	0.0181503
802.957	0.0180565
803.035	0.0180612
803.113	0.0180490
803.192	0.0179236
803.270	0.0179940
803.348	0.0181326
803.426	0.0180087
803.504	0.0179715
803.582	0.0181084
803.660	0.0179066
803.738	0.0177839
803.817	0.0177691
803.895	0.0178120
803.973	0.0178540
804.051	0.0178125
804.129	0.0177678
804.207	0.0177013
804.285	0.0177677
804.363	0.0177408
804.442	0.0175917
804.520	0.0176170
804.598	0.0176733
804.676	0.0177216
804.754	0.0176051
804.832	0.0177668
804.910	0.0177876
804.988	0.0175960
805.067	0.0176582
805.145	0.0178099
805.223	0.0178714
805.301	0.0177902
805.379	0.0179783
805.457	0.0178474
805.535	0.0177647
805.613	0.0178659
805.692	0.0178830
805.770	0.0179214
805.848	0.0179871
805.926	0.0177751
806.004	0.0179542
806.082	0.0179063
806.160	0.0178814
806.238	0.0179194
806.317	0.0178080
806.395	0.0179173
806.473	0.0179436
806.551	0.0181238
806.629	0.0180167
806.707	0.0179969
806.785	0.0180550
806.863	0.0179406
806.942	0.0179318
807.020	0.0180578
807.098	0.0179683
807.176	0.0181065
807.254	0.0180096
807.332	0.0180135
807.410	0.0180467
807.488	0.0180243
807.567	0.0181034
807.645	0.0181223
807.723	0.0180204
807.801	0.0180354
807.879	0.0180491
807.957	0.0180770
808.035	0.0179694
808.113	0.0180023
808.192	0.0180193
808.270	0.0179939
808.348	0.0179578
808.426	0.0178475
808.504	0.0179993
808.582	0.0180045
808.660	0.0179794
808.738	0.0179578
808.817	0.0178910
808.895	0.0179391
808.973	0.0180358
809.051	0.0179381
809.129	0.0180064
809.207	0.0179328
809.285	0.0178491
809.363	0.0179350
809.442	0.0178860
809.520	0.0179674
809.598	0.0179495
809.676	0.0180959
809.754	0.0180482
809.832	0.0179946
809.910	0.0179411
809.988	0.0179949
810.067	0.0180439
810.145	0.0179829
810.223	0.0178895
810.301	0.0179898
810.379	0.0179430
810.457	0.0179200
810.535	0.0180276
810.613	0.0180891
810.692	0.0180170
810.770	0.0180772
810.848	0.0179397
810.926	0.0180961
811.004	0.0179889
811.082	0.0179714
811.160	0.0179355
811.238	0.0179723
811.317	0.0180033
811.395	0.0179334
811.473	0.0178493
811.551	0.0179140
811.629	0.0178269
811.707	0.0177668
811.785	0.0178287
811.863	0.0178184
811.942	0.0177857
812.020	0.0178924
812.098	0.0177163
812.176	0.0178521
812.254	0.0178470
812.332	0.0179110
812.410	0.0178329
812.488	0.0178826
812.567	0.0178424
812.645	0.0178676
812.723	0.0179540
812.801	0.0180439
812.879	0.0179322
812.957	0.0178967
813.035	0.0179178
813.113	0.0180021
813.192	0.0179896
813.270	0.0178704
813.348	0.0177857
813.426	0.0178973
813.504	0.0178455
813.582	0.0179710
813.660	0.0179143
813.738	0.0178101
813.817	0.0178001
813.895	0.0180408
813.973	0.0179200
814.051	0.0178799
814.129	0.0180023
814.207	0.0178417
814.285	0.0175976
814.363	0.0177586
814.442	0.0178413
814.520	0.0177125
814.598	0.0175246
814.676	0.0177050
814.754	0.0176619
814.832	0.0174612
814.910	0.0175466
814.988	0.0175400
815.067	0.0175059
815.145	0.0175737
815.223	0.0175700
815.301	0.0175580
815.379	0.0176630
815.457	0.0174529
815.535	0.0175186
815.613	0.0175477
815.692	0.0176479
815.770	0.0175812
815.848	0.0176541
815.926	0.0176768
816.004	0.0177133
816.082	0.0176138
816.160	0.0175905
816.238	0.0175986
816.317	0.0176855
816.395	0.0178053
816.473	0.0177531
816.551	0.0177392
816.629	0.0177187
816.707	0.0177763
816.785	0.0177168
816.863	0.0178223
816.942	0.0177875
817.020	0.0178053
817.098	0.0179869
817.176	0.0179429
817.254	0.0179993
817.332	0.0179979
817.410	0.0180459
817.488	0.0179497
817.567	0.0179310
817.645	0.0178883
817.723	0.0179504
817.801	0.0180260
817.879	0.0179976
817.957	0.0180051
818.035	0.0179317
818.113	0.0180201
818.192	0.0180602
818.270	0.0178723
818.348	0.0179321
818.426	0.0180047
818.504	0.0181213
818.582	0.0178595
818.660	0.0178687
818.738	0.0178284
818.817	0.0178346
818.895	0.0177943
818.973	0.0177926
819.051	0.0178382
819.129	0.0177892
819.207	0.0177232
819.285	0.0177500
819.363	0.0176511
819.442	0.0176802
819.520	0.0178475
819.598	0.0177194
819.676	0.0176105
819.754	0.0175143
819.832	0.0177053
819.910	0.0176414
819.988	0.0174907
820.067	0.0176387
820.145	0.0175636
820.223	0.0176711
820.301	0.0175721
820.379	0.0176169
820.457	0.0174944
820.535	0.0175429
820.613	0.0175002
820.692	0.0176811
820.770	0.0177069
820.848	0.0176076
820.926	0.0175285
821.004	0.0176255
821.082	0.0176104
821.160	0.0176533
821.238	0.0176573
821.317	0.0177039
821.395	0.0177871
821.473	0.0177248
821.551	0.0176225
821.629	0.0177791
821.707	0.0178747
821.785	0.0180299
821.863	0.0178008
821.942	0.0179288
822.020	0.0177791
822.098	0.0178134
822.176	0.0176698
822.254	0.0178707
822.332	0.0177097
822.410	0.0178208
822.488	0.0178859
822.567	0.0177282
822.645	0.0177184
822.723	0.0178031
822.801	0.0177902
822.879	0.0178716
822.957	0.0177857
823.035	0.0177639
823.113	0.0179060
823.192	0.0178793
823.270	0.0179173
823.348	0.0180534
823.426	0.0180145
823.504	0.0177593
823.582	0.0178117
823.660	0.0178545
823.738	0.0179342
823.817	0.0180265
823.895	0.0178792
823.973	0.0178230
824.051	0.0179001
824.129	0.0179377
824.207	0.0180341
824.285	0.0178849
824.363	0.0178918
824.442	0.0179536
824.520	0.0178649
824.598	0.0179260
824.676	0.0179996
824.754	0.0179264
824.832	0.0179417
824.910	0.0180901
824.988	0.0180036
825.067	0.0178972
825.145	0.0178684
825.223	0.0178171
825.301	0.0177115
825.379	0.0178356
825.457	0.0178268
825.535	0.0178453
825.613	0.0176667
825.692	0.0178217
825.770	0.0178123
825.848	0.0179108
825.926	0.0180022
826.004	0.0179652
826.082	0.0178026
826.160	0.0177885
826.238	0.0179204
826.317	0.0178000
826.395	0.0178882
826.473	0.0178806
826.551	0.0178895
826.629	0.0177990
826.707	0.0177972
826.785	0.0178000
826.863	0.0177289
826.942	0.0177393
827.020	0.0178283
827.098	0.0175757
827.176	0.0177485
827.254	0.0176828
827.332	0.0177493
827.410	0.0176224
827.488	0.0176234
827.567	0.0177298
827.645	0.0175293
827.723	0.0177453
827.801	0.0178078
827.879	0.0178510
827.957	0.0177842
828.035	0.0177778
828.113	0.0178154
828.192	0.0177727
828.270	0.0178345
828.348	0.0178465
828.426	0.0177470
828.504	0.0180827
828.582	0.0178250
828.660	0.0177937
828.738	0.0177718
828.817	0.0179907
828.895	0.0180273
828.973	0.0179553
829.051	0.0179772
829.129	0.0180123
829.207	0.0179866
829.285	0.0179726
829.363	0.0178080
829.442	0.0179893
829.520	0.0180122
829.598	0.0179296
829.676	0.0179989
829.754	0.0179342
829.832	0.0178008
829.910	0.0179461
829.988	0.0178761
830.067	0.0178721
830.145	0.0179078
830.223	0.0178555
830.301	0.0177857
830.379	0.0178790
830.457	0.0178785
830.535	0.0176595
830.613	0.0178032
830.692	0.0177280
830.770	0.0178094
830.848	0.0179006
830.926	0.0177621
831.004	0.0178271
831.082	0.0177977
831.160	0.0178027
831.238	0.0177790
831.317	0.0178856
831.395	0.0177808
831.473	0.0179017
831.551	0.0178768
831.629	0.0178735
831.707	0.0179395
831.785	0.0179706
831.863	0.0179762
831.942	0.0178342
832.020	0.0178623
832.098	0.0178681
832.176	0.0179057
832.254	0.0178519
832.332	0.0179884
832.410	0.0179057
832.488	0.0177997
832.567	0.0178331
832.645	0.0177110
832.723	0.0179619
832.801	0.0179084
832.879	0.0177259
832.957	0.0176875
833.035	0.0177762
833.113	0.0177400
833.192	0.0176334
833.270	0.0178117
833.348	0.0178387
833.426	0.0178559
833.504	0.0177808
833.582	0.0176831
833.660	0.0179609
833.738	0.0179459
833.817	0.0178256
833.895	0.0179555
833.973	0.0179008
834.051	0.0179279
834.129	0.0178666
834.207	0.0178996
834.285	0.0178284
834.363	0.0177219
834.442	0.0178702
834.520	0.0179374
834.598	0.0178694
834.676	0.0177821
834.754	0.0178571
834.832	0.0178871
834.910	0.0178061
834.988	0.0176967
835.067	0.0176613
835.145	0.0176741
835.223	0.0177225
835.301	0.0176197
835.379	0.0175405
835.457	0.0177029
835.535	0.0175700
835.613	0.0174314
835.692	0.0174885
835.770	0.0174955
835.848	0.0173135
835.926	0.0174112
836.004	0.0174786
836.082	0.0174869
836.160	0.0175385
836.238	0.0174496
836.317	0.0176114
836.395	0.0176065
836.473	0.0175221
836.551	0.0176984
836.629	0.0175459
836.707	0.0175485
836.785	0.0174860
836.863	0.0175130
836.942	0.0176446
837.020	0.0176327
837.098	0.0177103
837.176	0.0176475
837.254	0.0176578
837.332	0.0177322
837.410	0.0177907
837.488	0.0178299
837.567	0.0178086
837.645	0.0177666
837.723	0.0178712
837.801	0.0179383
837.879	0.0180514
837.957	0.0179871
838.035	0.0178865
838.113	0.0179283
838.192	0.0179463
838.270	0.0177722
838.348	0.0179801
838.426	0.0179387
838.504	0.0178804
838.582	0.0179634
838.660	0.0178492
838.738	0.0180226
838.817	0.0180395
838.895	0.0180466
838.973	0.0179776
839.051	0.0179762
839.129	0.0178232
839.207	0.0178761
839.285	0.0180153
839.363	0.0179881
839.442	0.0180334
839.520	0.0180223
839.598	0.0179613
839.676	0.0180164
839.754	0.0180024
839.832	0.0180646
839.910	0.0179942
839.988	0.0178618
840.067	0.0181438
840.145	0.0179357
840.223	0.0181085
840.301	0.0180315
840.379	0.0180273
840.457	0.0179638
840.535	0.0179161
840.613	0.0179250
840.692	0.0179350
840.770	0.0178352
840.848	0.0177904
840.926	0.0179254
841.004	0.0178677
841.082	0.0178600
841.160	0.0178880
841.238	0.0178831
841.317	0.0177980
841.395	0.0177609
841.473	0.0178204
841.551	0.0177607
841.629	0.0179597
841.707	0.0177597
841.785	0.0178461
841.863	0.0179046
841.942	0.0179284
842.020	0.0178893
842.098	0.0179048
842.176	0.0177884
842.254	0.0180327
842.332	0.0179850
842.410	0.0178585
842.488	0.0178208
842.567	0.0179561
842.645	0.0178909
842.723	0.0178826
842.801	0.0178679
842.879	0.0178801
842.957	0.0178316
843.035	0.0178287
843.113	0.0178352
843.192	0.0178893
843.270	0.0177695
843.348	0.0177655
843.426	0.0177554
843.504	0.0177752
843.582	0.0177390
843.660	0.0178300
843.738	0.0177709
843.817	0.0177493
843.895	0.0177932
843.973	0.0178257
844.051	0.0176165
844.129	0.0177954
844.207	0.0177069
844.285	0.0177110
844.363	0.0178490
844.442	0.0176801
844.520	0.0177846
844.598	0.0178419
844.676	0.0177945
844.754	0.0177651
844.832	0.0179234
844.910	0.0178699
844.988	0.0176488
845.067	0.0178014
845.145	0.0179553
845.223	0.0178655
845.301	0.0177697
845.379	0.0180167
845.457	0.0179243
845.535	0.0177760
845.613	0.0178550
845.692	0.0177326
845.770	0.0178019
845.848	0.0178674
845.926	0.0177911
846.004	0.0177512
846.082	0.0176958
846.160	0.0176890
846.238	0.0177892
846.317	0.0178689
846.395	0.0179378
846.473	0.0178656
846.551	0.0176853
846.629	0.0177914
846.707	0.0177970
846.785	0.0177288
846.863	0.0178996
846.942	0.0178503
847.020	0.0178989
847.098	0.0178912
847.176	0.0180209
847.254	0.0178847
847.332	0.0179271
847.410	0.0180373
847.488	0.0178896
847.567	0.0180829
847.645	0.0180165
847.723	0.0179700
847.801	0.0179977
847.879	0.0178931
847.957	0.0180700
848.035	0.0180722
848.113	0.0179606
848.192	0.0180103
848.270	0.0180663
848.348	0.0180339
848.426	0.0180653
848.504	0.0180381
848.582	0.0180617
848.660	0.0180556
848.738	0.0180978
848.817	0.0179921
848.895	0.0180816
848.973	0.0180021
849.051	0.0179369
849.129	0.0180424
849.207	0.0179537
849.285	0.0180135
849.363	0.0179913
849.442	0.0179124
849.520	0.0179770
849.598	0.0179591
849.676	0.0177496
849.754	0.0178056
849.832	0.0178184
849.910	0.0178448
849.988	0.0179993
850.067	0.0179408
850.145	0.0178381
850.223	0.0178502
850.301	0.0177907
850.379	0.0178087
850.457	0.0177589
850.535	0.0177737
850.613	0.0178051
850.692	0.0178147
850.770	0.0178113
850.848	0.0178123
850.926	0.0178090
851.004	0.0177853
851.082	0.0176254
851.160	0.0177811
851.238	0.0178781
851.317	0.0177167
851.395	0.0177618
851.473	0.0177182
851.551	0.0176974
851.629	0.0176664
851.707	0.0177909
851.785	0.0176902
851.863	0.0177482
851.942	0.0176315
852.020	0.0177289
852.098	0.0176792
852.176	0.0176274
852.254	0.0176786
852.332	0.0178568
852.410	0.0176616
852.488	0.0176797
852.567	0.0177651
852.645	0.0177627
852.723	0.0178297
852.801	0.0178020
852.879	0.0181400
852.957	0.0177766
853.035	0.0178060
853.113	0.0178363
853.192	0.0179877
853.270	0.0179492
853.348	0.0179813
853.426	0.0179305
853.504	0.0180273
853.582	0.0179707
853.660	0.0179069
853.738	0.0181097
853.817	0.0180490
853.895	0.0179770
853.973	0.0179627
854.051	0.0180243
854.129	0.0178419
854.207	0.0178843
854.285	0.0178558
854.363	0.0179313
854.442	0.0178733
854.520	0.0179545
854.598	0.0178730
854.676	0.0178520
854.754	0.0178437
854.832	0.0179082
854.910	0.0179893
854.988	0.0179175
855.067	0.0176994
855.145	0.0177759
855.223	0.0178915
855.301	0.0179462
855.379	0.0178917
855.457	0.0180065
855.535	0.0179028
855.613	0.0179679
855.692	0.0179007
855.770	0.0178644
855.848	0.0178313
855.926	0.0180254
856.004	0.0179461
856.082	0.0177622
856.160	0.0177110
856.238	0.0177776
856.317	0.0179431
856.395	0.0177661
856.473	0.0177065
856.551	0.0177440
856.629	0.0177399
856.707	0.0178362
856.785	0.0177459
856.863	0.0177045
856.942	0.0177449
857.020	0.0176987
857.098	0.0179367
857.176	0.0177918
857.254	0.0178639
857.332	0.0177085
857.410	0.0176908
857.488	0.0178551
857.567	0.0177268
857.645	0.0176837
857.723	0.0176755
857.801	0.0178067
857.879	0.0177966
857.957	0.0177917
858.035	0.0179088
858.113	0.0177345
858.192	0.0175811
858.270	0.0177905
858.348	0.0177961
858.426	0.0176897
858.504	0.0177885
858.582	0.0177715
858.660	0.0177848
858.738	0.0177121
858.817	0.0177794
858.895	0.0176237
858.973	0.0178902
859.051	0.0177694
859.129	0.0177888
859.207	0.0178905
859.285	0.0178473
859.363	0.0177776
859.442	0.0178822
859.520	0.0177148
859.598	0.0176906
859.676	0.0178866
859.754	0.0178159
859.832	0.0178275
859.910	0.0177106
859.988	0.0177753
860.067	0.0176253
860.145	0.0178427
860.223	0.0177016
860.301	0.0178070
860.379	0.0177288
860.457	0.0179261
860.535	0.0177429
860.613	0.0178413
860.692	0.0179459
860.770	0.0179754
860.848	0.0179648
860.926	0.0178519
861.004	0.0178825
861.082	0.0178480
861.160	0.0178989
861.238	0.0177164
861.317	0.0178052
861.395	0.0178439
861.473	0.0180028
861.551	0.0179478
861.629	0.0178808
861.707	0.0180566
861.785	0.0180685
861.863	0.0179278
861.942	0.0179067
862.020	0.0179350
862.098	0.0179504
862.176	0.0178563
862.254	0.0178400
862.332	0.0179158
862.410	0.0179812
862.488	0.0178280
862.567	0.0177874
862.645	0.0178743
862.723	0.0179764
862.801	0.0178973
862.879	0.0178667
862.957	0.0178632
863.035	0.0179442
863.113	0.0178693
863.192	0.0179662
863.270	0.0180071
863.348	0.0181094
863.426	0.0179795
863.504	0.0180650
863.582	0.0181217
863.660	0.0180402
863.738	0.0178914
863.817	0.0179604
863.895	0.0180185
863.973	0.0181569
864.051	0.0180360
864.129	0.0180820
864.207	0.0180737
864.285	0.0179835
864.363	0.0179015
864.442	0.0180083
864.520	0.0179840
864.598	0.0179942
864.676	0.0179826
864.754	0.0179096
864.832	0.0180277
864.910	0.0179779
864.988	0.0179258
865.067	0.0177230
865.145	0.0177833
865.223	0.0177773
865.301	0.0179105
865.379	0.0176867
865.457	0.0178101
865.535	0.0177730
865.613	0.0177556
865.692	0.0177439
865.770	0.0175883
865.848	0.0176192
865.926	0.0175548
866.004	0.0176893
866.082	0.0177579
866.160	0.0175615
866.238	0.0175408
866.317	0.0177627
866.395	0.0176752
866.473	0.0175871
866.551	0.0176103
866.629	0.0176441
866.707	0.0176731
866.785	0.0175840
866.863	0.0177312
866.942	0.0177288
867.020	0.0174889
867.098	0.0177256
867.176	0.0178805
867.254	0.0177332
867.332	0.0177856
867.410	0.0177489
867.488	0.0178389
867.567	0.0178089
867.645	0.0178072
867.723	0.0176324
867.801	0.0176305
867.879	0.0176953
867.957	0.0177410
868.035	0.0177624
868.113	0.0176501
868.192	0.0177092
868.270	0.0176851
868.348	0.0176811
868.426	0.0176572
868.504	0.0177062
868.582	0.0176197
868.660	0.0176809
868.738	0.0177737
868.817	0.0177623
868.895	0.0178668
868.973	0.0177737
869.051	0.0178276
869.129	0.0178300
869.207	0.0178748
869.285	0.0177669
869.363	0.0178020
869.442	0.0179344
869.520	0.0178774
869.598	0.0179749
869.676	0.0179865
869.754	0.0179638
869.832	0.0178580
869.910	0.0180122
869.988	0.0178817
870.067	0.0179526
870.145	0.0179912
870.223	0.0178799
870.301	0.0178772
870.379	0.0178980
870.457	0.0179205
870.535	0.0177979
870.613	0.0177619
870.692	0.0179129
870.770	0.0179143
870.848	0.0179354
870.926	0.0180589
871.004	0.0179909
871.082	0.0180517
871.160	0.0180099
871.238	0.0180473
871.317	0.0178816
871.395	0.0180463
871.473	0.0180679
871.551	0.0181507
871.629	0.0181817
871.707	0.0181145
871.785	0.0181173
871.863	0.0180774
871.942	0.0181487
872.020	0.0180214
872.098	0.0181684
872.176	0.0181068
872.254	0.0181625
872.332	0.0179615
872.410	0.0181319
872.488	0.0179848
872.567	0.0179545
872.645	0.0179398
872.723	0.0180276
872.801	0.0180018
872.879	0.0178926
872.957	0.0180445
873.035	0.0180992
873.113	0.0179427
873.192	0.0179778
873.270	0.0178815
873.348	0.0178014
873.426	0.0179137
873.504	0.0177332
873.582	0.0178416
873.660	0.0177639
873.738	0.0177377
873.817	0.0178790
873.895	0.0177421
873.973	0.0176731
874.051	0.0177132
874.129	0.0176055
874.207	0.0176884
874.285	0.0177811
874.363	0.0178213
874.442	0.0176791
874.520	0.0176904
874.598	0.0176244
874.676	0.0177395
874.754	0.0176978
874.832	0.0177687
874.910	0.0176963
874.988	0.0176633
875.067	0.0177912
875.145	0.0177136
875.223	0.0177811
875.301	0.0178165
875.379	0.0176348
875.457	0.0177769
875.535	0.0176976
875.613	0.0177057
875.692	0.0177303
875.770	0.0178838
875.848	0.0177962
875.926	0.0176759
876.004	0.0176893
876.082	0.0178150
876.160	0.0178436
876.238	0.0176533
876.317	0.0176238
876.395	0.0178631
876.473	0.0177235
876.551	0.0177759
876.629	0.0177811
876.707	0.0176189
876.785	0.0177099
876.863	0.0177566
876.942	0.0177721
877.020	0.0178388
877.098	0.0177688
877.176	0.0178087
877.254	0.0176901
877.332	0.0177577
877.410	0.0177710
877.488	0.0177172
877.567	0.0177724
877.645	0.0178819
877.723	0.0178730
877.801	0.0179468
877.879	0.0179246
877.957	0.0179490
878.035	0.0179140
878.113	0.0178693
878.192	0.0179166
878.270	0.0178546
878.348	0.0179554
878.426	0.0179893
878.504	0.0180363
878.582	0.0180109
878.660	0.0179556
878.738	0.0180730
878.817	0.0180660
878.895	0.0179457
878.973	0.0179858
879.051	0.0179040
879.129	0.0179700
879.207	0.0179715
879.285	0.0177994
879.363	0.0179745
879.442	0.0180177
879.520	0.0180497
879.598	0.0179607
879.676	0.0178738
879.754	0.0179797
879.832	0.0177384
879.910	0.0179966
879.988	0.0179589
880.067	0.0178093
880.145	0.0178220
880.223	0.0179017
880.301	0.0178145
880.379	0.0177670
880.457	0.0178356
880.535	0.0178409
880.613	0.0177880
880.692	0.0177334
880.770	0.0177637
880.848	0.0177702
880.926	0.0176620
881.004	0.0177774
881.082	0.0177012
881.160	0.0176867
881.238	0.0176262
881.317	0.0177105
881.395	0.0176453
881.473	0.0177102
881.551	0.0177615
881.629	0.0176484
881.707	0.0175748
881.785	0.0175658
881.863	0.0177444
881.942	0.0176952
882.020	0.0177229
882.098	0.0178827
882.176	0.0177687
882.254	0.0177168
882.332	0.0177570
882.410	0.0179757
882.488	0.0178523
882.567	0.0178720
882.645	0.0179431
882.723	0.0178622
882.801	0.0179585
882.879	0.0178447
882.957	0.0178535
883.035	0.0179762
883.113	0.0179787
883.192	0.0179285
883.270	0.0178967
883.348	0.0179272
883.426	0.0178086
883.504	0.0178889
883.582	0.0178575
883.660	0.0179218
883.738	0.0178986
883.817	0.0179470
883.895	0.0179571
883.973	0.0181218
884.051	0.0180070
884.129	0.0179093
884.207	0.0180412
884.285	0.0179466
884.363	0.0179291
884.442	0.0180672
884.520	0.0182188
884.598	0.0181401
884.676	0.0179992
884.754	0.0179915
884.832	0.0180106
884.910	0.0180943
884.988	0.0181648
885.067	0.0180112
885.145	0.0180991
885.223	0.0179551
885.301	0.0178703
885.379	0.0180946
885.457	0.0179594
885.535	0.0180595
885.613	0.0180375
885.692	0.0180773
885.770	0.0180005
885.848	0.0178805
885.926	0.0179487
886.004	0.0179552
886.082	0.0180317
886.160	0.0180017
886.238	0.0180223
886.317	0.0180927
886.395	0.0179533
886.473	0.0179933
886.551	0.0181112
886.629	0.0180020
886.707	0.0178556
886.785	0.0179101
886.863	0.0178921
886.942	0.0179134
887.020	0.0179955
887.098	0.0179823
887.176	0.0177733
887.254	0.0178326
887.332	0.0177702
887.410	0.0178976
887.488	0.0177622
887.567	0.0177357
887.645	0.0179086
887.723	0.0177999
887.801	0.0178165
887.879	0.0179225
887.957	0.0178729
888.035	0.0178676
888.113	0.0178262
888.192	0.0178749
888.270	0.0179258
888.348	0.0178111
888.426	0.0178012
888.504	0.0177632
888.582	0.0176802
888.660	0.0176585
888.738	0.0178342
888.817	0.0177865
888.895	0.0176129
888.973	0.0176904
889.051	0.0176440
889.129	0.0175672
889.207	0.0174297
889.285	0.0175778
889.363	0.0174900
889.442	0.0175937
889.520	0.0174223
889.598	0.0173755
889.676	0.0173701
889.754	0.0174774
889.832	0.0175053
889.910	0.0175111
889.988	0.0174502
890.067	0.0174263
890.145	0.0174233
890.223	0.0175949
890.301	0.0175584
890.379	0.0174911
890.457	0.0174953
890.535	0.0175587
890.613	0.0175488
890.692	0.0176439
890.770	0.0176410
890.848	0.0177189
890.926	0.0177940
891.004	0.0176578
891.082	0.0175857
891.160	0.0176495
891.238	0.0178443
891.317	0.0177360
891.395	0.0176781
891.473	0.0178680
891.551	0.0179922
891.629	0.0179036
891.707	0.0178844
891.785	0.0178104
891.863	0.0179164
891.942	0.0177968
892.020	0.0181429
892.098	0.0179994
892.176	0.0177906
892.254	0.0179977
892.332	0.0181953
892.410	0.0179845
892.488	0.0179652
892.567	0.0180466
892.645	0.0179357
892.723	0.0179760
892.801	0.0179368
892.879	0.0179572
892.957	0.0180126
893.035	0.0179369
893.113	0.0178545
893.192	0.0178104
893.270	0.0179777
893.348	0.0179771
893.426	0.0178628
893.504	0.0178314
893.582	0.0178449
893.660	0.0179256
893.738	0.0179071
893.817	0.0179183
893.895	0.0179390
893.973	0.0178391
894.051	0.0179031
894.129	0.0179771
894.207	0.0179299
894.285	0.0180510
894.363	0.0179167
894.442	0.0180953
894.520	0.0180315
894.598	0.0178959
894.676	0.0179538
894.754	0.0179877
894.832	0.0179339
894.910	0.0179630
894.988	0.0179613
895.067	0.0178218
895.145	0.0178513
895.223	0.0177734
895.301	0.0177935
895.379	0.0177737
895.457	0.0177050
895.535	0.0176595
895.613	0.0177805
895.692	0.0178729
895.770	0.0178130
895.848	0.0178915
895.926	0.0178531
896.004	0.0177548
896.082	0.0178140
896.160	0.0178775
896.238	0.0177717
896.317	0.0179774
896.395	0.0178727
896.473	0.0178683
896.551	0.0178680
896.629	0.0178205
896.707	0.0177895
896.785	0.0178152
896.863	0.0177935
896.942	0.0179055
897.020	0.0178130
897.098	0.0178770
897.176	0.0177949
897.254	0.0178287
897.332	0.0178369
897.410	0.0178661
897.488	0.0178802
897.567	0.0178809
897.645	0.0178910
897.723	0.0180342
897.801	0.0178358
897.879	0.0177708
897.957	0.0178316
898.035	0.0177798
898.113	0.0179347
898.192	0.0177911
898.270	0.0178101
898.348	0.0177526
898.426	0.0178488
898.504	0.0179006
898.582	0.0178395
898.660	0.0178558
898.738	0.0176957
898.817	0.0177497
898.895	0.0178793
898.973	0.0177893
899.051	0.0177637
899.129	0.0178300
899.207	0.0177331
899.285	0.0176588
899.363	0.0178945
899.442	0.0177963
899.520	0.0178691
899.598	0.0178247
899.676	0.0177663
899.754	0.0178532
899.832	0.0178017
899.910	0.0177266
899.988	0.0178146
900.067	0.0177905
900.145	0.0178698
900.223	0.0179816
900.301	0.0178129
900.379	0.0179369
900.457	0.0178312
900.535	0.0178384
900.613	0.0179523
900.692	0.0177982
900.770	0.0177636
900.848	0.0178835
900.926	0.0178372
901.004	0.0177609
901.082	0.0179165
901.160	0.0180548
901.238	0.0178958
901.317	0.0178210
901.395	0.0179646
901.473	0.0177277
901.551	0.0178236
901.629	0.0177227
901.707	0.0177219
901.785	0.0178760
901.863	0.0178415
901.942	0.0178374
902.020	0.0179919
902.098	0.0178214
902.176	0.0179908
902.254	0.0180096
902.332	0.0181874
902.410	0.0180148
902.488	0.0180101
902.567	0.0180431
902.645	0.0180310
902.723	0.0181182
902.801	0.0180997
902.879	0.0179961
902.957	0.0179935
903.035	0.0180956
903.113	0.0180582
903.192	0.0180242
903.270	0.0181268
903.348	0.0178764
903.426	0.0179670
903.504	0.0179797
903.582	0.0180267
903.660	0.0180997
903.738	0.0179450
903.817	0.0177637
903.895	0.0178942
903.973	0.0179708
904.051	0.0178010
904.129	0.0178404
904.207	0.0178456
904.285	0.0178759
904.363	0.0178246
904.442	0.0177753
904.520	0.0177895
904.598	0.0179559
904.676	0.0178303
904.754	0.0177306
904.832	0.0178126
904.910	0.0177894
904.988	0.0178028
905.067	0.0177534
905.145	0.0178170
905.223	0.0177962
905.301	0.0177862
905.379	0.0177221
905.457	0.0177530
905.535	0.0178027
905.613	0.0177632
905.692	0.0177357
905.770	0.0177173
905.848	0.0178978
905.926	0.0177497
906.004	0.0176901
906.082	0.0177245
906.160	0.0178039
906.238	0.0177661
906.317	0.0177834
906.395	0.0178788
906.473	0.0178324
906.551	0.0179205
906.629	0.0179293
906.707	0.0178683
906.785	0.0177659
906.863	0.0179653
906.942	0.0181311
907.020	0.0179479
907.098	0.0178675
907.176	0.0179678
907.254	0.0179714
907.332	0.0178053
907.410	0.0178427
907.488	0.0179568
907.567	0.0180431
907.645	0.0179553
907.723	0.0180456
907.801	0.0178773
907.879	0.0178082
907.957	0.0178803
908.035	0.0180324
908.113	0.0179634
908.192	0.0180124
908.270	0.0178848
908.348	0.0179469
908.426	0.0178274
908.504	0.0180118
908.582	0.0179320
908.660	0.0178189
908.738	0.0178373
908.817	0.0179491
908.895	0.0178836
908.973	0.0179624
909.051	0.0178096
909.129	0.0177858
909.207	0.0179269
909.285	0.0179462
909.363	0.0179127
909.442	0.0179255
909.520	0.0179537
909.598	0.0178896
909.676	0.0178905
909.754	0.0178710
909.832	0.0180051
909.910	0.0179629
909.988	0.0179415
910.067	0.0179202
910.145	0.0179535
910.223	0.0179384
910.301	0.0179819
910.379	0.0178551
910.457	0.0177702
910.535	0.0178928
910.613	0.0177685
910.692	0.0178063
910.770	0.0177443
910.848	0.0178329
910.926	0.0177196
911.004	0.0177459
911.082	0.0178098
911.160	0.0176064
911.238	0.0177576
911.317	0.0178976
911.395	0.0177402
911.473	0.0176719
911.551	0.0176997
911.629	0.0177172
911.707	0.0177352
911.785	0.0178525
911.863	0.0177367
911.942	0.0177657
912.020	0.0177934
912.098	0.0177296
912.176	0.0177986
912.254	0.0178355
912.332	0.0177430
912.410	0.0179558
912.488	0.0178964
912.567	0.0178912
912.645	0.0179256
912.723	0.0179716
912.801	0.0178483
912.879	0.0180134
912.957	0.0179934
913.035	0.0180294
913.113	0.0180480
913.192	0.0179504
913.270	0.0178845
913.348	0.0178582
913.426	0.0179305
913.504	0.0178242
913.582	0.0178848
913.660	0.0179530
913.738	0.0178605
913.817	0.0177204
913.895	0.0178417
913.973	0.0178960
914.051	0.0178036
914.129	0.0178295
914.207	0.0178211
914.285	0.0179533
914.363	0.0179556
914.442	0.0177750
914.520	0.0177000
914.598	0.0180267
914.676	0.0177934
914.754	0.0176352
914.832	0.0176643
914.910	0.0176748
914.988	0.0177494
915.067	0.0177473
915.145	0.0179083
915.223	0.0177577
915.301	0.0176633
915.379	0.0178052
915.457	0.0177500
915.535	0.0177129
915.613	0.0178587
915.692	0.0178680
915.770	0.0179192
915.848	0.0177635
915.926	0.0177752
916.004	0.0177232
916.082	0.0177757
916.160	0.0178478
916.238	0.0177613
916.317	0.0179276
916.395	0.0180046
916.473	0.0177603
916.551	0.0178048
916.629	0.0178473
916.707	0.0178887
916.785	0.0178188
916.863	0.0178197
916.942	0.0179423
917.020	0.0179404
917.098	0.0178117
917.176	0.0178902
917.254	0.0178292
917.332	0.0177174
917.410	0.0179375
917.488	0.0178983
917.567	0.0178641
917.645	0.0178799
917.723	0.0177903
917.801	0.0179735
917.879	0.0179755
917.957	0.0179194
918.035	0.0181771
918.113	0.0180371
918.192	0.0179240
918.270	0.0180154
918.348	0.0180615
918.426	0.0180193
918.504	0.0179688
918.582	0.0179819
918.660	0.0179785
918.738	0.0178140
918.817	0.0178761
918.895	0.0179703
918.973	0.0179902
919.051	0.0179236
919.129	0.0179139
919.207	0.0178642
919.285	0.0177921
919.363	0.0179079
919.442	0.0179148
919.520	0.0177097
919.598	0.0178067
919.676	0.0177909
919.754	0.0177980
919.832	0.0178239
919.910	0.0178590
