06/01/2022	21:31:37	Ver.	4.1	UNKNOWN
Optical Delay	599.988409	Delta X		0.078125	Sweeps	1	Scan Rate	0/0
Coordinates	Axis 1	NaN	Axis 2	NaN	Axis 3	NaN	Axis 4	NaN	Axis 5	NaN	Axis 6	0.000000
TX Power	0.000000	RX Power	0.000000

599.988	0.0177537
600.067	0.0179024
600.145	0.0176915
600.223	0.0176352
600.301	0.0178275
600.379	0.0177576
600.457	0.0176070
600.535	0.0177953
600.613	0.0177425
600.692	0.0178755
600.770	0.0177782
600.848	0.0178129
600.926	0.0177041
601.004	0.0178961
601.082	0.0178707
601.160	0.0176745
601.238	0.0177722
601.317	0.0176653
601.395	0.0178117
601.473	0.0177492
601.551	0.0177514
601.629	0.0178783
601.707	0.0178487
601.785	0.0177374
601.863	0.0178099
601.942	0.0177724
602.020	0.0177320
602.098	0.0176994
602.176	0.0176328
602.254	0.0176832
602.332	0.0177680
602.410	0.0177657
602.488	0.0176575
602.567	0.0176585
602.645	0.0176941
602.723	0.0177119
602.801	0.0178371
602.879	0.0178513
602.957	0.0177513
603.035	0.0177330
603.113	0.0177853
603.192	0.0177091
603.270	0.0178414
603.348	0.0177012
603.426	0.0177457
603.504	0.0178485
603.582	0.0178222
603.660	0.0177291
603.738	0.0176270
603.817	0.0177686
603.895	0.0178042
603.973	0.0178190
604.051	0.0177985
604.129	0.0176878
604.207	0.0178430
604.285	0.0179173
604.363	0.0177164
604.442	0.0178018
604.520	0.0176723
604.598	0.0177451
604.676	0.0177593
604.754	0.0176189
604.832	0.0177959
604.910	0.0177387
604.988	0.0177990
605.067	0.0177776
605.145	0.0177570
605.223	0.0177431
605.301	0.0178999
605.379	0.0177380
605.457	0.0176189
605.535	0.0176830
605.613	0.0177853
605.692	0.0179261
605.770	0.0177248
605.848	0.0177808
605.926	0.0178397
606.004	0.0177271
606.082	0.0177737
606.160	0.0177930
606.238	0.0177930
606.317	0.0178157
606.395	0.0178722
606.473	0.0176797
606.551	0.0177397
606.629	0.0178944
606.707	0.0178468
606.785	0.0177494
606.863	0.0178037
606.942	0.0176736
607.020	0.0177836
607.098	0.0177426
607.176	0.0178633
607.254	0.0177460
607.332	0.0177998
607.410	0.0179039
607.488	0.0178635
607.567	0.0176900
607.645	0.0178646
607.723	0.0176475
607.801	0.0177560
607.879	0.0178911
607.957	0.0177553
608.035	0.0178310
608.113	0.0178784
608.192	0.0177376
608.270	0.0176808
608.348	0.0177107
608.426	0.0178958
608.504	0.0178531
608.582	0.0177498
608.660	0.0176683
608.738	0.0177399
608.817	0.0179385
608.895	0.0178135
608.973	0.0177209
609.051	0.0177968
609.129	0.0177608
609.207	0.0177609
609.285	0.0177371
609.363	0.0177819
609.442	0.0178119
609.520	0.0178349
609.598	0.0176940
609.676	0.0177545
609.754	0.0177602
609.832	0.0177423
609.910	0.0177654
609.988	0.0177602
610.067	0.0178115
610.145	0.0178062
610.223	0.0178453
610.301	0.0178471
610.379	0.0177719
610.457	0.0176543
610.535	0.0177173
610.613	0.0177297
610.692	0.0177898
610.770	0.0176973
610.848	0.0177183
610.926	0.0177220
611.004	0.0176003
611.082	0.0176514
611.160	0.0178258
611.238	0.0178686
611.317	0.0178545
611.395	0.0176398
611.473	0.0178034
611.551	0.0177134
611.629	0.0178139
611.707	0.0178933
611.785	0.0178486
611.863	0.0178349
611.942	0.0178061
612.020	0.0176898
612.098	0.0177133
612.176	0.0177374
612.254	0.0177532
612.332	0.0177146
612.410	0.0176833
612.488	0.0176994
612.567	0.0177619
612.645	0.0178417
612.723	0.0179638
612.801	0.0177958
612.879	0.0176408
612.957	0.0176565
613.035	0.0178999
613.113	0.0179102
613.192	0.0177449
613.270	0.0177195
613.348	0.0178113
613.426	0.0177425
613.504	0.0178998
613.582	0.0178055
613.660	0.0177600
613.738	0.0178261
613.817	0.0177232
613.895	0.0176784
613.973	0.0178484
614.051	0.0176419
614.129	0.0177646
614.207	0.0175967
614.285	0.0177250
614.363	0.0177739
614.442	0.0176762
614.520	0.0177917
614.598	0.0176720
614.676	0.0177042
614.754	0.0176736
614.832	0.0177973
614.910	0.0176950
614.988	0.0176703
615.067	0.0177760
615.145	0.0177637
615.223	0.0178759
615.301	0.0177727
615.379	0.0178175
615.457	0.0176714
615.535	0.0178049
615.613	0.0177770
615.692	0.0178255
615.770	0.0176978
615.848	0.0177749
615.926	0.0176154
616.004	0.0177055
616.082	0.0177291
616.160	0.0176700
616.238	0.0177797
616.317	0.0175824
616.395	0.0178730
616.473	0.0177225
616.551	0.0178606
616.629	0.0176778
616.707	0.0177341
616.785	0.0178809
616.863	0.0177020
616.942	0.0176972
617.020	0.0178004
617.098	0.0177419
617.176	0.0179117
617.254	0.0177094
617.332	0.0177209
617.410	0.0177408
617.488	0.0176577
617.567	0.0178349
617.645	0.0179110
617.723	0.0177683
617.801	0.0179115
617.879	0.0177423
617.957	0.0176942
618.035	0.0178092
618.113	0.0178181
618.192	0.0178154
618.270	0.0177855
618.348	0.0176080
618.426	0.0177510
618.504	0.0177189
618.582	0.0176980
618.660	0.0177763
618.738	0.0178371
618.817	0.0177074
618.895	0.0176502
618.973	0.0177141
619.051	0.0178268
619.129	0.0177908
619.207	0.0176744
619.285	0.0175922
619.363	0.0177274
619.442	0.0176617
619.520	0.0177733
619.598	0.0176975
619.676	0.0177994
619.754	0.0178455
619.832	0.0176237
619.910	0.0177081
619.988	0.0177816
620.067	0.0177609
620.145	0.0176986
620.223	0.0178187
620.301	0.0177756
620.379	0.0177547
620.457	0.0178420
620.535	0.0177409
620.613	0.0177377
620.692	0.0178760
620.770	0.0176688
620.848	0.0176835
620.926	0.0178398
621.004	0.0176787
621.082	0.0177844
621.160	0.0177997
621.238	0.0177421
621.317	0.0176528
621.395	0.0177168
621.473	0.0177836
621.551	0.0177068
621.629	0.0178893
621.707	0.0178012
621.785	0.0177782
621.863	0.0178138
621.942	0.0178445
622.020	0.0177539
622.098	0.0177093
622.176	0.0176382
622.254	0.0177638
622.332	0.0178750
622.410	0.0177984
622.488	0.0177097
622.567	0.0177811
622.645	0.0177850
622.723	0.0178383
622.801	0.0177654
622.879	0.0176883
622.957	0.0177650
623.035	0.0178981
623.113	0.0177847
623.192	0.0177366
623.270	0.0178460
623.348	0.0177797
623.426	0.0177094
623.504	0.0178101
623.582	0.0177676
623.660	0.0178429
623.738	0.0178098
623.817	0.0178154
623.895	0.0177894
623.973	0.0178838
624.051	0.0177244
624.129	0.0178652
624.207	0.0177394
624.285	0.0177377
624.363	0.0176969
624.442	0.0177648
624.520	0.0177839
624.598	0.0177145
624.676	0.0177805
624.754	0.0177530
624.832	0.0177848
624.910	0.0177745
624.988	0.0177789
625.067	0.0177544
625.145	0.0177376
625.223	0.0177785
625.301	0.0177987
625.379	0.0177840
625.457	0.0177985
625.535	0.0177267
625.613	0.0177477
625.692	0.0179209
625.770	0.0177951
625.848	0.0179174
625.926	0.0178342
626.004	0.0178178
626.082	0.0177779
626.160	0.0177500
626.238	0.0177775
626.317	0.0178149
626.395	0.0178305
626.473	0.0177367
626.551	0.0177239
626.629	0.0177178
626.707	0.0177966
626.785	0.0178501
626.863	0.0176232
626.942	0.0176779
627.020	0.0178524
627.098	0.0178493
627.176	0.0176708
627.254	0.0176211
627.332	0.0177560
627.410	0.0177503
627.488	0.0178056
627.567	0.0177490
627.645	0.0178217
627.723	0.0177304
627.801	0.0176600
627.879	0.0177239
627.957	0.0178457
628.035	0.0177638
628.113	0.0178152
628.192	0.0178183
628.270	0.0179138
628.348	0.0177063
628.426	0.0177853
628.504	0.0177099
628.582	0.0178432
628.660	0.0177813
628.738	0.0177892
628.817	0.0177197
628.895	0.0177781
628.973	0.0178094
629.051	0.0176993
629.129	0.0179446
629.207	0.0177792
629.285	0.0177161
629.363	0.0177643
629.442	0.0177259
629.520	0.0178094
629.598	0.0179423
629.676	0.0177609
629.754	0.0176794
629.832	0.0178532
629.910	0.0177663
629.988	0.0177578
630.067	0.0176994
630.145	0.0177498
630.223	0.0177460
630.301	0.0177751
630.379	0.0178519
630.457	0.0177290
630.535	0.0176450
630.613	0.0178307
630.692	0.0178045
630.770	0.0178116
630.848	0.0177635
630.926	0.0177177
631.004	0.0178165
631.082	0.0178749
631.160	0.0176705
631.238	0.0176001
631.317	0.0178881
631.395	0.0176698
631.473	0.0177669
631.551	0.0176985
631.629	0.0177295
631.707	0.0178003
631.785	0.0177691
631.863	0.0176112
631.942	0.0177256
632.020	0.0178536
632.098	0.0176579
632.176	0.0178021
632.254	0.0178698
632.332	0.0176494
632.410	0.0178580
632.488	0.0178371
632.567	0.0176758
632.645	0.0178410
632.723	0.0179493
632.801	0.0177714
632.879	0.0177382
632.957	0.0178474
633.035	0.0176952
633.113	0.0177469
633.192	0.0179126
633.270	0.0177177
633.348	0.0176917
633.426	0.0177291
633.504	0.0178001
633.582	0.0177940
633.660	0.0176431
633.738	0.0178000
633.817	0.0176973
633.895	0.0177186
633.973	0.0177805
634.051	0.0176515
634.129	0.0177361
634.207	0.0177866
634.285	0.0177985
634.363	0.0179404
634.442	0.0177348
634.520	0.0177023
634.598	0.0177544
634.676	0.0178495
634.754	0.0177895
634.832	0.0177187
634.910	0.0177104
634.988	0.0177356
635.067	0.0176778
635.145	0.0177298
635.223	0.0178491
635.301	0.0177850
635.379	0.0177213
635.457	0.0177635
635.535	0.0178767
635.613	0.0177433
635.692	0.0177358
635.770	0.0177978
635.848	0.0178100
635.926	0.0179283
636.004	0.0178473
636.082	0.0177570
636.160	0.0177996
636.238	0.0177846
636.317	0.0178545
636.395	0.0177053
636.473	0.0176892
636.551	0.0177140
636.629	0.0180007
636.707	0.0177200
636.785	0.0176816
636.863	0.0177329
636.942	0.0177679
637.020	0.0176637
637.098	0.0177482
637.176	0.0176880
637.254	0.0178228
637.332	0.0176800
637.410	0.0176598
637.488	0.0178331
637.567	0.0178160
637.645	0.0176339
637.723	0.0178383
637.801	0.0177720
637.879	0.0178664
637.957	0.0178075
638.035	0.0177390
638.113	0.0177796
638.192	0.0177927
638.270	0.0177753
638.348	0.0177380
638.426	0.0176810
638.504	0.0177364
638.582	0.0177883
638.660	0.0177768
638.738	0.0178277
638.817	0.0177877
638.895	0.0176995
638.973	0.0177724
639.051	0.0177595
639.129	0.0176643
639.207	0.0178373
639.285	0.0178806
639.363	0.0176061
639.442	0.0176284
639.520	0.0178309
639.598	0.0177971
639.676	0.0176406
639.754	0.0176278
639.832	0.0177265
639.910	0.0178214
639.988	0.0177225
640.067	0.0177915
640.145	0.0177854
640.223	0.0176761
640.301	0.0177418
640.379	0.0177338
640.457	0.0177628
640.535	0.0177766
640.613	0.0176986
640.692	0.0176503
640.770	0.0176160
640.848	0.0178713
640.926	0.0178694
641.004	0.0177306
641.082	0.0176335
641.160	0.0177139
641.238	0.0177730
641.317	0.0179043
641.395	0.0177203
641.473	0.0178141
641.551	0.0176689
641.629	0.0177238
641.707	0.0177605
641.785	0.0177007
641.863	0.0178366
641.942	0.0177187
642.020	0.0176794
642.098	0.0176817
642.176	0.0177484
642.254	0.0177729
642.332	0.0177494
642.410	0.0177940
642.488	0.0177502
642.567	0.0177234
642.645	0.0178475
642.723	0.0177179
642.801	0.0178368
642.879	0.0178051
642.957	0.0176826
643.035	0.0177525
643.113	0.0177207
643.192	0.0177997
643.270	0.0180048
643.348	0.0178175
643.426	0.0177550
643.504	0.0176553
643.582	0.0177889
643.660	0.0177168
643.738	0.0177127
643.817	0.0177309
643.895	0.0178062
643.973	0.0176999
644.051	0.0177141
644.129	0.0177731
644.207	0.0178622
644.285	0.0178535
644.363	0.0177344
644.442	0.0176615
644.520	0.0178150
644.598	0.0178723
644.676	0.0178174
644.754	0.0176920
644.832	0.0178990
644.910	0.0179003
644.988	0.0176109
645.067	0.0177188
645.145	0.0176582
645.223	0.0179057
645.301	0.0178360
645.379	0.0176609
645.457	0.0176313
645.535	0.0177963
645.613	0.0178178
645.692	0.0178934
645.770	0.0177045
645.848	0.0177711
645.926	0.0177905
646.004	0.0177591
646.082	0.0176519
646.160	0.0177013
646.238	0.0177771
646.317	0.0178245
646.395	0.0177282
646.473	0.0177772
646.551	0.0178660
646.629	0.0178175
646.707	0.0176829
646.785	0.0176916
646.863	0.0177294
646.942	0.0179594
647.020	0.0178337
647.098	0.0178092
647.176	0.0176320
647.254	0.0177193
647.332	0.0178005
647.410	0.0178321
647.488	0.0177737
647.567	0.0178124
647.645	0.0177121
647.723	0.0177143
647.801	0.0177970
647.879	0.0177684
647.957	0.0177661
648.035	0.0178886
648.113	0.0178409
648.192	0.0177419
648.270	0.0178008
648.348	0.0178323
648.426	0.0178439
648.504	0.0177492
648.582	0.0177883
648.660	0.0178136
648.738	0.0177807
648.817	0.0178615
648.895	0.0178435
648.973	0.0177206
649.051	0.0177566
649.129	0.0177520
649.207	0.0178534
649.285	0.0176891
649.363	0.0177419
649.442	0.0178491
649.520	0.0178609
649.598	0.0178146
649.676	0.0178292
649.754	0.0176759
649.832	0.0177592
649.910	0.0176946
649.988	0.0177558
650.067	0.0178274
650.145	0.0177613
650.223	0.0177204
650.301	0.0178211
650.379	0.0178351
650.457	0.0178783
650.535	0.0178768
650.613	0.0178210
650.692	0.0176923
650.770	0.0175945
650.848	0.0177505
650.926	0.0178426
651.004	0.0177596
651.082	0.0178033
651.160	0.0177780
651.238	0.0177377
651.317	0.0177016
651.395	0.0178604
651.473	0.0178615
651.551	0.0177245
651.629	0.0176815
651.707	0.0178755
651.785	0.0177210
651.863	0.0176992
651.942	0.0178935
652.020	0.0177154
652.098	0.0176849
652.176	0.0177029
652.254	0.0177946
652.332	0.0177945
652.410	0.0176801
652.488	0.0178342
652.567	0.0177673
652.645	0.0177718
652.723	0.0177472
652.801	0.0176876
652.879	0.0177632
652.957	0.0178246
653.035	0.0177388
653.113	0.0179393
653.192	0.0177283
653.270	0.0177525
653.348	0.0178956
653.426	0.0176812
653.504	0.0177559
653.582	0.0178078
653.660	0.0178227
653.738	0.0178130
653.817	0.0177778
653.895	0.0177859
653.973	0.0176904
654.051	0.0177859
654.129	0.0178091
654.207	0.0177501
654.285	0.0178571
654.363	0.0178281
654.442	0.0177500
654.520	0.0176794
654.598	0.0178010
654.676	0.0177297
654.754	0.0179209
654.832	0.0177332
654.910	0.0177694
654.988	0.0179209
655.067	0.0177721
655.145	0.0177302
655.223	0.0178905
655.301	0.0176466
655.379	0.0177609
655.457	0.0178334
655.535	0.0177478
655.613	0.0176767
655.692	0.0176945
655.770	0.0176873
655.848	0.0177500
655.926	0.0177135
656.004	0.0177777
656.082	0.0178104
656.160	0.0178510
656.238	0.0176385
656.317	0.0177882
656.395	0.0177957
656.473	0.0177288
656.551	0.0177687
656.629	0.0177274
656.707	0.0177868
656.785	0.0179565
656.863	0.0176856
656.942	0.0178036
657.020	0.0177006
657.098	0.0178738
657.176	0.0178809
657.254	0.0177246
657.332	0.0178634
657.410	0.0178041
657.488	0.0178250
657.567	0.0177258
657.645	0.0177749
657.723	0.0177161
657.801	0.0178611
657.879	0.0176633
657.957	0.0177141
658.035	0.0178069
658.113	0.0177365
658.192	0.0178375
658.270	0.0177309
658.348	0.0177788
658.426	0.0177190
658.504	0.0178664
658.582	0.0177863
658.660	0.0178631
658.738	0.0177474
658.817	0.0176734
658.895	0.0176650
658.973	0.0178129
659.051	0.0176570
659.129	0.0178926
659.207	0.0178513
659.285	0.0178088
659.363	0.0178948
659.442	0.0178239
659.520	0.0176855
659.598	0.0177615
659.676	0.0177935
659.754	0.0177828
659.832	0.0177944
659.910	0.0178053
659.988	0.0177079
660.067	0.0177680
660.145	0.0178139
660.223	0.0178661
660.301	0.0178523
660.379	0.0178429
660.457	0.0176680
660.535	0.0177534
660.613	0.0177162
660.692	0.0177579
660.770	0.0177292
660.848	0.0177254
660.926	0.0177760
661.004	0.0177193
661.082	0.0178174
661.160	0.0177549
661.238	0.0178330
661.317	0.0178272
661.395	0.0178809
661.473	0.0176876
661.551	0.0178838
661.629	0.0178649
661.707	0.0177981
661.785	0.0177537
661.863	0.0177675
661.942	0.0178078
662.020	0.0178242
662.098	0.0178535
662.176	0.0177911
662.254	0.0177034
662.332	0.0177589
662.410	0.0179097
662.488	0.0177608
662.567	0.0177692
662.645	0.0177541
662.723	0.0178162
662.801	0.0176544
662.879	0.0178965
662.957	0.0177753
663.035	0.0176888
663.113	0.0177407
663.192	0.0177829
663.270	0.0178138
663.348	0.0178493
663.426	0.0177596
663.504	0.0177441
663.582	0.0177512
663.660	0.0177917
663.738	0.0178292
663.817	0.0177608
663.895	0.0176305
663.973	0.0177255
664.051	0.0178374
664.129	0.0178419
664.207	0.0178380
664.285	0.0178073
664.363	0.0177605
664.442	0.0178016
664.520	0.0178137
664.598	0.0178053
664.676	0.0177876
664.754	0.0178319
664.832	0.0176664
664.910	0.0176405
664.988	0.0178349
665.067	0.0178106
665.145	0.0177701
665.223	0.0178446
665.301	0.0177425
665.379	0.0177862
665.457	0.0177422
665.535	0.0178196
665.613	0.0177692
665.692	0.0176597
665.770	0.0179865
665.848	0.0177603
665.926	0.0177894
666.004	0.0178807
666.082	0.0177505
666.160	0.0177563
666.238	0.0178714
666.317	0.0178011
666.395	0.0177781
666.473	0.0177748
666.551	0.0177167
666.629	0.0176346
666.707	0.0177323
666.785	0.0177186
666.863	0.0177650
666.942	0.0176407
667.020	0.0177835
667.098	0.0176386
667.176	0.0178104
667.254	0.0177375
667.332	0.0178017
667.410	0.0178114
667.488	0.0177748
667.567	0.0177538
667.645	0.0177589
667.723	0.0177315
667.801	0.0178299
667.879	0.0177821
667.957	0.0178721
668.035	0.0177492
668.113	0.0177734
668.192	0.0178744
668.270	0.0178920
668.348	0.0177435
668.426	0.0177325
668.504	0.0178172
668.582	0.0177439
668.660	0.0176229
668.738	0.0176508
668.817	0.0180170
668.895	0.0178512
668.973	0.0176826
669.051	0.0178270
669.129	0.0178138
669.207	0.0178864
669.285	0.0178399
669.363	0.0178564
669.442	0.0177899
669.520	0.0177330
669.598	0.0177254
669.676	0.0178686
669.754	0.0178024
669.832	0.0176591
669.910	0.0177596
669.988	0.0177888
670.067	0.0178086
670.145	0.0177880
670.223	0.0177501
670.301	0.0178281
670.379	0.0177832
670.457	0.0177151
670.535	0.0176430
670.613	0.0177043
670.692	0.0178165
670.770	0.0179373
670.848	0.0178434
670.926	0.0177879
671.004	0.0178847
671.082	0.0177493
671.160	0.0177090
671.238	0.0177709
671.317	0.0177195
671.395	0.0178062
671.473	0.0178450
671.551	0.0177484
671.629	0.0177863
671.707	0.0176958
671.785	0.0176745
671.863	0.0178646
671.942	0.0178954
672.020	0.0176102
672.098	0.0177275
672.176	0.0177501
672.254	0.0177257
672.332	0.0176908
672.410	0.0177238
672.488	0.0177860
672.567	0.0177019
672.645	0.0176231
672.723	0.0175961
672.801	0.0177612
672.879	0.0177392
672.957	0.0177342
673.035	0.0177518
673.113	0.0177258
673.192	0.0177470
673.270	0.0177135
673.348	0.0177117
673.426	0.0177106
673.504	0.0176891
673.582	0.0176691
673.660	0.0177523
673.738	0.0177949
673.817	0.0176555
673.895	0.0178043
673.973	0.0176794
674.051	0.0176717
674.129	0.0176126
674.207	0.0177566
674.285	0.0177084
674.363	0.0177782
674.442	0.0176218
674.520	0.0177039
674.598	0.0177457
674.676	0.0177448
674.754	0.0176770
674.832	0.0178555
674.910	0.0177534
674.988	0.0176399
675.067	0.0176921
675.145	0.0176678
675.223	0.0176663
675.301	0.0177390
675.379	0.0177263
675.457	0.0176785
675.535	0.0177640
675.613	0.0176022
675.692	0.0176794
675.770	0.0178188
675.848	0.0176353
675.926	0.0176869
676.004	0.0176811
676.082	0.0176167
676.160	0.0177969
676.238	0.0176704
676.317	0.0177719
676.395	0.0177689
676.473	0.0177332
676.551	0.0177135
676.629	0.0177455
676.707	0.0177960
676.785	0.0177837
676.863	0.0177048
676.942	0.0178656
677.020	0.0178067
677.098	0.0177013
677.176	0.0176681
677.254	0.0176721
677.332	0.0176631
677.410	0.0178886
677.488	0.0175745
677.567	0.0176686
677.645	0.0176839
677.723	0.0178727
677.801	0.0179162
677.879	0.0177097
677.957	0.0176537
678.035	0.0177201
678.113	0.0177132
678.192	0.0178310
678.270	0.0179259
678.348	0.0178515
678.426	0.0176894
678.504	0.0176327
678.582	0.0177705
678.660	0.0178374
678.738	0.0178052
678.817	0.0177594
678.895	0.0178360
678.973	0.0178876
679.051	0.0178549
679.129	0.0178186
679.207	0.0178056
679.285	0.0178941
679.363	0.0179819
679.442	0.0178173
679.520	0.0177722
679.598	0.0179329
679.676	0.0178413
679.754	0.0177976
679.832	0.0177511
679.910	0.0179249
679.988	0.0179483
680.067	0.0178335
680.145	0.0178490
680.223	0.0177452
680.301	0.0177508
680.379	0.0178436
680.457	0.0178749
680.535	0.0178258
680.613	0.0178094
680.692	0.0178294
680.770	0.0178306
680.848	0.0178771
680.926	0.0178889
681.004	0.0178256
681.082	0.0177599
681.160	0.0177963
681.238	0.0177966
681.317	0.0177840
681.395	0.0178879
681.473	0.0178754
681.551	0.0178505
681.629	0.0176705
681.707	0.0177287
681.785	0.0178947
681.863	0.0177204
681.942	0.0176170
682.020	0.0178344
682.098	0.0177882
682.176	0.0176867
682.254	0.0178209
682.332	0.0177979
682.410	0.0176704
682.488	0.0177933
682.567	0.0177558
682.645	0.0178382
682.723	0.0177924
682.801	0.0178436
682.879	0.0177191
682.957	0.0177668
683.035	0.0178263
683.113	0.0177840
683.192	0.0177529
683.270	0.0177055
683.348	0.0177306
683.426	0.0177832
683.504	0.0178690
683.582	0.0176653
683.660	0.0177700
683.738	0.0177858
683.817	0.0176871
683.895	0.0176240
683.973	0.0176690
684.051	0.0176905
684.129	0.0176974
684.207	0.0175928
684.285	0.0176237
684.363	0.0177184
684.442	0.0177550
684.520	0.0177259
684.598	0.0176492
684.676	0.0175495
684.754	0.0176864
684.832	0.0176987
684.910	0.0176675
684.988	0.0177961
685.067	0.0177180
685.145	0.0176174
685.223	0.0175817
685.301	0.0177025
685.379	0.0177990
685.457	0.0176852
685.535	0.0177686
685.613	0.0177921
685.692	0.0179400
685.770	0.0176170
685.848	0.0177586
685.926	0.0177093
686.004	0.0177355
686.082	0.0178327
686.160	0.0176862
686.238	0.0178177
686.317	0.0177676
686.395	0.0177240
686.473	0.0178238
686.551	0.0177695
686.629	0.0178175
686.707	0.0176891
686.785	0.0177338
686.863	0.0177531
686.942	0.0176746
687.020	0.0176845
687.098	0.0176517
687.176	0.0178719
687.254	0.0176245
687.332	0.0177522
687.410	0.0177345
687.488	0.0175685
687.567	0.0176323
687.645	0.0177487
687.723	0.0176425
687.801	0.0177345
687.879	0.0176717
687.957	0.0177477
688.035	0.0177303
688.113	0.0178547
688.192	0.0177442
688.270	0.0177634
688.348	0.0177322
688.426	0.0178057
688.504	0.0177563
688.582	0.0177785
688.660	0.0177791
688.738	0.0177920
688.817	0.0177738
688.895	0.0177429
688.973	0.0177122
689.051	0.0178316
689.129	0.0177579
689.207	0.0178280
689.285	0.0178272
689.363	0.0178473
689.442	0.0177164
689.520	0.0177710
689.598	0.0178542
689.676	0.0177968
689.754	0.0178765
689.832	0.0177425
689.910	0.0179142
689.988	0.0179554
690.067	0.0178056
690.145	0.0177716
690.223	0.0178189
690.301	0.0177033
690.379	0.0176334
690.457	0.0175545
690.535	0.0176839
690.613	0.0177473
690.692	0.0176138
690.770	0.0178272
690.848	0.0180776
690.926	0.0182188
691.004	0.0184864
691.082	0.0185545
691.160	0.0185542
691.238	0.0186684
691.317	0.0184426
691.395	0.0179958
691.473	0.0176431
691.551	0.0172231
691.629	0.0168763
691.707	0.0162946
691.785	0.0159324
691.863	0.0157249
691.942	0.0157446
692.020	0.0159411
692.098	0.0164070
692.176	0.0171210
692.254	0.0179182
692.332	0.0190507
692.410	0.0198709
692.488	0.0207754
692.567	0.0215730
692.645	0.0218534
692.723	0.0218342
692.801	0.0214471
692.879	0.0208407
692.957	0.0199834
693.035	0.0188219
693.113	0.0174275
693.192	0.0161579
693.270	0.0149874
693.348	0.0137836
693.426	0.0131299
693.504	0.0126868
693.582	0.0124628
693.660	0.0128383
693.738	0.0135372
693.817	0.0144604
693.895	0.0156359
693.973	0.0168332
694.051	0.0182539
694.129	0.0194787
694.207	0.0204691
694.285	0.0214350
694.363	0.0222922
694.442	0.0227140
694.520	0.0227777
694.598	0.0228005
694.676	0.0225569
694.754	0.0220274
694.832	0.0211890
694.910	0.0202533
694.988	0.0194834
695.067	0.0185141
695.145	0.0174632
695.223	0.0166424
695.301	0.0158546
695.379	0.0150797
695.457	0.0145615
695.535	0.0141221
695.613	0.0139855
695.692	0.0136243
695.770	0.0136909
695.848	0.0138472
695.926	0.0141690
696.004	0.0144491
696.082	0.0150275
696.160	0.0155789
696.238	0.0161871
696.317	0.0166792
696.395	0.0173989
696.473	0.0180598
696.551	0.0185538
696.629	0.0192483
696.707	0.0196951
696.785	0.0201582
696.863	0.0204965
696.942	0.0206128
697.020	0.0210537
697.098	0.0209802
697.176	0.0208945
697.254	0.0210406
697.332	0.0209251
697.410	0.0206396
697.488	0.0203188
697.567	0.0200990
697.645	0.0198067
697.723	0.0194343
697.801	0.0189140
697.879	0.0184887
697.957	0.0177995
698.035	0.0172564
698.113	0.0167558
698.192	0.0161395
698.270	0.0155528
698.348	0.0151653
698.426	0.0146375
698.504	0.0144843
698.582	0.0143195
698.660	0.0143546
698.738	0.0144922
698.817	0.0145419
698.895	0.0149535
698.973	0.0152808
699.051	0.0156930
699.129	0.0160085
699.207	0.0164215
699.285	0.0168011
699.363	0.0169503
699.442	0.0173479
699.520	0.0175988
699.598	0.0177081
699.676	0.0179800
699.754	0.0181075
699.832	0.0184210
699.910	0.0185310
699.988	0.0188871
700.067	0.0192033
700.145	0.0192868
700.223	0.0196820
700.301	0.0199615
700.379	0.0202762
700.457	0.0205201
700.535	0.0207970
700.613	0.0209193
700.692	0.0208652
700.770	0.0209403
700.848	0.0208890
700.926	0.0206779
701.004	0.0205328
701.082	0.0201027
701.160	0.0196156
701.238	0.0191695
701.317	0.0186143
701.395	0.0180408
701.473	0.0172466
701.551	0.0166265
701.629	0.0160574
701.707	0.0155401
701.785	0.0150204
701.863	0.0144614
701.942	0.0142507
702.020	0.0141329
702.098	0.0142575
702.176	0.0142693
702.254	0.0143292
702.332	0.0146999
702.410	0.0150106
702.488	0.0154572
702.567	0.0159895
702.645	0.0162402
702.723	0.0166695
702.801	0.0171941
702.879	0.0175143
702.957	0.0179059
703.035	0.0181657
703.113	0.0185932
703.192	0.0188759
703.270	0.0189923
703.348	0.0191126
703.426	0.0191683
703.504	0.0190376
703.582	0.0193025
703.660	0.0193644
703.738	0.0191740
703.817	0.0190938
703.895	0.0191430
703.973	0.0191214
704.051	0.0190136
704.129	0.0188565
704.207	0.0188459
704.285	0.0188432
704.363	0.0187446
704.442	0.0185830
704.520	0.0185165
704.598	0.0185709
704.676	0.0183952
704.754	0.0186555
704.832	0.0185728
704.910	0.0185793
704.988	0.0185058
705.067	0.0185056
705.145	0.0185401
705.223	0.0184406
705.301	0.0184204
705.379	0.0182992
705.457	0.0179546
705.535	0.0178636
705.613	0.0176559
705.692	0.0172906
705.770	0.0170029
705.848	0.0168217
705.926	0.0166618
706.004	0.0163219
706.082	0.0163019
706.160	0.0161596
706.238	0.0160046
706.317	0.0159788
706.395	0.0158572
706.473	0.0159002
706.551	0.0160715
706.629	0.0161195
706.707	0.0160588
706.785	0.0161526
706.863	0.0163985
706.942	0.0165397
707.020	0.0168469
707.098	0.0170312
707.176	0.0172168
707.254	0.0176019
707.332	0.0178021
707.410	0.0180635
707.488	0.0183252
707.567	0.0185387
707.645	0.0189056
707.723	0.0192066
707.801	0.0193150
707.879	0.0193269
707.957	0.0195664
708.035	0.0196339
708.113	0.0196302
708.192	0.0197100
708.270	0.0196542
708.348	0.0192642
708.426	0.0191964
708.504	0.0190801
708.582	0.0186829
708.660	0.0185909
708.738	0.0183515
708.817	0.0182651
708.895	0.0180022
708.973	0.0178312
709.051	0.0178269
709.129	0.0177705
709.207	0.0177828
709.285	0.0177780
709.363	0.0178803
709.442	0.0177608
709.520	0.0178905
709.598	0.0179459
709.676	0.0178824
709.754	0.0178731
709.832	0.0177181
709.910	0.0176029
709.988	0.0173611
710.067	0.0172974
710.145	0.0171476
710.223	0.0168343
710.301	0.0166735
710.379	0.0165106
710.457	0.0163639
710.535	0.0163026
710.613	0.0164139
710.692	0.0162798
710.770	0.0163190
710.848	0.0163123
710.926	0.0162965
711.004	0.0166766
711.082	0.0168462
711.160	0.0170509
711.238	0.0173763
711.317	0.0174954
711.395	0.0176971
711.473	0.0180816
711.551	0.0180769
711.629	0.0183095
711.707	0.0185754
711.785	0.0185267
711.863	0.0186174
711.942	0.0185606
712.020	0.0184875
712.098	0.0184557
712.176	0.0183766
712.254	0.0182414
712.332	0.0179916
712.410	0.0181263
712.488	0.0178213
712.567	0.0176338
712.645	0.0174617
712.723	0.0177765
712.801	0.0177057
712.879	0.0177033
712.957	0.0177758
713.035	0.0177078
713.113	0.0177150
713.192	0.0178363
713.270	0.0178463
713.348	0.0179289
713.426	0.0178593
713.504	0.0180193
713.582	0.0179618
713.660	0.0179975
713.738	0.0180598
713.817	0.0179485
713.895	0.0180228
713.973	0.0179755
714.051	0.0179532
714.129	0.0180195
714.207	0.0179085
714.285	0.0180713
714.363	0.0183586
714.442	0.0182666
714.520	0.0182923
714.598	0.0184407
714.676	0.0184339
714.754	0.0184122
714.832	0.0183784
714.910	0.0184537
714.988	0.0183845
715.067	0.0181270
715.145	0.0179945
715.223	0.0178912
715.301	0.0177962
715.379	0.0175507
715.457	0.0173749
715.535	0.0171800
715.613	0.0168753
715.692	0.0167511
715.770	0.0166515
715.848	0.0166277
715.926	0.0167084
716.004	0.0165343
716.082	0.0165164
716.160	0.0166298
716.238	0.0168201
716.317	0.0168871
716.395	0.0170556
716.473	0.0173147
716.551	0.0173139
716.629	0.0174755
716.707	0.0175999
716.785	0.0177797
716.863	0.0179110
716.942	0.0179826
717.020	0.0179587
717.098	0.0181406
717.176	0.0182098
717.254	0.0181634
717.332	0.0181950
717.410	0.0183667
717.488	0.0182393
717.567	0.0181351
717.645	0.0182750
717.723	0.0182997
717.801	0.0181149
717.879	0.0179540
717.957	0.0180592
718.035	0.0181667
718.113	0.0180637
718.192	0.0182245
718.270	0.0181127
718.348	0.0181165
718.426	0.0180418
718.504	0.0180048
718.582	0.0180433
718.660	0.0181232
718.738	0.0179808
718.817	0.0180704
718.895	0.0181261
718.973	0.0181473
719.051	0.0180894
719.129	0.0180149
719.207	0.0180724
719.285	0.0179605
719.363	0.0179722
719.442	0.0178056
719.520	0.0178992
719.598	0.0178118
719.676	0.0178068
719.754	0.0177977
719.832	0.0177961
719.910	0.0177930
719.988	0.0176948
720.067	0.0176601
720.145	0.0176569
720.223	0.0174599
720.301	0.0173631
720.379	0.0175356
720.457	0.0174820
720.535	0.0173979
720.613	0.0173533
720.692	0.0172518
720.770	0.0172266
720.848	0.0172536
720.926	0.0171159
721.004	0.0170380
721.082	0.0171074
721.160	0.0170155
721.238	0.0170605
721.317	0.0169402
721.395	0.0169328
721.473	0.0169485
721.551	0.0171308
721.629	0.0171771
721.707	0.0173371
721.785	0.0174445
721.863	0.0176270
721.942	0.0177409
722.020	0.0178990
722.098	0.0178362
722.176	0.0180520
722.254	0.0181635
722.332	0.0181693
722.410	0.0181762
722.488	0.0182761
722.567	0.0182196
722.645	0.0183208
722.723	0.0184471
722.801	0.0182075
722.879	0.0182590
722.957	0.0182645
723.035	0.0181654
723.113	0.0182122
723.192	0.0181922
723.270	0.0181045
723.348	0.0183372
723.426	0.0182077
723.504	0.0180673
723.582	0.0181589
723.660	0.0179231
723.738	0.0178474
723.817	0.0177866
723.895	0.0177924
723.973	0.0177773
724.051	0.0175177
724.129	0.0174981
724.207	0.0174780
724.285	0.0174036
724.363	0.0173495
724.442	0.0173034
724.520	0.0173563
724.598	0.0172628
724.676	0.0171899
724.754	0.0172894
724.832	0.0174340
724.910	0.0175501
724.988	0.0175198
725.067	0.0175001
725.145	0.0175433
725.223	0.0177551
725.301	0.0177579
725.379	0.0178838
725.457	0.0180296
725.535	0.0180281
725.613	0.0181157
725.692	0.0179037
725.770	0.0180070
725.848	0.0180177
725.926	0.0179816
726.004	0.0178059
726.082	0.0177433
726.160	0.0177564
726.238	0.0176926
726.317	0.0175281
726.395	0.0176852
726.473	0.0174031
726.551	0.0174226
726.629	0.0172234
726.707	0.0173448
726.785	0.0173889
726.863	0.0173035
726.942	0.0174507
727.020	0.0175061
727.098	0.0174070
727.176	0.0173608
727.254	0.0174770
727.332	0.0175742
727.410	0.0176369
727.488	0.0178206
727.567	0.0178619
727.645	0.0179505
727.723	0.0180405
727.801	0.0179032
727.879	0.0179769
727.957	0.0181253
728.035	0.0179631
728.113	0.0180542
728.192	0.0181268
728.270	0.0180315
728.348	0.0179018
728.426	0.0177849
728.504	0.0178821
728.582	0.0177581
728.660	0.0176176
728.738	0.0177502
728.817	0.0177118
728.895	0.0176958
728.973	0.0177522
729.051	0.0178776
729.129	0.0179483
729.207	0.0179151
729.285	0.0180412
729.363	0.0179350
729.442	0.0180404
729.520	0.0179688
729.598	0.0179474
729.676	0.0180688
729.754	0.0180107
729.832	0.0179597
729.910	0.0179200
729.988	0.0177975
730.067	0.0177885
730.145	0.0179449
730.223	0.0177351
730.301	0.0176022
730.379	0.0174645
730.457	0.0176260
730.535	0.0175129
730.613	0.0174033
730.692	0.0175900
730.770	0.0174796
730.848	0.0175376
730.926	0.0176809
731.004	0.0176913
731.082	0.0175359
731.160	0.0177436
731.238	0.0177020
731.317	0.0177774
731.395	0.0177728
731.473	0.0178018
731.551	0.0177609
731.629	0.0177659
731.707	0.0177551
731.785	0.0177322
731.863	0.0177378
731.942	0.0176397
732.020	0.0177683
732.098	0.0177314
732.176	0.0176208
732.254	0.0176292
732.332	0.0178216
732.410	0.0176801
732.488	0.0177645
732.567	0.0178168
732.645	0.0179445
732.723	0.0181110
732.801	0.0181100
732.879	0.0181026
732.957	0.0181653
733.035	0.0182536
733.113	0.0182354
733.192	0.0182720
733.270	0.0181953
733.348	0.0181126
733.426	0.0179810
733.504	0.0179121
733.582	0.0178040
733.660	0.0177260
733.738	0.0177389
733.817	0.0175906
733.895	0.0176246
733.973	0.0174307
734.051	0.0176321
734.129	0.0174918
734.207	0.0175414
734.285	0.0177483
734.363	0.0177715
734.442	0.0176605
734.520	0.0177370
734.598	0.0176572
734.676	0.0176919
734.754	0.0177005
734.832	0.0176996
734.910	0.0178037
734.988	0.0177725
735.067	0.0177750
735.145	0.0177109
735.223	0.0176692
735.301	0.0175072
735.379	0.0177113
735.457	0.0177278
735.535	0.0175235
735.613	0.0176846
735.692	0.0175991
735.770	0.0176152
735.848	0.0174581
735.926	0.0174938
736.004	0.0175903
736.082	0.0176786
736.160	0.0175999
736.238	0.0175987
736.317	0.0176476
736.395	0.0175793
736.473	0.0175484
736.551	0.0175558
736.629	0.0176037
736.707	0.0174757
736.785	0.0175171
736.863	0.0176151
736.942	0.0174712
737.020	0.0177112
737.098	0.0175526
737.176	0.0176318
737.254	0.0175802
737.332	0.0177821
737.410	0.0176122
737.488	0.0176334
737.567	0.0177328
737.645	0.0177903
737.723	0.0178012
737.801	0.0175996
737.879	0.0178750
737.957	0.0178323
738.035	0.0178970
738.113	0.0179232
738.192	0.0180330
738.270	0.0181091
738.348	0.0180769
738.426	0.0180415
738.504	0.0182079
738.582	0.0180431
738.660	0.0180526
738.738	0.0181373
738.817	0.0178811
738.895	0.0177496
738.973	0.0178743
739.051	0.0178397
739.129	0.0177794
739.207	0.0177489
739.285	0.0177797
739.363	0.0176147
739.442	0.0175469
739.520	0.0177500
739.598	0.0177825
739.676	0.0177954
739.754	0.0178206
739.832	0.0178155
739.910	0.0178940
739.988	0.0179472
740.067	0.0178651
740.145	0.0179321
740.223	0.0178494
740.301	0.0179475
740.379	0.0179393
740.457	0.0177642
740.535	0.0177380
740.613	0.0176771
740.692	0.0178702
740.770	0.0177531
740.848	0.0177037
740.926	0.0175216
741.004	0.0175510
741.082	0.0175768
741.160	0.0175744
741.238	0.0175508
741.317	0.0176778
741.395	0.0176188
741.473	0.0177521
741.551	0.0176949
741.629	0.0175973
741.707	0.0177735
741.785	0.0177547
741.863	0.0179435
741.942	0.0179023
742.020	0.0178718
742.098	0.0177563
742.176	0.0177687
742.254	0.0178165
742.332	0.0178726
742.410	0.0177879
742.488	0.0176689
742.567	0.0177806
742.645	0.0175446
742.723	0.0175134
742.801	0.0175513
742.879	0.0175128
742.957	0.0173657
743.035	0.0174314
743.113	0.0174544
743.192	0.0175800
743.270	0.0174679
743.348	0.0176337
743.426	0.0174902
743.504	0.0176891
743.582	0.0176994
743.660	0.0176022
743.738	0.0176551
743.817	0.0177153
743.895	0.0177439
743.973	0.0176765
744.051	0.0178347
744.129	0.0178093
744.207	0.0177636
744.285	0.0177336
744.363	0.0178947
744.442	0.0179595
744.520	0.0179787
744.598	0.0179572
744.676	0.0179503
744.754	0.0181184
744.832	0.0179286
744.910	0.0180426
744.988	0.0180613
745.067	0.0180284
745.145	0.0179549
745.223	0.0179356
745.301	0.0179269
745.379	0.0178947
745.457	0.0177383
745.535	0.0178307
745.613	0.0179089
745.692	0.0176949
745.770	0.0176362
745.848	0.0176379
745.926	0.0176932
746.004	0.0176698
746.082	0.0176839
746.160	0.0176665
746.238	0.0177306
746.317	0.0176014
746.395	0.0177025
746.473	0.0178783
746.551	0.0178507
746.629	0.0179442
746.707	0.0180214
746.785	0.0178935
746.863	0.0178825
746.942	0.0179515
747.020	0.0179588
747.098	0.0179461
747.176	0.0179519
747.254	0.0179057
747.332	0.0179395
747.410	0.0178175
747.488	0.0179017
747.567	0.0178629
747.645	0.0177992
747.723	0.0176790
747.801	0.0175798
747.879	0.0176283
747.957	0.0175166
748.035	0.0174922
748.113	0.0174180
748.192	0.0173614
748.270	0.0174681
748.348	0.0173318
748.426	0.0174786
748.504	0.0174170
748.582	0.0175665
748.660	0.0176326
748.738	0.0176424
748.817	0.0176699
748.895	0.0176238
748.973	0.0177256
749.051	0.0178203
749.129	0.0178036
749.207	0.0178524
749.285	0.0177705
749.363	0.0178163
749.442	0.0177990
749.520	0.0177888
749.598	0.0179379
749.676	0.0177485
749.754	0.0176601
749.832	0.0177382
749.910	0.0177824
749.988	0.0176630
750.067	0.0175492
750.145	0.0175706
750.223	0.0175954
750.301	0.0176009
750.379	0.0175833
750.457	0.0176363
750.535	0.0176653
750.613	0.0178262
750.692	0.0177153
750.770	0.0176943
750.848	0.0178132
750.926	0.0178647
751.004	0.0179300
751.082	0.0178227
751.160	0.0177280
751.238	0.0179131
751.317	0.0178829
751.395	0.0178154
751.473	0.0178306
751.551	0.0177631
751.629	0.0177064
751.707	0.0177570
751.785	0.0177470
751.863	0.0176142
751.942	0.0175267
752.020	0.0175646
752.098	0.0174804
752.176	0.0176321
752.254	0.0176676
752.332	0.0175288
752.410	0.0176064
752.488	0.0177429
752.567	0.0177608
752.645	0.0178516
752.723	0.0178209
752.801	0.0178738
752.879	0.0179503
752.957	0.0180618
753.035	0.0179627
753.113	0.0179607
753.192	0.0179879
753.270	0.0179818
753.348	0.0180212
753.426	0.0180901
753.504	0.0180871
753.582	0.0180798
753.660	0.0181126
753.738	0.0179038
753.817	0.0180369
753.895	0.0180025
753.973	0.0177020
754.051	0.0176933
754.129	0.0177803
754.207	0.0178432
754.285	0.0177579
754.363	0.0176097
754.442	0.0176595
754.520	0.0176431
754.598	0.0177072
754.676	0.0176305
754.754	0.0177143
754.832	0.0175941
754.910	0.0175841
754.988	0.0176658
755.067	0.0176305
755.145	0.0175956
755.223	0.0177275
755.301	0.0177121
755.379	0.0176455
755.457	0.0177232
755.535	0.0179279
755.613	0.0178517
755.692	0.0180015
755.770	0.0180157
755.848	0.0179810
755.926	0.0179836
756.004	0.0179944
756.082	0.0179827
756.160	0.0179863
756.238	0.0178946
756.317	0.0178326
756.395	0.0177916
756.473	0.0175375
756.551	0.0176880
756.629	0.0176048
756.707	0.0175758
756.785	0.0174646
756.863	0.0173373
756.942	0.0175681
757.020	0.0175124
757.098	0.0175610
757.176	0.0176257
757.254	0.0177789
757.332	0.0176456
757.410	0.0178325
757.488	0.0178848
757.567	0.0178891
757.645	0.0179390
757.723	0.0178263
757.801	0.0178873
757.879	0.0181020
757.957	0.0180455
758.035	0.0178638
758.113	0.0180784
758.192	0.0180071
758.270	0.0180898
758.348	0.0178765
758.426	0.0179111
758.504	0.0178694
758.582	0.0178003
758.660	0.0177554
758.738	0.0177492
758.817	0.0176425
758.895	0.0175975
758.973	0.0175777
759.051	0.0175501
759.129	0.0175099
759.207	0.0174537
759.285	0.0174891
759.363	0.0174416
759.442	0.0176488
759.520	0.0175092
759.598	0.0175172
759.676	0.0177840
759.754	0.0176138
759.832	0.0177959
759.910	0.0177878
759.988	0.0178560
760.067	0.0180138
760.145	0.0180414
760.223	0.0181105
760.301	0.0179925
760.379	0.0180233
760.457	0.0179360
760.535	0.0180336
760.613	0.0181352
760.692	0.0179659
760.770	0.0179407
760.848	0.0179837
760.926	0.0179543
761.004	0.0178442
761.082	0.0177378
761.160	0.0179010
761.238	0.0177843
761.317	0.0177488
761.395	0.0177100
761.473	0.0177487
761.551	0.0176877
761.629	0.0176057
761.707	0.0175441
761.785	0.0177486
761.863	0.0176266
761.942	0.0174913
762.020	0.0177225
762.098	0.0175216
762.176	0.0175626
762.254	0.0177125
762.332	0.0176268
762.410	0.0176186
762.488	0.0176059
762.567	0.0176089
762.645	0.0177316
762.723	0.0177244
762.801	0.0176998
762.879	0.0177914
762.957	0.0178397
763.035	0.0179028
763.113	0.0177109
763.192	0.0177869
763.270	0.0177225
763.348	0.0178179
763.426	0.0178604
763.504	0.0178584
763.582	0.0177560
763.660	0.0178326
763.738	0.0177158
763.817	0.0178017
763.895	0.0179017
763.973	0.0178068
764.051	0.0176925
764.129	0.0177866
764.207	0.0177178
764.285	0.0177095
764.363	0.0177927
764.442	0.0177575
764.520	0.0175254
764.598	0.0175650
764.676	0.0176385
764.754	0.0175174
764.832	0.0177883
764.910	0.0175992
764.988	0.0176416
765.067	0.0176007
765.145	0.0177370
765.223	0.0177608
765.301	0.0177557
765.379	0.0178046
765.457	0.0175657
765.535	0.0177677
765.613	0.0178530
765.692	0.0178175
765.770	0.0178081
765.848	0.0178802
765.926	0.0179735
766.004	0.0179618
766.082	0.0179288
766.160	0.0178117
766.238	0.0179352
766.317	0.0177981
766.395	0.0178664
766.473	0.0179071
766.551	0.0177619
766.629	0.0178084
766.707	0.0179263
766.785	0.0178155
766.863	0.0178249
766.942	0.0179014
767.020	0.0178072
767.098	0.0178210
767.176	0.0177737
767.254	0.0178038
767.332	0.0176914
767.410	0.0176763
767.488	0.0177209
767.567	0.0176544
767.645	0.0176804
767.723	0.0178947
767.801	0.0177418
767.879	0.0177219
767.957	0.0176347
768.035	0.0176212
768.113	0.0177402
768.192	0.0176232
768.270	0.0177051
768.348	0.0177525
768.426	0.0179371
768.504	0.0176633
768.582	0.0176791
768.660	0.0178348
768.738	0.0178965
768.817	0.0178181
768.895	0.0176388
768.973	0.0177467
769.051	0.0176900
769.129	0.0177502
769.207	0.0178512
769.285	0.0178074
769.363	0.0178230
769.442	0.0178139
769.520	0.0178979
769.598	0.0177627
769.676	0.0177264
769.754	0.0178405
769.832	0.0178004
769.910	0.0176912
769.988	0.0178278
770.067	0.0177622
770.145	0.0178876
770.223	0.0178756
770.301	0.0178173
770.379	0.0177823
770.457	0.0177750
770.535	0.0176857
770.613	0.0178118
770.692	0.0176835
770.770	0.0177197
770.848	0.0177987
770.926	0.0176786
771.004	0.0177051
771.082	0.0175992
771.160	0.0176957
771.238	0.0176475
771.317	0.0177448
771.395	0.0176292
771.473	0.0176183
771.551	0.0177418
771.629	0.0177313
771.707	0.0175927
771.785	0.0176608
771.863	0.0176151
771.942	0.0177350
772.020	0.0176868
772.098	0.0177035
772.176	0.0177216
772.254	0.0176749
772.332	0.0178198
772.410	0.0176855
772.488	0.0178123
772.567	0.0178169
772.645	0.0177441
772.723	0.0176853
772.801	0.0177237
772.879	0.0176768
772.957	0.0177242
773.035	0.0177596
773.113	0.0177180
773.192	0.0178315
773.270	0.0176801
773.348	0.0176873
773.426	0.0178279
773.504	0.0177354
773.582	0.0177030
773.660	0.0177766
773.738	0.0179469
773.817	0.0177061
773.895	0.0177944
773.973	0.0178804
774.051	0.0178679
774.129	0.0179575
774.207	0.0178419
774.285	0.0179243
774.363	0.0179053
774.442	0.0178854
774.520	0.0179375
774.598	0.0180470
774.676	0.0178000
774.754	0.0178899
774.832	0.0178767
774.910	0.0179778
774.988	0.0178944
775.067	0.0177122
775.145	0.0178759
775.223	0.0178212
775.301	0.0177288
775.379	0.0177010
775.457	0.0176954
775.535	0.0177033
775.613	0.0177279
775.692	0.0177614
775.770	0.0176908
775.848	0.0176259
775.926	0.0177181
776.004	0.0177846
776.082	0.0176300
776.160	0.0176931
776.238	0.0176801
776.317	0.0177251
776.395	0.0178272
776.473	0.0177248
776.551	0.0178546
776.629	0.0178359
776.707	0.0177834
776.785	0.0178319
776.863	0.0179379
776.942	0.0178037
777.020	0.0178748
777.098	0.0179073
777.176	0.0178217
777.254	0.0177408
777.332	0.0176686
777.410	0.0177313
777.488	0.0177373
777.567	0.0176078
777.645	0.0176095
777.723	0.0175784
777.801	0.0177083
777.879	0.0175450
777.957	0.0177919
778.035	0.0176083
778.113	0.0176641
778.192	0.0176676
778.270	0.0177089
778.348	0.0176510
778.426	0.0176905
778.504	0.0177194
778.582	0.0177641
778.660	0.0177249
778.738	0.0178584
778.817	0.0177895
778.895	0.0178442
778.973	0.0179251
779.051	0.0177569
779.129	0.0178035
779.207	0.0178239
779.285	0.0177719
779.363	0.0178220
779.442	0.0179077
779.520	0.0179220
779.598	0.0179112
779.676	0.0177774
779.754	0.0179124
779.832	0.0179672
779.910	0.0178625
779.988	0.0179071
780.067	0.0178690
780.145	0.0178307
780.223	0.0178757
780.301	0.0177617
780.379	0.0178968
780.457	0.0178313
780.535	0.0178537
780.613	0.0179299
780.692	0.0176893
780.770	0.0177988
780.848	0.0179147
780.926	0.0178999
781.004	0.0178307
781.082	0.0179441
781.160	0.0178616
781.238	0.0180112
781.317	0.0178066
781.395	0.0177230
781.473	0.0176540
781.551	0.0177528
781.629	0.0176458
781.707	0.0177016
781.785	0.0177512
781.863	0.0177109
781.942	0.0176413
782.020	0.0177351
782.098	0.0176204
782.176	0.0177992
782.254	0.0177245
782.332	0.0178882
782.410	0.0179039
782.488	0.0178513
782.567	0.0180135
782.645	0.0178299
782.723	0.0177762
782.801	0.0177930
782.879	0.0178812
782.957	0.0179069
783.035	0.0179688
783.113	0.0178404
783.192	0.0178190
783.270	0.0179359
783.348	0.0177801
783.426	0.0176605
783.504	0.0178421
783.582	0.0178451
783.660	0.0177053
783.738	0.0178513
783.817	0.0177673
783.895	0.0177746
783.973	0.0178684
784.051	0.0178055
784.129	0.0177031
784.207	0.0178580
784.285	0.0177985
784.363	0.0178659
784.442	0.0177795
784.520	0.0178995
784.598	0.0179185
784.676	0.0178654
784.754	0.0180383
784.832	0.0178417
784.910	0.0177488
784.988	0.0178278
785.067	0.0178584
785.145	0.0178098
785.223	0.0178023
785.301	0.0177194
785.379	0.0176620
785.457	0.0176668
785.535	0.0176526
785.613	0.0176663
785.692	0.0178014
785.770	0.0177370
785.848	0.0175362
785.926	0.0176166
786.004	0.0175979
786.082	0.0176339
786.160	0.0176629
786.238	0.0176060
786.317	0.0177357
786.395	0.0176556
786.473	0.0176488
786.551	0.0176901
786.629	0.0178009
786.707	0.0178470
786.785	0.0176333
786.863	0.0176877
786.942	0.0177693
787.020	0.0178882
787.098	0.0178461
787.176	0.0178860
787.254	0.0177507
787.332	0.0177895
787.410	0.0178172
787.488	0.0179369
787.567	0.0178512
787.645	0.0178143
787.723	0.0177972
787.801	0.0177692
787.879	0.0178522
787.957	0.0178211
788.035	0.0179871
788.113	0.0179396
788.192	0.0178654
788.270	0.0178657
788.348	0.0179622
788.426	0.0178628
788.504	0.0179835
788.582	0.0180344
788.660	0.0180288
788.738	0.0180855
788.817	0.0182510
788.895	0.0180886
788.973	0.0181148
789.051	0.0180888
789.129	0.0179830
789.207	0.0180737
789.285	0.0178205
789.363	0.0178498
789.442	0.0178265
789.520	0.0179041
789.598	0.0177376
789.676	0.0177263
789.754	0.0177563
789.832	0.0176225
789.910	0.0175153
789.988	0.0175516
790.067	0.0174777
790.145	0.0175307
790.223	0.0174451
790.301	0.0175066
790.379	0.0174287
790.457	0.0175105
790.535	0.0175397
790.613	0.0176750
790.692	0.0176857
790.770	0.0175729
790.848	0.0177426
790.926	0.0178278
791.004	0.0178928
791.082	0.0181226
791.160	0.0181435
791.238	0.0182611
791.317	0.0181769
791.395	0.0181038
791.473	0.0181076
791.551	0.0180505
791.629	0.0181199
791.707	0.0181045
791.785	0.0178829
791.863	0.0176652
791.942	0.0176420
792.020	0.0176376
792.098	0.0174166
792.176	0.0174352
792.254	0.0174323
792.332	0.0172511
792.410	0.0170877
792.488	0.0171938
792.567	0.0173643
792.645	0.0172459
792.723	0.0172681
792.801	0.0173134
792.879	0.0173952
792.957	0.0174251
793.035	0.0175465
793.113	0.0176138
793.192	0.0176663
793.270	0.0178275
793.348	0.0179482
793.426	0.0180400
793.504	0.0180042
793.582	0.0181216
793.660	0.0182577
793.738	0.0183163
793.817	0.0181377
793.895	0.0181686
793.973	0.0181764
794.051	0.0182424
794.129	0.0182248
794.207	0.0180960
794.285	0.0180393
794.363	0.0181491
794.442	0.0180228
794.520	0.0178563
794.598	0.0176046
794.676	0.0176264
794.754	0.0176763
794.832	0.0175533
794.910	0.0174122
794.988	0.0174068
795.067	0.0173673
795.145	0.0174982
795.223	0.0173617
795.301	0.0173624
795.379	0.0175158
795.457	0.0174344
795.535	0.0173352
795.613	0.0172907
795.692	0.0172780
795.770	0.0174139
795.848	0.0174411
795.926	0.0174341
796.004	0.0174928
796.082	0.0175032
796.160	0.0175241
796.238	0.0175650
796.317	0.0177786
796.395	0.0177637
796.473	0.0179746
796.551	0.0179481
796.629	0.0180796
796.707	0.0181731
796.785	0.0179646
796.863	0.0180234
796.942	0.0182632
797.020	0.0182251
797.098	0.0182592
797.176	0.0184040
797.254	0.0182938
797.332	0.0183788
797.410	0.0182662
797.488	0.0181757
797.567	0.0182668
797.645	0.0180461
797.723	0.0180036
797.801	0.0179856
797.879	0.0178368
797.957	0.0177939
798.035	0.0177832
798.113	0.0176582
798.192	0.0175584
798.270	0.0174729
798.348	0.0174008
798.426	0.0172268
798.504	0.0173402
798.582	0.0172662
798.660	0.0173284
798.738	0.0172842
798.817	0.0173047
798.895	0.0173406
798.973	0.0174422
799.051	0.0173718
799.129	0.0174443
799.207	0.0174263
799.285	0.0177071
799.363	0.0176144
799.442	0.0176057
799.520	0.0177160
799.598	0.0177584
799.676	0.0176958
799.754	0.0177690
799.832	0.0179809
799.910	0.0179886
799.988	0.0179253
800.067	0.0178903
800.145	0.0178597
800.223	0.0178927
800.301	0.0178519
800.379	0.0176945
800.457	0.0179301
800.535	0.0179286
800.613	0.0178472
800.692	0.0178852
800.770	0.0179630
800.848	0.0178726
800.926	0.0179823
801.004	0.0181020
801.082	0.0180123
801.160	0.0180288
801.238	0.0179472
801.317	0.0179758
801.395	0.0181109
801.473	0.0177228
801.551	0.0178998
801.629	0.0179837
801.707	0.0179424
801.785	0.0178451
801.863	0.0177751
801.942	0.0176386
802.020	0.0176719
802.098	0.0176985
802.176	0.0175620
802.254	0.0175070
802.332	0.0174020
802.410	0.0173704
802.488	0.0174235
802.567	0.0175346
802.645	0.0174277
802.723	0.0173822
802.801	0.0174376
802.879	0.0175907
802.957	0.0176598
803.035	0.0176681
803.113	0.0176568
803.192	0.0177422
803.270	0.0177544
803.348	0.0177809
803.426	0.0177292
803.504	0.0178933
803.582	0.0179223
803.660	0.0178373
803.738	0.0178733
803.817	0.0179410
803.895	0.0178681
803.973	0.0178197
804.051	0.0177686
804.129	0.0178702
804.207	0.0178345
804.285	0.0177476
804.363	0.0176725
804.442	0.0177589
804.520	0.0177508
804.598	0.0177851
804.676	0.0176942
804.754	0.0178329
804.832	0.0178432
804.910	0.0178775
804.988	0.0179205
805.067	0.0179792
805.145	0.0180235
805.223	0.0179776
805.301	0.0181651
805.379	0.0181036
805.457	0.0182363
805.535	0.0182035
805.613	0.0179786
805.692	0.0180579
805.770	0.0181339
805.848	0.0179819
805.926	0.0180151
806.004	0.0180111
806.082	0.0178819
806.160	0.0178356
806.238	0.0178347
806.317	0.0177565
806.395	0.0176544
806.473	0.0174797
806.551	0.0174773
806.629	0.0175244
806.707	0.0174357
806.785	0.0174230
806.863	0.0173748
806.942	0.0173847
807.020	0.0173933
807.098	0.0174259
807.176	0.0173635
807.254	0.0173302
807.332	0.0174438
807.410	0.0174792
807.488	0.0175872
807.567	0.0176127
807.645	0.0176352
807.723	0.0176955
807.801	0.0177922
807.879	0.0177596
807.957	0.0179149
808.035	0.0177158
808.113	0.0177550
808.192	0.0177959
808.270	0.0178593
808.348	0.0177739
808.426	0.0177296
808.504	0.0177361
808.582	0.0178234
808.660	0.0177103
808.738	0.0176981
808.817	0.0177256
808.895	0.0175417
808.973	0.0175954
809.051	0.0176254
809.129	0.0174651
809.207	0.0175848
809.285	0.0177351
809.363	0.0178432
809.442	0.0177479
809.520	0.0178345
809.598	0.0178991
809.676	0.0179633
809.754	0.0180347
809.832	0.0179003
809.910	0.0179647
809.988	0.0179933
810.067	0.0179758
810.145	0.0178598
810.223	0.0180752
810.301	0.0179855
810.379	0.0179083
810.457	0.0179415
810.535	0.0178334
810.613	0.0179062
810.692	0.0178173
810.770	0.0177999
810.848	0.0179040
810.926	0.0180528
811.004	0.0178470
811.082	0.0179107
811.160	0.0178678
811.238	0.0178727
811.317	0.0179675
811.395	0.0178922
811.473	0.0177226
811.551	0.0176465
811.629	0.0177618
811.707	0.0178806
811.785	0.0177634
811.863	0.0178098
811.942	0.0176411
812.020	0.0177361
812.098	0.0175806
812.176	0.0176639
812.254	0.0175899
812.332	0.0175469
812.410	0.0177063
812.488	0.0176344
812.567	0.0176740
812.645	0.0177103
812.723	0.0177395
812.801	0.0177218
812.879	0.0177144
812.957	0.0178108
813.035	0.0177786
813.113	0.0179331
813.192	0.0178799
813.270	0.0177928
813.348	0.0179536
813.426	0.0178282
813.504	0.0176449
813.582	0.0176832
813.660	0.0178923
813.738	0.0177793
813.817	0.0177427
813.895	0.0177592
813.973	0.0176090
814.051	0.0179002
814.129	0.0179246
814.207	0.0179129
814.285	0.0177600
814.363	0.0179139
814.442	0.0179182
814.520	0.0177652
814.598	0.0177454
814.676	0.0179270
814.754	0.0178102
814.832	0.0178773
814.910	0.0178826
814.988	0.0177476
815.067	0.0178346
815.145	0.0178045
815.223	0.0179559
815.301	0.0179815
815.379	0.0177268
815.457	0.0177890
815.535	0.0177361
815.613	0.0178246
815.692	0.0177325
815.770	0.0178111
815.848	0.0178352
815.926	0.0178271
816.004	0.0176662
816.082	0.0176956
816.160	0.0177722
816.238	0.0178762
816.317	0.0177798
816.395	0.0176361
816.473	0.0176619
816.551	0.0176911
816.629	0.0175602
816.707	0.0177113
816.785	0.0176646
816.863	0.0175972
816.942	0.0176308
817.020	0.0176588
817.098	0.0176545
817.176	0.0177811
817.254	0.0177375
817.332	0.0176598
817.410	0.0176965
817.488	0.0176278
817.567	0.0178144
817.645	0.0177185
817.723	0.0178274
817.801	0.0176913
817.879	0.0176176
817.957	0.0176340
818.035	0.0176318
818.113	0.0176522
818.192	0.0176950
818.270	0.0176889
818.348	0.0177068
818.426	0.0175253
818.504	0.0176036
818.582	0.0176468
818.660	0.0176205
818.738	0.0178423
818.817	0.0178152
818.895	0.0176836
818.973	0.0178984
819.051	0.0179291
819.129	0.0179073
819.207	0.0178087
819.285	0.0178983
819.363	0.0178640
819.442	0.0180872
819.520	0.0178793
819.598	0.0178626
819.676	0.0179742
819.754	0.0178831
819.832	0.0178019
819.910	0.0177770
819.988	0.0177894
820.067	0.0177699
820.145	0.0178276
820.223	0.0177260
820.301	0.0176433
820.379	0.0177713
820.457	0.0178004
820.535	0.0177681
820.613	0.0178413
820.692	0.0178779
820.770	0.0179133
820.848	0.0179134
820.926	0.0179030
821.004	0.0180636
821.082	0.0179343
821.160	0.0179770
821.238	0.0179771
821.317	0.0179829
821.395	0.0180084
821.473	0.0179531
821.551	0.0179488
821.629	0.0180447
821.707	0.0178918
821.785	0.0177551
821.863	0.0177011
821.942	0.0174660
822.020	0.0176069
822.098	0.0176938
822.176	0.0176218
822.254	0.0175228
822.332	0.0174924
822.410	0.0174484
822.488	0.0175647
822.567	0.0175443
822.645	0.0176809
822.723	0.0175677
822.801	0.0176395
822.879	0.0175257
822.957	0.0176424
823.035	0.0177374
823.113	0.0177814
823.192	0.0176201
823.270	0.0176637
823.348	0.0177419
823.426	0.0176929
823.504	0.0176385
823.582	0.0176305
823.660	0.0176131
823.738	0.0176981
823.817	0.0177325
823.895	0.0175930
823.973	0.0176056
824.051	0.0176256
824.129	0.0176748
824.207	0.0177408
824.285	0.0178600
824.363	0.0178589
824.442	0.0177401
824.520	0.0178136
824.598	0.0178458
824.676	0.0177850
824.754	0.0178545
824.832	0.0177478
824.910	0.0179124
824.988	0.0177647
825.067	0.0178524
825.145	0.0178412
825.223	0.0178378
825.301	0.0178452
825.379	0.0176904
825.457	0.0176856
825.535	0.0176724
825.613	0.0176949
825.692	0.0176775
825.770	0.0176110
825.848	0.0177371
825.926	0.0177520
826.004	0.0176620
826.082	0.0175978
826.160	0.0179139
826.238	0.0178918
826.317	0.0177781
826.395	0.0176981
826.473	0.0180017
826.551	0.0180226
826.629	0.0178650
826.707	0.0179632
826.785	0.0178768
826.863	0.0180465
826.942	0.0180477
827.020	0.0178837
827.098	0.0176310
827.176	0.0177661
827.254	0.0179225
827.332	0.0177751
827.410	0.0177302
827.488	0.0177945
827.567	0.0177055
827.645	0.0177876
827.723	0.0178041
827.801	0.0176362
827.879	0.0178334
827.957	0.0177646
828.035	0.0177556
828.113	0.0177954
828.192	0.0177155
828.270	0.0179105
828.348	0.0178892
828.426	0.0177763
828.504	0.0175897
828.582	0.0176792
828.660	0.0177276
828.738	0.0178335
828.817	0.0176992
828.895	0.0177533
828.973	0.0176287
829.051	0.0176789
829.129	0.0177190
829.207	0.0176653
829.285	0.0176938
829.363	0.0176028
829.442	0.0175892
829.520	0.0177225
829.598	0.0177487
829.676	0.0177996
829.754	0.0177020
829.832	0.0176711
829.910	0.0177929
829.988	0.0177757
830.067	0.0177418
830.145	0.0178864
830.223	0.0177599
830.301	0.0177724
830.379	0.0177129
830.457	0.0178383
830.535	0.0177756
830.613	0.0178598
830.692	0.0177909
830.770	0.0178526
830.848	0.0177052
830.926	0.0178501
831.004	0.0177211
831.082	0.0178719
831.160	0.0177222
831.238	0.0178658
831.317	0.0177278
831.395	0.0177335
831.473	0.0177554
831.551	0.0177489
831.629	0.0178262
831.707	0.0178047
831.785	0.0176974
831.863	0.0176567
831.942	0.0177470
832.020	0.0177502
832.098	0.0178224
832.176	0.0178072
832.254	0.0176641
832.332	0.0178512
832.410	0.0178255
832.488	0.0176283
832.567	0.0176959
832.645	0.0177417
832.723	0.0177452
832.801	0.0176740
832.879	0.0177612
832.957	0.0178241
833.035	0.0178346
833.113	0.0176633
833.192	0.0177090
833.270	0.0177367
833.348	0.0178391
833.426	0.0179034
833.504	0.0176849
833.582	0.0177575
833.660	0.0179343
833.738	0.0177982
833.817	0.0178086
833.895	0.0177909
833.973	0.0178661
834.051	0.0178025
834.129	0.0178922
834.207	0.0177701
834.285	0.0177669
834.363	0.0178333
834.442	0.0177151
834.520	0.0177364
834.598	0.0177695
834.676	0.0178785
834.754	0.0177138
834.832	0.0177699
834.910	0.0177177
834.988	0.0176754
835.067	0.0178452
835.145	0.0177638
835.223	0.0178445
835.301	0.0176562
835.379	0.0177785
835.457	0.0178113
835.535	0.0178721
835.613	0.0178177
835.692	0.0178124
835.770	0.0178821
835.848	0.0178983
835.926	0.0178382
836.004	0.0179316
836.082	0.0179613
836.160	0.0179700
836.238	0.0178819
836.317	0.0178438
836.395	0.0178255
836.473	0.0177576
836.551	0.0178281
836.629	0.0177436
836.707	0.0178715
836.785	0.0178692
836.863	0.0177628
836.942	0.0176858
837.020	0.0175475
837.098	0.0175768
837.176	0.0178069
837.254	0.0176738
837.332	0.0176427
837.410	0.0176532
837.488	0.0175991
837.567	0.0176437
837.645	0.0176234
837.723	0.0176421
837.801	0.0175312
837.879	0.0177152
837.957	0.0177118
838.035	0.0177011
838.113	0.0177035
838.192	0.0177124
838.270	0.0177489
838.348	0.0177388
838.426	0.0178257
838.504	0.0178348
838.582	0.0177642
838.660	0.0178772
838.738	0.0176048
838.817	0.0178127
838.895	0.0179079
838.973	0.0177521
839.051	0.0176653
839.129	0.0177450
839.207	0.0175207
839.285	0.0177203
839.363	0.0178042
839.442	0.0177942
839.520	0.0177717
839.598	0.0177230
839.676	0.0177118
839.754	0.0178105
839.832	0.0177438
839.910	0.0176238
839.988	0.0176026
840.067	0.0176743
840.145	0.0178131
840.223	0.0178436
840.301	0.0178136
840.379	0.0178019
840.457	0.0178629
840.535	0.0178876
840.613	0.0178225
840.692	0.0177373
840.770	0.0178875
840.848	0.0180206
840.926	0.0180237
841.004	0.0179112
841.082	0.0180425
841.160	0.0178699
841.238	0.0179032
841.317	0.0179201
841.395	0.0178216
841.473	0.0178037
841.551	0.0178098
841.629	0.0178880
841.707	0.0176337
841.785	0.0177477
841.863	0.0177521
841.942	0.0177200
842.020	0.0176128
842.098	0.0178398
842.176	0.0179994
842.254	0.0178966
842.332	0.0177970
842.410	0.0177895
842.488	0.0177171
842.567	0.0177798
842.645	0.0178708
842.723	0.0179253
842.801	0.0177944
842.879	0.0178199
842.957	0.0178277
843.035	0.0178076
843.113	0.0178360
843.192	0.0177707
843.270	0.0177895
843.348	0.0179787
843.426	0.0178978
843.504	0.0176629
843.582	0.0178436
843.660	0.0179099
843.738	0.0177103
843.817	0.0178574
843.895	0.0177654
843.973	0.0177300
844.051	0.0177452
844.129	0.0177075
844.207	0.0176176
844.285	0.0176255
844.363	0.0177315
844.442	0.0175192
844.520	0.0175254
844.598	0.0175841
844.676	0.0177491
844.754	0.0176583
844.832	0.0176478
844.910	0.0177280
844.988	0.0177254
845.067	0.0177187
845.145	0.0178226
845.223	0.0178974
845.301	0.0179182
845.379	0.0178928
845.457	0.0178647
845.535	0.0179704
845.613	0.0179965
845.692	0.0179436
845.770	0.0179882
845.848	0.0178778
845.926	0.0177151
846.004	0.0178125
846.082	0.0175980
846.160	0.0176675
846.238	0.0176949
846.317	0.0176062
846.395	0.0175185
846.473	0.0176392
846.551	0.0175140
846.629	0.0174390
846.707	0.0174209
846.785	0.0175606
846.863	0.0175276
846.942	0.0175884
847.020	0.0176659
847.098	0.0176102
847.176	0.0177991
847.254	0.0176758
847.332	0.0178691
847.410	0.0177334
847.488	0.0177450
847.567	0.0178645
847.645	0.0178260
847.723	0.0177437
847.801	0.0178325
847.879	0.0178018
847.957	0.0178662
848.035	0.0177227
848.113	0.0178764
848.192	0.0179563
848.270	0.0178524
848.348	0.0177940
848.426	0.0177180
848.504	0.0177403
848.582	0.0177245
848.660	0.0176608
848.738	0.0178085
848.817	0.0178033
848.895	0.0178092
848.973	0.0177630
849.051	0.0178856
849.129	0.0178920
849.207	0.0179292
849.285	0.0179404
849.363	0.0180141
849.442	0.0179961
849.520	0.0179179
849.598	0.0178325
849.676	0.0180057
849.754	0.0181605
849.832	0.0178731
849.910	0.0180235
849.988	0.0179819
850.067	0.0179150
850.145	0.0180836
850.223	0.0179266
850.301	0.0177688
850.379	0.0178905
850.457	0.0177665
850.535	0.0179729
850.613	0.0177372
850.692	0.0178424
850.770	0.0177579
850.848	0.0178808
850.926	0.0177070
851.004	0.0177595
851.082	0.0177110
851.160	0.0175846
851.238	0.0174531
851.317	0.0175070
851.395	0.0174728
851.473	0.0174651
851.551	0.0175665
851.629	0.0175156
851.707	0.0174603
851.785	0.0174712
851.863	0.0173490
851.942	0.0175278
852.020	0.0176579
852.098	0.0176192
852.176	0.0175773
852.254	0.0175967
852.332	0.0178139
852.410	0.0177747
852.488	0.0177435
852.567	0.0178055
852.645	0.0178541
852.723	0.0178115
852.801	0.0178992
852.879	0.0177859
852.957	0.0178784
853.035	0.0177868
853.113	0.0177068
853.192	0.0178635
853.270	0.0177595
853.348	0.0176027
853.426	0.0177636
853.504	0.0176608
853.582	0.0177477
853.660	0.0178072
853.738	0.0178221
853.817	0.0177425
853.895	0.0178040
853.973	0.0178979
854.051	0.0179339
854.129	0.0178912
854.207	0.0179872
854.285	0.0180631
854.363	0.0181202
854.442	0.0180493
854.520	0.0179775
854.598	0.0179185
854.676	0.0179967
854.754	0.0180211
854.832	0.0179779
854.910	0.0180022
854.988	0.0179404
855.067	0.0178244
855.145	0.0180007
855.223	0.0177580
855.301	0.0176186
855.379	0.0176456
855.457	0.0175482
855.535	0.0175656
855.613	0.0175090
855.692	0.0175922
855.770	0.0175775
855.848	0.0174697
855.926	0.0174411
856.004	0.0175197
856.082	0.0173875
856.160	0.0175227
856.238	0.0175056
856.317	0.0175055
856.395	0.0174312
856.473	0.0176101
856.551	0.0178262
856.629	0.0176429
856.707	0.0176832
856.785	0.0178413
856.863	0.0179119
856.942	0.0178124
857.020	0.0179649
857.098	0.0179064
857.176	0.0179256
857.254	0.0180019
857.332	0.0179380
857.410	0.0179565
857.488	0.0179533
857.567	0.0179417
857.645	0.0178477
857.723	0.0179006
857.801	0.0179620
857.879	0.0179569
857.957	0.0179652
858.035	0.0179613
858.113	0.0180769
858.192	0.0179105
858.270	0.0179459
858.348	0.0179234
858.426	0.0179895
858.504	0.0179556
858.582	0.0180177
858.660	0.0178945
858.738	0.0179051
858.817	0.0179793
858.895	0.0179262
858.973	0.0179456
859.051	0.0179459
859.129	0.0179101
859.207	0.0180074
859.285	0.0179196
859.363	0.0178481
859.442	0.0176612
859.520	0.0177290
859.598	0.0176974
859.676	0.0176093
859.754	0.0175372
859.832	0.0177075
859.910	0.0176083
859.988	0.0178101
860.067	0.0176471
860.145	0.0175936
860.223	0.0176223
860.301	0.0175639
860.379	0.0176508
860.457	0.0178579
860.535	0.0177685
860.613	0.0176643
860.692	0.0178209
860.770	0.0177315
860.848	0.0176859
860.926	0.0176945
861.004	0.0176649
861.082	0.0176205
861.160	0.0176695
861.238	0.0175586
861.317	0.0175675
861.395	0.0175999
861.473	0.0175485
861.551	0.0175436
861.629	0.0176319
861.707	0.0175014
861.785	0.0174004
861.863	0.0175751
861.942	0.0174316
862.020	0.0175104
862.098	0.0175617
862.176	0.0174839
862.254	0.0175661
862.332	0.0174786
862.410	0.0176266
862.488	0.0176978
862.567	0.0176982
862.645	0.0176025
862.723	0.0176864
862.801	0.0176865
862.879	0.0177915
862.957	0.0177605
863.035	0.0178467
863.113	0.0179623
863.192	0.0178540
863.270	0.0178963
863.348	0.0177971
863.426	0.0179608
863.504	0.0179771
863.582	0.0178936
863.660	0.0179000
863.738	0.0178712
863.817	0.0178724
863.895	0.0180463
863.973	0.0179430
864.051	0.0179405
864.129	0.0180234
864.207	0.0179073
864.285	0.0179463
864.363	0.0179072
864.442	0.0179606
864.520	0.0178436
864.598	0.0178822
864.676	0.0178667
864.754	0.0177840
864.832	0.0177848
864.910	0.0177398
864.988	0.0176894
865.067	0.0178100
865.145	0.0178418
865.223	0.0177501
865.301	0.0179000
865.379	0.0176528
865.457	0.0175972
865.535	0.0176921
865.613	0.0177681
865.692	0.0176395
865.770	0.0177673
865.848	0.0177159
865.926	0.0176932
866.004	0.0177540
866.082	0.0178156
866.160	0.0177337
866.238	0.0176019
866.317	0.0175443
866.395	0.0177415
866.473	0.0177556
866.551	0.0175851
866.629	0.0177350
866.707	0.0178204
866.785	0.0177364
866.863	0.0176280
866.942	0.0177453
867.020	0.0177536
867.098	0.0177747
867.176	0.0177061
867.254	0.0175858
867.332	0.0177987
867.410	0.0179007
867.488	0.0176518
867.567	0.0177435
867.645	0.0177213
867.723	0.0178242
867.801	0.0176348
867.879	0.0177793
867.957	0.0176174
868.035	0.0177818
868.113	0.0178419
868.192	0.0177248
868.270	0.0177650
868.348	0.0175936
868.426	0.0176379
868.504	0.0178683
868.582	0.0176559
868.660	0.0176466
868.738	0.0176930
868.817	0.0177071
868.895	0.0177545
868.973	0.0177361
869.051	0.0177589
869.129	0.0176100
869.207	0.0177018
869.285	0.0177252
869.363	0.0177584
869.442	0.0176444
869.520	0.0176035
869.598	0.0178191
869.676	0.0177160
869.754	0.0177793
869.832	0.0177930
869.910	0.0177364
869.988	0.0176883
870.067	0.0175512
870.145	0.0176708
870.223	0.0178333
870.301	0.0177383
870.379	0.0177009
870.457	0.0177364
870.535	0.0177296
870.613	0.0176205
870.692	0.0177163
870.770	0.0177312
870.848	0.0177987
870.926	0.0178557
871.004	0.0178391
871.082	0.0177795
871.160	0.0178889
871.238	0.0179203
871.317	0.0179513
871.395	0.0179420
871.473	0.0178656
871.551	0.0178427
871.629	0.0179218
871.707	0.0179147
871.785	0.0179752
871.863	0.0178057
871.942	0.0178239
872.020	0.0178249
872.098	0.0178028
872.176	0.0178323
872.254	0.0178078
872.332	0.0177911
872.410	0.0178600
872.488	0.0177594
872.567	0.0177621
872.645	0.0175984
872.723	0.0177578
872.801	0.0176878
872.879	0.0177261
872.957	0.0178359
873.035	0.0177053
873.113	0.0177406
873.192	0.0177048
873.270	0.0177149
873.348	0.0178225
873.426	0.0179240
873.504	0.0179125
873.582	0.0178472
873.660	0.0178233
873.738	0.0179562
873.817	0.0180087
873.895	0.0178391
873.973	0.0177678
874.051	0.0178854
874.129	0.0179656
874.207	0.0178436
874.285	0.0178652
874.363	0.0177861
874.442	0.0178248
874.520	0.0177665
874.598	0.0178856
874.676	0.0177229
874.754	0.0177195
874.832	0.0177705
874.910	0.0176485
874.988	0.0176798
875.067	0.0175889
875.145	0.0176370
875.223	0.0176197
875.301	0.0175821
875.379	0.0175376
875.457	0.0175951
875.535	0.0174486
875.613	0.0176025
875.692	0.0176871
875.770	0.0176015
875.848	0.0175259
875.926	0.0176200
876.004	0.0176215
876.082	0.0176785
876.160	0.0177531
876.238	0.0177524
876.317	0.0178409
876.395	0.0177176
876.473	0.0175972
876.551	0.0175823
876.629	0.0177139
876.707	0.0177697
876.785	0.0177375
876.863	0.0177833
876.942	0.0177432
877.020	0.0176840
877.098	0.0177256
877.176	0.0178709
877.254	0.0179052
877.332	0.0177953
877.410	0.0178468
877.488	0.0179222
877.567	0.0179192
877.645	0.0177576
877.723	0.0179143
877.801	0.0179655
877.879	0.0180360
877.957	0.0180070
878.035	0.0178690
878.113	0.0179597
878.192	0.0178297
878.270	0.0180247
878.348	0.0178925
878.426	0.0177811
878.504	0.0178410
878.582	0.0178628
878.660	0.0179081
878.738	0.0176542
878.817	0.0177558
878.895	0.0179360
878.973	0.0179623
879.051	0.0178638
879.129	0.0179808
879.207	0.0179173
879.285	0.0179671
879.363	0.0178794
879.442	0.0179050
879.520	0.0180084
879.598	0.0178539
879.676	0.0178533
879.754	0.0178188
879.832	0.0178758
879.910	0.0178645
879.988	0.0177937
880.067	0.0179395
880.145	0.0177715
880.223	0.0177396
880.301	0.0178658
880.379	0.0178430
880.457	0.0179230
880.535	0.0177384
880.613	0.0176775
880.692	0.0176721
880.770	0.0176769
880.848	0.0176666
880.926	0.0175666
881.004	0.0175161
881.082	0.0176318
881.160	0.0175459
881.238	0.0175015
881.317	0.0174889
881.395	0.0174380
881.473	0.0174759
881.551	0.0176817
881.629	0.0174826
881.707	0.0174302
881.785	0.0175761
881.863	0.0175308
881.942	0.0178736
882.020	0.0176219
882.098	0.0176527
882.176	0.0176365
882.254	0.0176511
882.332	0.0176466
882.410	0.0178297
882.488	0.0176523
882.567	0.0177235
882.645	0.0177438
882.723	0.0179081
882.801	0.0178557
882.879	0.0178340
882.957	0.0178580
883.035	0.0176891
883.113	0.0178271
883.192	0.0177642
883.270	0.0177245
883.348	0.0175399
883.426	0.0175301
883.504	0.0176370
883.582	0.0176200
883.660	0.0175553
883.738	0.0177664
883.817	0.0178727
883.895	0.0178432
883.973	0.0179167
884.051	0.0181590
884.129	0.0181197
884.207	0.0183538
884.285	0.0184658
884.363	0.0183170
884.442	0.0183698
884.520	0.0184215
884.598	0.0181661
884.676	0.0181761
884.754	0.0179949
884.832	0.0178320
884.910	0.0175658
884.988	0.0174791
885.067	0.0174030
885.145	0.0172882
885.223	0.0171777
885.301	0.0172824
885.379	0.0173778
885.457	0.0174586
885.535	0.0175568
885.613	0.0177165
885.692	0.0177843
885.770	0.0179419
885.848	0.0181965
885.926	0.0182056
886.004	0.0182560
886.082	0.0182301
886.160	0.0184232
886.238	0.0183871
886.317	0.0182211
886.395	0.0181380
886.473	0.0179748
886.551	0.0180605
886.629	0.0178171
886.707	0.0175153
886.785	0.0175750
886.863	0.0175273
886.942	0.0173184
887.020	0.0172568
887.098	0.0171961
887.176	0.0171642
887.254	0.0170606
887.332	0.0171226
887.410	0.0170484
887.488	0.0174066
887.567	0.0174083
887.645	0.0174586
887.723	0.0176373
887.801	0.0176459
887.879	0.0177953
887.957	0.0179359
888.035	0.0180577
888.113	0.0180502
888.192	0.0180416
888.270	0.0180433
888.348	0.0180880
888.426	0.0179865
888.504	0.0179997
888.582	0.0180283
888.660	0.0179240
888.738	0.0177940
888.817	0.0178022
888.895	0.0177722
888.973	0.0177681
889.051	0.0177061
889.129	0.0177385
889.207	0.0177699
889.285	0.0178783
889.363	0.0176097
889.442	0.0176598
889.520	0.0177768
889.598	0.0176968
889.676	0.0178242
889.754	0.0177256
889.832	0.0176157
889.910	0.0175892
889.988	0.0177185
890.067	0.0175391
890.145	0.0175117
890.223	0.0175090
890.301	0.0176270
890.379	0.0174853
890.457	0.0175629
890.535	0.0175562
890.613	0.0176833
890.692	0.0178270
890.770	0.0178194
890.848	0.0178455
890.926	0.0178230
891.004	0.0178230
891.082	0.0179153
891.160	0.0179708
891.238	0.0181397
891.317	0.0179728
891.395	0.0180143
891.473	0.0181641
891.551	0.0182056
891.629	0.0181234
891.707	0.0183419
891.785	0.0181951
891.863	0.0182971
891.942	0.0182552
892.020	0.0181906
892.098	0.0182996
892.176	0.0181612
892.254	0.0181088
892.332	0.0180019
892.410	0.0177677
892.488	0.0178210
892.567	0.0177858
892.645	0.0176911
892.723	0.0174785
892.801	0.0174953
892.879	0.0173988
892.957	0.0173240
893.035	0.0172797
893.113	0.0172118
893.192	0.0174319
893.270	0.0174073
893.348	0.0173253
893.426	0.0172411
893.504	0.0172234
893.582	0.0174439
893.660	0.0175747
893.738	0.0175894
893.817	0.0176407
893.895	0.0176588
893.973	0.0177728
894.051	0.0176588
894.129	0.0176917
894.207	0.0177634
894.285	0.0176948
894.363	0.0177171
894.442	0.0176745
894.520	0.0177334
894.598	0.0178524
894.676	0.0178026
894.754	0.0176378
894.832	0.0177609
894.910	0.0177777
894.988	0.0176292
895.067	0.0177992
895.145	0.0177325
895.223	0.0178281
895.301	0.0178447
895.379	0.0178508
895.457	0.0178474
895.535	0.0177565
895.613	0.0178756
895.692	0.0177869
895.770	0.0179656
895.848	0.0179137
895.926	0.0178595
896.004	0.0178620
896.082	0.0178621
896.160	0.0178301
896.238	0.0179095
896.317	0.0179198
896.395	0.0179358
896.473	0.0179598
896.551	0.0178627
896.629	0.0179076
896.707	0.0180335
896.785	0.0177324
896.863	0.0178408
896.942	0.0179906
897.020	0.0179066
897.098	0.0179319
897.176	0.0178656
897.254	0.0177761
897.332	0.0176909
897.410	0.0178381
897.488	0.0176862
897.567	0.0177716
897.645	0.0178195
897.723	0.0177973
897.801	0.0177002
897.879	0.0177178
897.957	0.0175777
898.035	0.0177816
898.113	0.0176835
898.192	0.0177170
898.270	0.0176867
898.348	0.0178011
898.426	0.0177007
898.504	0.0177538
898.582	0.0178730
898.660	0.0178113
898.738	0.0178932
898.817	0.0178468
898.895	0.0178117
898.973	0.0179202
899.051	0.0178819
899.129	0.0177952
899.207	0.0179248
899.285	0.0179486
899.363	0.0179632
899.442	0.0179351
899.520	0.0180733
899.598	0.0178919
899.676	0.0179592
899.754	0.0179495
899.832	0.0178354
899.910	0.0179029
899.988	0.0177850
900.067	0.0177473
900.145	0.0177486
900.223	0.0176492
900.301	0.0177323
900.379	0.0175189
900.457	0.0175858
900.535	0.0175532
900.613	0.0175701
900.692	0.0176334
900.770	0.0175766
900.848	0.0175002
900.926	0.0177506
901.004	0.0177685
901.082	0.0177782
901.160	0.0178619
901.238	0.0179417
901.317	0.0178096
901.395	0.0178268
901.473	0.0179880
901.551	0.0177601
901.629	0.0179489
901.707	0.0177377
901.785	0.0177668
901.863	0.0178823
901.942	0.0179337
902.020	0.0177852
902.098	0.0177338
902.176	0.0176510
902.254	0.0177553
902.332	0.0177047
902.410	0.0176788
902.488	0.0176220
902.567	0.0177349
902.645	0.0177474
902.723	0.0176158
902.801	0.0175900
902.879	0.0176370
902.957	0.0176212
903.035	0.0177686
903.113	0.0175915
903.192	0.0177027
903.270	0.0178104
903.348	0.0176884
903.426	0.0177705
903.504	0.0177429
903.582	0.0176589
903.660	0.0177635
903.738	0.0176292
903.817	0.0177732
903.895	0.0176764
903.973	0.0177448
904.051	0.0177222
904.129	0.0175700
904.207	0.0176876
904.285	0.0177364
904.363	0.0176625
904.442	0.0177776
904.520	0.0177877
904.598	0.0178735
904.676	0.0179968
904.754	0.0179946
904.832	0.0179123
904.910	0.0179139
904.988	0.0178914
905.067	0.0178675
905.145	0.0178165
905.223	0.0178979
905.301	0.0177399
905.379	0.0176739
905.457	0.0176111
905.535	0.0177772
905.613	0.0175665
905.692	0.0174709
905.770	0.0176024
905.848	0.0175928
905.926	0.0176047
906.004	0.0176202
906.082	0.0175749
906.160	0.0175440
906.238	0.0175092
906.317	0.0175617
906.395	0.0178794
906.473	0.0178347
906.551	0.0178284
906.629	0.0178414
906.707	0.0177802
906.785	0.0179568
906.863	0.0179532
906.942	0.0179173
907.020	0.0179567
907.098	0.0179628
907.176	0.0180297
907.254	0.0179740
907.332	0.0180186
907.410	0.0178189
907.488	0.0179624
907.567	0.0178431
907.645	0.0178383
907.723	0.0179233
907.801	0.0177584
907.879	0.0177681
907.957	0.0177660
908.035	0.0178255
908.113	0.0175772
908.192	0.0175913
908.270	0.0176034
908.348	0.0176225
908.426	0.0175973
908.504	0.0175584
908.582	0.0174771
908.660	0.0174824
908.738	0.0176308
908.817	0.0176917
908.895	0.0174624
908.973	0.0174398
909.051	0.0175238
909.129	0.0175150
909.207	0.0176511
909.285	0.0177208
909.363	0.0176990
909.442	0.0177535
909.520	0.0178320
909.598	0.0177293
909.676	0.0177921
909.754	0.0176569
909.832	0.0178872
909.910	0.0177717
909.988	0.0178587
910.067	0.0179606
910.145	0.0178625
910.223	0.0179690
910.301	0.0177765
910.379	0.0177179
910.457	0.0178807
910.535	0.0178695
910.613	0.0177697
910.692	0.0177639
910.770	0.0178349
910.848	0.0176940
910.926	0.0177742
911.004	0.0177361
911.082	0.0177546
911.160	0.0178295
911.238	0.0177804
911.317	0.0177596
911.395	0.0177747
911.473	0.0177041
911.551	0.0178100
911.629	0.0178815
911.707	0.0178790
911.785	0.0179871
911.863	0.0179239
911.942	0.0179313
912.020	0.0180166
912.098	0.0178479
912.176	0.0177557
912.254	0.0177888
912.332	0.0179202
912.410	0.0178035
912.488	0.0177296
912.567	0.0178245
912.645	0.0177178
912.723	0.0177853
912.801	0.0179447
912.879	0.0176680
912.957	0.0177048
913.035	0.0176803
913.113	0.0176195
913.192	0.0177291
913.270	0.0177364
913.348	0.0176519
913.426	0.0177052
913.504	0.0176991
913.582	0.0176871
913.660	0.0178427
913.738	0.0178260
913.817	0.0177694
913.895	0.0176062
913.973	0.0179035
914.051	0.0178774
914.129	0.0178115
914.207	0.0177455
914.285	0.0177776
914.363	0.0179315
914.442	0.0177059
914.520	0.0178510
914.598	0.0180001
914.676	0.0180090
914.754	0.0179777
914.832	0.0180107
914.910	0.0179939
914.988	0.0180061
915.067	0.0179518
915.145	0.0178802
915.223	0.0179840
915.301	0.0179082
915.379	0.0178961
915.457	0.0178652
915.535	0.0177979
915.613	0.0178436
915.692	0.0177240
915.770	0.0173861
915.848	0.0176174
915.926	0.0176049
916.004	0.0175262
916.082	0.0175450
916.160	0.0175549
916.238	0.0173552
916.317	0.0173738
916.395	0.0175457
916.473	0.0173930
916.551	0.0174485
916.629	0.0174514
916.707	0.0176253
916.785	0.0176962
916.863	0.0175977
916.942	0.0177238
917.020	0.0177035
917.098	0.0177608
917.176	0.0178050
917.254	0.0178834
917.332	0.0179848
917.410	0.0179005
917.488	0.0178053
917.567	0.0178329
917.645	0.0177307
917.723	0.0179147
917.801	0.0177739
917.879	0.0176819
917.957	0.0178149
918.035	0.0177758
918.113	0.0176397
918.192	0.0177330
918.270	0.0175327
918.348	0.0175604
918.426	0.0177182
918.504	0.0178296
918.582	0.0177871
918.660	0.0176292
918.738	0.0176630
918.817	0.0177536
918.895	0.0177664
918.973	0.0177728
919.051	0.0176448
919.129	0.0177798
919.207	0.0178370
919.285	0.0178808
919.363	0.0179108
919.442	0.0178590
919.520	0.0178909
919.598	0.0178583
919.676	0.0177667
919.754	0.0180117
919.832	0.0179781
919.910	0.0178501
