06/01/2022	22:08:09	Ver.	4.1	UNKNOWN
Optical Delay	599.988409	Delta X		0.078125	Sweeps	1	Scan Rate	0/0
Coordinates	Axis 1	NaN	Axis 2	NaN	Axis 3	NaN	Axis 4	NaN	Axis 5	NaN	Axis 6	0.000000
TX Power	0.000000	RX Power	0.000000

599.988	0.0171075
600.067	0.0172028
600.145	0.0171151
600.223	0.0170539
600.301	0.0171645
600.379	0.0172160
600.457	0.0170358
600.535	0.0170757
600.613	0.0172186
600.692	0.0170956
600.770	0.0171873
600.848	0.0173512
600.926	0.0171322
601.004	0.0169332
601.082	0.0172364
601.160	0.0173246
601.238	0.0171783
601.317	0.0173900
601.395	0.0173118
601.473	0.0171995
601.551	0.0172540
601.629	0.0171670
601.707	0.0172464
601.785	0.0172871
601.863	0.0172150
601.942	0.0173060
602.020	0.0172565
602.098	0.0172580
602.176	0.0172120
602.254	0.0171340
602.332	0.0172006
602.410	0.0171634
602.488	0.0172603
602.567	0.0172404
602.645	0.0173154
602.723	0.0172324
602.801	0.0172655
602.879	0.0172421
602.957	0.0172955
603.035	0.0172170
603.113	0.0172261
603.192	0.0172186
603.270	0.0172136
603.348	0.0173356
603.426	0.0172314
603.504	0.0171931
603.582	0.0172887
603.660	0.0171838
603.738	0.0172060
603.817	0.0171181
603.895	0.0170370
603.973	0.0172394
604.051	0.0172055
604.129	0.0171678
604.207	0.0171569
604.285	0.0172005
604.363	0.0172619
604.442	0.0171173
604.520	0.0171436
604.598	0.0172186
604.676	0.0172971
604.754	0.0171722
604.832	0.0169262
604.910	0.0172140
604.988	0.0172453
605.067	0.0172327
605.145	0.0170262
605.223	0.0172179
605.301	0.0171947
605.379	0.0169599
605.457	0.0170963
605.535	0.0172195
605.613	0.0171503
605.692	0.0171578
605.770	0.0171418
605.848	0.0170094
605.926	0.0171318
606.004	0.0170954
606.082	0.0171978
606.160	0.0171585
606.238	0.0170451
606.317	0.0171056
606.395	0.0171377
606.473	0.0170601
606.551	0.0170744
606.629	0.0169628
606.707	0.0171182
606.785	0.0172036
606.863	0.0171890
606.942	0.0170743
607.020	0.0171034
607.098	0.0172691
607.176	0.0171743
607.254	0.0172802
607.332	0.0171001
607.410	0.0172493
607.488	0.0172713
607.567	0.0171575
607.645	0.0171552
607.723	0.0173037
607.801	0.0172065
607.879	0.0171170
607.957	0.0172751
608.035	0.0171781
608.113	0.0171786
608.192	0.0171100
608.270	0.0171690
608.348	0.0171870
608.426	0.0171844
608.504	0.0171808
608.582	0.0171545
608.660	0.0172284
608.738	0.0172807
608.817	0.0171136
608.895	0.0172318
608.973	0.0171826
609.051	0.0171780
609.129	0.0171454
609.207	0.0172150
609.285	0.0171420
609.363	0.0171607
609.442	0.0172599
609.520	0.0172376
609.598	0.0171736
609.676	0.0171159
609.754	0.0170649
609.832	0.0171710
609.910	0.0171967
609.988	0.0172693
610.067	0.0171864
610.145	0.0171758
610.223	0.0171974
610.301	0.0171568
610.379	0.0170711
610.457	0.0170611
610.535	0.0170892
610.613	0.0170660
610.692	0.0170784
610.770	0.0171812
610.848	0.0170602
610.926	0.0173219
611.004	0.0171976
611.082	0.0172670
611.160	0.0171980
611.238	0.0172074
611.317	0.0171794
611.395	0.0171139
611.473	0.0172486
611.551	0.0172588
611.629	0.0171892
611.707	0.0172183
611.785	0.0170709
611.863	0.0171937
611.942	0.0172274
612.020	0.0172543
612.098	0.0172007
612.176	0.0171857
612.254	0.0172678
612.332	0.0172421
612.410	0.0171586
612.488	0.0171236
612.567	0.0170621
612.645	0.0172707
612.723	0.0171953
612.801	0.0171846
612.879	0.0173220
612.957	0.0171782
613.035	0.0171983
613.113	0.0170752
613.192	0.0171651
613.270	0.0171719
613.348	0.0171497
613.426	0.0171947
613.504	0.0170810
613.582	0.0171993
613.660	0.0172341
613.738	0.0172528
613.817	0.0172023
613.895	0.0171511
613.973	0.0172512
614.051	0.0171877
614.129	0.0171356
614.207	0.0171951
614.285	0.0172925
614.363	0.0172810
614.442	0.0171244
614.520	0.0172426
614.598	0.0171486
614.676	0.0172453
614.754	0.0172549
614.832	0.0172681
614.910	0.0171729
614.988	0.0172399
615.067	0.0172279
615.145	0.0172227
615.223	0.0171136
615.301	0.0171298
615.379	0.0171532
615.457	0.0171105
615.535	0.0171022
615.613	0.0171160
615.692	0.0170970
615.770	0.0172621
615.848	0.0171950
615.926	0.0172048
616.004	0.0172137
616.082	0.0171571
616.160	0.0170974
616.238	0.0171146
616.317	0.0171352
616.395	0.0170326
616.473	0.0171655
616.551	0.0171053
616.629	0.0170522
616.707	0.0170525
616.785	0.0170149
616.863	0.0171199
616.942	0.0170325
617.020	0.0171032
617.098	0.0170486
617.176	0.0168997
617.254	0.0169514
617.332	0.0168983
617.410	0.0170602
617.488	0.0170644
617.567	0.0167986
617.645	0.0169691
617.723	0.0171691
617.801	0.0170119
617.879	0.0168333
617.957	0.0168736
618.035	0.0170259
618.113	0.0170142
618.192	0.0170370
618.270	0.0170271
618.348	0.0169513
618.426	0.0169265
618.504	0.0169579
618.582	0.0169754
618.660	0.0168768
618.738	0.0170172
618.817	0.0170004
618.895	0.0168729
618.973	0.0169193
619.051	0.0169730
619.129	0.0170205
619.207	0.0169579
619.285	0.0169441
619.363	0.0167928
619.442	0.0167915
619.520	0.0170078
619.598	0.0169953
619.676	0.0169874
619.754	0.0170538
619.832	0.0170672
619.910	0.0169304
619.988	0.0169153
620.067	0.0169955
620.145	0.0170218
620.223	0.0170588
620.301	0.0170425
620.379	0.0170631
620.457	0.0170406
620.535	0.0169867
620.613	0.0169676
620.692	0.0170215
620.770	0.0170592
620.848	0.0170023
620.926	0.0170654
621.004	0.0168777
621.082	0.0171264
621.160	0.0171667
621.238	0.0170660
621.317	0.0170803
621.395	0.0169809
621.473	0.0169868
621.551	0.0171735
621.629	0.0170904
621.707	0.0171810
621.785	0.0169834
621.863	0.0170306
621.942	0.0170601
622.020	0.0170704
622.098	0.0172290
622.176	0.0170560
622.254	0.0169640
622.332	0.0171498
622.410	0.0171214
622.488	0.0170816
622.567	0.0171423
622.645	0.0173084
622.723	0.0171952
622.801	0.0171099
622.879	0.0172125
622.957	0.0172549
623.035	0.0172451
623.113	0.0171978
623.192	0.0172054
623.270	0.0171632
623.348	0.0171799
623.426	0.0172509
623.504	0.0172433
623.582	0.0171487
623.660	0.0172424
623.738	0.0171906
623.817	0.0171568
623.895	0.0171247
623.973	0.0170016
624.051	0.0171526
624.129	0.0171990
624.207	0.0173634
624.285	0.0172823
624.363	0.0170654
624.442	0.0171536
624.520	0.0172519
624.598	0.0170127
624.676	0.0169563
624.754	0.0171391
624.832	0.0171558
624.910	0.0170934
624.988	0.0171164
625.067	0.0171663
625.145	0.0171474
625.223	0.0171902
625.301	0.0171207
625.379	0.0170464
625.457	0.0171107
625.535	0.0172011
625.613	0.0172871
625.692	0.0170933
625.770	0.0170852
625.848	0.0172355
625.926	0.0171275
626.004	0.0170554
626.082	0.0170953
626.160	0.0171429
626.238	0.0171007
626.317	0.0171423
626.395	0.0171262
626.473	0.0169985
626.551	0.0171516
626.629	0.0172039
626.707	0.0171436
626.785	0.0171302
626.863	0.0171496
626.942	0.0172118
627.020	0.0170144
627.098	0.0170975
627.176	0.0171881
627.254	0.0170353
627.332	0.0171064
627.410	0.0170895
627.488	0.0170754
627.567	0.0171684
627.645	0.0169275
627.723	0.0170914
627.801	0.0171288
627.879	0.0170771
627.957	0.0172339
628.035	0.0170683
628.113	0.0170673
628.192	0.0170244
628.270	0.0170708
628.348	0.0170927
628.426	0.0171640
628.504	0.0170594
628.582	0.0171001
628.660	0.0172166
628.738	0.0172136
628.817	0.0171678
628.895	0.0170831
628.973	0.0170612
629.051	0.0171803
629.129	0.0172677
629.207	0.0170885
629.285	0.0171114
629.363	0.0171603
629.442	0.0171446
629.520	0.0171689
629.598	0.0172266
629.676	0.0172109
629.754	0.0172014
629.832	0.0171049
629.910	0.0171918
629.988	0.0171567
630.067	0.0170963
630.145	0.0170972
630.223	0.0171851
630.301	0.0172086
630.379	0.0171722
630.457	0.0171661
630.535	0.0172503
630.613	0.0171716
630.692	0.0172448
630.770	0.0171815
630.848	0.0171719
630.926	0.0171607
631.004	0.0174321
631.082	0.0172037
631.160	0.0170361
631.238	0.0173490
631.317	0.0172163
631.395	0.0171262
631.473	0.0173449
631.551	0.0173131
631.629	0.0172968
631.707	0.0171983
631.785	0.0172248
631.863	0.0171244
631.942	0.0171993
632.020	0.0172570
632.098	0.0172114
632.176	0.0173351
632.254	0.0173328
632.332	0.0172159
632.410	0.0173145
632.488	0.0173398
632.567	0.0172563
632.645	0.0172891
632.723	0.0172789
632.801	0.0172142
632.879	0.0171730
632.957	0.0172787
633.035	0.0171363
633.113	0.0171861
633.192	0.0173913
633.270	0.0174403
633.348	0.0173338
633.426	0.0171503
633.504	0.0173705
633.582	0.0170717
633.660	0.0171097
633.738	0.0173265
633.817	0.0171356
633.895	0.0171391
633.973	0.0171167
634.051	0.0171726
634.129	0.0170839
634.207	0.0171009
634.285	0.0171772
634.363	0.0171716
634.442	0.0169933
634.520	0.0170356
634.598	0.0171778
634.676	0.0170514
634.754	0.0171529
634.832	0.0170731
634.910	0.0169527
634.988	0.0172525
635.067	0.0171395
635.145	0.0169598
635.223	0.0170358
635.301	0.0169331
635.379	0.0171505
635.457	0.0170875
635.535	0.0169963
635.613	0.0170370
635.692	0.0172111
635.770	0.0169896
635.848	0.0171153
635.926	0.0172110
636.004	0.0170125
636.082	0.0171661
636.160	0.0170454
636.238	0.0172603
636.317	0.0172039
636.395	0.0171171
636.473	0.0171250
636.551	0.0169692
636.629	0.0170468
636.707	0.0171772
636.785	0.0171317
636.863	0.0170116
636.942	0.0171177
637.020	0.0170244
637.098	0.0171245
637.176	0.0170750
637.254	0.0169375
637.332	0.0169930
637.410	0.0171422
637.488	0.0171291
637.567	0.0169961
637.645	0.0169955
637.723	0.0171209
637.801	0.0169669
637.879	0.0170039
637.957	0.0170481
638.035	0.0171242
638.113	0.0169581
638.192	0.0171263
638.270	0.0169804
638.348	0.0169753
638.426	0.0169215
638.504	0.0171121
638.582	0.0170057
638.660	0.0169892
638.738	0.0170658
638.817	0.0171629
638.895	0.0170449
638.973	0.0171462
639.051	0.0171061
639.129	0.0172703
639.207	0.0170813
639.285	0.0171117
639.363	0.0170955
639.442	0.0171369
639.520	0.0171819
639.598	0.0171512
639.676	0.0170006
639.754	0.0170840
639.832	0.0171555
639.910	0.0170837
639.988	0.0171919
640.067	0.0170895
640.145	0.0169559
640.223	0.0170082
640.301	0.0170107
640.379	0.0170913
640.457	0.0170703
640.535	0.0171486
640.613	0.0172132
640.692	0.0170308
640.770	0.0171314
640.848	0.0169514
640.926	0.0170316
641.004	0.0170770
641.082	0.0170783
641.160	0.0169804
641.238	0.0171080
641.317	0.0171214
641.395	0.0172089
641.473	0.0171819
641.551	0.0171214
641.629	0.0171487
641.707	0.0170840
641.785	0.0170135
641.863	0.0172484
641.942	0.0170898
642.020	0.0172134
642.098	0.0171959
642.176	0.0172166
642.254	0.0171061
642.332	0.0172071
642.410	0.0171171
642.488	0.0171416
642.567	0.0171776
642.645	0.0171801
642.723	0.0170380
642.801	0.0172401
642.879	0.0171713
642.957	0.0171640
643.035	0.0170514
643.113	0.0171902
643.192	0.0172115
643.270	0.0171040
643.348	0.0171011
643.426	0.0171426
643.504	0.0170112
643.582	0.0171509
643.660	0.0169593
643.738	0.0170876
643.817	0.0170279
643.895	0.0170135
643.973	0.0170522
644.051	0.0172610
644.129	0.0170512
644.207	0.0170690
644.285	0.0171261
644.363	0.0169838
644.442	0.0171458
644.520	0.0170864
644.598	0.0172338
644.676	0.0172090
644.754	0.0171895
644.832	0.0170966
644.910	0.0171896
644.988	0.0172637
645.067	0.0172433
645.145	0.0172449
645.223	0.0171386
645.301	0.0172842
645.379	0.0172370
645.457	0.0172101
645.535	0.0171510
645.613	0.0172018
645.692	0.0171249
645.770	0.0171995
645.848	0.0172237
645.926	0.0172394
646.004	0.0171760
646.082	0.0171140
646.160	0.0171335
646.238	0.0171789
646.317	0.0169116
646.395	0.0170079
646.473	0.0170689
646.551	0.0171617
646.629	0.0170446
646.707	0.0170789
646.785	0.0170283
646.863	0.0171770
646.942	0.0170969
647.020	0.0172502
647.098	0.0170199
647.176	0.0170257
647.254	0.0171462
647.332	0.0172608
647.410	0.0172739
647.488	0.0172141
647.567	0.0173479
647.645	0.0172871
647.723	0.0172969
647.801	0.0172914
647.879	0.0173169
647.957	0.0173905
648.035	0.0173424
648.113	0.0173354
648.192	0.0173014
648.270	0.0172366
648.348	0.0173865
648.426	0.0173632
648.504	0.0174866
648.582	0.0174259
648.660	0.0173770
648.738	0.0174304
648.817	0.0174026
648.895	0.0173624
648.973	0.0174711
649.051	0.0174447
649.129	0.0173601
649.207	0.0174398
649.285	0.0174453
649.363	0.0173569
649.442	0.0174153
649.520	0.0172922
649.598	0.0173865
649.676	0.0172663
649.754	0.0173223
649.832	0.0171605
649.910	0.0172106
649.988	0.0173794
650.067	0.0171443
650.145	0.0171191
650.223	0.0171751
650.301	0.0171828
650.379	0.0172973
650.457	0.0172990
650.535	0.0170976
650.613	0.0171292
650.692	0.0171151
650.770	0.0172718
650.848	0.0172343
650.926	0.0171284
651.004	0.0171356
651.082	0.0171827
651.160	0.0170750
651.238	0.0171947
651.317	0.0172537
651.395	0.0171088
651.473	0.0172298
651.551	0.0173145
651.629	0.0172247
651.707	0.0172651
651.785	0.0172769
651.863	0.0172668
651.942	0.0173067
652.020	0.0172540
652.098	0.0172521
652.176	0.0172880
652.254	0.0171976
652.332	0.0173031
652.410	0.0173000
652.488	0.0172129
652.567	0.0173112
652.645	0.0173476
652.723	0.0171977
652.801	0.0174189
652.879	0.0173612
652.957	0.0173106
653.035	0.0173505
653.113	0.0172198
653.192	0.0173215
653.270	0.0173016
653.348	0.0173854
653.426	0.0173852
653.504	0.0172012
653.582	0.0173530
653.660	0.0174212
653.738	0.0173479
653.817	0.0172016
653.895	0.0173509
653.973	0.0171831
654.051	0.0171605
654.129	0.0172007
654.207	0.0173428
654.285	0.0172121
654.363	0.0172098
654.442	0.0171151
654.520	0.0172565
654.598	0.0171794
654.676	0.0172292
654.754	0.0171529
654.832	0.0172444
654.910	0.0172751
654.988	0.0172426
655.067	0.0170207
655.145	0.0171561
655.223	0.0172135
655.301	0.0172767
655.379	0.0170944
655.457	0.0171040
655.535	0.0171769
655.613	0.0170370
655.692	0.0171360
655.770	0.0170908
655.848	0.0170748
655.926	0.0172031
656.004	0.0171751
656.082	0.0171413
656.160	0.0170900
656.238	0.0170750
656.317	0.0170251
656.395	0.0171502
656.473	0.0170090
656.551	0.0172054
656.629	0.0170701
656.707	0.0170610
656.785	0.0170441
656.863	0.0169184
656.942	0.0170184
657.020	0.0168555
657.098	0.0169434
657.176	0.0171799
657.254	0.0170171
657.332	0.0169077
657.410	0.0170466
657.488	0.0169213
657.567	0.0170827
657.645	0.0169473
657.723	0.0169024
657.801	0.0168867
657.879	0.0169688
657.957	0.0168757
658.035	0.0169033
658.113	0.0169868
658.192	0.0169897
658.270	0.0170761
658.348	0.0170432
658.426	0.0170428
658.504	0.0170370
658.582	0.0169572
658.660	0.0170887
658.738	0.0170565
658.817	0.0169919
658.895	0.0170035
658.973	0.0169967
659.051	0.0171146
659.129	0.0170060
659.207	0.0169909
659.285	0.0170609
659.363	0.0169807
659.442	0.0170597
659.520	0.0169920
659.598	0.0169266
659.676	0.0169093
659.754	0.0170736
659.832	0.0169836
659.910	0.0169430
659.988	0.0169644
660.067	0.0168625
660.145	0.0169931
660.223	0.0170997
660.301	0.0169907
660.379	0.0168645
660.457	0.0170589
660.535	0.0169675
660.613	0.0169897
660.692	0.0167710
660.770	0.0170226
660.848	0.0170763
660.926	0.0169615
661.004	0.0169854
661.082	0.0171868
661.160	0.0169408
661.238	0.0171521
661.317	0.0171301
661.395	0.0171126
661.473	0.0171349
661.551	0.0170275
661.629	0.0170854
661.707	0.0170697
661.785	0.0170341
661.863	0.0171925
661.942	0.0171570
662.020	0.0172078
662.098	0.0170661
662.176	0.0170773
662.254	0.0172164
662.332	0.0171494
662.410	0.0172510
662.488	0.0171697
662.567	0.0172238
662.645	0.0171585
662.723	0.0171631
662.801	0.0172266
662.879	0.0171133
662.957	0.0172565
663.035	0.0172175
663.113	0.0172562
663.192	0.0172740
663.270	0.0172543
663.348	0.0173304
663.426	0.0172291
663.504	0.0172788
663.582	0.0173373
663.660	0.0173277
663.738	0.0173705
663.817	0.0173058
663.895	0.0173287
663.973	0.0173281
664.051	0.0172546
664.129	0.0172047
664.207	0.0174409
664.285	0.0173313
664.363	0.0172730
664.442	0.0174274
664.520	0.0173080
664.598	0.0173699
664.676	0.0172880
664.754	0.0172649
664.832	0.0171227
664.910	0.0171406
664.988	0.0171829
665.067	0.0171335
665.145	0.0173874
665.223	0.0171872
665.301	0.0170908
665.379	0.0171540
665.457	0.0172110
665.535	0.0172234
665.613	0.0171735
665.692	0.0172101
665.770	0.0172202
665.848	0.0171409
665.926	0.0172148
666.004	0.0173866
666.082	0.0171694
666.160	0.0171983
666.238	0.0171237
666.317	0.0172380
666.395	0.0171192
666.473	0.0171910
666.551	0.0171127
666.629	0.0171027
666.707	0.0172099
666.785	0.0171539
666.863	0.0172330
666.942	0.0172629
667.020	0.0171268
667.098	0.0171822
667.176	0.0172614
667.254	0.0171548
667.332	0.0172095
667.410	0.0172015
667.488	0.0171088
667.567	0.0171752
667.645	0.0171185
667.723	0.0170731
667.801	0.0171196
667.879	0.0172246
667.957	0.0171280
668.035	0.0171859
668.113	0.0171396
668.192	0.0171938
668.270	0.0169951
668.348	0.0171069
668.426	0.0170615
668.504	0.0171584
668.582	0.0168839
668.660	0.0170760
668.738	0.0171288
668.817	0.0170681
668.895	0.0171699
668.973	0.0172005
669.051	0.0172606
669.129	0.0172237
669.207	0.0172097
669.285	0.0172963
669.363	0.0173636
669.442	0.0173180
669.520	0.0172173
669.598	0.0173089
669.676	0.0173352
669.754	0.0173045
669.832	0.0173817
669.910	0.0173692
669.988	0.0173319
670.067	0.0172443
670.145	0.0172478
670.223	0.0172527
670.301	0.0172663
670.379	0.0173158
670.457	0.0173796
670.535	0.0172264
670.613	0.0171632
670.692	0.0172569
670.770	0.0172822
670.848	0.0171945
670.926	0.0171947
671.004	0.0172773
671.082	0.0173406
671.160	0.0174043
671.238	0.0173624
671.317	0.0173316
671.395	0.0173774
671.473	0.0173438
671.551	0.0174070
671.629	0.0174728
671.707	0.0173982
671.785	0.0174716
671.863	0.0172942
671.942	0.0173389
672.020	0.0173063
672.098	0.0173474
672.176	0.0172681
672.254	0.0171545
672.332	0.0172922
672.410	0.0172467
672.488	0.0171795
672.567	0.0171931
672.645	0.0172152
672.723	0.0171771
672.801	0.0171600
672.879	0.0170898
672.957	0.0170987
673.035	0.0171035
673.113	0.0171161
673.192	0.0171864
673.270	0.0173295
673.348	0.0172144
673.426	0.0171210
673.504	0.0172305
673.582	0.0173174
673.660	0.0174702
673.738	0.0173551
673.817	0.0173450
673.895	0.0173125
673.973	0.0173651
674.051	0.0173602
674.129	0.0173226
674.207	0.0172900
674.285	0.0174233
674.363	0.0173458
674.442	0.0173240
674.520	0.0171806
674.598	0.0171600
674.676	0.0170913
674.754	0.0172001
674.832	0.0171983
674.910	0.0169525
674.988	0.0170724
675.067	0.0170792
675.145	0.0170724
675.223	0.0169252
675.301	0.0169328
675.379	0.0169372
675.457	0.0171436
675.535	0.0172150
675.613	0.0171229
675.692	0.0171084
675.770	0.0172035
675.848	0.0172731
675.926	0.0171338
676.004	0.0172884
676.082	0.0173277
676.160	0.0173721
676.238	0.0172888
676.317	0.0173717
676.395	0.0173316
676.473	0.0172287
676.551	0.0171700
676.629	0.0171561
676.707	0.0171702
676.785	0.0170764
676.863	0.0171193
676.942	0.0169927
677.020	0.0170414
677.098	0.0170065
677.176	0.0171075
677.254	0.0170885
677.332	0.0171101
677.410	0.0172958
677.488	0.0170744
677.567	0.0171295
677.645	0.0172508
677.723	0.0173248
677.801	0.0174461
677.879	0.0172910
677.957	0.0173450
678.035	0.0174149
678.113	0.0174500
678.192	0.0173472
678.270	0.0173861
678.348	0.0174111
678.426	0.0172785
678.504	0.0172467
678.582	0.0172269
678.660	0.0173031
678.738	0.0172134
678.817	0.0170497
678.895	0.0170668
678.973	0.0169515
679.051	0.0168066
679.129	0.0168205
679.207	0.0169640
679.285	0.0168961
679.363	0.0169386
679.442	0.0170145
679.520	0.0168765
679.598	0.0167522
679.676	0.0169154
679.754	0.0169623
679.832	0.0169864
679.910	0.0170074
679.988	0.0169348
680.067	0.0169891
680.145	0.0170544
680.223	0.0171284
680.301	0.0170083
680.379	0.0170381
680.457	0.0170242
680.535	0.0170235
680.613	0.0170947
680.692	0.0171291
680.770	0.0171008
680.848	0.0171090
680.926	0.0171634
681.004	0.0173680
681.082	0.0172017
681.160	0.0173125
681.238	0.0174741
681.317	0.0174067
681.395	0.0173726
681.473	0.0173843
681.551	0.0173408
681.629	0.0175806
681.707	0.0175094
681.785	0.0173668
681.863	0.0173662
681.942	0.0172729
682.020	0.0174075
682.098	0.0171784
682.176	0.0171395
682.254	0.0170600
682.332	0.0169814
682.410	0.0169289
682.488	0.0170539
682.567	0.0168254
682.645	0.0168097
682.723	0.0167238
682.801	0.0167195
682.879	0.0165702
682.957	0.0166172
683.035	0.0165248
683.113	0.0168075
683.192	0.0166689
683.270	0.0167163
683.348	0.0169353
683.426	0.0169000
683.504	0.0169895
683.582	0.0170602
683.660	0.0172249
683.738	0.0173053
683.817	0.0174065
683.895	0.0174034
683.973	0.0175408
684.051	0.0177435
684.129	0.0179623
684.207	0.0176321
684.285	0.0177436
684.363	0.0177354
684.442	0.0177341
684.520	0.0177908
684.598	0.0178207
684.676	0.0176954
684.754	0.0174867
684.832	0.0174702
684.910	0.0174569
684.988	0.0172900
685.067	0.0172275
685.145	0.0172789
685.223	0.0169549
685.301	0.0169724
685.379	0.0167347
685.457	0.0167627
685.535	0.0166836
685.613	0.0167031
685.692	0.0166300
685.770	0.0165646
685.848	0.0165086
685.926	0.0166347
686.004	0.0164819
686.082	0.0164223
686.160	0.0163782
686.238	0.0164462
686.317	0.0166331
686.395	0.0165171
686.473	0.0167645
686.551	0.0168810
686.629	0.0168294
686.707	0.0167054
686.785	0.0168230
686.863	0.0170713
686.942	0.0171923
687.020	0.0172892
687.098	0.0174927
687.176	0.0174850
687.254	0.0173916
687.332	0.0177455
687.410	0.0177885
687.488	0.0176022
687.567	0.0177538
687.645	0.0180559
687.723	0.0179172
687.801	0.0179281
687.879	0.0179240
687.957	0.0179984
688.035	0.0178814
688.113	0.0177676
688.192	0.0177041
688.270	0.0176234
688.348	0.0176002
688.426	0.0175564
688.504	0.0174516
688.582	0.0173979
688.660	0.0172692
688.738	0.0168597
688.817	0.0168905
688.895	0.0168689
688.973	0.0167886
689.051	0.0165476
689.129	0.0165939
689.207	0.0164751
689.285	0.0163305
689.363	0.0161647
689.442	0.0162676
689.520	0.0163612
689.598	0.0161277
689.676	0.0162097
689.754	0.0163434
689.832	0.0164036
689.910	0.0163013
689.988	0.0164679
690.067	0.0165649
690.145	0.0166788
690.223	0.0167372
690.301	0.0169032
690.379	0.0170726
690.457	0.0171758
690.535	0.0172075
690.613	0.0173533
690.692	0.0175199
690.770	0.0176416
690.848	0.0176906
690.926	0.0176649
691.004	0.0176608
691.082	0.0176604
691.160	0.0176808
691.238	0.0177805
691.317	0.0176904
691.395	0.0176017
691.473	0.0176404
691.551	0.0176947
691.629	0.0177818
691.707	0.0177580
691.785	0.0176863
691.863	0.0175466
691.942	0.0176585
692.020	0.0176140
692.098	0.0177044
692.176	0.0175446
692.254	0.0176159
692.332	0.0175877
692.410	0.0176202
692.488	0.0174420
692.567	0.0172839
692.645	0.0173643
692.723	0.0174080
692.801	0.0171900
692.879	0.0172772
692.957	0.0172803
693.035	0.0170479
693.113	0.0170509
693.192	0.0169883
693.270	0.0168564
693.348	0.0168938
693.426	0.0166706
693.504	0.0166270
693.582	0.0166685
693.660	0.0166103
693.738	0.0165013
693.817	0.0164491
693.895	0.0164414
693.973	0.0163171
694.051	0.0164318
694.129	0.0164605
694.207	0.0163763
694.285	0.0163357
694.363	0.0163169
694.442	0.0165109
694.520	0.0166020
694.598	0.0165681
694.676	0.0163119
694.754	0.0164060
694.832	0.0164852
694.910	0.0165704
694.988	0.0165179
695.067	0.0166225
695.145	0.0167816
695.223	0.0166564
695.301	0.0166591
695.379	0.0168903
695.457	0.0168676
695.535	0.0170666
695.613	0.0172263
695.692	0.0170612
695.770	0.0173174
695.848	0.0174683
695.926	0.0176645
696.004	0.0176370
696.082	0.0178578
696.160	0.0178863
696.238	0.0179478
696.317	0.0180564
696.395	0.0181478
696.473	0.0181355
696.551	0.0181576
696.629	0.0182381
696.707	0.0180960
696.785	0.0182813
696.863	0.0185168
696.942	0.0184367
697.020	0.0183050
697.098	0.0183936
697.176	0.0185177
697.254	0.0184112
697.332	0.0183969
697.410	0.0184414
697.488	0.0183242
697.567	0.0180522
697.645	0.0179410
697.723	0.0177238
697.801	0.0174930
697.879	0.0173870
697.957	0.0172045
698.035	0.0168760
698.113	0.0167608
698.192	0.0164755
698.270	0.0161861
698.348	0.0160517
698.426	0.0158881
698.504	0.0156720
698.582	0.0156404
698.660	0.0155737
698.738	0.0154285
698.817	0.0155163
698.895	0.0154731
698.973	0.0154620
699.051	0.0154820
699.129	0.0155460
699.207	0.0155349
699.285	0.0156691
699.363	0.0156898
699.442	0.0157334
699.520	0.0159724
699.598	0.0160357
699.676	0.0163535
699.754	0.0162579
699.832	0.0163916
699.910	0.0166093
699.988	0.0168091
700.067	0.0168752
700.145	0.0171908
700.223	0.0172985
700.301	0.0173988
700.379	0.0174451
700.457	0.0177625
700.535	0.0177956
700.613	0.0178778
700.692	0.0179086
700.770	0.0179905
700.848	0.0181276
700.926	0.0183539
701.004	0.0182144
701.082	0.0182350
701.160	0.0184969
701.238	0.0183221
701.317	0.0183160
701.395	0.0182658
701.473	0.0183737
701.551	0.0183497
701.629	0.0182579
701.707	0.0183581
701.785	0.0183189
701.863	0.0181938
701.942	0.0180965
702.020	0.0179699
702.098	0.0179385
702.176	0.0178481
702.254	0.0178543
702.332	0.0176467
702.410	0.0176163
702.488	0.0175712
702.567	0.0174872
702.645	0.0172747
702.723	0.0171529
702.801	0.0172116
702.879	0.0171169
702.957	0.0168382
703.035	0.0168963
703.113	0.0167748
703.192	0.0165723
703.270	0.0163573
703.348	0.0163740
703.426	0.0161901
703.504	0.0160438
703.582	0.0161082
703.660	0.0160465
703.738	0.0159393
703.817	0.0156851
703.895	0.0157352
703.973	0.0158153
704.051	0.0157906
704.129	0.0157094
704.207	0.0156181
704.285	0.0158022
704.363	0.0157675
704.442	0.0158752
704.520	0.0159917
704.598	0.0159967
704.676	0.0160686
704.754	0.0160628
704.832	0.0164400
704.910	0.0163443
704.988	0.0164445
705.067	0.0166772
705.145	0.0167854
705.223	0.0169025
705.301	0.0169530
705.379	0.0171751
705.457	0.0173756
705.535	0.0174286
705.613	0.0178053
705.692	0.0179128
705.770	0.0181762
705.848	0.0183788
705.926	0.0184374
706.004	0.0185960
706.082	0.0187119
706.160	0.0187293
706.238	0.0187859
706.317	0.0188671
706.395	0.0187079
706.473	0.0186240
706.551	0.0186357
706.629	0.0185994
706.707	0.0186993
706.785	0.0183957
706.863	0.0182030
706.942	0.0181492
707.020	0.0179316
707.098	0.0177801
707.176	0.0177180
707.254	0.0177232
707.332	0.0175018
707.410	0.0174683
707.488	0.0174847
707.567	0.0173544
707.645	0.0173607
707.723	0.0172533
707.801	0.0171629
707.879	0.0172761
707.957	0.0172318
708.035	0.0171658
708.113	0.0170753
708.192	0.0169715
708.270	0.0169607
708.348	0.0170751
708.426	0.0168493
708.504	0.0167496
708.582	0.0167441
708.660	0.0164960
708.738	0.0165542
708.817	0.0163351
708.895	0.0162603
708.973	0.0161949
709.051	0.0159996
709.129	0.0160020
709.207	0.0157431
709.285	0.0157767
709.363	0.0159712
709.442	0.0157971
709.520	0.0159258
709.598	0.0158855
709.676	0.0158517
709.754	0.0159229
709.832	0.0161918
709.910	0.0163039
709.988	0.0163100
710.067	0.0162479
710.145	0.0164133
710.223	0.0164199
710.301	0.0167619
710.379	0.0168605
710.457	0.0170772
710.535	0.0170924
710.613	0.0170181
710.692	0.0172021
710.770	0.0172572
710.848	0.0172576
710.926	0.0174014
711.004	0.0176137
711.082	0.0176890
711.160	0.0176770
711.238	0.0180775
711.317	0.0180421
711.395	0.0180840
711.473	0.0181950
711.551	0.0183814
711.629	0.0184935
711.707	0.0186147
711.785	0.0185719
711.863	0.0187980
711.942	0.0189024
712.020	0.0188173
712.098	0.0187624
712.176	0.0185484
712.254	0.0187984
712.332	0.0185709
712.410	0.0183747
712.488	0.0182594
712.567	0.0178733
712.645	0.0179029
712.723	0.0175825
712.801	0.0175111
712.879	0.0173824
712.957	0.0171876
713.035	0.0169866
713.113	0.0168955
713.192	0.0168752
713.270	0.0167389
713.348	0.0165961
713.426	0.0165954
713.504	0.0164942
713.582	0.0163102
713.660	0.0164068
713.738	0.0162321
713.817	0.0161832
713.895	0.0163072
713.973	0.0164190
714.051	0.0162794
714.129	0.0162944
714.207	0.0163099
714.285	0.0162344
714.363	0.0163382
714.442	0.0163200
714.520	0.0162872
714.598	0.0162072
714.676	0.0161802
714.754	0.0163960
714.832	0.0161352
714.910	0.0163829
714.988	0.0164728
715.067	0.0163633
715.145	0.0165142
715.223	0.0165981
715.301	0.0166451
715.379	0.0168761
715.457	0.0167824
715.535	0.0169173
715.613	0.0170612
715.692	0.0171530
715.770	0.0171426
715.848	0.0172025
715.926	0.0174905
716.004	0.0174514
716.082	0.0175430
716.160	0.0176485
716.238	0.0176994
716.317	0.0177924
716.395	0.0178853
716.473	0.0177090
716.551	0.0179762
716.629	0.0179458
716.707	0.0179978
716.785	0.0179582
716.863	0.0179446
716.942	0.0178632
717.020	0.0177382
717.098	0.0177977
717.176	0.0177583
717.254	0.0177226
717.332	0.0176212
717.410	0.0175457
717.488	0.0175923
717.567	0.0176489
717.645	0.0176829
717.723	0.0176514
717.801	0.0175352
717.879	0.0176595
717.957	0.0176334
718.035	0.0174825
718.113	0.0174458
718.192	0.0174940
718.270	0.0175384
718.348	0.0173103
718.426	0.0173381
718.504	0.0172992
718.582	0.0172202
718.660	0.0169612
718.738	0.0169052
718.817	0.0168295
718.895	0.0167976
718.973	0.0167157
719.051	0.0165252
719.129	0.0164512
719.207	0.0164417
719.285	0.0163242
719.363	0.0163402
719.442	0.0164772
719.520	0.0165164
719.598	0.0163864
719.676	0.0163331
719.754	0.0164157
719.832	0.0165385
719.910	0.0165095
719.988	0.0165916
720.067	0.0165524
720.145	0.0167276
720.223	0.0168278
720.301	0.0169066
720.379	0.0169516
720.457	0.0170512
720.535	0.0169228
720.613	0.0170003
720.692	0.0169887
720.770	0.0169635
720.848	0.0168697
720.926	0.0167492
721.004	0.0167089
721.082	0.0167754
721.160	0.0167989
721.238	0.0166950
721.317	0.0167497
721.395	0.0167531
721.473	0.0167747
721.551	0.0167763
721.629	0.0170023
721.707	0.0170858
721.785	0.0170612
721.863	0.0170560
721.942	0.0173785
722.020	0.0174241
722.098	0.0175632
722.176	0.0174062
722.254	0.0174959
722.332	0.0175760
722.410	0.0177341
722.488	0.0175448
722.567	0.0176956
722.645	0.0176805
722.723	0.0177686
722.801	0.0174045
722.879	0.0175336
722.957	0.0175513
723.035	0.0174766
723.113	0.0175544
723.192	0.0174172
723.270	0.0174697
723.348	0.0175056
723.426	0.0172736
723.504	0.0172453
723.582	0.0172440
723.660	0.0172603
723.738	0.0174003
723.817	0.0172100
723.895	0.0172327
723.973	0.0170627
724.051	0.0170898
724.129	0.0169526
724.207	0.0169299
724.285	0.0168860
724.363	0.0168063
724.442	0.0168730
724.520	0.0168184
724.598	0.0167273
724.676	0.0167184
724.754	0.0166891
724.832	0.0166067
724.910	0.0165307
724.988	0.0167200
725.067	0.0166712
725.145	0.0167779
725.223	0.0168873
725.301	0.0167280
725.379	0.0169986
725.457	0.0168880
725.535	0.0168773
725.613	0.0169915
725.692	0.0168440
725.770	0.0169118
725.848	0.0171418
725.926	0.0170512
726.004	0.0171247
726.082	0.0171672
726.160	0.0170570
726.238	0.0170548
726.317	0.0170348
726.395	0.0171175
726.473	0.0172029
726.551	0.0171686
726.629	0.0171187
726.707	0.0173598
726.785	0.0173692
726.863	0.0174178
726.942	0.0173574
727.020	0.0173358
727.098	0.0173153
727.176	0.0173317
727.254	0.0173782
727.332	0.0172311
727.410	0.0171957
727.488	0.0173240
727.567	0.0172791
727.645	0.0171727
727.723	0.0170695
727.801	0.0170496
727.879	0.0169453
727.957	0.0171217
728.035	0.0171596
728.113	0.0172366
728.192	0.0171989
728.270	0.0171336
728.348	0.0173701
728.426	0.0173569
728.504	0.0173924
728.582	0.0172647
728.660	0.0174604
728.738	0.0174184
728.817	0.0174049
728.895	0.0173925
728.973	0.0174679
729.051	0.0175015
729.129	0.0175097
729.207	0.0173429
729.285	0.0172709
729.363	0.0172511
729.442	0.0171854
729.520	0.0172047
729.598	0.0172689
729.676	0.0171362
729.754	0.0170263
729.832	0.0170803
729.910	0.0170015
729.988	0.0170559
730.067	0.0173245
730.145	0.0171843
730.223	0.0171260
730.301	0.0172296
730.379	0.0172120
730.457	0.0171156
730.535	0.0171793
730.613	0.0171206
730.692	0.0171509
730.770	0.0171937
730.848	0.0172221
730.926	0.0170922
731.004	0.0171624
731.082	0.0170300
731.160	0.0170792
731.238	0.0171339
731.317	0.0170495
731.395	0.0170821
731.473	0.0170928
731.551	0.0170731
731.629	0.0170728
731.707	0.0169878
731.785	0.0168803
731.863	0.0169282
731.942	0.0168568
732.020	0.0170304
732.098	0.0170324
732.176	0.0170777
732.254	0.0172005
732.332	0.0171077
732.410	0.0172201
732.488	0.0172503
732.567	0.0172793
732.645	0.0172813
732.723	0.0173268
732.801	0.0172797
732.879	0.0172254
732.957	0.0172393
733.035	0.0172691
733.113	0.0172464
733.192	0.0170534
733.270	0.0170499
733.348	0.0169904
733.426	0.0169130
733.504	0.0170669
733.582	0.0170961
733.660	0.0170844
733.738	0.0169917
733.817	0.0170557
733.895	0.0171430
733.973	0.0172746
734.051	0.0173526
734.129	0.0173010
734.207	0.0170850
734.285	0.0171411
734.363	0.0171970
734.442	0.0171587
734.520	0.0171081
734.598	0.0169693
734.676	0.0169230
734.754	0.0167684
734.832	0.0167500
734.910	0.0169503
734.988	0.0167970
735.067	0.0166668
735.145	0.0168046
735.223	0.0169099
735.301	0.0168003
735.379	0.0170027
735.457	0.0169966
735.535	0.0171095
735.613	0.0173413
735.692	0.0172919
735.770	0.0174367
735.848	0.0174022
735.926	0.0174166
736.004	0.0174560
736.082	0.0174994
736.160	0.0174504
736.238	0.0173800
736.317	0.0173457
736.395	0.0173010
736.473	0.0172883
736.551	0.0171738
736.629	0.0170879
736.707	0.0170866
736.785	0.0169923
736.863	0.0169778
736.942	0.0169261
737.020	0.0168867
737.098	0.0168732
737.176	0.0168332
737.254	0.0169235
737.332	0.0168799
737.410	0.0167970
737.488	0.0169281
737.567	0.0170006
737.645	0.0169341
737.723	0.0168569
737.801	0.0169337
737.879	0.0169786
737.957	0.0169553
738.035	0.0170596
738.113	0.0172684
738.192	0.0171029
738.270	0.0170689
738.348	0.0171805
738.426	0.0171734
738.504	0.0171632
738.582	0.0173774
738.660	0.0172912
738.738	0.0173361
738.817	0.0173431
738.895	0.0173809
738.973	0.0172820
739.051	0.0173824
739.129	0.0172343
739.207	0.0172674
739.285	0.0171831
739.363	0.0173203
739.442	0.0172509
739.520	0.0171679
739.598	0.0173726
739.676	0.0172688
739.754	0.0172300
739.832	0.0173217
739.910	0.0174134
739.988	0.0173258
740.067	0.0173904
740.145	0.0173778
740.223	0.0171796
740.301	0.0173586
740.379	0.0173610
740.457	0.0173357
740.535	0.0174310
740.613	0.0172545
740.692	0.0171735
740.770	0.0171371
740.848	0.0172318
740.926	0.0171709
741.004	0.0171062
741.082	0.0170013
741.160	0.0171226
741.238	0.0171335
741.317	0.0170787
741.395	0.0169357
741.473	0.0169480
741.551	0.0170070
741.629	0.0167899
741.707	0.0169078
741.785	0.0171754
741.863	0.0170442
741.942	0.0169418
742.020	0.0169225
742.098	0.0170573
742.176	0.0171189
742.254	0.0171241
742.332	0.0170251
742.410	0.0170923
742.488	0.0169885
742.567	0.0169847
742.645	0.0169477
742.723	0.0171333
742.801	0.0171161
742.879	0.0168975
742.957	0.0169916
743.035	0.0169937
743.113	0.0169825
743.192	0.0169570
743.270	0.0170520
743.348	0.0170596
743.426	0.0169418
743.504	0.0169884
743.582	0.0169147
743.660	0.0167856
743.738	0.0169230
743.817	0.0169501
743.895	0.0170686
743.973	0.0169668
744.051	0.0169671
744.129	0.0171253
744.207	0.0171923
744.285	0.0171712
744.363	0.0171742
744.442	0.0173231
744.520	0.0172620
744.598	0.0172036
744.676	0.0170529
744.754	0.0170712
744.832	0.0171323
744.910	0.0171703
744.988	0.0169719
745.067	0.0169352
745.145	0.0169588
745.223	0.0169914
745.301	0.0169466
745.379	0.0168015
745.457	0.0167995
745.535	0.0168250
745.613	0.0170016
745.692	0.0168994
745.770	0.0170622
745.848	0.0170850
745.926	0.0171817
746.004	0.0172704
746.082	0.0173783
746.160	0.0172627
746.238	0.0175806
746.317	0.0174368
746.395	0.0175475
746.473	0.0175615
746.551	0.0176221
746.629	0.0176020
746.707	0.0176865
746.785	0.0176239
746.863	0.0175794
746.942	0.0174409
747.020	0.0174928
747.098	0.0174417
747.176	0.0173067
747.254	0.0173102
747.332	0.0171763
747.410	0.0171110
747.488	0.0172074
747.567	0.0173072
747.645	0.0173251
747.723	0.0171918
747.801	0.0171849
747.879	0.0172433
747.957	0.0171827
748.035	0.0171069
748.113	0.0170541
748.192	0.0170205
748.270	0.0170652
748.348	0.0170556
748.426	0.0170419
748.504	0.0170436
748.582	0.0169510
748.660	0.0171399
748.738	0.0171077
748.817	0.0169927
748.895	0.0170160
748.973	0.0170781
749.051	0.0170537
749.129	0.0170358
749.207	0.0170647
749.285	0.0168767
749.363	0.0170808
749.442	0.0171661
749.520	0.0171665
749.598	0.0171805
749.676	0.0171603
749.754	0.0171162
749.832	0.0172411
749.910	0.0172494
749.988	0.0172603
750.067	0.0172863
750.145	0.0172130
750.223	0.0172361
750.301	0.0172580
750.379	0.0172678
750.457	0.0171056
750.535	0.0171597
750.613	0.0170913
750.692	0.0172523
750.770	0.0171132
750.848	0.0169776
750.926	0.0170659
751.004	0.0170901
751.082	0.0171526
751.160	0.0171488
751.238	0.0170187
751.317	0.0170124
751.395	0.0170956
751.473	0.0170451
751.551	0.0167945
751.629	0.0169796
751.707	0.0170672
751.785	0.0170885
751.863	0.0169397
751.942	0.0170042
752.020	0.0171018
752.098	0.0169821
752.176	0.0169739
752.254	0.0170675
752.332	0.0171700
752.410	0.0172129
752.488	0.0172324
752.567	0.0171626
752.645	0.0171030
752.723	0.0170116
752.801	0.0171095
752.879	0.0172099
752.957	0.0169846
753.035	0.0171017
753.113	0.0169020
753.192	0.0169050
753.270	0.0170369
753.348	0.0169347
753.426	0.0169332
753.504	0.0167656
753.582	0.0168928
753.660	0.0169867
753.738	0.0170956
753.817	0.0170499
753.895	0.0170570
753.973	0.0172101
754.051	0.0169315
754.129	0.0173035
754.207	0.0172822
754.285	0.0172405
754.363	0.0174071
754.442	0.0174239
754.520	0.0174479
754.598	0.0174134
754.676	0.0173943
754.754	0.0173517
754.832	0.0172607
754.910	0.0172883
754.988	0.0171804
755.067	0.0170759
755.145	0.0170466
755.223	0.0170786
755.301	0.0168439
755.379	0.0168048
755.457	0.0169099
755.535	0.0168295
755.613	0.0167567
755.692	0.0167691
755.770	0.0168326
755.848	0.0168478
755.926	0.0166746
756.004	0.0166985
756.082	0.0168336
756.160	0.0170054
756.238	0.0168390
756.317	0.0168594
756.395	0.0169553
756.473	0.0170222
756.551	0.0171059
756.629	0.0171249
756.707	0.0171360
756.785	0.0169955
756.863	0.0171798
756.942	0.0172763
757.020	0.0172834
757.098	0.0172814
757.176	0.0172334
757.254	0.0173147
757.332	0.0173775
757.410	0.0173588
757.488	0.0174361
757.567	0.0174171
757.645	0.0174866
757.723	0.0173891
757.801	0.0173885
757.879	0.0174500
757.957	0.0174689
758.035	0.0175924
758.113	0.0173970
758.192	0.0174277
758.270	0.0172454
758.348	0.0172495
758.426	0.0173634
758.504	0.0172034
758.582	0.0171207
758.660	0.0170425
758.738	0.0170834
758.817	0.0169508
758.895	0.0169235
758.973	0.0169018
759.051	0.0169801
759.129	0.0169659
759.207	0.0169199
759.285	0.0168462
759.363	0.0169316
759.442	0.0168682
759.520	0.0170010
759.598	0.0170811
759.676	0.0168575
759.754	0.0169939
759.832	0.0170824
759.910	0.0170510
759.988	0.0172527
760.067	0.0171918
760.145	0.0171986
760.223	0.0172439
760.301	0.0172117
760.379	0.0172646
760.457	0.0171308
760.535	0.0173608
760.613	0.0171996
760.692	0.0172684
760.770	0.0171332
760.848	0.0170601
760.926	0.0172375
761.004	0.0170708
761.082	0.0170561
761.160	0.0171638
761.238	0.0171355
761.317	0.0170936
761.395	0.0171267
761.473	0.0171704
761.551	0.0171322
761.629	0.0171967
761.707	0.0171912
761.785	0.0172263
761.863	0.0171551
761.942	0.0172188
762.020	0.0172980
762.098	0.0172254
762.176	0.0172134
762.254	0.0173512
762.332	0.0173701
762.410	0.0173262
762.488	0.0173549
762.567	0.0174471
762.645	0.0174075
762.723	0.0173978
762.801	0.0173680
762.879	0.0173972
762.957	0.0173826
763.035	0.0173348
763.113	0.0172859
763.192	0.0172622
763.270	0.0172960
763.348	0.0173158
763.426	0.0172966
763.504	0.0172140
763.582	0.0172974
763.660	0.0172571
763.738	0.0170699
763.817	0.0172032
763.895	0.0172699
763.973	0.0172100
764.051	0.0171933
764.129	0.0172659
764.207	0.0172764
764.285	0.0172521
764.363	0.0171694
764.442	0.0172740
764.520	0.0171732
764.598	0.0172168
764.676	0.0172916
764.754	0.0172655
764.832	0.0173204
764.910	0.0172368
764.988	0.0173534
765.067	0.0174770
765.145	0.0174059
765.223	0.0174467
765.301	0.0173247
765.379	0.0173449
765.457	0.0173344
765.535	0.0174046
765.613	0.0174306
765.692	0.0172899
765.770	0.0172301
765.848	0.0172974
765.926	0.0173726
766.004	0.0173191
766.082	0.0173743
766.160	0.0171415
766.238	0.0172254
766.317	0.0171027
766.395	0.0170499
766.473	0.0171055
766.551	0.0170770
766.629	0.0170838
766.707	0.0169526
766.785	0.0170132
766.863	0.0170609
766.942	0.0169166
767.020	0.0169654
767.098	0.0169646
767.176	0.0170129
767.254	0.0168430
767.332	0.0170967
767.410	0.0171095
767.488	0.0170847
767.567	0.0169861
767.645	0.0170218
767.723	0.0171048
767.801	0.0170529
767.879	0.0171896
767.957	0.0171928
768.035	0.0171070
768.113	0.0170879
768.192	0.0170534
768.270	0.0171550
768.348	0.0171376
768.426	0.0171268
768.504	0.0171699
768.582	0.0170911
768.660	0.0171017
768.738	0.0171215
768.817	0.0170733
768.895	0.0170937
768.973	0.0171438
769.051	0.0170890
769.129	0.0171228
769.207	0.0171047
769.285	0.0171056
769.363	0.0170950
769.442	0.0172726
769.520	0.0172316
769.598	0.0171037
769.676	0.0172675
769.754	0.0171963
769.832	0.0173227
769.910	0.0173442
769.988	0.0173829
770.067	0.0174371
770.145	0.0172865
770.223	0.0172392
770.301	0.0171890
770.379	0.0171815
770.457	0.0172234
770.535	0.0172309
770.613	0.0171891
770.692	0.0172158
770.770	0.0171510
770.848	0.0173013
770.926	0.0172553
771.004	0.0170118
771.082	0.0172440
771.160	0.0173406
771.238	0.0172690
771.317	0.0172942
771.395	0.0172771
771.473	0.0173557
771.551	0.0173179
771.629	0.0173024
771.707	0.0173255
771.785	0.0174382
771.863	0.0174683
771.942	0.0173927
772.020	0.0174378
772.098	0.0172369
772.176	0.0173567
772.254	0.0173060
772.332	0.0172871
772.410	0.0171868
772.488	0.0170309
772.567	0.0172695
772.645	0.0172416
772.723	0.0172756
772.801	0.0169950
772.879	0.0170989
772.957	0.0170185
773.035	0.0170098
773.113	0.0171087
773.192	0.0170101
773.270	0.0169815
773.348	0.0169295
773.426	0.0170293
773.504	0.0172001
773.582	0.0171353
773.660	0.0170748
773.738	0.0169993
773.817	0.0170287
773.895	0.0171536
773.973	0.0171117
774.051	0.0171608
774.129	0.0172456
774.207	0.0170094
774.285	0.0170498
774.363	0.0172586
774.442	0.0172742
774.520	0.0170348
774.598	0.0172095
774.676	0.0172056
774.754	0.0171867
774.832	0.0171616
774.910	0.0171187
774.988	0.0172797
775.067	0.0172501
775.145	0.0170863
775.223	0.0171097
775.301	0.0173272
775.379	0.0172344
775.457	0.0172031
775.535	0.0172774
775.613	0.0170937
775.692	0.0174004
775.770	0.0173341
775.848	0.0172775
775.926	0.0172538
776.004	0.0171983
776.082	0.0173446
776.160	0.0173248
776.238	0.0173228
776.317	0.0173182
776.395	0.0172552
776.473	0.0173469
776.551	0.0173359
776.629	0.0173615
776.707	0.0173045
776.785	0.0171473
776.863	0.0171780
776.942	0.0172704
777.020	0.0172743
777.098	0.0171677
777.176	0.0172506
777.254	0.0172305
777.332	0.0171693
777.410	0.0173788
777.488	0.0173427
777.567	0.0172778
777.645	0.0170628
777.723	0.0173641
777.801	0.0172876
777.879	0.0169913
777.957	0.0170591
778.035	0.0171540
778.113	0.0171629
778.192	0.0171481
778.270	0.0171835
778.348	0.0169640
778.426	0.0169195
778.504	0.0171033
778.582	0.0171574
778.660	0.0169868
778.738	0.0171407
778.817	0.0172080
778.895	0.0171687
778.973	0.0170904
779.051	0.0172066
779.129	0.0171952
779.207	0.0172318
779.285	0.0172478
779.363	0.0172200
779.442	0.0172491
779.520	0.0171841
779.598	0.0171440
779.676	0.0173135
779.754	0.0172694
779.832	0.0172453
779.910	0.0172125
779.988	0.0171831
780.067	0.0172130
780.145	0.0170630
780.223	0.0169746
780.301	0.0168902
780.379	0.0169233
780.457	0.0169468
780.535	0.0169912
780.613	0.0168046
780.692	0.0167606
780.770	0.0169364
780.848	0.0169611
780.926	0.0168501
781.004	0.0170009
781.082	0.0169317
781.160	0.0168708
781.238	0.0170523
781.317	0.0169462
781.395	0.0169314
781.473	0.0170428
781.551	0.0171239
781.629	0.0171823
781.707	0.0170643
781.785	0.0170496
781.863	0.0170482
781.942	0.0170832
782.020	0.0172305
782.098	0.0171249
782.176	0.0171958
782.254	0.0171769
782.332	0.0172534
782.410	0.0173129
782.488	0.0173916
782.567	0.0173943
782.645	0.0173737
782.723	0.0173106
782.801	0.0174600
782.879	0.0173837
782.957	0.0174366
783.035	0.0174677
783.113	0.0175114
783.192	0.0174165
783.270	0.0175184
783.348	0.0175235
783.426	0.0174528
783.504	0.0173511
783.582	0.0175288
783.660	0.0174330
783.738	0.0173289
783.817	0.0174464
783.895	0.0174725
783.973	0.0172790
784.051	0.0173309
784.129	0.0172646
784.207	0.0173559
784.285	0.0172772
784.363	0.0173744
784.442	0.0172733
784.520	0.0173131
784.598	0.0173648
784.676	0.0173458
784.754	0.0174162
784.832	0.0173492
784.910	0.0173976
784.988	0.0173985
785.067	0.0174422
785.145	0.0173582
785.223	0.0173690
785.301	0.0173652
785.379	0.0173463
785.457	0.0173784
785.535	0.0174030
785.613	0.0174535
785.692	0.0173512
785.770	0.0172528
785.848	0.0171889
785.926	0.0172520
786.004	0.0171457
786.082	0.0172498
786.160	0.0171735
786.238	0.0171373
786.317	0.0171370
786.395	0.0170635
786.473	0.0171004
786.551	0.0170805
786.629	0.0171233
786.707	0.0171444
786.785	0.0171751
786.863	0.0172089
786.942	0.0172236
787.020	0.0171831
787.098	0.0171838
787.176	0.0171751
787.254	0.0172462
787.332	0.0171612
787.410	0.0173421
787.488	0.0172311
787.567	0.0173940
787.645	0.0172624
787.723	0.0173766
787.801	0.0173049
787.879	0.0172667
787.957	0.0171684
788.035	0.0172242
788.113	0.0172286
788.192	0.0172388
788.270	0.0172232
788.348	0.0172440
788.426	0.0171603
788.504	0.0171557
788.582	0.0171591
788.660	0.0171754
788.738	0.0171809
788.817	0.0171969
788.895	0.0170374
788.973	0.0171243
789.051	0.0171741
789.129	0.0171537
789.207	0.0171281
789.285	0.0170991
789.363	0.0170928
789.442	0.0170927
789.520	0.0172259
789.598	0.0171833
789.676	0.0170761
789.754	0.0172454
789.832	0.0173555
789.910	0.0172910
789.988	0.0172163
790.067	0.0172559
790.145	0.0172276
790.223	0.0171894
790.301	0.0172140
790.379	0.0171998
790.457	0.0172264
790.535	0.0172060
790.613	0.0170720
790.692	0.0171184
790.770	0.0170008
790.848	0.0169952
790.926	0.0170741
791.004	0.0171008
791.082	0.0169672
791.160	0.0170507
791.238	0.0171866
791.317	0.0170432
791.395	0.0169007
791.473	0.0171075
791.551	0.0172329
791.629	0.0171187
791.707	0.0171407
791.785	0.0170845
791.863	0.0171039
791.942	0.0171598
792.020	0.0170849
792.098	0.0169232
792.176	0.0172240
792.254	0.0171323
792.332	0.0170513
792.410	0.0171782
792.488	0.0171777
792.567	0.0170187
792.645	0.0170498
792.723	0.0172945
792.801	0.0171457
792.879	0.0172158
792.957	0.0171186
793.035	0.0170911
793.113	0.0170855
793.192	0.0172774
793.270	0.0173376
793.348	0.0171158
793.426	0.0171719
793.504	0.0172549
793.582	0.0173357
793.660	0.0173287
793.738	0.0172451
793.817	0.0172862
793.895	0.0172520
793.973	0.0173376
794.051	0.0172945
794.129	0.0172362
794.207	0.0172890
794.285	0.0173378
794.363	0.0173687
794.442	0.0173348
794.520	0.0171912
794.598	0.0173946
794.676	0.0173489
794.754	0.0171942
794.832	0.0171564
794.910	0.0172350
794.988	0.0171527
795.067	0.0170719
795.145	0.0170973
795.223	0.0171508
795.301	0.0170725
795.379	0.0169859
795.457	0.0170410
795.535	0.0171397
795.613	0.0170367
795.692	0.0170351
795.770	0.0169035
795.848	0.0170605
795.926	0.0169668
796.004	0.0169842
796.082	0.0169874
796.160	0.0170863
796.238	0.0171108
796.317	0.0169886
796.395	0.0170564
796.473	0.0170293
796.551	0.0172040
796.629	0.0171944
796.707	0.0170659
796.785	0.0170766
796.863	0.0172339
796.942	0.0171869
797.020	0.0171620
797.098	0.0172916
797.176	0.0172158
797.254	0.0171998
797.332	0.0173369
797.410	0.0171479
797.488	0.0172318
797.567	0.0172932
797.645	0.0173743
797.723	0.0173951
797.801	0.0172153
797.879	0.0172048
797.957	0.0173492
798.035	0.0173241
798.113	0.0173354
798.192	0.0173070
798.270	0.0171418
798.348	0.0171701
798.426	0.0172789
798.504	0.0171230
798.582	0.0171998
798.660	0.0171842
798.738	0.0171648
798.817	0.0171485
798.895	0.0171484
798.973	0.0171688
799.051	0.0169171
799.129	0.0170281
799.207	0.0170804
799.285	0.0169357
799.363	0.0169538
799.442	0.0169268
799.520	0.0170316
799.598	0.0170715
799.676	0.0168050
799.754	0.0168028
799.832	0.0169037
799.910	0.0170774
799.988	0.0169011
800.067	0.0169369
800.145	0.0168542
800.223	0.0168159
800.301	0.0170317
800.379	0.0168906
800.457	0.0168707
800.535	0.0168785
800.613	0.0169048
800.692	0.0169012
800.770	0.0168449
800.848	0.0167867
800.926	0.0170096
801.004	0.0169145
801.082	0.0168195
801.160	0.0169991
801.238	0.0169991
801.317	0.0168569
801.395	0.0168719
801.473	0.0170063
801.551	0.0168123
801.629	0.0170340
801.707	0.0170807
801.785	0.0170916
801.863	0.0170886
801.942	0.0172090
802.020	0.0172075
802.098	0.0174133
802.176	0.0173637
802.254	0.0174206
802.332	0.0174141
802.410	0.0175004
802.488	0.0174390
802.567	0.0174318
802.645	0.0173920
802.723	0.0174341
802.801	0.0174294
802.879	0.0173347
802.957	0.0172516
803.035	0.0172169
803.113	0.0173849
803.192	0.0173346
803.270	0.0172118
803.348	0.0171329
803.426	0.0171570
803.504	0.0172100
803.582	0.0171781
803.660	0.0170863
803.738	0.0170338
803.817	0.0171653
803.895	0.0171794
803.973	0.0171439
804.051	0.0171898
804.129	0.0170358
804.207	0.0170019
804.285	0.0171437
804.363	0.0171528
804.442	0.0170148
804.520	0.0170105
804.598	0.0170799
804.676	0.0169966
804.754	0.0169854
804.832	0.0171195
804.910	0.0169711
804.988	0.0170259
805.067	0.0171936
805.145	0.0170969
805.223	0.0171633
805.301	0.0170876
805.379	0.0171292
805.457	0.0170453
805.535	0.0170024
805.613	0.0170890
805.692	0.0172838
805.770	0.0171567
805.848	0.0170905
805.926	0.0170949
806.004	0.0171221
806.082	0.0171307
806.160	0.0171516
806.238	0.0170248
806.317	0.0170190
806.395	0.0171632
806.473	0.0171565
806.551	0.0171838
806.629	0.0169826
806.707	0.0170496
806.785	0.0169849
806.863	0.0171921
806.942	0.0171368
807.020	0.0170779
807.098	0.0171392
807.176	0.0172724
807.254	0.0171269
807.332	0.0171252
807.410	0.0172270
807.488	0.0171729
807.567	0.0172628
807.645	0.0171268
807.723	0.0172029
807.801	0.0173339
807.879	0.0172124
807.957	0.0171798
808.035	0.0172588
808.113	0.0173524
808.192	0.0171026
808.270	0.0171184
808.348	0.0172717
808.426	0.0172104
808.504	0.0172901
808.582	0.0171505
808.660	0.0173241
808.738	0.0172135
808.817	0.0170790
808.895	0.0172103
808.973	0.0172199
809.051	0.0171875
809.129	0.0171353
809.207	0.0171935
809.285	0.0171535
809.363	0.0172327
809.442	0.0172831
809.520	0.0172609
809.598	0.0173569
809.676	0.0172372
809.754	0.0172616
809.832	0.0173431
809.910	0.0173527
809.988	0.0173593
810.067	0.0171584
810.145	0.0172561
810.223	0.0173067
810.301	0.0173672
810.379	0.0173249
810.457	0.0172565
810.535	0.0171127
810.613	0.0172356
810.692	0.0173350
810.770	0.0173026
810.848	0.0171810
810.926	0.0172041
811.004	0.0172200
811.082	0.0172848
811.160	0.0173987
811.238	0.0171308
811.317	0.0170785
811.395	0.0172742
811.473	0.0171878
811.551	0.0172157
811.629	0.0170847
811.707	0.0170680
811.785	0.0170667
811.863	0.0170483
811.942	0.0171111
812.020	0.0171110
812.098	0.0169785
812.176	0.0169571
812.254	0.0169783
812.332	0.0171748
812.410	0.0171815
812.488	0.0171099
812.567	0.0172072
812.645	0.0172051
812.723	0.0170998
812.801	0.0170929
812.879	0.0171918
812.957	0.0171850
813.035	0.0172581
813.113	0.0171632
813.192	0.0171942
813.270	0.0172311
813.348	0.0171903
813.426	0.0172443
813.504	0.0171683
813.582	0.0171739
813.660	0.0171269
813.738	0.0170792
813.817	0.0171909
813.895	0.0171416
813.973	0.0171638
814.051	0.0172113
814.129	0.0171100
814.207	0.0171070
814.285	0.0171347
814.363	0.0169528
814.442	0.0169743
814.520	0.0170265
814.598	0.0170122
814.676	0.0170264
814.754	0.0170090
814.832	0.0171302
814.910	0.0170846
814.988	0.0170335
815.067	0.0170808
815.145	0.0168965
815.223	0.0169080
815.301	0.0169862
815.379	0.0169715
815.457	0.0169135
815.535	0.0170442
815.613	0.0170146
815.692	0.0170109
815.770	0.0169984
815.848	0.0169183
815.926	0.0171643
816.004	0.0169870
816.082	0.0169346
816.160	0.0170251
816.238	0.0169962
816.317	0.0169218
816.395	0.0170092
816.473	0.0170271
816.551	0.0170471
816.629	0.0169893
816.707	0.0169887
816.785	0.0170968
816.863	0.0170341
816.942	0.0170531
817.020	0.0170114
817.098	0.0171505
817.176	0.0172005
817.254	0.0172280
817.332	0.0171934
817.410	0.0171458
817.488	0.0170943
817.567	0.0171126
817.645	0.0171802
817.723	0.0172735
817.801	0.0171981
817.879	0.0173330
817.957	0.0174020
818.035	0.0172594
818.113	0.0171169
818.192	0.0172443
818.270	0.0174376
818.348	0.0172109
818.426	0.0172702
818.504	0.0172816
818.582	0.0172573
818.660	0.0172177
818.738	0.0171995
818.817	0.0171246
818.895	0.0171544
818.973	0.0172154
819.051	0.0171573
819.129	0.0170754
819.207	0.0171578
819.285	0.0171997
819.363	0.0170998
819.442	0.0170615
819.520	0.0171722
819.598	0.0171053
819.676	0.0171232
819.754	0.0169508
819.832	0.0169680
819.910	0.0168751
819.988	0.0169597
820.067	0.0169872
820.145	0.0167719
820.223	0.0168852
820.301	0.0169035
820.379	0.0169258
820.457	0.0168951
820.535	0.0166691
820.613	0.0168053
820.692	0.0170644
820.770	0.0168575
820.848	0.0170202
820.926	0.0169804
821.004	0.0168588
821.082	0.0168958
821.160	0.0169202
821.238	0.0169460
821.317	0.0169550
821.395	0.0169199
821.473	0.0169187
821.551	0.0168677
821.629	0.0170346
821.707	0.0171481
821.785	0.0170855
821.863	0.0170264
821.942	0.0170451
822.020	0.0170918
822.098	0.0171780
822.176	0.0171739
822.254	0.0170726
822.332	0.0171861
822.410	0.0171516
822.488	0.0170444
822.567	0.0172205
822.645	0.0172313
822.723	0.0171684
822.801	0.0172206
822.879	0.0172290
822.957	0.0171397
823.035	0.0173157
823.113	0.0171073
823.192	0.0172047
823.270	0.0171590
823.348	0.0171346
823.426	0.0172520
823.504	0.0173521
823.582	0.0173056
823.660	0.0171815
823.738	0.0173147
823.817	0.0173934
823.895	0.0173402
823.973	0.0172601
824.051	0.0174346
824.129	0.0172308
824.207	0.0172462
824.285	0.0173827
824.363	0.0172906
824.442	0.0172678
824.520	0.0175066
824.598	0.0174342
824.676	0.0173050
824.754	0.0172993
824.832	0.0172988
824.910	0.0172549
824.988	0.0172630
825.067	0.0172403
825.145	0.0173086
825.223	0.0172802
825.301	0.0172762
825.379	0.0171697
825.457	0.0172050
825.535	0.0173837
825.613	0.0172852
825.692	0.0173624
825.770	0.0172555
825.848	0.0170531
825.926	0.0170926
826.004	0.0171014
826.082	0.0170935
826.160	0.0171292
826.238	0.0171114
826.317	0.0171519
826.395	0.0170189
826.473	0.0171199
826.551	0.0171481
826.629	0.0170867
826.707	0.0171064
826.785	0.0170629
826.863	0.0170245
826.942	0.0171614
827.020	0.0171609
827.098	0.0171286
827.176	0.0171009
827.254	0.0170338
827.332	0.0172374
827.410	0.0170540
827.488	0.0170671
827.567	0.0169299
827.645	0.0169068
827.723	0.0169874
827.801	0.0168337
827.879	0.0169089
827.957	0.0170284
828.035	0.0168963
828.113	0.0168985
828.192	0.0168742
828.270	0.0169827
828.348	0.0169547
828.426	0.0169481
828.504	0.0171036
828.582	0.0169321
828.660	0.0169498
828.738	0.0170477
828.817	0.0172538
828.895	0.0171697
828.973	0.0173359
829.051	0.0172218
829.129	0.0173006
829.207	0.0171959
829.285	0.0171593
829.363	0.0172874
829.442	0.0172134
829.520	0.0172558
829.598	0.0173246
829.676	0.0172710
829.754	0.0173006
829.832	0.0171629
829.910	0.0173306
829.988	0.0172630
830.067	0.0171204
830.145	0.0171423
830.223	0.0171439
830.301	0.0171663
830.379	0.0171091
830.457	0.0170571
830.535	0.0171165
830.613	0.0170934
830.692	0.0170714
830.770	0.0170917
830.848	0.0170364
830.926	0.0168713
831.004	0.0170275
831.082	0.0171898
831.160	0.0171206
831.238	0.0171125
831.317	0.0171751
831.395	0.0170111
831.473	0.0170968
831.551	0.0170712
831.629	0.0171290
831.707	0.0172232
831.785	0.0170941
831.863	0.0171054
831.942	0.0170534
832.020	0.0170842
832.098	0.0172378
832.176	0.0173197
832.254	0.0172657
832.332	0.0172160
832.410	0.0172730
832.488	0.0171909
832.567	0.0172829
832.645	0.0172382
832.723	0.0171479
832.801	0.0172361
832.879	0.0171732
832.957	0.0171104
833.035	0.0171771
833.113	0.0171678
833.192	0.0171938
833.270	0.0171964
833.348	0.0171682
833.426	0.0171822
833.504	0.0172655
833.582	0.0171559
833.660	0.0171680
833.738	0.0171968
833.817	0.0172240
833.895	0.0171017
833.973	0.0172193
834.051	0.0173142
834.129	0.0171960
834.207	0.0173057
834.285	0.0174306
834.363	0.0174797
834.442	0.0173997
834.520	0.0173062
834.598	0.0173209
834.676	0.0173109
834.754	0.0173027
834.832	0.0172814
834.910	0.0172897
834.988	0.0172658
835.067	0.0173193
835.145	0.0172378
835.223	0.0171613
835.301	0.0171404
835.379	0.0170664
835.457	0.0172198
835.535	0.0171696
835.613	0.0170599
835.692	0.0171066
835.770	0.0169966
835.848	0.0170051
835.926	0.0171156
836.004	0.0170239
836.082	0.0170361
836.160	0.0169037
836.238	0.0170022
836.317	0.0170431
836.395	0.0170239
836.473	0.0169053
836.551	0.0167408
836.629	0.0168909
836.707	0.0170631
836.785	0.0169677
836.863	0.0168405
836.942	0.0169360
837.020	0.0169141
837.098	0.0169425
837.176	0.0170858
837.254	0.0169938
837.332	0.0170219
837.410	0.0170808
837.488	0.0170459
837.567	0.0169497
837.645	0.0170965
837.723	0.0170340
837.801	0.0170509
837.879	0.0170843
837.957	0.0169311
838.035	0.0170701
838.113	0.0170312
838.192	0.0171874
838.270	0.0171073
838.348	0.0169952
838.426	0.0170683
838.504	0.0171055
838.582	0.0170992
838.660	0.0170775
838.738	0.0169679
838.817	0.0172128
838.895	0.0171954
838.973	0.0172862
839.051	0.0173170
839.129	0.0169804
839.207	0.0172439
839.285	0.0171185
839.363	0.0172134
839.442	0.0171833
839.520	0.0172860
839.598	0.0172903
839.676	0.0172858
839.754	0.0173669
839.832	0.0174192
839.910	0.0173949
839.988	0.0172264
840.067	0.0173354
840.145	0.0173584
840.223	0.0173055
840.301	0.0173519
840.379	0.0173917
840.457	0.0173820
840.535	0.0172585
840.613	0.0172820
840.692	0.0173905
840.770	0.0173737
840.848	0.0173350
840.926	0.0173157
841.004	0.0171038
841.082	0.0171577
841.160	0.0171902
841.238	0.0171699
841.317	0.0172430
841.395	0.0171135
841.473	0.0172097
841.551	0.0171989
841.629	0.0172586
841.707	0.0171716
841.785	0.0171633
841.863	0.0171253
841.942	0.0171269
842.020	0.0172643
842.098	0.0172776
842.176	0.0171457
842.254	0.0172533
842.332	0.0171505
842.410	0.0172329
842.488	0.0172141
842.567	0.0172359
842.645	0.0172373
842.723	0.0173930
842.801	0.0171693
842.879	0.0172966
842.957	0.0172808
843.035	0.0171802
843.113	0.0171767
843.192	0.0172782
843.270	0.0173104
843.348	0.0172305
843.426	0.0172849
843.504	0.0172633
843.582	0.0172691
843.660	0.0172232
843.738	0.0172009
843.817	0.0172045
843.895	0.0171648
843.973	0.0172932
844.051	0.0172247
844.129	0.0171499
844.207	0.0171217
844.285	0.0174093
844.363	0.0172338
844.442	0.0172011
844.520	0.0172379
844.598	0.0172163
844.676	0.0172455
844.754	0.0172260
844.832	0.0173514
844.910	0.0171665
844.988	0.0172532
845.067	0.0173378
845.145	0.0173278
845.223	0.0172060
845.301	0.0171950
845.379	0.0173888
845.457	0.0174220
845.535	0.0172700
845.613	0.0173660
845.692	0.0174281
845.770	0.0173073
845.848	0.0172618
845.926	0.0172729
846.004	0.0172804
846.082	0.0172129
846.160	0.0173283
846.238	0.0173418
846.317	0.0172046
846.395	0.0171508
846.473	0.0172983
846.551	0.0172158
846.629	0.0171529
846.707	0.0171404
846.785	0.0171958
846.863	0.0171757
846.942	0.0171023
847.020	0.0171352
847.098	0.0173155
847.176	0.0172569
847.254	0.0171020
847.332	0.0171280
847.410	0.0171905
847.488	0.0172845
847.567	0.0172014
847.645	0.0171899
847.723	0.0171532
847.801	0.0172160
847.879	0.0172547
847.957	0.0173530
848.035	0.0172834
848.113	0.0171479
848.192	0.0172112
848.270	0.0172128
848.348	0.0171786
848.426	0.0171680
848.504	0.0172804
848.582	0.0173226
848.660	0.0171992
848.738	0.0172659
848.817	0.0172571
848.895	0.0173495
848.973	0.0172869
849.051	0.0173948
849.129	0.0173111
849.207	0.0173139
849.285	0.0171877
849.363	0.0173678
849.442	0.0173503
849.520	0.0173380
849.598	0.0172184
849.676	0.0172186
849.754	0.0173904
849.832	0.0173322
849.910	0.0172752
849.988	0.0172411
850.067	0.0173029
850.145	0.0171889
850.223	0.0172570
850.301	0.0171279
850.379	0.0171480
850.457	0.0172334
850.535	0.0171232
850.613	0.0169818
850.692	0.0170773
850.770	0.0170740
850.848	0.0172134
850.926	0.0170780
851.004	0.0171167
851.082	0.0170899
851.160	0.0169008
851.238	0.0171672
851.317	0.0170186
851.395	0.0170215
851.473	0.0170496
851.551	0.0169742
851.629	0.0170906
851.707	0.0170717
851.785	0.0170805
851.863	0.0170106
851.942	0.0169631
852.020	0.0169841
852.098	0.0170425
852.176	0.0170652
852.254	0.0170622
852.332	0.0170564
852.410	0.0170690
852.488	0.0169866
852.567	0.0169846
852.645	0.0169598
852.723	0.0170509
852.801	0.0169070
852.879	0.0170904
852.957	0.0170475
853.035	0.0171564
853.113	0.0170712
853.192	0.0171946
853.270	0.0171730
853.348	0.0171087
853.426	0.0171387
853.504	0.0171826
853.582	0.0172070
853.660	0.0173280
853.738	0.0171794
853.817	0.0172361
853.895	0.0172712
853.973	0.0172749
854.051	0.0173286
854.129	0.0172671
854.207	0.0171298
854.285	0.0173711
854.363	0.0173082
854.442	0.0172261
854.520	0.0172594
854.598	0.0172662
854.676	0.0173122
854.754	0.0171893
854.832	0.0172093
854.910	0.0173260
854.988	0.0172461
855.067	0.0172451
855.145	0.0173503
855.223	0.0172933
855.301	0.0172918
855.379	0.0172401
855.457	0.0172221
855.535	0.0174361
855.613	0.0172976
855.692	0.0174171
855.770	0.0173576
855.848	0.0172052
855.926	0.0172804
856.004	0.0171925
856.082	0.0172696
856.160	0.0172446
856.238	0.0172484
856.317	0.0173318
856.395	0.0171783
856.473	0.0172708
856.551	0.0171906
856.629	0.0171659
856.707	0.0173329
856.785	0.0173134
856.863	0.0170918
856.942	0.0170695
857.020	0.0172137
857.098	0.0171136
857.176	0.0171512
857.254	0.0170956
857.332	0.0171449
857.410	0.0170242
857.488	0.0171708
857.567	0.0170908
857.645	0.0171791
857.723	0.0171164
857.801	0.0169885
857.879	0.0171707
857.957	0.0170833
858.035	0.0169569
858.113	0.0170338
858.192	0.0171285
858.270	0.0170838
858.348	0.0170107
858.426	0.0171008
858.504	0.0170068
858.582	0.0171466
858.660	0.0170988
858.738	0.0170047
858.817	0.0170605
858.895	0.0172116
858.973	0.0171542
859.051	0.0170232
859.129	0.0171883
859.207	0.0171744
859.285	0.0171542
859.363	0.0171215
859.442	0.0171098
859.520	0.0170329
859.598	0.0170264
859.676	0.0170887
859.754	0.0170753
859.832	0.0170121
859.910	0.0171010
859.988	0.0171471
860.067	0.0171122
860.145	0.0168869
860.223	0.0169662
860.301	0.0169053
860.379	0.0170850
860.457	0.0171317
860.535	0.0171576
860.613	0.0170766
860.692	0.0171630
860.770	0.0171452
860.848	0.0171691
860.926	0.0171304
861.004	0.0171719
861.082	0.0172227
861.160	0.0172201
861.238	0.0170946
861.317	0.0171252
861.395	0.0172606
861.473	0.0173486
861.551	0.0171757
861.629	0.0172971
861.707	0.0172114
861.785	0.0171885
861.863	0.0172065
861.942	0.0171794
862.020	0.0173257
862.098	0.0172866
862.176	0.0172641
862.254	0.0172910
862.332	0.0172637
862.410	0.0173324
862.488	0.0173013
862.567	0.0173019
862.645	0.0174216
862.723	0.0172538
862.801	0.0172461
862.879	0.0172411
862.957	0.0173846
863.035	0.0172427
863.113	0.0172115
863.192	0.0171912
863.270	0.0173102
863.348	0.0172678
863.426	0.0174104
863.504	0.0174182
863.582	0.0172796
863.660	0.0173952
863.738	0.0173215
863.817	0.0172948
863.895	0.0172734
863.973	0.0173097
864.051	0.0175489
864.129	0.0172368
864.207	0.0173512
864.285	0.0173379
864.363	0.0172566
864.442	0.0173859
864.520	0.0175042
864.598	0.0174924
864.676	0.0173208
864.754	0.0174068
864.832	0.0174421
864.910	0.0174884
864.988	0.0173980
865.067	0.0174738
865.145	0.0174826
865.223	0.0174119
865.301	0.0173694
865.379	0.0173861
865.457	0.0174167
865.535	0.0172343
865.613	0.0173637
865.692	0.0174447
865.770	0.0173605
865.848	0.0173242
865.926	0.0174010
866.004	0.0172015
866.082	0.0172293
866.160	0.0172808
866.238	0.0172995
866.317	0.0172155
866.395	0.0170930
866.473	0.0172980
866.551	0.0173401
866.629	0.0170551
866.707	0.0171217
866.785	0.0171260
866.863	0.0172469
866.942	0.0172109
867.020	0.0170925
867.098	0.0172282
867.176	0.0173127
867.254	0.0172577
867.332	0.0172181
867.410	0.0171017
867.488	0.0171500
867.567	0.0171988
867.645	0.0172546
867.723	0.0170374
867.801	0.0171571
867.879	0.0171041
867.957	0.0171062
868.035	0.0170708
868.113	0.0172491
868.192	0.0171647
868.270	0.0171690
868.348	0.0169174
868.426	0.0170710
868.504	0.0171350
868.582	0.0169881
868.660	0.0170819
868.738	0.0170588
868.817	0.0169835
868.895	0.0171841
868.973	0.0170406
869.051	0.0170279
869.129	0.0169933
869.207	0.0170947
869.285	0.0171397
869.363	0.0170361
869.442	0.0172204
869.520	0.0170759
869.598	0.0171368
869.676	0.0171963
869.754	0.0171914
869.832	0.0172223
869.910	0.0170293
869.988	0.0171616
870.067	0.0172520
870.145	0.0172305
870.223	0.0172242
870.301	0.0171718
870.379	0.0171279
870.457	0.0173206
870.535	0.0171420
870.613	0.0171916
870.692	0.0172401
870.770	0.0171609
870.848	0.0171292
870.926	0.0172573
871.004	0.0172970
871.082	0.0173084
871.160	0.0172562
871.238	0.0171912
871.317	0.0171301
871.395	0.0171889
871.473	0.0172137
871.551	0.0174435
871.629	0.0171259
871.707	0.0173029
871.785	0.0171941
871.863	0.0172458
871.942	0.0171844
872.020	0.0171247
872.098	0.0171861
872.176	0.0172160
872.254	0.0171445
872.332	0.0172051
872.410	0.0173032
872.488	0.0173161
872.567	0.0171913
872.645	0.0172202
872.723	0.0174379
872.801	0.0172055
872.879	0.0173589
872.957	0.0172144
873.035	0.0172597
873.113	0.0173280
873.192	0.0173157
873.270	0.0172894
873.348	0.0172311
873.426	0.0172590
873.504	0.0173352
873.582	0.0173049
873.660	0.0172814
873.738	0.0171120
873.817	0.0170778
873.895	0.0171794
873.973	0.0171042
874.051	0.0171466
874.129	0.0171362
874.207	0.0171279
874.285	0.0171477
874.363	0.0170859
874.442	0.0170692
874.520	0.0171616
874.598	0.0170699
874.676	0.0170512
874.754	0.0169978
874.832	0.0169418
874.910	0.0170615
874.988	0.0169296
875.067	0.0170455
875.145	0.0170580
875.223	0.0169917
875.301	0.0169867
875.379	0.0170724
875.457	0.0170686
875.535	0.0169431
875.613	0.0170254
875.692	0.0170068
875.770	0.0170390
875.848	0.0169588
875.926	0.0171101
876.004	0.0169093
876.082	0.0168150
876.160	0.0170051
876.238	0.0169775
876.317	0.0169158
876.395	0.0169521
876.473	0.0169929
876.551	0.0170280
876.629	0.0171625
876.707	0.0169974
876.785	0.0171794
876.863	0.0169855
876.942	0.0171304
877.020	0.0172264
877.098	0.0171791
877.176	0.0168429
877.254	0.0170344
877.332	0.0171934
877.410	0.0171917
877.488	0.0172164
877.567	0.0171574
877.645	0.0172619
877.723	0.0172594
877.801	0.0172247
877.879	0.0172898
877.957	0.0172969
878.035	0.0172036
878.113	0.0172008
878.192	0.0171933
878.270	0.0172275
878.348	0.0172699
878.426	0.0173363
878.504	0.0172549
878.582	0.0172288
878.660	0.0171742
878.738	0.0173256
878.817	0.0172675
878.895	0.0172719
878.973	0.0173042
879.051	0.0173766
879.129	0.0173446
879.207	0.0174065
879.285	0.0173934
879.363	0.0173573
879.442	0.0173912
879.520	0.0172587
879.598	0.0172736
879.676	0.0173798
879.754	0.0171656
879.832	0.0172725
879.910	0.0173191
879.988	0.0173090
880.067	0.0173001
880.145	0.0172938
880.223	0.0170869
880.301	0.0173163
880.379	0.0172098
880.457	0.0171843
880.535	0.0173116
880.613	0.0171674
880.692	0.0170556
880.770	0.0170953
880.848	0.0171851
880.926	0.0172184
881.004	0.0171030
881.082	0.0171427
881.160	0.0169696
881.238	0.0170715
881.317	0.0169306
881.395	0.0170022
881.473	0.0168295
881.551	0.0167967
881.629	0.0169403
881.707	0.0169355
881.785	0.0170233
881.863	0.0168500
881.942	0.0167905
882.020	0.0168532
882.098	0.0170183
882.176	0.0168416
882.254	0.0170041
882.332	0.0169624
882.410	0.0168041
882.488	0.0169048
882.567	0.0169162
882.645	0.0170541
882.723	0.0170309
882.801	0.0169839
882.879	0.0171296
882.957	0.0170094
883.035	0.0170560
883.113	0.0170947
883.192	0.0171685
883.270	0.0171815
883.348	0.0171692
883.426	0.0171926
883.504	0.0172446
883.582	0.0171709
883.660	0.0172458
883.738	0.0172025
883.817	0.0171780
883.895	0.0172184
883.973	0.0172452
884.051	0.0172135
884.129	0.0171691
884.207	0.0171814
884.285	0.0172324
884.363	0.0172214
884.442	0.0172462
884.520	0.0171663
884.598	0.0171049
884.676	0.0173145
884.754	0.0171870
884.832	0.0171995
884.910	0.0172572
884.988	0.0173369
885.067	0.0172647
885.145	0.0173111
885.223	0.0174242
885.301	0.0173306
885.379	0.0173222
885.457	0.0174027
885.535	0.0173183
885.613	0.0172704
885.692	0.0174081
885.770	0.0173293
885.848	0.0175132
885.926	0.0175159
886.004	0.0173774
886.082	0.0174268
886.160	0.0175013
886.238	0.0174460
886.317	0.0172907
886.395	0.0173833
886.473	0.0173024
886.551	0.0173248
886.629	0.0173971
886.707	0.0174882
886.785	0.0173637
886.863	0.0173199
886.942	0.0174506
887.020	0.0174255
887.098	0.0173217
887.176	0.0171677
887.254	0.0172417
887.332	0.0174192
887.410	0.0172298
887.488	0.0173447
887.567	0.0173132
887.645	0.0172847
887.723	0.0173759
887.801	0.0173808
887.879	0.0173400
887.957	0.0172478
888.035	0.0172015
888.113	0.0172908
888.192	0.0173122
888.270	0.0172721
888.348	0.0172392
888.426	0.0172763
888.504	0.0172678
888.582	0.0174268
888.660	0.0174108
888.738	0.0174181
888.817	0.0173394
888.895	0.0173256
888.973	0.0173466
889.051	0.0173518
889.129	0.0173155
889.207	0.0173237
889.285	0.0173129
889.363	0.0173716
889.442	0.0173019
889.520	0.0173341
889.598	0.0172868
889.676	0.0171329
889.754	0.0171199
889.832	0.0171347
889.910	0.0173077
889.988	0.0172063
890.067	0.0171548
890.145	0.0169190
890.223	0.0171232
890.301	0.0171297
890.379	0.0170351
890.457	0.0170451
890.535	0.0169573
890.613	0.0169580
890.692	0.0169882
890.770	0.0169954
890.848	0.0169202
890.926	0.0168641
891.004	0.0169077
891.082	0.0167343
891.160	0.0169135
891.238	0.0169330
891.317	0.0168739
891.395	0.0169080
891.473	0.0168771
891.551	0.0168599
891.629	0.0169032
891.707	0.0169527
891.785	0.0168832
891.863	0.0169508
891.942	0.0169589
892.020	0.0169518
892.098	0.0170535
892.176	0.0170154
892.254	0.0169376
892.332	0.0170104
892.410	0.0171091
892.488	0.0170692
892.567	0.0170592
892.645	0.0170880
892.723	0.0172524
892.801	0.0170056
892.879	0.0171114
892.957	0.0172072
893.035	0.0170485
893.113	0.0170155
893.192	0.0172508
893.270	0.0171507
893.348	0.0172591
893.426	0.0169414
893.504	0.0170498
893.582	0.0171565
893.660	0.0171242
893.738	0.0171752
893.817	0.0172502
893.895	0.0172438
893.973	0.0171172
894.051	0.0171668
894.129	0.0173018
894.207	0.0173032
894.285	0.0172549
894.363	0.0171118
894.442	0.0172434
894.520	0.0171889
894.598	0.0170957
894.676	0.0172733
894.754	0.0172034
894.832	0.0171365
894.910	0.0171284
894.988	0.0171494
895.067	0.0169978
895.145	0.0171263
895.223	0.0170163
895.301	0.0169833
895.379	0.0170005
895.457	0.0171034
895.535	0.0170071
895.613	0.0170599
895.692	0.0169650
895.770	0.0169068
895.848	0.0170103
895.926	0.0170347
896.004	0.0170478
896.082	0.0170149
896.160	0.0170717
896.238	0.0170825
896.317	0.0169434
896.395	0.0171362
896.473	0.0171021
896.551	0.0169118
896.629	0.0170821
896.707	0.0169971
896.785	0.0171307
896.863	0.0170385
896.942	0.0171107
897.020	0.0170110
897.098	0.0169676
897.176	0.0170458
897.254	0.0170554
897.332	0.0170170
897.410	0.0170501
897.488	0.0171627
897.567	0.0169250
897.645	0.0170920
897.723	0.0171587
897.801	0.0171490
897.879	0.0172054
897.957	0.0171870
898.035	0.0171084
898.113	0.0171304
898.192	0.0172279
898.270	0.0170866
898.348	0.0169917
898.426	0.0172831
898.504	0.0171526
898.582	0.0171054
898.660	0.0171050
898.738	0.0171120
898.817	0.0172048
898.895	0.0171928
898.973	0.0170990
899.051	0.0169710
899.129	0.0171801
899.207	0.0171230
899.285	0.0170853
899.363	0.0171819
899.442	0.0171905
899.520	0.0170239
899.598	0.0170973
899.676	0.0171462
899.754	0.0171304
899.832	0.0171040
899.910	0.0170377
899.988	0.0172017
900.067	0.0171930
900.145	0.0171148
900.223	0.0171209
900.301	0.0170724
900.379	0.0171483
900.457	0.0171036
900.535	0.0170845
900.613	0.0171017
900.692	0.0170280
900.770	0.0171004
900.848	0.0170967
900.926	0.0170406
901.004	0.0170944
901.082	0.0171330
901.160	0.0171171
901.238	0.0170054
901.317	0.0170837
901.395	0.0171468
901.473	0.0171081
901.551	0.0171160
901.629	0.0171113
901.707	0.0172548
901.785	0.0172259
901.863	0.0171844
901.942	0.0170991
902.020	0.0172442
902.098	0.0173291
902.176	0.0173835
902.254	0.0173376
902.332	0.0171963
902.410	0.0171751
902.488	0.0172059
902.567	0.0171996
902.645	0.0173377
902.723	0.0172569
902.801	0.0173034
902.879	0.0173251
902.957	0.0172554
903.035	0.0172969
903.113	0.0172974
903.192	0.0173454
903.270	0.0173166
903.348	0.0173725
903.426	0.0174014
903.504	0.0172863
903.582	0.0171709
903.660	0.0173219
903.738	0.0173127
903.817	0.0173270
903.895	0.0173398
903.973	0.0173454
904.051	0.0173795
904.129	0.0173649
904.207	0.0173644
904.285	0.0173254
904.363	0.0172137
904.442	0.0172627
904.520	0.0172260
904.598	0.0173299
904.676	0.0172887
904.754	0.0172813
904.832	0.0172783
904.910	0.0171689
904.988	0.0172828
905.067	0.0173776
905.145	0.0172810
905.223	0.0172278
905.301	0.0172633
905.379	0.0171661
905.457	0.0171160
905.535	0.0170745
905.613	0.0170689
905.692	0.0171474
905.770	0.0171867
905.848	0.0170713
905.926	0.0170760
906.004	0.0171964
906.082	0.0170420
906.160	0.0169350
906.238	0.0169794
906.317	0.0170106
906.395	0.0170185
906.473	0.0169473
906.551	0.0169214
906.629	0.0170617
906.707	0.0171387
906.785	0.0171227
906.863	0.0170547
906.942	0.0170098
907.020	0.0171845
907.098	0.0170882
907.176	0.0170770
907.254	0.0171951
907.332	0.0171815
907.410	0.0171238
907.488	0.0172189
907.567	0.0171736
907.645	0.0171433
907.723	0.0172198
907.801	0.0174140
907.879	0.0172668
907.957	0.0171671
908.035	0.0173128
908.113	0.0173158
908.192	0.0173949
908.270	0.0173584
908.348	0.0173132
908.426	0.0173508
908.504	0.0173132
908.582	0.0172507
908.660	0.0172260
908.738	0.0171218
908.817	0.0172172
908.895	0.0171998
908.973	0.0171632
909.051	0.0173700
909.129	0.0173957
909.207	0.0173763
909.285	0.0174577
909.363	0.0172836
909.442	0.0173056
909.520	0.0175146
909.598	0.0172990
909.676	0.0174466
909.754	0.0174207
909.832	0.0173589
909.910	0.0173447
909.988	0.0174923
910.067	0.0175153
910.145	0.0174503
910.223	0.0173321
910.301	0.0174111
910.379	0.0173297
910.457	0.0173756
910.535	0.0173643
910.613	0.0173682
910.692	0.0171354
910.770	0.0171215
910.848	0.0172836
910.926	0.0172067
911.004	0.0172991
911.082	0.0173334
911.160	0.0171410
911.238	0.0171019
911.317	0.0171298
911.395	0.0170978
911.473	0.0170509
911.551	0.0171888
911.629	0.0171932
911.707	0.0171527
911.785	0.0172293
911.863	0.0171019
911.942	0.0171187
912.020	0.0171269
912.098	0.0170267
912.176	0.0170714
912.254	0.0170763
912.332	0.0172080
912.410	0.0170856
912.488	0.0170638
912.567	0.0170856
912.645	0.0172109
912.723	0.0172207
912.801	0.0172572
912.879	0.0171529
912.957	0.0171576
913.035	0.0172057
913.113	0.0171107
913.192	0.0171365
913.270	0.0173416
913.348	0.0172896
913.426	0.0172853
913.504	0.0172451
913.582	0.0173783
913.660	0.0173137
913.738	0.0173452
913.817	0.0172796
913.895	0.0172866
913.973	0.0172946
914.051	0.0173005
914.129	0.0172546
914.207	0.0172800
914.285	0.0171043
914.363	0.0172428
914.442	0.0172662
914.520	0.0171570
914.598	0.0174012
914.676	0.0172600
914.754	0.0172014
914.832	0.0171295
914.910	0.0170966
914.988	0.0172019
915.067	0.0172047
915.145	0.0170161
915.223	0.0171479
915.301	0.0171861
915.379	0.0171245
915.457	0.0169781
915.535	0.0170003
915.613	0.0171866
915.692	0.0170891
915.770	0.0169527
915.848	0.0171005
915.926	0.0169903
916.004	0.0169314
916.082	0.0171194
916.160	0.0170868
916.238	0.0169587
916.317	0.0169959
916.395	0.0170081
916.473	0.0170005
916.551	0.0169756
916.629	0.0169897
916.707	0.0169884
916.785	0.0168542
916.863	0.0168852
916.942	0.0169024
917.020	0.0171001
917.098	0.0169450
917.176	0.0169551
917.254	0.0170747
917.332	0.0169017
917.410	0.0169378
917.488	0.0169564
917.567	0.0169877
917.645	0.0169830
917.723	0.0170585
917.801	0.0170116
917.879	0.0170759
917.957	0.0169216
918.035	0.0170292
918.113	0.0171767
918.192	0.0171989
918.270	0.0169935
918.348	0.0171563
918.426	0.0171632
918.504	0.0171633
918.582	0.0172237
918.660	0.0171866
918.738	0.0171772
918.817	0.0172327
918.895	0.0172208
918.973	0.0172162
919.051	0.0171510
919.129	0.0171890
919.207	0.0171884
919.285	0.0172845
919.363	0.0173488
919.442	0.0172662
919.520	0.0171954
919.598	0.0172189
919.676	0.0172908
919.754	0.0172768
919.832	0.0172321
919.910	0.0172099
