06/01/2022	22:10:04	Ver.	4.1	UNKNOWN
Optical Delay	599.988409	Delta X		0.078125	Sweeps	1	Scan Rate	0/0
Coordinates	Axis 1	NaN	Axis 2	NaN	Axis 3	NaN	Axis 4	NaN	Axis 5	NaN	Axis 6	0.000000
TX Power	0.000000	RX Power	0.000000

599.988	0.0178158
600.067	0.0177821
600.145	0.0178474
600.223	0.0177014
600.301	0.0178799
600.379	0.0178590
600.457	0.0178741
600.535	0.0178053
600.613	0.0177918
600.692	0.0177737
600.770	0.0178842
600.848	0.0178974
600.926	0.0178141
601.004	0.0178700
601.082	0.0178789
601.160	0.0178345
601.238	0.0179037
601.317	0.0179524
601.395	0.0177544
601.473	0.0178790
601.551	0.0178905
601.629	0.0177312
601.707	0.0179149
601.785	0.0178042
601.863	0.0179432
601.942	0.0179296
602.020	0.0179830
602.098	0.0178447
602.176	0.0178285
602.254	0.0178962
602.332	0.0178220
602.410	0.0179890
602.488	0.0179649
602.567	0.0179535
602.645	0.0180244
602.723	0.0179492
602.801	0.0180270
602.879	0.0179559
602.957	0.0178500
603.035	0.0179186
603.113	0.0180315
603.192	0.0179804
603.270	0.0179622
603.348	0.0179191
603.426	0.0178788
603.504	0.0178489
603.582	0.0179002
603.660	0.0180524
603.738	0.0180447
603.817	0.0181014
603.895	0.0181438
603.973	0.0180220
604.051	0.0179530
604.129	0.0179806
604.207	0.0179919
604.285	0.0179621
604.363	0.0178202
604.442	0.0179447
604.520	0.0180197
604.598	0.0180097
604.676	0.0180953
604.754	0.0179150
604.832	0.0180109
604.910	0.0180225
604.988	0.0179682
605.067	0.0179269
605.145	0.0180406
605.223	0.0180081
605.301	0.0179095
605.379	0.0179860
605.457	0.0179388
605.535	0.0179037
605.613	0.0179905
605.692	0.0181770
605.770	0.0179197
605.848	0.0178939
605.926	0.0179901
606.004	0.0179610
606.082	0.0179617
606.160	0.0180520
606.238	0.0178750
606.317	0.0179435
606.395	0.0180939
606.473	0.0178947
606.551	0.0178536
606.629	0.0180112
606.707	0.0178642
606.785	0.0179196
606.863	0.0179377
606.942	0.0180618
607.020	0.0179958
607.098	0.0179455
607.176	0.0178300
607.254	0.0179237
607.332	0.0178501
607.410	0.0179875
607.488	0.0179783
607.567	0.0178783
607.645	0.0177841
607.723	0.0177715
607.801	0.0178758
607.879	0.0178207
607.957	0.0179152
608.035	0.0179147
608.113	0.0177551
608.192	0.0177693
608.270	0.0178149
608.348	0.0177363
608.426	0.0177637
608.504	0.0179172
608.582	0.0178241
608.660	0.0179068
608.738	0.0178696
608.817	0.0178011
608.895	0.0177656
608.973	0.0176332
609.051	0.0179044
609.129	0.0178044
609.207	0.0178526
609.285	0.0177690
609.363	0.0178720
609.442	0.0177974
609.520	0.0178248
609.598	0.0178525
609.676	0.0178884
609.754	0.0177822
609.832	0.0179449
609.910	0.0178120
609.988	0.0177387
610.067	0.0177280
610.145	0.0179122
610.223	0.0179492
610.301	0.0179466
610.379	0.0177508
610.457	0.0177605
610.535	0.0179440
610.613	0.0178819
610.692	0.0179530
610.770	0.0178336
610.848	0.0179533
610.926	0.0180554
611.004	0.0178704
611.082	0.0179199
611.160	0.0178711
611.238	0.0178326
611.317	0.0179617
611.395	0.0180860
611.473	0.0180280
611.551	0.0179198
611.629	0.0178696
611.707	0.0180679
611.785	0.0179778
611.863	0.0179354
611.942	0.0180444
612.020	0.0179409
612.098	0.0181338
612.176	0.0180531
612.254	0.0180025
612.332	0.0180128
612.410	0.0180231
612.488	0.0180324
612.567	0.0181273
612.645	0.0179708
612.723	0.0180755
612.801	0.0180756
612.879	0.0180923
612.957	0.0180700
613.035	0.0180209
613.113	0.0180107
613.192	0.0180510
613.270	0.0181337
613.348	0.0179554
613.426	0.0179973
613.504	0.0179419
613.582	0.0180952
613.660	0.0180103
613.738	0.0180192
613.817	0.0180094
613.895	0.0180033
613.973	0.0179861
614.051	0.0180690
614.129	0.0180801
614.207	0.0179642
614.285	0.0182282
614.363	0.0181009
614.442	0.0179516
614.520	0.0180478
614.598	0.0180023
614.676	0.0180605
614.754	0.0179818
614.832	0.0180900
614.910	0.0180297
614.988	0.0180116
615.067	0.0180229
615.145	0.0179896
615.223	0.0179752
615.301	0.0179981
615.379	0.0180484
615.457	0.0179536
615.535	0.0179175
615.613	0.0180077
615.692	0.0179513
615.770	0.0179075
615.848	0.0181055
615.926	0.0181171
616.004	0.0179258
616.082	0.0180026
616.160	0.0179599
616.238	0.0179163
616.317	0.0179691
616.395	0.0178970
616.473	0.0179044
616.551	0.0178971
616.629	0.0179599
616.707	0.0179707
616.785	0.0179353
616.863	0.0178502
616.942	0.0179186
617.020	0.0179890
617.098	0.0180053
617.176	0.0180934
617.254	0.0180453
617.332	0.0180126
617.410	0.0181466
617.488	0.0180551
617.567	0.0180859
617.645	0.0180063
617.723	0.0182301
617.801	0.0179953
617.879	0.0179924
617.957	0.0180788
618.035	0.0180733
618.113	0.0181097
618.192	0.0180458
618.270	0.0181080
618.348	0.0180810
618.426	0.0179623
618.504	0.0180035
618.582	0.0178675
618.660	0.0178130
618.738	0.0179905
618.817	0.0178935
618.895	0.0179738
618.973	0.0179857
619.051	0.0179423
619.129	0.0180045
619.207	0.0178725
619.285	0.0178807
619.363	0.0179577
619.442	0.0179515
619.520	0.0180116
619.598	0.0179329
619.676	0.0180239
619.754	0.0180053
619.832	0.0178400
619.910	0.0180473
619.988	0.0177662
620.067	0.0178693
620.145	0.0179422
620.223	0.0179346
620.301	0.0178326
620.379	0.0179775
620.457	0.0179594
620.535	0.0178583
620.613	0.0180409
620.692	0.0179800
620.770	0.0179330
620.848	0.0179543
620.926	0.0179221
621.004	0.0178578
621.082	0.0180338
621.160	0.0179202
621.238	0.0179721
621.317	0.0180290
621.395	0.0180701
621.473	0.0178793
621.551	0.0180222
621.629	0.0180241
621.707	0.0179426
621.785	0.0178243
621.863	0.0178510
621.942	0.0179337
622.020	0.0179266
622.098	0.0180129
622.176	0.0179152
622.254	0.0177715
622.332	0.0177875
622.410	0.0179306
622.488	0.0180066
622.567	0.0179620
622.645	0.0177816
622.723	0.0178402
622.801	0.0177896
622.879	0.0178489
622.957	0.0179330
623.035	0.0179294
623.113	0.0179562
623.192	0.0177841
623.270	0.0177580
623.348	0.0177798
623.426	0.0178086
623.504	0.0177337
623.582	0.0177586
623.660	0.0177652
623.738	0.0178758
623.817	0.0178208
623.895	0.0178476
623.973	0.0177865
624.051	0.0176592
624.129	0.0179401
624.207	0.0178938
624.285	0.0178000
624.363	0.0176804
624.442	0.0177328
624.520	0.0177520
624.598	0.0178674
624.676	0.0179286
624.754	0.0178866
624.832	0.0177591
624.910	0.0177422
624.988	0.0178417
625.067	0.0178275
625.145	0.0177892
625.223	0.0178643
625.301	0.0178983
625.379	0.0176595
625.457	0.0178362
625.535	0.0179616
625.613	0.0178967
625.692	0.0177038
625.770	0.0177901
625.848	0.0178682
625.926	0.0178885
626.004	0.0178600
626.082	0.0177217
626.160	0.0178926
626.238	0.0177511
626.317	0.0178424
626.395	0.0179268
626.473	0.0178064
626.551	0.0178822
626.629	0.0178822
626.707	0.0179137
626.785	0.0178954
626.863	0.0179711
626.942	0.0178616
627.020	0.0178352
627.098	0.0178726
627.176	0.0179138
627.254	0.0179340
627.332	0.0180324
627.410	0.0180519
627.488	0.0178649
627.567	0.0179266
627.645	0.0180005
627.723	0.0179617
627.801	0.0181382
627.879	0.0179234
627.957	0.0179683
628.035	0.0180692
628.113	0.0179627
628.192	0.0180078
628.270	0.0179478
628.348	0.0180210
628.426	0.0182384
628.504	0.0180816
628.582	0.0180887
628.660	0.0178585
628.738	0.0179791
628.817	0.0178643
628.895	0.0179193
628.973	0.0180563
629.051	0.0180270
629.129	0.0180221
629.207	0.0179547
629.285	0.0180019
629.363	0.0178830
629.442	0.0180220
629.520	0.0180135
629.598	0.0178804
629.676	0.0179752
629.754	0.0180878
629.832	0.0179987
629.910	0.0179979
629.988	0.0179314
630.067	0.0180221
630.145	0.0181084
630.223	0.0179661
630.301	0.0180003
630.379	0.0181268
630.457	0.0180998
630.535	0.0180316
630.613	0.0181257
630.692	0.0182164
630.770	0.0180383
630.848	0.0181316
630.926	0.0180093
631.004	0.0181065
631.082	0.0181528
631.160	0.0180180
631.238	0.0180619
631.317	0.0181470
631.395	0.0179939
631.473	0.0179269
631.551	0.0180979
631.629	0.0179968
631.707	0.0181561
631.785	0.0180868
631.863	0.0180693
631.942	0.0180637
632.020	0.0179403
632.098	0.0180668
632.176	0.0181139
632.254	0.0180704
632.332	0.0179720
632.410	0.0180193
632.488	0.0180134
632.567	0.0179834
632.645	0.0179794
632.723	0.0180640
632.801	0.0181714
632.879	0.0180151
632.957	0.0179031
633.035	0.0180347
633.113	0.0178857
633.192	0.0179221
633.270	0.0180679
633.348	0.0180318
633.426	0.0181202
633.504	0.0180749
633.582	0.0179678
633.660	0.0179202
633.738	0.0180516
633.817	0.0180086
633.895	0.0180365
633.973	0.0180463
634.051	0.0181358
634.129	0.0179199
634.207	0.0180029
634.285	0.0179251
634.363	0.0179768
634.442	0.0179311
634.520	0.0179404
634.598	0.0179948
634.676	0.0178737
634.754	0.0179803
634.832	0.0180183
634.910	0.0180074
634.988	0.0179131
635.067	0.0179702
635.145	0.0178989
635.223	0.0179459
635.301	0.0179828
635.379	0.0179972
635.457	0.0180630
635.535	0.0179337
635.613	0.0179351
635.692	0.0180598
635.770	0.0178341
635.848	0.0180255
635.926	0.0180137
636.004	0.0179616
636.082	0.0179224
636.160	0.0178461
636.238	0.0179397
636.317	0.0179724
636.395	0.0179622
636.473	0.0179710
636.551	0.0180630
636.629	0.0179370
636.707	0.0180738
636.785	0.0179581
636.863	0.0179770
636.942	0.0178872
637.020	0.0179533
637.098	0.0179238
637.176	0.0178741
637.254	0.0180284
637.332	0.0178530
637.410	0.0177671
637.488	0.0180581
637.567	0.0178835
637.645	0.0179170
637.723	0.0179259
637.801	0.0179265
637.879	0.0178074
637.957	0.0180032
638.035	0.0178040
638.113	0.0178649
638.192	0.0179073
638.270	0.0179300
638.348	0.0179540
638.426	0.0178722
638.504	0.0178636
638.582	0.0179090
638.660	0.0179175
638.738	0.0179745
638.817	0.0179423
638.895	0.0180622
638.973	0.0179916
639.051	0.0179499
639.129	0.0179263
639.207	0.0177982
639.285	0.0180753
639.363	0.0179907
639.442	0.0180113
639.520	0.0180114
639.598	0.0180070
639.676	0.0180647
639.754	0.0179288
639.832	0.0179523
639.910	0.0180282
639.988	0.0179408
640.067	0.0180512
640.145	0.0181415
640.223	0.0179675
640.301	0.0179421
640.379	0.0180018
640.457	0.0179761
640.535	0.0180553
640.613	0.0180681
640.692	0.0179694
640.770	0.0179724
640.848	0.0178558
640.926	0.0179118
641.004	0.0181450
641.082	0.0180094
641.160	0.0179366
641.238	0.0179459
641.317	0.0179653
641.395	0.0180750
641.473	0.0180809
641.551	0.0180797
641.629	0.0180894
641.707	0.0180019
641.785	0.0180460
641.863	0.0181673
641.942	0.0181038
642.020	0.0180175
642.098	0.0180748
642.176	0.0180307
642.254	0.0177946
642.332	0.0181023
642.410	0.0181144
642.488	0.0180273
642.567	0.0179850
642.645	0.0179583
642.723	0.0181402
642.801	0.0180479
642.879	0.0180355
642.957	0.0180758
643.035	0.0180388
643.113	0.0180321
643.192	0.0179895
643.270	0.0180053
643.348	0.0179465
643.426	0.0181004
643.504	0.0180989
643.582	0.0180364
643.660	0.0181507
643.738	0.0182229
643.817	0.0181515
643.895	0.0183340
643.973	0.0180903
644.051	0.0181322
644.129	0.0181557
644.207	0.0182077
644.285	0.0181190
644.363	0.0181524
644.442	0.0180973
644.520	0.0182356
644.598	0.0180909
644.676	0.0182085
644.754	0.0181201
644.832	0.0180981
644.910	0.0179888
644.988	0.0180321
645.067	0.0180309
645.145	0.0178817
645.223	0.0179807
645.301	0.0179978
645.379	0.0179539
645.457	0.0178896
645.535	0.0178725
645.613	0.0178403
645.692	0.0179533
645.770	0.0179584
645.848	0.0178404
645.926	0.0178218
646.004	0.0179099
646.082	0.0178124
646.160	0.0178860
646.238	0.0179245
646.317	0.0179817
646.395	0.0178008
646.473	0.0180030
646.551	0.0180302
646.629	0.0180070
646.707	0.0179604
646.785	0.0179225
646.863	0.0180672
646.942	0.0181303
647.020	0.0179945
647.098	0.0179492
647.176	0.0179050
647.254	0.0179930
647.332	0.0180665
647.410	0.0180251
647.488	0.0180889
647.567	0.0179734
647.645	0.0180950
647.723	0.0179904
647.801	0.0179128
647.879	0.0181268
647.957	0.0179811
648.035	0.0180295
648.113	0.0180002
648.192	0.0180230
648.270	0.0180818
648.348	0.0177858
648.426	0.0179672
648.504	0.0178971
648.582	0.0179633
648.660	0.0179792
648.738	0.0180485
648.817	0.0178710
648.895	0.0179524
648.973	0.0178175
649.051	0.0178200
649.129	0.0179333
649.207	0.0178952
649.285	0.0178008
649.363	0.0177583
649.442	0.0178281
649.520	0.0178135
649.598	0.0178968
649.676	0.0177570
649.754	0.0178945
649.832	0.0178281
649.910	0.0177744
649.988	0.0178458
650.067	0.0178863
650.145	0.0178200
650.223	0.0177054
650.301	0.0177796
650.379	0.0177685
650.457	0.0178202
650.535	0.0179330
650.613	0.0178804
650.692	0.0179573
650.770	0.0177942
650.848	0.0179240
650.926	0.0180468
651.004	0.0179700
651.082	0.0179560
651.160	0.0180718
651.238	0.0179736
651.317	0.0181075
651.395	0.0180579
651.473	0.0180681
651.551	0.0180400
651.629	0.0180172
651.707	0.0182108
651.785	0.0182787
651.863	0.0182133
651.942	0.0181347
652.020	0.0182323
652.098	0.0182313
652.176	0.0182159
652.254	0.0182189
652.332	0.0181630
652.410	0.0181247
652.488	0.0181187
652.567	0.0179584
652.645	0.0179952
652.723	0.0181718
652.801	0.0180460
652.879	0.0178595
652.957	0.0181325
653.035	0.0181535
653.113	0.0180256
653.192	0.0179630
653.270	0.0178536
653.348	0.0179550
653.426	0.0180433
653.504	0.0178784
653.582	0.0178625
653.660	0.0179262
653.738	0.0179716
653.817	0.0180210
653.895	0.0179627
653.973	0.0178751
654.051	0.0179169
654.129	0.0180713
654.207	0.0181617
654.285	0.0179189
654.363	0.0180033
654.442	0.0180571
654.520	0.0179347
654.598	0.0180326
654.676	0.0181116
654.754	0.0179659
654.832	0.0179187
654.910	0.0177554
654.988	0.0178542
655.067	0.0179834
655.145	0.0179838
655.223	0.0179272
655.301	0.0179494
655.379	0.0180179
655.457	0.0180701
655.535	0.0178133
655.613	0.0177576
655.692	0.0178938
655.770	0.0178938
655.848	0.0177906
655.926	0.0178690
656.004	0.0178146
656.082	0.0178267
656.160	0.0179287
656.238	0.0178755
656.317	0.0177775
656.395	0.0178183
656.473	0.0177393
656.551	0.0177798
656.629	0.0177525
656.707	0.0176133
656.785	0.0179102
656.863	0.0178812
656.942	0.0178059
657.020	0.0178061
657.098	0.0177219
657.176	0.0180518
657.254	0.0179039
657.332	0.0178684
657.410	0.0180051
657.488	0.0179250
657.567	0.0178557
657.645	0.0179288
657.723	0.0179853
657.801	0.0178491
657.879	0.0179146
657.957	0.0179558
658.035	0.0180331
658.113	0.0179597
658.192	0.0180425
658.270	0.0181990
658.348	0.0180762
658.426	0.0179691
658.504	0.0179149
658.582	0.0180840
658.660	0.0179595
658.738	0.0179100
658.817	0.0179259
658.895	0.0179846
658.973	0.0179906
659.051	0.0179202
659.129	0.0178917
659.207	0.0177393
659.285	0.0179114
659.363	0.0179808
659.442	0.0177788
659.520	0.0179499
659.598	0.0179852
659.676	0.0178431
659.754	0.0179140
659.832	0.0179525
659.910	0.0178131
659.988	0.0179426
660.067	0.0179380
660.145	0.0178877
660.223	0.0179678
660.301	0.0180436
660.379	0.0178424
660.457	0.0179829
660.535	0.0178882
660.613	0.0180389
660.692	0.0180581
660.770	0.0179868
660.848	0.0178776
660.926	0.0179346
661.004	0.0179462
661.082	0.0179111
661.160	0.0178569
661.238	0.0179647
661.317	0.0179337
661.395	0.0178717
661.473	0.0177821
661.551	0.0178073
661.629	0.0178350
661.707	0.0178382
661.785	0.0178792
661.863	0.0178080
661.942	0.0177307
662.020	0.0177870
662.098	0.0178168
662.176	0.0178947
662.254	0.0178783
662.332	0.0179574
662.410	0.0179663
662.488	0.0178339
662.567	0.0179940
662.645	0.0178813
662.723	0.0179681
662.801	0.0180528
662.879	0.0181384
662.957	0.0179471
663.035	0.0179187
663.113	0.0179931
663.192	0.0179251
663.270	0.0179251
663.348	0.0180956
663.426	0.0181465
663.504	0.0181183
663.582	0.0179964
663.660	0.0179869
663.738	0.0180139
663.817	0.0180899
663.895	0.0182124
663.973	0.0180927
664.051	0.0180464
664.129	0.0180629
664.207	0.0179957
664.285	0.0180436
664.363	0.0180555
664.442	0.0181726
664.520	0.0180470
664.598	0.0179499
664.676	0.0180781
664.754	0.0179223
664.832	0.0180408
664.910	0.0179807
664.988	0.0180479
665.067	0.0180465
665.145	0.0181151
665.223	0.0182246
665.301	0.0180331
665.379	0.0180199
665.457	0.0180939
665.535	0.0181701
665.613	0.0180952
665.692	0.0181935
665.770	0.0180872
665.848	0.0180949
665.926	0.0180921
666.004	0.0183536
666.082	0.0181933
666.160	0.0181824
666.238	0.0182566
666.317	0.0181960
666.395	0.0182256
666.473	0.0182683
666.551	0.0181696
666.629	0.0181380
666.707	0.0182906
666.785	0.0183096
666.863	0.0181365
666.942	0.0182812
667.020	0.0182983
667.098	0.0181991
667.176	0.0181503
667.254	0.0182181
667.332	0.0181445
667.410	0.0182800
667.488	0.0182503
667.567	0.0182063
667.645	0.0182510
667.723	0.0181647
667.801	0.0179872
667.879	0.0181138
667.957	0.0181739
668.035	0.0181121
668.113	0.0179736
668.192	0.0180243
668.270	0.0181594
668.348	0.0180804
668.426	0.0179498
668.504	0.0179447
668.582	0.0179218
668.660	0.0179220
668.738	0.0179018
668.817	0.0179277
668.895	0.0179008
668.973	0.0179524
669.051	0.0180223
669.129	0.0180183
669.207	0.0180283
669.285	0.0178935
669.363	0.0179562
669.442	0.0179166
669.520	0.0178117
669.598	0.0179555
669.676	0.0180025
669.754	0.0180129
669.832	0.0178711
669.910	0.0179330
669.988	0.0179151
670.067	0.0180010
670.145	0.0179648
670.223	0.0180704
670.301	0.0178436
670.379	0.0178288
670.457	0.0179364
670.535	0.0179321
670.613	0.0177768
670.692	0.0177827
670.770	0.0178514
670.848	0.0180087
670.926	0.0178095
671.004	0.0178248
671.082	0.0178017
671.160	0.0177879
671.238	0.0178398
671.317	0.0178812
671.395	0.0177955
671.473	0.0179104
671.551	0.0178639
671.629	0.0179242
671.707	0.0179022
671.785	0.0177994
671.863	0.0178136
671.942	0.0178169
672.020	0.0178300
672.098	0.0180019
672.176	0.0180496
672.254	0.0178858
672.332	0.0178962
672.410	0.0179326
672.488	0.0178300
672.567	0.0179037
672.645	0.0178147
672.723	0.0176369
672.801	0.0177045
672.879	0.0176112
672.957	0.0177521
673.035	0.0176079
673.113	0.0176290
673.192	0.0175922
673.270	0.0175819
673.348	0.0176698
673.426	0.0178091
673.504	0.0176273
673.582	0.0176407
673.660	0.0176771
673.738	0.0177077
673.817	0.0176833
673.895	0.0178202
673.973	0.0178123
674.051	0.0179350
674.129	0.0179095
674.207	0.0179547
674.285	0.0181623
674.363	0.0178818
674.442	0.0180320
674.520	0.0178936
674.598	0.0179935
674.676	0.0180778
674.754	0.0180147
674.832	0.0179669
674.910	0.0178922
674.988	0.0178491
675.067	0.0178508
675.145	0.0179441
675.223	0.0176368
675.301	0.0177461
675.379	0.0177763
675.457	0.0176496
675.535	0.0177268
675.613	0.0177170
675.692	0.0175691
675.770	0.0177443
675.848	0.0175771
675.926	0.0177066
676.004	0.0178693
676.082	0.0178759
676.160	0.0177384
676.238	0.0179369
676.317	0.0180000
676.395	0.0180680
676.473	0.0180135
676.551	0.0180547
676.629	0.0183539
676.707	0.0183123
676.785	0.0182832
676.863	0.0182160
676.942	0.0181940
677.020	0.0183496
677.098	0.0182665
677.176	0.0180481
677.254	0.0181076
677.332	0.0181366
677.410	0.0182831
677.488	0.0179974
677.567	0.0180758
677.645	0.0179617
677.723	0.0180042
677.801	0.0180094
677.879	0.0178456
677.957	0.0179639
678.035	0.0179726
678.113	0.0180400
678.192	0.0178741
678.270	0.0179282
678.348	0.0180573
678.426	0.0180050
678.504	0.0180650
678.582	0.0180391
678.660	0.0179089
678.738	0.0180419
678.817	0.0181149
678.895	0.0180161
678.973	0.0180510
679.051	0.0181084
679.129	0.0180840
679.207	0.0179012
679.285	0.0180331
679.363	0.0180688
679.442	0.0180821
679.520	0.0179514
679.598	0.0178432
679.676	0.0179279
679.754	0.0179125
679.832	0.0179607
679.910	0.0178272
679.988	0.0177515
680.067	0.0177730
680.145	0.0178242
680.223	0.0177055
680.301	0.0179009
680.379	0.0178228
680.457	0.0177739
680.535	0.0177621
680.613	0.0179625
680.692	0.0178951
680.770	0.0178365
680.848	0.0178014
680.926	0.0179137
681.004	0.0179279
681.082	0.0178388
681.160	0.0178481
681.238	0.0178786
681.317	0.0178237
681.395	0.0179504
681.473	0.0179297
681.551	0.0179206
681.629	0.0179760
681.707	0.0180225
681.785	0.0180548
681.863	0.0181386
681.942	0.0180686
682.020	0.0179920
682.098	0.0181165
682.176	0.0181919
682.254	0.0182289
682.332	0.0182533
682.410	0.0181975
682.488	0.0181837
682.567	0.0180254
682.645	0.0180774
682.723	0.0181010
682.801	0.0180495
682.879	0.0180559
682.957	0.0179926
683.035	0.0178123
683.113	0.0177320
683.192	0.0177000
683.270	0.0176748
683.348	0.0174548
683.426	0.0173467
683.504	0.0174026
683.582	0.0174258
683.660	0.0175265
683.738	0.0174218
683.817	0.0174767
683.895	0.0175433
683.973	0.0174468
684.051	0.0174607
684.129	0.0174782
684.207	0.0175441
684.285	0.0178474
684.363	0.0176454
684.442	0.0178716
684.520	0.0177068
684.598	0.0179381
684.676	0.0179774
684.754	0.0179358
684.832	0.0181118
684.910	0.0181716
684.988	0.0182885
685.067	0.0184093
685.145	0.0183501
685.223	0.0184796
685.301	0.0184579
685.379	0.0183002
685.457	0.0185564
685.535	0.0186053
685.613	0.0185593
685.692	0.0182990
685.770	0.0183326
685.848	0.0183614
685.926	0.0181747
686.004	0.0181006
686.082	0.0179605
686.160	0.0180213
686.238	0.0179585
686.317	0.0178762
686.395	0.0177405
686.473	0.0177098
686.551	0.0175532
686.629	0.0175902
686.707	0.0174512
686.785	0.0174399
686.863	0.0172973
686.942	0.0173595
687.020	0.0173226
687.098	0.0173293
687.176	0.0175331
687.254	0.0175118
687.332	0.0174568
687.410	0.0175621
687.488	0.0175572
687.567	0.0176250
687.645	0.0177401
687.723	0.0176614
687.801	0.0177610
687.879	0.0179359
687.957	0.0179784
688.035	0.0179688
688.113	0.0181738
688.192	0.0183119
688.270	0.0181805
688.348	0.0181952
688.426	0.0182845
688.504	0.0184570
688.582	0.0186792
688.660	0.0185759
688.738	0.0185429
688.817	0.0185801
688.895	0.0186987
688.973	0.0186707
689.051	0.0186643
689.129	0.0186654
689.207	0.0184760
689.285	0.0184473
689.363	0.0183768
689.442	0.0182978
689.520	0.0182000
689.598	0.0180412
689.676	0.0180567
689.754	0.0178785
689.832	0.0178832
689.910	0.0178345
689.988	0.0175206
690.067	0.0174274
690.145	0.0175262
690.223	0.0174416
690.301	0.0173827
690.379	0.0172736
690.457	0.0173343
690.535	0.0171997
690.613	0.0172262
690.692	0.0172507
690.770	0.0174312
690.848	0.0174786
690.926	0.0174962
691.004	0.0175643
691.082	0.0176362
691.160	0.0177689
691.238	0.0176912
691.317	0.0179268
691.395	0.0179539
691.473	0.0180003
691.551	0.0180884
691.629	0.0181240
691.707	0.0182251
691.785	0.0182497
691.863	0.0185064
691.942	0.0184563
692.020	0.0183932
692.098	0.0186256
692.176	0.0184824
692.254	0.0187427
692.332	0.0186485
692.410	0.0186009
692.488	0.0186092
692.567	0.0186134
692.645	0.0186113
692.723	0.0186149
692.801	0.0186249
692.879	0.0184093
692.957	0.0184641
693.035	0.0183233
693.113	0.0182705
693.192	0.0182937
693.270	0.0183263
693.348	0.0181931
693.426	0.0180704
693.504	0.0180416
693.582	0.0179539
693.660	0.0180339
693.738	0.0180013
693.817	0.0180309
693.895	0.0180833
693.973	0.0179675
694.051	0.0179058
694.129	0.0179830
694.207	0.0180180
694.285	0.0178483
694.363	0.0179498
694.442	0.0178159
694.520	0.0178640
694.598	0.0177735
694.676	0.0177644
694.754	0.0176795
694.832	0.0177191
694.910	0.0176481
694.988	0.0177170
695.067	0.0174837
695.145	0.0175087
695.223	0.0174910
695.301	0.0174843
695.379	0.0173976
695.457	0.0174890
695.535	0.0175533
695.613	0.0175064
695.692	0.0174930
695.770	0.0176189
695.848	0.0176362
695.926	0.0174821
696.004	0.0175558
696.082	0.0175819
696.160	0.0177573
696.238	0.0177615
696.317	0.0176379
696.395	0.0177251
696.473	0.0178429
696.551	0.0179175
696.629	0.0178658
696.707	0.0180797
696.785	0.0180779
696.863	0.0182790
696.942	0.0182074
697.020	0.0183098
697.098	0.0184212
697.176	0.0185738
697.254	0.0185368
697.332	0.0187283
697.410	0.0187632
697.488	0.0187206
697.567	0.0187331
697.645	0.0188663
697.723	0.0189560
697.801	0.0190681
697.879	0.0191660
697.957	0.0190712
698.035	0.0189999
698.113	0.0189678
698.192	0.0189102
698.270	0.0188393
698.348	0.0187030
698.426	0.0186818
698.504	0.0186264
698.582	0.0185411
698.660	0.0183624
698.738	0.0182345
698.817	0.0180590
698.895	0.0179488
698.973	0.0177242
699.051	0.0174889
699.129	0.0171926
699.207	0.0171166
699.285	0.0169404
699.363	0.0166478
699.442	0.0166624
699.520	0.0166101
699.598	0.0164923
699.676	0.0163902
699.754	0.0164061
699.832	0.0163708
699.910	0.0164146
699.988	0.0165521
700.067	0.0166055
700.145	0.0167864
700.223	0.0167670
700.301	0.0168816
700.379	0.0170036
700.457	0.0170809
700.535	0.0171880
700.613	0.0171317
700.692	0.0174512
700.770	0.0175833
700.848	0.0176364
700.926	0.0177283
701.004	0.0179253
701.082	0.0179265
701.160	0.0179820
701.238	0.0181281
701.317	0.0181281
701.395	0.0182040
701.473	0.0183776
701.551	0.0186140
701.629	0.0185914
701.707	0.0185963
701.785	0.0187457
701.863	0.0188499
701.942	0.0190108
702.020	0.0190598
702.098	0.0189365
702.176	0.0189642
702.254	0.0191853
702.332	0.0190373
702.410	0.0192350
702.488	0.0193451
702.567	0.0193432
702.645	0.0191177
702.723	0.0191833
702.801	0.0190108
702.879	0.0189075
702.957	0.0187459
703.035	0.0187557
703.113	0.0185489
703.192	0.0184935
703.270	0.0183411
703.348	0.0183421
703.426	0.0181448
703.504	0.0179737
703.582	0.0180204
703.660	0.0179126
703.738	0.0177578
703.817	0.0177766
703.895	0.0177261
703.973	0.0175280
704.051	0.0175583
704.129	0.0174843
704.207	0.0173531
704.285	0.0172836
704.363	0.0171124
704.442	0.0170224
704.520	0.0172204
704.598	0.0171092
704.676	0.0170504
704.754	0.0169656
704.832	0.0169244
704.910	0.0168488
704.988	0.0169683
705.067	0.0169532
705.145	0.0170061
705.223	0.0169588
705.301	0.0169791
705.379	0.0169466
705.457	0.0170597
705.535	0.0169672
705.613	0.0171668
705.692	0.0173391
705.770	0.0172952
705.848	0.0175629
705.926	0.0176042
706.004	0.0177234
706.082	0.0177526
706.160	0.0179939
706.238	0.0181956
706.317	0.0182597
706.395	0.0182900
706.473	0.0183235
706.551	0.0185039
706.629	0.0184972
706.707	0.0186545
706.785	0.0189076
706.863	0.0188383
706.942	0.0188824
707.020	0.0189824
707.098	0.0191509
707.176	0.0190456
707.254	0.0191153
707.332	0.0191814
707.410	0.0191366
707.488	0.0191077
707.567	0.0189842
707.645	0.0191518
707.723	0.0190736
707.801	0.0188359
707.879	0.0187935
707.957	0.0187904
708.035	0.0185377
708.113	0.0184441
708.192	0.0183248
708.270	0.0183048
708.348	0.0180608
708.426	0.0180929
708.504	0.0179221
708.582	0.0180563
708.660	0.0180866
708.738	0.0178595
708.817	0.0178623
708.895	0.0178381
708.973	0.0178068
709.051	0.0178375
709.129	0.0179439
709.207	0.0178920
709.285	0.0178471
709.363	0.0177071
709.442	0.0178566
709.520	0.0177860
709.598	0.0175968
709.676	0.0177248
709.754	0.0176107
709.832	0.0174937
709.910	0.0175182
709.988	0.0172868
710.067	0.0173965
710.145	0.0174204
710.223	0.0172108
710.301	0.0170882
710.379	0.0171329
710.457	0.0171713
710.535	0.0171269
710.613	0.0170921
710.692	0.0169913
710.770	0.0171137
710.848	0.0171218
710.926	0.0171316
711.004	0.0172040
711.082	0.0171651
711.160	0.0171209
711.238	0.0173269
711.317	0.0172924
711.395	0.0173280
711.473	0.0174730
711.551	0.0176928
711.629	0.0177605
711.707	0.0177598
711.785	0.0178335
711.863	0.0178233
711.942	0.0179459
712.020	0.0180148
712.098	0.0181224
712.176	0.0182283
712.254	0.0184323
712.332	0.0185040
712.410	0.0185033
712.488	0.0186771
712.567	0.0187715
712.645	0.0188021
712.723	0.0187981
712.801	0.0189930
712.879	0.0190951
712.957	0.0191050
713.035	0.0192554
713.113	0.0191561
713.192	0.0193580
713.270	0.0193111
713.348	0.0191395
713.426	0.0189951
713.504	0.0188678
713.582	0.0188659
713.660	0.0188043
713.738	0.0185262
713.817	0.0183978
713.895	0.0184591
713.973	0.0183268
714.051	0.0181515
714.129	0.0180933
714.207	0.0181043
714.285	0.0179104
714.363	0.0179238
714.442	0.0177036
714.520	0.0176812
714.598	0.0176069
714.676	0.0175085
714.754	0.0175143
714.832	0.0174652
714.910	0.0173256
714.988	0.0172382
715.067	0.0172501
715.145	0.0172543
715.223	0.0172227
715.301	0.0169699
715.379	0.0171217
715.457	0.0170636
715.535	0.0169527
715.613	0.0170226
715.692	0.0169765
715.770	0.0170225
715.848	0.0170557
715.926	0.0171270
716.004	0.0170557
716.082	0.0171700
716.160	0.0172506
716.238	0.0172795
716.317	0.0172200
716.395	0.0173212
716.473	0.0174100
716.551	0.0174570
716.629	0.0175169
716.707	0.0174941
716.785	0.0176385
716.863	0.0178175
716.942	0.0179257
717.020	0.0179309
717.098	0.0180190
717.176	0.0183148
717.254	0.0182278
717.332	0.0181477
717.410	0.0182965
717.488	0.0185825
717.567	0.0184573
717.645	0.0186182
717.723	0.0186501
717.801	0.0186119
717.879	0.0185810
717.957	0.0186389
718.035	0.0186945
718.113	0.0187492
718.192	0.0188451
718.270	0.0187202
718.348	0.0188023
718.426	0.0187789
718.504	0.0188080
718.582	0.0187656
718.660	0.0187787
718.738	0.0188663
718.817	0.0187331
718.895	0.0185899
718.973	0.0186924
719.051	0.0186844
719.129	0.0185894
719.207	0.0186580
719.285	0.0184547
719.363	0.0183530
719.442	0.0183855
719.520	0.0180179
719.598	0.0181682
719.676	0.0180443
719.754	0.0176366
719.832	0.0176339
719.910	0.0176244
719.988	0.0174931
720.067	0.0173591
720.145	0.0175070
720.223	0.0172130
720.301	0.0173673
720.379	0.0173248
720.457	0.0173524
720.535	0.0173540
720.613	0.0173528
720.692	0.0174088
720.770	0.0175144
720.848	0.0175767
720.926	0.0176273
721.004	0.0177258
721.082	0.0177634
721.160	0.0176952
721.238	0.0177882
721.317	0.0175770
721.395	0.0176592
721.473	0.0176260
721.551	0.0174913
721.629	0.0174474
721.707	0.0175443
721.785	0.0175533
721.863	0.0174895
721.942	0.0174339
722.020	0.0174577
722.098	0.0172917
722.176	0.0173962
722.254	0.0174468
722.332	0.0174380
722.410	0.0176070
722.488	0.0175912
722.567	0.0176432
722.645	0.0177583
722.723	0.0178265
722.801	0.0180299
722.879	0.0181290
722.957	0.0182557
723.035	0.0183918
723.113	0.0184998
723.192	0.0185528
723.270	0.0184936
723.348	0.0186037
723.426	0.0185934
723.504	0.0184869
723.582	0.0186384
723.660	0.0183831
723.738	0.0184510
723.817	0.0183258
723.895	0.0183105
723.973	0.0182085
724.051	0.0180698
724.129	0.0182471
724.207	0.0183200
724.285	0.0180913
724.363	0.0179595
724.442	0.0183424
724.520	0.0180571
724.598	0.0179466
724.676	0.0179838
724.754	0.0180524
724.832	0.0179615
724.910	0.0180604
724.988	0.0179731
725.067	0.0178519
725.145	0.0178578
725.223	0.0178316
725.301	0.0177921
725.379	0.0177181
725.457	0.0177894
725.535	0.0176839
725.613	0.0177888
725.692	0.0177694
725.770	0.0177541
725.848	0.0177267
725.926	0.0176752
726.004	0.0177457
726.082	0.0176721
726.160	0.0178613
726.238	0.0177577
726.317	0.0177045
726.395	0.0177937
726.473	0.0178735
726.551	0.0178446
726.629	0.0178593
726.707	0.0180894
726.785	0.0179285
726.863	0.0179204
726.942	0.0179618
727.020	0.0177544
727.098	0.0180238
727.176	0.0180795
727.254	0.0178890
727.332	0.0179461
727.410	0.0179535
727.488	0.0179788
727.567	0.0180815
727.645	0.0180564
727.723	0.0180873
727.801	0.0180835
727.879	0.0181062
727.957	0.0181583
728.035	0.0182449
728.113	0.0182143
728.192	0.0179852
728.270	0.0183340
728.348	0.0180669
728.426	0.0180219
728.504	0.0180676
728.582	0.0178820
728.660	0.0178584
728.738	0.0179199
728.817	0.0179400
728.895	0.0179453
728.973	0.0177499
729.051	0.0179879
729.129	0.0178642
729.207	0.0179948
729.285	0.0180367
729.363	0.0181316
729.442	0.0180769
729.520	0.0181897
729.598	0.0182029
729.676	0.0182932
729.754	0.0182993
729.832	0.0182673
729.910	0.0183066
729.988	0.0182304
730.067	0.0182932
730.145	0.0183410
730.223	0.0182059
730.301	0.0182977
730.379	0.0181687
730.457	0.0181232
730.535	0.0182203
730.613	0.0181618
730.692	0.0179726
730.770	0.0179462
730.848	0.0178861
730.926	0.0177713
731.004	0.0179978
731.082	0.0177538
731.160	0.0178976
731.238	0.0178368
731.317	0.0177194
731.395	0.0178033
731.473	0.0177206
731.551	0.0178508
731.629	0.0177371
731.707	0.0177699
731.785	0.0177318
731.863	0.0178072
731.942	0.0177934
732.020	0.0179177
732.098	0.0178639
732.176	0.0177784
732.254	0.0179427
732.332	0.0178372
732.410	0.0177050
732.488	0.0178288
732.567	0.0178613
732.645	0.0179248
732.723	0.0178916
732.801	0.0179371
732.879	0.0179323
732.957	0.0177261
733.035	0.0179867
733.113	0.0179353
733.192	0.0180372
733.270	0.0180296
733.348	0.0180760
733.426	0.0180800
733.504	0.0180973
733.582	0.0180901
733.660	0.0179936
733.738	0.0180228
733.817	0.0179140
733.895	0.0182283
733.973	0.0181344
734.051	0.0179868
734.129	0.0179813
734.207	0.0179356
734.285	0.0180596
734.363	0.0178549
734.442	0.0179988
734.520	0.0179606
734.598	0.0180833
734.676	0.0181379
734.754	0.0181486
734.832	0.0181330
734.910	0.0182309
734.988	0.0182465
735.067	0.0181925
735.145	0.0182268
735.223	0.0182328
735.301	0.0180534
735.379	0.0181101
735.457	0.0181522
735.535	0.0179254
735.613	0.0180137
735.692	0.0178728
735.770	0.0178598
735.848	0.0178721
735.926	0.0178030
736.004	0.0179593
736.082	0.0179375
736.160	0.0178633
736.238	0.0177916
736.317	0.0180114
736.395	0.0180624
736.473	0.0179899
736.551	0.0180692
736.629	0.0180250
736.707	0.0181238
736.785	0.0181852
736.863	0.0182584
736.942	0.0180476
737.020	0.0181990
737.098	0.0180902
737.176	0.0179660
737.254	0.0180744
737.332	0.0180740
737.410	0.0178714
737.488	0.0179118
737.567	0.0178379
737.645	0.0179515
737.723	0.0180412
737.801	0.0179372
737.879	0.0178128
737.957	0.0177655
738.035	0.0178670
738.113	0.0178023
738.192	0.0178757
738.270	0.0179646
738.348	0.0179180
738.426	0.0179004
738.504	0.0178857
738.582	0.0180392
738.660	0.0178362
738.738	0.0179319
738.817	0.0178452
738.895	0.0178003
738.973	0.0177090
739.051	0.0177133
739.129	0.0176817
739.207	0.0176401
739.285	0.0176483
739.363	0.0177048
739.442	0.0177879
739.520	0.0177592
739.598	0.0177409
739.676	0.0177540
739.754	0.0177199
739.832	0.0177055
739.910	0.0179813
739.988	0.0179758
740.067	0.0179933
740.145	0.0180177
740.223	0.0180809
740.301	0.0181070
740.379	0.0180658
740.457	0.0181735
740.535	0.0182845
740.613	0.0180730
740.692	0.0182024
740.770	0.0184021
740.848	0.0182376
740.926	0.0180994
741.004	0.0180180
741.082	0.0181229
741.160	0.0181193
741.238	0.0180650
741.317	0.0179185
741.395	0.0179781
741.473	0.0178667
741.551	0.0178844
741.629	0.0178470
741.707	0.0179618
741.785	0.0179946
741.863	0.0180157
741.942	0.0180431
742.020	0.0179599
742.098	0.0179408
742.176	0.0181056
742.254	0.0180647
742.332	0.0180014
742.410	0.0180378
742.488	0.0181332
742.567	0.0180503
742.645	0.0180721
742.723	0.0180564
742.801	0.0179690
742.879	0.0178236
742.957	0.0179668
743.035	0.0178383
743.113	0.0179110
743.192	0.0178769
743.270	0.0178993
743.348	0.0178815
743.426	0.0178036
743.504	0.0177753
743.582	0.0178654
743.660	0.0178767
743.738	0.0179919
743.817	0.0180207
743.895	0.0179815
743.973	0.0179058
744.051	0.0179221
744.129	0.0179279
744.207	0.0179292
744.285	0.0179941
744.363	0.0180887
744.442	0.0178511
744.520	0.0178443
744.598	0.0178584
744.676	0.0179235
744.754	0.0179105
744.832	0.0179502
744.910	0.0178666
744.988	0.0178526
745.067	0.0179750
745.145	0.0180054
745.223	0.0181139
745.301	0.0180650
745.379	0.0179957
745.457	0.0179364
745.535	0.0180765
745.613	0.0180186
745.692	0.0180064
745.770	0.0179852
745.848	0.0179473
745.926	0.0179546
746.004	0.0180378
746.082	0.0179877
746.160	0.0179914
746.238	0.0180135
746.317	0.0180435
746.395	0.0181487
746.473	0.0180368
746.551	0.0180074
746.629	0.0182568
746.707	0.0181718
746.785	0.0181323
746.863	0.0182086
746.942	0.0181796
747.020	0.0181763
747.098	0.0181909
747.176	0.0182467
747.254	0.0181644
747.332	0.0182060
747.410	0.0182748
747.488	0.0181567
747.567	0.0181109
747.645	0.0181208
747.723	0.0181754
747.801	0.0180680
747.879	0.0180536
747.957	0.0179470
748.035	0.0180283
748.113	0.0180834
748.192	0.0179683
748.270	0.0179806
748.348	0.0180034
748.426	0.0178941
748.504	0.0178036
748.582	0.0178136
748.660	0.0178678
748.738	0.0179394
748.817	0.0178032
748.895	0.0177177
748.973	0.0178248
749.051	0.0177930
749.129	0.0177799
749.207	0.0177030
749.285	0.0177338
749.363	0.0177526
749.442	0.0177879
749.520	0.0179275
749.598	0.0178440
749.676	0.0177612
749.754	0.0178793
749.832	0.0180182
749.910	0.0179229
749.988	0.0179813
750.067	0.0179693
750.145	0.0178994
750.223	0.0179036
750.301	0.0178381
750.379	0.0179413
750.457	0.0179900
750.535	0.0178851
750.613	0.0178231
750.692	0.0177815
750.770	0.0178211
750.848	0.0178053
750.926	0.0178534
751.004	0.0178082
751.082	0.0178172
751.160	0.0179213
751.238	0.0178106
751.317	0.0178275
751.395	0.0180034
751.473	0.0179075
751.551	0.0179134
751.629	0.0178580
751.707	0.0179454
751.785	0.0181385
751.863	0.0179205
751.942	0.0180009
752.020	0.0180145
752.098	0.0178262
752.176	0.0179666
752.254	0.0179923
752.332	0.0180235
752.410	0.0178781
752.488	0.0178772
752.567	0.0180233
752.645	0.0179926
752.723	0.0178905
752.801	0.0179513
752.879	0.0181214
752.957	0.0179852
753.035	0.0181133
753.113	0.0182764
753.192	0.0181339
753.270	0.0181051
753.348	0.0180546
753.426	0.0180143
753.504	0.0180536
753.582	0.0181049
753.660	0.0180709
753.738	0.0181342
753.817	0.0180595
753.895	0.0181550
753.973	0.0181589
754.051	0.0180970
754.129	0.0181436
754.207	0.0179647
754.285	0.0180194
754.363	0.0182017
754.442	0.0180398
754.520	0.0180278
754.598	0.0181778
754.676	0.0181722
754.754	0.0181635
754.832	0.0181721
754.910	0.0182573
754.988	0.0182450
755.067	0.0182453
755.145	0.0182833
755.223	0.0182997
755.301	0.0182998
755.379	0.0182123
755.457	0.0182296
755.535	0.0180785
755.613	0.0182417
755.692	0.0181005
755.770	0.0179917
755.848	0.0180914
755.926	0.0179639
756.004	0.0179784
756.082	0.0180412
756.160	0.0179394
756.238	0.0179380
756.317	0.0177663
756.395	0.0175990
756.473	0.0177151
756.551	0.0178776
756.629	0.0176260
756.707	0.0176327
756.785	0.0177691
756.863	0.0176599
756.942	0.0177408
757.020	0.0177500
757.098	0.0178072
757.176	0.0178251
757.254	0.0175892
757.332	0.0177934
757.410	0.0177699
757.488	0.0176795
757.567	0.0177595
757.645	0.0178111
757.723	0.0177448
757.801	0.0179258
757.879	0.0178336
757.957	0.0179227
758.035	0.0178070
758.113	0.0177753
758.192	0.0176655
758.270	0.0178705
758.348	0.0179345
758.426	0.0177967
758.504	0.0178374
758.582	0.0178342
758.660	0.0178262
758.738	0.0177513
758.817	0.0178244
758.895	0.0178182
758.973	0.0178107
759.051	0.0178841
759.129	0.0177036
759.207	0.0176437
759.285	0.0178210
759.363	0.0178233
759.442	0.0177488
759.520	0.0177458
759.598	0.0178701
759.676	0.0178070
759.754	0.0177834
759.832	0.0179526
759.910	0.0179924
759.988	0.0179990
760.067	0.0179573
760.145	0.0181042
760.223	0.0180200
760.301	0.0179373
760.379	0.0179996
760.457	0.0181264
760.535	0.0181735
760.613	0.0180773
760.692	0.0181796
760.770	0.0181592
760.848	0.0180356
760.926	0.0180080
761.004	0.0181751
761.082	0.0181486
761.160	0.0181653
761.238	0.0183000
761.317	0.0181905
761.395	0.0181074
761.473	0.0184612
761.551	0.0183781
761.629	0.0183099
761.707	0.0182407
761.785	0.0184013
761.863	0.0182861
761.942	0.0183863
762.020	0.0184651
762.098	0.0183793
762.176	0.0183186
762.254	0.0182683
762.332	0.0183218
762.410	0.0184727
762.488	0.0182886
762.567	0.0182791
762.645	0.0181501
762.723	0.0181084
762.801	0.0181161
762.879	0.0182887
762.957	0.0179870
763.035	0.0179639
763.113	0.0180607
763.192	0.0181111
763.270	0.0179894
763.348	0.0180173
763.426	0.0178243
763.504	0.0178721
763.582	0.0179464
763.660	0.0179656
763.738	0.0179984
763.817	0.0179822
763.895	0.0178643
763.973	0.0179346
764.051	0.0179411
764.129	0.0180382
764.207	0.0180051
764.285	0.0179780
764.363	0.0180083
764.442	0.0179730
764.520	0.0179196
764.598	0.0179785
764.676	0.0180320
764.754	0.0180618
764.832	0.0180426
764.910	0.0179977
764.988	0.0178900
765.067	0.0181367
765.145	0.0181070
765.223	0.0180122
765.301	0.0179756
765.379	0.0180273
765.457	0.0180812
765.535	0.0180302
765.613	0.0181853
765.692	0.0182108
765.770	0.0181355
765.848	0.0182164
765.926	0.0181245
766.004	0.0181248
766.082	0.0182334
766.160	0.0181361
766.238	0.0181355
766.317	0.0182404
766.395	0.0182839
766.473	0.0181848
766.551	0.0181541
766.629	0.0182015
766.707	0.0181812
766.785	0.0180790
766.863	0.0180568
766.942	0.0181215
767.020	0.0180294
767.098	0.0180312
767.176	0.0180885
767.254	0.0179605
767.332	0.0180133
767.410	0.0180369
767.488	0.0179892
767.567	0.0179484
767.645	0.0179243
767.723	0.0179486
767.801	0.0178598
767.879	0.0179388
767.957	0.0180381
768.035	0.0178942
768.113	0.0178920
768.192	0.0180804
768.270	0.0181223
768.348	0.0181176
768.426	0.0180763
768.504	0.0180381
768.582	0.0181320
768.660	0.0180622
768.738	0.0181595
768.817	0.0180831
768.895	0.0181016
768.973	0.0180342
769.051	0.0180310
769.129	0.0178877
769.207	0.0178696
769.285	0.0179964
769.363	0.0178745
769.442	0.0177795
769.520	0.0176675
769.598	0.0177858
769.676	0.0178011
769.754	0.0177216
769.832	0.0177317
769.910	0.0179242
769.988	0.0179292
770.067	0.0179062
770.145	0.0180096
770.223	0.0180671
770.301	0.0179962
770.379	0.0181279
770.457	0.0180970
770.535	0.0181018
770.613	0.0180943
770.692	0.0179648
770.770	0.0179015
770.848	0.0178689
770.926	0.0179044
771.004	0.0178497
771.082	0.0177070
771.160	0.0178097
771.238	0.0178751
771.317	0.0175517
771.395	0.0177126
771.473	0.0179144
771.551	0.0177451
771.629	0.0178918
771.707	0.0178857
771.785	0.0178069
771.863	0.0178172
771.942	0.0178128
772.020	0.0180029
772.098	0.0180949
772.176	0.0181069
772.254	0.0179876
772.332	0.0181292
772.410	0.0180267
772.488	0.0180194
772.567	0.0181758
772.645	0.0181888
772.723	0.0180961
772.801	0.0181240
772.879	0.0181410
772.957	0.0180127
773.035	0.0182159
773.113	0.0182742
773.192	0.0181415
773.270	0.0181055
773.348	0.0179869
773.426	0.0179965
773.504	0.0180624
773.582	0.0180282
773.660	0.0181503
773.738	0.0181387
773.817	0.0180978
773.895	0.0180152
773.973	0.0180077
774.051	0.0181001
774.129	0.0180687
774.207	0.0180600
774.285	0.0180469
774.363	0.0180621
774.442	0.0181023
774.520	0.0180862
774.598	0.0181231
774.676	0.0180489
774.754	0.0178838
774.832	0.0179423
774.910	0.0179291
774.988	0.0178732
775.067	0.0178848
775.145	0.0178508
775.223	0.0178555
775.301	0.0177633
775.379	0.0177543
775.457	0.0178028
775.535	0.0178111
775.613	0.0177522
775.692	0.0177594
775.770	0.0178851
775.848	0.0178168
775.926	0.0179208
776.004	0.0177898
776.082	0.0179279
776.160	0.0178424
776.238	0.0180264
776.317	0.0179838
776.395	0.0179723
776.473	0.0180156
776.551	0.0181596
776.629	0.0180753
776.707	0.0177850
776.785	0.0179564
776.863	0.0180218
776.942	0.0180040
777.020	0.0179195
777.098	0.0179517
777.176	0.0179887
777.254	0.0179612
777.332	0.0179128
777.410	0.0180051
777.488	0.0179256
777.567	0.0178928
777.645	0.0179365
777.723	0.0180177
777.801	0.0179411
777.879	0.0179824
777.957	0.0177461
778.035	0.0178573
778.113	0.0179671
778.192	0.0179619
778.270	0.0178602
778.348	0.0178394
778.426	0.0179455
778.504	0.0179514
778.582	0.0179813
778.660	0.0179275
778.738	0.0179112
778.817	0.0177535
778.895	0.0178296
778.973	0.0178724
779.051	0.0178815
779.129	0.0179069
779.207	0.0177158
779.285	0.0177032
779.363	0.0177345
779.442	0.0178128
779.520	0.0178866
779.598	0.0178874
779.676	0.0177882
779.754	0.0178681
779.832	0.0179118
779.910	0.0179144
779.988	0.0179387
780.067	0.0178764
780.145	0.0178035
780.223	0.0179387
780.301	0.0179446
780.379	0.0178899
780.457	0.0180068
780.535	0.0180693
780.613	0.0180484
780.692	0.0178829
780.770	0.0179198
780.848	0.0179335
780.926	0.0179865
781.004	0.0179849
781.082	0.0180165
781.160	0.0178469
781.238	0.0178500
781.317	0.0178991
781.395	0.0179336
781.473	0.0178500
781.551	0.0177196
781.629	0.0176773
781.707	0.0180097
781.785	0.0178516
781.863	0.0177310
781.942	0.0179565
782.020	0.0178667
782.098	0.0179117
782.176	0.0179675
782.254	0.0178337
782.332	0.0179226
782.410	0.0180072
782.488	0.0178805
782.567	0.0179669
782.645	0.0178899
782.723	0.0177888
782.801	0.0179390
782.879	0.0178615
782.957	0.0178693
783.035	0.0178680
783.113	0.0179267
783.192	0.0180123
783.270	0.0179561
783.348	0.0179223
783.426	0.0179366
783.504	0.0180398
783.582	0.0181029
783.660	0.0180582
783.738	0.0181954
783.817	0.0182281
783.895	0.0182591
783.973	0.0181364
784.051	0.0182790
784.129	0.0182607
784.207	0.0182784
784.285	0.0181933
784.363	0.0181491
784.442	0.0181438
784.520	0.0182790
784.598	0.0180575
784.676	0.0182001
784.754	0.0181795
784.832	0.0180529
784.910	0.0178629
784.988	0.0179818
785.067	0.0179747
785.145	0.0178766
785.223	0.0179883
785.301	0.0178645
785.379	0.0177851
785.457	0.0178626
785.535	0.0179620
785.613	0.0180227
785.692	0.0179694
785.770	0.0180395
785.848	0.0180212
785.926	0.0180195
786.004	0.0180123
786.082	0.0180482
786.160	0.0180543
786.238	0.0179833
786.317	0.0181865
786.395	0.0180974
786.473	0.0181688
786.551	0.0180260
786.629	0.0179163
786.707	0.0179929
786.785	0.0180221
786.863	0.0179266
786.942	0.0178663
787.020	0.0178796
787.098	0.0178629
787.176	0.0177580
787.254	0.0178462
787.332	0.0179185
787.410	0.0178835
787.488	0.0178970
787.567	0.0179683
787.645	0.0178700
787.723	0.0178006
787.801	0.0179318
787.879	0.0178759
787.957	0.0178275
788.035	0.0178533
788.113	0.0178914
788.192	0.0179662
788.270	0.0178934
788.348	0.0178789
788.426	0.0179163
788.504	0.0179588
788.582	0.0179840
788.660	0.0179697
788.738	0.0179056
788.817	0.0179010
788.895	0.0179642
788.973	0.0179085
789.051	0.0178935
789.129	0.0179903
789.207	0.0179875
789.285	0.0181210
789.363	0.0179187
789.442	0.0179858
789.520	0.0180511
789.598	0.0179841
789.676	0.0179900
789.754	0.0179431
789.832	0.0180306
789.910	0.0178870
789.988	0.0179967
790.067	0.0180835
790.145	0.0179379
790.223	0.0177894
790.301	0.0178561
790.379	0.0178963
790.457	0.0179865
790.535	0.0178401
790.613	0.0178432
790.692	0.0177974
790.770	0.0179626
790.848	0.0180302
790.926	0.0178999
791.004	0.0179080
791.082	0.0180822
791.160	0.0178951
791.238	0.0179063
791.317	0.0178725
791.395	0.0180270
791.473	0.0179911
791.551	0.0179294
791.629	0.0179592
791.707	0.0179955
791.785	0.0181242
791.863	0.0180830
791.942	0.0180640
792.020	0.0181113
792.098	0.0180164
792.176	0.0180302
792.254	0.0181071
792.332	0.0181154
792.410	0.0181372
792.488	0.0180081
792.567	0.0180402
792.645	0.0179764
792.723	0.0179253
792.801	0.0179223
792.879	0.0180747
792.957	0.0178164
793.035	0.0178572
793.113	0.0179224
793.192	0.0178753
793.270	0.0179079
793.348	0.0179498
793.426	0.0178751
793.504	0.0181174
793.582	0.0178710
793.660	0.0179591
793.738	0.0178798
793.817	0.0181955
793.895	0.0180047
793.973	0.0180042
794.051	0.0180406
794.129	0.0180708
794.207	0.0180790
794.285	0.0182281
794.363	0.0181226
794.442	0.0180476
794.520	0.0181352
794.598	0.0181297
794.676	0.0181661
794.754	0.0181056
794.832	0.0183109
794.910	0.0181917
794.988	0.0181737
795.067	0.0181499
795.145	0.0179709
795.223	0.0181025
795.301	0.0180933
795.379	0.0180790
795.457	0.0180376
795.535	0.0179664
795.613	0.0180492
795.692	0.0179266
795.770	0.0179941
795.848	0.0179624
795.926	0.0177721
796.004	0.0177520
796.082	0.0179131
796.160	0.0178471
796.238	0.0177258
796.317	0.0177389
796.395	0.0176157
796.473	0.0176643
796.551	0.0176754
796.629	0.0177937
796.707	0.0177692
796.785	0.0176966
796.863	0.0177456
796.942	0.0178772
797.020	0.0177993
797.098	0.0177821
797.176	0.0177770
797.254	0.0177915
797.332	0.0179189
797.410	0.0180568
797.488	0.0178925
797.567	0.0180073
797.645	0.0180656
797.723	0.0178876
797.801	0.0180181
797.879	0.0180753
797.957	0.0179374
798.035	0.0180388
798.113	0.0179119
798.192	0.0180531
798.270	0.0181436
798.348	0.0180927
798.426	0.0180513
798.504	0.0181331
798.582	0.0180404
798.660	0.0182512
798.738	0.0180205
798.817	0.0181391
798.895	0.0181937
798.973	0.0180165
799.051	0.0180545
799.129	0.0180134
799.207	0.0180055
799.285	0.0180203
799.363	0.0180135
799.442	0.0180577
799.520	0.0179866
799.598	0.0180055
799.676	0.0180199
799.754	0.0180724
799.832	0.0180059
799.910	0.0179205
799.988	0.0180077
800.067	0.0179287
800.145	0.0179649
800.223	0.0179803
800.301	0.0179663
800.379	0.0179213
800.457	0.0178419
800.535	0.0178525
800.613	0.0178123
800.692	0.0178889
800.770	0.0177139
800.848	0.0176706
800.926	0.0178684
801.004	0.0178313
801.082	0.0176402
801.160	0.0177465
801.238	0.0177967
801.317	0.0177741
801.395	0.0177041
801.473	0.0176746
801.551	0.0178263
801.629	0.0177155
801.707	0.0178163
801.785	0.0178993
801.863	0.0179305
801.942	0.0177634
802.020	0.0177769
802.098	0.0178342
802.176	0.0179598
802.254	0.0178208
802.332	0.0178645
802.410	0.0179291
802.488	0.0180185
802.567	0.0178973
802.645	0.0179648
802.723	0.0181301
802.801	0.0179655
802.879	0.0179722
802.957	0.0181770
803.035	0.0180746
803.113	0.0182245
803.192	0.0181419
803.270	0.0180701
803.348	0.0180657
803.426	0.0181083
803.504	0.0180034
803.582	0.0179197
803.660	0.0179484
803.738	0.0180500
803.817	0.0179525
803.895	0.0179314
803.973	0.0178453
804.051	0.0178397
804.129	0.0178340
804.207	0.0179287
804.285	0.0178793
804.363	0.0177612
804.442	0.0178645
804.520	0.0178230
804.598	0.0178464
804.676	0.0179041
804.754	0.0178943
804.832	0.0180202
804.910	0.0179086
804.988	0.0179464
805.067	0.0179305
805.145	0.0179656
805.223	0.0178709
805.301	0.0180070
805.379	0.0180211
805.457	0.0180453
805.535	0.0180326
805.613	0.0179182
805.692	0.0179610
805.770	0.0178953
805.848	0.0180498
805.926	0.0179915
806.004	0.0178175
806.082	0.0179253
806.160	0.0177576
806.238	0.0178131
806.317	0.0178236
806.395	0.0179044
806.473	0.0179346
806.551	0.0178207
806.629	0.0177608
806.707	0.0178902
806.785	0.0178716
806.863	0.0178793
806.942	0.0177591
807.020	0.0177623
807.098	0.0176878
807.176	0.0179542
807.254	0.0179369
807.332	0.0177701
807.410	0.0178376
807.488	0.0179185
807.567	0.0177359
807.645	0.0177969
807.723	0.0179341
807.801	0.0180060
807.879	0.0178661
807.957	0.0179089
808.035	0.0179951
808.113	0.0179005
808.192	0.0179276
808.270	0.0179817
808.348	0.0180055
808.426	0.0179243
808.504	0.0180021
808.582	0.0177869
808.660	0.0180782
808.738	0.0181826
808.817	0.0179804
808.895	0.0180016
808.973	0.0181107
809.051	0.0180658
809.129	0.0180445
809.207	0.0180476
809.285	0.0180112
809.363	0.0180161
809.442	0.0179883
809.520	0.0180198
809.598	0.0180625
809.676	0.0180925
809.754	0.0180564
809.832	0.0180733
809.910	0.0179980
809.988	0.0180402
810.067	0.0181540
810.145	0.0180577
810.223	0.0180867
810.301	0.0181748
810.379	0.0182567
810.457	0.0182170
810.535	0.0182769
810.613	0.0181594
810.692	0.0183409
810.770	0.0181783
810.848	0.0180568
810.926	0.0182245
811.004	0.0180856
811.082	0.0181406
811.160	0.0180932
811.238	0.0181087
811.317	0.0181223
811.395	0.0180461
811.473	0.0179987
811.551	0.0177750
811.629	0.0179047
811.707	0.0178328
811.785	0.0177573
811.863	0.0177524
811.942	0.0178135
812.020	0.0177824
812.098	0.0178576
812.176	0.0177721
812.254	0.0177016
812.332	0.0177346
812.410	0.0177093
812.488	0.0178455
812.567	0.0178243
812.645	0.0177134
812.723	0.0178358
812.801	0.0176985
812.879	0.0179099
812.957	0.0178104
813.035	0.0178001
813.113	0.0177053
813.192	0.0177448
813.270	0.0178619
813.348	0.0178152
813.426	0.0177393
813.504	0.0179874
813.582	0.0178558
813.660	0.0177646
813.738	0.0177717
813.817	0.0179114
813.895	0.0177843
813.973	0.0178564
814.051	0.0179853
814.129	0.0178537
814.207	0.0180181
814.285	0.0180125
814.363	0.0177827
814.442	0.0179373
814.520	0.0179280
814.598	0.0179224
814.676	0.0177736
814.754	0.0178245
814.832	0.0179298
814.910	0.0179369
814.988	0.0179987
815.067	0.0178273
815.145	0.0179064
815.223	0.0179165
815.301	0.0179332
815.379	0.0178497
815.457	0.0180091
815.535	0.0179605
815.613	0.0178642
815.692	0.0178675
815.770	0.0179891
815.848	0.0178226
815.926	0.0177596
816.004	0.0177849
816.082	0.0178963
816.160	0.0178487
816.238	0.0178542
816.317	0.0178729
816.395	0.0178851
816.473	0.0178105
816.551	0.0178698
816.629	0.0178398
816.707	0.0177802
816.785	0.0178205
816.863	0.0179586
816.942	0.0178638
817.020	0.0179430
817.098	0.0179783
817.176	0.0179651
817.254	0.0178389
817.332	0.0178107
817.410	0.0178240
817.488	0.0177735
817.567	0.0177852
817.645	0.0177953
817.723	0.0179807
817.801	0.0180037
817.879	0.0179210
817.957	0.0180617
818.035	0.0179410
818.113	0.0178665
818.192	0.0179777
818.270	0.0179789
818.348	0.0180485
818.426	0.0180977
818.504	0.0180266
818.582	0.0179960
818.660	0.0180187
818.738	0.0181243
818.817	0.0181168
818.895	0.0181592
818.973	0.0181314
819.051	0.0181775
819.129	0.0181238
819.207	0.0180676
819.285	0.0180688
819.363	0.0180424
819.442	0.0181493
819.520	0.0180970
819.598	0.0180405
819.676	0.0180012
819.754	0.0180540
819.832	0.0180883
819.910	0.0180522
819.988	0.0179600
820.067	0.0180057
820.145	0.0180668
820.223	0.0179412
820.301	0.0179066
820.379	0.0178636
820.457	0.0181067
820.535	0.0180814
820.613	0.0178868
820.692	0.0179218
820.770	0.0179491
820.848	0.0179948
820.926	0.0179887
821.004	0.0178606
821.082	0.0179022
821.160	0.0177831
821.238	0.0179346
821.317	0.0178867
821.395	0.0180315
821.473	0.0178920
821.551	0.0179294
821.629	0.0179220
821.707	0.0179022
821.785	0.0178074
821.863	0.0178978
821.942	0.0180178
822.020	0.0179906
822.098	0.0176978
822.176	0.0177906
822.254	0.0179790
822.332	0.0179841
822.410	0.0179331
822.488	0.0178344
822.567	0.0177517
822.645	0.0177578
822.723	0.0178145
822.801	0.0178569
822.879	0.0177861
822.957	0.0177515
823.035	0.0177871
823.113	0.0178512
823.192	0.0179076
823.270	0.0179302
823.348	0.0178530
823.426	0.0178642
823.504	0.0179019
823.582	0.0177958
823.660	0.0178726
823.738	0.0179624
823.817	0.0179393
823.895	0.0179116
823.973	0.0179068
824.051	0.0179314
824.129	0.0179556
824.207	0.0178902
824.285	0.0179102
824.363	0.0179919
824.442	0.0179938
824.520	0.0180562
824.598	0.0180119
824.676	0.0180169
824.754	0.0178816
824.832	0.0179877
824.910	0.0180164
824.988	0.0180322
825.067	0.0180849
825.145	0.0180109
825.223	0.0180793
825.301	0.0181957
825.379	0.0181003
825.457	0.0182771
825.535	0.0180774
825.613	0.0181773
825.692	0.0179668
825.770	0.0182362
825.848	0.0182946
825.926	0.0180949
826.004	0.0181459
826.082	0.0182590
826.160	0.0182983
826.238	0.0181465
826.317	0.0182880
826.395	0.0183488
826.473	0.0181560
826.551	0.0182147
826.629	0.0182689
826.707	0.0180744
826.785	0.0180048
826.863	0.0180759
826.942	0.0181274
827.020	0.0179613
827.098	0.0178820
827.176	0.0180657
827.254	0.0180618
827.332	0.0180180
827.410	0.0179253
827.488	0.0181230
827.567	0.0178201
827.645	0.0177782
827.723	0.0179141
827.801	0.0178737
827.879	0.0178249
827.957	0.0178923
828.035	0.0177874
828.113	0.0177840
828.192	0.0178559
828.270	0.0179335
828.348	0.0178904
828.426	0.0177863
828.504	0.0176186
828.582	0.0178324
828.660	0.0177610
828.738	0.0179014
828.817	0.0178812
828.895	0.0178130
828.973	0.0177721
829.051	0.0178392
829.129	0.0179594
829.207	0.0178652
829.285	0.0178890
829.363	0.0179972
829.442	0.0179971
829.520	0.0180830
829.598	0.0181177
829.676	0.0180894
829.754	0.0180865
829.832	0.0180425
829.910	0.0180441
829.988	0.0182132
830.067	0.0181785
830.145	0.0181978
830.223	0.0182958
830.301	0.0182818
830.379	0.0183213
830.457	0.0182018
830.535	0.0182814
830.613	0.0181876
830.692	0.0180829
830.770	0.0181892
830.848	0.0183062
830.926	0.0181834
831.004	0.0180846
831.082	0.0181052
831.160	0.0182590
831.238	0.0181564
831.317	0.0180637
831.395	0.0180170
831.473	0.0180550
831.551	0.0180126
831.629	0.0180955
831.707	0.0181214
831.785	0.0181008
831.863	0.0180592
831.942	0.0180514
832.020	0.0181575
832.098	0.0180000
832.176	0.0180980
832.254	0.0182420
832.332	0.0179876
832.410	0.0180417
832.488	0.0181767
832.567	0.0181975
832.645	0.0181751
832.723	0.0181663
832.801	0.0182146
832.879	0.0180716
832.957	0.0182472
833.035	0.0182344
833.113	0.0181342
833.192	0.0182726
833.270	0.0183703
833.348	0.0181686
833.426	0.0180262
833.504	0.0183331
833.582	0.0182158
833.660	0.0182141
833.738	0.0183224
833.817	0.0181340
833.895	0.0182174
833.973	0.0182640
834.051	0.0182175
834.129	0.0182751
834.207	0.0182053
834.285	0.0181499
834.363	0.0181843
834.442	0.0182590
834.520	0.0181774
834.598	0.0180676
834.676	0.0181618
834.754	0.0183262
834.832	0.0182709
834.910	0.0181887
834.988	0.0181026
835.067	0.0180534
835.145	0.0181727
835.223	0.0181211
835.301	0.0179929
835.379	0.0179750
835.457	0.0180683
835.535	0.0180090
835.613	0.0180374
835.692	0.0179031
835.770	0.0179164
835.848	0.0178188
835.926	0.0178107
836.004	0.0178281
836.082	0.0177269
836.160	0.0177807
836.238	0.0178028
836.317	0.0177626
836.395	0.0178387
836.473	0.0176780
836.551	0.0176897
836.629	0.0176472
836.707	0.0175575
836.785	0.0177445
836.863	0.0176482
836.942	0.0177832
837.020	0.0176807
837.098	0.0176201
837.176	0.0177454
837.254	0.0176225
837.332	0.0176794
837.410	0.0177402
837.488	0.0177192
837.567	0.0176881
837.645	0.0177703
837.723	0.0176564
837.801	0.0178052
837.879	0.0177220
837.957	0.0177401
838.035	0.0176707
838.113	0.0178049
838.192	0.0177616
838.270	0.0178516
838.348	0.0178526
838.426	0.0177525
838.504	0.0178226
838.582	0.0178239
838.660	0.0177773
838.738	0.0177639
838.817	0.0177805
838.895	0.0178538
838.973	0.0179078
839.051	0.0179655
839.129	0.0178429
839.207	0.0177599
839.285	0.0177560
839.363	0.0179063
839.442	0.0179131
839.520	0.0178085
839.598	0.0180056
839.676	0.0178370
839.754	0.0177757
839.832	0.0180903
839.910	0.0179346
839.988	0.0179777
840.067	0.0180141
840.145	0.0178918
840.223	0.0179556
840.301	0.0179189
840.379	0.0181255
840.457	0.0179371
840.535	0.0180067
840.613	0.0179996
840.692	0.0179070
840.770	0.0180741
840.848	0.0180031
840.926	0.0179471
841.004	0.0179485
841.082	0.0180036
841.160	0.0180663
841.238	0.0179584
841.317	0.0180453
841.395	0.0181450
841.473	0.0180073
841.551	0.0179329
841.629	0.0180607
841.707	0.0181003
841.785	0.0180536
841.863	0.0180656
841.942	0.0181418
842.020	0.0180340
842.098	0.0180927
842.176	0.0181785
842.254	0.0180331
842.332	0.0181565
842.410	0.0181218
842.488	0.0180898
842.567	0.0180515
842.645	0.0180671
842.723	0.0180521
842.801	0.0180457
842.879	0.0180845
842.957	0.0181062
843.035	0.0179958
843.113	0.0179384
843.192	0.0180087
843.270	0.0179424
843.348	0.0179290
843.426	0.0180499
843.504	0.0180464
843.582	0.0180344
843.660	0.0178244
843.738	0.0179548
843.817	0.0181539
843.895	0.0179327
843.973	0.0179162
844.051	0.0180206
844.129	0.0179340
844.207	0.0180511
844.285	0.0180733
844.363	0.0178751
844.442	0.0177994
844.520	0.0179109
844.598	0.0178114
844.676	0.0178899
844.754	0.0178799
844.832	0.0180293
844.910	0.0179931
844.988	0.0180329
845.067	0.0179291
845.145	0.0181052
845.223	0.0179961
845.301	0.0179195
845.379	0.0180809
845.457	0.0179924
845.535	0.0179312
845.613	0.0179662
845.692	0.0180318
845.770	0.0180174
845.848	0.0180796
845.926	0.0181539
846.004	0.0180705
846.082	0.0181089
846.160	0.0180678
846.238	0.0180007
846.317	0.0181232
846.395	0.0180843
846.473	0.0180370
846.551	0.0181213
846.629	0.0180190
846.707	0.0178928
846.785	0.0179878
846.863	0.0181537
846.942	0.0179859
847.020	0.0179757
847.098	0.0180216
847.176	0.0178107
847.254	0.0179814
847.332	0.0178222
847.410	0.0178977
847.488	0.0178998
847.567	0.0177945
847.645	0.0178768
847.723	0.0178547
847.801	0.0178430
847.879	0.0180196
847.957	0.0179666
848.035	0.0178574
848.113	0.0178715
848.192	0.0179958
848.270	0.0179491
848.348	0.0177991
848.426	0.0177149
848.504	0.0177809
848.582	0.0178905
848.660	0.0178560
848.738	0.0179482
848.817	0.0178381
848.895	0.0179721
848.973	0.0179256
849.051	0.0179012
849.129	0.0179321
849.207	0.0180206
849.285	0.0179815
849.363	0.0180608
849.442	0.0181006
849.520	0.0180603
849.598	0.0180508
849.676	0.0179438
849.754	0.0179687
849.832	0.0181097
849.910	0.0181992
849.988	0.0182298
850.067	0.0181411
850.145	0.0181844
850.223	0.0182112
850.301	0.0182886
850.379	0.0180283
850.457	0.0181554
850.535	0.0183807
850.613	0.0182361
850.692	0.0182726
850.770	0.0182022
850.848	0.0182253
850.926	0.0181887
851.004	0.0181642
851.082	0.0181696
851.160	0.0180873
851.238	0.0181493
851.317	0.0180972
851.395	0.0180417
851.473	0.0180748
851.551	0.0180852
851.629	0.0180414
851.707	0.0181505
851.785	0.0180348
851.863	0.0181010
851.942	0.0180547
852.020	0.0180201
852.098	0.0179674
852.176	0.0180708
852.254	0.0179994
852.332	0.0180515
852.410	0.0181104
852.488	0.0179762
852.567	0.0181314
852.645	0.0180659
852.723	0.0179128
852.801	0.0180296
852.879	0.0180081
852.957	0.0180341
853.035	0.0180939
853.113	0.0180746
853.192	0.0181721
853.270	0.0180211
853.348	0.0181280
853.426	0.0181351
853.504	0.0180223
853.582	0.0180722
853.660	0.0181086
853.738	0.0181059
853.817	0.0180922
853.895	0.0181488
853.973	0.0181601
854.051	0.0180287
854.129	0.0181441
854.207	0.0180336
854.285	0.0181580
854.363	0.0182691
854.442	0.0181034
854.520	0.0182486
854.598	0.0180664
854.676	0.0181557
854.754	0.0180907
854.832	0.0180537
854.910	0.0181089
854.988	0.0180212
855.067	0.0179958
855.145	0.0180875
855.223	0.0180466
855.301	0.0181596
855.379	0.0179681
855.457	0.0181207
855.535	0.0179322
855.613	0.0179139
855.692	0.0180869
855.770	0.0180502
855.848	0.0179647
855.926	0.0180249
856.004	0.0178576
856.082	0.0179235
856.160	0.0180534
856.238	0.0181148
856.317	0.0179585
856.395	0.0180093
856.473	0.0180419
856.551	0.0180159
856.629	0.0179907
856.707	0.0181245
856.785	0.0181797
856.863	0.0180983
856.942	0.0179990
857.020	0.0179565
857.098	0.0181171
857.176	0.0181527
857.254	0.0180653
857.332	0.0180003
857.410	0.0181030
857.488	0.0181100
857.567	0.0180915
857.645	0.0180302
857.723	0.0181471
857.801	0.0180479
857.879	0.0180836
857.957	0.0179733
858.035	0.0181194
858.113	0.0180052
858.192	0.0180780
858.270	0.0180316
858.348	0.0179768
858.426	0.0181078
858.504	0.0179794
858.582	0.0179883
858.660	0.0179879
858.738	0.0179906
858.817	0.0180711
858.895	0.0179131
858.973	0.0178756
859.051	0.0177887
859.129	0.0179610
859.207	0.0179830
859.285	0.0179649
859.363	0.0179817
859.442	0.0178169
859.520	0.0176025
859.598	0.0178307
859.676	0.0178441
859.754	0.0178215
859.832	0.0177244
859.910	0.0179797
859.988	0.0176610
860.067	0.0178597
860.145	0.0177161
860.223	0.0176384
860.301	0.0178254
860.379	0.0177650
860.457	0.0177473
860.535	0.0177314
860.613	0.0177628
860.692	0.0177259
860.770	0.0177926
860.848	0.0177714
860.926	0.0178767
861.004	0.0178638
861.082	0.0178380
861.160	0.0177723
861.238	0.0178280
861.317	0.0178878
861.395	0.0178176
861.473	0.0178138
861.551	0.0179500
861.629	0.0179057
861.707	0.0180076
861.785	0.0179388
861.863	0.0180640
861.942	0.0180196
862.020	0.0179002
862.098	0.0180266
862.176	0.0181506
862.254	0.0181208
862.332	0.0181283
862.410	0.0180570
862.488	0.0181471
862.567	0.0182368
862.645	0.0180457
862.723	0.0180952
862.801	0.0180449
862.879	0.0181282
862.957	0.0180609
863.035	0.0180194
863.113	0.0180058
863.192	0.0181499
863.270	0.0179645
863.348	0.0179236
863.426	0.0178884
863.504	0.0179346
863.582	0.0179313
863.660	0.0179698
863.738	0.0179581
863.817	0.0179825
863.895	0.0178293
863.973	0.0179263
864.051	0.0179373
864.129	0.0178840
864.207	0.0179836
864.285	0.0179187
864.363	0.0178579
864.442	0.0179585
864.520	0.0179771
864.598	0.0179867
864.676	0.0180343
864.754	0.0177234
864.832	0.0179710
864.910	0.0180647
864.988	0.0179660
865.067	0.0179551
865.145	0.0180677
865.223	0.0180294
865.301	0.0180849
865.379	0.0180826
865.457	0.0180014
865.535	0.0181486
865.613	0.0180482
865.692	0.0179796
865.770	0.0181409
865.848	0.0182484
865.926	0.0181025
866.004	0.0180505
866.082	0.0182208
866.160	0.0180463
866.238	0.0181681
866.317	0.0179848
866.395	0.0180302
866.473	0.0180885
866.551	0.0181044
866.629	0.0181081
866.707	0.0180460
866.785	0.0180396
866.863	0.0181241
866.942	0.0179111
867.020	0.0180312
867.098	0.0179749
867.176	0.0179850
867.254	0.0179558
867.332	0.0180150
867.410	0.0180337
867.488	0.0180542
867.567	0.0179478
867.645	0.0179975
867.723	0.0179595
867.801	0.0179642
867.879	0.0179158
867.957	0.0179635
868.035	0.0180218
868.113	0.0180175
868.192	0.0179601
868.270	0.0179018
868.348	0.0179756
868.426	0.0179312
868.504	0.0178523
868.582	0.0179420
868.660	0.0179683
868.738	0.0179248
868.817	0.0179179
868.895	0.0177819
868.973	0.0179753
869.051	0.0177441
869.129	0.0178785
869.207	0.0178255
869.285	0.0177391
869.363	0.0177924
869.442	0.0177237
869.520	0.0175564
869.598	0.0175150
869.676	0.0176878
869.754	0.0176958
869.832	0.0177089
869.910	0.0176704
869.988	0.0175330
870.067	0.0176241
870.145	0.0176928
870.223	0.0175808
870.301	0.0175602
870.379	0.0177230
870.457	0.0177905
870.535	0.0177122
870.613	0.0176804
870.692	0.0177899
870.770	0.0177237
870.848	0.0176540
870.926	0.0177874
871.004	0.0178221
871.082	0.0176517
871.160	0.0178924
871.238	0.0177791
871.317	0.0178980
871.395	0.0177702
871.473	0.0178468
871.551	0.0178948
871.629	0.0178830
871.707	0.0178178
871.785	0.0178777
871.863	0.0179315
871.942	0.0181346
872.020	0.0180521
872.098	0.0179308
872.176	0.0180393
872.254	0.0182488
872.332	0.0182219
872.410	0.0181751
872.488	0.0181760
872.567	0.0182642
872.645	0.0182081
872.723	0.0181281
872.801	0.0182075
872.879	0.0181179
872.957	0.0182336
873.035	0.0182232
873.113	0.0181906
873.192	0.0181756
873.270	0.0181238
873.348	0.0181104
873.426	0.0180800
873.504	0.0180838
873.582	0.0181964
873.660	0.0180438
873.738	0.0181048
873.817	0.0181007
873.895	0.0181168
873.973	0.0181608
874.051	0.0179607
874.129	0.0181451
874.207	0.0180954
874.285	0.0180080
874.363	0.0180644
874.442	0.0180827
874.520	0.0181126
874.598	0.0180295
874.676	0.0179620
874.754	0.0180579
874.832	0.0179366
874.910	0.0180730
874.988	0.0180547
875.067	0.0180350
875.145	0.0179518
875.223	0.0180711
875.301	0.0178441
875.379	0.0179147
875.457	0.0179705
875.535	0.0180339
875.613	0.0180241
875.692	0.0179878
875.770	0.0179838
875.848	0.0178970
875.926	0.0181487
876.004	0.0179202
876.082	0.0180320
876.160	0.0180757
876.238	0.0179932
876.317	0.0179280
876.395	0.0179030
876.473	0.0180075
876.551	0.0179301
876.629	0.0178888
876.707	0.0179823
876.785	0.0179535
876.863	0.0179544
876.942	0.0179443
877.020	0.0179554
877.098	0.0179339
877.176	0.0179678
877.254	0.0180038
877.332	0.0179660
877.410	0.0178544
877.488	0.0178977
877.567	0.0178698
877.645	0.0179131
877.723	0.0179089
877.801	0.0179939
877.879	0.0180175
877.957	0.0178296
878.035	0.0179020
878.113	0.0179008
878.192	0.0178516
878.270	0.0178815
878.348	0.0178506
878.426	0.0178653
878.504	0.0180083
878.582	0.0178603
878.660	0.0179768
878.738	0.0178381
878.817	0.0178173
878.895	0.0180321
878.973	0.0177538
879.051	0.0178719
879.129	0.0179196
879.207	0.0178938
879.285	0.0178833
879.363	0.0177252
879.442	0.0178817
879.520	0.0179195
879.598	0.0177505
879.676	0.0177686
879.754	0.0178568
879.832	0.0177710
879.910	0.0178339
879.988	0.0177290
880.067	0.0178081
880.145	0.0175984
880.223	0.0177724
880.301	0.0178308
880.379	0.0177919
880.457	0.0178473
880.535	0.0178610
880.613	0.0177776
880.692	0.0178297
880.770	0.0179453
880.848	0.0180350
880.926	0.0178515
881.004	0.0180013
881.082	0.0181237
881.160	0.0178148
881.238	0.0178668
881.317	0.0180608
881.395	0.0178914
881.473	0.0178574
881.551	0.0180959
881.629	0.0179497
881.707	0.0177858
881.785	0.0179417
881.863	0.0179835
881.942	0.0178353
882.020	0.0179109
882.098	0.0179318
882.176	0.0178954
882.254	0.0179433
882.332	0.0177928
882.410	0.0177577
882.488	0.0178332
882.567	0.0178529
882.645	0.0177945
882.723	0.0179763
882.801	0.0177747
882.879	0.0176757
882.957	0.0177536
883.035	0.0178159
883.113	0.0178111
883.192	0.0178152
883.270	0.0176509
883.348	0.0178289
883.426	0.0179023
883.504	0.0177472
883.582	0.0177305
883.660	0.0179010
883.738	0.0179594
883.817	0.0179051
883.895	0.0179466
883.973	0.0179675
884.051	0.0179954
884.129	0.0178672
884.207	0.0179739
884.285	0.0179409
884.363	0.0178474
884.442	0.0178454
884.520	0.0180170
884.598	0.0179405
884.676	0.0180569
884.754	0.0178431
884.832	0.0177933
884.910	0.0178393
884.988	0.0179104
885.067	0.0178971
885.145	0.0179321
885.223	0.0179221
885.301	0.0179474
885.379	0.0178416
885.457	0.0178914
885.535	0.0180085
885.613	0.0179331
885.692	0.0178561
885.770	0.0179226
885.848	0.0181188
885.926	0.0181100
886.004	0.0180157
886.082	0.0179774
886.160	0.0180919
886.238	0.0179794
886.317	0.0180286
886.395	0.0179320
886.473	0.0179012
886.551	0.0180338
886.629	0.0181584
886.707	0.0180562
886.785	0.0179544
886.863	0.0180550
886.942	0.0178991
887.020	0.0180154
887.098	0.0181782
887.176	0.0179652
887.254	0.0179932
887.332	0.0180222
887.410	0.0180257
887.488	0.0181521
887.567	0.0180241
887.645	0.0180186
887.723	0.0181549
887.801	0.0181404
887.879	0.0180492
887.957	0.0180342
888.035	0.0179885
888.113	0.0181857
888.192	0.0180930
888.270	0.0181080
888.348	0.0179987
888.426	0.0181892
888.504	0.0179922
888.582	0.0181815
888.660	0.0180830
888.738	0.0179924
888.817	0.0180612
888.895	0.0181471
888.973	0.0182857
889.051	0.0182122
889.129	0.0181458
889.207	0.0181528
889.285	0.0180706
889.363	0.0181530
889.442	0.0181902
889.520	0.0180740
889.598	0.0181259
889.676	0.0182547
889.754	0.0180913
889.832	0.0180688
889.910	0.0181145
889.988	0.0179827
890.067	0.0180576
890.145	0.0182013
890.223	0.0180655
890.301	0.0180450
890.379	0.0180672
890.457	0.0179655
890.535	0.0178525
890.613	0.0178684
890.692	0.0180510
890.770	0.0179654
890.848	0.0178191
890.926	0.0178654
891.004	0.0178323
891.082	0.0178295
891.160	0.0178291
891.238	0.0178548
891.317	0.0178216
891.395	0.0177846
891.473	0.0178091
891.551	0.0178384
891.629	0.0179121
891.707	0.0178806
891.785	0.0178198
891.863	0.0178390
891.942	0.0177351
892.020	0.0179515
892.098	0.0178094
892.176	0.0177525
892.254	0.0178462
892.332	0.0177782
892.410	0.0178594
892.488	0.0178230
892.567	0.0179833
892.645	0.0179101
892.723	0.0179150
892.801	0.0180031
892.879	0.0178145
892.957	0.0179814
893.035	0.0179893
893.113	0.0178756
893.192	0.0178721
893.270	0.0179023
893.348	0.0179730
893.426	0.0179638
893.504	0.0180321
893.582	0.0179221
893.660	0.0180249
893.738	0.0178974
893.817	0.0179359
893.895	0.0180054
893.973	0.0180593
894.051	0.0181292
894.129	0.0181054
894.207	0.0180872
894.285	0.0178587
894.363	0.0179197
894.442	0.0182124
894.520	0.0179165
894.598	0.0178719
894.676	0.0178691
894.754	0.0180586
894.832	0.0180742
894.910	0.0181325
894.988	0.0178780
895.067	0.0179963
895.145	0.0179018
895.223	0.0181021
895.301	0.0180602
895.379	0.0180137
895.457	0.0177299
895.535	0.0177972
895.613	0.0179617
895.692	0.0178262
895.770	0.0179580
895.848	0.0180230
895.926	0.0177322
896.004	0.0177246
896.082	0.0179193
896.160	0.0178534
896.238	0.0179060
896.317	0.0178194
896.395	0.0179241
896.473	0.0179606
896.551	0.0178008
896.629	0.0178468
896.707	0.0179906
896.785	0.0179068
896.863	0.0179249
896.942	0.0179301
897.020	0.0179786
897.098	0.0179221
897.176	0.0179003
897.254	0.0180370
897.332	0.0179084
897.410	0.0179733
897.488	0.0179963
897.567	0.0181144
897.645	0.0181438
897.723	0.0179821
897.801	0.0179765
897.879	0.0180433
897.957	0.0180269
898.035	0.0179880
898.113	0.0179882
898.192	0.0180692
898.270	0.0181073
898.348	0.0180099
898.426	0.0179841
898.504	0.0180518
898.582	0.0180999
898.660	0.0179897
898.738	0.0180385
898.817	0.0180437
898.895	0.0180404
898.973	0.0180654
899.051	0.0179984
899.129	0.0181040
899.207	0.0179944
899.285	0.0180062
899.363	0.0179768
899.442	0.0179011
899.520	0.0180015
899.598	0.0180112
899.676	0.0180285
899.754	0.0180500
899.832	0.0179486
899.910	0.0179691
899.988	0.0180410
900.067	0.0179627
900.145	0.0179962
900.223	0.0180790
900.301	0.0179286
900.379	0.0181377
900.457	0.0181618
900.535	0.0181878
900.613	0.0180737
900.692	0.0181113
900.770	0.0179969
900.848	0.0181354
900.926	0.0179306
901.004	0.0179770
901.082	0.0180940
901.160	0.0180015
901.238	0.0180890
901.317	0.0180879
901.395	0.0180033
901.473	0.0180157
901.551	0.0182008
901.629	0.0181060
901.707	0.0181079
901.785	0.0180210
901.863	0.0180270
901.942	0.0180827
902.020	0.0180476
902.098	0.0180238
902.176	0.0181534
902.254	0.0180682
902.332	0.0180854
902.410	0.0180758
902.488	0.0179937
902.567	0.0179641
902.645	0.0180742
902.723	0.0180310
902.801	0.0178899
902.879	0.0179890
902.957	0.0180842
903.035	0.0179771
903.113	0.0178301
903.192	0.0179456
903.270	0.0180302
903.348	0.0180853
903.426	0.0179053
903.504	0.0179092
903.582	0.0179704
903.660	0.0179495
903.738	0.0178273
903.817	0.0179643
903.895	0.0179134
903.973	0.0179980
904.051	0.0180995
904.129	0.0181155
904.207	0.0181004
904.285	0.0181058
904.363	0.0182319
904.442	0.0181342
904.520	0.0180225
904.598	0.0181284
904.676	0.0182725
904.754	0.0180855
904.832	0.0181257
904.910	0.0181538
904.988	0.0183335
905.067	0.0181535
905.145	0.0180381
905.223	0.0180804
905.301	0.0180679
905.379	0.0180502
905.457	0.0180848
905.535	0.0180952
905.613	0.0180656
905.692	0.0180251
905.770	0.0180402
905.848	0.0179682
905.926	0.0182392
906.004	0.0179858
906.082	0.0179254
906.160	0.0179210
906.238	0.0180934
906.317	0.0180759
906.395	0.0180349
906.473	0.0178667
906.551	0.0180300
906.629	0.0179151
906.707	0.0179846
906.785	0.0180161
906.863	0.0178097
906.942	0.0177948
907.020	0.0179893
907.098	0.0178538
907.176	0.0178404
907.254	0.0179050
907.332	0.0178699
907.410	0.0178819
907.488	0.0178757
907.567	0.0178735
907.645	0.0179655
907.723	0.0179490
907.801	0.0180597
907.879	0.0181228
907.957	0.0179681
908.035	0.0179909
908.113	0.0179391
908.192	0.0179878
908.270	0.0180293
908.348	0.0180496
908.426	0.0180965
908.504	0.0180643
908.582	0.0181377
908.660	0.0181107
908.738	0.0181684
908.817	0.0181590
908.895	0.0182131
908.973	0.0180498
909.051	0.0181492
909.129	0.0181437
909.207	0.0179793
909.285	0.0180949
909.363	0.0181005
909.442	0.0180247
909.520	0.0180673
909.598	0.0181483
909.676	0.0180616
909.754	0.0180769
909.832	0.0179939
909.910	0.0179956
909.988	0.0180549
910.067	0.0181056
910.145	0.0180412
910.223	0.0181685
910.301	0.0181755
910.379	0.0181635
910.457	0.0181790
910.535	0.0182491
910.613	0.0181744
910.692	0.0180368
910.770	0.0180756
910.848	0.0181216
910.926	0.0181490
911.004	0.0179322
911.082	0.0179844
911.160	0.0181767
911.238	0.0180194
911.317	0.0179666
911.395	0.0179863
911.473	0.0179123
911.551	0.0177975
911.629	0.0180223
911.707	0.0178874
911.785	0.0178767
911.863	0.0177999
911.942	0.0178707
912.020	0.0178605
912.098	0.0178206
912.176	0.0177726
912.254	0.0177760
912.332	0.0177365
912.410	0.0177702
912.488	0.0178751
912.567	0.0177437
912.645	0.0177905
912.723	0.0178072
912.801	0.0177528
912.879	0.0178181
912.957	0.0178721
913.035	0.0177748
913.113	0.0177724
913.192	0.0177876
913.270	0.0178463
913.348	0.0177629
913.426	0.0177845
913.504	0.0178766
913.582	0.0177125
913.660	0.0177327
913.738	0.0178493
913.817	0.0179364
913.895	0.0177896
913.973	0.0178902
914.051	0.0179260
914.129	0.0178818
914.207	0.0179408
914.285	0.0179060
914.363	0.0180334
914.442	0.0179581
914.520	0.0179893
914.598	0.0179017
914.676	0.0180898
914.754	0.0181003
914.832	0.0181770
914.910	0.0180657
914.988	0.0178962
915.067	0.0180546
915.145	0.0180376
915.223	0.0180019
915.301	0.0180261
915.379	0.0180783
915.457	0.0179401
915.535	0.0180550
915.613	0.0180257
915.692	0.0178761
915.770	0.0179539
915.848	0.0181062
915.926	0.0180492
916.004	0.0178822
916.082	0.0179668
916.160	0.0178285
916.238	0.0178971
916.317	0.0178544
916.395	0.0179639
916.473	0.0179074
916.551	0.0180537
916.629	0.0179678
916.707	0.0178904
916.785	0.0179280
916.863	0.0179747
916.942	0.0179590
917.020	0.0178904
917.098	0.0178631
917.176	0.0179894
917.254	0.0179078
917.332	0.0179698
917.410	0.0179076
917.488	0.0181984
917.567	0.0179991
917.645	0.0179591
917.723	0.0179225
917.801	0.0179550
917.879	0.0180147
917.957	0.0179752
918.035	0.0179209
918.113	0.0178660
918.192	0.0180585
918.270	0.0180014
918.348	0.0179183
918.426	0.0178960
918.504	0.0179205
918.582	0.0177569
918.660	0.0178198
918.738	0.0180354
918.817	0.0180679
918.895	0.0179198
918.973	0.0179078
919.051	0.0180701
919.129	0.0179615
919.207	0.0179453
919.285	0.0178956
919.363	0.0179530
919.442	0.0179639
919.520	0.0179719
919.598	0.0180248
919.676	0.0181325
919.754	0.0180756
919.832	0.0180946
919.910	0.0180402
