06/01/2022	21:31:52	Ver.	4.1	UNKNOWN
Optical Delay	599.988409	Delta X		0.078125	Sweeps	1	Scan Rate	0/0
Coordinates	Axis 1	NaN	Axis 2	NaN	Axis 3	NaN	Axis 4	NaN	Axis 5	NaN	Axis 6	0.000000
TX Power	0.000000	RX Power	0.000000

599.988	0.0179539
600.067	0.0179002
600.145	0.0178293
600.223	0.0179409
600.301	0.0180075
600.379	0.0180621
600.457	0.0179370
600.535	0.0179004
600.613	0.0181045
600.692	0.0179399
600.770	0.0180199
600.848	0.0180067
600.926	0.0179391
601.004	0.0179102
601.082	0.0178844
601.160	0.0178099
601.238	0.0178491
601.317	0.0180302
601.395	0.0178953
601.473	0.0179311
601.551	0.0179294
601.629	0.0180083
601.707	0.0179044
601.785	0.0178519
601.863	0.0178620
601.942	0.0178853
602.020	0.0177614
602.098	0.0178358
602.176	0.0178627
602.254	0.0179369
602.332	0.0179003
602.410	0.0178725
602.488	0.0179438
602.567	0.0179325
602.645	0.0178570
602.723	0.0178184
602.801	0.0179740
602.879	0.0179894
602.957	0.0178765
603.035	0.0177093
603.113	0.0178632
603.192	0.0178545
603.270	0.0179085
603.348	0.0179005
603.426	0.0180372
603.504	0.0179616
603.582	0.0177858
603.660	0.0178564
603.738	0.0178779
603.817	0.0180436
603.895	0.0178195
603.973	0.0177852
604.051	0.0179272
604.129	0.0178243
604.207	0.0178600
604.285	0.0179305
604.363	0.0178745
604.442	0.0179253
604.520	0.0177858
604.598	0.0179550
604.676	0.0178971
604.754	0.0179729
604.832	0.0178244
604.910	0.0178844
604.988	0.0179291
605.067	0.0177578
605.145	0.0178313
605.223	0.0177293
605.301	0.0178812
605.379	0.0179283
605.457	0.0178988
605.535	0.0177641
605.613	0.0178577
605.692	0.0178709
605.770	0.0179263
605.848	0.0179037
605.926	0.0178554
606.004	0.0178985
606.082	0.0177746
606.160	0.0179272
606.238	0.0179464
606.317	0.0179249
606.395	0.0178809
606.473	0.0178509
606.551	0.0178421
606.629	0.0178651
606.707	0.0179787
606.785	0.0178984
606.863	0.0179328
606.942	0.0179305
607.020	0.0178716
607.098	0.0177585
607.176	0.0179733
607.254	0.0178337
607.332	0.0178809
607.410	0.0177538
607.488	0.0177951
607.567	0.0179572
607.645	0.0179238
607.723	0.0179905
607.801	0.0178430
607.879	0.0178895
607.957	0.0179369
608.035	0.0177708
608.113	0.0179063
608.192	0.0179208
608.270	0.0179514
608.348	0.0179992
608.426	0.0180286
608.504	0.0179054
608.582	0.0178268
608.660	0.0179817
608.738	0.0178917
608.817	0.0178989
608.895	0.0179166
608.973	0.0179215
609.051	0.0178906
609.129	0.0178598
609.207	0.0179852
609.285	0.0178716
609.363	0.0178543
609.442	0.0180984
609.520	0.0178193
609.598	0.0179260
609.676	0.0179036
609.754	0.0178925
609.832	0.0178986
609.910	0.0178613
609.988	0.0180220
610.067	0.0179774
610.145	0.0179184
610.223	0.0177577
610.301	0.0178912
610.379	0.0180962
610.457	0.0179422
610.535	0.0179097
610.613	0.0179435
610.692	0.0178909
610.770	0.0179401
610.848	0.0179497
610.926	0.0178831
611.004	0.0178680
611.082	0.0178431
611.160	0.0178503
611.238	0.0179784
611.317	0.0179075
611.395	0.0180244
611.473	0.0178497
611.551	0.0179457
611.629	0.0179089
611.707	0.0179040
611.785	0.0178763
611.863	0.0179510
611.942	0.0178018
612.020	0.0179479
612.098	0.0179488
612.176	0.0178475
612.254	0.0180067
612.332	0.0178185
612.410	0.0178704
612.488	0.0178305
612.567	0.0179977
612.645	0.0178732
612.723	0.0178797
612.801	0.0179683
612.879	0.0178294
612.957	0.0178733
613.035	0.0178746
613.113	0.0178688
613.192	0.0179525
613.270	0.0177862
613.348	0.0178737
613.426	0.0179432
613.504	0.0178127
613.582	0.0177834
613.660	0.0178597
613.738	0.0178721
613.817	0.0180865
613.895	0.0178168
613.973	0.0177175
614.051	0.0180090
614.129	0.0178777
614.207	0.0178855
614.285	0.0178185
614.363	0.0177007
614.442	0.0178133
614.520	0.0178078
614.598	0.0178619
614.676	0.0178753
614.754	0.0180360
614.832	0.0180396
614.910	0.0177232
614.988	0.0178501
615.067	0.0179529
615.145	0.0179980
615.223	0.0179118
615.301	0.0178011
615.379	0.0177589
615.457	0.0179709
615.535	0.0179962
615.613	0.0179608
615.692	0.0180531
615.770	0.0179177
615.848	0.0179191
615.926	0.0177548
616.004	0.0179165
616.082	0.0178444
616.160	0.0178894
616.238	0.0178015
616.317	0.0179295
616.395	0.0177911
616.473	0.0178788
616.551	0.0178618
616.629	0.0177357
616.707	0.0178310
616.785	0.0177526
616.863	0.0177797
616.942	0.0178458
617.020	0.0180069
617.098	0.0177894
617.176	0.0179613
617.254	0.0178535
617.332	0.0180592
617.410	0.0179965
617.488	0.0179564
617.567	0.0178514
617.645	0.0178178
617.723	0.0179428
617.801	0.0179944
617.879	0.0180087
617.957	0.0179589
618.035	0.0178291
618.113	0.0180004
618.192	0.0179955
618.270	0.0179195
618.348	0.0179210
618.426	0.0178487
618.504	0.0179697
618.582	0.0180112
618.660	0.0179085
618.738	0.0179300
618.817	0.0178629
618.895	0.0177602
618.973	0.0179953
619.051	0.0179519
619.129	0.0179247
619.207	0.0178926
619.285	0.0178548
619.363	0.0180051
619.442	0.0179419
619.520	0.0178998
619.598	0.0179912
619.676	0.0178651
619.754	0.0178288
619.832	0.0179198
619.910	0.0179063
619.988	0.0177978
620.067	0.0178825
620.145	0.0179636
620.223	0.0177831
620.301	0.0178025
620.379	0.0178456
620.457	0.0180159
620.535	0.0179557
620.613	0.0178792
620.692	0.0178966
620.770	0.0178983
620.848	0.0178782
620.926	0.0179679
621.004	0.0180356
621.082	0.0179288
621.160	0.0178362
621.238	0.0178053
621.317	0.0179425
621.395	0.0179954
621.473	0.0178451
621.551	0.0179027
621.629	0.0178858
621.707	0.0179617
621.785	0.0179716
621.863	0.0178506
621.942	0.0178782
622.020	0.0179962
622.098	0.0179269
622.176	0.0179528
622.254	0.0178340
622.332	0.0179514
622.410	0.0178525
622.488	0.0178753
622.567	0.0180193
622.645	0.0178818
622.723	0.0179181
622.801	0.0178588
622.879	0.0177699
622.957	0.0179246
623.035	0.0179073
623.113	0.0178746
623.192	0.0178277
623.270	0.0179285
623.348	0.0179892
623.426	0.0179111
623.504	0.0178454
623.582	0.0179539
623.660	0.0179371
623.738	0.0178242
623.817	0.0180077
623.895	0.0178402
623.973	0.0178829
624.051	0.0179024
624.129	0.0178687
624.207	0.0178423
624.285	0.0178354
624.363	0.0179103
624.442	0.0180778
624.520	0.0179430
624.598	0.0179225
624.676	0.0178361
624.754	0.0178992
624.832	0.0178716
624.910	0.0177789
624.988	0.0178595
625.067	0.0179020
625.145	0.0178029
625.223	0.0178210
625.301	0.0178719
625.379	0.0178677
625.457	0.0178037
625.535	0.0178821
625.613	0.0178818
625.692	0.0178430
625.770	0.0178534
625.848	0.0179714
625.926	0.0178812
626.004	0.0178325
626.082	0.0178635
626.160	0.0179793
626.238	0.0179342
626.317	0.0178597
626.395	0.0179746
626.473	0.0179532
626.551	0.0179552
626.629	0.0179941
626.707	0.0178716
626.785	0.0178920
626.863	0.0179207
626.942	0.0178973
627.020	0.0179567
627.098	0.0181461
627.176	0.0180903
627.254	0.0181248
627.332	0.0179222
627.410	0.0178607
627.488	0.0179590
627.567	0.0178332
627.645	0.0179768
627.723	0.0178305
627.801	0.0178818
627.879	0.0178155
627.957	0.0179075
628.035	0.0179374
628.113	0.0179311
628.192	0.0178508
628.270	0.0178880
628.348	0.0179044
628.426	0.0179076
628.504	0.0179313
628.582	0.0180019
628.660	0.0180039
628.738	0.0178619
628.817	0.0179607
628.895	0.0178492
628.973	0.0179214
629.051	0.0178699
629.129	0.0179694
629.207	0.0179314
629.285	0.0179225
629.363	0.0179668
629.442	0.0179317
629.520	0.0178907
629.598	0.0179311
629.676	0.0178851
629.754	0.0178575
629.832	0.0179449
629.910	0.0178891
629.988	0.0179072
630.067	0.0178890
630.145	0.0179152
630.223	0.0178899
630.301	0.0179500
630.379	0.0178707
630.457	0.0178854
630.535	0.0178780
630.613	0.0178887
630.692	0.0178580
630.770	0.0178966
630.848	0.0176799
630.926	0.0179141
631.004	0.0180173
631.082	0.0177359
631.160	0.0179166
631.238	0.0179591
631.317	0.0178590
631.395	0.0178844
631.473	0.0179967
631.551	0.0178740
631.629	0.0177196
631.707	0.0179001
631.785	0.0179136
631.863	0.0179919
631.942	0.0178446
632.020	0.0178719
632.098	0.0179770
632.176	0.0177979
632.254	0.0179184
632.332	0.0178143
632.410	0.0178051
632.488	0.0179278
632.567	0.0179391
632.645	0.0177898
632.723	0.0179152
632.801	0.0179161
632.879	0.0177892
632.957	0.0178266
633.035	0.0177531
633.113	0.0179724
633.192	0.0178230
633.270	0.0178766
633.348	0.0180243
633.426	0.0178040
633.504	0.0178304
633.582	0.0178231
633.660	0.0176992
633.738	0.0178085
633.817	0.0179904
633.895	0.0179044
633.973	0.0179604
634.051	0.0179159
634.129	0.0180196
634.207	0.0177166
634.285	0.0178560
634.363	0.0178156
634.442	0.0178514
634.520	0.0180125
634.598	0.0178686
634.676	0.0178580
634.754	0.0178481
634.832	0.0179469
634.910	0.0179825
634.988	0.0179208
635.067	0.0179143
635.145	0.0179282
635.223	0.0178898
635.301	0.0178354
635.379	0.0179674
635.457	0.0178572
635.535	0.0178941
635.613	0.0178603
635.692	0.0179788
635.770	0.0179493
635.848	0.0178807
635.926	0.0178023
636.004	0.0180327
636.082	0.0179989
636.160	0.0178059
636.238	0.0179575
636.317	0.0179256
636.395	0.0179610
636.473	0.0178313
636.551	0.0178397
636.629	0.0178934
636.707	0.0179501
636.785	0.0178829
636.863	0.0179559
636.942	0.0179832
637.020	0.0178196
637.098	0.0178472
637.176	0.0178339
637.254	0.0178406
637.332	0.0179094
637.410	0.0179116
637.488	0.0178674
637.567	0.0179350
637.645	0.0179971
637.723	0.0178119
637.801	0.0178507
637.879	0.0177570
637.957	0.0179246
638.035	0.0179110
638.113	0.0179163
638.192	0.0180065
638.270	0.0178564
638.348	0.0177854
638.426	0.0179704
638.504	0.0180217
638.582	0.0179382
638.660	0.0179215
638.738	0.0178655
638.817	0.0177178
638.895	0.0177854
638.973	0.0179826
639.051	0.0177926
639.129	0.0179513
639.207	0.0179297
639.285	0.0179034
639.363	0.0178273
639.442	0.0178809
639.520	0.0180050
639.598	0.0179545
639.676	0.0178404
639.754	0.0179356
639.832	0.0179600
639.910	0.0178322
639.988	0.0179233
640.067	0.0180122
640.145	0.0177795
640.223	0.0179374
640.301	0.0178125
640.379	0.0178979
640.457	0.0177904
640.535	0.0177502
640.613	0.0179330
640.692	0.0179454
640.770	0.0178851
640.848	0.0178355
640.926	0.0179385
641.004	0.0179530
641.082	0.0178735
641.160	0.0177459
641.238	0.0177306
641.317	0.0178621
641.395	0.0178957
641.473	0.0178792
641.551	0.0179530
641.629	0.0177975
641.707	0.0180488
641.785	0.0179176
641.863	0.0178492
641.942	0.0178467
642.020	0.0177585
642.098	0.0178680
642.176	0.0179865
642.254	0.0179115
642.332	0.0178712
642.410	0.0177989
642.488	0.0178653
642.567	0.0178099
642.645	0.0179058
642.723	0.0178688
642.801	0.0179768
642.879	0.0178426
642.957	0.0178773
643.035	0.0179287
643.113	0.0179665
643.192	0.0177551
643.270	0.0178334
643.348	0.0179223
643.426	0.0179733
643.504	0.0178765
643.582	0.0177300
643.660	0.0178807
643.738	0.0178531
643.817	0.0179671
643.895	0.0180040
643.973	0.0179334
644.051	0.0176608
644.129	0.0179153
644.207	0.0179607
644.285	0.0177882
644.363	0.0180067
644.442	0.0177322
644.520	0.0179482
644.598	0.0179641
644.676	0.0179231
644.754	0.0178788
644.832	0.0178796
644.910	0.0180112
644.988	0.0180131
645.067	0.0178609
645.145	0.0179033
645.223	0.0180560
645.301	0.0178403
645.379	0.0179939
645.457	0.0179385
645.535	0.0178561
645.613	0.0180107
645.692	0.0179568
645.770	0.0178733
645.848	0.0178584
645.926	0.0177905
646.004	0.0179304
646.082	0.0180022
646.160	0.0177983
646.238	0.0178413
646.317	0.0179850
646.395	0.0180565
646.473	0.0178071
646.551	0.0179900
646.629	0.0177220
646.707	0.0178645
646.785	0.0179223
646.863	0.0180022
646.942	0.0179221
647.020	0.0178875
647.098	0.0180614
647.176	0.0179492
647.254	0.0178113
647.332	0.0179035
647.410	0.0178899
647.488	0.0178808
647.567	0.0178358
647.645	0.0177716
647.723	0.0179467
647.801	0.0178953
647.879	0.0178835
647.957	0.0179585
648.035	0.0178721
648.113	0.0178188
648.192	0.0177646
648.270	0.0178878
648.348	0.0179517
648.426	0.0179804
648.504	0.0179213
648.582	0.0178399
648.660	0.0179009
648.738	0.0180264
648.817	0.0180331
648.895	0.0178427
648.973	0.0179270
649.051	0.0179209
649.129	0.0178911
649.207	0.0178968
649.285	0.0178554
649.363	0.0178708
649.442	0.0179684
649.520	0.0179044
649.598	0.0178889
649.676	0.0177094
649.754	0.0177806
649.832	0.0180241
649.910	0.0178599
649.988	0.0178683
650.067	0.0178749
650.145	0.0180389
650.223	0.0177722
650.301	0.0179453
650.379	0.0178790
650.457	0.0178849
650.535	0.0179031
650.613	0.0177854
650.692	0.0178922
650.770	0.0178846
650.848	0.0179673
650.926	0.0178735
651.004	0.0180198
651.082	0.0177780
651.160	0.0179528
651.238	0.0180280
651.317	0.0178400
651.395	0.0178384
651.473	0.0180464
651.551	0.0181008
651.629	0.0178549
651.707	0.0178100
651.785	0.0179530
651.863	0.0179031
651.942	0.0178706
652.020	0.0178247
652.098	0.0178644
652.176	0.0177618
652.254	0.0179208
652.332	0.0178250
652.410	0.0178554
652.488	0.0178570
652.567	0.0178696
652.645	0.0180130
652.723	0.0179398
652.801	0.0178778
652.879	0.0178143
652.957	0.0178635
653.035	0.0179617
653.113	0.0178793
653.192	0.0178387
653.270	0.0179723
653.348	0.0178875
653.426	0.0179198
653.504	0.0179221
653.582	0.0179704
653.660	0.0178740
653.738	0.0178181
653.817	0.0179024
653.895	0.0178534
653.973	0.0179387
654.051	0.0177882
654.129	0.0177596
654.207	0.0178323
654.285	0.0177851
654.363	0.0180355
654.442	0.0178199
654.520	0.0179954
654.598	0.0178619
654.676	0.0179687
654.754	0.0179204
654.832	0.0179698
654.910	0.0179386
654.988	0.0178426
655.067	0.0178842
655.145	0.0180336
655.223	0.0179953
655.301	0.0178849
655.379	0.0178194
655.457	0.0178656
655.535	0.0179800
655.613	0.0178905
655.692	0.0180002
655.770	0.0180462
655.848	0.0179067
655.926	0.0178829
656.004	0.0178862
656.082	0.0179781
656.160	0.0178625
656.238	0.0179916
656.317	0.0179394
656.395	0.0179741
656.473	0.0178865
656.551	0.0177373
656.629	0.0179448
656.707	0.0180426
656.785	0.0178744
656.863	0.0180312
656.942	0.0178381
657.020	0.0178310
657.098	0.0177715
657.176	0.0179453
657.254	0.0179388
657.332	0.0178780
657.410	0.0179704
657.488	0.0178609
657.567	0.0178266
657.645	0.0179343
657.723	0.0181015
657.801	0.0179466
657.879	0.0179207
657.957	0.0179352
658.035	0.0179828
658.113	0.0179553
658.192	0.0179227
658.270	0.0179826
658.348	0.0179136
658.426	0.0180275
658.504	0.0179616
658.582	0.0178042
658.660	0.0180116
658.738	0.0180116
658.817	0.0179469
658.895	0.0179826
658.973	0.0178674
659.051	0.0179487
659.129	0.0178832
659.207	0.0178609
659.285	0.0179140
659.363	0.0180312
659.442	0.0180972
659.520	0.0178616
659.598	0.0179050
659.676	0.0179139
659.754	0.0179460
659.832	0.0179708
659.910	0.0180565
659.988	0.0179463
660.067	0.0180171
660.145	0.0179446
660.223	0.0178934
660.301	0.0178356
660.379	0.0178251
660.457	0.0178943
660.535	0.0178017
660.613	0.0178188
660.692	0.0178824
660.770	0.0178677
660.848	0.0178755
660.926	0.0178829
661.004	0.0179317
661.082	0.0178786
661.160	0.0179118
661.238	0.0180321
661.317	0.0178686
661.395	0.0178856
661.473	0.0179359
661.551	0.0178511
661.629	0.0179906
661.707	0.0179249
661.785	0.0178687
661.863	0.0179670
661.942	0.0179445
662.020	0.0179019
662.098	0.0179815
662.176	0.0178794
662.254	0.0179031
662.332	0.0178679
662.410	0.0179493
662.488	0.0178470
662.567	0.0180368
662.645	0.0178733
662.723	0.0178815
662.801	0.0177705
662.879	0.0178699
662.957	0.0178672
663.035	0.0179107
663.113	0.0180164
663.192	0.0180191
663.270	0.0178980
663.348	0.0179168
663.426	0.0178934
663.504	0.0178587
663.582	0.0179488
663.660	0.0180164
663.738	0.0179955
663.817	0.0177923
663.895	0.0179954
663.973	0.0180397
664.051	0.0179295
664.129	0.0179703
664.207	0.0179480
664.285	0.0180038
664.363	0.0179897
664.442	0.0178542
664.520	0.0179928
664.598	0.0178538
664.676	0.0178205
664.754	0.0179092
664.832	0.0180060
664.910	0.0180679
664.988	0.0179049
665.067	0.0180581
665.145	0.0180347
665.223	0.0178890
665.301	0.0179378
665.379	0.0179323
665.457	0.0179165
665.535	0.0178838
665.613	0.0179294
665.692	0.0178605
665.770	0.0179309
665.848	0.0180764
665.926	0.0180328
666.004	0.0180022
666.082	0.0179798
666.160	0.0178419
666.238	0.0179366
666.317	0.0179675
666.395	0.0179716
666.473	0.0180050
666.551	0.0179364
666.629	0.0179724
666.707	0.0179497
666.785	0.0179890
666.863	0.0179200
666.942	0.0179622
667.020	0.0179414
667.098	0.0178388
667.176	0.0180022
667.254	0.0178159
667.332	0.0178798
667.410	0.0180040
667.488	0.0178582
667.567	0.0178615
667.645	0.0179095
667.723	0.0180313
667.801	0.0178519
667.879	0.0180052
667.957	0.0180116
668.035	0.0178306
668.113	0.0179273
668.192	0.0180123
668.270	0.0179413
668.348	0.0178432
668.426	0.0179311
668.504	0.0179172
668.582	0.0179809
668.660	0.0180195
668.738	0.0179927
668.817	0.0179872
668.895	0.0180013
668.973	0.0180611
669.051	0.0179085
669.129	0.0180508
669.207	0.0179215
669.285	0.0178876
669.363	0.0178682
669.442	0.0179921
669.520	0.0179353
669.598	0.0180518
669.676	0.0178930
669.754	0.0178951
669.832	0.0179379
669.910	0.0179462
669.988	0.0178423
670.067	0.0178324
670.145	0.0177197
670.223	0.0179984
670.301	0.0179255
670.379	0.0178557
670.457	0.0179295
670.535	0.0179143
670.613	0.0178798
670.692	0.0178666
670.770	0.0180027
670.848	0.0178356
670.926	0.0179295
671.004	0.0178278
671.082	0.0178777
671.160	0.0179424
671.238	0.0179430
671.317	0.0178837
671.395	0.0178339
671.473	0.0179543
671.551	0.0177854
671.629	0.0179093
671.707	0.0179681
671.785	0.0179557
671.863	0.0179417
671.942	0.0178689
672.020	0.0179658
672.098	0.0178493
672.176	0.0178729
672.254	0.0180102
672.332	0.0179877
672.410	0.0179097
672.488	0.0179356
672.567	0.0177283
672.645	0.0177914
672.723	0.0179498
672.801	0.0178191
672.879	0.0179476
672.957	0.0178256
673.035	0.0178973
673.113	0.0178315
673.192	0.0179277
673.270	0.0179996
673.348	0.0178230
673.426	0.0179346
673.504	0.0178085
673.582	0.0178653
673.660	0.0178790
673.738	0.0178217
673.817	0.0180141
673.895	0.0179400
673.973	0.0178390
674.051	0.0178139
674.129	0.0178545
674.207	0.0178541
674.285	0.0177943
674.363	0.0180429
674.442	0.0178616
674.520	0.0178128
674.598	0.0178436
674.676	0.0177908
674.754	0.0179726
674.832	0.0178351
674.910	0.0178381
674.988	0.0178700
675.067	0.0179537
675.145	0.0176952
675.223	0.0178919
675.301	0.0177696
675.379	0.0178946
675.457	0.0178878
675.535	0.0178679
675.613	0.0177586
675.692	0.0178282
675.770	0.0179051
675.848	0.0178580
675.926	0.0179493
676.004	0.0177924
676.082	0.0179312
676.160	0.0179794
676.238	0.0178914
676.317	0.0178423
676.395	0.0178029
676.473	0.0178580
676.551	0.0179111
676.629	0.0179386
676.707	0.0177881
676.785	0.0179597
676.863	0.0179028
676.942	0.0179102
677.020	0.0179917
677.098	0.0178750
677.176	0.0178094
677.254	0.0177965
677.332	0.0179508
677.410	0.0181153
677.488	0.0179680
677.567	0.0178436
677.645	0.0180329
677.723	0.0179972
677.801	0.0179145
677.879	0.0178848
677.957	0.0179855
678.035	0.0179869
678.113	0.0178604
678.192	0.0180112
678.270	0.0178940
678.348	0.0179617
678.426	0.0179900
678.504	0.0179571
678.582	0.0180012
678.660	0.0177995
678.738	0.0180554
678.817	0.0180321
678.895	0.0180201
678.973	0.0179611
679.051	0.0179739
679.129	0.0179141
679.207	0.0179974
679.285	0.0179939
679.363	0.0178809
679.442	0.0180392
679.520	0.0181702
679.598	0.0179842
679.676	0.0180095
679.754	0.0179250
679.832	0.0179493
679.910	0.0178769
679.988	0.0179593
680.067	0.0179427
680.145	0.0179154
680.223	0.0180933
680.301	0.0179879
680.379	0.0179557
680.457	0.0181118
680.535	0.0179491
680.613	0.0179848
680.692	0.0180537
680.770	0.0179691
680.848	0.0180551
680.926	0.0180687
681.004	0.0179754
681.082	0.0180175
681.160	0.0178783
681.238	0.0180148
681.317	0.0182273
681.395	0.0179507
681.473	0.0177984
681.551	0.0179400
681.629	0.0179749
681.707	0.0178970
681.785	0.0178423
681.863	0.0178055
681.942	0.0178651
682.020	0.0180142
682.098	0.0178833
682.176	0.0180979
682.254	0.0181270
682.332	0.0179633
682.410	0.0178522
682.488	0.0179233
682.567	0.0179778
682.645	0.0178179
682.723	0.0179233
682.801	0.0180348
682.879	0.0179334
682.957	0.0179392
683.035	0.0179398
683.113	0.0179550
683.192	0.0179596
683.270	0.0179304
683.348	0.0178740
683.426	0.0178193
683.504	0.0179021
683.582	0.0180086
683.660	0.0178363
683.738	0.0177969
683.817	0.0177589
683.895	0.0178947
683.973	0.0178308
684.051	0.0178365
684.129	0.0179060
684.207	0.0178922
684.285	0.0179227
684.363	0.0178414
684.442	0.0179769
684.520	0.0180074
684.598	0.0178648
684.676	0.0178134
684.754	0.0178461
684.832	0.0178438
684.910	0.0178370
684.988	0.0178282
685.067	0.0179272
685.145	0.0178521
685.223	0.0176797
685.301	0.0178214
685.379	0.0177250
685.457	0.0177086
685.535	0.0178373
685.613	0.0179788
685.692	0.0179056
685.770	0.0178333
685.848	0.0178951
685.926	0.0178516
686.004	0.0179458
686.082	0.0177303
686.160	0.0179102
686.238	0.0178624
686.317	0.0178191
686.395	0.0178349
686.473	0.0177637
686.551	0.0179039
686.629	0.0179471
686.707	0.0178432
686.785	0.0178169
686.863	0.0178856
686.942	0.0178749
687.020	0.0179263
687.098	0.0179059
687.176	0.0177024
687.254	0.0177162
687.332	0.0178925
687.410	0.0180231
687.488	0.0179674
687.567	0.0178940
687.645	0.0178428
687.723	0.0179025
687.801	0.0178193
687.879	0.0179552
687.957	0.0179265
688.035	0.0179028
688.113	0.0179042
688.192	0.0178371
688.270	0.0178226
688.348	0.0179256
688.426	0.0180418
688.504	0.0179195
688.582	0.0178763
688.660	0.0179653
688.738	0.0177656
688.817	0.0178660
688.895	0.0179192
688.973	0.0178498
689.051	0.0178468
689.129	0.0180440
689.207	0.0179958
689.285	0.0180336
689.363	0.0180077
689.442	0.0179697
689.520	0.0180302
689.598	0.0178866
689.676	0.0179978
689.754	0.0179688
689.832	0.0179493
689.910	0.0179551
689.988	0.0178008
690.067	0.0179775
690.145	0.0181184
690.223	0.0179539
690.301	0.0177325
690.379	0.0179239
690.457	0.0177212
690.535	0.0177183
690.613	0.0178326
690.692	0.0179685
690.770	0.0180122
690.848	0.0180514
690.926	0.0184479
691.004	0.0186498
691.082	0.0186087
691.160	0.0186987
691.238	0.0187788
691.317	0.0187120
691.395	0.0184129
691.473	0.0182455
691.551	0.0178080
691.629	0.0172579
691.707	0.0167504
691.785	0.0162867
691.863	0.0158250
691.942	0.0156966
692.020	0.0154655
692.098	0.0158759
692.176	0.0163766
692.254	0.0172136
692.332	0.0181334
692.410	0.0193281
692.488	0.0202990
692.567	0.0213743
692.645	0.0222650
692.723	0.0226437
692.801	0.0228995
692.879	0.0224492
692.957	0.0215077
693.035	0.0204134
693.113	0.0191263
693.192	0.0177477
693.270	0.0159533
693.348	0.0145593
693.426	0.0131139
693.504	0.0121554
693.582	0.0116875
693.660	0.0112754
693.738	0.0116302
693.817	0.0123883
693.895	0.0136553
693.973	0.0148992
694.051	0.0165277
694.129	0.0182311
694.207	0.0198929
694.285	0.0213103
694.363	0.0227264
694.442	0.0237306
694.520	0.0242959
694.598	0.0246838
694.676	0.0246066
694.754	0.0241570
694.832	0.0235834
694.910	0.0226118
694.988	0.0215620
695.067	0.0202351
695.145	0.0187170
695.223	0.0173517
695.301	0.0162075
695.379	0.0151093
695.457	0.0139567
695.535	0.0132858
695.613	0.0124611
695.692	0.0120882
695.770	0.0118707
695.848	0.0121838
695.926	0.0125901
696.004	0.0130567
696.082	0.0135903
696.160	0.0143736
696.238	0.0154285
696.317	0.0162318
696.395	0.0171236
696.473	0.0181543
696.551	0.0191322
696.629	0.0200262
696.707	0.0207166
696.785	0.0214498
696.863	0.0218194
696.942	0.0220533
697.020	0.0222688
697.098	0.0224332
697.176	0.0222448
697.254	0.0221489
697.332	0.0216990
697.410	0.0211670
697.488	0.0210431
697.567	0.0205000
697.645	0.0197929
697.723	0.0193735
697.801	0.0188302
697.879	0.0183461
697.957	0.0177525
698.035	0.0171047
698.113	0.0166349
698.192	0.0160796
698.270	0.0155757
698.348	0.0150775
698.426	0.0148377
698.504	0.0145347
698.582	0.0143596
698.660	0.0142413
698.738	0.0141389
698.817	0.0142901
698.895	0.0144476
698.973	0.0147792
699.051	0.0152773
699.129	0.0155881
699.207	0.0160775
699.285	0.0165438
699.363	0.0170271
699.442	0.0173690
699.520	0.0175282
699.598	0.0178613
699.676	0.0181331
699.754	0.0184582
699.832	0.0185904
699.910	0.0190018
699.988	0.0189980
700.067	0.0192969
700.145	0.0198045
700.223	0.0200560
700.301	0.0202364
700.379	0.0205395
700.457	0.0208234
700.535	0.0211058
700.613	0.0213902
700.692	0.0214153
700.770	0.0214041
700.848	0.0214523
700.926	0.0211105
701.004	0.0210877
701.082	0.0207883
701.160	0.0203424
701.238	0.0196842
701.317	0.0190928
701.395	0.0186591
701.473	0.0179124
701.551	0.0171099
701.629	0.0165083
701.707	0.0158363
701.785	0.0153204
701.863	0.0150101
701.942	0.0143078
702.020	0.0141835
702.098	0.0140465
702.176	0.0138277
702.254	0.0138523
702.332	0.0140562
702.410	0.0142099
702.488	0.0146439
702.567	0.0151128
702.645	0.0153234
702.723	0.0159295
702.801	0.0165475
702.879	0.0171097
702.957	0.0174345
703.035	0.0179082
703.113	0.0184721
703.192	0.0187254
703.270	0.0188894
703.348	0.0191727
703.426	0.0196158
703.504	0.0196103
703.582	0.0197692
703.660	0.0199855
703.738	0.0200744
703.817	0.0199860
703.895	0.0198894
703.973	0.0200595
704.051	0.0200706
704.129	0.0199496
704.207	0.0198599
704.285	0.0197241
704.363	0.0196249
704.442	0.0194537
704.520	0.0193519
704.598	0.0190895
704.676	0.0190382
704.754	0.0187115
704.832	0.0186725
704.910	0.0184971
704.988	0.0184486
705.067	0.0182522
705.145	0.0182843
705.223	0.0179904
705.301	0.0179648
705.379	0.0176447
705.457	0.0176704
705.535	0.0175993
705.613	0.0172608
705.692	0.0170752
705.770	0.0168888
705.848	0.0167760
705.926	0.0166433
706.004	0.0166455
706.082	0.0165963
706.160	0.0164553
706.238	0.0163193
706.317	0.0165265
706.395	0.0164373
706.473	0.0165282
706.551	0.0165057
706.629	0.0164708
706.707	0.0165498
706.785	0.0166534
706.863	0.0165398
706.942	0.0166555
707.020	0.0167797
707.098	0.0168266
707.176	0.0169433
707.254	0.0171964
707.332	0.0174254
707.410	0.0176407
707.488	0.0177892
707.567	0.0181722
707.645	0.0184698
707.723	0.0187116
707.801	0.0190276
707.879	0.0194078
707.957	0.0196375
708.035	0.0199289
708.113	0.0199342
708.192	0.0199903
708.270	0.0200062
708.348	0.0199571
708.426	0.0198673
708.504	0.0195840
708.582	0.0194345
708.660	0.0192041
708.738	0.0189848
708.817	0.0187211
708.895	0.0185076
708.973	0.0182509
709.051	0.0181964
709.129	0.0180558
709.207	0.0178955
709.285	0.0181861
709.363	0.0180825
709.442	0.0181590
709.520	0.0183768
709.598	0.0181396
709.676	0.0181074
709.754	0.0182420
709.832	0.0180577
709.910	0.0176627
709.988	0.0175581
710.067	0.0175507
710.145	0.0172515
710.223	0.0170725
710.301	0.0167384
710.379	0.0163477
710.457	0.0162663
710.535	0.0161385
710.613	0.0159186
710.692	0.0158554
710.770	0.0159064
710.848	0.0159431
710.926	0.0161904
711.004	0.0161916
711.082	0.0163224
711.160	0.0166384
711.238	0.0170172
711.317	0.0174766
711.395	0.0177792
711.473	0.0179585
711.551	0.0183263
711.629	0.0186681
711.707	0.0187774
711.785	0.0190551
711.863	0.0191302
711.942	0.0191138
712.020	0.0191336
712.098	0.0190341
712.176	0.0189324
712.254	0.0186719
712.332	0.0185014
712.410	0.0184534
712.488	0.0181902
712.567	0.0180553
712.645	0.0178741
712.723	0.0176360
712.801	0.0176648
712.879	0.0176241
712.957	0.0176981
713.035	0.0177296
713.113	0.0176659
713.192	0.0177119
713.270	0.0180620
713.348	0.0180632
713.426	0.0179983
713.504	0.0182220
713.582	0.0182536
713.660	0.0181643
713.738	0.0182259
713.817	0.0183732
713.895	0.0183424
713.973	0.0182944
714.051	0.0182846
714.129	0.0182655
714.207	0.0182675
714.285	0.0182722
714.363	0.0181045
714.442	0.0180377
714.520	0.0181438
714.598	0.0183295
714.676	0.0184564
714.754	0.0184012
714.832	0.0185408
714.910	0.0186465
714.988	0.0185705
715.067	0.0184287
715.145	0.0183718
715.223	0.0183452
715.301	0.0180225
715.379	0.0178724
715.457	0.0176679
715.535	0.0173489
715.613	0.0172918
715.692	0.0171398
715.770	0.0169263
715.848	0.0167793
715.926	0.0165977
716.004	0.0165370
716.082	0.0165708
716.160	0.0166241
716.238	0.0167918
716.317	0.0167863
716.395	0.0169584
716.473	0.0170891
716.551	0.0172112
716.629	0.0176211
716.707	0.0174916
716.785	0.0175600
716.863	0.0179421
716.942	0.0180105
717.020	0.0180203
717.098	0.0180611
717.176	0.0183392
717.254	0.0185546
717.332	0.0184720
717.410	0.0186315
717.488	0.0186306
717.567	0.0187019
717.645	0.0186703
717.723	0.0185202
717.801	0.0185023
717.879	0.0185735
717.957	0.0183574
718.035	0.0182581
718.113	0.0183681
718.192	0.0183729
718.270	0.0182729
718.348	0.0182507
718.426	0.0183704
718.504	0.0182333
718.582	0.0180750
718.660	0.0182108
718.738	0.0182429
718.817	0.0182391
718.895	0.0181467
718.973	0.0182230
719.051	0.0181734
719.129	0.0181554
719.207	0.0181951
719.285	0.0181460
719.363	0.0181545
719.442	0.0181612
719.520	0.0180791
719.598	0.0179927
719.676	0.0181605
719.754	0.0179604
719.832	0.0180770
719.910	0.0180556
719.988	0.0179565
720.067	0.0177528
720.145	0.0178766
720.223	0.0179042
720.301	0.0177363
720.379	0.0177612
720.457	0.0177123
720.535	0.0176717
720.613	0.0176801
720.692	0.0175433
720.770	0.0174027
720.848	0.0172653
720.926	0.0172137
721.004	0.0169883
721.082	0.0170953
721.160	0.0170673
721.238	0.0168649
721.317	0.0168149
721.395	0.0167497
721.473	0.0169691
721.551	0.0169202
721.629	0.0171970
721.707	0.0172057
721.785	0.0172120
721.863	0.0174622
721.942	0.0176288
722.020	0.0178123
722.098	0.0179468
722.176	0.0181131
722.254	0.0183246
722.332	0.0183663
722.410	0.0184049
722.488	0.0185162
722.567	0.0185760
722.645	0.0186578
722.723	0.0187296
722.801	0.0186543
722.879	0.0187273
722.957	0.0186727
723.035	0.0187296
723.113	0.0186601
723.192	0.0184774
723.270	0.0184877
723.348	0.0186000
723.426	0.0184257
723.504	0.0184691
723.582	0.0181896
723.660	0.0181660
723.738	0.0181020
723.817	0.0181338
723.895	0.0177724
723.973	0.0177385
724.051	0.0176997
724.129	0.0177561
724.207	0.0174953
724.285	0.0173686
724.363	0.0173811
724.442	0.0173729
724.520	0.0173447
724.598	0.0172498
724.676	0.0173608
724.754	0.0175459
724.832	0.0174762
724.910	0.0175845
724.988	0.0177358
725.067	0.0178247
725.145	0.0179313
725.223	0.0179372
725.301	0.0181017
725.379	0.0182309
725.457	0.0182448
725.535	0.0184538
725.613	0.0183578
725.692	0.0182884
725.770	0.0182529
725.848	0.0182526
725.926	0.0181328
726.004	0.0179918
726.082	0.0180000
726.160	0.0178738
726.238	0.0177374
726.317	0.0178125
726.395	0.0175388
726.473	0.0175668
726.551	0.0173869
726.629	0.0173978
726.707	0.0173052
726.785	0.0172059
726.863	0.0173253
726.942	0.0173654
727.020	0.0175385
727.098	0.0174985
727.176	0.0176730
727.254	0.0178080
727.332	0.0177635
727.410	0.0179678
727.488	0.0181245
727.567	0.0182851
727.645	0.0182671
727.723	0.0183952
727.801	0.0185569
727.879	0.0184840
727.957	0.0184024
728.035	0.0183062
728.113	0.0184832
728.192	0.0181033
728.270	0.0180674
728.348	0.0180135
728.426	0.0179163
728.504	0.0179567
728.582	0.0178839
728.660	0.0176573
728.738	0.0176482
728.817	0.0177296
728.895	0.0176620
728.973	0.0177599
729.051	0.0177287
729.129	0.0178923
729.207	0.0180707
729.285	0.0180921
729.363	0.0182504
729.442	0.0183752
729.520	0.0185169
729.598	0.0183976
729.676	0.0184386
729.754	0.0184753
729.832	0.0184787
729.910	0.0182625
729.988	0.0182903
730.067	0.0180283
730.145	0.0181462
730.223	0.0180003
730.301	0.0177639
730.379	0.0177827
730.457	0.0176791
730.535	0.0175838
730.613	0.0175429
730.692	0.0175132
730.770	0.0175688
730.848	0.0176218
730.926	0.0174274
731.004	0.0176669
731.082	0.0177761
731.160	0.0178196
731.238	0.0178983
731.317	0.0179100
731.395	0.0178714
731.473	0.0180459
731.551	0.0180572
731.629	0.0179412
731.707	0.0178646
731.785	0.0180254
731.863	0.0177427
731.942	0.0178759
732.020	0.0176859
732.098	0.0177488
732.176	0.0178784
732.254	0.0177705
732.332	0.0176459
732.410	0.0178194
732.488	0.0177590
732.567	0.0178342
732.645	0.0180112
732.723	0.0180795
732.801	0.0180077
732.879	0.0182102
732.957	0.0182800
733.035	0.0181963
733.113	0.0183428
733.192	0.0183009
733.270	0.0183893
733.348	0.0181310
733.426	0.0182107
733.504	0.0182066
733.582	0.0180557
733.660	0.0180351
733.738	0.0179089
733.817	0.0177676
733.895	0.0178049
733.973	0.0177010
734.051	0.0177238
734.129	0.0176694
734.207	0.0177142
734.285	0.0176780
734.363	0.0176736
734.442	0.0176952
734.520	0.0177914
734.598	0.0178641
734.676	0.0178212
734.754	0.0177734
734.832	0.0177057
734.910	0.0178043
734.988	0.0177271
735.067	0.0177528
735.145	0.0176926
735.223	0.0178313
735.301	0.0177567
735.379	0.0177796
735.457	0.0178078
735.535	0.0177774
735.613	0.0178423
735.692	0.0177269
735.770	0.0177537
735.848	0.0176893
735.926	0.0177440
736.004	0.0178629
736.082	0.0177530
736.160	0.0178456
736.238	0.0178335
736.317	0.0177211
736.395	0.0177129
736.473	0.0176912
736.551	0.0176908
736.629	0.0177661
736.707	0.0177164
736.785	0.0176572
736.863	0.0177763
736.942	0.0176441
737.020	0.0177975
737.098	0.0177582
737.176	0.0177613
737.254	0.0176537
737.332	0.0177023
737.410	0.0176779
737.488	0.0177407
737.567	0.0177660
737.645	0.0176953
737.723	0.0177219
737.801	0.0178169
737.879	0.0179317
737.957	0.0180367
738.035	0.0180130
738.113	0.0180947
738.192	0.0181406
738.270	0.0181773
738.348	0.0181929
738.426	0.0181306
738.504	0.0181030
738.582	0.0181932
738.660	0.0181937
738.738	0.0182650
738.817	0.0181161
738.895	0.0180854
738.973	0.0179227
739.051	0.0179044
739.129	0.0178643
739.207	0.0179739
739.285	0.0178357
739.363	0.0178709
739.442	0.0176569
739.520	0.0177911
739.598	0.0178722
739.676	0.0179123
739.754	0.0179379
739.832	0.0179799
739.910	0.0180005
739.988	0.0178275
740.067	0.0180531
740.145	0.0181956
740.223	0.0180840
740.301	0.0180353
740.379	0.0180174
740.457	0.0180026
740.535	0.0178761
740.613	0.0177344
740.692	0.0177277
740.770	0.0179193
740.848	0.0178110
740.926	0.0178199
741.004	0.0176682
741.082	0.0176566
741.160	0.0176143
741.238	0.0175494
741.317	0.0176571
741.395	0.0178001
741.473	0.0176399
741.551	0.0175926
741.629	0.0178504
741.707	0.0178236
741.785	0.0178883
741.863	0.0180344
741.942	0.0180433
742.020	0.0180540
742.098	0.0181161
742.176	0.0181305
742.254	0.0181471
742.332	0.0180920
742.410	0.0180143
742.488	0.0178638
742.567	0.0178580
742.645	0.0178558
742.723	0.0176852
742.801	0.0175319
742.879	0.0175397
742.957	0.0175278
743.035	0.0173941
743.113	0.0174095
743.192	0.0175452
743.270	0.0174655
743.348	0.0175193
743.426	0.0175575
743.504	0.0175500
743.582	0.0176086
743.660	0.0175913
743.738	0.0175964
743.817	0.0176888
743.895	0.0177643
743.973	0.0178015
744.051	0.0180537
744.129	0.0179552
744.207	0.0180450
744.285	0.0180497
744.363	0.0181076
744.442	0.0181908
744.520	0.0181160
744.598	0.0181790
744.676	0.0181522
744.754	0.0182431
744.832	0.0182871
744.910	0.0181419
744.988	0.0179928
745.067	0.0180084
745.145	0.0180994
745.223	0.0179707
745.301	0.0180437
745.379	0.0178903
745.457	0.0178616
745.535	0.0178083
745.613	0.0178830
745.692	0.0177534
745.770	0.0178995
745.848	0.0178016
745.926	0.0178072
746.004	0.0177566
746.082	0.0178284
746.160	0.0178746
746.238	0.0179237
746.317	0.0179058
746.395	0.0179202
746.473	0.0180157
746.551	0.0179993
746.629	0.0179963
746.707	0.0180360
746.785	0.0180273
746.863	0.0179809
746.942	0.0180495
747.020	0.0181079
747.098	0.0181309
747.176	0.0180621
747.254	0.0181425
747.332	0.0179266
747.410	0.0180692
747.488	0.0179754
747.567	0.0179508
747.645	0.0179723
747.723	0.0177519
747.801	0.0177338
747.879	0.0178456
747.957	0.0176753
748.035	0.0175953
748.113	0.0176542
748.192	0.0174963
748.270	0.0176743
748.348	0.0176598
748.426	0.0175361
748.504	0.0173952
748.582	0.0176372
748.660	0.0177296
748.738	0.0177428
748.817	0.0178402
748.895	0.0179615
748.973	0.0179753
749.051	0.0178791
749.129	0.0179726
749.207	0.0179540
749.285	0.0180146
749.363	0.0179746
749.442	0.0180678
749.520	0.0178738
749.598	0.0179929
749.676	0.0178354
749.754	0.0177814
749.832	0.0178815
749.910	0.0177020
749.988	0.0176803
750.067	0.0175656
750.145	0.0177126
750.223	0.0176979
750.301	0.0177405
750.379	0.0178342
750.457	0.0178164
750.535	0.0179071
750.613	0.0179578
750.692	0.0178115
750.770	0.0180619
750.848	0.0181269
750.926	0.0181075
751.004	0.0180282
751.082	0.0180298
751.160	0.0181718
751.238	0.0180206
751.317	0.0179343
751.395	0.0180262
751.473	0.0178252
751.551	0.0179272
751.629	0.0178516
751.707	0.0177748
751.785	0.0177707
751.863	0.0177000
751.942	0.0177712
752.020	0.0176167
752.098	0.0176740
752.176	0.0176406
752.254	0.0176047
752.332	0.0175860
752.410	0.0177665
752.488	0.0178377
752.567	0.0179031
752.645	0.0179703
752.723	0.0180900
752.801	0.0180576
752.879	0.0181953
752.957	0.0183036
753.035	0.0182520
753.113	0.0184571
753.192	0.0184484
753.270	0.0182650
753.348	0.0183064
753.426	0.0182883
753.504	0.0182141
753.582	0.0183196
753.660	0.0181379
753.738	0.0180910
753.817	0.0180633
753.895	0.0179583
753.973	0.0179032
754.051	0.0178824
754.129	0.0178143
754.207	0.0178390
754.285	0.0177086
754.363	0.0177478
754.442	0.0178519
754.520	0.0177853
754.598	0.0177429
754.676	0.0178532
754.754	0.0177001
754.832	0.0179143
754.910	0.0178475
754.988	0.0178004
755.067	0.0178104
755.145	0.0178972
755.223	0.0178220
755.301	0.0178967
755.379	0.0178436
755.457	0.0178461
755.535	0.0177094
755.613	0.0179741
755.692	0.0181280
755.770	0.0182378
755.848	0.0180780
755.926	0.0181515
756.004	0.0181184
756.082	0.0180997
756.160	0.0180460
756.238	0.0180802
756.317	0.0180424
756.395	0.0179262
756.473	0.0180415
756.551	0.0178124
756.629	0.0178942
756.707	0.0178110
756.785	0.0177579
756.863	0.0177048
756.942	0.0177365
757.020	0.0177454
757.098	0.0177041
757.176	0.0178551
757.254	0.0178873
757.332	0.0178118
757.410	0.0178277
757.488	0.0180249
757.567	0.0180382
757.645	0.0180132
757.723	0.0181036
757.801	0.0181978
757.879	0.0180702
757.957	0.0181650
758.035	0.0182327
758.113	0.0180781
758.192	0.0180962
758.270	0.0180058
758.348	0.0180695
758.426	0.0180123
758.504	0.0180515
758.582	0.0180515
758.660	0.0180106
758.738	0.0178609
758.817	0.0178202
758.895	0.0176704
758.973	0.0175738
759.051	0.0175870
759.129	0.0176080
759.207	0.0175588
759.285	0.0176208
759.363	0.0176591
759.442	0.0176114
759.520	0.0176158
759.598	0.0178841
759.676	0.0178529
759.754	0.0177879
759.832	0.0179048
759.910	0.0179968
759.988	0.0181470
760.067	0.0180091
760.145	0.0181159
760.223	0.0181813
760.301	0.0181438
760.379	0.0181486
760.457	0.0181504
760.535	0.0181329
760.613	0.0180811
760.692	0.0181449
760.770	0.0181917
760.848	0.0181182
760.926	0.0179428
761.004	0.0179344
761.082	0.0179780
761.160	0.0180230
761.238	0.0180681
761.317	0.0178881
761.395	0.0178610
761.473	0.0178046
761.551	0.0178001
761.629	0.0177840
761.707	0.0178527
761.785	0.0176586
761.863	0.0176532
761.942	0.0175942
762.020	0.0175991
762.098	0.0178400
762.176	0.0177749
762.254	0.0176834
762.332	0.0176277
762.410	0.0178136
762.488	0.0178040
762.567	0.0176446
762.645	0.0177524
762.723	0.0180851
762.801	0.0178709
762.879	0.0178519
762.957	0.0178486
763.035	0.0179144
763.113	0.0178416
763.192	0.0179018
763.270	0.0179560
763.348	0.0180736
763.426	0.0179051
763.504	0.0180080
763.582	0.0178874
763.660	0.0178184
763.738	0.0180896
763.817	0.0181160
763.895	0.0178957
763.973	0.0180415
764.051	0.0179683
764.129	0.0178062
764.207	0.0178976
764.285	0.0179174
764.363	0.0178812
764.442	0.0178751
764.520	0.0177464
764.598	0.0177071
764.676	0.0177074
764.754	0.0177446
764.832	0.0177283
764.910	0.0176792
764.988	0.0178284
765.067	0.0177776
765.145	0.0176772
765.223	0.0178864
765.301	0.0178697
765.379	0.0178041
765.457	0.0178914
765.535	0.0178566
765.613	0.0180577
765.692	0.0179351
765.770	0.0181067
765.848	0.0179094
765.926	0.0178596
766.004	0.0179976
766.082	0.0180785
766.160	0.0180315
766.238	0.0180236
766.317	0.0179335
766.395	0.0180799
766.473	0.0179789
766.551	0.0179575
766.629	0.0181389
766.707	0.0180855
766.785	0.0178842
766.863	0.0178600
766.942	0.0178500
767.020	0.0178714
767.098	0.0178823
767.176	0.0179355
767.254	0.0178349
767.332	0.0179188
767.410	0.0179465
767.488	0.0177863
767.567	0.0178651
767.645	0.0179063
767.723	0.0178528
767.801	0.0178318
767.879	0.0177969
767.957	0.0179436
768.035	0.0180466
768.113	0.0179248
768.192	0.0178727
768.270	0.0179150
768.348	0.0178484
768.426	0.0178213
768.504	0.0177851
768.582	0.0177876
768.660	0.0178351
768.738	0.0177497
768.817	0.0176723
768.895	0.0178030
768.973	0.0177374
769.051	0.0178664
769.129	0.0178506
769.207	0.0178838
769.285	0.0179078
769.363	0.0178941
769.442	0.0178712
769.520	0.0179660
769.598	0.0179162
769.676	0.0179990
769.754	0.0178780
769.832	0.0178487
769.910	0.0179829
769.988	0.0178799
770.067	0.0179379
770.145	0.0179882
770.223	0.0178594
770.301	0.0178976
770.379	0.0179532
770.457	0.0180101
770.535	0.0179664
770.613	0.0179128
770.692	0.0178995
770.770	0.0179752
770.848	0.0179034
770.926	0.0178971
771.004	0.0178120
771.082	0.0176742
771.160	0.0176814
771.238	0.0177775
771.317	0.0176974
771.395	0.0177538
771.473	0.0178089
771.551	0.0177100
771.629	0.0176922
771.707	0.0176691
771.785	0.0176745
771.863	0.0178507
771.942	0.0178721
772.020	0.0177941
772.098	0.0178743
772.176	0.0180040
772.254	0.0179623
772.332	0.0178941
772.410	0.0179080
772.488	0.0179713
772.567	0.0178600
772.645	0.0180140
772.723	0.0179185
772.801	0.0177906
772.879	0.0179938
772.957	0.0178983
773.035	0.0178388
773.113	0.0179105
773.192	0.0177542
773.270	0.0178134
773.348	0.0180472
773.426	0.0177946
773.504	0.0179351
773.582	0.0179039
773.660	0.0178847
773.738	0.0178854
773.817	0.0179488
773.895	0.0180904
773.973	0.0179666
774.051	0.0181580
774.129	0.0179169
774.207	0.0180203
774.285	0.0180320
774.363	0.0180822
774.442	0.0181174
774.520	0.0181971
774.598	0.0180518
774.676	0.0181247
774.754	0.0180620
774.832	0.0181408
774.910	0.0180563
774.988	0.0180096
775.067	0.0179938
775.145	0.0179272
775.223	0.0179284
775.301	0.0178666
775.379	0.0179093
775.457	0.0178883
775.535	0.0177697
775.613	0.0176506
775.692	0.0177421
775.770	0.0179001
775.848	0.0178825
775.926	0.0178159
776.004	0.0178092
776.082	0.0177882
776.160	0.0178649
776.238	0.0179351
776.317	0.0178922
776.395	0.0179447
776.473	0.0180310
776.551	0.0180505
776.629	0.0179774
776.707	0.0181308
776.785	0.0180643
776.863	0.0179138
776.942	0.0181363
777.020	0.0180753
777.098	0.0178720
777.176	0.0179568
777.254	0.0179688
777.332	0.0179404
777.410	0.0176589
777.488	0.0177065
777.567	0.0178352
777.645	0.0177779
777.723	0.0177151
777.801	0.0177173
777.879	0.0178197
777.957	0.0177313
778.035	0.0177256
778.113	0.0178320
778.192	0.0179116
778.270	0.0178211
778.348	0.0178416
778.426	0.0179646
778.504	0.0178625
778.582	0.0178922
778.660	0.0180533
778.738	0.0179012
778.817	0.0178838
778.895	0.0179238
778.973	0.0180200
779.051	0.0181654
779.129	0.0180024
779.207	0.0180959
779.285	0.0179434
779.363	0.0179774
779.442	0.0180735
779.520	0.0180585
779.598	0.0180117
779.676	0.0180705
779.754	0.0179821
779.832	0.0180444
779.910	0.0179977
779.988	0.0179242
780.067	0.0178657
780.145	0.0178253
780.223	0.0179021
780.301	0.0179602
780.379	0.0180518
780.457	0.0180059
780.535	0.0178469
780.613	0.0179989
780.692	0.0179770
780.770	0.0180406
780.848	0.0179839
780.926	0.0178738
781.004	0.0178166
781.082	0.0179188
781.160	0.0180067
781.238	0.0179664
781.317	0.0180081
781.395	0.0178863
781.473	0.0177990
781.551	0.0179103
781.629	0.0180766
781.707	0.0179306
781.785	0.0177639
781.863	0.0178327
781.942	0.0178459
782.020	0.0177789
782.098	0.0180437
782.176	0.0179620
782.254	0.0179050
782.332	0.0179738
782.410	0.0179398
782.488	0.0180204
782.567	0.0179186
782.645	0.0179794
782.723	0.0179800
782.801	0.0181671
782.879	0.0180015
782.957	0.0179131
783.035	0.0179594
783.113	0.0181279
783.192	0.0179223
783.270	0.0179923
783.348	0.0179409
783.426	0.0179905
783.504	0.0178815
783.582	0.0178771
783.660	0.0179359
783.738	0.0179742
783.817	0.0178705
783.895	0.0178747
783.973	0.0178333
784.051	0.0179334
784.129	0.0179215
784.207	0.0179549
784.285	0.0181736
784.363	0.0181254
784.442	0.0179572
784.520	0.0179662
784.598	0.0180477
784.676	0.0180038
784.754	0.0180333
784.832	0.0179865
784.910	0.0179864
784.988	0.0181676
785.067	0.0179632
785.145	0.0179414
785.223	0.0178928
785.301	0.0178728
785.379	0.0177980
785.457	0.0178271
785.535	0.0177184
785.613	0.0177576
785.692	0.0178096
785.770	0.0176543
785.848	0.0176511
785.926	0.0177094
786.004	0.0177677
786.082	0.0177158
786.160	0.0177702
786.238	0.0177834
786.317	0.0176761
786.395	0.0177722
786.473	0.0177586
786.551	0.0177527
786.629	0.0178978
786.707	0.0178021
786.785	0.0179977
786.863	0.0178148
786.942	0.0178065
787.020	0.0178763
787.098	0.0179098
787.176	0.0177623
787.254	0.0178049
787.332	0.0179005
787.410	0.0177389
787.488	0.0179826
787.567	0.0180640
787.645	0.0178810
787.723	0.0180363
787.801	0.0180970
787.879	0.0180331
787.957	0.0179753
788.035	0.0180347
788.113	0.0180157
788.192	0.0182047
788.270	0.0181754
788.348	0.0181289
788.426	0.0181860
788.504	0.0181329
788.582	0.0182118
788.660	0.0182064
788.738	0.0181866
788.817	0.0182693
788.895	0.0182075
788.973	0.0182887
789.051	0.0181394
789.129	0.0182754
789.207	0.0181997
789.285	0.0180560
789.363	0.0181253
789.442	0.0180029
789.520	0.0178822
789.598	0.0178585
789.676	0.0176814
789.754	0.0177309
789.832	0.0177936
789.910	0.0176659
789.988	0.0175946
790.067	0.0174833
790.145	0.0175153
790.223	0.0175803
790.301	0.0175191
790.379	0.0174807
790.457	0.0176476
790.535	0.0176884
790.613	0.0177384
790.692	0.0177699
790.770	0.0178292
790.848	0.0179507
790.926	0.0179848
791.004	0.0179996
791.082	0.0182226
791.160	0.0182539
791.238	0.0183183
791.317	0.0183411
791.395	0.0184312
791.473	0.0185193
791.551	0.0183827
791.629	0.0182905
791.707	0.0181638
791.785	0.0181129
791.863	0.0179509
791.942	0.0178504
792.020	0.0177217
792.098	0.0176749
792.176	0.0175636
792.254	0.0173996
792.332	0.0171535
792.410	0.0173388
792.488	0.0173608
792.567	0.0172933
792.645	0.0174242
792.723	0.0173820
792.801	0.0174767
792.879	0.0175375
792.957	0.0175204
793.035	0.0177634
793.113	0.0179372
793.192	0.0179391
793.270	0.0180181
793.348	0.0180927
793.426	0.0180115
793.504	0.0183587
793.582	0.0181966
793.660	0.0183405
793.738	0.0185114
793.817	0.0183675
793.895	0.0183746
793.973	0.0183050
794.051	0.0182896
794.129	0.0184200
794.207	0.0183037
794.285	0.0181561
794.363	0.0180785
794.442	0.0180562
794.520	0.0180241
794.598	0.0178687
794.676	0.0178175
794.754	0.0177551
794.832	0.0176775
794.910	0.0174844
794.988	0.0174873
795.067	0.0174410
795.145	0.0174081
795.223	0.0173561
795.301	0.0174280
795.379	0.0175335
795.457	0.0173809
795.535	0.0173335
795.613	0.0174606
795.692	0.0175479
795.770	0.0176334
795.848	0.0176170
795.926	0.0176920
796.004	0.0178415
796.082	0.0178482
796.160	0.0176962
796.238	0.0178750
796.317	0.0178838
796.395	0.0180070
796.473	0.0180882
796.551	0.0180468
796.629	0.0181728
796.707	0.0181892
796.785	0.0183645
796.863	0.0182648
796.942	0.0184705
797.020	0.0183723
797.098	0.0184598
797.176	0.0184872
797.254	0.0186077
797.332	0.0184469
797.410	0.0184556
797.488	0.0184545
797.567	0.0183295
797.645	0.0184589
797.723	0.0183516
797.801	0.0182024
797.879	0.0181977
797.957	0.0181459
798.035	0.0180304
798.113	0.0178894
798.192	0.0177417
798.270	0.0177265
798.348	0.0174052
798.426	0.0175432
798.504	0.0175246
798.582	0.0174064
798.660	0.0172864
798.738	0.0172211
798.817	0.0172285
798.895	0.0172682
798.973	0.0172645
799.051	0.0172955
799.129	0.0174414
799.207	0.0175749
799.285	0.0176698
799.363	0.0176173
799.442	0.0177969
799.520	0.0177821
799.598	0.0177971
799.676	0.0179214
799.754	0.0179977
799.832	0.0180725
799.910	0.0180183
799.988	0.0179992
800.067	0.0181328
800.145	0.0182313
800.223	0.0180745
800.301	0.0180808
800.379	0.0180592
800.457	0.0180791
800.535	0.0179466
800.613	0.0179082
800.692	0.0178762
800.770	0.0180064
800.848	0.0179219
800.926	0.0181097
801.004	0.0180099
801.082	0.0179642
801.160	0.0180351
801.238	0.0181297
801.317	0.0180759
801.395	0.0181485
801.473	0.0181288
801.551	0.0181429
801.629	0.0180196
801.707	0.0180527
801.785	0.0179462
801.863	0.0179217
801.942	0.0178493
802.020	0.0179009
802.098	0.0178317
802.176	0.0177036
802.254	0.0176785
802.332	0.0176981
802.410	0.0176365
802.488	0.0176527
802.567	0.0175934
802.645	0.0175881
802.723	0.0175675
802.801	0.0177473
802.879	0.0176616
802.957	0.0175863
803.035	0.0176854
803.113	0.0177492
803.192	0.0179562
803.270	0.0178601
803.348	0.0179075
803.426	0.0181523
803.504	0.0180528
803.582	0.0179332
803.660	0.0180384
803.738	0.0179365
803.817	0.0180381
803.895	0.0179741
803.973	0.0178908
804.051	0.0180129
804.129	0.0180253
804.207	0.0181081
804.285	0.0179333
804.363	0.0178685
804.442	0.0178741
804.520	0.0178503
804.598	0.0178573
804.676	0.0177832
804.754	0.0179011
804.832	0.0181476
804.910	0.0182380
804.988	0.0181922
805.067	0.0181454
805.145	0.0181580
805.223	0.0182722
805.301	0.0182241
805.379	0.0181335
805.457	0.0183887
805.535	0.0181570
805.613	0.0181795
805.692	0.0181399
805.770	0.0181680
805.848	0.0180557
805.926	0.0181735
806.004	0.0182316
806.082	0.0180468
806.160	0.0179785
806.238	0.0179272
806.317	0.0178629
806.395	0.0177950
806.473	0.0178857
806.551	0.0176853
806.629	0.0176638
806.707	0.0175609
806.785	0.0175726
806.863	0.0175658
806.942	0.0175349
807.020	0.0175923
807.098	0.0174997
807.176	0.0174908
807.254	0.0174054
807.332	0.0175401
807.410	0.0176842
807.488	0.0178517
807.567	0.0177993
807.645	0.0177582
807.723	0.0177912
807.801	0.0178812
807.879	0.0178319
807.957	0.0179340
808.035	0.0178727
808.113	0.0179056
808.192	0.0179005
808.270	0.0178865
808.348	0.0178717
808.426	0.0178677
808.504	0.0178226
808.582	0.0178809
808.660	0.0177319
808.738	0.0177576
808.817	0.0176994
808.895	0.0176741
808.973	0.0176911
809.051	0.0178162
809.129	0.0177548
809.207	0.0177431
809.285	0.0177855
809.363	0.0179980
809.442	0.0180183
809.520	0.0180961
809.598	0.0180504
809.676	0.0179860
809.754	0.0182380
809.832	0.0181165
809.910	0.0181866
809.988	0.0181518
810.067	0.0181798
810.145	0.0182447
810.223	0.0181557
810.301	0.0179741
810.379	0.0180035
810.457	0.0179915
810.535	0.0180360
810.613	0.0180672
810.692	0.0178847
810.770	0.0180671
810.848	0.0179239
810.926	0.0178236
811.004	0.0179868
811.082	0.0179684
811.160	0.0179054
811.238	0.0178857
811.317	0.0179048
811.395	0.0180491
811.473	0.0179924
811.551	0.0179599
811.629	0.0178186
811.707	0.0178865
811.785	0.0180260
811.863	0.0178828
811.942	0.0179705
812.020	0.0177856
812.098	0.0177520
812.176	0.0178285
812.254	0.0178578
812.332	0.0178316
812.410	0.0178041
812.488	0.0177101
812.567	0.0175857
812.645	0.0177543
812.723	0.0177557
812.801	0.0178049
812.879	0.0178918
812.957	0.0177248
813.035	0.0178240
813.113	0.0178256
813.192	0.0181115
813.270	0.0179581
813.348	0.0178507
813.426	0.0180302
813.504	0.0179375
813.582	0.0179204
813.660	0.0181075
813.738	0.0181258
813.817	0.0180492
813.895	0.0179299
813.973	0.0177762
814.051	0.0179785
814.129	0.0180408
814.207	0.0179782
814.285	0.0180498
814.363	0.0178374
814.442	0.0180109
814.520	0.0179795
814.598	0.0179261
814.676	0.0178748
814.754	0.0180519
814.832	0.0179581
814.910	0.0179886
814.988	0.0180262
815.067	0.0179510
815.145	0.0179138
815.223	0.0178437
815.301	0.0179025
815.379	0.0179308
815.457	0.0179901
815.535	0.0178691
815.613	0.0180003
815.692	0.0180359
815.770	0.0180384
815.848	0.0178342
815.926	0.0178178
816.004	0.0179317
816.082	0.0179972
816.160	0.0178220
816.238	0.0178619
816.317	0.0179041
816.395	0.0178278
816.473	0.0179043
816.551	0.0179730
816.629	0.0177805
816.707	0.0177795
816.785	0.0176852
816.863	0.0178676
816.942	0.0178219
817.020	0.0177059
817.098	0.0179208
817.176	0.0178347
817.254	0.0180205
817.332	0.0178102
817.410	0.0177351
817.488	0.0179137
817.567	0.0178169
817.645	0.0177919
817.723	0.0177775
817.801	0.0178796
817.879	0.0177379
817.957	0.0176916
818.035	0.0177931
818.113	0.0177593
818.192	0.0177192
818.270	0.0176913
818.348	0.0176542
818.426	0.0176984
818.504	0.0176842
818.582	0.0177316
818.660	0.0177633
818.738	0.0178931
818.817	0.0178491
818.895	0.0179728
818.973	0.0181383
819.051	0.0181934
819.129	0.0179920
819.207	0.0180970
819.285	0.0181766
819.363	0.0181773
819.442	0.0182294
819.520	0.0182443
819.598	0.0180315
819.676	0.0180502
819.754	0.0182056
819.832	0.0181071
819.910	0.0181247
819.988	0.0179290
820.067	0.0178141
820.145	0.0177911
820.223	0.0178919
820.301	0.0177407
820.379	0.0178669
820.457	0.0178265
820.535	0.0179456
820.613	0.0177444
820.692	0.0178537
820.770	0.0179111
820.848	0.0179269
820.926	0.0181281
821.004	0.0181521
821.082	0.0181573
821.160	0.0180591
821.238	0.0181834
821.317	0.0183590
821.395	0.0180053
821.473	0.0180273
821.551	0.0180904
821.629	0.0180023
821.707	0.0180162
821.785	0.0179982
821.863	0.0178845
821.942	0.0177598
822.020	0.0177435
822.098	0.0175732
822.176	0.0177448
822.254	0.0176207
822.332	0.0176730
822.410	0.0177544
822.488	0.0175860
822.567	0.0176447
822.645	0.0175960
822.723	0.0176103
822.801	0.0176162
822.879	0.0177573
822.957	0.0176494
823.035	0.0176913
823.113	0.0177142
823.192	0.0179186
823.270	0.0178157
823.348	0.0179041
823.426	0.0179128
823.504	0.0178082
823.582	0.0179192
823.660	0.0178768
823.738	0.0179640
823.817	0.0177869
823.895	0.0179268
823.973	0.0177659
824.051	0.0178818
824.129	0.0178678
824.207	0.0177338
824.285	0.0178114
824.363	0.0178880
824.442	0.0178777
824.520	0.0179227
824.598	0.0179819
824.676	0.0180077
824.754	0.0179908
824.832	0.0178683
824.910	0.0180087
824.988	0.0178932
825.067	0.0179470
825.145	0.0180048
825.223	0.0177486
825.301	0.0178796
825.379	0.0179687
825.457	0.0178696
825.535	0.0178492
825.613	0.0178357
825.692	0.0178577
825.770	0.0178361
825.848	0.0178976
825.926	0.0179517
826.004	0.0178791
826.082	0.0178262
826.160	0.0178751
826.238	0.0180472
826.317	0.0180151
826.395	0.0179483
826.473	0.0180045
826.551	0.0180405
826.629	0.0181063
826.707	0.0182011
826.785	0.0179978
826.863	0.0182154
826.942	0.0181396
827.020	0.0182042
827.098	0.0180926
827.176	0.0180951
827.254	0.0179635
827.332	0.0180323
827.410	0.0180128
827.488	0.0179656
827.567	0.0178988
827.645	0.0178899
827.723	0.0178273
827.801	0.0178755
827.879	0.0178715
827.957	0.0178512
828.035	0.0177234
828.113	0.0178267
828.192	0.0178931
828.270	0.0178168
828.348	0.0178497
828.426	0.0178812
828.504	0.0179475
828.582	0.0179182
828.660	0.0179255
828.738	0.0177901
828.817	0.0176922
828.895	0.0178430
828.973	0.0178912
829.051	0.0178288
829.129	0.0177250
829.207	0.0176955
829.285	0.0177868
829.363	0.0177184
829.442	0.0177647
829.520	0.0176720
829.598	0.0176023
829.676	0.0177798
829.754	0.0177071
829.832	0.0178007
829.910	0.0177503
829.988	0.0178835
830.067	0.0177625
830.145	0.0179156
830.223	0.0178412
830.301	0.0177611
830.379	0.0180853
830.457	0.0180047
830.535	0.0179520
830.613	0.0179673
830.692	0.0179835
830.770	0.0179734
830.848	0.0180623
830.926	0.0179977
831.004	0.0178902
831.082	0.0178886
831.160	0.0180135
831.238	0.0179320
831.317	0.0178812
831.395	0.0178875
831.473	0.0178289
831.551	0.0178394
831.629	0.0177702
831.707	0.0178029
831.785	0.0177105
831.863	0.0177413
831.942	0.0176927
832.020	0.0177921
832.098	0.0176625
832.176	0.0177460
832.254	0.0177029
832.332	0.0178764
832.410	0.0178489
832.488	0.0178370
832.567	0.0178515
832.645	0.0179032
832.723	0.0179982
832.801	0.0181062
832.879	0.0178845
832.957	0.0178826
833.035	0.0179501
833.113	0.0178848
833.192	0.0180561
833.270	0.0179456
833.348	0.0180112
833.426	0.0179466
833.504	0.0179810
833.582	0.0179791
833.660	0.0178178
833.738	0.0178730
833.817	0.0178439
833.895	0.0178783
833.973	0.0178126
834.051	0.0178075
834.129	0.0179065
834.207	0.0178808
834.285	0.0178482
834.363	0.0178512
834.442	0.0178316
834.520	0.0178136
834.598	0.0177069
834.676	0.0176893
834.754	0.0177495
834.832	0.0179301
834.910	0.0178836
834.988	0.0177511
835.067	0.0177518
835.145	0.0179594
835.223	0.0179029
835.301	0.0180372
835.379	0.0178503
835.457	0.0179360
835.535	0.0179564
835.613	0.0178439
835.692	0.0179576
835.770	0.0180947
835.848	0.0180566
835.926	0.0181283
836.004	0.0179943
836.082	0.0180482
836.160	0.0179630
836.238	0.0179392
836.317	0.0179259
836.395	0.0178345
836.473	0.0179130
836.551	0.0180032
836.629	0.0178208
836.707	0.0178551
836.785	0.0177676
836.863	0.0177969
836.942	0.0178378
837.020	0.0176929
837.098	0.0178096
837.176	0.0178011
837.254	0.0177657
837.332	0.0177521
837.410	0.0178099
837.488	0.0177900
837.567	0.0178455
837.645	0.0178674
837.723	0.0177588
837.801	0.0177898
837.879	0.0179977
837.957	0.0179044
838.035	0.0179011
838.113	0.0178658
838.192	0.0178622
838.270	0.0178017
838.348	0.0177519
838.426	0.0178200
838.504	0.0179265
838.582	0.0178770
838.660	0.0178451
838.738	0.0177135
838.817	0.0177390
838.895	0.0178128
838.973	0.0176279
839.051	0.0177739
839.129	0.0178276
839.207	0.0177892
839.285	0.0177201
839.363	0.0178000
839.442	0.0176548
839.520	0.0176366
839.598	0.0179173
839.676	0.0179279
839.754	0.0178741
839.832	0.0178384
839.910	0.0178809
839.988	0.0178987
840.067	0.0179774
840.145	0.0178226
840.223	0.0179500
840.301	0.0178657
840.379	0.0178372
840.457	0.0179884
840.535	0.0178976
840.613	0.0179358
840.692	0.0180412
840.770	0.0177969
840.848	0.0179936
840.926	0.0179961
841.004	0.0179059
841.082	0.0178736
841.160	0.0180608
841.238	0.0180045
841.317	0.0179591
841.395	0.0177538
841.473	0.0178379
841.551	0.0179379
841.629	0.0178576
841.707	0.0177949
841.785	0.0178331
841.863	0.0180505
841.942	0.0179849
842.020	0.0178370
842.098	0.0178268
842.176	0.0179533
842.254	0.0180081
842.332	0.0179489
842.410	0.0179044
842.488	0.0179341
842.567	0.0180460
842.645	0.0179657
842.723	0.0179466
842.801	0.0180702
842.879	0.0181101
842.957	0.0179335
843.035	0.0179969
843.113	0.0180227
843.192	0.0179667
843.270	0.0179124
843.348	0.0180048
843.426	0.0179819
843.504	0.0178687
843.582	0.0179788
843.660	0.0180259
843.738	0.0178802
843.817	0.0179057
843.895	0.0178873
843.973	0.0178881
844.051	0.0178335
844.129	0.0176552
844.207	0.0177471
844.285	0.0178696
844.363	0.0177167
844.442	0.0177090
844.520	0.0178571
844.598	0.0178849
844.676	0.0177106
844.754	0.0177752
844.832	0.0178004
844.910	0.0178506
844.988	0.0177419
845.067	0.0178844
845.145	0.0178326
845.223	0.0177775
845.301	0.0176548
845.379	0.0178698
845.457	0.0179514
845.535	0.0180101
845.613	0.0179979
845.692	0.0178107
845.770	0.0178475
845.848	0.0178966
845.926	0.0178427
846.004	0.0177272
846.082	0.0177848
846.160	0.0176801
846.238	0.0177579
846.317	0.0176400
846.395	0.0177216
846.473	0.0177554
846.551	0.0178936
846.629	0.0177626
846.707	0.0177007
846.785	0.0177983
846.863	0.0177961
846.942	0.0177867
847.020	0.0178354
847.098	0.0179235
847.176	0.0179853
847.254	0.0178934
847.332	0.0180338
847.410	0.0178846
847.488	0.0179691
847.567	0.0178957
847.645	0.0180315
847.723	0.0180331
847.801	0.0178783
847.879	0.0179235
847.957	0.0180187
848.035	0.0179972
848.113	0.0180058
848.192	0.0179674
848.270	0.0178712
848.348	0.0179353
848.426	0.0179076
848.504	0.0178814
848.582	0.0179208
848.660	0.0178976
848.738	0.0179273
848.817	0.0179124
848.895	0.0178431
848.973	0.0180338
849.051	0.0179300
849.129	0.0178993
849.207	0.0178423
849.285	0.0178656
849.363	0.0179841
849.442	0.0179296
849.520	0.0177727
849.598	0.0178648
849.676	0.0178406
849.754	0.0178619
849.832	0.0178543
849.910	0.0180300
849.988	0.0179280
850.067	0.0178885
850.145	0.0179436
850.223	0.0178885
850.301	0.0178611
850.379	0.0179047
850.457	0.0180443
850.535	0.0179433
850.613	0.0179513
850.692	0.0180387
850.770	0.0180698
850.848	0.0179964
850.926	0.0179064
851.004	0.0178865
851.082	0.0178371
851.160	0.0179243
851.238	0.0179662
851.317	0.0178198
851.395	0.0178333
851.473	0.0179088
851.551	0.0178677
851.629	0.0178171
851.707	0.0177930
851.785	0.0176352
851.863	0.0178146
851.942	0.0178977
852.020	0.0177065
852.098	0.0179606
852.176	0.0177253
852.254	0.0179377
852.332	0.0178739
852.410	0.0178233
852.488	0.0179955
852.567	0.0178192
852.645	0.0177597
852.723	0.0178886
852.801	0.0179465
852.879	0.0180175
852.957	0.0178759
853.035	0.0177857
853.113	0.0177839
853.192	0.0179649
853.270	0.0178822
853.348	0.0178065
853.426	0.0177884
853.504	0.0177149
853.582	0.0177152
853.660	0.0177950
853.738	0.0178194
853.817	0.0177809
853.895	0.0178914
853.973	0.0178545
854.051	0.0179121
854.129	0.0180673
854.207	0.0181436
854.285	0.0180074
854.363	0.0179517
854.442	0.0179180
854.520	0.0180945
854.598	0.0180308
854.676	0.0180682
854.754	0.0180952
854.832	0.0179829
854.910	0.0179385
854.988	0.0177995
855.067	0.0179398
855.145	0.0180147
855.223	0.0178616
855.301	0.0178185
855.379	0.0177803
855.457	0.0177834
855.535	0.0178362
855.613	0.0176612
855.692	0.0176200
855.770	0.0176642
855.848	0.0177350
855.926	0.0176553
856.004	0.0176577
856.082	0.0175917
856.160	0.0176041
856.238	0.0175278
856.317	0.0176613
856.395	0.0177517
856.473	0.0176956
856.551	0.0177799
856.629	0.0178300
856.707	0.0178280
856.785	0.0179361
856.863	0.0179826
856.942	0.0180184
857.020	0.0181052
857.098	0.0181609
857.176	0.0182729
857.254	0.0183696
857.332	0.0182423
857.410	0.0183503
857.488	0.0182891
857.567	0.0183467
857.645	0.0182285
857.723	0.0182925
857.801	0.0182710
857.879	0.0181754
857.957	0.0180237
858.035	0.0181596
858.113	0.0179748
858.192	0.0181396
858.270	0.0180416
858.348	0.0179742
858.426	0.0178835
858.504	0.0178415
858.582	0.0179265
858.660	0.0179149
858.738	0.0178657
858.817	0.0178246
858.895	0.0177366
858.973	0.0178270
859.051	0.0178910
859.129	0.0177780
859.207	0.0178471
859.285	0.0177719
859.363	0.0177300
859.442	0.0178728
859.520	0.0177071
859.598	0.0177429
859.676	0.0177010
859.754	0.0177029
859.832	0.0177637
859.910	0.0176305
859.988	0.0179310
860.067	0.0178581
860.145	0.0178514
860.223	0.0177849
860.301	0.0177282
860.379	0.0176799
860.457	0.0177879
860.535	0.0176727
860.613	0.0177402
860.692	0.0177248
860.770	0.0177292
860.848	0.0178017
860.926	0.0177824
861.004	0.0177557
861.082	0.0176801
861.160	0.0176344
861.238	0.0177558
861.317	0.0176541
861.395	0.0177166
861.473	0.0177985
861.551	0.0177125
861.629	0.0177693
861.707	0.0176710
861.785	0.0177435
861.863	0.0177670
861.942	0.0176669
862.020	0.0177084
862.098	0.0178783
862.176	0.0177079
862.254	0.0177778
862.332	0.0177238
862.410	0.0177869
862.488	0.0178482
862.567	0.0178952
862.645	0.0177543
862.723	0.0179195
862.801	0.0179433
862.879	0.0178806
862.957	0.0179018
863.035	0.0178976
863.113	0.0180307
863.192	0.0180721
863.270	0.0180846
863.348	0.0179273
863.426	0.0179113
863.504	0.0180769
863.582	0.0181340
863.660	0.0181355
863.738	0.0180779
863.817	0.0180008
863.895	0.0182259
863.973	0.0180314
864.051	0.0180964
864.129	0.0181155
864.207	0.0180727
864.285	0.0180141
864.363	0.0179945
864.442	0.0181626
864.520	0.0181133
864.598	0.0180596
864.676	0.0179515
864.754	0.0179785
864.832	0.0179529
864.910	0.0178902
864.988	0.0178870
865.067	0.0178104
865.145	0.0178703
865.223	0.0177722
865.301	0.0178265
865.379	0.0177545
865.457	0.0176615
865.535	0.0177158
865.613	0.0176899
865.692	0.0177918
865.770	0.0177300
865.848	0.0176974
865.926	0.0177541
866.004	0.0177786
866.082	0.0177757
866.160	0.0177471
866.238	0.0176947
866.317	0.0177982
866.395	0.0178273
866.473	0.0176835
866.551	0.0178051
866.629	0.0178782
866.707	0.0177709
866.785	0.0178379
866.863	0.0179211
866.942	0.0178293
867.020	0.0178918
867.098	0.0178695
867.176	0.0178430
867.254	0.0178440
867.332	0.0178791
867.410	0.0180344
867.488	0.0179449
867.567	0.0178565
867.645	0.0179516
867.723	0.0180059
867.801	0.0179744
867.879	0.0179060
867.957	0.0179797
868.035	0.0179211
868.113	0.0179053
868.192	0.0179152
868.270	0.0178307
868.348	0.0178393
868.426	0.0178799
868.504	0.0178487
868.582	0.0178120
868.660	0.0178175
868.738	0.0176148
868.817	0.0177243
868.895	0.0178567
868.973	0.0177839
869.051	0.0177271
869.129	0.0176429
869.207	0.0178162
869.285	0.0179803
869.363	0.0177872
869.442	0.0177715
869.520	0.0179196
869.598	0.0179406
869.676	0.0180022
869.754	0.0178909
869.832	0.0179835
869.910	0.0178616
869.988	0.0179292
870.067	0.0179305
870.145	0.0177805
870.223	0.0179156
870.301	0.0178718
870.379	0.0178465
870.457	0.0179419
870.535	0.0177828
870.613	0.0179089
870.692	0.0178442
870.770	0.0178619
870.848	0.0179269
870.926	0.0179342
871.004	0.0179004
871.082	0.0179708
871.160	0.0178812
871.238	0.0180085
871.317	0.0179368
871.395	0.0179577
871.473	0.0179336
871.551	0.0179757
871.629	0.0180391
871.707	0.0180013
871.785	0.0178605
871.863	0.0179062
871.942	0.0179263
872.020	0.0178471
872.098	0.0178827
872.176	0.0177509
872.254	0.0178620
872.332	0.0178055
872.410	0.0177941
872.488	0.0178343
872.567	0.0178983
872.645	0.0177964
872.723	0.0177910
872.801	0.0179135
872.879	0.0179203
872.957	0.0178835
873.035	0.0179658
873.113	0.0179045
873.192	0.0180706
873.270	0.0180256
873.348	0.0179475
873.426	0.0179246
873.504	0.0179310
873.582	0.0178167
873.660	0.0178934
873.738	0.0179182
873.817	0.0178693
873.895	0.0179756
873.973	0.0178920
874.051	0.0180870
874.129	0.0177955
874.207	0.0179542
874.285	0.0179934
874.363	0.0178993
874.442	0.0179445
874.520	0.0179208
874.598	0.0178545
874.676	0.0179212
874.754	0.0177412
874.832	0.0178148
874.910	0.0177605
874.988	0.0178648
875.067	0.0177816
875.145	0.0177177
875.223	0.0177874
875.301	0.0177573
875.379	0.0178188
875.457	0.0176929
875.535	0.0177306
875.613	0.0179842
875.692	0.0179311
875.770	0.0178971
875.848	0.0178979
875.926	0.0180160
876.004	0.0178844
876.082	0.0179715
876.160	0.0178868
876.238	0.0178503
876.317	0.0179942
876.395	0.0179607
876.473	0.0178551
876.551	0.0178169
876.629	0.0178188
876.707	0.0179707
876.785	0.0179475
876.863	0.0177988
876.942	0.0178896
877.020	0.0179041
877.098	0.0177757
877.176	0.0179723
877.254	0.0178104
877.332	0.0179978
877.410	0.0180267
877.488	0.0178590
877.567	0.0178473
877.645	0.0179942
877.723	0.0180066
877.801	0.0179332
877.879	0.0179289
877.957	0.0179811
878.035	0.0180300
878.113	0.0180288
878.192	0.0179646
878.270	0.0181499
878.348	0.0179717
878.426	0.0181528
878.504	0.0181060
878.582	0.0179509
878.660	0.0180286
878.738	0.0178828
878.817	0.0178586
878.895	0.0178970
878.973	0.0180009
879.051	0.0180291
879.129	0.0179935
879.207	0.0179924
879.285	0.0179053
879.363	0.0179539
879.442	0.0178849
879.520	0.0180256
879.598	0.0178776
879.676	0.0177785
879.754	0.0178704
879.832	0.0177001
879.910	0.0178383
879.988	0.0179095
880.067	0.0177823
880.145	0.0176917
880.223	0.0177418
880.301	0.0178018
880.379	0.0177043
880.457	0.0176960
880.535	0.0176987
880.613	0.0177310
880.692	0.0177485
880.770	0.0178148
880.848	0.0176904
880.926	0.0178973
881.004	0.0175777
881.082	0.0175838
881.160	0.0177383
881.238	0.0178287
881.317	0.0177172
881.395	0.0176051
881.473	0.0176520
881.551	0.0177605
881.629	0.0177110
881.707	0.0176741
881.785	0.0177365
881.863	0.0177765
881.942	0.0176946
882.020	0.0178091
882.098	0.0179420
882.176	0.0177444
882.254	0.0178765
882.332	0.0179057
882.410	0.0178397
882.488	0.0178228
882.567	0.0179675
882.645	0.0179197
882.723	0.0179346
882.801	0.0179585
882.879	0.0179227
882.957	0.0181148
883.035	0.0179806
883.113	0.0180041
883.192	0.0180773
883.270	0.0180467
883.348	0.0179137
883.426	0.0178460
883.504	0.0177912
883.582	0.0179125
883.660	0.0178694
883.738	0.0178213
883.817	0.0179020
883.895	0.0179458
883.973	0.0180788
884.051	0.0181938
884.129	0.0181345
884.207	0.0183986
884.285	0.0183531
884.363	0.0184056
884.442	0.0185154
884.520	0.0185064
884.598	0.0182938
884.676	0.0183450
884.754	0.0182335
884.832	0.0179732
884.910	0.0178106
884.988	0.0175189
885.067	0.0174284
885.145	0.0172424
885.223	0.0173561
885.301	0.0172790
885.379	0.0172266
885.457	0.0174400
885.535	0.0173483
885.613	0.0175844
885.692	0.0178666
885.770	0.0178368
885.848	0.0181097
885.926	0.0182116
886.004	0.0182568
886.082	0.0184402
886.160	0.0184208
886.238	0.0183904
886.317	0.0185255
886.395	0.0184647
886.473	0.0183205
886.551	0.0183829
886.629	0.0179713
886.707	0.0177519
886.785	0.0177122
886.863	0.0176128
886.942	0.0173677
887.020	0.0171312
887.098	0.0170222
887.176	0.0170226
887.254	0.0169913
887.332	0.0169807
887.410	0.0170309
887.488	0.0171523
887.567	0.0172543
887.645	0.0173801
887.723	0.0175825
887.801	0.0178272
887.879	0.0179983
887.957	0.0180699
888.035	0.0181168
888.113	0.0183762
888.192	0.0183591
888.270	0.0184342
888.348	0.0185210
888.426	0.0185024
888.504	0.0183858
888.582	0.0184727
888.660	0.0182675
888.738	0.0183397
888.817	0.0180793
888.895	0.0178950
888.973	0.0179395
889.051	0.0179331
889.129	0.0179808
889.207	0.0179050
889.285	0.0179163
889.363	0.0177814
889.442	0.0177837
889.520	0.0177741
889.598	0.0178674
889.676	0.0178156
889.754	0.0178728
889.832	0.0178152
889.910	0.0178397
889.988	0.0179469
890.067	0.0178746
890.145	0.0178214
890.223	0.0178140
890.301	0.0177521
890.379	0.0178313
890.457	0.0178170
890.535	0.0178942
890.613	0.0178762
890.692	0.0178527
890.770	0.0177578
890.848	0.0177252
890.926	0.0178294
891.004	0.0180091
891.082	0.0179045
891.160	0.0179610
891.238	0.0179636
891.317	0.0180203
891.395	0.0181347
891.473	0.0182135
891.551	0.0182958
891.629	0.0182990
891.707	0.0182496
891.785	0.0182644
891.863	0.0183297
891.942	0.0183376
892.020	0.0183947
892.098	0.0184061
892.176	0.0183050
892.254	0.0182784
892.332	0.0182631
892.410	0.0180688
892.488	0.0179596
892.567	0.0178702
892.645	0.0177776
892.723	0.0178252
892.801	0.0175554
892.879	0.0174606
892.957	0.0174538
893.035	0.0172914
893.113	0.0171660
893.192	0.0171768
893.270	0.0171612
893.348	0.0172121
893.426	0.0172921
893.504	0.0172296
893.582	0.0172249
893.660	0.0173582
893.738	0.0175830
893.817	0.0177711
893.895	0.0176743
893.973	0.0177643
894.051	0.0178714
894.129	0.0178861
894.207	0.0180061
894.285	0.0180488
894.363	0.0180071
894.442	0.0180514
894.520	0.0180950
894.598	0.0179699
894.676	0.0180009
894.754	0.0181376
894.832	0.0180080
894.910	0.0181556
894.988	0.0181435
895.067	0.0179540
895.145	0.0180302
895.223	0.0180475
895.301	0.0180988
895.379	0.0181532
895.457	0.0180542
895.535	0.0180832
895.613	0.0181229
895.692	0.0181305
895.770	0.0181081
895.848	0.0179818
895.926	0.0179664
896.004	0.0179025
896.082	0.0181422
896.160	0.0180753
896.238	0.0180011
896.317	0.0180707
896.395	0.0180190
896.473	0.0179431
896.551	0.0177837
896.629	0.0178798
896.707	0.0178699
896.785	0.0178616
896.863	0.0179517
896.942	0.0179047
897.020	0.0179264
897.098	0.0180017
897.176	0.0178808
897.254	0.0179339
897.332	0.0180392
897.410	0.0178813
897.488	0.0179441
897.567	0.0179491
897.645	0.0179296
897.723	0.0177506
897.801	0.0178913
897.879	0.0179890
897.957	0.0178862
898.035	0.0178019
898.113	0.0179217
898.192	0.0178604
898.270	0.0178339
898.348	0.0177805
898.426	0.0178352
898.504	0.0177057
898.582	0.0176759
898.660	0.0177781
898.738	0.0178867
898.817	0.0177523
898.895	0.0178340
898.973	0.0177661
899.051	0.0178959
899.129	0.0180683
899.207	0.0180297
899.285	0.0179137
899.363	0.0180698
899.442	0.0180433
899.520	0.0180183
899.598	0.0180872
899.676	0.0182094
899.754	0.0180270
899.832	0.0179459
899.910	0.0180882
899.988	0.0180198
900.067	0.0179200
900.145	0.0179713
900.223	0.0179098
900.301	0.0178801
900.379	0.0177876
900.457	0.0177065
900.535	0.0177617
900.613	0.0175897
900.692	0.0178595
900.770	0.0176609
900.848	0.0174980
900.926	0.0177426
901.004	0.0178168
901.082	0.0176984
901.160	0.0177474
901.238	0.0178286
901.317	0.0178606
901.395	0.0177259
901.473	0.0178391
901.551	0.0179115
901.629	0.0179157
901.707	0.0179877
901.785	0.0179152
901.863	0.0179612
901.942	0.0179664
902.020	0.0178947
902.098	0.0178807
902.176	0.0180079
902.254	0.0179105
902.332	0.0179088
902.410	0.0178778
902.488	0.0179655
902.567	0.0179520
902.645	0.0179050
902.723	0.0178022
902.801	0.0181052
902.879	0.0179408
902.957	0.0179168
903.035	0.0177902
903.113	0.0178742
903.192	0.0180273
903.270	0.0178670
903.348	0.0179227
903.426	0.0179121
903.504	0.0177798
903.582	0.0178838
903.660	0.0176470
903.738	0.0177236
903.817	0.0177428
903.895	0.0178378
903.973	0.0177389
904.051	0.0177648
904.129	0.0178709
904.207	0.0177486
904.285	0.0179982
904.363	0.0179371
904.442	0.0177479
904.520	0.0178011
904.598	0.0179263
904.676	0.0180266
904.754	0.0180932
904.832	0.0179927
904.910	0.0181470
904.988	0.0180359
905.067	0.0181615
905.145	0.0181763
905.223	0.0180268
905.301	0.0180129
905.379	0.0178471
905.457	0.0178343
905.535	0.0178584
905.613	0.0178336
905.692	0.0178027
905.770	0.0176936
905.848	0.0177040
905.926	0.0177280
906.004	0.0178619
906.082	0.0175535
906.160	0.0176525
906.238	0.0176912
906.317	0.0176040
906.395	0.0177784
906.473	0.0178957
906.551	0.0178754
906.629	0.0178577
906.707	0.0179787
906.785	0.0180859
906.863	0.0180263
906.942	0.0180161
907.020	0.0179482
907.098	0.0181610
907.176	0.0181624
907.254	0.0182465
907.332	0.0181079
907.410	0.0180360
907.488	0.0180630
907.567	0.0181194
907.645	0.0181046
907.723	0.0179517
907.801	0.0178958
907.879	0.0180425
907.957	0.0177264
908.035	0.0178404
908.113	0.0179562
908.192	0.0179189
908.270	0.0177349
908.348	0.0178638
908.426	0.0177893
908.504	0.0179008
908.582	0.0176678
908.660	0.0177329
908.738	0.0178474
908.817	0.0178115
908.895	0.0177323
908.973	0.0177251
909.051	0.0178620
909.129	0.0177966
909.207	0.0176897
909.285	0.0178416
909.363	0.0178062
909.442	0.0178622
909.520	0.0178219
909.598	0.0177291
909.676	0.0179059
909.754	0.0179008
909.832	0.0177943
909.910	0.0179823
909.988	0.0179546
910.067	0.0179657
910.145	0.0179034
910.223	0.0178639
910.301	0.0179057
910.379	0.0180838
910.457	0.0180011
910.535	0.0179650
910.613	0.0179153
910.692	0.0179640
910.770	0.0179989
910.848	0.0179422
910.926	0.0179095
911.004	0.0180138
911.082	0.0180347
911.160	0.0179271
911.238	0.0180145
911.317	0.0179230
911.395	0.0180625
911.473	0.0180078
911.551	0.0178632
911.629	0.0179977
911.707	0.0179759
911.785	0.0179196
911.863	0.0180374
911.942	0.0181751
912.020	0.0181485
912.098	0.0180726
912.176	0.0179812
912.254	0.0177541
912.332	0.0180196
912.410	0.0179613
912.488	0.0178889
912.567	0.0178692
912.645	0.0178860
912.723	0.0179593
912.801	0.0177141
912.879	0.0177560
912.957	0.0178625
913.035	0.0178535
913.113	0.0180699
913.192	0.0179323
913.270	0.0179263
913.348	0.0178422
913.426	0.0177383
913.504	0.0179497
913.582	0.0179645
913.660	0.0179415
913.738	0.0178659
913.817	0.0178792
913.895	0.0178036
913.973	0.0179239
914.051	0.0178819
914.129	0.0177748
914.207	0.0178637
914.285	0.0178711
914.363	0.0178068
914.442	0.0179568
914.520	0.0177827
914.598	0.0178951
914.676	0.0179532
914.754	0.0177853
914.832	0.0178545
914.910	0.0179449
914.988	0.0179064
915.067	0.0180059
915.145	0.0180231
915.223	0.0180485
915.301	0.0180256
915.379	0.0180283
915.457	0.0180653
915.535	0.0180669
915.613	0.0180006
915.692	0.0179646
915.770	0.0178431
915.848	0.0179243
915.926	0.0177630
916.004	0.0176647
916.082	0.0177718
916.160	0.0176836
916.238	0.0176200
916.317	0.0176118
916.395	0.0174239
916.473	0.0174237
916.551	0.0176147
916.629	0.0174823
916.707	0.0175522
916.785	0.0175781
916.863	0.0175420
916.942	0.0176835
917.020	0.0177502
917.098	0.0177942
917.176	0.0177835
917.254	0.0178104
917.332	0.0180058
917.410	0.0179374
917.488	0.0179589
917.567	0.0180038
917.645	0.0180401
917.723	0.0179619
917.801	0.0180339
917.879	0.0180520
917.957	0.0180405
918.035	0.0181392
918.113	0.0179170
918.192	0.0180606
918.270	0.0178894
918.348	0.0178308
918.426	0.0177285
918.504	0.0177377
918.582	0.0178819
918.660	0.0177495
918.738	0.0177502
918.817	0.0177055
918.895	0.0178211
918.973	0.0179398
919.051	0.0178937
919.129	0.0178064
919.207	0.0178896
919.285	0.0179932
919.363	0.0180562
919.442	0.0179829
919.520	0.0180886
919.598	0.0180898
919.676	0.0178474
919.754	0.0179002
919.832	0.0180424
919.910	0.0180237
