06/01/2022	22:11:44	Ver.	4.1	UNKNOWN
Optical Delay	599.988409	Delta X		0.078125	Sweeps	1	Scan Rate	0/0
Coordinates	Axis 1	NaN	Axis 2	NaN	Axis 3	NaN	Axis 4	NaN	Axis 5	NaN	Axis 6	0.000000
TX Power	0.000000	RX Power	0.000000

599.988	0.0181290
600.067	0.0180136
600.145	0.0179873
600.223	0.0180534
600.301	0.0181052
600.379	0.0181934
600.457	0.0180240
600.535	0.0180433
600.613	0.0180681
600.692	0.0180132
600.770	0.0180042
600.848	0.0180141
600.926	0.0180999
601.004	0.0181360
601.082	0.0180475
601.160	0.0181692
601.238	0.0179311
601.317	0.0180233
601.395	0.0181577
601.473	0.0180074
601.551	0.0180341
601.629	0.0181683
601.707	0.0181308
601.785	0.0180835
601.863	0.0180656
601.942	0.0181435
602.020	0.0179881
602.098	0.0180701
602.176	0.0180648
602.254	0.0182452
602.332	0.0182163
602.410	0.0180462
602.488	0.0180919
602.567	0.0181390
602.645	0.0182192
602.723	0.0181483
602.801	0.0181547
602.879	0.0182733
602.957	0.0180815
603.035	0.0182825
603.113	0.0182952
603.192	0.0181189
603.270	0.0182080
603.348	0.0181385
603.426	0.0182466
603.504	0.0182337
603.582	0.0181011
603.660	0.0181407
603.738	0.0181756
603.817	0.0182845
603.895	0.0182101
603.973	0.0180149
604.051	0.0181728
604.129	0.0181706
604.207	0.0181766
604.285	0.0180398
604.363	0.0183067
604.442	0.0182126
604.520	0.0180871
604.598	0.0181133
604.676	0.0181096
604.754	0.0182248
604.832	0.0181715
604.910	0.0181178
604.988	0.0180956
605.067	0.0181321
605.145	0.0183131
605.223	0.0181858
605.301	0.0181612
605.379	0.0182879
605.457	0.0182509
605.535	0.0182131
605.613	0.0182133
605.692	0.0181240
605.770	0.0182652
605.848	0.0182668
605.926	0.0180983
606.004	0.0181420
606.082	0.0182440
606.160	0.0181918
606.238	0.0182697
606.317	0.0181712
606.395	0.0181270
606.473	0.0182626
606.551	0.0183443
606.629	0.0182213
606.707	0.0182568
606.785	0.0181869
606.863	0.0182829
606.942	0.0183244
607.020	0.0182903
607.098	0.0182853
607.176	0.0181402
607.254	0.0182734
607.332	0.0182474
607.410	0.0182297
607.488	0.0182694
607.567	0.0181939
607.645	0.0181487
607.723	0.0183045
607.801	0.0183251
607.879	0.0182542
607.957	0.0182684
608.035	0.0181346
608.113	0.0180708
608.192	0.0182013
608.270	0.0181979
608.348	0.0182012
608.426	0.0182108
608.504	0.0182036
608.582	0.0181290
608.660	0.0182551
608.738	0.0180861
608.817	0.0181117
608.895	0.0180987
608.973	0.0181139
609.051	0.0181881
609.129	0.0180623
609.207	0.0182135
609.285	0.0180873
609.363	0.0180570
609.442	0.0181297
609.520	0.0181711
609.598	0.0180940
609.676	0.0179929
609.754	0.0179559
609.832	0.0180914
609.910	0.0181326
609.988	0.0179428
610.067	0.0180423
610.145	0.0180992
610.223	0.0181034
610.301	0.0179719
610.379	0.0181678
610.457	0.0180002
610.535	0.0181067
610.613	0.0181315
610.692	0.0180391
610.770	0.0180534
610.848	0.0180663
610.926	0.0179794
611.004	0.0180488
611.082	0.0179561
611.160	0.0180242
611.238	0.0179967
611.317	0.0181523
611.395	0.0180687
611.473	0.0179901
611.551	0.0181422
611.629	0.0179900
611.707	0.0181126
611.785	0.0180322
611.863	0.0180510
611.942	0.0180490
612.020	0.0180775
612.098	0.0180207
612.176	0.0178492
612.254	0.0179102
612.332	0.0180183
612.410	0.0179360
612.488	0.0179392
612.567	0.0179597
612.645	0.0179697
612.723	0.0180318
612.801	0.0179073
612.879	0.0180118
612.957	0.0180751
613.035	0.0180589
613.113	0.0180560
613.192	0.0178892
613.270	0.0180526
613.348	0.0180907
613.426	0.0179165
613.504	0.0179198
613.582	0.0180551
613.660	0.0179801
613.738	0.0180948
613.817	0.0179535
613.895	0.0181417
613.973	0.0179942
614.051	0.0180036
614.129	0.0181305
614.207	0.0181214
614.285	0.0181331
614.363	0.0182381
614.442	0.0180558
614.520	0.0181131
614.598	0.0180389
614.676	0.0180260
614.754	0.0182761
614.832	0.0182223
614.910	0.0182614
614.988	0.0181683
615.067	0.0180429
615.145	0.0181293
615.223	0.0182500
615.301	0.0181642
615.379	0.0181065
615.457	0.0181441
615.535	0.0181120
615.613	0.0180885
615.692	0.0181306
615.770	0.0181906
615.848	0.0180840
615.926	0.0181528
616.004	0.0181026
616.082	0.0182043
616.160	0.0181554
616.238	0.0179836
616.317	0.0182417
616.395	0.0181733
616.473	0.0182617
616.551	0.0182404
616.629	0.0181258
616.707	0.0182155
616.785	0.0182124
616.863	0.0182198
616.942	0.0183292
617.020	0.0183139
617.098	0.0183373
617.176	0.0181908
617.254	0.0182432
617.332	0.0182963
617.410	0.0182376
617.488	0.0182490
617.567	0.0182888
617.645	0.0182816
617.723	0.0182597
617.801	0.0182844
617.879	0.0183488
617.957	0.0181483
618.035	0.0181850
618.113	0.0183072
618.192	0.0182822
618.270	0.0182887
618.348	0.0183056
618.426	0.0181274
618.504	0.0181885
618.582	0.0181707
618.660	0.0182323
618.738	0.0181727
618.817	0.0183084
618.895	0.0180994
618.973	0.0182412
619.051	0.0180944
619.129	0.0180243
619.207	0.0181400
619.285	0.0183128
619.363	0.0183051
619.442	0.0183090
619.520	0.0181038
619.598	0.0181277
619.676	0.0182339
619.754	0.0182977
619.832	0.0181898
619.910	0.0182376
619.988	0.0182018
620.067	0.0182391
620.145	0.0182621
620.223	0.0183175
620.301	0.0183643
620.379	0.0182670
620.457	0.0179992
620.535	0.0180299
620.613	0.0182108
620.692	0.0181819
620.770	0.0181551
620.848	0.0182563
620.926	0.0181155
621.004	0.0181232
621.082	0.0182275
621.160	0.0181995
621.238	0.0181823
621.317	0.0180983
621.395	0.0181553
621.473	0.0182717
621.551	0.0181425
621.629	0.0180938
621.707	0.0180272
621.785	0.0179842
621.863	0.0181749
621.942	0.0181535
622.020	0.0182178
622.098	0.0180231
622.176	0.0181306
622.254	0.0181258
622.332	0.0181351
622.410	0.0181174
622.488	0.0180128
622.567	0.0181255
622.645	0.0181396
622.723	0.0180825
622.801	0.0181913
622.879	0.0181092
622.957	0.0180497
623.035	0.0182252
623.113	0.0180150
623.192	0.0181622
623.270	0.0182339
623.348	0.0180424
623.426	0.0180039
623.504	0.0180134
623.582	0.0181306
623.660	0.0181210
623.738	0.0181768
623.817	0.0181614
623.895	0.0180510
623.973	0.0182076
624.051	0.0183083
624.129	0.0181524
624.207	0.0182986
624.285	0.0182150
624.363	0.0181992
624.442	0.0181953
624.520	0.0181549
624.598	0.0180968
624.676	0.0181999
624.754	0.0181895
624.832	0.0181636
624.910	0.0180814
624.988	0.0181224
625.067	0.0181226
625.145	0.0181787
625.223	0.0182291
625.301	0.0181396
625.379	0.0181578
625.457	0.0181874
625.535	0.0181948
625.613	0.0181179
625.692	0.0182101
625.770	0.0181396
625.848	0.0180567
625.926	0.0182120
626.004	0.0182690
626.082	0.0181306
626.160	0.0181991
626.238	0.0182603
626.317	0.0181614
626.395	0.0181496
626.473	0.0180422
626.551	0.0183131
626.629	0.0182248
626.707	0.0182087
626.785	0.0181192
626.863	0.0181892
626.942	0.0183424
627.020	0.0182283
627.098	0.0183034
627.176	0.0182980
627.254	0.0183122
627.332	0.0182583
627.410	0.0183065
627.488	0.0182246
627.567	0.0181936
627.645	0.0182829
627.723	0.0182835
627.801	0.0181548
627.879	0.0182960
627.957	0.0182209
628.035	0.0182674
628.113	0.0182816
628.192	0.0182893
628.270	0.0182442
628.348	0.0182806
628.426	0.0181887
628.504	0.0182002
628.582	0.0180941
628.660	0.0181861
628.738	0.0181631
628.817	0.0180268
628.895	0.0183115
628.973	0.0182568
629.051	0.0180970
629.129	0.0181558
629.207	0.0180359
629.285	0.0182260
629.363	0.0183244
629.442	0.0181580
629.520	0.0181897
629.598	0.0181570
629.676	0.0180650
629.754	0.0182445
629.832	0.0181411
629.910	0.0181381
629.988	0.0180231
630.067	0.0182023
630.145	0.0182174
630.223	0.0180872
630.301	0.0181700
630.379	0.0182308
630.457	0.0182116
630.535	0.0181008
630.613	0.0180861
630.692	0.0181400
630.770	0.0183135
630.848	0.0181396
630.926	0.0180455
631.004	0.0182082
631.082	0.0179931
631.160	0.0180737
631.238	0.0182092
631.317	0.0180811
631.395	0.0181791
631.473	0.0180434
631.551	0.0181012
631.629	0.0183331
631.707	0.0182719
631.785	0.0181416
631.863	0.0181413
631.942	0.0181950
632.020	0.0181129
632.098	0.0182165
632.176	0.0181961
632.254	0.0181406
632.332	0.0181160
632.410	0.0180734
632.488	0.0180565
632.567	0.0181242
632.645	0.0180867
632.723	0.0181068
632.801	0.0182569
632.879	0.0181323
632.957	0.0179861
633.035	0.0180370
633.113	0.0181051
633.192	0.0180343
633.270	0.0179381
633.348	0.0180605
633.426	0.0180000
633.504	0.0179139
633.582	0.0181067
633.660	0.0180979
633.738	0.0179614
633.817	0.0178165
633.895	0.0180714
633.973	0.0179391
634.051	0.0179169
634.129	0.0179143
634.207	0.0180097
634.285	0.0178038
634.363	0.0179753
634.442	0.0178470
634.520	0.0177596
634.598	0.0180658
634.676	0.0179189
634.754	0.0178648
634.832	0.0178510
634.910	0.0179063
634.988	0.0178732
635.067	0.0179696
635.145	0.0179704
635.223	0.0178880
635.301	0.0179770
635.379	0.0179276
635.457	0.0179095
635.535	0.0179444
635.613	0.0179879
635.692	0.0178994
635.770	0.0179630
635.848	0.0180349
635.926	0.0178391
636.004	0.0179327
636.082	0.0178571
636.160	0.0178665
636.238	0.0179433
636.317	0.0179803
636.395	0.0178497
636.473	0.0180502
636.551	0.0179456
636.629	0.0179727
636.707	0.0179036
636.785	0.0179546
636.863	0.0180668
636.942	0.0180869
637.020	0.0179626
637.098	0.0179485
637.176	0.0180841
637.254	0.0181703
637.332	0.0180006
637.410	0.0180467
637.488	0.0179646
637.567	0.0180540
637.645	0.0180466
637.723	0.0180210
637.801	0.0180269
637.879	0.0180114
637.957	0.0181282
638.035	0.0181260
638.113	0.0179558
638.192	0.0180117
638.270	0.0182240
638.348	0.0180347
638.426	0.0181252
638.504	0.0181118
638.582	0.0180706
638.660	0.0180916
638.738	0.0180860
638.817	0.0181454
638.895	0.0181755
638.973	0.0182577
639.051	0.0182232
639.129	0.0182685
639.207	0.0181897
639.285	0.0182936
639.363	0.0183099
639.442	0.0184271
639.520	0.0182377
639.598	0.0182136
639.676	0.0183190
639.754	0.0183727
639.832	0.0182678
639.910	0.0182575
639.988	0.0183237
640.067	0.0182111
640.145	0.0183614
640.223	0.0182578
640.301	0.0182799
640.379	0.0183207
640.457	0.0182555
640.535	0.0182889
640.613	0.0182658
640.692	0.0182443
640.770	0.0181916
640.848	0.0181538
640.926	0.0182435
641.004	0.0181931
641.082	0.0182548
641.160	0.0182443
641.238	0.0181834
641.317	0.0182951
641.395	0.0182240
641.473	0.0181000
641.551	0.0181077
641.629	0.0181773
641.707	0.0182088
641.785	0.0181283
641.863	0.0181219
641.942	0.0180200
642.020	0.0180779
642.098	0.0182286
642.176	0.0181426
642.254	0.0180798
642.332	0.0182416
642.410	0.0182026
642.488	0.0182668
642.567	0.0181949
642.645	0.0180667
642.723	0.0182013
642.801	0.0182214
642.879	0.0181849
642.957	0.0181665
643.035	0.0181453
643.113	0.0182449
643.192	0.0182221
643.270	0.0182250
643.348	0.0180795
643.426	0.0181555
643.504	0.0183498
643.582	0.0180783
643.660	0.0181236
643.738	0.0181748
643.817	0.0182220
643.895	0.0181174
643.973	0.0180123
644.051	0.0179790
644.129	0.0180753
644.207	0.0180270
644.285	0.0180215
644.363	0.0180050
644.442	0.0181314
644.520	0.0180924
644.598	0.0181113
644.676	0.0179898
644.754	0.0179788
644.832	0.0180188
644.910	0.0180907
644.988	0.0181236
645.067	0.0179976
645.145	0.0180820
645.223	0.0182237
645.301	0.0181404
645.379	0.0180574
645.457	0.0180505
645.535	0.0180391
645.613	0.0181103
645.692	0.0182473
645.770	0.0181910
645.848	0.0181940
645.926	0.0182584
646.004	0.0183207
646.082	0.0183431
646.160	0.0182394
646.238	0.0182117
646.317	0.0182469
646.395	0.0182639
646.473	0.0181515
646.551	0.0180915
646.629	0.0181744
646.707	0.0181783
646.785	0.0181181
646.863	0.0181822
646.942	0.0182121
647.020	0.0180389
647.098	0.0180988
647.176	0.0180878
647.254	0.0181721
647.332	0.0180527
647.410	0.0180208
647.488	0.0180903
647.567	0.0181308
647.645	0.0181684
647.723	0.0178810
647.801	0.0181168
647.879	0.0181196
647.957	0.0181007
648.035	0.0180668
648.113	0.0180488
648.192	0.0182544
648.270	0.0179516
648.348	0.0180125
648.426	0.0182274
648.504	0.0179998
648.582	0.0180640
648.660	0.0180470
648.738	0.0179637
648.817	0.0179837
648.895	0.0181532
648.973	0.0180399
649.051	0.0180512
649.129	0.0179804
649.207	0.0181018
649.285	0.0179884
649.363	0.0180543
649.442	0.0180987
649.520	0.0181279
649.598	0.0180986
649.676	0.0181775
649.754	0.0180948
649.832	0.0181594
649.910	0.0182153
649.988	0.0182261
650.067	0.0182526
650.145	0.0182285
650.223	0.0182236
650.301	0.0181670
650.379	0.0182974
650.457	0.0183113
650.535	0.0183027
650.613	0.0182786
650.692	0.0181945
650.770	0.0182381
650.848	0.0181460
650.926	0.0182198
651.004	0.0183659
651.082	0.0183803
651.160	0.0182566
651.238	0.0183544
651.317	0.0181378
651.395	0.0183085
651.473	0.0182284
651.551	0.0181828
651.629	0.0182543
651.707	0.0181960
651.785	0.0182211
651.863	0.0181564
651.942	0.0180952
652.020	0.0181550
652.098	0.0182415
652.176	0.0181678
652.254	0.0180851
652.332	0.0180756
652.410	0.0180141
652.488	0.0179636
652.567	0.0181118
652.645	0.0181008
652.723	0.0182423
652.801	0.0180316
652.879	0.0181794
652.957	0.0181425
653.035	0.0180457
653.113	0.0181728
653.192	0.0181970
653.270	0.0181800
653.348	0.0183624
653.426	0.0183411
653.504	0.0181918
653.582	0.0182781
653.660	0.0182846
653.738	0.0183301
653.817	0.0182935
653.895	0.0182229
653.973	0.0182686
654.051	0.0182563
654.129	0.0181229
654.207	0.0182059
654.285	0.0181300
654.363	0.0181898
654.442	0.0180743
654.520	0.0181046
654.598	0.0182326
654.676	0.0181753
654.754	0.0179966
654.832	0.0181805
654.910	0.0181907
654.988	0.0180522
655.067	0.0180929
655.145	0.0180791
655.223	0.0181777
655.301	0.0181602
655.379	0.0179858
655.457	0.0180893
655.535	0.0181102
655.613	0.0180058
655.692	0.0179670
655.770	0.0180506
655.848	0.0180132
655.926	0.0180183
656.004	0.0179911
656.082	0.0179949
656.160	0.0180810
656.238	0.0181021
656.317	0.0181271
656.395	0.0179455
656.473	0.0180656
656.551	0.0180431
656.629	0.0180881
656.707	0.0180688
656.785	0.0180045
656.863	0.0179753
656.942	0.0180872
657.020	0.0180393
657.098	0.0180168
657.176	0.0180666
657.254	0.0178905
657.332	0.0180564
657.410	0.0182079
657.488	0.0180994
657.567	0.0180594
657.645	0.0180178
657.723	0.0178570
657.801	0.0180100
657.879	0.0179752
657.957	0.0179345
658.035	0.0178375
658.113	0.0180421
658.192	0.0178587
658.270	0.0177949
658.348	0.0179327
658.426	0.0180071
658.504	0.0179439
658.582	0.0178581
658.660	0.0177485
658.738	0.0179564
658.817	0.0178973
658.895	0.0178337
658.973	0.0179204
659.051	0.0179038
659.129	0.0178214
659.207	0.0179914
659.285	0.0179235
659.363	0.0179382
659.442	0.0179136
659.520	0.0179512
659.598	0.0178706
659.676	0.0179945
659.754	0.0181326
659.832	0.0180810
659.910	0.0179912
659.988	0.0181989
660.067	0.0181535
660.145	0.0182239
660.223	0.0181074
660.301	0.0180994
660.379	0.0180218
660.457	0.0181196
660.535	0.0180946
660.613	0.0182293
660.692	0.0180471
660.770	0.0180938
660.848	0.0181490
660.926	0.0180678
661.004	0.0181241
661.082	0.0181661
661.160	0.0180922
661.238	0.0181441
661.317	0.0181466
661.395	0.0180568
661.473	0.0180057
661.551	0.0181885
661.629	0.0180991
661.707	0.0179919
661.785	0.0180064
661.863	0.0181219
661.942	0.0180365
662.020	0.0180083
662.098	0.0180630
662.176	0.0180970
662.254	0.0181967
662.332	0.0181781
662.410	0.0181226
662.488	0.0181728
662.567	0.0182108
662.645	0.0180968
662.723	0.0181870
662.801	0.0181310
662.879	0.0184202
662.957	0.0181879
663.035	0.0181345
663.113	0.0183606
663.192	0.0182603
663.270	0.0184645
663.348	0.0184215
663.426	0.0182520
663.504	0.0182699
663.582	0.0181356
663.660	0.0182210
663.738	0.0181607
663.817	0.0182478
663.895	0.0181705
663.973	0.0182448
664.051	0.0181600
664.129	0.0182030
664.207	0.0182187
664.285	0.0181634
664.363	0.0180985
664.442	0.0181883
664.520	0.0183412
664.598	0.0181154
664.676	0.0181295
664.754	0.0180578
664.832	0.0181573
664.910	0.0181001
664.988	0.0182211
665.067	0.0183560
665.145	0.0182239
665.223	0.0181262
665.301	0.0182128
665.379	0.0181918
665.457	0.0182082
665.535	0.0182915
665.613	0.0181362
665.692	0.0180466
665.770	0.0181746
665.848	0.0182544
665.926	0.0181960
666.004	0.0181693
666.082	0.0181302
666.160	0.0181645
666.238	0.0182915
666.317	0.0181545
666.395	0.0181860
666.473	0.0182206
666.551	0.0182036
666.629	0.0182864
666.707	0.0181869
666.785	0.0181606
666.863	0.0182895
666.942	0.0182983
667.020	0.0182351
667.098	0.0182101
667.176	0.0181571
667.254	0.0183086
667.332	0.0182319
667.410	0.0182681
667.488	0.0182954
667.567	0.0182365
667.645	0.0183494
667.723	0.0181357
667.801	0.0183070
667.879	0.0183045
667.957	0.0182226
668.035	0.0182756
668.113	0.0183471
668.192	0.0182359
668.270	0.0182690
668.348	0.0180968
668.426	0.0184108
668.504	0.0183243
668.582	0.0181673
668.660	0.0183025
668.738	0.0182043
668.817	0.0180649
668.895	0.0181404
668.973	0.0182199
669.051	0.0180062
669.129	0.0179742
669.207	0.0180077
669.285	0.0181017
669.363	0.0181020
669.442	0.0180712
669.520	0.0181244
669.598	0.0180154
669.676	0.0180874
669.754	0.0181702
669.832	0.0180126
669.910	0.0181042
669.988	0.0180978
670.067	0.0180686
670.145	0.0182085
670.223	0.0181623
670.301	0.0180801
670.379	0.0181456
670.457	0.0181247
670.535	0.0181853
670.613	0.0180870
670.692	0.0181598
670.770	0.0183575
670.848	0.0183389
670.926	0.0182919
671.004	0.0182240
671.082	0.0181194
671.160	0.0181059
671.238	0.0181730
671.317	0.0181110
671.395	0.0182870
671.473	0.0181142
671.551	0.0181195
671.629	0.0181021
671.707	0.0181549
671.785	0.0181270
671.863	0.0178616
671.942	0.0180325
672.020	0.0181434
672.098	0.0183209
672.176	0.0181881
672.254	0.0180820
672.332	0.0180593
672.410	0.0181697
672.488	0.0179598
672.567	0.0180431
672.645	0.0181619
672.723	0.0180643
672.801	0.0182000
672.879	0.0180896
672.957	0.0182310
673.035	0.0182067
673.113	0.0180878
673.192	0.0181074
673.270	0.0180283
673.348	0.0179269
673.426	0.0181967
673.504	0.0181712
673.582	0.0180836
673.660	0.0179039
673.738	0.0180132
673.817	0.0181827
673.895	0.0181412
673.973	0.0179787
674.051	0.0179712
674.129	0.0179827
674.207	0.0181223
674.285	0.0181373
674.363	0.0179463
674.442	0.0180833
674.520	0.0181111
674.598	0.0179753
674.676	0.0180019
674.754	0.0181761
674.832	0.0181222
674.910	0.0182939
674.988	0.0182263
675.067	0.0181705
675.145	0.0183234
675.223	0.0181423
675.301	0.0180954
675.379	0.0181707
675.457	0.0182414
675.535	0.0182127
675.613	0.0182549
675.692	0.0181650
675.770	0.0180290
675.848	0.0181461
675.926	0.0181401
676.004	0.0180386
676.082	0.0179829
676.160	0.0180173
676.238	0.0180791
676.317	0.0180316
676.395	0.0178963
676.473	0.0179037
676.551	0.0180206
676.629	0.0178272
676.707	0.0179367
676.785	0.0179242
676.863	0.0179718
676.942	0.0177898
677.020	0.0178391
677.098	0.0179939
677.176	0.0179363
677.254	0.0180568
677.332	0.0181548
677.410	0.0181556
677.488	0.0181235
677.567	0.0181553
677.645	0.0181913
677.723	0.0183565
677.801	0.0183363
677.879	0.0183167
677.957	0.0183515
678.035	0.0183353
678.113	0.0182894
678.192	0.0183255
678.270	0.0183199
678.348	0.0182301
678.426	0.0181210
678.504	0.0182829
678.582	0.0181903
678.660	0.0182367
678.738	0.0180247
678.817	0.0180146
678.895	0.0179397
678.973	0.0179839
679.051	0.0179713
679.129	0.0178652
679.207	0.0179631
679.285	0.0180015
679.363	0.0180795
679.442	0.0180272
679.520	0.0179651
679.598	0.0179736
679.676	0.0182153
679.754	0.0180053
679.832	0.0180922
679.910	0.0180601
679.988	0.0181577
680.067	0.0180894
680.145	0.0182367
680.223	0.0183928
680.301	0.0182733
680.379	0.0182195
680.457	0.0183296
680.535	0.0182301
680.613	0.0184328
680.692	0.0184202
680.770	0.0183144
680.848	0.0183802
680.926	0.0182710
681.004	0.0182153
681.082	0.0181256
681.160	0.0182022
681.238	0.0181049
681.317	0.0181455
681.395	0.0180700
681.473	0.0180207
681.551	0.0179106
681.629	0.0179882
681.707	0.0179958
681.785	0.0180920
681.863	0.0180469
681.942	0.0180059
682.020	0.0181703
682.098	0.0181502
682.176	0.0181718
682.254	0.0182545
682.332	0.0181821
682.410	0.0182546
682.488	0.0182591
682.567	0.0183302
682.645	0.0183894
682.723	0.0182867
682.801	0.0184366
682.879	0.0184434
682.957	0.0182948
683.035	0.0182704
683.113	0.0182106
683.192	0.0182739
683.270	0.0182776
683.348	0.0182133
683.426	0.0181877
683.504	0.0183365
683.582	0.0183176
683.660	0.0181803
683.738	0.0182738
683.817	0.0182719
683.895	0.0181965
683.973	0.0181470
684.051	0.0181651
684.129	0.0181478
684.207	0.0181290
684.285	0.0178856
684.363	0.0179806
684.442	0.0178952
684.520	0.0177637
684.598	0.0177312
684.676	0.0178731
684.754	0.0178327
684.832	0.0178349
684.910	0.0178360
684.988	0.0177699
685.067	0.0179335
685.145	0.0178052
685.223	0.0180444
685.301	0.0179174
685.379	0.0179101
685.457	0.0179885
685.535	0.0181319
685.613	0.0180298
685.692	0.0182800
685.770	0.0180577
685.848	0.0182930
685.926	0.0182487
686.004	0.0182833
686.082	0.0182634
686.160	0.0184315
686.238	0.0184617
686.317	0.0185915
686.395	0.0184615
686.473	0.0184665
686.551	0.0184890
686.629	0.0185696
686.707	0.0186150
686.785	0.0185677
686.863	0.0186131
686.942	0.0185542
687.020	0.0185769
687.098	0.0184281
687.176	0.0183952
687.254	0.0184486
687.332	0.0184144
687.410	0.0184380
687.488	0.0182801
687.567	0.0182055
687.645	0.0183778
687.723	0.0182527
687.801	0.0181126
687.879	0.0181213
687.957	0.0180707
688.035	0.0180270
688.113	0.0178456
688.192	0.0178770
688.270	0.0178043
688.348	0.0178145
688.426	0.0177004
688.504	0.0176565
688.582	0.0177407
688.660	0.0177171
688.738	0.0177319
688.817	0.0178170
688.895	0.0178616
688.973	0.0180305
689.051	0.0180080
689.129	0.0181846
689.207	0.0182583
689.285	0.0182552
689.363	0.0181688
689.442	0.0183773
689.520	0.0185899
689.598	0.0186129
689.676	0.0185954
689.754	0.0186190
689.832	0.0188520
689.910	0.0187766
689.988	0.0186556
690.067	0.0188276
690.145	0.0187010
690.223	0.0187683
690.301	0.0189045
690.379	0.0186042
690.457	0.0185836
690.535	0.0184446
690.613	0.0185708
690.692	0.0185321
690.770	0.0185237
690.848	0.0182529
690.926	0.0182046
691.004	0.0181734
691.082	0.0181371
691.160	0.0180495
691.238	0.0179545
691.317	0.0178162
691.395	0.0176923
691.473	0.0177991
691.551	0.0177973
691.629	0.0176789
691.707	0.0176911
691.785	0.0175523
691.863	0.0175626
691.942	0.0177381
692.020	0.0176082
692.098	0.0176231
692.176	0.0176889
692.254	0.0178677
692.332	0.0175162
692.410	0.0177682
692.488	0.0178845
692.567	0.0178968
692.645	0.0179061
692.723	0.0180036
692.801	0.0180727
692.879	0.0180338
692.957	0.0182069
693.035	0.0183305
693.113	0.0182693
693.192	0.0184124
693.270	0.0182847
693.348	0.0184429
693.426	0.0184480
693.504	0.0185253
693.582	0.0185440
693.660	0.0185485
693.738	0.0186308
693.817	0.0186550
693.895	0.0184318
693.973	0.0187389
694.051	0.0186657
694.129	0.0185985
694.207	0.0186627
694.285	0.0185863
694.363	0.0186222
694.442	0.0185259
694.520	0.0185814
694.598	0.0184832
694.676	0.0183336
694.754	0.0183833
694.832	0.0183973
694.910	0.0182279
694.988	0.0181905
695.067	0.0180949
695.145	0.0179751
695.223	0.0180439
695.301	0.0179141
695.379	0.0178163
695.457	0.0178267
695.535	0.0176565
695.613	0.0177924
695.692	0.0176910
695.770	0.0177448
695.848	0.0177728
695.926	0.0176817
696.004	0.0177713
696.082	0.0177794
696.160	0.0179379
696.238	0.0179039
696.317	0.0178316
696.395	0.0179702
696.473	0.0178831
696.551	0.0179622
696.629	0.0178096
696.707	0.0178925
696.785	0.0178391
696.863	0.0179115
696.942	0.0178790
697.020	0.0180618
697.098	0.0178978
697.176	0.0179896
697.254	0.0178287
697.332	0.0178815
697.410	0.0179077
697.488	0.0179698
697.567	0.0180718
697.645	0.0180914
697.723	0.0181413
697.801	0.0179580
697.879	0.0182021
697.957	0.0182316
698.035	0.0181039
698.113	0.0182230
698.192	0.0182703
698.270	0.0181979
698.348	0.0180708
698.426	0.0182223
698.504	0.0182994
698.582	0.0183737
698.660	0.0183731
698.738	0.0184112
698.817	0.0183482
698.895	0.0185093
698.973	0.0184711
699.051	0.0185840
699.129	0.0184574
699.207	0.0185062
699.285	0.0186110
699.363	0.0185333
699.442	0.0185485
699.520	0.0184106
699.598	0.0185754
699.676	0.0185657
699.754	0.0186766
699.832	0.0185706
699.910	0.0185822
699.988	0.0184885
700.067	0.0183813
700.145	0.0183144
700.223	0.0183773
700.301	0.0181596
700.379	0.0180849
700.457	0.0178685
700.535	0.0177963
700.613	0.0177774
700.692	0.0175685
700.770	0.0175503
700.848	0.0172770
700.926	0.0172667
701.004	0.0172941
701.082	0.0171548
701.160	0.0171767
701.238	0.0171334
701.317	0.0172355
701.395	0.0169934
701.473	0.0171914
701.551	0.0170616
701.629	0.0172043
701.707	0.0172345
701.785	0.0173228
701.863	0.0174354
701.942	0.0175306
702.020	0.0177138
702.098	0.0177162
702.176	0.0178060
702.254	0.0180054
702.332	0.0178471
702.410	0.0182112
702.488	0.0182068
702.567	0.0183852
702.645	0.0184276
702.723	0.0185194
702.801	0.0185279
702.879	0.0185975
702.957	0.0184206
703.035	0.0187423
703.113	0.0188024
703.192	0.0187724
703.270	0.0188162
703.348	0.0190439
703.426	0.0190039
703.504	0.0189854
703.582	0.0190044
703.660	0.0191043
703.738	0.0192004
703.817	0.0193086
703.895	0.0190924
703.973	0.0190880
704.051	0.0190868
704.129	0.0191136
704.207	0.0189797
704.285	0.0189716
704.363	0.0189011
704.442	0.0188644
704.520	0.0186855
704.598	0.0186852
704.676	0.0186102
704.754	0.0186002
704.832	0.0185240
704.910	0.0184396
704.988	0.0182790
705.067	0.0181658
705.145	0.0181178
705.223	0.0179787
705.301	0.0179736
705.379	0.0177934
705.457	0.0178828
705.535	0.0176741
705.613	0.0176587
705.692	0.0176007
705.770	0.0174400
705.848	0.0172562
705.926	0.0173041
706.004	0.0171382
706.082	0.0170793
706.160	0.0169353
706.238	0.0169039
706.317	0.0169389
706.395	0.0168375
706.473	0.0168291
706.551	0.0170583
706.629	0.0170728
706.707	0.0171533
706.785	0.0171049
706.863	0.0171137
706.942	0.0171525
707.020	0.0174759
707.098	0.0176637
707.176	0.0176199
707.254	0.0178677
707.332	0.0181293
707.410	0.0181693
707.488	0.0181295
707.567	0.0182520
707.645	0.0184164
707.723	0.0184308
707.801	0.0185455
707.879	0.0184347
707.957	0.0185570
708.035	0.0185784
708.113	0.0186349
708.192	0.0186859
708.270	0.0188501
708.348	0.0189046
708.426	0.0189214
708.504	0.0188492
708.582	0.0189606
708.660	0.0188775
708.738	0.0188889
708.817	0.0189101
708.895	0.0187875
708.973	0.0187312
709.051	0.0186063
709.129	0.0185546
709.207	0.0185748
709.285	0.0184740
709.363	0.0183410
709.442	0.0183937
709.520	0.0183900
709.598	0.0182899
709.676	0.0180435
709.754	0.0180273
709.832	0.0178944
709.910	0.0179549
709.988	0.0180573
710.067	0.0180585
710.145	0.0179861
710.223	0.0180713
710.301	0.0180094
710.379	0.0179611
710.457	0.0179926
710.535	0.0178721
710.613	0.0178858
710.692	0.0180182
710.770	0.0180532
710.848	0.0179152
710.926	0.0179305
711.004	0.0179490
711.082	0.0179488
711.160	0.0180536
711.238	0.0180024
711.317	0.0178783
711.395	0.0179468
711.473	0.0179435
711.551	0.0178073
711.629	0.0179234
711.707	0.0179290
711.785	0.0177833
711.863	0.0177201
711.942	0.0176964
712.020	0.0177081
712.098	0.0178310
712.176	0.0175331
712.254	0.0175166
712.332	0.0176143
712.410	0.0175098
712.488	0.0175863
712.567	0.0176070
712.645	0.0176188
712.723	0.0177796
712.801	0.0176725
712.879	0.0177465
712.957	0.0178709
713.035	0.0179108
713.113	0.0178500
713.192	0.0178544
713.270	0.0180076
713.348	0.0182034
713.426	0.0182131
713.504	0.0182661
713.582	0.0181712
713.660	0.0181692
713.738	0.0183054
713.817	0.0181730
713.895	0.0183868
713.973	0.0185024
714.051	0.0184709
714.129	0.0185503
714.207	0.0185714
714.285	0.0185831
714.363	0.0186225
714.442	0.0186090
714.520	0.0186785
714.598	0.0188162
714.676	0.0186764
714.754	0.0186766
714.832	0.0187761
714.910	0.0186739
714.988	0.0187167
715.067	0.0187222
715.145	0.0185605
715.223	0.0187479
715.301	0.0187615
715.379	0.0186768
715.457	0.0186492
715.535	0.0185968
715.613	0.0185988
715.692	0.0185263
715.770	0.0185416
715.848	0.0184307
715.926	0.0184229
716.004	0.0183242
716.082	0.0183968
716.160	0.0181620
716.238	0.0181847
716.317	0.0182558
716.395	0.0180832
716.473	0.0180870
716.551	0.0179504
716.629	0.0180483
716.707	0.0177544
716.785	0.0178985
716.863	0.0176441
716.942	0.0176394
717.020	0.0179306
717.098	0.0177779
717.176	0.0177063
717.254	0.0175787
717.332	0.0175954
717.410	0.0173375
717.488	0.0175182
717.567	0.0174467
717.645	0.0173396
717.723	0.0173956
717.801	0.0174265
717.879	0.0172636
717.957	0.0174259
718.035	0.0173013
718.113	0.0174323
718.192	0.0176137
718.270	0.0175785
718.348	0.0174753
718.426	0.0177354
718.504	0.0176540
718.582	0.0177477
718.660	0.0179028
718.738	0.0180379
718.817	0.0179585
718.895	0.0179788
718.973	0.0182786
719.051	0.0183278
719.129	0.0184061
719.207	0.0183758
719.285	0.0183836
719.363	0.0182838
719.442	0.0184293
719.520	0.0185297
719.598	0.0184449
719.676	0.0185847
719.754	0.0186114
719.832	0.0186239
719.910	0.0186569
719.988	0.0186192
720.067	0.0187054
720.145	0.0187073
720.223	0.0187572
720.301	0.0186527
720.379	0.0188535
720.457	0.0188457
720.535	0.0189300
720.613	0.0188376
720.692	0.0188935
720.770	0.0189879
720.848	0.0188808
720.926	0.0189345
721.004	0.0188197
721.082	0.0186866
721.160	0.0188771
721.238	0.0186326
721.317	0.0186363
721.395	0.0185698
721.473	0.0184328
721.551	0.0182586
721.629	0.0184407
721.707	0.0182986
721.785	0.0183672
721.863	0.0182297
721.942	0.0180980
722.020	0.0179887
722.098	0.0180231
722.176	0.0181615
722.254	0.0179917
722.332	0.0180174
722.410	0.0178299
722.488	0.0179410
722.567	0.0177893
722.645	0.0177000
722.723	0.0177448
722.801	0.0177164
722.879	0.0175363
722.957	0.0175190
723.035	0.0176009
723.113	0.0176308
723.192	0.0174014
723.270	0.0174931
723.348	0.0174890
723.426	0.0175144
723.504	0.0173986
723.582	0.0174118
723.660	0.0174108
723.738	0.0175701
723.817	0.0177547
723.895	0.0176817
723.973	0.0177006
724.051	0.0176799
724.129	0.0178566
724.207	0.0179284
724.285	0.0178862
724.363	0.0179942
724.442	0.0181418
724.520	0.0180746
724.598	0.0181334
724.676	0.0181850
724.754	0.0181858
724.832	0.0183120
724.910	0.0182603
724.988	0.0183403
725.067	0.0183688
725.145	0.0183603
725.223	0.0182668
725.301	0.0185141
725.379	0.0183781
725.457	0.0184237
725.535	0.0183017
725.613	0.0184595
725.692	0.0183437
725.770	0.0183614
725.848	0.0182963
725.926	0.0184782
726.004	0.0183802
726.082	0.0182373
726.160	0.0184572
726.238	0.0183224
726.317	0.0183695
726.395	0.0183913
726.473	0.0184273
726.551	0.0183949
726.629	0.0184385
726.707	0.0183430
726.785	0.0183822
726.863	0.0182516
726.942	0.0183260
727.020	0.0182186
727.098	0.0184045
727.176	0.0182348
727.254	0.0182798
727.332	0.0181554
727.410	0.0180391
727.488	0.0181740
727.567	0.0179853
727.645	0.0180868
727.723	0.0179195
727.801	0.0179494
727.879	0.0179112
727.957	0.0179380
728.035	0.0177477
728.113	0.0178844
728.192	0.0177002
728.270	0.0176866
728.348	0.0178705
728.426	0.0176660
728.504	0.0177216
728.582	0.0178460
728.660	0.0177368
728.738	0.0178376
728.817	0.0178120
728.895	0.0177658
728.973	0.0178698
729.051	0.0178513
729.129	0.0179124
729.207	0.0179535
729.285	0.0179375
729.363	0.0179148
729.442	0.0181705
729.520	0.0180900
729.598	0.0180759
729.676	0.0180617
729.754	0.0181756
729.832	0.0180956
729.910	0.0182042
729.988	0.0180769
730.067	0.0181377
730.145	0.0183435
730.223	0.0181177
730.301	0.0181105
730.379	0.0181331
730.457	0.0182808
730.535	0.0182040
730.613	0.0181843
730.692	0.0182124
730.770	0.0183179
730.848	0.0183533
730.926	0.0183836
731.004	0.0181783
731.082	0.0182852
731.160	0.0182984
731.238	0.0183218
731.317	0.0183479
731.395	0.0181631
731.473	0.0182119
731.551	0.0180889
731.629	0.0181319
731.707	0.0180872
731.785	0.0182236
731.863	0.0181948
731.942	0.0179921
732.020	0.0180399
732.098	0.0178504
732.176	0.0178710
732.254	0.0177871
732.332	0.0178709
732.410	0.0179475
732.488	0.0178427
732.567	0.0178989
732.645	0.0180412
732.723	0.0178629
732.801	0.0179768
732.879	0.0180497
732.957	0.0179013
733.035	0.0179953
733.113	0.0179747
733.192	0.0179307
733.270	0.0180972
733.348	0.0180141
733.426	0.0180416
733.504	0.0179748
733.582	0.0180916
733.660	0.0180640
733.738	0.0180670
733.817	0.0180640
733.895	0.0179116
733.973	0.0180171
734.051	0.0181077
734.129	0.0180418
734.207	0.0180787
734.285	0.0180314
734.363	0.0180450
734.442	0.0179979
734.520	0.0180971
734.598	0.0180666
734.676	0.0181181
734.754	0.0181168
734.832	0.0181683
734.910	0.0181352
734.988	0.0183400
735.067	0.0182584
735.145	0.0182183
735.223	0.0180518
735.301	0.0181945
735.379	0.0182968
735.457	0.0181647
735.535	0.0181989
735.613	0.0183064
735.692	0.0181868
735.770	0.0182755
735.848	0.0182394
735.926	0.0180815
736.004	0.0182906
736.082	0.0183092
736.160	0.0183167
736.238	0.0182787
736.317	0.0182602
736.395	0.0179958
736.473	0.0181393
736.551	0.0181091
736.629	0.0180089
736.707	0.0179819
736.785	0.0178901
736.863	0.0178509
736.942	0.0177704
737.020	0.0178175
737.098	0.0178128
737.176	0.0177827
737.254	0.0178656
737.332	0.0179459
737.410	0.0178836
737.488	0.0178959
737.567	0.0178692
737.645	0.0178909
737.723	0.0178286
737.801	0.0178962
737.879	0.0179895
737.957	0.0180388
738.035	0.0179375
738.113	0.0180011
738.192	0.0181850
738.270	0.0181022
738.348	0.0181277
738.426	0.0181416
738.504	0.0181947
738.582	0.0180885
738.660	0.0182545
738.738	0.0181545
738.817	0.0181965
738.895	0.0181068
738.973	0.0182240
739.051	0.0182382
739.129	0.0180097
739.207	0.0181548
739.285	0.0180670
739.363	0.0182531
739.442	0.0182693
739.520	0.0182923
739.598	0.0181734
739.676	0.0182860
739.754	0.0182040
739.832	0.0181145
739.910	0.0183933
739.988	0.0183950
740.067	0.0182983
740.145	0.0182946
740.223	0.0183727
740.301	0.0183884
740.379	0.0184956
740.457	0.0183478
740.535	0.0183983
740.613	0.0184783
740.692	0.0184217
740.770	0.0184164
740.848	0.0183090
740.926	0.0184897
741.004	0.0183028
741.082	0.0181915
741.160	0.0182706
741.238	0.0181480
741.317	0.0182235
741.395	0.0181574
741.473	0.0181380
741.551	0.0180476
741.629	0.0180534
741.707	0.0180377
741.785	0.0180575
741.863	0.0180565
741.942	0.0179144
742.020	0.0181042
742.098	0.0179449
742.176	0.0179739
742.254	0.0178038
742.332	0.0178933
742.410	0.0180193
742.488	0.0180280
742.567	0.0179505
742.645	0.0179535
742.723	0.0180235
742.801	0.0179164
742.879	0.0179735
742.957	0.0178586
743.035	0.0179391
743.113	0.0179471
743.192	0.0178962
743.270	0.0179573
743.348	0.0179301
743.426	0.0180418
743.504	0.0179578
743.582	0.0180199
743.660	0.0181854
743.738	0.0181502
743.817	0.0182544
743.895	0.0182820
743.973	0.0181777
744.051	0.0181073
744.129	0.0180917
744.207	0.0181357
744.285	0.0180105
744.363	0.0181010
744.442	0.0181234
744.520	0.0180302
744.598	0.0180350
744.676	0.0180806
744.754	0.0182108
744.832	0.0181113
744.910	0.0180521
744.988	0.0180323
745.067	0.0181787
745.145	0.0182508
745.223	0.0180357
745.301	0.0182384
745.379	0.0183543
745.457	0.0183970
745.535	0.0183738
745.613	0.0183780
745.692	0.0184251
745.770	0.0184482
745.848	0.0183961
745.926	0.0183727
746.004	0.0183138
746.082	0.0185101
746.160	0.0185112
746.238	0.0185036
746.317	0.0181813
746.395	0.0183549
746.473	0.0183179
746.551	0.0183734
746.629	0.0182463
746.707	0.0182413
746.785	0.0180968
746.863	0.0182165
746.942	0.0182599
747.020	0.0180321
747.098	0.0181160
747.176	0.0179937
747.254	0.0181073
747.332	0.0181838
747.410	0.0181744
747.488	0.0181068
747.567	0.0182575
747.645	0.0181521
747.723	0.0181333
747.801	0.0181664
747.879	0.0181704
747.957	0.0181430
748.035	0.0181596
748.113	0.0183118
748.192	0.0183283
748.270	0.0181922
748.348	0.0182253
748.426	0.0182029
748.504	0.0182224
748.582	0.0183181
748.660	0.0182257
748.738	0.0181916
748.817	0.0182558
748.895	0.0181844
748.973	0.0182488
749.051	0.0182498
749.129	0.0181544
749.207	0.0181347
749.285	0.0181409
749.363	0.0182951
749.442	0.0182153
749.520	0.0181635
749.598	0.0181429
749.676	0.0180041
749.754	0.0180173
749.832	0.0181725
749.910	0.0181857
749.988	0.0182938
750.067	0.0180846
750.145	0.0178912
750.223	0.0179937
750.301	0.0181512
750.379	0.0180592
750.457	0.0181267
750.535	0.0181033
750.613	0.0180617
750.692	0.0181931
750.770	0.0180918
750.848	0.0181020
750.926	0.0181224
751.004	0.0181570
751.082	0.0180701
751.160	0.0182017
751.238	0.0180946
751.317	0.0180215
751.395	0.0181898
751.473	0.0180949
751.551	0.0180901
751.629	0.0182169
751.707	0.0182156
751.785	0.0181482
751.863	0.0181606
751.942	0.0181879
752.020	0.0181696
752.098	0.0181392
752.176	0.0182858
752.254	0.0180919
752.332	0.0182333
752.410	0.0182192
752.488	0.0182507
752.567	0.0183170
752.645	0.0182379
752.723	0.0181372
752.801	0.0182113
752.879	0.0181822
752.957	0.0180447
753.035	0.0180490
753.113	0.0180834
753.192	0.0182323
753.270	0.0181896
753.348	0.0179655
753.426	0.0182397
753.504	0.0181966
753.582	0.0180637
753.660	0.0180464
753.738	0.0181512
753.817	0.0179075
753.895	0.0179801
753.973	0.0180455
754.051	0.0181706
754.129	0.0182254
754.207	0.0180238
754.285	0.0181821
754.363	0.0181720
754.442	0.0180413
754.520	0.0182809
754.598	0.0182935
754.676	0.0181624
754.754	0.0183490
754.832	0.0182246
754.910	0.0182494
754.988	0.0182150
755.067	0.0180209
755.145	0.0182606
755.223	0.0182827
755.301	0.0179977
755.379	0.0180885
755.457	0.0181523
755.535	0.0179744
755.613	0.0180772
755.692	0.0179345
755.770	0.0180995
755.848	0.0179695
755.926	0.0180288
756.004	0.0180388
756.082	0.0181101
756.160	0.0180994
756.238	0.0181535
756.317	0.0181461
756.395	0.0181495
756.473	0.0182631
756.551	0.0183035
756.629	0.0182069
756.707	0.0183063
756.785	0.0183700
756.863	0.0182759
756.942	0.0182553
757.020	0.0183046
757.098	0.0183344
757.176	0.0182593
757.254	0.0182221
757.332	0.0181722
757.410	0.0181923
757.488	0.0182682
757.567	0.0181395
757.645	0.0180480
757.723	0.0183625
757.801	0.0182681
757.879	0.0182248
757.957	0.0181343
758.035	0.0181636
758.113	0.0181963
758.192	0.0182737
758.270	0.0182277
758.348	0.0183173
758.426	0.0182554
758.504	0.0183079
758.582	0.0183434
758.660	0.0181874
758.738	0.0184071
758.817	0.0182253
758.895	0.0181370
758.973	0.0183757
759.051	0.0183270
759.129	0.0182059
759.207	0.0181798
759.285	0.0182252
759.363	0.0182114
759.442	0.0181198
759.520	0.0181440
759.598	0.0180856
759.676	0.0180128
759.754	0.0180443
759.832	0.0180713
759.910	0.0181622
759.988	0.0180339
760.067	0.0180834
760.145	0.0180686
760.223	0.0179038
760.301	0.0179723
760.379	0.0180586
760.457	0.0180577
760.535	0.0181780
760.613	0.0180550
760.692	0.0179562
760.770	0.0179917
760.848	0.0181487
760.926	0.0179901
761.004	0.0181892
761.082	0.0181583
761.160	0.0182110
761.238	0.0181044
761.317	0.0180510
761.395	0.0181050
761.473	0.0182156
761.551	0.0180328
761.629	0.0181228
761.707	0.0180967
761.785	0.0179749
761.863	0.0180578
761.942	0.0180095
762.020	0.0180723
762.098	0.0181210
762.176	0.0180939
762.254	0.0181616
762.332	0.0182209
762.410	0.0180844
762.488	0.0180905
762.567	0.0180931
762.645	0.0183800
762.723	0.0183569
762.801	0.0181507
762.879	0.0181643
762.957	0.0181940
763.035	0.0182750
763.113	0.0182130
763.192	0.0181866
763.270	0.0181308
763.348	0.0181646
763.426	0.0181415
763.504	0.0181004
763.582	0.0181937
763.660	0.0181490
763.738	0.0181856
763.817	0.0181969
763.895	0.0181064
763.973	0.0180974
764.051	0.0181899
764.129	0.0182574
764.207	0.0182670
764.285	0.0181804
764.363	0.0181421
764.442	0.0182602
764.520	0.0182002
764.598	0.0181445
764.676	0.0182184
764.754	0.0182676
764.832	0.0181711
764.910	0.0181335
764.988	0.0180929
765.067	0.0180963
765.145	0.0180627
765.223	0.0180182
765.301	0.0180530
765.379	0.0181149
765.457	0.0180312
765.535	0.0180004
765.613	0.0178937
765.692	0.0179110
765.770	0.0179403
765.848	0.0177462
765.926	0.0177773
766.004	0.0180098
766.082	0.0179245
766.160	0.0177883
766.238	0.0178831
766.317	0.0180420
766.395	0.0180899
766.473	0.0179822
766.551	0.0179251
766.629	0.0178990
766.707	0.0180654
766.785	0.0180501
766.863	0.0180627
766.942	0.0181817
767.020	0.0181625
767.098	0.0181469
767.176	0.0182601
767.254	0.0181560
767.332	0.0182281
767.410	0.0182091
767.488	0.0180934
767.567	0.0181356
767.645	0.0181733
767.723	0.0182674
767.801	0.0182062
767.879	0.0183644
767.957	0.0180698
768.035	0.0182357
768.113	0.0182091
768.192	0.0180225
768.270	0.0182796
768.348	0.0183248
768.426	0.0181626
768.504	0.0181737
768.582	0.0182342
768.660	0.0181709
768.738	0.0183395
768.817	0.0181969
768.895	0.0182323
768.973	0.0183917
769.051	0.0182861
769.129	0.0182516
769.207	0.0183884
769.285	0.0183941
769.363	0.0183380
769.442	0.0184115
769.520	0.0184605
769.598	0.0182650
769.676	0.0183002
769.754	0.0183141
769.832	0.0183388
769.910	0.0182074
769.988	0.0183543
770.067	0.0182166
770.145	0.0181538
770.223	0.0183428
770.301	0.0182822
770.379	0.0181381
770.457	0.0181178
770.535	0.0181780
770.613	0.0182088
770.692	0.0182478
770.770	0.0181995
770.848	0.0182504
770.926	0.0180832
771.004	0.0181244
771.082	0.0183038
771.160	0.0183934
771.238	0.0184188
771.317	0.0183149
771.395	0.0183820
771.473	0.0184570
771.551	0.0182869
771.629	0.0182895
771.707	0.0184132
771.785	0.0183036
771.863	0.0183331
771.942	0.0183427
772.020	0.0181422
772.098	0.0180973
772.176	0.0181776
772.254	0.0180658
772.332	0.0180214
772.410	0.0180289
772.488	0.0178805
772.567	0.0180205
772.645	0.0178560
772.723	0.0177007
772.801	0.0178880
772.879	0.0177596
772.957	0.0177975
773.035	0.0178217
773.113	0.0178804
773.192	0.0179085
773.270	0.0179189
773.348	0.0178674
773.426	0.0178215
773.504	0.0178867
773.582	0.0179697
773.660	0.0180074
773.738	0.0178447
773.817	0.0179310
773.895	0.0182070
773.973	0.0180028
774.051	0.0179866
774.129	0.0180020
774.207	0.0180459
774.285	0.0181934
774.363	0.0180901
774.442	0.0178886
774.520	0.0179546
774.598	0.0181384
774.676	0.0180074
774.754	0.0180870
774.832	0.0180532
774.910	0.0179227
774.988	0.0178648
775.067	0.0181351
775.145	0.0178665
775.223	0.0179052
775.301	0.0180689
775.379	0.0179253
775.457	0.0178307
775.535	0.0179560
775.613	0.0180398
775.692	0.0179568
775.770	0.0179490
775.848	0.0180788
775.926	0.0180058
776.004	0.0179873
776.082	0.0179479
776.160	0.0181429
776.238	0.0180801
776.317	0.0179631
776.395	0.0182212
776.473	0.0181014
776.551	0.0181301
776.629	0.0181650
776.707	0.0181892
776.785	0.0181329
776.863	0.0179449
776.942	0.0180874
777.020	0.0181915
777.098	0.0181944
777.176	0.0182846
777.254	0.0182673
777.332	0.0180746
777.410	0.0181809
777.488	0.0181293
777.567	0.0182337
777.645	0.0182986
777.723	0.0183009
777.801	0.0182640
777.879	0.0183214
777.957	0.0184245
778.035	0.0182835
778.113	0.0182652
778.192	0.0183504
778.270	0.0182015
778.348	0.0182945
778.426	0.0183970
778.504	0.0182323
778.582	0.0183067
778.660	0.0184615
778.738	0.0184428
778.817	0.0184177
778.895	0.0184805
778.973	0.0183627
779.051	0.0182937
779.129	0.0183411
779.207	0.0184679
779.285	0.0184229
779.363	0.0182397
779.442	0.0182353
779.520	0.0181189
779.598	0.0182218
779.676	0.0180656
779.754	0.0180692
779.832	0.0180023
779.910	0.0179527
779.988	0.0181007
780.067	0.0181544
780.145	0.0178505
780.223	0.0180133
780.301	0.0178544
780.379	0.0179577
780.457	0.0180402
780.535	0.0179989
780.613	0.0177856
780.692	0.0179867
780.770	0.0179548
780.848	0.0179578
780.926	0.0180302
781.004	0.0179825
781.082	0.0180401
781.160	0.0180621
781.238	0.0179473
781.317	0.0180726
781.395	0.0180392
781.473	0.0181176
781.551	0.0181177
781.629	0.0182151
781.707	0.0181650
781.785	0.0181990
781.863	0.0181142
781.942	0.0181666
782.020	0.0182640
782.098	0.0181533
782.176	0.0181910
782.254	0.0182343
782.332	0.0182220
782.410	0.0183470
782.488	0.0182585
782.567	0.0180724
782.645	0.0182278
782.723	0.0182327
782.801	0.0180794
782.879	0.0181820
782.957	0.0183028
783.035	0.0181791
783.113	0.0180295
783.192	0.0180938
783.270	0.0182670
783.348	0.0180772
783.426	0.0180784
783.504	0.0181390
783.582	0.0180618
783.660	0.0179234
783.738	0.0179785
783.817	0.0180411
783.895	0.0179323
783.973	0.0178336
784.051	0.0178091
784.129	0.0180811
784.207	0.0179756
784.285	0.0179909
784.363	0.0180789
784.442	0.0180663
784.520	0.0181046
784.598	0.0181722
784.676	0.0181963
784.754	0.0183737
784.832	0.0181706
784.910	0.0182723
784.988	0.0183956
785.067	0.0184019
785.145	0.0183896
785.223	0.0183489
785.301	0.0184937
785.379	0.0183622
785.457	0.0183185
785.535	0.0184639
785.613	0.0183879
785.692	0.0183691
785.770	0.0183767
785.848	0.0182026
785.926	0.0181941
786.004	0.0182510
786.082	0.0182110
786.160	0.0181449
786.238	0.0180293
786.317	0.0182275
786.395	0.0180634
786.473	0.0181175
786.551	0.0181809
786.629	0.0180610
786.707	0.0180714
786.785	0.0180742
786.863	0.0180598
786.942	0.0181579
787.020	0.0180697
787.098	0.0180711
787.176	0.0181593
787.254	0.0181712
787.332	0.0181857
787.410	0.0181189
787.488	0.0179486
787.567	0.0179927
787.645	0.0181445
787.723	0.0180557
787.801	0.0181608
787.879	0.0179629
787.957	0.0180820
788.035	0.0180815
788.113	0.0178685
788.192	0.0179288
788.270	0.0179639
788.348	0.0179070
788.426	0.0180164
788.504	0.0179223
788.582	0.0178966
788.660	0.0179176
788.738	0.0178150
788.817	0.0178183
788.895	0.0180251
788.973	0.0178976
789.051	0.0178846
789.129	0.0178783
789.207	0.0179138
789.285	0.0178609
789.363	0.0181243
789.442	0.0180848
789.520	0.0180577
789.598	0.0180546
789.676	0.0179169
789.754	0.0181207
789.832	0.0181637
789.910	0.0181787
789.988	0.0181609
790.067	0.0181554
790.145	0.0182760
790.223	0.0182342
790.301	0.0182549
790.379	0.0182706
790.457	0.0182230
790.535	0.0181448
790.613	0.0181726
790.692	0.0181911
790.770	0.0182805
790.848	0.0182276
790.926	0.0182851
791.004	0.0181911
791.082	0.0180644
791.160	0.0181480
791.238	0.0182044
791.317	0.0181548
791.395	0.0181060
791.473	0.0180720
791.551	0.0180526
791.629	0.0180952
791.707	0.0179932
791.785	0.0179891
791.863	0.0180717
791.942	0.0180029
792.020	0.0179903
792.098	0.0180427
792.176	0.0181306
792.254	0.0179900
792.332	0.0181261
792.410	0.0180724
792.488	0.0181074
792.567	0.0181354
792.645	0.0182143
792.723	0.0182022
792.801	0.0181247
792.879	0.0181787
792.957	0.0182497
793.035	0.0181575
793.113	0.0179729
793.192	0.0181257
793.270	0.0180418
793.348	0.0182080
793.426	0.0181084
793.504	0.0180914
793.582	0.0180059
793.660	0.0180569
793.738	0.0180344
793.817	0.0180750
793.895	0.0180290
793.973	0.0180212
794.051	0.0179156
794.129	0.0180013
794.207	0.0180188
794.285	0.0179371
794.363	0.0180282
794.442	0.0181242
794.520	0.0181184
794.598	0.0179548
794.676	0.0179463
794.754	0.0180602
794.832	0.0181464
794.910	0.0180643
794.988	0.0180048
795.067	0.0180787
795.145	0.0180128
795.223	0.0181150
795.301	0.0181604
795.379	0.0181773
795.457	0.0181697
795.535	0.0180877
795.613	0.0182726
795.692	0.0180727
795.770	0.0181697
795.848	0.0181318
795.926	0.0181716
796.004	0.0181314
796.082	0.0182015
796.160	0.0182583
796.238	0.0181056
796.317	0.0182739
796.395	0.0183169
796.473	0.0182975
796.551	0.0182404
796.629	0.0183179
796.707	0.0182127
796.785	0.0181908
796.863	0.0182950
796.942	0.0182246
797.020	0.0181871
797.098	0.0182531
797.176	0.0181848
797.254	0.0181142
797.332	0.0181635
797.410	0.0181071
797.488	0.0179578
797.567	0.0181667
797.645	0.0182302
797.723	0.0180246
797.801	0.0181916
797.879	0.0181497
797.957	0.0181075
798.035	0.0180501
798.113	0.0181493
798.192	0.0181754
798.270	0.0180821
798.348	0.0181849
798.426	0.0181435
798.504	0.0181668
798.582	0.0181903
798.660	0.0181495
798.738	0.0180813
798.817	0.0182830
798.895	0.0182870
798.973	0.0181419
799.051	0.0181505
799.129	0.0180309
799.207	0.0179800
799.285	0.0181442
799.363	0.0180260
799.442	0.0180607
799.520	0.0180711
799.598	0.0180991
799.676	0.0180885
799.754	0.0180661
799.832	0.0181012
799.910	0.0181418
799.988	0.0182328
800.067	0.0181600
800.145	0.0183058
800.223	0.0183047
800.301	0.0181971
800.379	0.0182230
800.457	0.0182897
800.535	0.0183002
800.613	0.0182113
800.692	0.0182954
800.770	0.0182864
800.848	0.0182079
800.926	0.0181861
801.004	0.0182497
801.082	0.0181747
801.160	0.0181407
801.238	0.0181354
801.317	0.0180633
801.395	0.0180045
801.473	0.0179953
801.551	0.0181537
801.629	0.0180194
801.707	0.0179371
801.785	0.0179989
801.863	0.0179107
801.942	0.0178307
802.020	0.0179411
802.098	0.0178235
802.176	0.0178768
802.254	0.0178422
802.332	0.0178757
802.410	0.0179394
802.488	0.0178915
802.567	0.0179618
802.645	0.0178837
802.723	0.0180160
802.801	0.0179968
802.879	0.0179589
802.957	0.0179913
803.035	0.0180315
803.113	0.0180697
803.192	0.0180305
803.270	0.0180965
803.348	0.0179426
803.426	0.0180091
803.504	0.0181938
803.582	0.0180947
803.660	0.0180539
803.738	0.0180305
803.817	0.0180284
803.895	0.0180029
803.973	0.0179988
804.051	0.0179967
804.129	0.0182398
804.207	0.0180975
804.285	0.0181303
804.363	0.0181516
804.442	0.0181361
804.520	0.0181300
804.598	0.0182405
804.676	0.0182199
804.754	0.0183188
804.832	0.0182350
804.910	0.0183377
804.988	0.0182876
805.067	0.0181608
805.145	0.0181837
805.223	0.0182596
805.301	0.0182118
805.379	0.0181876
805.457	0.0181181
805.535	0.0181403
805.613	0.0180843
805.692	0.0180644
805.770	0.0180671
805.848	0.0180936
805.926	0.0181483
806.004	0.0180399
806.082	0.0182532
806.160	0.0179985
806.238	0.0179926
806.317	0.0180982
806.395	0.0182091
806.473	0.0181116
806.551	0.0179923
806.629	0.0180551
806.707	0.0179827
806.785	0.0179548
806.863	0.0180009
806.942	0.0180869
807.020	0.0179301
807.098	0.0180202
807.176	0.0179914
807.254	0.0179375
807.332	0.0178995
807.410	0.0180302
807.488	0.0178467
807.567	0.0178429
807.645	0.0179926
807.723	0.0179037
807.801	0.0177778
807.879	0.0178538
807.957	0.0180547
808.035	0.0180820
808.113	0.0180116
808.192	0.0180494
808.270	0.0180420
808.348	0.0179811
808.426	0.0181760
808.504	0.0180206
808.582	0.0181108
808.660	0.0181521
808.738	0.0181824
808.817	0.0181003
808.895	0.0180264
808.973	0.0180634
809.051	0.0180830
809.129	0.0181471
809.207	0.0181854
809.285	0.0180711
809.363	0.0179659
809.442	0.0180805
809.520	0.0180087
809.598	0.0179047
809.676	0.0179371
809.754	0.0179623
809.832	0.0180635
809.910	0.0179878
809.988	0.0179854
810.067	0.0179922
810.145	0.0180753
810.223	0.0180012
810.301	0.0181114
810.379	0.0181374
810.457	0.0180595
810.535	0.0179826
810.613	0.0181401
810.692	0.0181815
810.770	0.0181741
810.848	0.0181470
810.926	0.0181371
811.004	0.0181573
811.082	0.0182224
811.160	0.0180853
811.238	0.0180958
811.317	0.0182059
811.395	0.0181837
811.473	0.0182688
811.551	0.0180741
811.629	0.0180737
811.707	0.0180720
811.785	0.0180473
811.863	0.0181101
811.942	0.0180955
812.020	0.0182071
812.098	0.0181059
812.176	0.0181800
812.254	0.0181363
812.332	0.0181604
812.410	0.0180703
812.488	0.0180385
812.567	0.0180479
812.645	0.0182603
812.723	0.0180529
812.801	0.0179106
812.879	0.0180099
812.957	0.0180123
813.035	0.0180238
813.113	0.0181075
813.192	0.0180023
813.270	0.0181041
813.348	0.0179360
813.426	0.0179386
813.504	0.0180554
813.582	0.0178561
813.660	0.0180406
813.738	0.0181669
813.817	0.0181329
813.895	0.0180578
813.973	0.0180621
814.051	0.0180928
814.129	0.0180592
814.207	0.0180922
814.285	0.0181794
814.363	0.0180625
814.442	0.0181237
814.520	0.0181049
814.598	0.0180225
814.676	0.0179954
814.754	0.0179787
814.832	0.0180467
814.910	0.0181399
814.988	0.0180283
815.067	0.0181056
815.145	0.0180970
815.223	0.0181348
815.301	0.0181143
815.379	0.0181185
815.457	0.0181731
815.535	0.0181106
815.613	0.0181412
815.692	0.0180360
815.770	0.0181366
815.848	0.0181723
815.926	0.0182403
816.004	0.0183223
816.082	0.0182316
816.160	0.0183393
816.238	0.0181605
816.317	0.0182640
816.395	0.0182162
816.473	0.0182525
816.551	0.0183057
816.629	0.0182951
816.707	0.0182746
816.785	0.0183034
816.863	0.0182402
816.942	0.0182146
817.020	0.0183403
817.098	0.0185133
817.176	0.0183595
817.254	0.0183944
817.332	0.0182915
817.410	0.0182355
817.488	0.0182720
817.567	0.0182450
817.645	0.0182638
817.723	0.0181667
817.801	0.0182813
817.879	0.0183353
817.957	0.0182746
818.035	0.0182902
818.113	0.0182654
818.192	0.0182841
818.270	0.0183376
818.348	0.0182052
818.426	0.0182670
818.504	0.0184090
818.582	0.0183538
818.660	0.0183154
818.738	0.0182109
818.817	0.0182342
818.895	0.0183413
818.973	0.0184225
819.051	0.0183694
819.129	0.0182174
819.207	0.0183811
819.285	0.0183895
819.363	0.0184448
819.442	0.0182921
819.520	0.0182904
819.598	0.0182539
819.676	0.0182710
819.754	0.0183752
819.832	0.0183559
819.910	0.0181742
819.988	0.0181912
820.067	0.0183876
820.145	0.0181265
820.223	0.0182086
820.301	0.0182196
820.379	0.0182116
820.457	0.0182658
820.535	0.0184127
820.613	0.0182330
820.692	0.0182320
820.770	0.0180865
820.848	0.0180978
820.926	0.0181030
821.004	0.0181728
821.082	0.0181306
821.160	0.0179478
821.238	0.0181351
821.317	0.0180394
821.395	0.0181458
821.473	0.0181825
821.551	0.0182186
821.629	0.0181054
821.707	0.0180844
821.785	0.0181701
821.863	0.0179855
821.942	0.0180795
822.020	0.0181614
822.098	0.0181477
822.176	0.0181458
822.254	0.0181314
822.332	0.0179979
822.410	0.0180898
822.488	0.0180724
822.567	0.0179916
822.645	0.0180306
822.723	0.0179630
822.801	0.0181105
822.879	0.0182388
822.957	0.0181783
823.035	0.0181292
823.113	0.0181471
823.192	0.0181069
823.270	0.0180526
823.348	0.0179861
823.426	0.0179946
823.504	0.0180169
823.582	0.0179840
823.660	0.0180253
823.738	0.0179213
823.817	0.0180198
823.895	0.0180833
823.973	0.0180578
824.051	0.0181416
824.129	0.0182081
824.207	0.0180170
824.285	0.0180600
824.363	0.0180707
824.442	0.0180066
824.520	0.0180852
824.598	0.0181461
824.676	0.0180660
824.754	0.0179234
824.832	0.0180083
824.910	0.0180350
824.988	0.0180449
825.067	0.0179808
825.145	0.0180617
825.223	0.0178989
825.301	0.0180103
825.379	0.0180975
825.457	0.0181297
825.535	0.0179109
825.613	0.0179922
825.692	0.0181602
825.770	0.0180323
825.848	0.0180192
825.926	0.0179372
826.004	0.0179229
826.082	0.0179433
826.160	0.0179950
826.238	0.0182096
826.317	0.0182304
826.395	0.0180856
826.473	0.0180768
826.551	0.0180872
826.629	0.0179868
826.707	0.0181883
826.785	0.0182136
826.863	0.0182187
826.942	0.0181165
827.020	0.0181896
827.098	0.0182892
827.176	0.0181979
827.254	0.0182430
827.332	0.0182719
827.410	0.0181107
827.488	0.0182990
827.567	0.0183146
827.645	0.0183638
827.723	0.0181789
827.801	0.0182801
827.879	0.0183090
827.957	0.0182723
828.035	0.0182677
828.113	0.0183273
828.192	0.0181582
828.270	0.0181765
828.348	0.0181600
828.426	0.0182967
828.504	0.0181599
828.582	0.0181485
828.660	0.0180378
828.738	0.0180530
828.817	0.0180669
828.895	0.0181862
828.973	0.0180254
829.051	0.0179720
829.129	0.0181390
829.207	0.0180938
829.285	0.0181617
829.363	0.0180321
829.442	0.0181312
829.520	0.0180582
829.598	0.0181267
829.676	0.0180512
829.754	0.0180275
829.832	0.0180524
829.910	0.0180135
829.988	0.0180774
830.067	0.0180721
830.145	0.0180159
830.223	0.0181065
830.301	0.0181541
830.379	0.0180330
830.457	0.0180535
830.535	0.0180965
830.613	0.0181889
830.692	0.0182257
830.770	0.0180444
830.848	0.0181248
830.926	0.0182099
831.004	0.0182225
831.082	0.0183019
831.160	0.0181874
831.238	0.0180083
831.317	0.0180805
831.395	0.0181631
831.473	0.0181947
831.551	0.0182392
831.629	0.0182948
831.707	0.0182759
831.785	0.0183575
831.863	0.0181604
831.942	0.0182935
832.020	0.0181510
832.098	0.0183076
832.176	0.0181264
832.254	0.0181221
832.332	0.0180362
832.410	0.0180489
832.488	0.0181319
832.567	0.0181516
832.645	0.0179635
832.723	0.0180833
832.801	0.0179578
832.879	0.0179352
832.957	0.0179662
833.035	0.0179115
833.113	0.0179308
833.192	0.0179605
833.270	0.0179520
833.348	0.0179973
833.426	0.0178495
833.504	0.0180877
833.582	0.0180186
833.660	0.0179006
833.738	0.0179237
833.817	0.0180029
833.895	0.0181204
833.973	0.0179100
834.051	0.0179948
834.129	0.0179980
834.207	0.0180128
834.285	0.0180045
834.363	0.0181517
834.442	0.0180214
834.520	0.0181210
834.598	0.0181327
834.676	0.0180512
834.754	0.0180795
834.832	0.0180950
834.910	0.0180404
834.988	0.0180779
835.067	0.0181443
835.145	0.0182812
835.223	0.0181934
835.301	0.0180637
835.379	0.0181673
835.457	0.0181126
835.535	0.0181934
835.613	0.0182386
835.692	0.0182166
835.770	0.0181200
835.848	0.0181512
835.926	0.0180767
836.004	0.0181203
836.082	0.0181258
836.160	0.0181208
836.238	0.0181836
836.317	0.0183159
836.395	0.0181075
836.473	0.0181809
836.551	0.0181184
836.629	0.0182085
836.707	0.0182313
836.785	0.0181104
836.863	0.0181628
836.942	0.0181274
837.020	0.0179887
837.098	0.0181116
837.176	0.0180657
837.254	0.0182506
837.332	0.0181413
837.410	0.0181386
837.488	0.0181206
837.567	0.0181745
837.645	0.0181937
837.723	0.0182558
837.801	0.0183096
837.879	0.0182442
837.957	0.0183152
838.035	0.0182013
838.113	0.0183109
838.192	0.0182053
838.270	0.0182349
838.348	0.0182494
838.426	0.0181512
838.504	0.0182024
838.582	0.0183060
838.660	0.0182044
838.738	0.0182615
838.817	0.0181898
838.895	0.0181596
838.973	0.0181046
839.051	0.0180278
839.129	0.0181464
839.207	0.0181674
839.285	0.0182210
839.363	0.0181838
839.442	0.0180180
839.520	0.0180440
839.598	0.0181937
839.676	0.0181435
839.754	0.0181328
839.832	0.0180185
839.910	0.0181317
839.988	0.0181827
840.067	0.0181295
840.145	0.0180474
840.223	0.0180337
840.301	0.0182485
840.379	0.0180487
840.457	0.0180962
840.535	0.0181564
840.613	0.0182427
840.692	0.0182483
840.770	0.0182067
840.848	0.0181969
840.926	0.0181120
841.004	0.0181165
841.082	0.0181156
841.160	0.0181605
841.238	0.0183707
841.317	0.0181066
841.395	0.0180897
841.473	0.0180888
841.551	0.0180838
841.629	0.0181482
841.707	0.0181879
841.785	0.0180080
841.863	0.0181062
841.942	0.0181877
842.020	0.0180936
842.098	0.0180311
842.176	0.0181677
842.254	0.0182349
842.332	0.0181305
842.410	0.0182559
842.488	0.0183258
842.567	0.0182806
842.645	0.0182194
842.723	0.0182349
842.801	0.0184093
842.879	0.0183061
842.957	0.0182764
843.035	0.0183537
843.113	0.0182487
843.192	0.0184105
843.270	0.0183224
843.348	0.0182638
843.426	0.0182941
843.504	0.0183469
843.582	0.0182378
843.660	0.0182038
843.738	0.0182903
843.817	0.0180964
843.895	0.0181352
843.973	0.0182117
844.051	0.0181090
844.129	0.0182807
844.207	0.0182190
844.285	0.0180158
844.363	0.0180374
844.442	0.0180640
844.520	0.0180317
844.598	0.0180344
844.676	0.0181014
844.754	0.0182069
844.832	0.0181582
844.910	0.0178558
844.988	0.0179552
845.067	0.0179018
845.145	0.0180152
845.223	0.0180305
845.301	0.0180592
845.379	0.0179799
845.457	0.0179350
845.535	0.0179860
845.613	0.0179652
845.692	0.0179675
845.770	0.0180379
845.848	0.0180091
845.926	0.0181004
846.004	0.0180559
846.082	0.0181474
846.160	0.0179866
846.238	0.0180509
846.317	0.0180432
846.395	0.0181470
846.473	0.0182339
846.551	0.0182359
846.629	0.0182444
846.707	0.0181046
846.785	0.0182151
846.863	0.0180605
846.942	0.0182839
847.020	0.0181577
847.098	0.0181649
847.176	0.0181031
847.254	0.0182420
847.332	0.0182613
847.410	0.0181368
847.488	0.0182447
847.567	0.0182245
847.645	0.0182325
847.723	0.0181973
847.801	0.0180824
847.879	0.0180887
847.957	0.0180701
848.035	0.0180373
848.113	0.0181171
848.192	0.0180337
848.270	0.0179561
848.348	0.0181001
848.426	0.0181150
848.504	0.0179734
848.582	0.0180877
848.660	0.0180796
848.738	0.0180775
848.817	0.0180210
848.895	0.0179815
848.973	0.0181882
849.051	0.0180519
849.129	0.0180772
849.207	0.0180175
849.285	0.0181125
849.363	0.0180948
849.442	0.0182259
849.520	0.0182475
849.598	0.0181537
849.676	0.0182309
849.754	0.0182582
849.832	0.0181794
849.910	0.0181104
849.988	0.0182453
850.067	0.0182714
850.145	0.0182269
850.223	0.0182170
850.301	0.0182038
850.379	0.0181982
850.457	0.0183517
850.535	0.0183527
850.613	0.0184409
850.692	0.0183037
850.770	0.0181416
850.848	0.0182677
850.926	0.0183652
851.004	0.0183383
851.082	0.0183498
851.160	0.0182946
851.238	0.0183848
851.317	0.0183594
851.395	0.0183852
851.473	0.0182181
851.551	0.0183102
851.629	0.0182788
851.707	0.0182821
851.785	0.0182417
851.863	0.0181799
851.942	0.0183518
852.020	0.0181155
852.098	0.0183620
852.176	0.0184566
852.254	0.0181704
852.332	0.0182235
852.410	0.0183037
852.488	0.0183533
852.567	0.0181792
852.645	0.0182108
852.723	0.0182971
852.801	0.0183070
852.879	0.0182287
852.957	0.0182980
853.035	0.0181986
853.113	0.0183684
853.192	0.0182854
853.270	0.0182105
853.348	0.0181595
853.426	0.0181900
853.504	0.0181931
853.582	0.0182021
853.660	0.0181016
853.738	0.0181001
853.817	0.0181658
853.895	0.0180746
853.973	0.0181770
854.051	0.0180517
854.129	0.0179836
854.207	0.0180048
854.285	0.0180247
854.363	0.0180520
854.442	0.0180285
854.520	0.0178981
854.598	0.0178635
854.676	0.0178664
854.754	0.0179025
854.832	0.0178859
854.910	0.0178883
854.988	0.0177170
855.067	0.0178732
855.145	0.0178181
855.223	0.0179529
855.301	0.0177169
855.379	0.0177972
855.457	0.0178158
855.535	0.0178571
855.613	0.0178365
855.692	0.0177270
855.770	0.0178404
855.848	0.0179140
855.926	0.0177933
856.004	0.0178217
856.082	0.0178172
856.160	0.0177573
856.238	0.0179712
856.317	0.0179372
856.395	0.0179276
856.473	0.0179721
856.551	0.0180735
856.629	0.0178777
856.707	0.0179661
856.785	0.0181113
856.863	0.0179342
856.942	0.0180648
857.020	0.0180946
857.098	0.0180758
857.176	0.0179747
857.254	0.0181554
857.332	0.0182271
857.410	0.0180648
857.488	0.0181756
857.567	0.0181773
857.645	0.0180459
857.723	0.0181220
857.801	0.0181516
857.879	0.0183148
857.957	0.0182010
858.035	0.0182225
858.113	0.0184016
858.192	0.0183981
858.270	0.0183096
858.348	0.0183608
858.426	0.0183011
858.504	0.0183089
858.582	0.0185600
858.660	0.0183542
858.738	0.0183266
858.817	0.0183576
858.895	0.0184025
858.973	0.0183686
859.051	0.0184611
859.129	0.0183344
859.207	0.0182535
859.285	0.0182839
859.363	0.0182827
859.442	0.0182523
859.520	0.0183226
859.598	0.0181311
859.676	0.0182476
859.754	0.0182948
859.832	0.0182252
859.910	0.0182869
859.988	0.0183810
860.067	0.0182871
860.145	0.0180385
860.223	0.0181563
860.301	0.0182538
860.379	0.0181856
860.457	0.0182368
860.535	0.0182343
860.613	0.0182446
860.692	0.0180857
860.770	0.0181333
860.848	0.0181197
860.926	0.0182993
861.004	0.0180673
861.082	0.0181050
861.160	0.0181307
861.238	0.0179677
861.317	0.0181646
861.395	0.0180956
861.473	0.0181242
861.551	0.0180119
861.629	0.0182299
861.707	0.0182664
861.785	0.0180585
861.863	0.0179485
861.942	0.0181811
862.020	0.0181152
862.098	0.0181753
862.176	0.0181080
862.254	0.0181675
862.332	0.0183194
862.410	0.0182286
862.488	0.0181906
862.567	0.0181200
862.645	0.0182475
862.723	0.0184452
862.801	0.0182352
862.879	0.0182960
862.957	0.0182323
863.035	0.0182873
863.113	0.0182202
863.192	0.0182797
863.270	0.0182134
863.348	0.0181532
863.426	0.0181168
863.504	0.0180793
863.582	0.0181442
863.660	0.0180900
863.738	0.0180450
863.817	0.0179991
863.895	0.0180793
863.973	0.0180380
864.051	0.0180724
864.129	0.0179119
864.207	0.0179390
864.285	0.0179825
864.363	0.0180080
864.442	0.0179771
864.520	0.0181868
864.598	0.0179558
864.676	0.0180070
864.754	0.0179232
864.832	0.0181371
864.910	0.0181353
864.988	0.0179727
865.067	0.0180576
865.145	0.0179521
865.223	0.0181623
865.301	0.0181361
865.379	0.0179845
865.457	0.0180360
865.535	0.0182182
865.613	0.0181415
865.692	0.0180444
865.770	0.0181715
865.848	0.0181134
865.926	0.0181121
866.004	0.0182127
866.082	0.0178485
866.160	0.0180865
866.238	0.0182002
866.317	0.0181727
866.395	0.0180295
866.473	0.0181634
866.551	0.0180637
866.629	0.0180744
866.707	0.0180611
866.785	0.0179864
866.863	0.0180415
866.942	0.0180581
867.020	0.0180966
867.098	0.0180931
867.176	0.0180991
867.254	0.0181379
867.332	0.0181337
867.410	0.0180111
867.488	0.0180724
867.567	0.0179424
867.645	0.0180862
867.723	0.0180380
867.801	0.0181438
867.879	0.0180238
867.957	0.0180594
868.035	0.0180151
868.113	0.0179556
868.192	0.0179601
868.270	0.0180232
868.348	0.0180390
868.426	0.0179877
868.504	0.0179596
868.582	0.0179845
868.660	0.0178961
868.738	0.0180885
868.817	0.0179936
868.895	0.0178978
868.973	0.0179849
869.051	0.0178756
869.129	0.0180105
869.207	0.0180556
869.285	0.0180160
869.363	0.0180317
869.442	0.0181421
869.520	0.0180081
869.598	0.0180700
869.676	0.0179242
869.754	0.0181395
869.832	0.0182027
869.910	0.0180837
869.988	0.0181070
870.067	0.0181259
870.145	0.0181107
870.223	0.0181010
870.301	0.0180119
870.379	0.0181310
870.457	0.0181625
870.535	0.0181046
870.613	0.0181257
870.692	0.0180907
870.770	0.0180284
870.848	0.0181313
870.926	0.0182092
871.004	0.0181249
871.082	0.0182338
871.160	0.0181428
871.238	0.0179279
871.317	0.0181553
871.395	0.0180311
871.473	0.0181265
871.551	0.0181715
871.629	0.0181974
871.707	0.0181104
871.785	0.0181556
871.863	0.0182616
871.942	0.0180278
872.020	0.0182011
872.098	0.0180757
872.176	0.0180772
872.254	0.0179475
872.332	0.0180885
872.410	0.0179752
872.488	0.0180885
872.567	0.0180482
872.645	0.0179870
872.723	0.0180726
872.801	0.0180343
872.879	0.0180196
872.957	0.0180887
873.035	0.0182578
873.113	0.0182306
873.192	0.0180930
873.270	0.0181610
873.348	0.0183233
873.426	0.0181741
873.504	0.0181292
873.582	0.0183876
873.660	0.0182199
873.738	0.0182153
873.817	0.0183379
873.895	0.0185065
873.973	0.0183246
874.051	0.0183249
874.129	0.0183407
874.207	0.0183681
874.285	0.0182964
874.363	0.0180856
874.442	0.0184035
874.520	0.0184125
874.598	0.0182790
874.676	0.0182050
874.754	0.0181962
874.832	0.0183586
874.910	0.0183475
874.988	0.0183011
875.067	0.0181610
875.145	0.0182310
875.223	0.0184113
875.301	0.0181956
875.379	0.0184494
875.457	0.0182043
875.535	0.0182408
875.613	0.0181898
875.692	0.0182834
875.770	0.0182388
875.848	0.0182384
875.926	0.0182503
876.004	0.0181853
876.082	0.0181976
876.160	0.0182314
876.238	0.0182600
876.317	0.0181154
876.395	0.0181296
876.473	0.0182170
876.551	0.0182077
876.629	0.0181081
876.707	0.0182647
876.785	0.0180959
876.863	0.0182031
876.942	0.0181867
877.020	0.0182106
877.098	0.0182906
877.176	0.0181363
877.254	0.0180441
877.332	0.0180767
877.410	0.0182101
877.488	0.0182050
877.567	0.0182332
877.645	0.0181667
877.723	0.0181516
877.801	0.0181179
877.879	0.0181682
877.957	0.0183072
878.035	0.0182850
878.113	0.0182505
878.192	0.0182231
878.270	0.0180933
878.348	0.0182151
878.426	0.0181887
878.504	0.0180614
878.582	0.0180912
878.660	0.0182449
878.738	0.0181271
878.817	0.0180698
878.895	0.0180180
878.973	0.0181657
879.051	0.0182545
879.129	0.0180553
879.207	0.0181666
879.285	0.0181399
879.363	0.0180721
879.442	0.0180937
879.520	0.0181412
879.598	0.0182057
879.676	0.0181126
879.754	0.0180969
879.832	0.0181121
879.910	0.0181047
879.988	0.0180521
880.067	0.0180347
880.145	0.0179902
880.223	0.0180568
880.301	0.0179466
880.379	0.0180547
880.457	0.0181255
880.535	0.0179578
880.613	0.0180142
880.692	0.0181699
880.770	0.0181548
880.848	0.0181941
880.926	0.0181021
881.004	0.0182664
881.082	0.0181732
881.160	0.0180242
881.238	0.0180438
881.317	0.0180747
881.395	0.0179417
881.473	0.0180322
881.551	0.0181776
881.629	0.0181275
881.707	0.0181657
881.785	0.0181212
881.863	0.0182450
881.942	0.0183328
882.020	0.0182209
882.098	0.0181652
882.176	0.0183365
882.254	0.0182609
882.332	0.0182980
882.410	0.0182609
882.488	0.0183687
882.567	0.0182967
882.645	0.0181759
882.723	0.0182205
882.801	0.0183449
882.879	0.0183003
882.957	0.0183295
883.035	0.0181316
883.113	0.0184222
883.192	0.0183114
883.270	0.0182618
883.348	0.0182230
883.426	0.0181715
883.504	0.0182770
883.582	0.0182279
883.660	0.0182269
883.738	0.0183096
883.817	0.0180521
883.895	0.0181444
883.973	0.0181005
884.051	0.0180776
884.129	0.0181737
884.207	0.0180797
884.285	0.0181213
884.363	0.0183356
884.442	0.0180818
884.520	0.0181396
884.598	0.0181602
884.676	0.0181715
884.754	0.0181073
884.832	0.0180795
884.910	0.0183381
884.988	0.0179829
885.067	0.0180295
885.145	0.0181636
885.223	0.0182517
885.301	0.0181084
885.379	0.0180834
885.457	0.0180367
885.535	0.0182483
885.613	0.0180721
885.692	0.0180343
885.770	0.0181708
885.848	0.0181541
885.926	0.0181469
886.004	0.0181664
886.082	0.0181171
886.160	0.0181054
886.238	0.0181726
886.317	0.0181033
886.395	0.0180950
886.473	0.0181533
886.551	0.0181200
886.629	0.0181274
886.707	0.0180792
886.785	0.0180924
886.863	0.0181102
886.942	0.0180881
887.020	0.0181207
887.098	0.0180615
887.176	0.0180012
887.254	0.0181554
887.332	0.0180085
887.410	0.0180436
887.488	0.0181165
887.567	0.0180190
887.645	0.0180916
887.723	0.0180096
887.801	0.0179340
887.879	0.0179819
887.957	0.0181355
888.035	0.0181068
888.113	0.0181532
888.192	0.0180170
888.270	0.0181343
888.348	0.0181217
888.426	0.0181251
888.504	0.0181917
888.582	0.0182772
888.660	0.0180809
888.738	0.0181020
888.817	0.0180796
888.895	0.0180981
888.973	0.0180939
889.051	0.0179950
889.129	0.0181781
889.207	0.0180874
889.285	0.0179665
889.363	0.0179882
889.442	0.0182207
889.520	0.0180595
889.598	0.0182233
889.676	0.0182169
889.754	0.0182430
889.832	0.0181345
889.910	0.0180777
889.988	0.0181559
890.067	0.0181629
890.145	0.0181767
890.223	0.0180885
890.301	0.0180906
890.379	0.0182703
890.457	0.0181657
890.535	0.0181400
890.613	0.0181822
890.692	0.0180996
890.770	0.0181586
890.848	0.0181812
890.926	0.0181247
891.004	0.0181911
891.082	0.0182009
891.160	0.0180418
891.238	0.0181898
891.317	0.0181757
891.395	0.0182564
891.473	0.0181267
891.551	0.0180895
891.629	0.0180350
891.707	0.0180950
891.785	0.0181281
891.863	0.0181856
891.942	0.0182065
892.020	0.0181405
892.098	0.0181374
892.176	0.0181023
892.254	0.0182207
892.332	0.0180550
892.410	0.0180902
892.488	0.0180704
892.567	0.0181362
892.645	0.0181176
892.723	0.0180890
892.801	0.0179798
892.879	0.0182602
892.957	0.0182103
893.035	0.0180037
893.113	0.0181420
893.192	0.0182109
893.270	0.0180817
893.348	0.0181451
893.426	0.0180634
893.504	0.0180421
893.582	0.0179669
893.660	0.0179766
893.738	0.0179838
893.817	0.0180293
893.895	0.0179797
893.973	0.0179347
894.051	0.0180617
894.129	0.0181428
894.207	0.0180716
894.285	0.0180689
894.363	0.0180039
894.442	0.0181014
894.520	0.0180886
894.598	0.0181639
894.676	0.0181829
894.754	0.0182661
894.832	0.0182072
894.910	0.0181592
894.988	0.0181962
895.067	0.0182104
895.145	0.0182755
895.223	0.0182324
895.301	0.0181666
895.379	0.0180913
895.457	0.0181274
895.535	0.0183634
895.613	0.0181599
895.692	0.0180820
895.770	0.0182069
895.848	0.0180827
895.926	0.0181731
896.004	0.0182102
896.082	0.0181155
896.160	0.0181723
896.238	0.0181685
896.317	0.0181363
896.395	0.0181350
896.473	0.0180570
896.551	0.0182368
896.629	0.0180885
896.707	0.0182198
896.785	0.0181900
896.863	0.0181654
896.942	0.0181146
897.020	0.0180181
897.098	0.0182004
897.176	0.0182458
897.254	0.0181732
897.332	0.0181435
897.410	0.0180665
897.488	0.0181714
897.567	0.0181000
897.645	0.0179077
897.723	0.0181895
897.801	0.0180878
897.879	0.0180269
897.957	0.0179794
898.035	0.0179219
898.113	0.0181203
898.192	0.0178720
898.270	0.0179700
898.348	0.0178809
898.426	0.0178249
898.504	0.0179711
898.582	0.0179980
898.660	0.0181197
898.738	0.0182029
898.817	0.0179042
898.895	0.0180703
898.973	0.0180639
899.051	0.0181194
899.129	0.0180059
899.207	0.0180824
899.285	0.0180891
899.363	0.0181046
899.442	0.0180988
899.520	0.0180859
899.598	0.0182526
899.676	0.0180112
899.754	0.0180265
899.832	0.0182554
899.910	0.0180764
899.988	0.0180117
900.067	0.0181390
900.145	0.0180725
900.223	0.0179454
900.301	0.0180262
900.379	0.0180492
900.457	0.0181580
900.535	0.0181311
900.613	0.0179771
900.692	0.0180875
900.770	0.0180612
900.848	0.0180692
900.926	0.0180907
901.004	0.0180566
901.082	0.0179957
901.160	0.0179327
901.238	0.0179891
901.317	0.0181194
901.395	0.0179182
901.473	0.0181225
901.551	0.0180225
901.629	0.0179175
901.707	0.0180514
901.785	0.0179431
901.863	0.0180795
901.942	0.0180772
902.020	0.0180566
902.098	0.0179554
902.176	0.0179756
902.254	0.0180260
902.332	0.0180469
902.410	0.0180814
902.488	0.0179179
902.567	0.0179591
902.645	0.0180721
902.723	0.0179794
902.801	0.0180476
902.879	0.0180915
902.957	0.0181339
903.035	0.0182659
903.113	0.0181895
903.192	0.0180693
903.270	0.0181515
903.348	0.0182664
903.426	0.0180524
903.504	0.0181900
903.582	0.0181783
903.660	0.0180540
903.738	0.0181536
903.817	0.0181225
903.895	0.0181974
903.973	0.0182687
904.051	0.0181721
904.129	0.0182200
904.207	0.0180317
904.285	0.0181195
904.363	0.0183170
904.442	0.0180269
904.520	0.0181601
904.598	0.0182999
904.676	0.0181928
904.754	0.0181082
904.832	0.0182615
904.910	0.0182452
904.988	0.0181656
905.067	0.0181380
905.145	0.0180499
905.223	0.0182822
905.301	0.0181817
905.379	0.0181934
905.457	0.0182892
905.535	0.0183048
905.613	0.0181592
905.692	0.0181612
905.770	0.0182048
905.848	0.0181599
905.926	0.0182590
906.004	0.0183071
906.082	0.0182711
906.160	0.0181966
906.238	0.0181961
906.317	0.0182822
906.395	0.0182258
906.473	0.0182284
906.551	0.0180921
906.629	0.0181714
906.707	0.0182375
906.785	0.0180894
906.863	0.0181680
906.942	0.0181362
907.020	0.0182464
907.098	0.0180374
907.176	0.0181216
907.254	0.0181664
907.332	0.0180736
907.410	0.0179980
907.488	0.0180231
907.567	0.0180611
907.645	0.0178749
907.723	0.0179212
907.801	0.0180360
907.879	0.0180180
907.957	0.0179123
908.035	0.0178900
908.113	0.0179479
908.192	0.0180059
908.270	0.0178800
908.348	0.0179220
908.426	0.0179269
908.504	0.0178385
908.582	0.0178907
908.660	0.0179140
908.738	0.0178275
908.817	0.0178269
908.895	0.0179076
908.973	0.0179077
909.051	0.0178825
909.129	0.0178207
909.207	0.0180841
909.285	0.0180570
909.363	0.0179068
909.442	0.0180075
909.520	0.0179307
909.598	0.0178561
909.676	0.0180572
909.754	0.0180081
909.832	0.0179576
909.910	0.0179945
909.988	0.0180965
910.067	0.0180195
910.145	0.0180778
910.223	0.0180618
910.301	0.0181065
910.379	0.0181395
910.457	0.0181380
910.535	0.0180849
910.613	0.0182123
910.692	0.0180497
910.770	0.0180820
910.848	0.0180656
910.926	0.0182104
911.004	0.0181815
911.082	0.0182112
911.160	0.0182109
911.238	0.0181327
911.317	0.0180735
911.395	0.0181674
911.473	0.0182005
911.551	0.0182742
911.629	0.0182771
911.707	0.0183115
911.785	0.0182264
911.863	0.0183019
911.942	0.0182950
912.020	0.0182904
912.098	0.0182761
912.176	0.0182868
912.254	0.0183336
912.332	0.0183676
912.410	0.0181856
912.488	0.0182538
912.567	0.0182291
912.645	0.0183724
912.723	0.0183514
912.801	0.0180766
912.879	0.0181885
912.957	0.0181615
913.035	0.0182896
913.113	0.0182796
913.192	0.0182439
913.270	0.0182495
913.348	0.0181998
913.426	0.0182541
913.504	0.0182092
913.582	0.0181787
913.660	0.0182307
913.738	0.0181907
913.817	0.0182053
913.895	0.0182076
913.973	0.0182896
914.051	0.0181980
914.129	0.0182133
914.207	0.0181561
914.285	0.0181702
914.363	0.0182298
914.442	0.0180888
914.520	0.0182001
914.598	0.0182076
914.676	0.0181102
914.754	0.0179449
914.832	0.0180117
914.910	0.0181856
914.988	0.0181377
915.067	0.0179140
915.145	0.0180699
915.223	0.0181802
915.301	0.0182038
915.379	0.0181107
915.457	0.0181300
915.535	0.0182587
915.613	0.0180933
915.692	0.0182789
915.770	0.0181631
915.848	0.0182045
915.926	0.0181654
916.004	0.0181411
916.082	0.0181823
916.160	0.0181319
916.238	0.0182049
916.317	0.0181132
916.395	0.0181850
916.473	0.0181369
916.551	0.0182018
916.629	0.0182811
916.707	0.0183070
916.785	0.0181638
916.863	0.0180528
916.942	0.0181664
917.020	0.0181345
917.098	0.0181341
917.176	0.0182589
917.254	0.0182073
917.332	0.0181596
917.410	0.0180981
917.488	0.0182632
917.567	0.0180843
917.645	0.0181123
917.723	0.0180193
917.801	0.0181450
917.879	0.0178946
917.957	0.0181664
918.035	0.0181525
918.113	0.0180746
918.192	0.0180740
918.270	0.0182423
918.348	0.0182111
918.426	0.0181789
918.504	0.0182638
918.582	0.0180373
918.660	0.0181162
918.738	0.0181629
918.817	0.0180917
918.895	0.0180887
918.973	0.0181372
919.051	0.0180074
919.129	0.0182261
919.207	0.0181328
919.285	0.0182175
919.363	0.0180481
919.442	0.0181612
919.520	0.0180913
919.598	0.0179575
919.676	0.0180569
919.754	0.0180340
919.832	0.0179925
919.910	0.0180367
