06/01/2022	22:12:24	Ver.	4.1	UNKNOWN
Optical Delay	599.988409	Delta X		0.078125	Sweeps	1	Scan Rate	0/0
Coordinates	Axis 1	NaN	Axis 2	NaN	Axis 3	NaN	Axis 4	NaN	Axis 5	NaN	Axis 6	0.000000
TX Power	0.000000	RX Power	0.000000

599.988	0.0176461
600.067	0.0175956
600.145	0.0177012
600.223	0.0176328
600.301	0.0176913
600.379	0.0176186
600.457	0.0177419
600.535	0.0176273
600.613	0.0176656
600.692	0.0176632
600.770	0.0176646
600.848	0.0175836
600.926	0.0178703
601.004	0.0177393
601.082	0.0175598
601.160	0.0177527
601.238	0.0176201
601.317	0.0176460
601.395	0.0176653
601.473	0.0176699
601.551	0.0175928
601.629	0.0176873
601.707	0.0176646
601.785	0.0175533
601.863	0.0177532
601.942	0.0177353
602.020	0.0176551
602.098	0.0176273
602.176	0.0176934
602.254	0.0176898
602.332	0.0177158
602.410	0.0176815
602.488	0.0177458
602.567	0.0176453
602.645	0.0176580
602.723	0.0175977
602.801	0.0175351
602.879	0.0176226
602.957	0.0175845
603.035	0.0176269
603.113	0.0175071
603.192	0.0176384
603.270	0.0175291
603.348	0.0175816
603.426	0.0176135
603.504	0.0174493
603.582	0.0174870
603.660	0.0174470
603.738	0.0174456
603.817	0.0174760
603.895	0.0174961
603.973	0.0175312
604.051	0.0173690
604.129	0.0173640
604.207	0.0173084
604.285	0.0173710
604.363	0.0173838
604.442	0.0174284
604.520	0.0174381
604.598	0.0172662
604.676	0.0174845
604.754	0.0174839
604.832	0.0173309
604.910	0.0172135
604.988	0.0172734
605.067	0.0174140
605.145	0.0174346
605.223	0.0173616
605.301	0.0173692
605.379	0.0173813
605.457	0.0173228
605.535	0.0173487
605.613	0.0172766
605.692	0.0174612
605.770	0.0174099
605.848	0.0173963
605.926	0.0174847
606.004	0.0174544
606.082	0.0172747
606.160	0.0173408
606.238	0.0173417
606.317	0.0173648
606.395	0.0172832
606.473	0.0173416
606.551	0.0174196
606.629	0.0173001
606.707	0.0175111
606.785	0.0173840
606.863	0.0173055
606.942	0.0173895
607.020	0.0174946
607.098	0.0174512
607.176	0.0174957
607.254	0.0174970
607.332	0.0174408
607.410	0.0174215
607.488	0.0175270
607.567	0.0173890
607.645	0.0175391
607.723	0.0175330
607.801	0.0175325
607.879	0.0173690
607.957	0.0174175
608.035	0.0175342
608.113	0.0174834
608.192	0.0174924
608.270	0.0176038
608.348	0.0174805
608.426	0.0175134
608.504	0.0175340
608.582	0.0175312
608.660	0.0175075
608.738	0.0176260
608.817	0.0175296
608.895	0.0175883
608.973	0.0176378
609.051	0.0176030
609.129	0.0178117
609.207	0.0176691
609.285	0.0175923
609.363	0.0176122
609.442	0.0177676
609.520	0.0177287
609.598	0.0176560
609.676	0.0176673
609.754	0.0177525
609.832	0.0175925
609.910	0.0176480
609.988	0.0177033
610.067	0.0178525
610.145	0.0177032
610.223	0.0175658
610.301	0.0177781
610.379	0.0178841
610.457	0.0177683
610.535	0.0176659
610.613	0.0177965
610.692	0.0177075
610.770	0.0177492
610.848	0.0178647
610.926	0.0176310
611.004	0.0177380
611.082	0.0176917
611.160	0.0177074
611.238	0.0177223
611.317	0.0176553
611.395	0.0177943
611.473	0.0177825
611.551	0.0177076
611.629	0.0179340
611.707	0.0178122
611.785	0.0177750
611.863	0.0177211
611.942	0.0177060
612.020	0.0177195
612.098	0.0177648
612.176	0.0176679
612.254	0.0177740
612.332	0.0177753
612.410	0.0178473
612.488	0.0177705
612.567	0.0177831
612.645	0.0178099
612.723	0.0177841
612.801	0.0176484
612.879	0.0177695
612.957	0.0176860
613.035	0.0179217
613.113	0.0177161
613.192	0.0175771
613.270	0.0176491
613.348	0.0177824
613.426	0.0177895
613.504	0.0176360
613.582	0.0177083
613.660	0.0177271
613.738	0.0175311
613.817	0.0176746
613.895	0.0177081
613.973	0.0177713
614.051	0.0176701
614.129	0.0176672
614.207	0.0177518
614.285	0.0177792
614.363	0.0176871
614.442	0.0176316
614.520	0.0175673
614.598	0.0177505
614.676	0.0177182
614.754	0.0175379
614.832	0.0176346
614.910	0.0177650
614.988	0.0176106
615.067	0.0177932
615.145	0.0175803
615.223	0.0176891
615.301	0.0178302
615.379	0.0177215
615.457	0.0176130
615.535	0.0176142
615.613	0.0176312
615.692	0.0176671
615.770	0.0175519
615.848	0.0177418
615.926	0.0176518
616.004	0.0176962
616.082	0.0176508
616.160	0.0177595
616.238	0.0176599
616.317	0.0175675
616.395	0.0175940
616.473	0.0177549
616.551	0.0177464
616.629	0.0177650
616.707	0.0177803
616.785	0.0177894
616.863	0.0177188
616.942	0.0175148
617.020	0.0175607
617.098	0.0176749
617.176	0.0176867
617.254	0.0176052
617.332	0.0176795
617.410	0.0176598
617.488	0.0176774
617.567	0.0176488
617.645	0.0176655
617.723	0.0176669
617.801	0.0175277
617.879	0.0176641
617.957	0.0176088
618.035	0.0175053
618.113	0.0175181
618.192	0.0176407
618.270	0.0176398
618.348	0.0177990
618.426	0.0176943
618.504	0.0176306
618.582	0.0176213
618.660	0.0178101
618.738	0.0177454
618.817	0.0176280
618.895	0.0176913
618.973	0.0176259
619.051	0.0177934
619.129	0.0177168
619.207	0.0176234
619.285	0.0176683
619.363	0.0177001
619.442	0.0176918
619.520	0.0177612
619.598	0.0176633
619.676	0.0176346
619.754	0.0177753
619.832	0.0177850
619.910	0.0174726
619.988	0.0176051
620.067	0.0176849
620.145	0.0176474
620.223	0.0176884
620.301	0.0176874
620.379	0.0175893
620.457	0.0177289
620.535	0.0175212
620.613	0.0175820
620.692	0.0175952
620.770	0.0177055
620.848	0.0175794
620.926	0.0174377
621.004	0.0176239
621.082	0.0176331
621.160	0.0175317
621.238	0.0175601
621.317	0.0175257
621.395	0.0176203
621.473	0.0176657
621.551	0.0174509
621.629	0.0175050
621.707	0.0174010
621.785	0.0175683
621.863	0.0178027
621.942	0.0175075
622.020	0.0175327
622.098	0.0177307
622.176	0.0176057
622.254	0.0176640
622.332	0.0175240
622.410	0.0176978
622.488	0.0175529
622.567	0.0176472
622.645	0.0175768
622.723	0.0176976
622.801	0.0177457
622.879	0.0176163
622.957	0.0175420
623.035	0.0177133
623.113	0.0177460
623.192	0.0177361
623.270	0.0176630
623.348	0.0176114
623.426	0.0176642
623.504	0.0177668
623.582	0.0177061
623.660	0.0176642
623.738	0.0177956
623.817	0.0176806
623.895	0.0178025
623.973	0.0177075
624.051	0.0177750
624.129	0.0177436
624.207	0.0177352
624.285	0.0176797
624.363	0.0176746
624.442	0.0177961
624.520	0.0178923
624.598	0.0178072
624.676	0.0175934
624.754	0.0177283
624.832	0.0177953
624.910	0.0175948
624.988	0.0176746
625.067	0.0177328
625.145	0.0176888
625.223	0.0175549
625.301	0.0176320
625.379	0.0176241
625.457	0.0175510
625.535	0.0176246
625.613	0.0177023
625.692	0.0175995
625.770	0.0175471
625.848	0.0176852
625.926	0.0176435
626.004	0.0175970
626.082	0.0176427
626.160	0.0174384
626.238	0.0176173
626.317	0.0175307
626.395	0.0175892
626.473	0.0174285
626.551	0.0174722
626.629	0.0175562
626.707	0.0174873
626.785	0.0174249
626.863	0.0174348
626.942	0.0173829
627.020	0.0173851
627.098	0.0173714
627.176	0.0174557
627.254	0.0175516
627.332	0.0174311
627.410	0.0175941
627.488	0.0175196
627.567	0.0175982
627.645	0.0173753
627.723	0.0174663
627.801	0.0174062
627.879	0.0174689
627.957	0.0174632
628.035	0.0173656
628.113	0.0174246
628.192	0.0173360
628.270	0.0173238
628.348	0.0173944
628.426	0.0174682
628.504	0.0174202
628.582	0.0174568
628.660	0.0174037
628.738	0.0173696
628.817	0.0175297
628.895	0.0176106
628.973	0.0173497
629.051	0.0173930
629.129	0.0173692
629.207	0.0174191
629.285	0.0174196
629.363	0.0174608
629.442	0.0174388
629.520	0.0174326
629.598	0.0175133
629.676	0.0176007
629.754	0.0174830
629.832	0.0175052
629.910	0.0174693
629.988	0.0174311
630.067	0.0174435
630.145	0.0176413
630.223	0.0175052
630.301	0.0173898
630.379	0.0175790
630.457	0.0175626
630.535	0.0174843
630.613	0.0174279
630.692	0.0175940
630.770	0.0174397
630.848	0.0175923
630.926	0.0174522
631.004	0.0174710
631.082	0.0175245
631.160	0.0176434
631.238	0.0175820
631.317	0.0177483
631.395	0.0175365
631.473	0.0175559
631.551	0.0175523
631.629	0.0175510
631.707	0.0176433
631.785	0.0176361
631.863	0.0176382
631.942	0.0176254
632.020	0.0176755
632.098	0.0175830
632.176	0.0177139
632.254	0.0177522
632.332	0.0176022
632.410	0.0176320
632.488	0.0177604
632.567	0.0176900
632.645	0.0177406
632.723	0.0177566
632.801	0.0176382
632.879	0.0177110
632.957	0.0177300
633.035	0.0177701
633.113	0.0178281
633.192	0.0177497
633.270	0.0177295
633.348	0.0175935
633.426	0.0177699
633.504	0.0178439
633.582	0.0177927
633.660	0.0176692
633.738	0.0177958
633.817	0.0178556
633.895	0.0177802
633.973	0.0176649
634.051	0.0176592
634.129	0.0178166
634.207	0.0177706
634.285	0.0177307
634.363	0.0178139
634.442	0.0177095
634.520	0.0176950
634.598	0.0178465
634.676	0.0177988
634.754	0.0176688
634.832	0.0177231
634.910	0.0176721
634.988	0.0176131
635.067	0.0178493
635.145	0.0177885
635.223	0.0176321
635.301	0.0177638
635.379	0.0177299
635.457	0.0175975
635.535	0.0176187
635.613	0.0175123
635.692	0.0176521
635.770	0.0175867
635.848	0.0176199
635.926	0.0175002
636.004	0.0175862
636.082	0.0174657
636.160	0.0173689
636.238	0.0174313
636.317	0.0175890
636.395	0.0176784
636.473	0.0177773
636.551	0.0176981
636.629	0.0177003
636.707	0.0176468
636.785	0.0174734
636.863	0.0175971
636.942	0.0176518
637.020	0.0175120
637.098	0.0175982
637.176	0.0175299
637.254	0.0176181
637.332	0.0175246
637.410	0.0175423
637.488	0.0176324
637.567	0.0175490
637.645	0.0176968
637.723	0.0173707
637.801	0.0174758
637.879	0.0177101
637.957	0.0176916
638.035	0.0174870
638.113	0.0175110
638.192	0.0175288
638.270	0.0174966
638.348	0.0174623
638.426	0.0174008
638.504	0.0175090
638.582	0.0175643
638.660	0.0173450
638.738	0.0174641
638.817	0.0176078
638.895	0.0174344
638.973	0.0175574
639.051	0.0175285
639.129	0.0175367
639.207	0.0175867
639.285	0.0174453
639.363	0.0174773
639.442	0.0176620
639.520	0.0176654
639.598	0.0176656
639.676	0.0175571
639.754	0.0175607
639.832	0.0175858
639.910	0.0175846
639.988	0.0177101
640.067	0.0176255
640.145	0.0175181
640.223	0.0175645
640.301	0.0175645
640.379	0.0176234
640.457	0.0175640
640.535	0.0175318
640.613	0.0174784
640.692	0.0174811
640.770	0.0173692
640.848	0.0175095
640.926	0.0175351
641.004	0.0174393
641.082	0.0175078
641.160	0.0176276
641.238	0.0175885
641.317	0.0174071
641.395	0.0175321
641.473	0.0174995
641.551	0.0176096
641.629	0.0174338
641.707	0.0174767
641.785	0.0175785
641.863	0.0175390
641.942	0.0174874
642.020	0.0175665
642.098	0.0174230
642.176	0.0175869
642.254	0.0175591
642.332	0.0175623
642.410	0.0176363
642.488	0.0176072
642.567	0.0176254
642.645	0.0175951
642.723	0.0177839
642.801	0.0176040
642.879	0.0176190
642.957	0.0175404
643.035	0.0177303
643.113	0.0175564
643.192	0.0176499
643.270	0.0176061
643.348	0.0175932
643.426	0.0176855
643.504	0.0175890
643.582	0.0175707
643.660	0.0174685
643.738	0.0176237
643.817	0.0175761
643.895	0.0175086
643.973	0.0174537
644.051	0.0175611
644.129	0.0175461
644.207	0.0174964
644.285	0.0175577
644.363	0.0174812
644.442	0.0174982
644.520	0.0175399
644.598	0.0175204
644.676	0.0175255
644.754	0.0175995
644.832	0.0176980
644.910	0.0176330
644.988	0.0176100
645.067	0.0175786
645.145	0.0175638
645.223	0.0175408
645.301	0.0175313
645.379	0.0176562
645.457	0.0177044
645.535	0.0176509
645.613	0.0177363
645.692	0.0176978
645.770	0.0176271
645.848	0.0177737
645.926	0.0176861
646.004	0.0177947
646.082	0.0177010
646.160	0.0176843
646.238	0.0178040
646.317	0.0177429
646.395	0.0177160
646.473	0.0177059
646.551	0.0177052
646.629	0.0176563
646.707	0.0176518
646.785	0.0176861
646.863	0.0175555
646.942	0.0177395
647.020	0.0177988
647.098	0.0176707
647.176	0.0176764
647.254	0.0176096
647.332	0.0176144
647.410	0.0177490
647.488	0.0175438
647.567	0.0177048
647.645	0.0176748
647.723	0.0176643
647.801	0.0176093
647.879	0.0177582
647.957	0.0176395
648.035	0.0176303
648.113	0.0175035
648.192	0.0174319
648.270	0.0176695
648.348	0.0176663
648.426	0.0175706
648.504	0.0175400
648.582	0.0176027
648.660	0.0175426
648.738	0.0176501
648.817	0.0176091
648.895	0.0175526
648.973	0.0175031
649.051	0.0176795
649.129	0.0175479
649.207	0.0176427
649.285	0.0177048
649.363	0.0177055
649.442	0.0175884
649.520	0.0176495
649.598	0.0177249
649.676	0.0177710
649.754	0.0177710
649.832	0.0176926
649.910	0.0178081
649.988	0.0178930
650.067	0.0178824
650.145	0.0178417
650.223	0.0178066
650.301	0.0178165
650.379	0.0178319
650.457	0.0178456
650.535	0.0178630
650.613	0.0178648
650.692	0.0176991
650.770	0.0177186
650.848	0.0177175
650.926	0.0176525
651.004	0.0178501
651.082	0.0176575
651.160	0.0177814
651.238	0.0176167
651.317	0.0176460
651.395	0.0176594
651.473	0.0175894
651.551	0.0175937
651.629	0.0175689
651.707	0.0176825
651.785	0.0175520
651.863	0.0174782
651.942	0.0175555
652.020	0.0174307
652.098	0.0175010
652.176	0.0175000
652.254	0.0175008
652.332	0.0174005
652.410	0.0176107
652.488	0.0173750
652.567	0.0174753
652.645	0.0175186
652.723	0.0175291
652.801	0.0175500
652.879	0.0173928
652.957	0.0174355
653.035	0.0174279
653.113	0.0175922
653.192	0.0175764
653.270	0.0174792
653.348	0.0174721
653.426	0.0175540
653.504	0.0174675
653.582	0.0175438
653.660	0.0175094
653.738	0.0175207
653.817	0.0175768
653.895	0.0176663
653.973	0.0174686
654.051	0.0175002
654.129	0.0176158
654.207	0.0176583
654.285	0.0176163
654.363	0.0175321
654.442	0.0175363
654.520	0.0175629
654.598	0.0176518
654.676	0.0175207
654.754	0.0174992
654.832	0.0175979
654.910	0.0176186
654.988	0.0175290
655.067	0.0176170
655.145	0.0175327
655.223	0.0174957
655.301	0.0176522
655.379	0.0175003
655.457	0.0175230
655.535	0.0177340
655.613	0.0177764
655.692	0.0176241
655.770	0.0176099
655.848	0.0175864
655.926	0.0176140
656.004	0.0178179
656.082	0.0176226
656.160	0.0176248
656.238	0.0177294
656.317	0.0176116
656.395	0.0176945
656.473	0.0177525
656.551	0.0178151
656.629	0.0176273
656.707	0.0175685
656.785	0.0176912
656.863	0.0177650
656.942	0.0175787
657.020	0.0176408
657.098	0.0176993
657.176	0.0178302
657.254	0.0178383
657.332	0.0176862
657.410	0.0179046
657.488	0.0176833
657.567	0.0176450
657.645	0.0178057
657.723	0.0176176
657.801	0.0177338
657.879	0.0176594
657.957	0.0175928
658.035	0.0176913
658.113	0.0177937
658.192	0.0175278
658.270	0.0176968
658.348	0.0176495
658.426	0.0177123
658.504	0.0176662
658.582	0.0177020
658.660	0.0176951
658.738	0.0176744
658.817	0.0174954
658.895	0.0176855
658.973	0.0177946
659.051	0.0174835
659.129	0.0175783
659.207	0.0175948
659.285	0.0176756
659.363	0.0177078
659.442	0.0176013
659.520	0.0176231
659.598	0.0176796
659.676	0.0176506
659.754	0.0177435
659.832	0.0176973
659.910	0.0177319
659.988	0.0176841
660.067	0.0176390
660.145	0.0178363
660.223	0.0177960
660.301	0.0177466
660.379	0.0178040
660.457	0.0176717
660.535	0.0177787
660.613	0.0178072
660.692	0.0176711
660.770	0.0175874
660.848	0.0176449
660.926	0.0176864
661.004	0.0176066
661.082	0.0175679
661.160	0.0176214
661.238	0.0176567
661.317	0.0175802
661.395	0.0177206
661.473	0.0176477
661.551	0.0175027
661.629	0.0175407
661.707	0.0176376
661.785	0.0174410
661.863	0.0175186
661.942	0.0175206
662.020	0.0175613
662.098	0.0177162
662.176	0.0176535
662.254	0.0176649
662.332	0.0174561
662.410	0.0175540
662.488	0.0177058
662.567	0.0177760
662.645	0.0176388
662.723	0.0176322
662.801	0.0176617
662.879	0.0176360
662.957	0.0176492
663.035	0.0176141
663.113	0.0177029
663.192	0.0177572
663.270	0.0177808
663.348	0.0176434
663.426	0.0175546
663.504	0.0175794
663.582	0.0175505
663.660	0.0176537
663.738	0.0175911
663.817	0.0175980
663.895	0.0175539
663.973	0.0176141
664.051	0.0175230
664.129	0.0175933
664.207	0.0175069
664.285	0.0176008
664.363	0.0174609
664.442	0.0174075
664.520	0.0175691
664.598	0.0174988
664.676	0.0175578
664.754	0.0176001
664.832	0.0176070
664.910	0.0175114
664.988	0.0177036
665.067	0.0175912
665.145	0.0176567
665.223	0.0174209
665.301	0.0175623
665.379	0.0176774
665.457	0.0174158
665.535	0.0175424
665.613	0.0175053
665.692	0.0175359
665.770	0.0175552
665.848	0.0175686
665.926	0.0176723
666.004	0.0174421
666.082	0.0175494
666.160	0.0175114
666.238	0.0175353
666.317	0.0175564
666.395	0.0174854
666.473	0.0174839
666.551	0.0175056
666.629	0.0175932
666.707	0.0175140
666.785	0.0174675
666.863	0.0175480
666.942	0.0175786
667.020	0.0176327
667.098	0.0175534
667.176	0.0175279
667.254	0.0175503
667.332	0.0177031
667.410	0.0176229
667.488	0.0175257
667.567	0.0175566
667.645	0.0176170
667.723	0.0176679
667.801	0.0177214
667.879	0.0176805
667.957	0.0176367
668.035	0.0176461
668.113	0.0176698
668.192	0.0176926
668.270	0.0176711
668.348	0.0176970
668.426	0.0176008
668.504	0.0176577
668.582	0.0175231
668.660	0.0175343
668.738	0.0176017
668.817	0.0175842
668.895	0.0174608
668.973	0.0175029
669.051	0.0175772
669.129	0.0175021
669.207	0.0175698
669.285	0.0175302
669.363	0.0175897
669.442	0.0175519
669.520	0.0174254
669.598	0.0175172
669.676	0.0175244
669.754	0.0174927
669.832	0.0175935
669.910	0.0175019
669.988	0.0175209
670.067	0.0174735
670.145	0.0174751
670.223	0.0175753
670.301	0.0174773
670.379	0.0176410
670.457	0.0174889
670.535	0.0176560
670.613	0.0177557
670.692	0.0176357
670.770	0.0176637
670.848	0.0177102
670.926	0.0176672
671.004	0.0177020
671.082	0.0175960
671.160	0.0176830
671.238	0.0176808
671.317	0.0177902
671.395	0.0176569
671.473	0.0176413
671.551	0.0177354
671.629	0.0175955
671.707	0.0177126
671.785	0.0176659
671.863	0.0174878
671.942	0.0174759
672.020	0.0174971
672.098	0.0177506
672.176	0.0175950
672.254	0.0175239
672.332	0.0175531
672.410	0.0175893
672.488	0.0176035
672.567	0.0175329
672.645	0.0176092
672.723	0.0175327
672.801	0.0176823
672.879	0.0176105
672.957	0.0176906
673.035	0.0178230
673.113	0.0175918
673.192	0.0176306
673.270	0.0178921
673.348	0.0177278
673.426	0.0176556
673.504	0.0176916
673.582	0.0176874
673.660	0.0177547
673.738	0.0175402
673.817	0.0176315
673.895	0.0177214
673.973	0.0178175
674.051	0.0176871
674.129	0.0176070
674.207	0.0176190
674.285	0.0177534
674.363	0.0177121
674.442	0.0176472
674.520	0.0176419
674.598	0.0175211
674.676	0.0177047
674.754	0.0176301
674.832	0.0176921
674.910	0.0177731
674.988	0.0177587
675.067	0.0177185
675.145	0.0177291
675.223	0.0179683
675.301	0.0178460
675.379	0.0177460
675.457	0.0177627
675.535	0.0177644
675.613	0.0176639
675.692	0.0179258
675.770	0.0179497
675.848	0.0178467
675.926	0.0177943
676.004	0.0177653
676.082	0.0177633
676.160	0.0176028
676.238	0.0178182
676.317	0.0176976
676.395	0.0176526
676.473	0.0176658
676.551	0.0176924
676.629	0.0175964
676.707	0.0177102
676.785	0.0173994
676.863	0.0175172
676.942	0.0174911
677.020	0.0174538
677.098	0.0175195
677.176	0.0174991
677.254	0.0175866
677.332	0.0176559
677.410	0.0176056
677.488	0.0174976
677.567	0.0176999
677.645	0.0176518
677.723	0.0176472
677.801	0.0177271
677.879	0.0177488
677.957	0.0177638
678.035	0.0179418
678.113	0.0178091
678.192	0.0178211
678.270	0.0180011
678.348	0.0179512
678.426	0.0181470
678.504	0.0179248
678.582	0.0177581
678.660	0.0178460
678.738	0.0178280
678.817	0.0178868
678.895	0.0178526
678.973	0.0176046
679.051	0.0177248
679.129	0.0176709
679.207	0.0176523
679.285	0.0175792
679.363	0.0174811
679.442	0.0173856
679.520	0.0175095
679.598	0.0174345
679.676	0.0173090
679.754	0.0174902
679.832	0.0175256
679.910	0.0175014
679.988	0.0174829
680.067	0.0174973
680.145	0.0175210
680.223	0.0177177
680.301	0.0176467
680.379	0.0176112
680.457	0.0177265
680.535	0.0175907
680.613	0.0176994
680.692	0.0178109
680.770	0.0177901
680.848	0.0177898
680.926	0.0177769
681.004	0.0177670
681.082	0.0177717
681.160	0.0178609
681.238	0.0177744
681.317	0.0176571
681.395	0.0176589
681.473	0.0176596
681.551	0.0176238
681.629	0.0176369
681.707	0.0175832
681.785	0.0174564
681.863	0.0175103
681.942	0.0175124
682.020	0.0174256
682.098	0.0175683
682.176	0.0175606
682.254	0.0175196
682.332	0.0176080
682.410	0.0174948
682.488	0.0174175
682.567	0.0174617
682.645	0.0177937
682.723	0.0177538
682.801	0.0177559
682.879	0.0177726
682.957	0.0177638
683.035	0.0178319
683.113	0.0177394
683.192	0.0178962
683.270	0.0178239
683.348	0.0177801
683.426	0.0177988
683.504	0.0178930
683.582	0.0177556
683.660	0.0177952
683.738	0.0178976
683.817	0.0178555
683.895	0.0179757
683.973	0.0178664
684.051	0.0179684
684.129	0.0178901
684.207	0.0178685
684.285	0.0178296
684.363	0.0179514
684.442	0.0179759
684.520	0.0179100
684.598	0.0178738
684.676	0.0177304
684.754	0.0177013
684.832	0.0176898
684.910	0.0176057
684.988	0.0176256
685.067	0.0175854
685.145	0.0175896
685.223	0.0175257
685.301	0.0174964
685.379	0.0175813
685.457	0.0174606
685.535	0.0174980
685.613	0.0176252
685.692	0.0177046
685.770	0.0175673
685.848	0.0177027
685.926	0.0177614
686.004	0.0178316
686.082	0.0177343
686.160	0.0176620
686.238	0.0177133
686.317	0.0177622
686.395	0.0178297
686.473	0.0178879
686.551	0.0178386
686.629	0.0178096
686.707	0.0178304
686.785	0.0179762
686.863	0.0178801
686.942	0.0179550
687.020	0.0181329
687.098	0.0179688
687.176	0.0179672
687.254	0.0180593
687.332	0.0181046
687.410	0.0179577
687.488	0.0178953
687.567	0.0180434
687.645	0.0179645
687.723	0.0180194
687.801	0.0179021
687.879	0.0179031
687.957	0.0179056
688.035	0.0178224
688.113	0.0178192
688.192	0.0176579
688.270	0.0175982
688.348	0.0177840
688.426	0.0176173
688.504	0.0174117
688.582	0.0173149
688.660	0.0172635
688.738	0.0172273
688.817	0.0172082
688.895	0.0172846
688.973	0.0170959
689.051	0.0170679
689.129	0.0170953
689.207	0.0171513
689.285	0.0172302
689.363	0.0171549
689.442	0.0172666
689.520	0.0175224
689.598	0.0174013
689.676	0.0175621
689.754	0.0175246
689.832	0.0177637
689.910	0.0178371
689.988	0.0178362
690.067	0.0180781
690.145	0.0180173
690.223	0.0180402
690.301	0.0181969
690.379	0.0181857
690.457	0.0181469
690.535	0.0181068
690.613	0.0181873
690.692	0.0181548
690.770	0.0180824
690.848	0.0178721
690.926	0.0181591
691.004	0.0179870
691.082	0.0179966
691.160	0.0179314
691.238	0.0177673
691.317	0.0177309
691.395	0.0177860
691.473	0.0176818
691.551	0.0176730
691.629	0.0177074
691.707	0.0176311
691.785	0.0175187
691.863	0.0174376
691.942	0.0173528
692.020	0.0173721
692.098	0.0174989
692.176	0.0172876
692.254	0.0172791
692.332	0.0172589
692.410	0.0171540
692.488	0.0171494
692.567	0.0171919
692.645	0.0172016
692.723	0.0171496
692.801	0.0171233
692.879	0.0171745
692.957	0.0171591
693.035	0.0171990
693.113	0.0173464
693.192	0.0173293
693.270	0.0172853
693.348	0.0174512
693.426	0.0174965
693.504	0.0174582
693.582	0.0176540
693.660	0.0174864
693.738	0.0176290
693.817	0.0176356
693.895	0.0177182
693.973	0.0175723
694.051	0.0178473
694.129	0.0178196
694.207	0.0179179
694.285	0.0180298
694.363	0.0178341
694.442	0.0177928
694.520	0.0178677
694.598	0.0179164
694.676	0.0179790
694.754	0.0179841
694.832	0.0179604
694.910	0.0180057
694.988	0.0178812
695.067	0.0178496
695.145	0.0179855
695.223	0.0177804
695.301	0.0177746
695.379	0.0176746
695.457	0.0176947
695.535	0.0176286
695.613	0.0175328
695.692	0.0174660
695.770	0.0173907
695.848	0.0173789
695.926	0.0172073
696.004	0.0172459
696.082	0.0171409
696.160	0.0172048
696.238	0.0170972
696.317	0.0170981
696.395	0.0170905
696.473	0.0172314
696.551	0.0171867
696.629	0.0174094
696.707	0.0173906
696.785	0.0172691
696.863	0.0173048
696.942	0.0173056
697.020	0.0172843
697.098	0.0172769
697.176	0.0174734
697.254	0.0172587
697.332	0.0173810
697.410	0.0175129
697.488	0.0175427
697.567	0.0173803
697.645	0.0173769
697.723	0.0174152
697.801	0.0175903
697.879	0.0175886
697.957	0.0176424
698.035	0.0176376
698.113	0.0177159
698.192	0.0175977
698.270	0.0177068
698.348	0.0176729
698.426	0.0176713
698.504	0.0179166
698.582	0.0176807
698.660	0.0177383
698.738	0.0177542
698.817	0.0178310
698.895	0.0178068
698.973	0.0176888
699.051	0.0178928
699.129	0.0179949
699.207	0.0179766
699.285	0.0178212
699.363	0.0179015
699.442	0.0179044
699.520	0.0181589
699.598	0.0180676
699.676	0.0179910
699.754	0.0180234
699.832	0.0181834
699.910	0.0181831
699.988	0.0181178
700.067	0.0182716
700.145	0.0183481
700.223	0.0181924
700.301	0.0182347
700.379	0.0182745
700.457	0.0182085
700.535	0.0182003
700.613	0.0179083
700.692	0.0179179
700.770	0.0180111
700.848	0.0176565
700.926	0.0175303
701.004	0.0176550
701.082	0.0174541
701.160	0.0171729
701.238	0.0171902
701.317	0.0171864
701.395	0.0170357
701.473	0.0170232
701.551	0.0169170
701.629	0.0168890
701.707	0.0168287
701.785	0.0169067
701.863	0.0167749
701.942	0.0167440
702.020	0.0168725
702.098	0.0168424
702.176	0.0168449
702.254	0.0169498
702.332	0.0169220
702.410	0.0168963
702.488	0.0169376
702.567	0.0170024
702.645	0.0169940
702.723	0.0171771
702.801	0.0171630
702.879	0.0172204
702.957	0.0171936
703.035	0.0172936
703.113	0.0174925
703.192	0.0174818
703.270	0.0175092
703.348	0.0175652
703.426	0.0177448
703.504	0.0176893
703.582	0.0179106
703.660	0.0180350
703.738	0.0180318
703.817	0.0182259
703.895	0.0181798
703.973	0.0181725
704.051	0.0183215
704.129	0.0183821
704.207	0.0184280
704.285	0.0183279
704.363	0.0184106
704.442	0.0183805
704.520	0.0183360
704.598	0.0182433
704.676	0.0183664
704.754	0.0184377
704.832	0.0183566
704.910	0.0180773
704.988	0.0181880
705.067	0.0182166
705.145	0.0180949
705.223	0.0180178
705.301	0.0179599
705.379	0.0178400
705.457	0.0179462
705.535	0.0178017
705.613	0.0175999
705.692	0.0177069
705.770	0.0176949
705.848	0.0176437
705.926	0.0174898
706.004	0.0172874
706.082	0.0173414
706.160	0.0174036
706.238	0.0172215
706.317	0.0170412
706.395	0.0169747
706.473	0.0168501
706.551	0.0167181
706.629	0.0165831
706.707	0.0165422
706.785	0.0165791
706.863	0.0163597
706.942	0.0164346
707.020	0.0164819
707.098	0.0165053
707.176	0.0164864
707.254	0.0164535
707.332	0.0166225
707.410	0.0167114
707.488	0.0169249
707.567	0.0170443
707.645	0.0170865
707.723	0.0172298
707.801	0.0172718
707.879	0.0175832
707.957	0.0175673
708.035	0.0178922
708.113	0.0181734
708.192	0.0180368
708.270	0.0181600
708.348	0.0182468
708.426	0.0182967
708.504	0.0184006
708.582	0.0184776
708.660	0.0183720
708.738	0.0184767
708.817	0.0185045
708.895	0.0186143
708.973	0.0184974
709.051	0.0186017
709.129	0.0185425
709.207	0.0185141
709.285	0.0186378
709.363	0.0184018
709.442	0.0184046
709.520	0.0182262
709.598	0.0182721
709.676	0.0183582
709.754	0.0180767
709.832	0.0179382
709.910	0.0179248
709.988	0.0177679
710.067	0.0178684
710.145	0.0179141
710.223	0.0178468
710.301	0.0176396
710.379	0.0175571
710.457	0.0175818
710.535	0.0175265
710.613	0.0174715
710.692	0.0175024
710.770	0.0175744
710.848	0.0173991
710.926	0.0174515
711.004	0.0175349
711.082	0.0174786
711.160	0.0174448
711.238	0.0174155
711.317	0.0173135
711.395	0.0174499
711.473	0.0175465
711.551	0.0174633
711.629	0.0173045
711.707	0.0174840
711.785	0.0174603
711.863	0.0174684
711.942	0.0174481
712.020	0.0174876
712.098	0.0175262
712.176	0.0173274
712.254	0.0174200
712.332	0.0174158
712.410	0.0174243
712.488	0.0173176
712.567	0.0172733
712.645	0.0173403
712.723	0.0170879
712.801	0.0170719
712.879	0.0172546
712.957	0.0171841
713.035	0.0171793
713.113	0.0172424
713.192	0.0172649
713.270	0.0171130
713.348	0.0172509
713.426	0.0172040
713.504	0.0173606
713.582	0.0174506
713.660	0.0174725
713.738	0.0174908
713.817	0.0175301
713.895	0.0176188
713.973	0.0176504
714.051	0.0178593
714.129	0.0177319
714.207	0.0178410
714.285	0.0178142
714.363	0.0178814
714.442	0.0178954
714.520	0.0180286
714.598	0.0180191
714.676	0.0180476
714.754	0.0180681
714.832	0.0180458
714.910	0.0178616
714.988	0.0181786
715.067	0.0181147
715.145	0.0181716
715.223	0.0182427
715.301	0.0182542
715.379	0.0182220
715.457	0.0181842
715.535	0.0181358
715.613	0.0180788
715.692	0.0182082
715.770	0.0181557
715.848	0.0179132
715.926	0.0179912
716.004	0.0180993
716.082	0.0179810
716.160	0.0178344
716.238	0.0178766
716.317	0.0179464
716.395	0.0179085
716.473	0.0178036
716.551	0.0176978
716.629	0.0176717
716.707	0.0178641
716.785	0.0177530
716.863	0.0176355
716.942	0.0176939
717.020	0.0174103
717.098	0.0174978
717.176	0.0174448
717.254	0.0174256
717.332	0.0174422
717.410	0.0172705
717.488	0.0172413
717.567	0.0171247
717.645	0.0172343
717.723	0.0172344
717.801	0.0171326
717.879	0.0170954
717.957	0.0171001
718.035	0.0169930
718.113	0.0168149
718.192	0.0169400
718.270	0.0168549
718.348	0.0168440
718.426	0.0168076
718.504	0.0168245
718.582	0.0167860
718.660	0.0167488
718.738	0.0169427
718.817	0.0171410
718.895	0.0170262
718.973	0.0170721
719.051	0.0172410
719.129	0.0172401
719.207	0.0172710
719.285	0.0174677
719.363	0.0174474
719.442	0.0173808
719.520	0.0176482
719.598	0.0175206
719.676	0.0177162
719.754	0.0178309
719.832	0.0177938
719.910	0.0178448
719.988	0.0177833
720.067	0.0177729
720.145	0.0178095
720.223	0.0177803
720.301	0.0178320
720.379	0.0178681
720.457	0.0179834
720.535	0.0179176
720.613	0.0177795
720.692	0.0179187
720.770	0.0179943
720.848	0.0180345
720.926	0.0180247
721.004	0.0180550
721.082	0.0181246
721.160	0.0179889
721.238	0.0180490
721.317	0.0180052
721.395	0.0180469
721.473	0.0180757
721.551	0.0179089
721.629	0.0180967
721.707	0.0177261
721.785	0.0178630
721.863	0.0179647
721.942	0.0179911
722.020	0.0177442
722.098	0.0176275
722.176	0.0176055
722.254	0.0176642
722.332	0.0176208
722.410	0.0177405
722.488	0.0176256
722.567	0.0176970
722.645	0.0175259
722.723	0.0173399
722.801	0.0175163
722.879	0.0175812
722.957	0.0174371
723.035	0.0173611
723.113	0.0174458
723.192	0.0173991
723.270	0.0174006
723.348	0.0173838
723.426	0.0172710
723.504	0.0172623
723.582	0.0172311
723.660	0.0171635
723.738	0.0171247
723.817	0.0171661
723.895	0.0170454
723.973	0.0170457
724.051	0.0170912
724.129	0.0172463
724.207	0.0170631
724.285	0.0172367
724.363	0.0173615
724.442	0.0171960
724.520	0.0172569
724.598	0.0173059
724.676	0.0173695
724.754	0.0173215
724.832	0.0174249
724.910	0.0174802
724.988	0.0174906
725.067	0.0174005
725.145	0.0173030
725.223	0.0174233
725.301	0.0174680
725.379	0.0175846
725.457	0.0175563
725.535	0.0174967
725.613	0.0174917
725.692	0.0175438
725.770	0.0175797
725.848	0.0176981
725.926	0.0175101
726.004	0.0178036
726.082	0.0177658
726.160	0.0177700
726.238	0.0178321
726.317	0.0177505
726.395	0.0176914
726.473	0.0177066
726.551	0.0178408
726.629	0.0177462
726.707	0.0176753
726.785	0.0177117
726.863	0.0177954
726.942	0.0179220
727.020	0.0177634
727.098	0.0177979
727.176	0.0178478
727.254	0.0178151
727.332	0.0178658
727.410	0.0178080
727.488	0.0179366
727.567	0.0179633
727.645	0.0179218
727.723	0.0178251
727.801	0.0178876
727.879	0.0176511
727.957	0.0177055
728.035	0.0176331
728.113	0.0176456
728.192	0.0176464
728.270	0.0175560
728.348	0.0173955
728.426	0.0174720
728.504	0.0174098
728.582	0.0172296
728.660	0.0173597
728.738	0.0171531
728.817	0.0172628
728.895	0.0172607
728.973	0.0172356
729.051	0.0172322
729.129	0.0171373
729.207	0.0172666
729.285	0.0173727
729.363	0.0173206
729.442	0.0173567
729.520	0.0173133
729.598	0.0173222
729.676	0.0174218
729.754	0.0175551
729.832	0.0174500
729.910	0.0175532
729.988	0.0175714
730.067	0.0176013
730.145	0.0175202
730.223	0.0174986
730.301	0.0175363
730.379	0.0175278
730.457	0.0175695
730.535	0.0177324
730.613	0.0175293
730.692	0.0176793
730.770	0.0175519
730.848	0.0175150
730.926	0.0177196
731.004	0.0175882
731.082	0.0176698
731.160	0.0175198
731.238	0.0176014
731.317	0.0177297
731.395	0.0178508
731.473	0.0178334
731.551	0.0177865
731.629	0.0180061
731.707	0.0180048
731.785	0.0179911
731.863	0.0178403
731.942	0.0178545
732.020	0.0180550
732.098	0.0179976
732.176	0.0178166
732.254	0.0177464
732.332	0.0178983
732.410	0.0175151
732.488	0.0177296
732.567	0.0174395
732.645	0.0174659
732.723	0.0173711
732.801	0.0173788
732.879	0.0173907
732.957	0.0172894
733.035	0.0172689
733.113	0.0173991
733.192	0.0172946
733.270	0.0173534
733.348	0.0173994
733.426	0.0174117
733.504	0.0175056
733.582	0.0175420
733.660	0.0176111
733.738	0.0175111
733.817	0.0176522
733.895	0.0176244
733.973	0.0177299
734.051	0.0177404
734.129	0.0175697
734.207	0.0175687
734.285	0.0176122
734.363	0.0176849
734.442	0.0176400
734.520	0.0177111
734.598	0.0176337
734.676	0.0176071
734.754	0.0174831
734.832	0.0175138
734.910	0.0175850
734.988	0.0176011
735.067	0.0176127
735.145	0.0175820
735.223	0.0176571
735.301	0.0175853
735.379	0.0174776
735.457	0.0176676
735.535	0.0176402
735.613	0.0175761
735.692	0.0175819
735.770	0.0177667
735.848	0.0177273
735.926	0.0177843
736.004	0.0179022
736.082	0.0177472
736.160	0.0175695
736.238	0.0176682
736.317	0.0177526
736.395	0.0178799
736.473	0.0178107
736.551	0.0177319
736.629	0.0177257
736.707	0.0176331
736.785	0.0178339
736.863	0.0178025
736.942	0.0177861
737.020	0.0178905
737.098	0.0175894
737.176	0.0176485
737.254	0.0177258
737.332	0.0177479
737.410	0.0174890
737.488	0.0174711
737.567	0.0175028
737.645	0.0176004
737.723	0.0174467
737.801	0.0173542
737.879	0.0171538
737.957	0.0174171
738.035	0.0173191
738.113	0.0172580
738.192	0.0172130
738.270	0.0172604
738.348	0.0172838
738.426	0.0172670
738.504	0.0172547
738.582	0.0172852
738.660	0.0172854
738.738	0.0174297
738.817	0.0176387
738.895	0.0173595
738.973	0.0173513
739.051	0.0174792
739.129	0.0176608
739.207	0.0176417
739.285	0.0174460
739.363	0.0175433
739.442	0.0175461
739.520	0.0177174
739.598	0.0177574
739.676	0.0176270
739.754	0.0175768
739.832	0.0176998
739.910	0.0177363
739.988	0.0175508
740.067	0.0176681
740.145	0.0176372
740.223	0.0176691
740.301	0.0177602
740.379	0.0177164
740.457	0.0177554
740.535	0.0178936
740.613	0.0178616
740.692	0.0178719
740.770	0.0179573
740.848	0.0179258
740.926	0.0180660
741.004	0.0179842
741.082	0.0179437
741.160	0.0180724
741.238	0.0179559
741.317	0.0181178
741.395	0.0181724
741.473	0.0179980
741.551	0.0181443
741.629	0.0178543
741.707	0.0179063
741.785	0.0181281
741.863	0.0180568
741.942	0.0179464
742.020	0.0178821
742.098	0.0179395
742.176	0.0179214
742.254	0.0177540
742.332	0.0179273
742.410	0.0177525
742.488	0.0177210
742.567	0.0177583
742.645	0.0177660
742.723	0.0176147
742.801	0.0176775
742.879	0.0175546
742.957	0.0176685
743.035	0.0176863
743.113	0.0176255
743.192	0.0174204
743.270	0.0173447
743.348	0.0175458
743.426	0.0173748
743.504	0.0174030
743.582	0.0171794
743.660	0.0172055
743.738	0.0174230
743.817	0.0174242
743.895	0.0172549
743.973	0.0172398
744.051	0.0173480
744.129	0.0173830
744.207	0.0174377
744.285	0.0175600
744.363	0.0175647
744.442	0.0175748
744.520	0.0176640
744.598	0.0177491
744.676	0.0177364
744.754	0.0179785
744.832	0.0177712
744.910	0.0178487
744.988	0.0178458
745.067	0.0176895
745.145	0.0177240
745.223	0.0179031
745.301	0.0177963
745.379	0.0179113
745.457	0.0178810
745.535	0.0178062
745.613	0.0178300
745.692	0.0180149
745.770	0.0179842
745.848	0.0179446
745.926	0.0178030
746.004	0.0177264
746.082	0.0178211
746.160	0.0178128
746.238	0.0178034
746.317	0.0178687
746.395	0.0177625
746.473	0.0176504
746.551	0.0178024
746.629	0.0177396
746.707	0.0177512
746.785	0.0177275
746.863	0.0176175
746.942	0.0176933
747.020	0.0177941
747.098	0.0178078
747.176	0.0176904
747.254	0.0175574
747.332	0.0176706
747.410	0.0176958
747.488	0.0176785
747.567	0.0176643
747.645	0.0177853
747.723	0.0177695
747.801	0.0177470
747.879	0.0177831
747.957	0.0176661
748.035	0.0177001
748.113	0.0175438
748.192	0.0175840
748.270	0.0176025
748.348	0.0175774
748.426	0.0175338
748.504	0.0175314
748.582	0.0174970
748.660	0.0174323
748.738	0.0174657
748.817	0.0176010
748.895	0.0175148
748.973	0.0175483
749.051	0.0176216
749.129	0.0175824
749.207	0.0175721
749.285	0.0176762
749.363	0.0176051
749.442	0.0176698
749.520	0.0175930
749.598	0.0176334
749.676	0.0175587
749.754	0.0176701
749.832	0.0176848
749.910	0.0176952
749.988	0.0176559
750.067	0.0177292
750.145	0.0177345
750.223	0.0176020
750.301	0.0176123
750.379	0.0176789
750.457	0.0175751
750.535	0.0175604
750.613	0.0175862
750.692	0.0175700
750.770	0.0175997
750.848	0.0175672
750.926	0.0175991
751.004	0.0175690
751.082	0.0175125
751.160	0.0174387
751.238	0.0175764
751.317	0.0175526
751.395	0.0176723
751.473	0.0176659
751.551	0.0176917
751.629	0.0177869
751.707	0.0178371
751.785	0.0177293
751.863	0.0177633
751.942	0.0177686
752.020	0.0178458
752.098	0.0179453
752.176	0.0178222
752.254	0.0178259
752.332	0.0179768
752.410	0.0179424
752.488	0.0177705
752.567	0.0178696
752.645	0.0179562
752.723	0.0179232
752.801	0.0179037
752.879	0.0179485
752.957	0.0179504
753.035	0.0180267
753.113	0.0179932
753.192	0.0178589
753.270	0.0179519
753.348	0.0178979
753.426	0.0179000
753.504	0.0178287
753.582	0.0178858
753.660	0.0178087
753.738	0.0177433
753.817	0.0178349
753.895	0.0178123
753.973	0.0176065
754.051	0.0175863
754.129	0.0174978
754.207	0.0175912
754.285	0.0175131
754.363	0.0173955
754.442	0.0174284
754.520	0.0173677
754.598	0.0173920
754.676	0.0173461
754.754	0.0174062
754.832	0.0174954
754.910	0.0174802
754.988	0.0174700
755.067	0.0174662
755.145	0.0174363
755.223	0.0174348
755.301	0.0175648
755.379	0.0176207
755.457	0.0175688
755.535	0.0175470
755.613	0.0176595
755.692	0.0175845
755.770	0.0176480
755.848	0.0176950
755.926	0.0175854
756.004	0.0175606
756.082	0.0176730
756.160	0.0177634
756.238	0.0176807
756.317	0.0175874
756.395	0.0176355
756.473	0.0175275
756.551	0.0176030
756.629	0.0177515
756.707	0.0177755
756.785	0.0177488
756.863	0.0177146
756.942	0.0178009
757.020	0.0177340
757.098	0.0177342
757.176	0.0177805
757.254	0.0177790
757.332	0.0179417
757.410	0.0176482
757.488	0.0178011
757.567	0.0178008
757.645	0.0177471
757.723	0.0176879
757.801	0.0176546
757.879	0.0176251
757.957	0.0175179
758.035	0.0175584
758.113	0.0175878
758.192	0.0175536
758.270	0.0174925
758.348	0.0174338
758.426	0.0173109
758.504	0.0174615
758.582	0.0175375
758.660	0.0174206
758.738	0.0174470
758.817	0.0175075
758.895	0.0174487
758.973	0.0175278
759.051	0.0176853
759.129	0.0174580
759.207	0.0174336
759.285	0.0176282
759.363	0.0175792
759.442	0.0174940
759.520	0.0176196
759.598	0.0176414
759.676	0.0176924
759.754	0.0175465
759.832	0.0176392
759.910	0.0177398
759.988	0.0177483
760.067	0.0175951
760.145	0.0175707
760.223	0.0176086
760.301	0.0175991
760.379	0.0175401
760.457	0.0174419
760.535	0.0174416
760.613	0.0174712
760.692	0.0173351
760.770	0.0175117
760.848	0.0173465
760.926	0.0173872
761.004	0.0173299
761.082	0.0172740
761.160	0.0173534
761.238	0.0172462
761.317	0.0172781
761.395	0.0174408
761.473	0.0173869
761.551	0.0173193
761.629	0.0174100
761.707	0.0174091
761.785	0.0174268
761.863	0.0173418
761.942	0.0173987
762.020	0.0173662
762.098	0.0173981
762.176	0.0175502
762.254	0.0174087
762.332	0.0173170
762.410	0.0173433
762.488	0.0175780
762.567	0.0174866
762.645	0.0175518
762.723	0.0177120
762.801	0.0177375
762.879	0.0178378
762.957	0.0178380
763.035	0.0179631
763.113	0.0178266
763.192	0.0179644
763.270	0.0179961
763.348	0.0181271
763.426	0.0181438
763.504	0.0180517
763.582	0.0180436
763.660	0.0180356
763.738	0.0181187
763.817	0.0182262
763.895	0.0178982
763.973	0.0181214
764.051	0.0180732
764.129	0.0179501
764.207	0.0181107
764.285	0.0180471
764.363	0.0179141
764.442	0.0180225
764.520	0.0177891
764.598	0.0177937
764.676	0.0179308
764.754	0.0180672
764.832	0.0177840
764.910	0.0178963
764.988	0.0178004
765.067	0.0178834
765.145	0.0178333
765.223	0.0177968
765.301	0.0176936
765.379	0.0176498
765.457	0.0177213
765.535	0.0177459
765.613	0.0176422
765.692	0.0175414
765.770	0.0175374
765.848	0.0175288
765.926	0.0174516
766.004	0.0175345
766.082	0.0174458
766.160	0.0174623
766.238	0.0174313
766.317	0.0175204
766.395	0.0174184
766.473	0.0173852
766.551	0.0173596
766.629	0.0174027
766.707	0.0174062
766.785	0.0174160
766.863	0.0175278
766.942	0.0174718
767.020	0.0174638
767.098	0.0175806
767.176	0.0174814
767.254	0.0175549
767.332	0.0176407
767.410	0.0175422
767.488	0.0175523
767.567	0.0175345
767.645	0.0174629
767.723	0.0175737
767.801	0.0176319
767.879	0.0175196
767.957	0.0176817
768.035	0.0175272
768.113	0.0174941
768.192	0.0175439
768.270	0.0175366
768.348	0.0174706
768.426	0.0174302
768.504	0.0175227
768.582	0.0175182
768.660	0.0175261
768.738	0.0173704
768.817	0.0175466
768.895	0.0173805
768.973	0.0174159
769.051	0.0174719
769.129	0.0173727
769.207	0.0174494
769.285	0.0175478
769.363	0.0175425
769.442	0.0173648
769.520	0.0175449
769.598	0.0176041
769.676	0.0174873
769.754	0.0175820
769.832	0.0174406
769.910	0.0176974
769.988	0.0177325
770.067	0.0175201
770.145	0.0176288
770.223	0.0178049
770.301	0.0176879
770.379	0.0178231
770.457	0.0177842
770.535	0.0177287
770.613	0.0176939
770.692	0.0179240
770.770	0.0178198
770.848	0.0177807
770.926	0.0177714
771.004	0.0177192
771.082	0.0177608
771.160	0.0177464
771.238	0.0176650
771.317	0.0176763
771.395	0.0176935
771.473	0.0176729
771.551	0.0176186
771.629	0.0176908
771.707	0.0176709
771.785	0.0178118
771.863	0.0176958
771.942	0.0178043
772.020	0.0178088
772.098	0.0178895
772.176	0.0179408
772.254	0.0178738
772.332	0.0178898
772.410	0.0177959
772.488	0.0178082
772.567	0.0177800
772.645	0.0177628
772.723	0.0177238
772.801	0.0177351
772.879	0.0175913
772.957	0.0176669
773.035	0.0176253
773.113	0.0175907
773.192	0.0174871
773.270	0.0173787
773.348	0.0175591
773.426	0.0176509
773.504	0.0176068
773.582	0.0175765
773.660	0.0174441
773.738	0.0176806
773.817	0.0175279
773.895	0.0175593
773.973	0.0175581
774.051	0.0175710
774.129	0.0175433
774.207	0.0177239
774.285	0.0177409
774.363	0.0177312
774.442	0.0178314
774.520	0.0179002
774.598	0.0177025
774.676	0.0178691
774.754	0.0177604
774.832	0.0177360
774.910	0.0177211
774.988	0.0176912
775.067	0.0176082
775.145	0.0177538
775.223	0.0177153
775.301	0.0176240
775.379	0.0176862
775.457	0.0174133
775.535	0.0174941
775.613	0.0175344
775.692	0.0174366
775.770	0.0175904
775.848	0.0175007
775.926	0.0174551
776.004	0.0175784
776.082	0.0174458
776.160	0.0174373
776.238	0.0174674
776.317	0.0175077
776.395	0.0174738
776.473	0.0176414
776.551	0.0173994
776.629	0.0175182
776.707	0.0177264
776.785	0.0176287
776.863	0.0175372
776.942	0.0175710
777.020	0.0176842
777.098	0.0176443
777.176	0.0176920
777.254	0.0175886
777.332	0.0175575
777.410	0.0176896
777.488	0.0175535
777.567	0.0174117
777.645	0.0176926
777.723	0.0177038
777.801	0.0175919
777.879	0.0176019
777.957	0.0175555
778.035	0.0175932
778.113	0.0176042
778.192	0.0177264
778.270	0.0177068
778.348	0.0177551
778.426	0.0176032
778.504	0.0176738
778.582	0.0178500
778.660	0.0178053
778.738	0.0177370
778.817	0.0178259
778.895	0.0178495
778.973	0.0178105
779.051	0.0178402
779.129	0.0179444
779.207	0.0178866
779.285	0.0178586
779.363	0.0178731
779.442	0.0178475
779.520	0.0178564
779.598	0.0178683
779.676	0.0178133
779.754	0.0178447
779.832	0.0177608
779.910	0.0175967
779.988	0.0177135
780.067	0.0177003
780.145	0.0176203
780.223	0.0174648
780.301	0.0174673
780.379	0.0174597
780.457	0.0174382
780.535	0.0174449
780.613	0.0173751
780.692	0.0173999
780.770	0.0173956
780.848	0.0172762
780.926	0.0172807
781.004	0.0171966
781.082	0.0173875
781.160	0.0173215
781.238	0.0173769
781.317	0.0172800
781.395	0.0171976
781.473	0.0172796
781.551	0.0173699
781.629	0.0173695
781.707	0.0173540
781.785	0.0174426
781.863	0.0174236
781.942	0.0174577
782.020	0.0175806
782.098	0.0175136
782.176	0.0174576
782.254	0.0175692
782.332	0.0175407
782.410	0.0176791
782.488	0.0175374
782.567	0.0176758
782.645	0.0177433
782.723	0.0178776
782.801	0.0178929
782.879	0.0179232
782.957	0.0176358
783.035	0.0176650
783.113	0.0177866
783.192	0.0177816
783.270	0.0177436
783.348	0.0176860
783.426	0.0177442
783.504	0.0177292
783.582	0.0175656
783.660	0.0176981
783.738	0.0175764
783.817	0.0175581
783.895	0.0176202
783.973	0.0176704
784.051	0.0175734
784.129	0.0176331
784.207	0.0176289
784.285	0.0176186
784.363	0.0176011
784.442	0.0174396
784.520	0.0175676
784.598	0.0174827
784.676	0.0174425
784.754	0.0175427
784.832	0.0175504
784.910	0.0175325
784.988	0.0176324
785.067	0.0176422
785.145	0.0176195
785.223	0.0175091
785.301	0.0175502
785.379	0.0176336
785.457	0.0179064
785.535	0.0178070
785.613	0.0176443
785.692	0.0177551
785.770	0.0175616
785.848	0.0178225
785.926	0.0178009
786.004	0.0175891
786.082	0.0176221
786.160	0.0176525
786.238	0.0176423
786.317	0.0176080
786.395	0.0174896
786.473	0.0174460
786.551	0.0175185
786.629	0.0174853
786.707	0.0174868
786.785	0.0175175
786.863	0.0172430
786.942	0.0174780
787.020	0.0174759
787.098	0.0174586
787.176	0.0172998
787.254	0.0173905
787.332	0.0174691
787.410	0.0174368
787.488	0.0175484
787.567	0.0174294
787.645	0.0175317
787.723	0.0176247
787.801	0.0176532
787.879	0.0173245
787.957	0.0173899
788.035	0.0174660
788.113	0.0174633
788.192	0.0174551
788.270	0.0174998
788.348	0.0174030
788.426	0.0174065
788.504	0.0175100
788.582	0.0174535
788.660	0.0172621
788.738	0.0173654
788.817	0.0175696
788.895	0.0174316
788.973	0.0172955
789.051	0.0174995
789.129	0.0173244
789.207	0.0172393
789.285	0.0173228
789.363	0.0174053
789.442	0.0172708
789.520	0.0174214
789.598	0.0173116
789.676	0.0173081
789.754	0.0173687
789.832	0.0174030
789.910	0.0173905
789.988	0.0174522
790.067	0.0173830
790.145	0.0174195
790.223	0.0175619
790.301	0.0175494
790.379	0.0175815
790.457	0.0175603
790.535	0.0176676
790.613	0.0176992
790.692	0.0174335
790.770	0.0176444
790.848	0.0177087
790.926	0.0176296
791.004	0.0177480
791.082	0.0177431
791.160	0.0178171
791.238	0.0176649
791.317	0.0175935
791.395	0.0177171
791.473	0.0175265
791.551	0.0176814
791.629	0.0177713
791.707	0.0175777
791.785	0.0175494
791.863	0.0176740
791.942	0.0177585
792.020	0.0175855
792.098	0.0176778
792.176	0.0176717
792.254	0.0176891
792.332	0.0177440
792.410	0.0178300
792.488	0.0176823
792.567	0.0176998
792.645	0.0177480
792.723	0.0178578
792.801	0.0177286
792.879	0.0179631
792.957	0.0178882
793.035	0.0178213
793.113	0.0178711
793.192	0.0179013
793.270	0.0178414
793.348	0.0177640
793.426	0.0178564
793.504	0.0179824
793.582	0.0177739
793.660	0.0178900
793.738	0.0177757
793.817	0.0177956
793.895	0.0176809
793.973	0.0177387
794.051	0.0176663
794.129	0.0176535
794.207	0.0175076
794.285	0.0174278
794.363	0.0175365
794.442	0.0173286
794.520	0.0173622
794.598	0.0175244
794.676	0.0173358
794.754	0.0174136
794.832	0.0173876
794.910	0.0173001
794.988	0.0173713
795.067	0.0173349
795.145	0.0174374
795.223	0.0173978
795.301	0.0173420
795.379	0.0174008
795.457	0.0174007
795.535	0.0173945
795.613	0.0173560
795.692	0.0174708
795.770	0.0174713
795.848	0.0175229
795.926	0.0174294
796.004	0.0174475
796.082	0.0173632
796.160	0.0175266
796.238	0.0175056
796.317	0.0176128
796.395	0.0173143
796.473	0.0174768
796.551	0.0174182
796.629	0.0174624
796.707	0.0175298
796.785	0.0174763
796.863	0.0176256
796.942	0.0174989
797.020	0.0174976
797.098	0.0176263
797.176	0.0175163
797.254	0.0174031
797.332	0.0175173
797.410	0.0175802
797.488	0.0174670
797.567	0.0176106
797.645	0.0175402
797.723	0.0175116
797.801	0.0173939
797.879	0.0176935
797.957	0.0175782
798.035	0.0175441
798.113	0.0175533
798.192	0.0175581
798.270	0.0175385
798.348	0.0175767
798.426	0.0177286
798.504	0.0178303
798.582	0.0176782
798.660	0.0177460
798.738	0.0175985
798.817	0.0177093
798.895	0.0177412
798.973	0.0177709
799.051	0.0177393
799.129	0.0176402
799.207	0.0176807
799.285	0.0177625
799.363	0.0176852
799.442	0.0176375
799.520	0.0176373
799.598	0.0177010
799.676	0.0176544
799.754	0.0176332
799.832	0.0176343
799.910	0.0176022
799.988	0.0175478
800.067	0.0175697
800.145	0.0175751
800.223	0.0178375
800.301	0.0176248
800.379	0.0175773
800.457	0.0177525
800.535	0.0176816
800.613	0.0175423
800.692	0.0177448
800.770	0.0176643
800.848	0.0176771
800.926	0.0175462
801.004	0.0176553
801.082	0.0176853
801.160	0.0176701
801.238	0.0177588
801.317	0.0177831
801.395	0.0175323
801.473	0.0177778
801.551	0.0177020
801.629	0.0174986
801.707	0.0173763
801.785	0.0175878
801.863	0.0174976
801.942	0.0175148
802.020	0.0173890
802.098	0.0173454
802.176	0.0173455
802.254	0.0173201
802.332	0.0171999
802.410	0.0171976
802.488	0.0174480
802.567	0.0172758
802.645	0.0172505
802.723	0.0171502
802.801	0.0172752
802.879	0.0172000
802.957	0.0171937
803.035	0.0171790
803.113	0.0173782
803.192	0.0173771
803.270	0.0173641
803.348	0.0174439
803.426	0.0174690
803.504	0.0174045
803.582	0.0173141
803.660	0.0174063
803.738	0.0173892
803.817	0.0175228
803.895	0.0175333
803.973	0.0173459
804.051	0.0174997
804.129	0.0174573
804.207	0.0175575
804.285	0.0174847
804.363	0.0175825
804.442	0.0176333
804.520	0.0176441
804.598	0.0175716
804.676	0.0176320
804.754	0.0176373
804.832	0.0176392
804.910	0.0175455
804.988	0.0177140
805.067	0.0177154
805.145	0.0176579
805.223	0.0178859
805.301	0.0178361
805.379	0.0175455
805.457	0.0178223
805.535	0.0177728
805.613	0.0176251
805.692	0.0174241
805.770	0.0177003
805.848	0.0177007
805.926	0.0177388
806.004	0.0177119
806.082	0.0177191
806.160	0.0175462
806.238	0.0175900
806.317	0.0176196
806.395	0.0176621
806.473	0.0176912
806.551	0.0176733
806.629	0.0176111
806.707	0.0177190
806.785	0.0176810
806.863	0.0177393
806.942	0.0176788
807.020	0.0175978
807.098	0.0177152
807.176	0.0176650
807.254	0.0176804
807.332	0.0177993
807.410	0.0176863
807.488	0.0176886
807.567	0.0176157
807.645	0.0176049
807.723	0.0175497
807.801	0.0175146
807.879	0.0175533
807.957	0.0174622
808.035	0.0174639
808.113	0.0174357
808.192	0.0174640
808.270	0.0174969
808.348	0.0174743
808.426	0.0173955
808.504	0.0173535
808.582	0.0174585
808.660	0.0174978
808.738	0.0173766
808.817	0.0173878
808.895	0.0175549
808.973	0.0174084
809.051	0.0174908
809.129	0.0175678
809.207	0.0174896
809.285	0.0176140
809.363	0.0174554
809.442	0.0174063
809.520	0.0176530
809.598	0.0176376
809.676	0.0174698
809.754	0.0175846
809.832	0.0174065
809.910	0.0173156
809.988	0.0174267
810.067	0.0173808
810.145	0.0175038
810.223	0.0175064
810.301	0.0175589
810.379	0.0174553
810.457	0.0173904
810.535	0.0174001
810.613	0.0173682
810.692	0.0174304
810.770	0.0176282
810.848	0.0175247
810.926	0.0174892
811.004	0.0175255
811.082	0.0176276
811.160	0.0176262
811.238	0.0176372
811.317	0.0176406
811.395	0.0176562
811.473	0.0177496
811.551	0.0178960
811.629	0.0177970
811.707	0.0175495
811.785	0.0178898
811.863	0.0178714
811.942	0.0177437
812.020	0.0178306
812.098	0.0178145
812.176	0.0179163
812.254	0.0177396
812.332	0.0177547
812.410	0.0180148
812.488	0.0177869
812.567	0.0177847
812.645	0.0178332
812.723	0.0179455
812.801	0.0178244
812.879	0.0178948
812.957	0.0179068
813.035	0.0178199
813.113	0.0178690
813.192	0.0178988
813.270	0.0177483
813.348	0.0177560
813.426	0.0177991
813.504	0.0178021
813.582	0.0176191
813.660	0.0176275
813.738	0.0177068
813.817	0.0176484
813.895	0.0175566
813.973	0.0177723
814.051	0.0176212
814.129	0.0178489
814.207	0.0177292
814.285	0.0177977
814.363	0.0177945
814.442	0.0178060
814.520	0.0177419
814.598	0.0177393
814.676	0.0179526
814.754	0.0178864
814.832	0.0177528
814.910	0.0177409
814.988	0.0177008
815.067	0.0177850
815.145	0.0176417
815.223	0.0176784
815.301	0.0177875
815.379	0.0177367
815.457	0.0177032
815.535	0.0176768
815.613	0.0176873
815.692	0.0176991
815.770	0.0176987
815.848	0.0177808
815.926	0.0176862
816.004	0.0175641
816.082	0.0176508
816.160	0.0178173
816.238	0.0177042
816.317	0.0177270
816.395	0.0176768
816.473	0.0175761
816.551	0.0177314
816.629	0.0177103
816.707	0.0177901
816.785	0.0177428
816.863	0.0176596
816.942	0.0177207
817.020	0.0176209
817.098	0.0177103
817.176	0.0176723
817.254	0.0176064
817.332	0.0176304
817.410	0.0176700
817.488	0.0176014
817.567	0.0176236
817.645	0.0175576
817.723	0.0176305
817.801	0.0173947
817.879	0.0175948
817.957	0.0175462
818.035	0.0173402
818.113	0.0175674
818.192	0.0174046
818.270	0.0176196
818.348	0.0175112
818.426	0.0173848
818.504	0.0174651
818.582	0.0175554
818.660	0.0174943
818.738	0.0175640
818.817	0.0174636
818.895	0.0176192
818.973	0.0175043
819.051	0.0175517
819.129	0.0175164
819.207	0.0176065
819.285	0.0174678
819.363	0.0176212
819.442	0.0177021
819.520	0.0174725
819.598	0.0175488
819.676	0.0177011
819.754	0.0175895
819.832	0.0176028
819.910	0.0175325
819.988	0.0177279
820.067	0.0173843
820.145	0.0175067
820.223	0.0175916
820.301	0.0176890
820.379	0.0176443
820.457	0.0174021
820.535	0.0174455
820.613	0.0176253
820.692	0.0175715
820.770	0.0174684
820.848	0.0174712
820.926	0.0174703
821.004	0.0175400
821.082	0.0174416
821.160	0.0174813
821.238	0.0173694
821.317	0.0173860
821.395	0.0174718
821.473	0.0174778
821.551	0.0174024
821.629	0.0174053
821.707	0.0174441
821.785	0.0175020
821.863	0.0175039
821.942	0.0174519
822.020	0.0176559
822.098	0.0174684
822.176	0.0175124
822.254	0.0174032
822.332	0.0175842
822.410	0.0175883
822.488	0.0176753
822.567	0.0176160
822.645	0.0176559
822.723	0.0175007
822.801	0.0176143
822.879	0.0175627
822.957	0.0175869
823.035	0.0175561
823.113	0.0176026
823.192	0.0176163
823.270	0.0175891
823.348	0.0175907
823.426	0.0177124
823.504	0.0176671
823.582	0.0175694
823.660	0.0175473
823.738	0.0176125
823.817	0.0176611
823.895	0.0175659
823.973	0.0176788
824.051	0.0176051
824.129	0.0176578
824.207	0.0176137
824.285	0.0176455
824.363	0.0176359
824.442	0.0175037
824.520	0.0175640
824.598	0.0176450
824.676	0.0175591
824.754	0.0176036
824.832	0.0176138
824.910	0.0177101
824.988	0.0176297
825.067	0.0175884
825.145	0.0177520
825.223	0.0176898
825.301	0.0176836
825.379	0.0174924
825.457	0.0176413
825.535	0.0176195
825.613	0.0176167
825.692	0.0174674
825.770	0.0175873
825.848	0.0175861
825.926	0.0175686
826.004	0.0175495
826.082	0.0176006
826.160	0.0176351
826.238	0.0175585
826.317	0.0174926
826.395	0.0175582
826.473	0.0175805
826.551	0.0175705
826.629	0.0175945
826.707	0.0177193
826.785	0.0176974
826.863	0.0176254
826.942	0.0176620
827.020	0.0175600
827.098	0.0177934
827.176	0.0176691
827.254	0.0176996
827.332	0.0176852
827.410	0.0175955
827.488	0.0175726
827.567	0.0177126
827.645	0.0176299
827.723	0.0176350
827.801	0.0176279
827.879	0.0176629
827.957	0.0175869
828.035	0.0177065
828.113	0.0176237
828.192	0.0176234
828.270	0.0178156
828.348	0.0176968
828.426	0.0177121
828.504	0.0176215
828.582	0.0176362
828.660	0.0176749
828.738	0.0176762
828.817	0.0175829
828.895	0.0175922
828.973	0.0176568
829.051	0.0173815
829.129	0.0174320
829.207	0.0175599
829.285	0.0174791
829.363	0.0174487
829.442	0.0173673
829.520	0.0174427
829.598	0.0173569
829.676	0.0174877
829.754	0.0174310
829.832	0.0174809
829.910	0.0175514
829.988	0.0174767
830.067	0.0174549
830.145	0.0175887
830.223	0.0176125
830.301	0.0174531
830.379	0.0175714
830.457	0.0175614
830.535	0.0175149
830.613	0.0175703
830.692	0.0176890
830.770	0.0175757
830.848	0.0176431
830.926	0.0174914
831.004	0.0175223
831.082	0.0175392
831.160	0.0175500
831.238	0.0175903
831.317	0.0175233
831.395	0.0177045
831.473	0.0176214
831.551	0.0175471
831.629	0.0175478
831.707	0.0175833
831.785	0.0175885
831.863	0.0174768
831.942	0.0176553
832.020	0.0177029
832.098	0.0176405
832.176	0.0176931
832.254	0.0177724
832.332	0.0177709
832.410	0.0177991
832.488	0.0176755
832.567	0.0176829
832.645	0.0177968
832.723	0.0177282
832.801	0.0178029
832.879	0.0175545
832.957	0.0176803
833.035	0.0176933
833.113	0.0176472
833.192	0.0176505
833.270	0.0176447
833.348	0.0175678
833.426	0.0175726
833.504	0.0175401
833.582	0.0176700
833.660	0.0175211
833.738	0.0175822
833.817	0.0175185
833.895	0.0175159
833.973	0.0176335
834.051	0.0176344
834.129	0.0176495
834.207	0.0176804
834.285	0.0176709
834.363	0.0175732
834.442	0.0176369
834.520	0.0176440
834.598	0.0174786
834.676	0.0176009
834.754	0.0175835
834.832	0.0176670
834.910	0.0176934
834.988	0.0175604
835.067	0.0176158
835.145	0.0175690
835.223	0.0176837
835.301	0.0176286
835.379	0.0177157
835.457	0.0178473
835.535	0.0177219
835.613	0.0176624
835.692	0.0176220
835.770	0.0176500
835.848	0.0177837
835.926	0.0176820
836.004	0.0177266
836.082	0.0177515
836.160	0.0177909
836.238	0.0177599
836.317	0.0177452
836.395	0.0176829
836.473	0.0178180
836.551	0.0179376
836.629	0.0177029
836.707	0.0176785
836.785	0.0177500
836.863	0.0176498
836.942	0.0177386
837.020	0.0177339
837.098	0.0176419
837.176	0.0176865
837.254	0.0176158
837.332	0.0176916
837.410	0.0176322
837.488	0.0176216
837.567	0.0176037
837.645	0.0175453
837.723	0.0175456
837.801	0.0175761
837.879	0.0174624
837.957	0.0176886
838.035	0.0175909
838.113	0.0175681
838.192	0.0175115
838.270	0.0175124
838.348	0.0175485
838.426	0.0176522
838.504	0.0176189
838.582	0.0176251
838.660	0.0177021
838.738	0.0175880
838.817	0.0176488
838.895	0.0175528
838.973	0.0177018
839.051	0.0176104
839.129	0.0175964
839.207	0.0176605
839.285	0.0177120
839.363	0.0176814
839.442	0.0175752
839.520	0.0176034
839.598	0.0175479
839.676	0.0176254
839.754	0.0176952
839.832	0.0175620
839.910	0.0174799
839.988	0.0175513
840.067	0.0177009
840.145	0.0176928
840.223	0.0176877
840.301	0.0176111
840.379	0.0176020
840.457	0.0178474
840.535	0.0176413
840.613	0.0175224
840.692	0.0175813
840.770	0.0175701
840.848	0.0176658
840.926	0.0176093
841.004	0.0175111
841.082	0.0175958
841.160	0.0176241
841.238	0.0174849
841.317	0.0176836
841.395	0.0175537
841.473	0.0175312
841.551	0.0174925
841.629	0.0175638
841.707	0.0176292
841.785	0.0175789
841.863	0.0177362
841.942	0.0176405
842.020	0.0176810
842.098	0.0174743
842.176	0.0176421
842.254	0.0176530
842.332	0.0175861
842.410	0.0176295
842.488	0.0176867
842.567	0.0174834
842.645	0.0177641
842.723	0.0175432
842.801	0.0177293
842.879	0.0176579
842.957	0.0176331
843.035	0.0176768
843.113	0.0176577
843.192	0.0176926
843.270	0.0177319
843.348	0.0177872
843.426	0.0177541
843.504	0.0176811
843.582	0.0175680
843.660	0.0176244
843.738	0.0178618
843.817	0.0177314
843.895	0.0175533
843.973	0.0175488
844.051	0.0174991
844.129	0.0176701
844.207	0.0175945
844.285	0.0176548
844.363	0.0175306
844.442	0.0176028
844.520	0.0175541
844.598	0.0175912
844.676	0.0175020
844.754	0.0174706
844.832	0.0175625
844.910	0.0176894
844.988	0.0176291
845.067	0.0176309
845.145	0.0176381
845.223	0.0175193
845.301	0.0176340
845.379	0.0176958
845.457	0.0176298
845.535	0.0176678
845.613	0.0176791
845.692	0.0177867
845.770	0.0178214
845.848	0.0176971
845.926	0.0177065
846.004	0.0177689
846.082	0.0177567
846.160	0.0176801
846.238	0.0177191
846.317	0.0178116
846.395	0.0178761
846.473	0.0179039
846.551	0.0178732
846.629	0.0177986
846.707	0.0177597
846.785	0.0178316
846.863	0.0177769
846.942	0.0178710
847.020	0.0178284
847.098	0.0177890
847.176	0.0178289
847.254	0.0177396
847.332	0.0178641
847.410	0.0178553
847.488	0.0178453
847.567	0.0178561
847.645	0.0178389
847.723	0.0176949
847.801	0.0178029
847.879	0.0176572
847.957	0.0176834
848.035	0.0177049
848.113	0.0177785
848.192	0.0179250
848.270	0.0177736
848.348	0.0177812
848.426	0.0177705
848.504	0.0177267
848.582	0.0177409
848.660	0.0178037
848.738	0.0176302
848.817	0.0177013
848.895	0.0177619
848.973	0.0176931
849.051	0.0176392
849.129	0.0176049
849.207	0.0174940
849.285	0.0175407
849.363	0.0175494
849.442	0.0175608
849.520	0.0174932
849.598	0.0176031
849.676	0.0172971
849.754	0.0174071
849.832	0.0173723
849.910	0.0173354
849.988	0.0172823
850.067	0.0172376
850.145	0.0173791
850.223	0.0173907
850.301	0.0172665
850.379	0.0172668
850.457	0.0172182
850.535	0.0173227
850.613	0.0173199
850.692	0.0172417
850.770	0.0173018
850.848	0.0173643
850.926	0.0173581
851.004	0.0173111
851.082	0.0174220
851.160	0.0175057
851.238	0.0174199
851.317	0.0175028
851.395	0.0174711
851.473	0.0175106
851.551	0.0174877
851.629	0.0176394
851.707	0.0175527
851.785	0.0175884
851.863	0.0178255
851.942	0.0176559
852.020	0.0176661
852.098	0.0177881
852.176	0.0178769
852.254	0.0176105
852.332	0.0176675
852.410	0.0176801
852.488	0.0176608
852.567	0.0176137
852.645	0.0177296
852.723	0.0177784
852.801	0.0177522
852.879	0.0176096
852.957	0.0178532
853.035	0.0177048
853.113	0.0177177
853.192	0.0178031
853.270	0.0177309
853.348	0.0177248
853.426	0.0177412
853.504	0.0177779
853.582	0.0177068
853.660	0.0178085
853.738	0.0178017
853.817	0.0176705
853.895	0.0177397
853.973	0.0178036
854.051	0.0179038
854.129	0.0179021
854.207	0.0179067
854.285	0.0178601
854.363	0.0178172
854.442	0.0179456
854.520	0.0179957
854.598	0.0180202
854.676	0.0178703
854.754	0.0179266
854.832	0.0179122
854.910	0.0179971
854.988	0.0179072
855.067	0.0178639
855.145	0.0179788
855.223	0.0178636
855.301	0.0179139
855.379	0.0177856
855.457	0.0177162
855.535	0.0177390
855.613	0.0179175
855.692	0.0177712
855.770	0.0177071
855.848	0.0177840
855.926	0.0177624
856.004	0.0177773
856.082	0.0177142
856.160	0.0177708
856.238	0.0176975
856.317	0.0178268
856.395	0.0176582
856.473	0.0176296
856.551	0.0177815
856.629	0.0176352
856.707	0.0177189
856.785	0.0176819
856.863	0.0176833
856.942	0.0176656
857.020	0.0176225
857.098	0.0175977
857.176	0.0176997
857.254	0.0176827
857.332	0.0175400
857.410	0.0176304
857.488	0.0176456
857.567	0.0175739
857.645	0.0176027
857.723	0.0177109
857.801	0.0176785
857.879	0.0176348
857.957	0.0178075
858.035	0.0177293
858.113	0.0177699
858.192	0.0177141
858.270	0.0176630
858.348	0.0176983
858.426	0.0176508
858.504	0.0176392
858.582	0.0175452
858.660	0.0177722
858.738	0.0176981
858.817	0.0175859
858.895	0.0175996
858.973	0.0176426
859.051	0.0175412
859.129	0.0176479
859.207	0.0174815
859.285	0.0175868
859.363	0.0176392
859.442	0.0176123
859.520	0.0174354
859.598	0.0175011
859.676	0.0173958
859.754	0.0175718
859.832	0.0174883
859.910	0.0173011
859.988	0.0174470
860.067	0.0175386
860.145	0.0176047
860.223	0.0174847
860.301	0.0174606
860.379	0.0174847
860.457	0.0173765
860.535	0.0174114
860.613	0.0173145
860.692	0.0173802
860.770	0.0175315
860.848	0.0174773
860.926	0.0173970
861.004	0.0173468
861.082	0.0174700
861.160	0.0174751
861.238	0.0175027
861.317	0.0175474
861.395	0.0173671
861.473	0.0174229
861.551	0.0173933
861.629	0.0173753
861.707	0.0175756
861.785	0.0174427
861.863	0.0175163
861.942	0.0175231
862.020	0.0174935
862.098	0.0174689
862.176	0.0176103
862.254	0.0175536
862.332	0.0174713
862.410	0.0175087
862.488	0.0175556
862.567	0.0175140
862.645	0.0173943
862.723	0.0176113
862.801	0.0175075
862.879	0.0176325
862.957	0.0176833
863.035	0.0176872
863.113	0.0175137
863.192	0.0174909
863.270	0.0174561
863.348	0.0175774
863.426	0.0176511
863.504	0.0176610
863.582	0.0175677
863.660	0.0176457
863.738	0.0175385
863.817	0.0175948
863.895	0.0175749
863.973	0.0174937
864.051	0.0174758
864.129	0.0174734
864.207	0.0174576
864.285	0.0172633
864.363	0.0174593
864.442	0.0173473
864.520	0.0173663
864.598	0.0174781
864.676	0.0175227
864.754	0.0174618
864.832	0.0175462
864.910	0.0174152
864.988	0.0173943
865.067	0.0174718
865.145	0.0174976
865.223	0.0173656
865.301	0.0173860
865.379	0.0174651
865.457	0.0175663
865.535	0.0174500
865.613	0.0174445
865.692	0.0173788
865.770	0.0176273
865.848	0.0174203
865.926	0.0174290
866.004	0.0175310
866.082	0.0175627
866.160	0.0175789
866.238	0.0174282
866.317	0.0174385
866.395	0.0175829
866.473	0.0175135
866.551	0.0175614
866.629	0.0175609
866.707	0.0175181
866.785	0.0175373
866.863	0.0175346
866.942	0.0175995
867.020	0.0176708
867.098	0.0175916
867.176	0.0177233
867.254	0.0174944
867.332	0.0175110
867.410	0.0176967
867.488	0.0176382
867.567	0.0175620
867.645	0.0177031
867.723	0.0176623
867.801	0.0176024
867.879	0.0175610
867.957	0.0176634
868.035	0.0176240
868.113	0.0176556
868.192	0.0176474
868.270	0.0175457
868.348	0.0176552
868.426	0.0177055
868.504	0.0176290
868.582	0.0175844
868.660	0.0176008
868.738	0.0177847
868.817	0.0177332
868.895	0.0177744
868.973	0.0176015
869.051	0.0176993
869.129	0.0176931
869.207	0.0176588
869.285	0.0176483
869.363	0.0176869
869.442	0.0177313
869.520	0.0177091
869.598	0.0176827
869.676	0.0177192
869.754	0.0176212
869.832	0.0176556
869.910	0.0177957
869.988	0.0177351
870.067	0.0176733
870.145	0.0177096
870.223	0.0177068
870.301	0.0176397
870.379	0.0177617
870.457	0.0178683
870.535	0.0177701
870.613	0.0177343
870.692	0.0177052
870.770	0.0177023
870.848	0.0178296
870.926	0.0177795
871.004	0.0179634
871.082	0.0177335
871.160	0.0176775
871.238	0.0176453
871.317	0.0178458
871.395	0.0176569
871.473	0.0176089
871.551	0.0177801
871.629	0.0176746
871.707	0.0177843
871.785	0.0177682
871.863	0.0176995
871.942	0.0177767
872.020	0.0176876
872.098	0.0178043
872.176	0.0176914
872.254	0.0177757
872.332	0.0176986
872.410	0.0177296
872.488	0.0176031
872.567	0.0176398
872.645	0.0177070
872.723	0.0175372
872.801	0.0176704
872.879	0.0175771
872.957	0.0176563
873.035	0.0176761
873.113	0.0174464
873.192	0.0177013
873.270	0.0177048
873.348	0.0174876
873.426	0.0176700
873.504	0.0177045
873.582	0.0177354
873.660	0.0177085
873.738	0.0177979
873.817	0.0176405
873.895	0.0177736
873.973	0.0178748
874.051	0.0177210
874.129	0.0177927
874.207	0.0178036
874.285	0.0178013
874.363	0.0177648
874.442	0.0178469
874.520	0.0178470
874.598	0.0178221
874.676	0.0178185
874.754	0.0178151
874.832	0.0177475
874.910	0.0176797
874.988	0.0178416
875.067	0.0179108
875.145	0.0177560
875.223	0.0178339
875.301	0.0176921
875.379	0.0178781
875.457	0.0177623
875.535	0.0176429
875.613	0.0176709
875.692	0.0177755
875.770	0.0177139
875.848	0.0178251
875.926	0.0177148
876.004	0.0177669
876.082	0.0177603
876.160	0.0178538
876.238	0.0176576
876.317	0.0174522
876.395	0.0176283
876.473	0.0176754
876.551	0.0176727
876.629	0.0175429
876.707	0.0175264
876.785	0.0175684
876.863	0.0175943
876.942	0.0175391
877.020	0.0174076
877.098	0.0174398
877.176	0.0175103
877.254	0.0174756
877.332	0.0175110
877.410	0.0175304
877.488	0.0176900
877.567	0.0176820
877.645	0.0174608
877.723	0.0173951
877.801	0.0174760
877.879	0.0175253
877.957	0.0175006
878.035	0.0174828
878.113	0.0176010
878.192	0.0175301
878.270	0.0175259
878.348	0.0176395
878.426	0.0175351
878.504	0.0175414
878.582	0.0176880
878.660	0.0176042
878.738	0.0175132
878.817	0.0177414
878.895	0.0176042
878.973	0.0174934
879.051	0.0176700
879.129	0.0176656
879.207	0.0176582
879.285	0.0176154
879.363	0.0176304
879.442	0.0176609
879.520	0.0177035
879.598	0.0176427
879.676	0.0176811
879.754	0.0176775
879.832	0.0176736
879.910	0.0175166
879.988	0.0175047
880.067	0.0174916
880.145	0.0175070
880.223	0.0175547
880.301	0.0174348
880.379	0.0174940
880.457	0.0175932
880.535	0.0174720
880.613	0.0175423
880.692	0.0174670
880.770	0.0174234
880.848	0.0175025
880.926	0.0174606
881.004	0.0175182
881.082	0.0176260
881.160	0.0174523
881.238	0.0175410
881.317	0.0175669
881.395	0.0174702
881.473	0.0175912
881.551	0.0175413
881.629	0.0175818
881.707	0.0176365
881.785	0.0174807
881.863	0.0175174
881.942	0.0176438
882.020	0.0175089
882.098	0.0176055
882.176	0.0176589
882.254	0.0176778
882.332	0.0175802
882.410	0.0174230
882.488	0.0176178
882.567	0.0175205
882.645	0.0174869
882.723	0.0174366
882.801	0.0176007
882.879	0.0175672
882.957	0.0176416
883.035	0.0175336
883.113	0.0176317
883.192	0.0174834
883.270	0.0174632
883.348	0.0175986
883.426	0.0174870
883.504	0.0176114
883.582	0.0176143
883.660	0.0175549
883.738	0.0175047
883.817	0.0175288
883.895	0.0174366
883.973	0.0174924
884.051	0.0174754
884.129	0.0174895
884.207	0.0174207
884.285	0.0175535
884.363	0.0174829
884.442	0.0173959
884.520	0.0174541
884.598	0.0173312
884.676	0.0174374
884.754	0.0174525
884.832	0.0174932
884.910	0.0175714
884.988	0.0174444
885.067	0.0174624
885.145	0.0174364
885.223	0.0174681
885.301	0.0174978
885.379	0.0175446
885.457	0.0175034
885.535	0.0175114
885.613	0.0175658
885.692	0.0174934
885.770	0.0174719
885.848	0.0176579
885.926	0.0176347
886.004	0.0174986
886.082	0.0175410
886.160	0.0176022
886.238	0.0176748
886.317	0.0176240
886.395	0.0175214
886.473	0.0177377
886.551	0.0176768
886.629	0.0176668
886.707	0.0176096
886.785	0.0177056
886.863	0.0176364
886.942	0.0176101
887.020	0.0177956
887.098	0.0176311
887.176	0.0176504
887.254	0.0175623
887.332	0.0176130
887.410	0.0176797
887.488	0.0176150
887.567	0.0176321
887.645	0.0178146
887.723	0.0174764
887.801	0.0176037
887.879	0.0174393
887.957	0.0174943
888.035	0.0175333
888.113	0.0177009
888.192	0.0175128
888.270	0.0175435
888.348	0.0175357
888.426	0.0176493
888.504	0.0176209
888.582	0.0176253
888.660	0.0175188
888.738	0.0174339
888.817	0.0176691
888.895	0.0175519
888.973	0.0175591
889.051	0.0174454
889.129	0.0175658
889.207	0.0174583
889.285	0.0175994
889.363	0.0175574
889.442	0.0175491
889.520	0.0175322
889.598	0.0175902
889.676	0.0175690
889.754	0.0176221
889.832	0.0175584
889.910	0.0176746
889.988	0.0176984
890.067	0.0176686
890.145	0.0176246
890.223	0.0176633
890.301	0.0177155
890.379	0.0176984
890.457	0.0176572
890.535	0.0175414
890.613	0.0175832
890.692	0.0177431
890.770	0.0175736
890.848	0.0176367
890.926	0.0176182
891.004	0.0176433
891.082	0.0177071
891.160	0.0175695
891.238	0.0177023
891.317	0.0175920
891.395	0.0175998
891.473	0.0175958
891.551	0.0177399
891.629	0.0174724
891.707	0.0175437
891.785	0.0176286
891.863	0.0175726
891.942	0.0175344
892.020	0.0173505
892.098	0.0174494
892.176	0.0174831
892.254	0.0174732
892.332	0.0175701
892.410	0.0175454
892.488	0.0175208
892.567	0.0175686
892.645	0.0175383
892.723	0.0175523
892.801	0.0175973
892.879	0.0175414
892.957	0.0174749
893.035	0.0174923
893.113	0.0174836
893.192	0.0176328
893.270	0.0175462
893.348	0.0175302
893.426	0.0176668
893.504	0.0174525
893.582	0.0174564
893.660	0.0175544
893.738	0.0175751
893.817	0.0176344
893.895	0.0176231
893.973	0.0175379
894.051	0.0174612
894.129	0.0175141
894.207	0.0176227
894.285	0.0176149
894.363	0.0175214
894.442	0.0176015
894.520	0.0174921
894.598	0.0175330
894.676	0.0173889
894.754	0.0175878
894.832	0.0178268
894.910	0.0176351
894.988	0.0176141
895.067	0.0176313
895.145	0.0175822
895.223	0.0176466
895.301	0.0175901
895.379	0.0175665
895.457	0.0175743
895.535	0.0176379
895.613	0.0176149
895.692	0.0177171
895.770	0.0176182
895.848	0.0175792
895.926	0.0176843
896.004	0.0177186
896.082	0.0176232
896.160	0.0175577
896.238	0.0177187
896.317	0.0175821
896.395	0.0175243
896.473	0.0176694
896.551	0.0175302
896.629	0.0176736
896.707	0.0177006
896.785	0.0175578
896.863	0.0177722
896.942	0.0175673
897.020	0.0176569
897.098	0.0175464
897.176	0.0176177
897.254	0.0176557
897.332	0.0176520
897.410	0.0176094
897.488	0.0177891
897.567	0.0176308
897.645	0.0176474
897.723	0.0176833
897.801	0.0177138
897.879	0.0177390
897.957	0.0177213
898.035	0.0177908
898.113	0.0175922
898.192	0.0176197
898.270	0.0178322
898.348	0.0176823
898.426	0.0177115
898.504	0.0177325
898.582	0.0176853
898.660	0.0177042
898.738	0.0175355
898.817	0.0175845
898.895	0.0176726
898.973	0.0177255
899.051	0.0175491
899.129	0.0177462
899.207	0.0177097
899.285	0.0176968
899.363	0.0176299
899.442	0.0177284
899.520	0.0176361
899.598	0.0177332
899.676	0.0176770
899.754	0.0176514
899.832	0.0177010
899.910	0.0177345
899.988	0.0176431
900.067	0.0177158
900.145	0.0176883
900.223	0.0177222
900.301	0.0176856
900.379	0.0177500
900.457	0.0177277
900.535	0.0175789
900.613	0.0177080
900.692	0.0177371
900.770	0.0177192
900.848	0.0178154
900.926	0.0176279
901.004	0.0177367
901.082	0.0176877
901.160	0.0176605
901.238	0.0177042
901.317	0.0176963
901.395	0.0176388
901.473	0.0177115
901.551	0.0177544
901.629	0.0176257
901.707	0.0175972
901.785	0.0177200
901.863	0.0176579
901.942	0.0174345
902.020	0.0176182
902.098	0.0176701
902.176	0.0175693
902.254	0.0177025
902.332	0.0175594
902.410	0.0174284
902.488	0.0175683
902.567	0.0176469
902.645	0.0174609
902.723	0.0173978
902.801	0.0174067
902.879	0.0174630
902.957	0.0174491
903.035	0.0174118
903.113	0.0174586
903.192	0.0173055
903.270	0.0174145
903.348	0.0174059
903.426	0.0174619
903.504	0.0174069
903.582	0.0173500
903.660	0.0175515
903.738	0.0173833
903.817	0.0173967
903.895	0.0174423
903.973	0.0173756
904.051	0.0174117
904.129	0.0174216
904.207	0.0173769
904.285	0.0174001
904.363	0.0174173
904.442	0.0173096
904.520	0.0174784
904.598	0.0173595
904.676	0.0174304
904.754	0.0174081
904.832	0.0173913
904.910	0.0173001
904.988	0.0172894
905.067	0.0173289
905.145	0.0173173
905.223	0.0174854
905.301	0.0175876
905.379	0.0173402
905.457	0.0173244
905.535	0.0175169
905.613	0.0173832
905.692	0.0174856
905.770	0.0174818
905.848	0.0174783
905.926	0.0176277
906.004	0.0175531
906.082	0.0175841
906.160	0.0176003
906.238	0.0176130
906.317	0.0175893
906.395	0.0176221
906.473	0.0177071
906.551	0.0175496
906.629	0.0176645
906.707	0.0176871
906.785	0.0176683
906.863	0.0178059
906.942	0.0177451
907.020	0.0177632
907.098	0.0177501
907.176	0.0177512
907.254	0.0176907
907.332	0.0175980
907.410	0.0176492
907.488	0.0177095
907.567	0.0176378
907.645	0.0176006
907.723	0.0177168
907.801	0.0175426
907.879	0.0176598
907.957	0.0176563
908.035	0.0175636
908.113	0.0175815
908.192	0.0175591
908.270	0.0174966
908.348	0.0176086
908.426	0.0175411
908.504	0.0176092
908.582	0.0176160
908.660	0.0176143
908.738	0.0175826
908.817	0.0174463
908.895	0.0175932
908.973	0.0174592
909.051	0.0175523
909.129	0.0175301
909.207	0.0176139
909.285	0.0173854
909.363	0.0174700
909.442	0.0174657
909.520	0.0175278
909.598	0.0175529
909.676	0.0175658
909.754	0.0175967
909.832	0.0174660
909.910	0.0174253
909.988	0.0175301
910.067	0.0176912
910.145	0.0176733
910.223	0.0176215
910.301	0.0177117
910.379	0.0176614
910.457	0.0176682
910.535	0.0176181
910.613	0.0174340
910.692	0.0175555
910.770	0.0176390
910.848	0.0175961
910.926	0.0177120
911.004	0.0177486
911.082	0.0175431
911.160	0.0176785
911.238	0.0176682
911.317	0.0176468
911.395	0.0176642
911.473	0.0175990
911.551	0.0176808
911.629	0.0177376
911.707	0.0176481
911.785	0.0176439
911.863	0.0175905
911.942	0.0177013
912.020	0.0177870
912.098	0.0176793
912.176	0.0176349
912.254	0.0176206
912.332	0.0177147
912.410	0.0176991
912.488	0.0175349
912.567	0.0176051
912.645	0.0176164
912.723	0.0176981
912.801	0.0177548
912.879	0.0175278
912.957	0.0177025
913.035	0.0177658
913.113	0.0176360
913.192	0.0177789
913.270	0.0176300
913.348	0.0177095
913.426	0.0176954
913.504	0.0177081
913.582	0.0174847
913.660	0.0175394
913.738	0.0177212
913.817	0.0176323
913.895	0.0176722
913.973	0.0177553
914.051	0.0177627
914.129	0.0176622
914.207	0.0177841
914.285	0.0176872
914.363	0.0177763
914.442	0.0176281
914.520	0.0176820
914.598	0.0176371
914.676	0.0176022
914.754	0.0175379
914.832	0.0176064
914.910	0.0176636
914.988	0.0176363
915.067	0.0175687
915.145	0.0174823
915.223	0.0175188
915.301	0.0176652
915.379	0.0175968
915.457	0.0175809
915.535	0.0175782
915.613	0.0174971
915.692	0.0175324
915.770	0.0176021
915.848	0.0175308
915.926	0.0175456
916.004	0.0174209
916.082	0.0175353
916.160	0.0175665
916.238	0.0175165
916.317	0.0175079
916.395	0.0176729
916.473	0.0175478
916.551	0.0175190
916.629	0.0175710
916.707	0.0177029
916.785	0.0174747
916.863	0.0174816
916.942	0.0174624
917.020	0.0175680
917.098	0.0176742
917.176	0.0175217
917.254	0.0175822
917.332	0.0174434
917.410	0.0175613
917.488	0.0176424
917.567	0.0175956
917.645	0.0175488
917.723	0.0176389
917.801	0.0175974
917.879	0.0175891
917.957	0.0176259
918.035	0.0175734
918.113	0.0174911
918.192	0.0175616
918.270	0.0175490
918.348	0.0175912
918.426	0.0176729
918.504	0.0174944
918.582	0.0174737
918.660	0.0175238
918.738	0.0174477
918.817	0.0174799
918.895	0.0175281
918.973	0.0176392
919.051	0.0175605
919.129	0.0176752
919.207	0.0175904
919.285	0.0174700
919.363	0.0177457
919.442	0.0177206
919.520	0.0177174
919.598	0.0175304
919.676	0.0176870
919.754	0.0177427
919.832	0.0175897
919.910	0.0176385
