06/01/2022	22:12:39	Ver.	4.1	UNKNOWN
Optical Delay	599.988409	Delta X		0.078125	Sweeps	1	Scan Rate	0/0
Coordinates	Axis 1	NaN	Axis 2	NaN	Axis 3	NaN	Axis 4	NaN	Axis 5	NaN	Axis 6	0.000000
TX Power	0.000000	RX Power	0.000000

599.988	0.0179727
600.067	0.0178321
600.145	0.0178711
600.223	0.0177195
600.301	0.0177877
600.379	0.0179321
600.457	0.0177991
600.535	0.0177568
600.613	0.0178548
600.692	0.0179269
600.770	0.0178619
600.848	0.0178358
600.926	0.0177703
601.004	0.0177653
601.082	0.0178815
601.160	0.0179346
601.238	0.0178606
601.317	0.0176688
601.395	0.0177891
601.473	0.0178078
601.551	0.0178071
601.629	0.0177824
601.707	0.0177482
601.785	0.0176396
601.863	0.0177452
601.942	0.0177453
602.020	0.0176875
602.098	0.0177394
602.176	0.0176983
602.254	0.0176703
602.332	0.0178025
602.410	0.0178088
602.488	0.0178674
602.567	0.0178115
602.645	0.0177091
602.723	0.0177129
602.801	0.0177528
602.879	0.0178536
602.957	0.0176823
603.035	0.0177072
603.113	0.0176382
603.192	0.0177452
603.270	0.0177481
603.348	0.0177221
603.426	0.0176744
603.504	0.0177486
603.582	0.0175663
603.660	0.0177412
603.738	0.0177277
603.817	0.0176488
603.895	0.0176681
603.973	0.0177936
604.051	0.0178763
604.129	0.0176968
604.207	0.0176044
604.285	0.0177856
604.363	0.0178711
604.442	0.0178884
604.520	0.0178390
604.598	0.0176745
604.676	0.0178124
604.754	0.0178942
604.832	0.0178307
604.910	0.0178758
604.988	0.0179987
605.067	0.0179372
605.145	0.0179267
605.223	0.0178388
605.301	0.0178785
605.379	0.0178951
605.457	0.0178114
605.535	0.0179279
605.613	0.0179365
605.692	0.0178548
605.770	0.0178220
605.848	0.0179272
605.926	0.0179280
606.004	0.0178986
606.082	0.0178612
606.160	0.0180211
606.238	0.0180133
606.317	0.0180814
606.395	0.0179237
606.473	0.0179150
606.551	0.0180233
606.629	0.0180550
606.707	0.0180377
606.785	0.0179636
606.863	0.0179986
606.942	0.0178786
607.020	0.0181588
607.098	0.0180692
607.176	0.0180972
607.254	0.0180942
607.332	0.0180222
607.410	0.0180872
607.488	0.0179840
607.567	0.0180486
607.645	0.0180593
607.723	0.0180649
607.801	0.0179931
607.879	0.0179095
607.957	0.0180293
608.035	0.0181150
608.113	0.0180396
608.192	0.0179826
608.270	0.0180092
608.348	0.0180211
608.426	0.0180384
608.504	0.0181165
608.582	0.0180804
608.660	0.0179645
608.738	0.0180495
608.817	0.0181915
608.895	0.0180418
608.973	0.0180202
609.051	0.0181396
609.129	0.0180947
609.207	0.0181079
609.285	0.0181755
609.363	0.0181148
609.442	0.0181242
609.520	0.0180742
609.598	0.0180802
609.676	0.0181695
609.754	0.0180794
609.832	0.0181090
609.910	0.0181608
609.988	0.0179988
610.067	0.0181044
610.145	0.0181567
610.223	0.0180134
610.301	0.0180865
610.379	0.0180224
610.457	0.0180531
610.535	0.0180378
610.613	0.0181149
610.692	0.0181294
610.770	0.0181466
610.848	0.0181261
610.926	0.0180997
611.004	0.0181362
611.082	0.0181477
611.160	0.0181081
611.238	0.0181610
611.317	0.0179603
611.395	0.0179510
611.473	0.0179219
611.551	0.0180785
611.629	0.0180289
611.707	0.0180865
611.785	0.0179277
611.863	0.0180127
611.942	0.0180535
612.020	0.0178712
612.098	0.0179416
612.176	0.0180753
612.254	0.0180229
612.332	0.0179922
612.410	0.0179453
612.488	0.0179549
612.567	0.0180921
612.645	0.0179127
612.723	0.0181305
612.801	0.0181524
612.879	0.0181293
612.957	0.0181065
613.035	0.0180363
613.113	0.0180325
613.192	0.0180463
613.270	0.0181118
613.348	0.0181335
613.426	0.0180067
613.504	0.0180350
613.582	0.0180782
613.660	0.0180283
613.738	0.0181199
613.817	0.0179385
613.895	0.0180759
613.973	0.0180268
614.051	0.0180506
614.129	0.0179397
614.207	0.0179148
614.285	0.0180927
614.363	0.0181019
614.442	0.0180888
614.520	0.0179696
614.598	0.0177837
614.676	0.0179545
614.754	0.0179171
614.832	0.0179396
614.910	0.0179505
614.988	0.0179176
615.067	0.0179668
615.145	0.0179084
615.223	0.0180823
615.301	0.0178726
615.379	0.0178911
615.457	0.0179024
615.535	0.0178840
615.613	0.0180071
615.692	0.0179098
615.770	0.0179134
615.848	0.0177718
615.926	0.0178943
616.004	0.0179008
616.082	0.0180028
616.160	0.0179188
616.238	0.0178351
616.317	0.0178387
616.395	0.0178203
616.473	0.0180325
616.551	0.0179802
616.629	0.0179248
616.707	0.0179165
616.785	0.0179677
616.863	0.0179487
616.942	0.0178926
617.020	0.0179354
617.098	0.0179269
617.176	0.0178459
617.254	0.0178520
617.332	0.0178959
617.410	0.0179684
617.488	0.0179015
617.567	0.0178592
617.645	0.0178171
617.723	0.0178094
617.801	0.0178077
617.879	0.0178273
617.957	0.0178615
618.035	0.0177692
618.113	0.0180110
618.192	0.0180141
618.270	0.0179494
618.348	0.0179367
618.426	0.0176157
618.504	0.0180190
618.582	0.0179420
618.660	0.0179610
618.738	0.0178371
618.817	0.0178895
618.895	0.0179626
618.973	0.0179504
619.051	0.0180402
619.129	0.0181284
619.207	0.0181748
619.285	0.0182083
619.363	0.0179786
619.442	0.0179993
619.520	0.0180659
619.598	0.0180050
619.676	0.0181880
619.754	0.0181886
619.832	0.0179954
619.910	0.0182254
619.988	0.0182211
620.067	0.0182927
620.145	0.0180266
620.223	0.0181447
620.301	0.0181761
620.379	0.0179575
620.457	0.0181440
620.535	0.0180308
620.613	0.0179163
620.692	0.0180004
620.770	0.0179718
620.848	0.0180904
620.926	0.0180865
621.004	0.0179820
621.082	0.0180684
621.160	0.0178842
621.238	0.0179391
621.317	0.0179446
621.395	0.0179838
621.473	0.0180192
621.551	0.0181052
621.629	0.0179809
621.707	0.0179168
621.785	0.0180223
621.863	0.0178191
621.942	0.0179389
622.020	0.0178905
622.098	0.0178645
622.176	0.0177772
622.254	0.0178219
622.332	0.0179623
622.410	0.0179023
622.488	0.0178652
622.567	0.0177701
622.645	0.0177990
622.723	0.0178246
622.801	0.0178613
622.879	0.0177862
622.957	0.0178986
623.035	0.0178373
623.113	0.0178510
623.192	0.0177866
623.270	0.0178310
623.348	0.0179150
623.426	0.0178286
623.504	0.0178198
623.582	0.0178660
623.660	0.0178082
623.738	0.0178474
623.817	0.0177637
623.895	0.0176318
623.973	0.0176813
624.051	0.0177985
624.129	0.0180124
624.207	0.0178118
624.285	0.0177682
624.363	0.0178748
624.442	0.0177898
624.520	0.0177354
624.598	0.0178010
624.676	0.0177504
624.754	0.0178223
624.832	0.0178331
624.910	0.0177795
624.988	0.0179135
625.067	0.0177628
625.145	0.0179027
625.223	0.0178527
625.301	0.0177906
625.379	0.0177631
625.457	0.0179977
625.535	0.0178492
625.613	0.0178630
625.692	0.0178549
625.770	0.0178911
625.848	0.0176997
625.926	0.0178822
626.004	0.0178156
626.082	0.0177471
626.160	0.0178942
626.238	0.0177719
626.317	0.0178824
626.395	0.0179189
626.473	0.0178412
626.551	0.0178739
626.629	0.0179601
626.707	0.0178234
626.785	0.0178808
626.863	0.0177753
626.942	0.0179399
627.020	0.0178011
627.098	0.0179284
627.176	0.0179104
627.254	0.0179177
627.332	0.0178899
627.410	0.0180267
627.488	0.0178634
627.567	0.0178568
627.645	0.0178352
627.723	0.0179196
627.801	0.0179447
627.879	0.0178707
627.957	0.0180533
628.035	0.0178754
628.113	0.0179137
628.192	0.0180358
628.270	0.0178268
628.348	0.0178275
628.426	0.0179156
628.504	0.0179569
628.582	0.0177273
628.660	0.0179475
628.738	0.0179775
628.817	0.0179217
628.895	0.0179018
628.973	0.0178910
629.051	0.0178915
629.129	0.0178746
629.207	0.0179269
629.285	0.0179137
629.363	0.0178600
629.442	0.0179082
629.520	0.0179713
629.598	0.0178273
629.676	0.0179939
629.754	0.0180099
629.832	0.0179282
629.910	0.0178896
629.988	0.0179144
630.067	0.0178364
630.145	0.0178606
630.223	0.0179517
630.301	0.0178915
630.379	0.0178634
630.457	0.0178892
630.535	0.0177779
630.613	0.0178127
630.692	0.0178429
630.770	0.0177619
630.848	0.0178900
630.926	0.0179836
631.004	0.0178793
631.082	0.0178938
631.160	0.0181104
631.238	0.0178517
631.317	0.0178938
631.395	0.0179693
631.473	0.0179791
631.551	0.0180624
631.629	0.0181038
631.707	0.0180138
631.785	0.0179373
631.863	0.0178606
631.942	0.0178855
632.020	0.0180932
632.098	0.0179881
632.176	0.0178495
632.254	0.0178884
632.332	0.0178545
632.410	0.0179242
632.488	0.0179298
632.567	0.0178458
632.645	0.0179074
632.723	0.0179410
632.801	0.0179351
632.879	0.0179823
632.957	0.0179646
633.035	0.0179288
633.113	0.0179351
633.192	0.0179151
633.270	0.0178227
633.348	0.0179990
633.426	0.0179091
633.504	0.0179313
633.582	0.0176552
633.660	0.0177202
633.738	0.0179009
633.817	0.0178933
633.895	0.0179649
633.973	0.0177827
634.051	0.0179090
634.129	0.0178377
634.207	0.0178338
634.285	0.0180175
634.363	0.0179605
634.442	0.0179494
634.520	0.0179269
634.598	0.0180128
634.676	0.0178777
634.754	0.0179403
634.832	0.0179411
634.910	0.0178362
634.988	0.0178682
635.067	0.0179018
635.145	0.0179148
635.223	0.0178879
635.301	0.0179571
635.379	0.0179288
635.457	0.0178801
635.535	0.0179050
635.613	0.0179350
635.692	0.0179288
635.770	0.0180216
635.848	0.0180134
635.926	0.0178926
636.004	0.0178587
636.082	0.0178661
636.160	0.0178289
636.238	0.0178469
636.317	0.0179237
636.395	0.0180660
636.473	0.0180016
636.551	0.0179490
636.629	0.0177783
636.707	0.0179594
636.785	0.0180116
636.863	0.0179377
636.942	0.0179536
637.020	0.0180791
637.098	0.0178463
637.176	0.0178494
637.254	0.0179068
637.332	0.0177956
637.410	0.0177702
637.488	0.0179277
637.567	0.0179388
637.645	0.0180109
637.723	0.0179362
637.801	0.0178747
637.879	0.0179374
637.957	0.0179858
638.035	0.0179031
638.113	0.0178293
638.192	0.0179092
638.270	0.0178769
638.348	0.0178572
638.426	0.0179926
638.504	0.0177603
638.582	0.0179245
638.660	0.0179503
638.738	0.0178136
638.817	0.0180145
638.895	0.0178912
638.973	0.0178725
639.051	0.0177911
639.129	0.0178660
639.207	0.0178981
639.285	0.0177933
639.363	0.0179175
639.442	0.0178993
639.520	0.0177287
639.598	0.0176987
639.676	0.0178889
639.754	0.0179761
639.832	0.0179192
639.910	0.0179144
639.988	0.0178065
640.067	0.0179446
640.145	0.0178030
640.223	0.0179126
640.301	0.0178651
640.379	0.0178638
640.457	0.0179556
640.535	0.0179294
640.613	0.0179301
640.692	0.0178621
640.770	0.0177806
640.848	0.0179155
640.926	0.0179179
641.004	0.0178592
641.082	0.0178198
641.160	0.0176962
641.238	0.0177959
641.317	0.0179852
641.395	0.0178680
641.473	0.0179299
641.551	0.0178671
641.629	0.0178718
641.707	0.0178404
641.785	0.0179295
641.863	0.0179903
641.942	0.0180506
642.020	0.0180643
642.098	0.0180219
642.176	0.0179083
642.254	0.0179429
642.332	0.0180117
642.410	0.0178915
642.488	0.0179914
642.567	0.0179423
642.645	0.0179725
642.723	0.0180330
642.801	0.0179153
642.879	0.0178940
642.957	0.0178582
643.035	0.0180865
643.113	0.0179515
643.192	0.0179263
643.270	0.0180034
643.348	0.0178990
643.426	0.0179929
643.504	0.0178864
643.582	0.0180099
643.660	0.0179165
643.738	0.0178902
643.817	0.0179203
643.895	0.0177795
643.973	0.0179316
644.051	0.0177292
644.129	0.0177927
644.207	0.0179510
644.285	0.0177995
644.363	0.0177736
644.442	0.0179370
644.520	0.0179144
644.598	0.0177938
644.676	0.0178660
644.754	0.0180212
644.832	0.0178869
644.910	0.0179824
644.988	0.0180122
645.067	0.0179639
645.145	0.0178986
645.223	0.0180104
645.301	0.0179787
645.379	0.0180099
645.457	0.0181573
645.535	0.0180103
645.613	0.0179582
645.692	0.0181928
645.770	0.0180932
645.848	0.0181985
645.926	0.0180368
646.004	0.0180191
646.082	0.0180381
646.160	0.0182014
646.238	0.0181169
646.317	0.0181475
646.395	0.0180665
646.473	0.0178642
646.551	0.0180356
646.629	0.0181480
646.707	0.0179769
646.785	0.0179183
646.863	0.0180182
646.942	0.0178607
647.020	0.0179269
647.098	0.0179507
647.176	0.0179809
647.254	0.0178858
647.332	0.0178093
647.410	0.0178961
647.488	0.0179250
647.567	0.0178187
647.645	0.0178112
647.723	0.0178905
647.801	0.0179692
647.879	0.0177743
647.957	0.0177901
648.035	0.0178053
648.113	0.0177106
648.192	0.0179055
648.270	0.0179525
648.348	0.0177650
648.426	0.0177944
648.504	0.0176274
648.582	0.0177906
648.660	0.0178165
648.738	0.0178630
648.817	0.0177940
648.895	0.0177673
648.973	0.0179045
649.051	0.0178147
649.129	0.0179194
649.207	0.0180794
649.285	0.0178752
649.363	0.0180790
649.442	0.0180696
649.520	0.0179768
649.598	0.0179652
649.676	0.0179745
649.754	0.0180500
649.832	0.0180864
649.910	0.0180297
649.988	0.0180847
650.067	0.0181103
650.145	0.0179011
650.223	0.0180104
650.301	0.0178842
650.379	0.0178453
650.457	0.0178526
650.535	0.0180044
650.613	0.0178951
650.692	0.0180439
650.770	0.0179319
650.848	0.0179364
650.926	0.0179859
651.004	0.0179833
651.082	0.0178320
651.160	0.0177110
651.238	0.0177673
651.317	0.0177428
651.395	0.0177711
651.473	0.0177164
651.551	0.0177930
651.629	0.0177648
651.707	0.0178263
651.785	0.0177886
651.863	0.0176198
651.942	0.0176038
652.020	0.0178172
652.098	0.0177186
652.176	0.0177417
652.254	0.0177532
652.332	0.0177959
652.410	0.0177747
652.488	0.0177960
652.567	0.0178428
652.645	0.0177677
652.723	0.0179857
652.801	0.0180036
652.879	0.0178486
652.957	0.0178259
653.035	0.0179331
653.113	0.0180844
653.192	0.0179903
653.270	0.0180029
653.348	0.0180520
653.426	0.0180511
653.504	0.0179991
653.582	0.0178844
653.660	0.0179113
653.738	0.0180207
653.817	0.0180933
653.895	0.0179626
653.973	0.0181503
654.051	0.0179745
654.129	0.0180255
654.207	0.0179305
654.285	0.0179877
654.363	0.0179223
654.442	0.0180015
654.520	0.0179715
654.598	0.0181001
654.676	0.0179289
654.754	0.0180385
654.832	0.0180785
654.910	0.0179972
654.988	0.0180730
655.067	0.0181898
655.145	0.0180013
655.223	0.0179013
655.301	0.0179893
655.379	0.0180289
655.457	0.0180434
655.535	0.0180322
655.613	0.0180132
655.692	0.0180540
655.770	0.0179754
655.848	0.0180309
655.926	0.0179476
656.004	0.0180795
656.082	0.0179491
656.160	0.0179787
656.238	0.0180413
656.317	0.0181367
656.395	0.0179195
656.473	0.0180804
656.551	0.0179887
656.629	0.0179392
656.707	0.0180621
656.785	0.0179873
656.863	0.0181355
656.942	0.0179676
657.020	0.0178931
657.098	0.0178556
657.176	0.0181108
657.254	0.0180112
657.332	0.0179416
657.410	0.0178745
657.488	0.0179353
657.567	0.0179146
657.645	0.0179510
657.723	0.0179486
657.801	0.0178887
657.879	0.0178973
657.957	0.0179771
658.035	0.0178940
658.113	0.0179494
658.192	0.0179259
658.270	0.0178454
658.348	0.0179391
658.426	0.0179529
658.504	0.0179062
658.582	0.0179539
658.660	0.0179023
658.738	0.0177866
658.817	0.0178353
658.895	0.0178812
658.973	0.0178304
659.051	0.0179068
659.129	0.0177838
659.207	0.0178156
659.285	0.0179222
659.363	0.0179639
659.442	0.0179889
659.520	0.0178918
659.598	0.0177758
659.676	0.0178362
659.754	0.0180568
659.832	0.0179559
659.910	0.0179577
659.988	0.0180022
660.067	0.0179897
660.145	0.0179832
660.223	0.0179442
660.301	0.0180386
660.379	0.0180811
660.457	0.0179539
660.535	0.0179600
660.613	0.0179893
660.692	0.0179864
660.770	0.0179928
660.848	0.0179374
660.926	0.0179009
661.004	0.0178661
661.082	0.0179906
661.160	0.0178233
661.238	0.0178590
661.317	0.0177756
661.395	0.0179184
661.473	0.0178037
661.551	0.0178866
661.629	0.0179196
661.707	0.0178875
661.785	0.0178529
661.863	0.0177518
661.942	0.0179126
662.020	0.0178974
662.098	0.0178596
662.176	0.0178488
662.254	0.0177499
662.332	0.0180164
662.410	0.0179503
662.488	0.0179223
662.567	0.0178109
662.645	0.0178493
662.723	0.0178979
662.801	0.0178220
662.879	0.0178073
662.957	0.0179578
663.035	0.0179453
663.113	0.0179366
663.192	0.0179441
663.270	0.0178490
663.348	0.0178364
663.426	0.0179356
663.504	0.0179140
663.582	0.0179423
663.660	0.0177333
663.738	0.0177702
663.817	0.0178360
663.895	0.0179329
663.973	0.0177354
664.051	0.0179114
664.129	0.0177555
664.207	0.0178488
664.285	0.0177252
664.363	0.0177128
664.442	0.0178284
664.520	0.0179700
664.598	0.0178777
664.676	0.0178043
664.754	0.0177284
664.832	0.0179541
664.910	0.0178059
664.988	0.0178478
665.067	0.0179810
665.145	0.0177119
665.223	0.0178127
665.301	0.0178900
665.379	0.0177639
665.457	0.0178642
665.535	0.0178283
665.613	0.0179928
665.692	0.0179935
665.770	0.0178202
665.848	0.0179563
665.926	0.0179858
666.004	0.0179441
666.082	0.0179713
666.160	0.0178283
666.238	0.0179804
666.317	0.0179015
666.395	0.0179025
666.473	0.0178691
666.551	0.0179052
666.629	0.0179101
666.707	0.0178513
666.785	0.0178973
666.863	0.0179479
666.942	0.0178844
667.020	0.0179933
667.098	0.0179881
667.176	0.0178632
667.254	0.0178710
667.332	0.0179492
667.410	0.0179877
667.488	0.0179960
667.567	0.0179298
667.645	0.0179178
667.723	0.0180470
667.801	0.0180139
667.879	0.0179327
667.957	0.0180215
668.035	0.0180805
668.113	0.0180205
668.192	0.0180560
668.270	0.0180450
668.348	0.0180434
668.426	0.0180409
668.504	0.0179648
668.582	0.0181546
668.660	0.0181133
668.738	0.0178301
668.817	0.0179713
668.895	0.0179067
668.973	0.0179658
669.051	0.0179076
669.129	0.0180213
669.207	0.0179508
669.285	0.0179225
669.363	0.0178802
669.442	0.0177370
669.520	0.0178838
669.598	0.0178900
669.676	0.0179211
669.754	0.0177979
669.832	0.0177726
669.910	0.0178873
669.988	0.0179261
670.067	0.0178496
670.145	0.0179844
670.223	0.0179826
670.301	0.0180299
670.379	0.0178763
670.457	0.0180634
670.535	0.0181312
670.613	0.0181383
670.692	0.0179449
670.770	0.0180919
670.848	0.0180843
670.926	0.0180997
671.004	0.0180947
671.082	0.0179173
671.160	0.0180341
671.238	0.0180802
671.317	0.0180044
671.395	0.0180554
671.473	0.0181500
671.551	0.0180571
671.629	0.0180561
671.707	0.0180754
671.785	0.0179664
671.863	0.0180311
671.942	0.0179916
672.020	0.0180096
672.098	0.0179237
672.176	0.0179322
672.254	0.0180328
672.332	0.0178983
672.410	0.0179594
672.488	0.0178959
672.567	0.0179552
672.645	0.0181280
672.723	0.0180220
672.801	0.0179368
672.879	0.0179936
672.957	0.0180019
673.035	0.0179317
673.113	0.0179772
673.192	0.0180258
673.270	0.0179485
673.348	0.0180794
673.426	0.0181130
673.504	0.0180804
673.582	0.0179266
673.660	0.0179922
673.738	0.0180411
673.817	0.0181609
673.895	0.0179317
673.973	0.0180157
674.051	0.0180017
674.129	0.0179553
674.207	0.0180670
674.285	0.0179767
674.363	0.0179455
674.442	0.0179372
674.520	0.0179562
674.598	0.0180954
674.676	0.0179523
674.754	0.0179253
674.832	0.0179844
674.910	0.0179671
674.988	0.0180215
675.067	0.0179150
675.145	0.0178441
675.223	0.0179796
675.301	0.0180937
675.379	0.0180936
675.457	0.0180756
675.535	0.0180819
675.613	0.0179221
675.692	0.0180212
675.770	0.0182010
675.848	0.0180855
675.926	0.0179971
676.004	0.0179449
676.082	0.0180274
676.160	0.0179787
676.238	0.0180766
676.317	0.0179178
676.395	0.0179108
676.473	0.0179122
676.551	0.0178653
676.629	0.0177898
676.707	0.0178746
676.785	0.0177699
676.863	0.0177403
676.942	0.0177580
677.020	0.0177092
677.098	0.0177978
677.176	0.0177241
677.254	0.0175839
677.332	0.0178434
677.410	0.0176757
677.488	0.0177427
677.567	0.0177927
677.645	0.0178209
677.723	0.0177863
677.801	0.0178693
677.879	0.0178102
677.957	0.0179613
678.035	0.0179656
678.113	0.0178326
678.192	0.0179877
678.270	0.0180215
678.348	0.0180013
678.426	0.0179826
678.504	0.0180405
678.582	0.0180841
678.660	0.0180254
678.738	0.0181378
678.817	0.0180650
678.895	0.0179535
678.973	0.0179758
679.051	0.0179563
679.129	0.0179453
679.207	0.0178492
679.285	0.0178561
679.363	0.0177268
679.442	0.0177126
679.520	0.0176949
679.598	0.0177243
679.676	0.0176877
679.754	0.0177650
679.832	0.0175414
679.910	0.0176618
679.988	0.0177905
680.067	0.0177821
680.145	0.0179128
680.223	0.0178396
680.301	0.0180092
680.379	0.0180243
680.457	0.0179797
680.535	0.0180917
680.613	0.0180703
680.692	0.0181509
680.770	0.0182209
680.848	0.0182277
680.926	0.0181797
681.004	0.0181239
681.082	0.0183354
681.160	0.0183179
681.238	0.0182736
681.317	0.0181587
681.395	0.0182196
681.473	0.0182335
681.551	0.0180730
681.629	0.0181583
681.707	0.0180077
681.785	0.0180128
681.863	0.0179861
681.942	0.0180033
682.020	0.0178496
682.098	0.0179860
682.176	0.0179722
682.254	0.0179909
682.332	0.0180025
682.410	0.0179488
682.488	0.0179414
682.567	0.0178657
682.645	0.0179726
682.723	0.0180709
682.801	0.0181049
682.879	0.0180432
682.957	0.0182199
683.035	0.0182355
683.113	0.0183621
683.192	0.0180283
683.270	0.0180777
683.348	0.0183595
683.426	0.0182198
683.504	0.0182858
683.582	0.0180136
683.660	0.0181647
683.738	0.0181458
683.817	0.0180822
683.895	0.0179575
683.973	0.0180770
684.051	0.0181660
684.129	0.0179135
684.207	0.0179462
684.285	0.0180588
684.363	0.0178890
684.442	0.0179919
684.520	0.0182133
684.598	0.0180113
684.676	0.0180676
684.754	0.0179543
684.832	0.0180226
684.910	0.0179742
684.988	0.0180178
685.067	0.0178529
685.145	0.0177804
685.223	0.0177731
685.301	0.0176466
685.379	0.0177607
685.457	0.0176863
685.535	0.0176668
685.613	0.0177077
685.692	0.0177795
685.770	0.0177338
685.848	0.0177075
685.926	0.0178367
686.004	0.0177419
686.082	0.0177450
686.160	0.0177036
686.238	0.0178941
686.317	0.0179278
686.395	0.0179226
686.473	0.0178563
686.551	0.0179237
686.629	0.0179911
686.707	0.0179448
686.785	0.0180285
686.863	0.0180769
686.942	0.0180969
687.020	0.0181628
687.098	0.0179672
687.176	0.0181727
687.254	0.0182378
687.332	0.0181261
687.410	0.0182153
687.488	0.0182170
687.567	0.0182176
687.645	0.0183556
687.723	0.0181995
687.801	0.0181113
687.879	0.0182069
687.957	0.0181745
688.035	0.0182732
688.113	0.0180601
688.192	0.0179131
688.270	0.0180403
688.348	0.0180018
688.426	0.0178386
688.504	0.0178374
688.582	0.0178307
688.660	0.0176908
688.738	0.0176077
688.817	0.0175621
688.895	0.0174918
688.973	0.0173486
689.051	0.0174538
689.129	0.0172845
689.207	0.0172750
689.285	0.0174018
689.363	0.0173685
689.442	0.0173543
689.520	0.0173714
689.598	0.0175176
689.676	0.0175732
689.754	0.0176369
689.832	0.0176787
689.910	0.0176328
689.988	0.0179823
690.067	0.0180167
690.145	0.0180997
690.223	0.0180453
690.301	0.0180920
690.379	0.0182407
690.457	0.0181885
690.535	0.0182198
690.613	0.0183620
690.692	0.0181563
690.770	0.0181358
690.848	0.0181552
690.926	0.0181656
691.004	0.0182339
691.082	0.0182793
691.160	0.0182507
691.238	0.0179981
691.317	0.0179033
691.395	0.0181912
691.473	0.0180243
691.551	0.0180148
691.629	0.0179413
691.707	0.0178649
691.785	0.0177898
691.863	0.0179553
691.942	0.0175700
692.020	0.0177924
692.098	0.0176321
692.176	0.0176627
692.254	0.0174119
692.332	0.0175115
692.410	0.0174997
692.488	0.0175858
692.567	0.0173522
692.645	0.0173296
692.723	0.0173476
692.801	0.0173822
692.879	0.0173120
692.957	0.0175210
693.035	0.0173925
693.113	0.0173698
693.192	0.0175221
693.270	0.0175693
693.348	0.0176233
693.426	0.0175870
693.504	0.0176118
693.582	0.0177870
693.660	0.0176265
693.738	0.0177068
693.817	0.0178432
693.895	0.0177501
693.973	0.0178515
694.051	0.0180216
694.129	0.0179864
694.207	0.0182014
694.285	0.0182605
694.363	0.0181882
694.442	0.0181958
694.520	0.0182327
694.598	0.0182263
694.676	0.0182385
694.754	0.0183777
694.832	0.0183434
694.910	0.0184611
694.988	0.0184982
695.067	0.0183321
695.145	0.0182435
695.223	0.0182922
695.301	0.0183557
695.379	0.0182103
695.457	0.0183265
695.535	0.0181374
695.613	0.0182718
695.692	0.0181409
695.770	0.0182001
695.848	0.0180767
695.926	0.0178522
696.004	0.0177847
696.082	0.0178114
696.160	0.0177591
696.238	0.0176155
696.317	0.0177126
696.395	0.0175629
696.473	0.0175417
696.551	0.0176418
696.629	0.0175942
696.707	0.0175039
696.785	0.0176595
696.863	0.0174468
696.942	0.0175210
697.020	0.0176445
697.098	0.0176756
697.176	0.0175983
697.254	0.0175264
697.332	0.0174907
697.410	0.0178432
697.488	0.0177653
697.567	0.0177287
697.645	0.0175809
697.723	0.0177103
697.801	0.0178642
697.879	0.0179060
697.957	0.0177605
698.035	0.0177770
698.113	0.0178561
698.192	0.0178072
698.270	0.0179082
698.348	0.0180547
698.426	0.0180188
698.504	0.0179301
698.582	0.0179050
698.660	0.0179364
698.738	0.0179668
698.817	0.0180149
698.895	0.0179789
698.973	0.0179990
699.051	0.0180448
699.129	0.0179762
699.207	0.0179604
699.285	0.0180473
699.363	0.0179658
699.442	0.0180575
699.520	0.0181072
699.598	0.0181161
699.676	0.0181535
699.754	0.0180766
699.832	0.0181920
699.910	0.0182006
699.988	0.0183366
700.067	0.0181771
700.145	0.0181694
700.223	0.0183883
700.301	0.0182131
700.379	0.0182523
700.457	0.0183046
700.535	0.0184631
700.613	0.0183344
700.692	0.0182754
700.770	0.0181142
700.848	0.0180148
700.926	0.0180592
701.004	0.0178648
701.082	0.0178826
701.160	0.0176427
701.238	0.0175462
701.317	0.0176031
701.395	0.0175597
701.473	0.0175121
701.551	0.0173670
701.629	0.0173026
701.707	0.0171310
701.785	0.0173241
701.863	0.0171052
701.942	0.0170956
702.020	0.0170543
702.098	0.0171529
702.176	0.0171828
702.254	0.0171251
702.332	0.0170471
702.410	0.0171077
702.488	0.0171866
702.567	0.0172776
702.645	0.0172775
702.723	0.0173823
702.801	0.0172365
702.879	0.0173598
702.957	0.0174243
703.035	0.0174129
703.113	0.0176701
703.192	0.0177287
703.270	0.0176683
703.348	0.0176116
703.426	0.0177901
703.504	0.0179167
703.582	0.0180325
703.660	0.0181518
703.738	0.0182759
703.817	0.0182444
703.895	0.0184808
703.973	0.0186573
704.051	0.0186632
704.129	0.0186664
704.207	0.0188200
704.285	0.0187976
704.363	0.0189172
704.442	0.0189930
704.520	0.0188707
704.598	0.0189314
704.676	0.0188203
704.754	0.0188124
704.832	0.0188220
704.910	0.0187142
704.988	0.0186969
705.067	0.0184406
705.145	0.0184924
705.223	0.0187338
705.301	0.0184940
705.379	0.0184054
705.457	0.0184453
705.535	0.0183585
705.613	0.0183418
705.692	0.0181764
705.770	0.0180809
705.848	0.0181701
705.926	0.0181067
706.004	0.0179665
706.082	0.0180409
706.160	0.0179271
706.238	0.0177672
706.317	0.0176983
706.395	0.0176328
706.473	0.0174644
706.551	0.0174197
706.629	0.0171376
706.707	0.0172623
706.785	0.0170241
706.863	0.0168819
706.942	0.0169615
707.020	0.0167387
707.098	0.0166821
707.176	0.0165762
707.254	0.0167309
707.332	0.0167001
707.410	0.0165627
707.488	0.0167184
707.567	0.0169748
707.645	0.0169960
707.723	0.0170341
707.801	0.0172294
707.879	0.0174102
707.957	0.0174136
708.035	0.0176276
708.113	0.0177308
708.192	0.0181228
708.270	0.0181496
708.348	0.0180532
708.426	0.0183034
708.504	0.0184435
708.582	0.0185885
708.660	0.0185406
708.738	0.0187550
708.817	0.0186444
708.895	0.0187287
708.973	0.0188005
709.051	0.0187208
709.129	0.0187331
709.207	0.0188483
709.285	0.0187323
709.363	0.0187501
709.442	0.0187394
709.520	0.0187247
709.598	0.0186396
709.676	0.0186368
709.754	0.0185637
709.832	0.0185870
709.910	0.0184606
709.988	0.0185593
710.067	0.0184409
710.145	0.0182970
710.223	0.0181931
710.301	0.0181690
710.379	0.0181866
710.457	0.0181110
710.535	0.0181836
710.613	0.0179815
710.692	0.0179877
710.770	0.0178779
710.848	0.0179259
710.926	0.0179261
711.004	0.0176793
711.082	0.0176567
711.160	0.0178246
711.238	0.0176754
711.317	0.0178435
711.395	0.0175410
711.473	0.0175939
711.551	0.0175481
711.629	0.0175340
711.707	0.0176823
711.785	0.0176740
711.863	0.0176565
711.942	0.0177099
712.020	0.0178981
712.098	0.0177834
712.176	0.0175020
712.254	0.0177425
712.332	0.0178267
712.410	0.0178516
712.488	0.0176555
712.567	0.0176492
712.645	0.0176019
712.723	0.0176487
712.801	0.0176027
712.879	0.0174597
712.957	0.0174412
713.035	0.0174088
713.113	0.0174129
713.192	0.0174812
713.270	0.0174033
713.348	0.0174471
713.426	0.0174326
713.504	0.0175163
713.582	0.0176952
713.660	0.0175301
713.738	0.0175554
713.817	0.0176867
713.895	0.0177630
713.973	0.0177181
714.051	0.0177503
714.129	0.0178712
714.207	0.0178174
714.285	0.0180334
714.363	0.0180109
714.442	0.0180968
714.520	0.0181246
714.598	0.0181458
714.676	0.0182325
714.754	0.0182919
714.832	0.0182750
714.910	0.0182123
714.988	0.0183495
715.067	0.0184367
715.145	0.0184265
715.223	0.0184702
715.301	0.0183395
715.379	0.0184221
715.457	0.0185807
715.535	0.0184319
715.613	0.0184155
715.692	0.0184161
715.770	0.0183983
715.848	0.0184325
715.926	0.0182780
716.004	0.0181712
716.082	0.0182647
716.160	0.0182118
716.238	0.0181454
716.317	0.0181468
716.395	0.0181172
716.473	0.0179587
716.551	0.0181460
716.629	0.0180621
716.707	0.0178847
716.785	0.0178604
716.863	0.0178799
716.942	0.0177490
717.020	0.0176709
717.098	0.0178196
717.176	0.0175507
717.254	0.0176340
717.332	0.0178093
717.410	0.0176770
717.488	0.0176491
717.567	0.0175209
717.645	0.0176726
717.723	0.0175478
717.801	0.0177067
717.879	0.0176392
717.957	0.0176677
718.035	0.0175108
718.113	0.0175800
718.192	0.0175895
718.270	0.0174639
718.348	0.0173284
718.426	0.0174874
718.504	0.0173433
718.582	0.0173307
718.660	0.0174119
718.738	0.0173209
718.817	0.0173813
718.895	0.0173547
718.973	0.0173303
719.051	0.0174912
719.129	0.0175520
719.207	0.0175697
719.285	0.0175954
719.363	0.0176892
719.442	0.0178433
719.520	0.0177252
719.598	0.0178419
719.676	0.0179270
719.754	0.0180627
719.832	0.0179718
719.910	0.0180645
719.988	0.0179669
720.067	0.0182117
720.145	0.0181344
720.223	0.0180482
720.301	0.0181812
720.379	0.0181150
720.457	0.0181935
720.535	0.0181595
720.613	0.0181689
720.692	0.0181782
720.770	0.0180807
720.848	0.0180795
720.926	0.0181918
721.004	0.0181273
721.082	0.0182284
721.160	0.0182248
721.238	0.0181683
721.317	0.0181564
721.395	0.0182965
721.473	0.0181426
721.551	0.0181489
721.629	0.0182411
721.707	0.0181670
721.785	0.0182052
721.863	0.0180516
721.942	0.0180855
722.020	0.0179977
722.098	0.0181020
722.176	0.0181477
722.254	0.0182937
722.332	0.0179743
722.410	0.0178528
722.488	0.0179750
722.567	0.0180545
722.645	0.0180639
722.723	0.0180018
722.801	0.0181604
722.879	0.0179819
722.957	0.0179602
723.035	0.0179659
723.113	0.0178417
723.192	0.0179182
723.270	0.0178566
723.348	0.0178712
723.426	0.0176471
723.504	0.0177588
723.582	0.0177213
723.660	0.0176495
723.738	0.0176482
723.817	0.0174556
723.895	0.0175887
723.973	0.0175005
724.051	0.0173865
724.129	0.0174743
724.207	0.0175009
724.285	0.0174065
724.363	0.0173747
724.442	0.0174982
724.520	0.0173898
724.598	0.0173776
724.676	0.0173675
724.754	0.0176054
724.832	0.0175307
724.910	0.0176081
724.988	0.0175587
725.067	0.0176347
725.145	0.0176592
725.223	0.0177221
725.301	0.0175212
725.379	0.0176732
725.457	0.0179308
725.535	0.0178542
725.613	0.0178701
725.692	0.0178976
725.770	0.0179797
725.848	0.0180256
725.926	0.0180560
726.004	0.0178933
726.082	0.0180433
726.160	0.0180719
726.238	0.0181895
726.317	0.0182099
726.395	0.0182230
726.473	0.0180966
726.551	0.0181535
726.629	0.0182666
726.707	0.0181962
726.785	0.0182671
726.863	0.0181919
726.942	0.0181689
727.020	0.0182436
727.098	0.0181930
727.176	0.0181993
727.254	0.0181827
727.332	0.0184328
727.410	0.0181732
727.488	0.0182204
727.567	0.0182695
727.645	0.0181999
727.723	0.0181798
727.801	0.0180966
727.879	0.0182372
727.957	0.0181584
728.035	0.0181411
728.113	0.0183073
728.192	0.0182020
728.270	0.0181995
728.348	0.0180357
728.426	0.0181158
728.504	0.0180660
728.582	0.0178368
728.660	0.0177815
728.738	0.0177989
728.817	0.0176805
728.895	0.0177256
728.973	0.0176295
729.051	0.0176859
729.129	0.0176954
729.207	0.0174898
729.285	0.0176563
729.363	0.0177219
729.442	0.0177514
729.520	0.0175422
729.598	0.0176843
729.676	0.0178204
729.754	0.0178364
729.832	0.0177693
729.910	0.0178470
729.988	0.0177904
730.067	0.0179541
730.145	0.0177458
730.223	0.0176701
730.301	0.0178592
730.379	0.0177879
730.457	0.0178329
730.535	0.0178640
730.613	0.0177705
730.692	0.0177681
730.770	0.0177145
730.848	0.0177001
730.926	0.0179391
731.004	0.0178111
731.082	0.0176192
731.160	0.0177965
731.238	0.0177696
731.317	0.0177978
731.395	0.0177810
731.473	0.0178226
731.551	0.0179514
731.629	0.0181235
731.707	0.0179602
731.785	0.0179428
731.863	0.0181421
731.942	0.0181525
732.020	0.0182733
732.098	0.0182143
732.176	0.0181500
732.254	0.0181765
732.332	0.0181935
732.410	0.0182725
732.488	0.0181669
732.567	0.0181324
732.645	0.0181112
732.723	0.0180503
732.801	0.0179526
732.879	0.0178465
732.957	0.0179137
733.035	0.0178094
733.113	0.0177160
733.192	0.0177309
733.270	0.0176828
733.348	0.0177229
733.426	0.0175359
733.504	0.0175252
733.582	0.0177074
733.660	0.0177624
733.738	0.0177837
733.817	0.0177887
733.895	0.0178158
733.973	0.0179586
734.051	0.0179564
734.129	0.0178850
734.207	0.0179433
734.285	0.0179113
734.363	0.0180463
734.442	0.0180644
734.520	0.0179575
734.598	0.0180212
734.676	0.0181003
734.754	0.0178695
734.832	0.0179878
734.910	0.0179186
734.988	0.0180610
735.067	0.0179770
735.145	0.0181277
735.223	0.0179795
735.301	0.0179917
735.379	0.0181001
735.457	0.0180599
735.535	0.0181429
735.613	0.0181584
735.692	0.0182684
735.770	0.0181275
735.848	0.0182434
735.926	0.0181896
736.004	0.0181828
736.082	0.0182661
736.160	0.0182600
736.238	0.0181404
736.317	0.0181095
736.395	0.0181956
736.473	0.0181651
736.551	0.0180922
736.629	0.0180117
736.707	0.0180665
736.785	0.0180553
736.863	0.0180922
736.942	0.0181375
737.020	0.0180816
737.098	0.0181960
737.176	0.0180067
737.254	0.0180292
737.332	0.0179646
737.410	0.0181340
737.488	0.0180090
737.567	0.0179839
737.645	0.0181035
737.723	0.0179051
737.801	0.0179504
737.879	0.0180173
737.957	0.0181049
738.035	0.0180431
738.113	0.0178414
738.192	0.0178323
738.270	0.0177852
738.348	0.0177851
738.426	0.0178212
738.504	0.0177629
738.582	0.0178925
738.660	0.0177998
738.738	0.0178530
738.817	0.0178064
738.895	0.0178130
738.973	0.0178606
739.051	0.0179395
739.129	0.0178254
739.207	0.0179952
739.285	0.0179471
739.363	0.0179534
739.442	0.0179324
739.520	0.0180510
739.598	0.0180540
739.676	0.0180607
739.754	0.0179644
739.832	0.0180821
739.910	0.0180739
739.988	0.0183028
740.067	0.0181882
740.145	0.0181547
740.223	0.0181554
740.301	0.0180837
740.379	0.0181326
740.457	0.0182477
740.535	0.0181220
740.613	0.0180655
740.692	0.0182423
740.770	0.0180116
740.848	0.0181406
740.926	0.0181808
741.004	0.0182874
741.082	0.0181589
741.160	0.0182838
741.238	0.0184079
741.317	0.0181898
741.395	0.0183600
741.473	0.0182906
741.551	0.0181828
741.629	0.0180359
741.707	0.0180536
741.785	0.0181989
741.863	0.0181352
741.942	0.0181358
742.020	0.0181628
742.098	0.0182743
742.176	0.0181470
742.254	0.0181328
742.332	0.0182162
742.410	0.0181456
742.488	0.0183241
742.567	0.0181090
742.645	0.0182302
742.723	0.0180297
742.801	0.0180106
742.879	0.0181614
742.957	0.0181409
743.035	0.0180747
743.113	0.0179673
743.192	0.0179968
743.270	0.0180331
743.348	0.0178625
743.426	0.0178286
743.504	0.0176903
743.582	0.0176914
743.660	0.0177388
743.738	0.0176526
743.817	0.0176794
743.895	0.0176572
743.973	0.0174928
744.051	0.0175767
744.129	0.0176295
744.207	0.0176276
744.285	0.0176640
744.363	0.0178176
744.442	0.0177403
744.520	0.0177634
744.598	0.0178297
744.676	0.0177270
744.754	0.0177563
744.832	0.0177938
744.910	0.0179987
744.988	0.0180740
745.067	0.0180458
745.145	0.0179768
745.223	0.0180714
745.301	0.0180601
745.379	0.0180232
745.457	0.0182076
745.535	0.0180927
745.613	0.0182154
745.692	0.0180969
745.770	0.0180658
745.848	0.0182381
745.926	0.0181095
746.004	0.0180547
746.082	0.0181268
746.160	0.0182269
746.238	0.0181363
746.317	0.0181799
746.395	0.0182134
746.473	0.0180796
746.551	0.0180484
746.629	0.0179998
746.707	0.0179820
746.785	0.0179848
746.863	0.0179718
746.942	0.0178573
747.020	0.0179408
747.098	0.0179347
747.176	0.0179676
747.254	0.0178283
747.332	0.0177297
747.410	0.0178051
747.488	0.0180252
747.567	0.0180080
747.645	0.0178592
747.723	0.0178126
747.801	0.0180395
747.879	0.0179840
747.957	0.0179548
748.035	0.0180795
748.113	0.0179529
748.192	0.0179246
748.270	0.0180602
748.348	0.0179813
748.426	0.0179308
748.504	0.0179160
748.582	0.0179130
748.660	0.0179019
748.738	0.0179858
748.817	0.0179747
748.895	0.0179415
748.973	0.0179221
749.051	0.0179508
749.129	0.0179376
749.207	0.0179103
749.285	0.0179744
749.363	0.0178759
749.442	0.0179463
749.520	0.0180566
749.598	0.0180941
749.676	0.0180630
749.754	0.0181780
749.832	0.0181454
749.910	0.0181308
749.988	0.0179217
750.067	0.0179918
750.145	0.0182059
750.223	0.0181611
750.301	0.0182832
750.379	0.0181998
750.457	0.0180848
750.535	0.0181718
750.613	0.0182613
750.692	0.0181528
750.770	0.0182619
750.848	0.0180012
750.926	0.0181725
751.004	0.0179802
751.082	0.0180091
751.160	0.0180381
751.238	0.0179060
751.317	0.0180993
751.395	0.0179245
751.473	0.0180422
751.551	0.0180777
751.629	0.0179344
751.707	0.0179900
751.785	0.0180568
751.863	0.0180048
751.942	0.0179150
752.020	0.0179240
752.098	0.0180180
752.176	0.0179577
752.254	0.0179727
752.332	0.0179638
752.410	0.0179489
752.488	0.0178954
752.567	0.0180882
752.645	0.0180440
752.723	0.0180190
752.801	0.0178998
752.879	0.0178947
752.957	0.0180124
753.035	0.0179900
753.113	0.0181272
753.192	0.0178705
753.270	0.0178640
753.348	0.0179789
753.426	0.0178709
753.504	0.0178674
753.582	0.0178823
753.660	0.0178944
753.738	0.0177975
753.817	0.0177004
753.895	0.0177983
753.973	0.0178423
754.051	0.0178111
754.129	0.0177970
754.207	0.0177782
754.285	0.0176490
754.363	0.0177818
754.442	0.0176816
754.520	0.0176620
754.598	0.0176540
754.676	0.0175839
754.754	0.0176488
754.832	0.0175468
754.910	0.0176427
754.988	0.0178069
755.067	0.0176079
755.145	0.0176674
755.223	0.0177590
755.301	0.0177354
755.379	0.0177414
755.457	0.0177419
755.535	0.0178012
755.613	0.0178352
755.692	0.0178708
755.770	0.0179608
755.848	0.0178680
755.926	0.0179273
756.004	0.0179614
756.082	0.0180395
756.160	0.0180242
756.238	0.0179870
756.317	0.0180142
756.395	0.0180470
756.473	0.0178951
756.551	0.0180235
756.629	0.0179744
756.707	0.0179800
756.785	0.0180048
756.863	0.0179523
756.942	0.0180357
757.020	0.0180337
757.098	0.0180904
757.176	0.0180541
757.254	0.0180653
757.332	0.0179099
757.410	0.0181921
757.488	0.0179482
757.567	0.0179913
757.645	0.0178817
757.723	0.0180762
757.801	0.0181487
757.879	0.0180247
757.957	0.0180183
758.035	0.0177953
758.113	0.0179755
758.192	0.0178897
758.270	0.0179666
758.348	0.0181523
758.426	0.0179028
758.504	0.0178755
758.582	0.0179398
758.660	0.0178360
758.738	0.0178757
758.817	0.0178462
758.895	0.0178690
758.973	0.0179473
759.051	0.0180108
759.129	0.0178240
759.207	0.0179870
759.285	0.0180823
759.363	0.0179411
759.442	0.0179288
759.520	0.0180882
759.598	0.0180564
759.676	0.0179414
759.754	0.0179841
759.832	0.0179556
759.910	0.0180614
759.988	0.0181988
760.067	0.0181765
760.145	0.0180759
760.223	0.0182113
760.301	0.0181958
760.379	0.0180814
760.457	0.0181593
760.535	0.0180888
760.613	0.0180292
760.692	0.0182817
760.770	0.0182407
760.848	0.0179807
760.926	0.0180532
761.004	0.0181052
761.082	0.0179390
761.160	0.0179841
761.238	0.0179255
761.317	0.0180130
761.395	0.0179882
761.473	0.0178489
761.551	0.0179194
761.629	0.0179643
761.707	0.0178217
761.785	0.0177731
761.863	0.0178257
761.942	0.0177352
762.020	0.0176663
762.098	0.0177470
762.176	0.0177331
762.254	0.0176329
762.332	0.0176032
762.410	0.0177789
762.488	0.0177139
762.567	0.0177739
762.645	0.0177403
762.723	0.0177365
762.801	0.0178931
762.879	0.0179452
762.957	0.0179393
763.035	0.0179689
763.113	0.0178004
763.192	0.0181169
763.270	0.0181100
763.348	0.0181342
763.426	0.0181709
763.504	0.0182381
763.582	0.0182879
763.660	0.0182165
763.738	0.0182642
763.817	0.0182738
763.895	0.0181965
763.973	0.0183052
764.051	0.0181892
764.129	0.0182976
764.207	0.0181525
764.285	0.0182904
764.363	0.0182153
764.442	0.0181676
764.520	0.0180592
764.598	0.0182090
764.676	0.0181013
764.754	0.0181647
764.832	0.0181133
764.910	0.0181617
764.988	0.0180616
765.067	0.0181276
765.145	0.0179986
765.223	0.0180017
765.301	0.0181576
765.379	0.0179263
765.457	0.0180560
765.535	0.0179028
765.613	0.0179211
765.692	0.0178897
765.770	0.0178833
765.848	0.0178577
765.926	0.0176881
766.004	0.0179059
766.082	0.0177364
766.160	0.0176960
766.238	0.0176915
766.317	0.0175854
766.395	0.0178503
766.473	0.0175804
766.551	0.0175790
766.629	0.0176887
766.707	0.0176403
766.785	0.0175879
766.863	0.0176139
766.942	0.0176885
767.020	0.0177168
767.098	0.0177649
767.176	0.0177429
767.254	0.0176585
767.332	0.0177763
767.410	0.0177490
767.488	0.0178049
767.567	0.0177977
767.645	0.0178185
767.723	0.0177521
767.801	0.0179616
767.879	0.0177995
767.957	0.0179550
768.035	0.0178110
768.113	0.0178167
768.192	0.0179916
768.270	0.0179326
768.348	0.0178207
768.426	0.0179080
768.504	0.0179352
768.582	0.0178378
768.660	0.0178713
768.738	0.0179948
768.817	0.0179053
768.895	0.0178752
768.973	0.0179313
769.051	0.0179264
769.129	0.0178262
769.207	0.0179157
769.285	0.0180225
769.363	0.0178729
769.442	0.0180220
769.520	0.0179964
769.598	0.0181314
769.676	0.0178932
769.754	0.0179118
769.832	0.0180560
769.910	0.0179756
769.988	0.0180846
770.067	0.0182006
770.145	0.0180665
770.223	0.0180536
770.301	0.0182693
770.379	0.0182290
770.457	0.0182568
770.535	0.0184077
770.613	0.0184650
770.692	0.0183823
770.770	0.0183469
770.848	0.0183117
770.926	0.0183841
771.004	0.0184185
771.082	0.0183459
771.160	0.0184026
771.238	0.0182399
771.317	0.0182215
771.395	0.0181887
771.473	0.0182053
771.551	0.0181434
771.629	0.0182475
771.707	0.0181506
771.785	0.0181850
771.863	0.0182389
771.942	0.0181050
772.020	0.0180430
772.098	0.0182610
772.176	0.0182332
772.254	0.0181196
772.332	0.0182021
772.410	0.0181660
772.488	0.0181744
772.567	0.0180065
772.645	0.0179984
772.723	0.0180705
772.801	0.0179317
772.879	0.0178907
772.957	0.0177483
773.035	0.0176686
773.113	0.0178081
773.192	0.0178105
773.270	0.0177634
773.348	0.0175861
773.426	0.0176061
773.504	0.0177238
773.582	0.0175507
773.660	0.0175138
773.738	0.0176246
773.817	0.0176334
773.895	0.0176195
773.973	0.0178134
774.051	0.0176688
774.129	0.0177676
774.207	0.0176855
774.285	0.0176611
774.363	0.0177228
774.442	0.0177699
774.520	0.0178756
774.598	0.0178960
774.676	0.0177522
774.754	0.0178370
774.832	0.0178802
774.910	0.0178325
774.988	0.0178564
775.067	0.0180473
775.145	0.0179696
775.223	0.0180471
775.301	0.0178560
775.379	0.0178020
775.457	0.0178535
775.535	0.0177905
775.613	0.0177213
775.692	0.0175703
775.770	0.0176138
775.848	0.0175430
775.926	0.0176741
776.004	0.0175999
776.082	0.0176328
776.160	0.0176713
776.238	0.0177511
776.317	0.0178300
776.395	0.0178544
776.473	0.0176768
776.551	0.0178651
776.629	0.0177673
776.707	0.0178733
776.785	0.0179269
776.863	0.0178711
776.942	0.0179266
777.020	0.0179377
777.098	0.0181894
777.176	0.0182491
777.254	0.0180543
777.332	0.0180856
777.410	0.0180758
777.488	0.0182111
777.567	0.0180025
777.645	0.0182674
777.723	0.0180731
777.801	0.0180362
777.879	0.0179706
777.957	0.0179368
778.035	0.0180568
778.113	0.0180760
778.192	0.0179997
778.270	0.0179494
778.348	0.0179075
778.426	0.0179778
778.504	0.0180845
778.582	0.0180237
778.660	0.0180238
778.738	0.0180995
778.817	0.0182363
778.895	0.0182915
778.973	0.0182844
779.051	0.0182185
779.129	0.0181620
779.207	0.0182780
779.285	0.0182915
779.363	0.0183052
779.442	0.0184090
779.520	0.0184199
779.598	0.0183280
779.676	0.0183804
779.754	0.0182865
779.832	0.0182468
779.910	0.0183114
779.988	0.0181653
780.067	0.0180482
780.145	0.0182420
780.223	0.0181376
780.301	0.0178924
780.379	0.0177905
780.457	0.0178108
780.535	0.0178607
780.613	0.0175342
780.692	0.0176830
780.770	0.0176966
780.848	0.0176536
780.926	0.0176512
781.004	0.0175052
781.082	0.0175768
781.160	0.0175006
781.238	0.0174900
781.317	0.0175027
781.395	0.0174997
781.473	0.0174488
781.551	0.0174122
781.629	0.0175813
781.707	0.0174216
781.785	0.0174680
781.863	0.0174230
781.942	0.0174727
782.020	0.0176451
782.098	0.0174209
782.176	0.0175415
782.254	0.0175800
782.332	0.0176390
782.410	0.0174821
782.488	0.0176037
782.567	0.0176347
782.645	0.0176350
782.723	0.0176671
782.801	0.0176501
782.879	0.0178494
782.957	0.0178417
783.035	0.0176158
783.113	0.0177230
783.192	0.0178126
783.270	0.0178293
783.348	0.0178481
783.426	0.0177401
783.504	0.0177627
783.582	0.0178931
783.660	0.0177615
783.738	0.0177830
783.817	0.0178152
783.895	0.0178027
783.973	0.0178655
784.051	0.0179601
784.129	0.0177637
784.207	0.0179053
784.285	0.0176540
784.363	0.0178178
784.442	0.0179100
784.520	0.0178584
784.598	0.0178928
784.676	0.0178464
784.754	0.0178873
784.832	0.0177808
784.910	0.0179118
784.988	0.0179493
785.067	0.0178836
785.145	0.0180470
785.223	0.0179028
785.301	0.0180067
785.379	0.0180804
785.457	0.0180643
785.535	0.0179597
785.613	0.0181074
785.692	0.0180211
785.770	0.0180820
785.848	0.0181487
785.926	0.0182266
786.004	0.0181924
786.082	0.0181446
786.160	0.0181290
786.238	0.0180054
786.317	0.0180714
786.395	0.0179048
786.473	0.0180096
786.551	0.0179533
786.629	0.0180368
786.707	0.0178355
786.785	0.0178568
786.863	0.0178352
786.942	0.0178059
787.020	0.0179137
787.098	0.0179908
787.176	0.0177784
787.254	0.0178587
787.332	0.0179829
787.410	0.0177582
787.488	0.0176681
787.567	0.0177579
787.645	0.0178327
787.723	0.0177924
787.801	0.0176947
787.879	0.0176807
787.957	0.0177398
788.035	0.0176208
788.113	0.0177029
788.192	0.0177322
788.270	0.0177664
788.348	0.0176974
788.426	0.0176247
788.504	0.0177019
788.582	0.0177328
788.660	0.0176949
788.738	0.0177589
788.817	0.0179264
788.895	0.0177660
788.973	0.0176614
789.051	0.0176170
789.129	0.0176799
789.207	0.0176826
789.285	0.0176392
789.363	0.0175991
789.442	0.0176407
789.520	0.0176469
789.598	0.0178602
789.676	0.0177503
789.754	0.0176589
789.832	0.0176849
789.910	0.0178960
789.988	0.0177769
790.067	0.0178863
790.145	0.0178281
790.223	0.0179612
790.301	0.0178772
790.379	0.0178206
790.457	0.0177815
790.535	0.0179931
790.613	0.0181681
790.692	0.0179631
790.770	0.0178925
790.848	0.0181337
790.926	0.0178981
791.004	0.0180325
791.082	0.0180024
791.160	0.0180325
791.238	0.0179292
791.317	0.0181086
791.395	0.0181014
791.473	0.0178873
791.551	0.0180431
791.629	0.0179749
791.707	0.0179061
791.785	0.0179591
791.863	0.0179045
791.942	0.0178373
792.020	0.0178236
792.098	0.0177934
792.176	0.0179350
792.254	0.0178263
792.332	0.0179237
792.410	0.0179018
792.488	0.0179062
792.567	0.0178753
792.645	0.0179315
792.723	0.0179998
792.801	0.0181786
792.879	0.0181657
792.957	0.0181114
793.035	0.0179388
793.113	0.0181519
793.192	0.0182353
793.270	0.0181608
793.348	0.0181866
793.426	0.0181138
793.504	0.0181651
793.582	0.0180730
793.660	0.0181774
793.738	0.0182265
793.817	0.0180990
793.895	0.0182153
793.973	0.0179666
794.051	0.0179735
794.129	0.0180910
794.207	0.0180744
794.285	0.0179235
794.363	0.0179997
794.442	0.0178425
794.520	0.0179504
794.598	0.0178326
794.676	0.0178104
794.754	0.0177717
794.832	0.0179661
794.910	0.0177292
794.988	0.0178143
795.067	0.0176603
795.145	0.0176543
795.223	0.0176848
795.301	0.0176941
795.379	0.0176262
795.457	0.0176535
795.535	0.0176662
795.613	0.0176768
795.692	0.0177306
795.770	0.0176720
795.848	0.0177924
795.926	0.0177570
796.004	0.0177097
796.082	0.0176263
796.160	0.0177090
796.238	0.0178189
796.317	0.0176579
796.395	0.0177699
796.473	0.0177753
796.551	0.0177254
796.629	0.0177878
796.707	0.0177737
796.785	0.0178130
796.863	0.0177924
796.942	0.0177357
797.020	0.0178101
797.098	0.0177363
797.176	0.0176826
797.254	0.0177922
797.332	0.0177870
797.410	0.0177744
797.488	0.0178423
797.567	0.0177779
797.645	0.0177572
797.723	0.0177656
797.801	0.0178495
797.879	0.0178362
797.957	0.0179826
798.035	0.0179124
798.113	0.0180159
798.192	0.0177995
798.270	0.0177858
798.348	0.0178725
798.426	0.0178500
798.504	0.0178817
798.582	0.0179707
798.660	0.0181104
798.738	0.0179424
798.817	0.0178862
798.895	0.0179923
798.973	0.0178252
799.051	0.0180367
799.129	0.0179917
799.207	0.0179015
799.285	0.0179669
799.363	0.0179479
799.442	0.0179955
799.520	0.0180358
799.598	0.0179491
799.676	0.0178996
799.754	0.0179969
799.832	0.0178172
799.910	0.0179127
799.988	0.0178886
800.067	0.0179876
800.145	0.0179682
800.223	0.0178740
800.301	0.0179734
800.379	0.0179346
800.457	0.0179286
800.535	0.0179873
800.613	0.0180740
800.692	0.0179823
800.770	0.0179939
800.848	0.0180080
800.926	0.0179701
801.004	0.0178893
801.082	0.0180752
801.160	0.0182340
801.238	0.0180016
801.317	0.0179620
801.395	0.0179441
801.473	0.0179655
801.551	0.0180778
801.629	0.0179893
801.707	0.0181058
801.785	0.0180537
801.863	0.0180516
801.942	0.0180305
802.020	0.0179086
802.098	0.0178745
802.176	0.0179039
802.254	0.0177818
802.332	0.0177739
802.410	0.0177441
802.488	0.0177891
802.567	0.0177386
802.645	0.0177752
802.723	0.0177213
802.801	0.0177023
802.879	0.0176199
802.957	0.0177716
803.035	0.0177850
803.113	0.0176553
803.192	0.0177391
803.270	0.0176556
803.348	0.0176798
803.426	0.0176929
803.504	0.0177858
803.582	0.0176394
803.660	0.0174905
803.738	0.0176941
803.817	0.0176621
803.895	0.0175935
803.973	0.0178336
804.051	0.0177537
804.129	0.0177109
804.207	0.0176150
804.285	0.0177036
804.363	0.0178082
804.442	0.0175784
804.520	0.0176805
804.598	0.0178214
804.676	0.0178998
804.754	0.0178660
804.832	0.0178356
804.910	0.0177657
804.988	0.0177814
805.067	0.0179731
805.145	0.0177499
805.223	0.0179820
805.301	0.0179138
805.379	0.0180870
805.457	0.0180387
805.535	0.0179580
805.613	0.0180009
805.692	0.0181240
805.770	0.0179559
805.848	0.0178940
805.926	0.0178903
806.004	0.0179601
806.082	0.0179897
806.160	0.0180704
806.238	0.0179696
806.317	0.0178740
806.395	0.0179504
806.473	0.0180520
806.551	0.0179869
806.629	0.0179035
806.707	0.0179710
806.785	0.0180841
806.863	0.0178338
806.942	0.0180269
807.020	0.0179366
807.098	0.0180785
807.176	0.0179480
807.254	0.0180890
807.332	0.0180729
807.410	0.0178865
807.488	0.0179691
807.567	0.0178992
807.645	0.0178816
807.723	0.0180208
807.801	0.0178384
807.879	0.0178915
807.957	0.0178627
808.035	0.0179015
808.113	0.0180012
808.192	0.0178951
808.270	0.0177446
808.348	0.0178472
808.426	0.0178279
808.504	0.0179471
808.582	0.0177430
808.660	0.0179332
808.738	0.0179043
808.817	0.0179229
808.895	0.0179151
808.973	0.0180172
809.051	0.0180230
809.129	0.0181052
809.207	0.0179984
809.285	0.0180940
809.363	0.0180395
809.442	0.0180121
809.520	0.0179272
809.598	0.0179935
809.676	0.0180522
809.754	0.0180405
809.832	0.0178126
809.910	0.0179035
809.988	0.0181013
810.067	0.0181003
810.145	0.0180619
810.223	0.0180484
810.301	0.0179862
810.379	0.0180219
810.457	0.0180701
810.535	0.0179512
810.613	0.0178989
810.692	0.0179672
810.770	0.0180666
810.848	0.0179607
810.926	0.0182258
811.004	0.0180751
811.082	0.0179539
811.160	0.0181386
811.238	0.0181471
811.317	0.0180553
811.395	0.0181044
811.473	0.0181398
811.551	0.0182468
811.629	0.0181534
811.707	0.0183212
811.785	0.0180934
811.863	0.0181245
811.942	0.0182663
812.020	0.0181140
812.098	0.0181731
812.176	0.0183525
812.254	0.0182151
812.332	0.0181211
812.410	0.0181096
812.488	0.0182995
812.567	0.0183054
812.645	0.0181879
812.723	0.0183009
812.801	0.0181950
812.879	0.0182660
812.957	0.0181139
813.035	0.0181248
813.113	0.0180606
813.192	0.0180092
813.270	0.0180725
813.348	0.0181625
813.426	0.0181095
813.504	0.0180682
813.582	0.0179724
813.660	0.0179697
813.738	0.0178807
813.817	0.0179529
813.895	0.0178754
813.973	0.0179459
814.051	0.0177963
814.129	0.0179021
814.207	0.0178471
814.285	0.0179513
814.363	0.0178999
814.442	0.0179636
814.520	0.0179582
814.598	0.0178830
814.676	0.0177299
814.754	0.0178328
814.832	0.0178802
814.910	0.0178252
814.988	0.0178331
815.067	0.0177541
815.145	0.0180630
815.223	0.0179636
815.301	0.0179641
815.379	0.0178495
815.457	0.0179481
815.535	0.0178609
815.613	0.0177917
815.692	0.0178704
815.770	0.0177817
815.848	0.0179640
815.926	0.0178928
816.004	0.0177940
816.082	0.0178048
816.160	0.0179357
816.238	0.0177838
816.317	0.0178732
816.395	0.0180048
816.473	0.0179017
816.551	0.0178960
816.629	0.0180250
816.707	0.0180309
816.785	0.0180059
816.863	0.0179803
816.942	0.0181050
817.020	0.0179256
817.098	0.0180273
817.176	0.0180759
817.254	0.0179356
817.332	0.0180345
817.410	0.0179383
817.488	0.0178413
817.567	0.0178167
817.645	0.0178513
817.723	0.0179254
817.801	0.0178519
817.879	0.0178345
817.957	0.0178568
818.035	0.0177042
818.113	0.0177240
818.192	0.0177903
818.270	0.0178722
818.348	0.0178413
818.426	0.0176895
818.504	0.0176991
818.582	0.0178644
818.660	0.0178773
818.738	0.0180073
818.817	0.0177681
818.895	0.0178219
818.973	0.0179436
819.051	0.0179073
819.129	0.0178017
819.207	0.0180009
819.285	0.0178298
819.363	0.0178104
819.442	0.0178283
819.520	0.0178406
819.598	0.0178560
819.676	0.0177579
819.754	0.0179330
819.832	0.0179256
819.910	0.0177888
819.988	0.0178565
820.067	0.0179378
820.145	0.0178280
820.223	0.0177784
820.301	0.0179222
820.379	0.0179250
820.457	0.0178223
820.535	0.0178906
820.613	0.0180075
820.692	0.0178004
820.770	0.0176846
820.848	0.0178331
820.926	0.0178915
821.004	0.0178468
821.082	0.0177023
821.160	0.0178179
821.238	0.0178436
821.317	0.0177068
821.395	0.0178677
821.473	0.0177735
821.551	0.0177898
821.629	0.0180247
821.707	0.0179169
821.785	0.0178582
821.863	0.0179127
821.942	0.0178188
822.020	0.0177917
822.098	0.0178249
822.176	0.0179839
822.254	0.0180150
822.332	0.0178201
822.410	0.0178217
822.488	0.0180303
822.567	0.0178933
822.645	0.0179062
822.723	0.0179108
822.801	0.0178850
822.879	0.0180683
822.957	0.0180759
823.035	0.0180079
823.113	0.0178418
823.192	0.0178726
823.270	0.0180802
823.348	0.0179597
823.426	0.0180277
823.504	0.0180419
823.582	0.0181324
823.660	0.0180612
823.738	0.0178944
823.817	0.0180776
823.895	0.0180428
823.973	0.0180204
824.051	0.0180196
824.129	0.0179225
824.207	0.0179308
824.285	0.0179719
824.363	0.0180630
824.442	0.0178387
824.520	0.0180469
824.598	0.0178719
824.676	0.0179053
824.754	0.0178931
824.832	0.0179971
824.910	0.0178957
824.988	0.0180099
825.067	0.0179408
825.145	0.0178914
825.223	0.0178366
825.301	0.0179168
825.379	0.0179905
825.457	0.0180032
825.535	0.0178700
825.613	0.0178432
825.692	0.0179322
825.770	0.0177255
825.848	0.0177085
825.926	0.0178808
826.004	0.0178830
826.082	0.0179485
826.160	0.0178965
826.238	0.0177758
826.317	0.0177045
826.395	0.0177881
826.473	0.0176513
826.551	0.0180398
826.629	0.0178206
826.707	0.0178939
826.785	0.0178370
826.863	0.0179295
826.942	0.0178542
827.020	0.0180156
827.098	0.0178737
827.176	0.0178659
827.254	0.0178970
827.332	0.0179669
827.410	0.0179703
827.488	0.0180257
827.567	0.0179888
827.645	0.0179831
827.723	0.0180875
827.801	0.0180437
827.879	0.0180026
827.957	0.0179151
828.035	0.0179681
828.113	0.0180621
828.192	0.0179038
828.270	0.0178624
828.348	0.0179192
828.426	0.0179176
828.504	0.0179160
828.582	0.0178793
828.660	0.0177606
828.738	0.0179491
828.817	0.0178474
828.895	0.0177748
828.973	0.0177012
829.051	0.0176452
829.129	0.0177225
829.207	0.0176886
829.285	0.0176936
829.363	0.0176566
829.442	0.0176596
829.520	0.0177087
829.598	0.0176990
829.676	0.0177916
829.754	0.0177748
829.832	0.0177129
829.910	0.0176050
829.988	0.0178760
830.067	0.0178098
830.145	0.0177679
830.223	0.0179593
830.301	0.0179449
830.379	0.0179005
830.457	0.0178505
830.535	0.0179066
830.613	0.0178422
830.692	0.0178996
830.770	0.0179351
830.848	0.0178641
830.926	0.0179037
831.004	0.0178764
831.082	0.0179340
831.160	0.0180630
831.238	0.0178793
831.317	0.0180288
831.395	0.0179250
831.473	0.0179308
831.551	0.0180124
831.629	0.0179678
831.707	0.0181613
831.785	0.0180238
831.863	0.0180293
831.942	0.0178220
832.020	0.0179922
832.098	0.0179416
832.176	0.0181442
832.254	0.0179070
832.332	0.0180209
832.410	0.0181525
832.488	0.0180281
832.567	0.0179485
832.645	0.0180122
832.723	0.0180389
832.801	0.0180407
832.879	0.0178992
832.957	0.0180807
833.035	0.0181699
833.113	0.0181184
833.192	0.0179681
833.270	0.0179105
833.348	0.0180075
833.426	0.0179124
833.504	0.0179243
833.582	0.0178658
833.660	0.0178516
833.738	0.0178961
833.817	0.0178925
833.895	0.0178620
833.973	0.0178972
834.051	0.0180952
834.129	0.0180050
834.207	0.0180766
834.285	0.0180247
834.363	0.0179327
834.442	0.0179086
834.520	0.0179259
834.598	0.0178547
834.676	0.0179515
834.754	0.0179996
834.832	0.0180357
834.910	0.0179992
834.988	0.0180033
835.067	0.0180287
835.145	0.0180450
835.223	0.0179167
835.301	0.0180035
835.379	0.0179678
835.457	0.0181091
835.535	0.0179373
835.613	0.0180275
835.692	0.0179393
835.770	0.0179924
835.848	0.0180023
835.926	0.0180181
836.004	0.0179201
836.082	0.0180648
836.160	0.0179663
836.238	0.0179716
836.317	0.0179610
836.395	0.0180188
836.473	0.0180602
836.551	0.0180882
836.629	0.0178863
836.707	0.0179151
836.785	0.0178946
836.863	0.0179290
836.942	0.0178629
837.020	0.0178811
837.098	0.0180200
837.176	0.0178704
837.254	0.0178656
837.332	0.0178106
837.410	0.0178921
837.488	0.0178316
837.567	0.0178226
837.645	0.0178078
837.723	0.0177891
837.801	0.0178546
837.879	0.0180382
837.957	0.0179169
838.035	0.0178075
838.113	0.0177364
838.192	0.0178486
838.270	0.0179090
838.348	0.0177557
838.426	0.0179751
838.504	0.0177755
838.582	0.0178028
838.660	0.0178117
838.738	0.0178842
838.817	0.0178762
838.895	0.0179132
838.973	0.0179356
839.051	0.0178865
839.129	0.0178899
839.207	0.0179684
839.285	0.0180843
839.363	0.0179617
839.442	0.0179085
839.520	0.0179112
839.598	0.0179421
839.676	0.0179090
839.754	0.0179237
839.832	0.0178922
839.910	0.0180772
839.988	0.0179207
840.067	0.0179561
840.145	0.0178138
840.223	0.0178915
840.301	0.0179462
840.379	0.0179345
840.457	0.0179124
840.535	0.0179140
840.613	0.0177632
840.692	0.0178823
840.770	0.0178162
840.848	0.0178191
840.926	0.0178093
841.004	0.0178336
841.082	0.0178329
841.160	0.0178005
841.238	0.0177643
841.317	0.0178277
841.395	0.0178609
841.473	0.0177798
841.551	0.0178785
841.629	0.0178094
841.707	0.0177354
841.785	0.0178481
841.863	0.0178432
841.942	0.0179198
842.020	0.0178207
842.098	0.0178989
842.176	0.0179346
842.254	0.0179330
842.332	0.0179116
842.410	0.0178982
842.488	0.0178350
842.567	0.0179273
842.645	0.0180112
842.723	0.0179459
842.801	0.0178759
842.879	0.0179842
842.957	0.0178789
843.035	0.0181114
843.113	0.0180941
843.192	0.0179579
843.270	0.0180408
843.348	0.0181047
843.426	0.0180658
843.504	0.0179507
843.582	0.0179647
843.660	0.0180531
843.738	0.0180244
843.817	0.0181405
843.895	0.0180931
843.973	0.0181075
844.051	0.0180122
844.129	0.0180597
844.207	0.0179747
844.285	0.0179259
844.363	0.0179661
844.442	0.0179852
844.520	0.0179165
844.598	0.0181171
844.676	0.0180648
844.754	0.0177170
844.832	0.0178138
844.910	0.0178600
844.988	0.0179871
845.067	0.0179345
845.145	0.0179364
845.223	0.0178642
845.301	0.0179080
845.379	0.0179839
845.457	0.0179766
845.535	0.0180548
845.613	0.0178780
845.692	0.0178759
845.770	0.0179513
845.848	0.0180154
845.926	0.0179738
846.004	0.0179007
846.082	0.0180011
846.160	0.0180546
846.238	0.0179568
846.317	0.0178909
846.395	0.0179416
846.473	0.0178843
846.551	0.0181250
846.629	0.0179335
846.707	0.0179385
846.785	0.0179189
846.863	0.0178461
846.942	0.0177624
847.020	0.0177643
847.098	0.0177983
847.176	0.0179288
847.254	0.0177404
847.332	0.0177171
847.410	0.0178563
847.488	0.0177152
847.567	0.0177309
847.645	0.0176640
847.723	0.0176633
847.801	0.0178692
847.879	0.0177785
847.957	0.0176958
848.035	0.0176517
848.113	0.0177737
848.192	0.0177419
848.270	0.0179113
848.348	0.0177956
848.426	0.0177580
848.504	0.0177967
848.582	0.0178638
848.660	0.0179488
848.738	0.0177680
848.817	0.0179218
848.895	0.0179725
848.973	0.0180038
849.051	0.0179238
849.129	0.0178247
849.207	0.0178825
849.285	0.0179082
849.363	0.0180298
849.442	0.0178325
849.520	0.0178615
849.598	0.0179329
849.676	0.0180788
849.754	0.0179763
849.832	0.0178199
849.910	0.0179164
849.988	0.0180434
850.067	0.0180929
850.145	0.0180311
850.223	0.0181371
850.301	0.0178248
850.379	0.0179997
850.457	0.0179238
850.535	0.0178958
850.613	0.0179207
850.692	0.0180225
850.770	0.0179362
850.848	0.0179774
850.926	0.0179140
851.004	0.0179813
851.082	0.0180215
851.160	0.0180048
851.238	0.0179242
851.317	0.0180373
851.395	0.0180360
851.473	0.0179649
851.551	0.0179811
851.629	0.0180770
851.707	0.0179706
851.785	0.0180672
851.863	0.0180338
851.942	0.0179769
852.020	0.0180798
852.098	0.0179699
852.176	0.0180441
852.254	0.0181811
852.332	0.0181283
852.410	0.0181976
852.488	0.0182077
852.567	0.0179990
852.645	0.0180318
852.723	0.0180063
852.801	0.0181265
852.879	0.0180729
852.957	0.0180994
853.035	0.0181158
853.113	0.0180611
853.192	0.0179993
853.270	0.0180617
853.348	0.0181898
853.426	0.0180462
853.504	0.0180731
853.582	0.0179810
853.660	0.0180666
853.738	0.0180351
853.817	0.0180910
853.895	0.0181245
853.973	0.0181067
854.051	0.0180790
854.129	0.0181223
854.207	0.0178744
854.285	0.0181549
854.363	0.0180870
854.442	0.0181367
854.520	0.0180840
854.598	0.0181298
854.676	0.0180874
854.754	0.0181087
854.832	0.0179915
854.910	0.0181030
854.988	0.0180872
855.067	0.0181167
855.145	0.0181711
855.223	0.0180952
855.301	0.0179462
855.379	0.0179573
855.457	0.0181597
855.535	0.0180942
855.613	0.0179916
855.692	0.0179475
855.770	0.0179043
855.848	0.0179806
855.926	0.0178333
856.004	0.0177811
856.082	0.0178591
856.160	0.0178748
856.238	0.0177780
856.317	0.0178661
856.395	0.0179030
856.473	0.0178434
856.551	0.0178094
856.629	0.0177615
856.707	0.0176925
856.785	0.0176753
856.863	0.0176286
856.942	0.0175153
857.020	0.0175976
857.098	0.0177403
857.176	0.0176998
857.254	0.0175897
857.332	0.0176626
857.410	0.0177047
857.488	0.0175288
857.567	0.0175804
857.645	0.0176521
857.723	0.0175332
857.801	0.0176654
857.879	0.0178118
857.957	0.0175794
858.035	0.0177489
858.113	0.0177544
858.192	0.0177111
858.270	0.0177248
858.348	0.0177735
858.426	0.0178546
858.504	0.0178197
858.582	0.0178002
858.660	0.0177953
858.738	0.0178767
858.817	0.0178214
858.895	0.0178828
858.973	0.0177681
859.051	0.0178738
859.129	0.0178367
859.207	0.0180363
859.285	0.0177760
859.363	0.0178242
859.442	0.0179493
859.520	0.0177985
859.598	0.0179712
859.676	0.0178865
859.754	0.0178652
859.832	0.0178793
859.910	0.0177589
859.988	0.0176896
860.067	0.0177791
860.145	0.0177818
860.223	0.0178446
860.301	0.0177481
860.379	0.0178593
860.457	0.0177212
860.535	0.0177851
860.613	0.0177584
860.692	0.0176649
860.770	0.0176617
860.848	0.0176933
860.926	0.0176043
861.004	0.0176613
861.082	0.0177085
861.160	0.0176349
861.238	0.0176892
861.317	0.0176291
861.395	0.0176958
861.473	0.0176628
861.551	0.0177080
861.629	0.0176613
861.707	0.0176999
861.785	0.0177463
861.863	0.0176904
861.942	0.0177112
862.020	0.0176615
862.098	0.0175919
862.176	0.0176960
862.254	0.0177982
862.332	0.0178197
862.410	0.0177259
862.488	0.0176632
862.567	0.0178642
862.645	0.0176681
862.723	0.0177758
862.801	0.0179344
862.879	0.0178940
862.957	0.0178545
863.035	0.0178577
863.113	0.0178326
863.192	0.0179547
863.270	0.0179955
863.348	0.0178333
863.426	0.0179264
863.504	0.0178791
863.582	0.0179073
863.660	0.0179015
863.738	0.0179220
863.817	0.0178299
863.895	0.0179412
863.973	0.0178957
864.051	0.0179391
864.129	0.0179996
864.207	0.0179557
864.285	0.0178308
864.363	0.0178056
864.442	0.0179324
864.520	0.0179214
864.598	0.0179528
864.676	0.0179090
864.754	0.0178235
864.832	0.0179151
864.910	0.0180314
864.988	0.0180559
865.067	0.0179564
865.145	0.0178268
865.223	0.0179492
865.301	0.0180634
865.379	0.0180515
865.457	0.0179775
865.535	0.0179743
865.613	0.0179390
865.692	0.0180247
865.770	0.0180162
865.848	0.0179557
865.926	0.0179181
866.004	0.0179528
866.082	0.0179313
866.160	0.0179416
866.238	0.0179462
866.317	0.0180128
866.395	0.0180091
866.473	0.0179446
866.551	0.0179393
866.629	0.0179987
866.707	0.0179198
866.785	0.0178774
866.863	0.0179937
866.942	0.0180438
867.020	0.0179594
867.098	0.0178794
867.176	0.0181142
867.254	0.0180120
867.332	0.0180508
867.410	0.0181254
867.488	0.0180601
867.567	0.0181961
867.645	0.0179929
867.723	0.0178802
867.801	0.0179985
867.879	0.0179786
867.957	0.0179528
868.035	0.0180814
868.113	0.0178608
868.192	0.0181362
868.270	0.0179650
868.348	0.0179713
868.426	0.0179337
868.504	0.0180213
868.582	0.0180910
868.660	0.0180805
868.738	0.0181236
868.817	0.0181380
868.895	0.0181516
868.973	0.0179702
869.051	0.0179475
869.129	0.0180600
869.207	0.0180656
869.285	0.0180070
869.363	0.0180932
869.442	0.0180880
869.520	0.0180717
869.598	0.0180806
869.676	0.0180635
869.754	0.0180703
869.832	0.0181856
869.910	0.0180853
869.988	0.0180661
870.067	0.0181188
870.145	0.0182233
870.223	0.0180669
870.301	0.0180869
870.379	0.0181079
870.457	0.0181562
870.535	0.0180838
870.613	0.0180019
870.692	0.0181087
870.770	0.0181608
870.848	0.0182607
870.926	0.0181789
871.004	0.0181098
871.082	0.0180702
871.160	0.0181345
871.238	0.0181133
871.317	0.0180807
871.395	0.0181142
871.473	0.0181702
871.551	0.0180927
871.629	0.0180479
871.707	0.0181287
871.785	0.0179706
871.863	0.0182622
871.942	0.0181648
872.020	0.0179860
872.098	0.0180940
872.176	0.0181065
872.254	0.0180216
872.332	0.0180048
872.410	0.0180089
872.488	0.0180699
872.567	0.0179849
872.645	0.0179930
872.723	0.0179996
872.801	0.0180254
872.879	0.0180250
872.957	0.0179166
873.035	0.0178765
873.113	0.0179357
873.192	0.0179810
873.270	0.0179432
873.348	0.0178304
873.426	0.0178936
873.504	0.0178515
873.582	0.0178867
873.660	0.0177895
873.738	0.0179092
873.817	0.0177655
873.895	0.0179239
873.973	0.0179454
874.051	0.0176711
874.129	0.0178610
874.207	0.0179762
874.285	0.0178324
874.363	0.0178327
874.442	0.0179221
874.520	0.0178353
874.598	0.0177995
874.676	0.0178643
874.754	0.0178439
874.832	0.0178226
874.910	0.0178831
874.988	0.0178571
875.067	0.0178429
875.145	0.0178304
875.223	0.0178827
875.301	0.0179549
875.379	0.0177750
875.457	0.0177881
875.535	0.0178609
875.613	0.0178465
875.692	0.0179020
875.770	0.0179794
875.848	0.0179203
875.926	0.0178223
876.004	0.0178848
876.082	0.0178836
876.160	0.0180592
876.238	0.0179211
876.317	0.0178709
876.395	0.0179749
876.473	0.0180083
876.551	0.0176660
876.629	0.0177821
876.707	0.0180222
876.785	0.0178999
876.863	0.0177460
876.942	0.0179225
877.020	0.0178568
877.098	0.0177812
877.176	0.0179098
877.254	0.0178453
877.332	0.0178301
877.410	0.0178880
877.488	0.0177412
877.567	0.0177833
877.645	0.0177251
877.723	0.0178122
877.801	0.0177916
877.879	0.0176131
877.957	0.0178577
878.035	0.0177975
878.113	0.0177261
878.192	0.0178986
878.270	0.0178046
878.348	0.0177200
878.426	0.0176296
878.504	0.0177992
878.582	0.0177618
878.660	0.0178664
878.738	0.0177084
878.817	0.0177592
878.895	0.0178213
878.973	0.0179169
879.051	0.0178868
879.129	0.0178317
879.207	0.0179221
879.285	0.0178753
879.363	0.0180298
879.442	0.0179807
879.520	0.0177820
879.598	0.0178662
879.676	0.0178413
879.754	0.0178243
879.832	0.0179092
879.910	0.0178101
879.988	0.0178106
880.067	0.0178188
880.145	0.0177914
880.223	0.0176141
880.301	0.0176726
880.379	0.0176518
880.457	0.0177720
880.535	0.0176302
880.613	0.0177773
880.692	0.0177805
880.770	0.0177576
880.848	0.0177070
880.926	0.0176930
881.004	0.0177345
881.082	0.0177107
881.160	0.0177798
881.238	0.0177779
881.317	0.0177852
881.395	0.0177910
881.473	0.0178986
881.551	0.0178345
881.629	0.0177223
881.707	0.0180008
881.785	0.0179198
881.863	0.0179994
881.942	0.0179359
882.020	0.0178804
882.098	0.0179887
882.176	0.0178154
882.254	0.0178722
882.332	0.0178827
882.410	0.0179134
882.488	0.0180692
882.567	0.0178658
882.645	0.0178306
882.723	0.0179319
882.801	0.0178638
882.879	0.0179290
882.957	0.0178776
883.035	0.0179162
883.113	0.0180748
883.192	0.0178545
883.270	0.0180981
883.348	0.0178495
883.426	0.0179552
883.504	0.0180305
883.582	0.0179770
883.660	0.0180267
883.738	0.0180563
883.817	0.0178188
883.895	0.0179543
883.973	0.0179710
884.051	0.0179430
884.129	0.0177539
884.207	0.0178522
884.285	0.0178492
884.363	0.0179795
884.442	0.0179137
884.520	0.0179572
884.598	0.0179145
884.676	0.0177596
884.754	0.0178606
884.832	0.0178918
884.910	0.0178541
884.988	0.0178690
885.067	0.0177988
885.145	0.0178262
885.223	0.0180198
885.301	0.0179237
885.379	0.0179530
885.457	0.0177725
885.535	0.0179131
885.613	0.0177957
885.692	0.0179233
885.770	0.0179957
885.848	0.0179436
885.926	0.0180312
886.004	0.0179458
886.082	0.0179790
886.160	0.0179652
886.238	0.0179696
886.317	0.0179951
886.395	0.0178874
886.473	0.0179162
886.551	0.0178932
886.629	0.0178877
886.707	0.0180083
886.785	0.0179037
886.863	0.0179490
886.942	0.0180866
887.020	0.0179197
887.098	0.0179454
887.176	0.0179462
887.254	0.0180333
887.332	0.0179363
887.410	0.0179149
887.488	0.0179620
887.567	0.0179554
887.645	0.0179744
887.723	0.0178071
887.801	0.0178859
887.879	0.0179734
887.957	0.0178784
888.035	0.0178754
888.113	0.0179377
888.192	0.0178294
888.270	0.0177163
888.348	0.0178172
888.426	0.0178550
888.504	0.0177840
888.582	0.0176898
888.660	0.0177248
888.738	0.0178017
888.817	0.0176810
888.895	0.0177690
888.973	0.0177242
889.051	0.0176662
889.129	0.0177467
889.207	0.0178352
889.285	0.0177510
889.363	0.0177805
889.442	0.0178307
889.520	0.0178491
889.598	0.0178156
889.676	0.0178179
889.754	0.0178837
889.832	0.0177654
889.910	0.0179167
889.988	0.0179139
890.067	0.0177735
890.145	0.0179468
890.223	0.0177574
890.301	0.0179091
890.379	0.0178887
890.457	0.0179573
890.535	0.0179336
890.613	0.0180075
890.692	0.0178719
890.770	0.0179251
890.848	0.0179763
890.926	0.0178474
891.004	0.0178272
891.082	0.0179140
891.160	0.0179613
891.238	0.0179458
891.317	0.0179809
891.395	0.0180182
891.473	0.0179939
891.551	0.0180638
891.629	0.0178599
891.707	0.0180752
891.785	0.0179351
891.863	0.0179524
891.942	0.0180047
892.020	0.0179497
892.098	0.0180594
892.176	0.0180421
892.254	0.0179961
892.332	0.0181058
892.410	0.0180870
892.488	0.0180801
892.567	0.0179765
892.645	0.0179118
892.723	0.0181000
892.801	0.0179532
892.879	0.0180231
892.957	0.0180647
893.035	0.0181274
893.113	0.0180774
893.192	0.0180125
893.270	0.0179893
893.348	0.0178843
893.426	0.0179094
893.504	0.0180337
893.582	0.0180907
893.660	0.0179803
893.738	0.0179686
893.817	0.0178274
893.895	0.0178657
893.973	0.0178428
894.051	0.0178561
894.129	0.0179212
894.207	0.0178879
894.285	0.0180173
894.363	0.0178773
894.442	0.0179594
894.520	0.0178064
894.598	0.0178143
894.676	0.0179748
894.754	0.0179733
894.832	0.0180374
894.910	0.0179713
894.988	0.0180234
895.067	0.0179220
895.145	0.0180195
895.223	0.0181461
895.301	0.0181388
895.379	0.0180029
895.457	0.0179806
895.535	0.0179805
895.613	0.0179957
895.692	0.0181020
895.770	0.0179434
895.848	0.0180203
895.926	0.0181135
896.004	0.0180180
896.082	0.0180373
896.160	0.0180312
896.238	0.0180019
896.317	0.0180376
896.395	0.0181419
896.473	0.0180206
896.551	0.0180451
896.629	0.0180965
896.707	0.0179955
896.785	0.0181671
896.863	0.0179600
896.942	0.0180207
897.020	0.0181973
897.098	0.0181987
897.176	0.0181186
897.254	0.0180363
897.332	0.0180223
897.410	0.0179434
897.488	0.0180451
897.567	0.0180524
897.645	0.0181329
897.723	0.0180125
897.801	0.0180849
897.879	0.0180365
897.957	0.0178592
898.035	0.0179724
898.113	0.0179449
898.192	0.0178864
898.270	0.0180001
898.348	0.0180310
898.426	0.0178304
898.504	0.0179314
898.582	0.0178957
898.660	0.0179211
898.738	0.0179281
898.817	0.0179316
898.895	0.0178307
898.973	0.0178738
899.051	0.0178267
899.129	0.0179061
899.207	0.0178588
899.285	0.0178741
899.363	0.0179190
899.442	0.0179524
899.520	0.0178255
899.598	0.0177136
899.676	0.0179842
899.754	0.0179694
899.832	0.0180064
899.910	0.0178559
899.988	0.0178764
900.067	0.0178362
900.145	0.0178498
900.223	0.0178898
900.301	0.0178685
900.379	0.0178452
900.457	0.0177809
900.535	0.0178133
900.613	0.0178363
900.692	0.0177448
900.770	0.0179004
900.848	0.0178562
900.926	0.0177930
901.004	0.0178168
901.082	0.0179507
901.160	0.0178244
901.238	0.0178484
901.317	0.0179214
901.395	0.0177784
901.473	0.0177680
901.551	0.0178207
901.629	0.0176417
901.707	0.0177843
901.785	0.0179197
901.863	0.0177304
901.942	0.0177223
902.020	0.0177267
902.098	0.0177070
902.176	0.0178486
902.254	0.0176732
902.332	0.0176431
902.410	0.0176906
902.488	0.0177021
902.567	0.0177660
902.645	0.0177042
902.723	0.0177213
902.801	0.0176899
902.879	0.0177016
902.957	0.0177325
903.035	0.0176503
903.113	0.0176913
903.192	0.0176723
903.270	0.0176897
903.348	0.0177306
903.426	0.0178349
903.504	0.0177316
903.582	0.0177906
903.660	0.0178624
903.738	0.0177364
903.817	0.0177010
903.895	0.0177423
903.973	0.0179355
904.051	0.0177989
904.129	0.0179134
904.207	0.0178974
904.285	0.0177613
904.363	0.0176735
904.442	0.0177557
904.520	0.0179416
904.598	0.0177502
904.676	0.0178219
904.754	0.0177732
904.832	0.0178101
904.910	0.0178323
904.988	0.0178223
905.067	0.0178278
905.145	0.0177356
905.223	0.0178132
905.301	0.0178603
905.379	0.0179546
905.457	0.0177940
905.535	0.0178029
905.613	0.0178932
905.692	0.0178073
905.770	0.0179459
905.848	0.0179922
905.926	0.0179422
906.004	0.0179840
906.082	0.0178632
906.160	0.0179195
906.238	0.0179312
906.317	0.0181820
906.395	0.0179430
906.473	0.0180007
906.551	0.0180972
906.629	0.0179955
906.707	0.0181017
906.785	0.0181389
906.863	0.0180763
906.942	0.0180054
907.020	0.0180541
907.098	0.0181756
907.176	0.0180812
907.254	0.0181499
907.332	0.0180716
907.410	0.0180927
907.488	0.0182626
907.567	0.0181691
907.645	0.0179299
907.723	0.0180186
907.801	0.0180384
907.879	0.0180201
907.957	0.0180241
908.035	0.0179075
908.113	0.0177924
908.192	0.0179691
908.270	0.0178725
908.348	0.0179356
908.426	0.0178857
908.504	0.0179868
908.582	0.0178605
908.660	0.0178693
908.738	0.0179575
908.817	0.0179967
908.895	0.0178463
908.973	0.0177525
909.051	0.0180350
909.129	0.0177528
909.207	0.0177749
909.285	0.0178486
909.363	0.0178886
909.442	0.0178063
909.520	0.0179923
909.598	0.0178493
909.676	0.0177474
909.754	0.0177290
909.832	0.0178017
909.910	0.0178648
909.988	0.0178623
910.067	0.0180170
910.145	0.0178176
910.223	0.0178786
910.301	0.0179173
910.379	0.0179414
910.457	0.0180844
910.535	0.0179375
910.613	0.0179127
910.692	0.0180559
910.770	0.0180409
910.848	0.0181142
910.926	0.0179649
911.004	0.0180463
911.082	0.0179977
911.160	0.0180119
911.238	0.0179903
911.317	0.0180279
911.395	0.0178858
911.473	0.0179618
911.551	0.0181212
911.629	0.0179851
911.707	0.0179587
911.785	0.0181373
911.863	0.0178774
911.942	0.0178070
912.020	0.0178361
912.098	0.0178569
912.176	0.0179800
912.254	0.0180038
912.332	0.0179541
912.410	0.0179135
912.488	0.0179504
912.567	0.0179217
912.645	0.0180140
912.723	0.0179347
912.801	0.0178606
912.879	0.0180365
912.957	0.0179716
913.035	0.0178475
913.113	0.0179419
913.192	0.0180400
913.270	0.0181264
913.348	0.0178048
913.426	0.0178749
913.504	0.0179218
913.582	0.0178511
913.660	0.0178905
913.738	0.0179817
913.817	0.0178961
913.895	0.0178763
913.973	0.0179578
914.051	0.0179549
914.129	0.0179406
914.207	0.0179276
914.285	0.0178615
914.363	0.0178971
914.442	0.0178094
914.520	0.0179381
914.598	0.0178796
914.676	0.0179562
914.754	0.0179665
914.832	0.0179169
914.910	0.0179724
914.988	0.0179641
915.067	0.0180023
915.145	0.0179102
915.223	0.0178858
915.301	0.0179781
915.379	0.0179311
915.457	0.0179118
915.535	0.0179359
915.613	0.0179695
915.692	0.0179939
915.770	0.0179955
915.848	0.0180006
915.926	0.0178432
916.004	0.0177651
916.082	0.0180339
916.160	0.0179955
916.238	0.0179833
916.317	0.0179637
916.395	0.0178478
916.473	0.0179145
916.551	0.0181622
916.629	0.0178033
916.707	0.0180661
916.785	0.0181059
916.863	0.0180902
916.942	0.0180190
917.020	0.0180043
917.098	0.0180831
917.176	0.0181361
917.254	0.0180939
917.332	0.0180333
917.410	0.0181081
917.488	0.0182143
917.567	0.0181038
917.645	0.0181343
917.723	0.0180703
917.801	0.0182319
917.879	0.0181633
917.957	0.0180325
918.035	0.0181264
918.113	0.0179764
918.192	0.0181683
918.270	0.0181023
918.348	0.0182956
918.426	0.0181932
918.504	0.0180714
918.582	0.0180321
918.660	0.0180489
918.738	0.0181494
918.817	0.0180473
918.895	0.0179734
918.973	0.0180642
919.051	0.0179832
919.129	0.0182097
919.207	0.0181111
919.285	0.0180544
919.363	0.0180428
919.442	0.0180161
919.520	0.0180983
919.598	0.0181158
919.676	0.0181638
919.754	0.0180366
919.832	0.0180970
919.910	0.0180268
