06/01/2022	22:12:54	Ver.	4.1	UNKNOWN
Optical Delay	599.988409	Delta X		0.078125	Sweeps	1	Scan Rate	0/0
Coordinates	Axis 1	NaN	Axis 2	NaN	Axis 3	NaN	Axis 4	NaN	Axis 5	NaN	Axis 6	0.000000
TX Power	0.000000	RX Power	0.000000

599.988	0.0178334
600.067	0.0178452
600.145	0.0178221
600.223	0.0177834
600.301	0.0178297
600.379	0.0178113
600.457	0.0178819
600.535	0.0178098
600.613	0.0178788
600.692	0.0178604
600.770	0.0178661
600.848	0.0179192
600.926	0.0178283
601.004	0.0179739
601.082	0.0178760
601.160	0.0178409
601.238	0.0179362
601.317	0.0178555
601.395	0.0179110
601.473	0.0178036
601.551	0.0177605
601.629	0.0178953
601.707	0.0179481
601.785	0.0178243
601.863	0.0178491
601.942	0.0176836
602.020	0.0177565
602.098	0.0177985
602.176	0.0180132
602.254	0.0178751
602.332	0.0178609
602.410	0.0178303
602.488	0.0179076
602.567	0.0178088
602.645	0.0177824
602.723	0.0179126
602.801	0.0180149
602.879	0.0179755
602.957	0.0179108
603.035	0.0178203
603.113	0.0179256
603.192	0.0179906
603.270	0.0178078
603.348	0.0179114
603.426	0.0179646
603.504	0.0179253
603.582	0.0179005
603.660	0.0180219
603.738	0.0179803
603.817	0.0178792
603.895	0.0179385
603.973	0.0180454
604.051	0.0180787
604.129	0.0179174
604.207	0.0179360
604.285	0.0180137
604.363	0.0181850
604.442	0.0181688
604.520	0.0181739
604.598	0.0180171
604.676	0.0179297
604.754	0.0180311
604.832	0.0180063
604.910	0.0181313
604.988	0.0179982
605.067	0.0179862
605.145	0.0181023
605.223	0.0180803
605.301	0.0180479
605.379	0.0181582
605.457	0.0179877
605.535	0.0179645
605.613	0.0180142
605.692	0.0181366
605.770	0.0179900
605.848	0.0181213
605.926	0.0180956
606.004	0.0180434
606.082	0.0179305
606.160	0.0179200
606.238	0.0181170
606.317	0.0180582
606.395	0.0181441
606.473	0.0180856
606.551	0.0180318
606.629	0.0181227
606.707	0.0182201
606.785	0.0180223
606.863	0.0181126
606.942	0.0179955
607.020	0.0180650
607.098	0.0182056
607.176	0.0181306
607.254	0.0180281
607.332	0.0180321
607.410	0.0180970
607.488	0.0180592
607.567	0.0181915
607.645	0.0181021
607.723	0.0181975
607.801	0.0181329
607.879	0.0180624
607.957	0.0181580
608.035	0.0180372
608.113	0.0180910
608.192	0.0181066
608.270	0.0180800
608.348	0.0180042
608.426	0.0179485
608.504	0.0181261
608.582	0.0180749
608.660	0.0179882
608.738	0.0181277
608.817	0.0181234
608.895	0.0181448
608.973	0.0180670
609.051	0.0181553
609.129	0.0180895
609.207	0.0180041
609.285	0.0181032
609.363	0.0181142
609.442	0.0182494
609.520	0.0181241
609.598	0.0180540
609.676	0.0180891
609.754	0.0181831
609.832	0.0181425
609.910	0.0182028
609.988	0.0181732
610.067	0.0181331
610.145	0.0181713
610.223	0.0181747
610.301	0.0180945
610.379	0.0179970
610.457	0.0180725
610.535	0.0181280
610.613	0.0182086
610.692	0.0180335
610.770	0.0182004
610.848	0.0182180
610.926	0.0180830
611.004	0.0179440
611.082	0.0180884
611.160	0.0179880
611.238	0.0181791
611.317	0.0179027
611.395	0.0180296
611.473	0.0180942
611.551	0.0179360
611.629	0.0179557
611.707	0.0177503
611.785	0.0179254
611.863	0.0179195
611.942	0.0179480
612.020	0.0178147
612.098	0.0179330
612.176	0.0178469
612.254	0.0178403
612.332	0.0177277
612.410	0.0177498
612.488	0.0177543
612.567	0.0177736
612.645	0.0178386
612.723	0.0179269
612.801	0.0177148
612.879	0.0177830
612.957	0.0178548
613.035	0.0178966
613.113	0.0178012
613.192	0.0178373
613.270	0.0178423
613.348	0.0177540
613.426	0.0178249
613.504	0.0178190
613.582	0.0179771
613.660	0.0178501
613.738	0.0178386
613.817	0.0179528
613.895	0.0177518
613.973	0.0179106
614.051	0.0178722
614.129	0.0177477
614.207	0.0179543
614.285	0.0178672
614.363	0.0179706
614.442	0.0178898
614.520	0.0179632
614.598	0.0179708
614.676	0.0178779
614.754	0.0179345
614.832	0.0180037
614.910	0.0179113
614.988	0.0180174
615.067	0.0179308
615.145	0.0177746
615.223	0.0180466
615.301	0.0180431
615.379	0.0178382
615.457	0.0179198
615.535	0.0179824
615.613	0.0179346
615.692	0.0179128
615.770	0.0179394
615.848	0.0179292
615.926	0.0180118
616.004	0.0180139
616.082	0.0179922
616.160	0.0178419
616.238	0.0178832
616.317	0.0179124
616.395	0.0179414
616.473	0.0179790
616.551	0.0178040
616.629	0.0179246
616.707	0.0179227
616.785	0.0178736
616.863	0.0179005
616.942	0.0178369
617.020	0.0177954
617.098	0.0179529
617.176	0.0177579
617.254	0.0179327
617.332	0.0179530
617.410	0.0178005
617.488	0.0177704
617.567	0.0178669
617.645	0.0178777
617.723	0.0178250
617.801	0.0177812
617.879	0.0177306
617.957	0.0177541
618.035	0.0177543
618.113	0.0178835
618.192	0.0178653
618.270	0.0178911
618.348	0.0179312
618.426	0.0177515
618.504	0.0177665
618.582	0.0177506
618.660	0.0177702
618.738	0.0179015
618.817	0.0178174
618.895	0.0176905
618.973	0.0178100
619.051	0.0178796
619.129	0.0178001
619.207	0.0179374
619.285	0.0178880
619.363	0.0177584
619.442	0.0178391
619.520	0.0178318
619.598	0.0178483
619.676	0.0179636
619.754	0.0177922
619.832	0.0178740
619.910	0.0178105
619.988	0.0177708
620.067	0.0178526
620.145	0.0177621
620.223	0.0178249
620.301	0.0178215
620.379	0.0178046
620.457	0.0179289
620.535	0.0179382
620.613	0.0177579
620.692	0.0179691
620.770	0.0180344
620.848	0.0178905
620.926	0.0179913
621.004	0.0180042
621.082	0.0179846
621.160	0.0180367
621.238	0.0180936
621.317	0.0181387
621.395	0.0180858
621.473	0.0180549
621.551	0.0179010
621.629	0.0180230
621.707	0.0181175
621.785	0.0179890
621.863	0.0180576
621.942	0.0180695
622.020	0.0180256
622.098	0.0181423
622.176	0.0180759
622.254	0.0180481
622.332	0.0181686
622.410	0.0180679
622.488	0.0179191
622.567	0.0179718
622.645	0.0179124
622.723	0.0179768
622.801	0.0180558
622.879	0.0179543
622.957	0.0179056
623.035	0.0179633
623.113	0.0179246
623.192	0.0179422
623.270	0.0180255
623.348	0.0180331
623.426	0.0180032
623.504	0.0179041
623.582	0.0180482
623.660	0.0179833
623.738	0.0178564
623.817	0.0178539
623.895	0.0180246
623.973	0.0180109
624.051	0.0179141
624.129	0.0179822
624.207	0.0178703
624.285	0.0179693
624.363	0.0178885
624.442	0.0179394
624.520	0.0179372
624.598	0.0179956
624.676	0.0180250
624.754	0.0178540
624.832	0.0178194
624.910	0.0178118
624.988	0.0179803
625.067	0.0179230
625.145	0.0179813
625.223	0.0178436
625.301	0.0179214
625.379	0.0179906
625.457	0.0177951
625.535	0.0177242
625.613	0.0179085
625.692	0.0178236
625.770	0.0178957
625.848	0.0177715
625.926	0.0177051
626.004	0.0178060
626.082	0.0176301
626.160	0.0178245
626.238	0.0177202
626.317	0.0176696
626.395	0.0177608
626.473	0.0177888
626.551	0.0177734
626.629	0.0178389
626.707	0.0178951
626.785	0.0178057
626.863	0.0178572
626.942	0.0176733
627.020	0.0178051
627.098	0.0179530
627.176	0.0178371
627.254	0.0177600
627.332	0.0178085
627.410	0.0178198
627.488	0.0178573
627.567	0.0179292
627.645	0.0178674
627.723	0.0179591
627.801	0.0178478
627.879	0.0178898
627.957	0.0181065
628.035	0.0179772
628.113	0.0179601
628.192	0.0179865
628.270	0.0179137
628.348	0.0179804
628.426	0.0180829
628.504	0.0181146
628.582	0.0179803
628.660	0.0179983
628.738	0.0178670
628.817	0.0179311
628.895	0.0179812
628.973	0.0177977
629.051	0.0179639
629.129	0.0179558
629.207	0.0179461
629.285	0.0178426
629.363	0.0178939
629.442	0.0176796
629.520	0.0178777
629.598	0.0180995
629.676	0.0178484
629.754	0.0176995
629.832	0.0177837
629.910	0.0178355
629.988	0.0178319
630.067	0.0178674
630.145	0.0177969
630.223	0.0177741
630.301	0.0179179
630.379	0.0178711
630.457	0.0178364
630.535	0.0178111
630.613	0.0177994
630.692	0.0178790
630.770	0.0178657
630.848	0.0179610
630.926	0.0178159
631.004	0.0179366
631.082	0.0179936
631.160	0.0181255
631.238	0.0178587
631.317	0.0178284
631.395	0.0179171
631.473	0.0178713
631.551	0.0179213
631.629	0.0182071
631.707	0.0180748
631.785	0.0179530
631.863	0.0179986
631.942	0.0178698
632.020	0.0180169
632.098	0.0181106
632.176	0.0179918
632.254	0.0180540
632.332	0.0179964
632.410	0.0180997
632.488	0.0179819
632.567	0.0180119
632.645	0.0180910
632.723	0.0179267
632.801	0.0180703
632.879	0.0180914
632.957	0.0181721
633.035	0.0179291
633.113	0.0180164
633.192	0.0180614
633.270	0.0180917
633.348	0.0178558
633.426	0.0179487
633.504	0.0179714
633.582	0.0179200
633.660	0.0178927
633.738	0.0178651
633.817	0.0179354
633.895	0.0178449
633.973	0.0179790
634.051	0.0181631
634.129	0.0179965
634.207	0.0178441
634.285	0.0178821
634.363	0.0179477
634.442	0.0180132
634.520	0.0179559
634.598	0.0179273
634.676	0.0180009
634.754	0.0180061
634.832	0.0178906
634.910	0.0180995
634.988	0.0181918
635.067	0.0179295
635.145	0.0179856
635.223	0.0179755
635.301	0.0179007
635.379	0.0179543
635.457	0.0179742
635.535	0.0180291
635.613	0.0178876
635.692	0.0179482
635.770	0.0178520
635.848	0.0180049
635.926	0.0177778
636.004	0.0180020
636.082	0.0178978
636.160	0.0179019
636.238	0.0180209
636.317	0.0178359
636.395	0.0178619
636.473	0.0180077
636.551	0.0179530
636.629	0.0178588
636.707	0.0178651
636.785	0.0178743
636.863	0.0178991
636.942	0.0178740
637.020	0.0178741
637.098	0.0178167
637.176	0.0177901
637.254	0.0179349
637.332	0.0178176
637.410	0.0178273
637.488	0.0179403
637.567	0.0178664
637.645	0.0177350
637.723	0.0176878
637.801	0.0177610
637.879	0.0178036
637.957	0.0176810
638.035	0.0177850
638.113	0.0177990
638.192	0.0177558
638.270	0.0176059
638.348	0.0176693
638.426	0.0178694
638.504	0.0177352
638.582	0.0178802
638.660	0.0177409
638.738	0.0177869
638.817	0.0176657
638.895	0.0177554
638.973	0.0178878
639.051	0.0178034
639.129	0.0178762
639.207	0.0178593
639.285	0.0180845
639.363	0.0180774
639.442	0.0179101
639.520	0.0179141
639.598	0.0180050
639.676	0.0179694
639.754	0.0179099
639.832	0.0180495
639.910	0.0178391
639.988	0.0179150
640.067	0.0179295
640.145	0.0180567
640.223	0.0179341
640.301	0.0179742
640.379	0.0178410
640.457	0.0178432
640.535	0.0178822
640.613	0.0178854
640.692	0.0178610
640.770	0.0179725
640.848	0.0178413
640.926	0.0177645
641.004	0.0178802
641.082	0.0178702
641.160	0.0177785
641.238	0.0178402
641.317	0.0179357
641.395	0.0177143
641.473	0.0177445
641.551	0.0178557
641.629	0.0179533
641.707	0.0178671
641.785	0.0179620
641.863	0.0178312
641.942	0.0178265
642.020	0.0178707
642.098	0.0179967
642.176	0.0179372
642.254	0.0179662
642.332	0.0180402
642.410	0.0179337
642.488	0.0179478
642.567	0.0180564
642.645	0.0179710
642.723	0.0181129
642.801	0.0180305
642.879	0.0178967
642.957	0.0178632
643.035	0.0180464
643.113	0.0179412
643.192	0.0178582
643.270	0.0180603
643.348	0.0179832
643.426	0.0180015
643.504	0.0178935
643.582	0.0179399
643.660	0.0178506
643.738	0.0179671
643.817	0.0178748
643.895	0.0179172
643.973	0.0178413
644.051	0.0178484
644.129	0.0179448
644.207	0.0179364
644.285	0.0179615
644.363	0.0179763
644.442	0.0179755
644.520	0.0178307
644.598	0.0179738
644.676	0.0178917
644.754	0.0178485
644.832	0.0178523
644.910	0.0179589
644.988	0.0178942
645.067	0.0180437
645.145	0.0179682
645.223	0.0178799
645.301	0.0180010
645.379	0.0180181
645.457	0.0180413
645.535	0.0180503
645.613	0.0180239
645.692	0.0181350
645.770	0.0180121
645.848	0.0179904
645.926	0.0180264
646.004	0.0179025
646.082	0.0179368
646.160	0.0180764
646.238	0.0179257
646.317	0.0178359
646.395	0.0178046
646.473	0.0180428
646.551	0.0179385
646.629	0.0179594
646.707	0.0179176
646.785	0.0179813
646.863	0.0180148
646.942	0.0179153
647.020	0.0178040
647.098	0.0178501
647.176	0.0178521
647.254	0.0178711
647.332	0.0178121
647.410	0.0179148
647.488	0.0178059
647.567	0.0179019
647.645	0.0178679
647.723	0.0177274
647.801	0.0178447
647.879	0.0178308
647.957	0.0178179
648.035	0.0177272
648.113	0.0177940
648.192	0.0178700
648.270	0.0178078
648.348	0.0177628
648.426	0.0178374
648.504	0.0177150
648.582	0.0178073
648.660	0.0178565
648.738	0.0178137
648.817	0.0178377
648.895	0.0178535
648.973	0.0179605
649.051	0.0178154
649.129	0.0180405
649.207	0.0179047
649.285	0.0178924
649.363	0.0179427
649.442	0.0180752
649.520	0.0180744
649.598	0.0179118
649.676	0.0179880
649.754	0.0181142
649.832	0.0182127
649.910	0.0179766
649.988	0.0179610
650.067	0.0181080
650.145	0.0182442
650.223	0.0181580
650.301	0.0181001
650.379	0.0180552
650.457	0.0181544
650.535	0.0180724
650.613	0.0181766
650.692	0.0179450
650.770	0.0181687
650.848	0.0181567
650.926	0.0180512
651.004	0.0180688
651.082	0.0180768
651.160	0.0180826
651.238	0.0180277
651.317	0.0180573
651.395	0.0181940
651.473	0.0179786
651.551	0.0180019
651.629	0.0180009
651.707	0.0180846
651.785	0.0179137
651.863	0.0179472
651.942	0.0178750
652.020	0.0178432
652.098	0.0180528
652.176	0.0178727
652.254	0.0179342
652.332	0.0179983
652.410	0.0179515
652.488	0.0179515
652.567	0.0179643
652.645	0.0179543
652.723	0.0178659
652.801	0.0178532
652.879	0.0179652
652.957	0.0178784
653.035	0.0180374
653.113	0.0180166
653.192	0.0180859
653.270	0.0179859
653.348	0.0179375
653.426	0.0179421
653.504	0.0180150
653.582	0.0180682
653.660	0.0178838
653.738	0.0179975
653.817	0.0179597
653.895	0.0179288
653.973	0.0178398
654.051	0.0179276
654.129	0.0179706
654.207	0.0178825
654.285	0.0180479
654.363	0.0179759
654.442	0.0178963
654.520	0.0178113
654.598	0.0178845
654.676	0.0178213
654.754	0.0177248
654.832	0.0178397
654.910	0.0178474
654.988	0.0178465
655.067	0.0179616
655.145	0.0178689
655.223	0.0178302
655.301	0.0178465
655.379	0.0178439
655.457	0.0177470
655.535	0.0179093
655.613	0.0178811
655.692	0.0178186
655.770	0.0179166
655.848	0.0179005
655.926	0.0179125
656.004	0.0178440
656.082	0.0179122
656.160	0.0179924
656.238	0.0178877
656.317	0.0177943
656.395	0.0179530
656.473	0.0178303
656.551	0.0178737
656.629	0.0178509
656.707	0.0177207
656.785	0.0179282
656.863	0.0179404
656.942	0.0178459
657.020	0.0176928
657.098	0.0178236
657.176	0.0179085
657.254	0.0179696
657.332	0.0177361
657.410	0.0178506
657.488	0.0178530
657.567	0.0178278
657.645	0.0179111
657.723	0.0178239
657.801	0.0177805
657.879	0.0178243
657.957	0.0179151
658.035	0.0180124
658.113	0.0179259
658.192	0.0177294
658.270	0.0178506
658.348	0.0178436
658.426	0.0178831
658.504	0.0178368
658.582	0.0179274
658.660	0.0179879
658.738	0.0178199
658.817	0.0179072
658.895	0.0178579
658.973	0.0178820
659.051	0.0178667
659.129	0.0179103
659.207	0.0179285
659.285	0.0178819
659.363	0.0177893
659.442	0.0179455
659.520	0.0179738
659.598	0.0178846
659.676	0.0179915
659.754	0.0179686
659.832	0.0180117
659.910	0.0179694
659.988	0.0181241
660.067	0.0179712
660.145	0.0180871
660.223	0.0181490
660.301	0.0180015
660.379	0.0181301
660.457	0.0181538
660.535	0.0180795
660.613	0.0179516
660.692	0.0180301
660.770	0.0179990
660.848	0.0179418
660.926	0.0179107
661.004	0.0179655
661.082	0.0178105
661.160	0.0177343
661.238	0.0179563
661.317	0.0179073
661.395	0.0179322
661.473	0.0178868
661.551	0.0178546
661.629	0.0178393
661.707	0.0177944
661.785	0.0180531
661.863	0.0179242
661.942	0.0178526
662.020	0.0179530
662.098	0.0180048
662.176	0.0178020
662.254	0.0178912
662.332	0.0178326
662.410	0.0180183
662.488	0.0179167
662.567	0.0178911
662.645	0.0179691
662.723	0.0178552
662.801	0.0180103
662.879	0.0181070
662.957	0.0179352
663.035	0.0179371
663.113	0.0179980
663.192	0.0180634
663.270	0.0179302
663.348	0.0179842
663.426	0.0179137
663.504	0.0180142
663.582	0.0178751
663.660	0.0179094
663.738	0.0180350
663.817	0.0180036
663.895	0.0178179
663.973	0.0178937
664.051	0.0178612
664.129	0.0179954
664.207	0.0180299
664.285	0.0180038
664.363	0.0178811
664.442	0.0180097
664.520	0.0180060
664.598	0.0178782
664.676	0.0179348
664.754	0.0179077
664.832	0.0178297
664.910	0.0177824
664.988	0.0178706
665.067	0.0180466
665.145	0.0178878
665.223	0.0179507
665.301	0.0180022
665.379	0.0178722
665.457	0.0179922
665.535	0.0180511
665.613	0.0179156
665.692	0.0179304
665.770	0.0178444
665.848	0.0180047
665.926	0.0179447
666.004	0.0179256
666.082	0.0181210
666.160	0.0179189
666.238	0.0178481
666.317	0.0179163
666.395	0.0180705
666.473	0.0180247
666.551	0.0178206
666.629	0.0179510
666.707	0.0180092
666.785	0.0179464
666.863	0.0180064
666.942	0.0179750
667.020	0.0179028
667.098	0.0180183
667.176	0.0179008
667.254	0.0180205
667.332	0.0181573
667.410	0.0180925
667.488	0.0181104
667.567	0.0179860
667.645	0.0180305
667.723	0.0182393
667.801	0.0179084
667.879	0.0180453
667.957	0.0180851
668.035	0.0179654
668.113	0.0181608
668.192	0.0182124
668.270	0.0181653
668.348	0.0182047
668.426	0.0178924
668.504	0.0180104
668.582	0.0181207
668.660	0.0180928
668.738	0.0180427
668.817	0.0179920
668.895	0.0181849
668.973	0.0180364
669.051	0.0181268
669.129	0.0177901
669.207	0.0179475
669.285	0.0180340
669.363	0.0180078
669.442	0.0180122
669.520	0.0178893
669.598	0.0178612
669.676	0.0179721
669.754	0.0178950
669.832	0.0179328
669.910	0.0180273
669.988	0.0180271
670.067	0.0180222
670.145	0.0179815
670.223	0.0180084
670.301	0.0180145
670.379	0.0179857
670.457	0.0181606
670.535	0.0179229
670.613	0.0180216
670.692	0.0179454
670.770	0.0180608
670.848	0.0180546
670.926	0.0180968
671.004	0.0181198
671.082	0.0180315
671.160	0.0180293
671.238	0.0180656
671.317	0.0180924
671.395	0.0182342
671.473	0.0182153
671.551	0.0179594
671.629	0.0179668
671.707	0.0180071
671.785	0.0181240
671.863	0.0180537
671.942	0.0179630
672.020	0.0180006
672.098	0.0179340
672.176	0.0179166
672.254	0.0179512
672.332	0.0178865
672.410	0.0179326
672.488	0.0177689
672.567	0.0178195
672.645	0.0179267
672.723	0.0178905
672.801	0.0178046
672.879	0.0177542
672.957	0.0179725
673.035	0.0178844
673.113	0.0179762
673.192	0.0178753
673.270	0.0178712
673.348	0.0178171
673.426	0.0178522
673.504	0.0179700
673.582	0.0179819
673.660	0.0179924
673.738	0.0180533
673.817	0.0180595
673.895	0.0179816
673.973	0.0178612
674.051	0.0180481
674.129	0.0180391
674.207	0.0177685
674.285	0.0179470
674.363	0.0180560
674.442	0.0179932
674.520	0.0179015
674.598	0.0179338
674.676	0.0179185
674.754	0.0178599
674.832	0.0179644
674.910	0.0178728
674.988	0.0177790
675.067	0.0178336
675.145	0.0180163
675.223	0.0179539
675.301	0.0178601
675.379	0.0178854
675.457	0.0180448
675.535	0.0180418
675.613	0.0180486
675.692	0.0179129
675.770	0.0179272
675.848	0.0178983
675.926	0.0179890
676.004	0.0179765
676.082	0.0179625
676.160	0.0179469
676.238	0.0179214
676.317	0.0179904
676.395	0.0180170
676.473	0.0181104
676.551	0.0179737
676.629	0.0179374
676.707	0.0179449
676.785	0.0177628
676.863	0.0178850
676.942	0.0178849
677.020	0.0178380
677.098	0.0178306
677.176	0.0179018
677.254	0.0178708
677.332	0.0178928
677.410	0.0177670
677.488	0.0177808
677.567	0.0178348
677.645	0.0179507
677.723	0.0178039
677.801	0.0178509
677.879	0.0179898
677.957	0.0179032
678.035	0.0179745
678.113	0.0180643
678.192	0.0180381
678.270	0.0179597
678.348	0.0179903
678.426	0.0181937
678.504	0.0181583
678.582	0.0181857
678.660	0.0182272
678.738	0.0183317
678.817	0.0182648
678.895	0.0182848
678.973	0.0182784
679.051	0.0183037
679.129	0.0184065
679.207	0.0182671
679.285	0.0181393
679.363	0.0182917
679.442	0.0182437
679.520	0.0181852
679.598	0.0181708
679.676	0.0179812
679.754	0.0180060
679.832	0.0180082
679.910	0.0179352
679.988	0.0177693
680.067	0.0177645
680.145	0.0178866
680.223	0.0177749
680.301	0.0178074
680.379	0.0178268
680.457	0.0179723
680.535	0.0180493
680.613	0.0180341
680.692	0.0181654
680.770	0.0180478
680.848	0.0181622
680.926	0.0182665
681.004	0.0181171
681.082	0.0180287
681.160	0.0183127
681.238	0.0181841
681.317	0.0181476
681.395	0.0181739
681.473	0.0181853
681.551	0.0182165
681.629	0.0180913
681.707	0.0181350
681.785	0.0179798
681.863	0.0181096
681.942	0.0179340
682.020	0.0179745
682.098	0.0179913
682.176	0.0178115
682.254	0.0177905
682.332	0.0178006
682.410	0.0176910
682.488	0.0177701
682.567	0.0177435
682.645	0.0176852
682.723	0.0176202
682.801	0.0177583
682.879	0.0180010
682.957	0.0178429
683.035	0.0178813
683.113	0.0178329
683.192	0.0179231
683.270	0.0179638
683.348	0.0180415
683.426	0.0180700
683.504	0.0179873
683.582	0.0181036
683.660	0.0182108
683.738	0.0182457
683.817	0.0180654
683.895	0.0180312
683.973	0.0180549
684.051	0.0180115
684.129	0.0180653
684.207	0.0180059
684.285	0.0179402
684.363	0.0179681
684.442	0.0180657
684.520	0.0180059
684.598	0.0180898
684.676	0.0180167
684.754	0.0179698
684.832	0.0180003
684.910	0.0180011
684.988	0.0180247
685.067	0.0180164
685.145	0.0180854
685.223	0.0178796
685.301	0.0179562
685.379	0.0178941
685.457	0.0178057
685.535	0.0177472
685.613	0.0176925
685.692	0.0176611
685.770	0.0175807
685.848	0.0177802
685.926	0.0176887
686.004	0.0176122
686.082	0.0175893
686.160	0.0178388
686.238	0.0175684
686.317	0.0177316
686.395	0.0178909
686.473	0.0177757
686.551	0.0177403
686.629	0.0177975
686.707	0.0177721
686.785	0.0177146
686.863	0.0178486
686.942	0.0177699
687.020	0.0178671
687.098	0.0178581
687.176	0.0179823
687.254	0.0179515
687.332	0.0179575
687.410	0.0179668
687.488	0.0179349
687.567	0.0181233
687.645	0.0180678
687.723	0.0181242
687.801	0.0180280
687.879	0.0181155
687.957	0.0180794
688.035	0.0181821
688.113	0.0183449
688.192	0.0182432
688.270	0.0181738
688.348	0.0180928
688.426	0.0180421
688.504	0.0180925
688.582	0.0181528
688.660	0.0179262
688.738	0.0180546
688.817	0.0179234
688.895	0.0178368
688.973	0.0177209
689.051	0.0177675
689.129	0.0175068
689.207	0.0174937
689.285	0.0174203
689.363	0.0173642
689.442	0.0173723
689.520	0.0172802
689.598	0.0172265
689.676	0.0172834
689.754	0.0172316
689.832	0.0171119
689.910	0.0171324
689.988	0.0172236
690.067	0.0173863
690.145	0.0174501
690.223	0.0174506
690.301	0.0177005
690.379	0.0176962
690.457	0.0177106
690.535	0.0179913
690.613	0.0179859
690.692	0.0180614
690.770	0.0181847
690.848	0.0181831
690.926	0.0183321
691.004	0.0183603
691.082	0.0182410
691.160	0.0182672
691.238	0.0182093
691.317	0.0184695
691.395	0.0183406
691.473	0.0183166
691.551	0.0181564
691.629	0.0180524
691.707	0.0182048
691.785	0.0181503
691.863	0.0181446
691.942	0.0181098
692.020	0.0179520
692.098	0.0179910
692.176	0.0179066
692.254	0.0178440
692.332	0.0178637
692.410	0.0176705
692.488	0.0176888
692.567	0.0177264
692.645	0.0175970
692.723	0.0177194
692.801	0.0176202
692.879	0.0176058
692.957	0.0175681
693.035	0.0174874
693.113	0.0175095
693.192	0.0176083
693.270	0.0175918
693.348	0.0176014
693.426	0.0176068
693.504	0.0175956
693.582	0.0174512
693.660	0.0176258
693.738	0.0177395
693.817	0.0175671
693.895	0.0176162
693.973	0.0176633
694.051	0.0175725
694.129	0.0177811
694.207	0.0178063
694.285	0.0177333
694.363	0.0179147
694.442	0.0177621
694.520	0.0180390
694.598	0.0180570
694.676	0.0180288
694.754	0.0179903
694.832	0.0180322
694.910	0.0181719
694.988	0.0182223
695.067	0.0182253
695.145	0.0182105
695.223	0.0182629
695.301	0.0183141
695.379	0.0183389
695.457	0.0182560
695.535	0.0183128
695.613	0.0182986
695.692	0.0182117
695.770	0.0183060
695.848	0.0182700
695.926	0.0182072
696.004	0.0181726
696.082	0.0183313
696.160	0.0180666
696.238	0.0180954
696.317	0.0179897
696.395	0.0178951
696.473	0.0177710
696.551	0.0177132
696.629	0.0176266
696.707	0.0176507
696.785	0.0175269
696.863	0.0174529
696.942	0.0174451
697.020	0.0173885
697.098	0.0174275
697.176	0.0173501
697.254	0.0172451
697.332	0.0173054
697.410	0.0175463
697.488	0.0174271
697.567	0.0172914
697.645	0.0172325
697.723	0.0175040
697.801	0.0175172
697.879	0.0174657
697.957	0.0175761
698.035	0.0176289
698.113	0.0175358
698.192	0.0177902
698.270	0.0178953
698.348	0.0180009
698.426	0.0180020
698.504	0.0179771
698.582	0.0179670
698.660	0.0180347
698.738	0.0178850
698.817	0.0180598
698.895	0.0180081
698.973	0.0179073
699.051	0.0181076
699.129	0.0179393
699.207	0.0180405
699.285	0.0180032
699.363	0.0180207
699.442	0.0180080
699.520	0.0180653
699.598	0.0179120
699.676	0.0180221
699.754	0.0180294
699.832	0.0180137
699.910	0.0181860
699.988	0.0181451
700.067	0.0180390
700.145	0.0180451
700.223	0.0181409
700.301	0.0181413
700.379	0.0182178
700.457	0.0183412
700.535	0.0181702
700.613	0.0182462
700.692	0.0182944
700.770	0.0184461
700.848	0.0183855
700.926	0.0184632
701.004	0.0184028
701.082	0.0183190
701.160	0.0184325
701.238	0.0181518
701.317	0.0181133
701.395	0.0182848
701.473	0.0179704
701.551	0.0178925
701.629	0.0177296
701.707	0.0177880
701.785	0.0175970
701.863	0.0175617
701.942	0.0174648
702.020	0.0174678
702.098	0.0175137
702.176	0.0175173
702.254	0.0173412
702.332	0.0173828
702.410	0.0174747
702.488	0.0172587
702.567	0.0172282
702.645	0.0174417
702.723	0.0173060
702.801	0.0173518
702.879	0.0173271
702.957	0.0172816
703.035	0.0175190
703.113	0.0174083
703.192	0.0174133
703.270	0.0174267
703.348	0.0176684
703.426	0.0175341
703.504	0.0174414
703.582	0.0177478
703.660	0.0177963
703.738	0.0176932
703.817	0.0177450
703.895	0.0178391
703.973	0.0179640
704.051	0.0179406
704.129	0.0181413
704.207	0.0181090
704.285	0.0181100
704.363	0.0182274
704.442	0.0185413
704.520	0.0184922
704.598	0.0185565
704.676	0.0185913
704.754	0.0186121
704.832	0.0186853
704.910	0.0187483
704.988	0.0188049
705.067	0.0186436
705.145	0.0187030
705.223	0.0187637
705.301	0.0188147
705.379	0.0186871
705.457	0.0184962
705.535	0.0185394
705.613	0.0184351
705.692	0.0182836
705.770	0.0182610
705.848	0.0182275
705.926	0.0180196
706.004	0.0181785
706.082	0.0181861
706.160	0.0182056
706.238	0.0181140
706.317	0.0180673
706.395	0.0180868
706.473	0.0179516
706.551	0.0178161
706.629	0.0176720
706.707	0.0175721
706.785	0.0173682
706.863	0.0174087
706.942	0.0173449
707.020	0.0171280
707.098	0.0171236
707.176	0.0170405
707.254	0.0170878
707.332	0.0170059
707.410	0.0169479
707.488	0.0168599
707.567	0.0167148
707.645	0.0169953
707.723	0.0170309
707.801	0.0169518
707.879	0.0170101
707.957	0.0170604
708.035	0.0170206
708.113	0.0171860
708.192	0.0173103
708.270	0.0174847
708.348	0.0175915
708.426	0.0177802
708.504	0.0179224
708.582	0.0180495
708.660	0.0180755
708.738	0.0183146
708.817	0.0185421
708.895	0.0185616
708.973	0.0186528
709.051	0.0187538
709.129	0.0188000
709.207	0.0189268
709.285	0.0188721
709.363	0.0188969
709.442	0.0188568
709.520	0.0188047
709.598	0.0188638
709.676	0.0188603
709.754	0.0186995
709.832	0.0186626
709.910	0.0185136
709.988	0.0183514
710.067	0.0184126
710.145	0.0185172
710.223	0.0184508
710.301	0.0182932
710.379	0.0182926
710.457	0.0183255
710.535	0.0181605
710.613	0.0181947
710.692	0.0181567
710.770	0.0179431
710.848	0.0179600
710.926	0.0179937
711.004	0.0179549
711.082	0.0177777
711.160	0.0178617
711.238	0.0177797
711.317	0.0176492
711.395	0.0175869
711.473	0.0176492
711.551	0.0177605
711.629	0.0174924
711.707	0.0175073
711.785	0.0175716
711.863	0.0175517
711.942	0.0174550
712.020	0.0174694
712.098	0.0174220
712.176	0.0174271
712.254	0.0176982
712.332	0.0176389
712.410	0.0175919
712.488	0.0176856
712.567	0.0176916
712.645	0.0177047
712.723	0.0176596
712.801	0.0177165
712.879	0.0176167
712.957	0.0178248
713.035	0.0177000
713.113	0.0176927
713.192	0.0177000
713.270	0.0176058
713.348	0.0175744
713.426	0.0176131
713.504	0.0175443
713.582	0.0175094
713.660	0.0176447
713.738	0.0173885
713.817	0.0175298
713.895	0.0177290
713.973	0.0175256
714.051	0.0176147
714.129	0.0176077
714.207	0.0175875
714.285	0.0176879
714.363	0.0175886
714.442	0.0175797
714.520	0.0177811
714.598	0.0177805
714.676	0.0177197
714.754	0.0177833
714.832	0.0177411
714.910	0.0178165
714.988	0.0180070
715.067	0.0179922
715.145	0.0177888
715.223	0.0179050
715.301	0.0180184
715.379	0.0178858
715.457	0.0180859
715.535	0.0181415
715.613	0.0181441
715.692	0.0182393
715.770	0.0182271
715.848	0.0184105
715.926	0.0182336
716.004	0.0182101
716.082	0.0183292
716.160	0.0184171
716.238	0.0181734
716.317	0.0181839
716.395	0.0182768
716.473	0.0180950
716.551	0.0182228
716.629	0.0182149
716.707	0.0182037
716.785	0.0181049
716.863	0.0178734
716.942	0.0179017
717.020	0.0178472
717.098	0.0178511
717.176	0.0178590
717.254	0.0180322
717.332	0.0178576
717.410	0.0177253
717.488	0.0176119
717.567	0.0177020
717.645	0.0176669
717.723	0.0176394
717.801	0.0176607
717.879	0.0178667
717.957	0.0177285
718.035	0.0177347
718.113	0.0177744
718.192	0.0175945
718.270	0.0177959
718.348	0.0176962
718.426	0.0177692
718.504	0.0178223
718.582	0.0179243
718.660	0.0177937
718.738	0.0176962
718.817	0.0178411
718.895	0.0177192
718.973	0.0178349
719.051	0.0176714
719.129	0.0175514
719.207	0.0176678
719.285	0.0175440
719.363	0.0176181
719.442	0.0174516
719.520	0.0174831
719.598	0.0175743
719.676	0.0173824
719.754	0.0175214
719.832	0.0175700
719.910	0.0175816
719.988	0.0176694
720.067	0.0177230
720.145	0.0176989
720.223	0.0177271
720.301	0.0177708
720.379	0.0178815
720.457	0.0179750
720.535	0.0179697
720.613	0.0179359
720.692	0.0179526
720.770	0.0179108
720.848	0.0179546
720.926	0.0181345
721.004	0.0180508
721.082	0.0181564
721.160	0.0181730
721.238	0.0181314
721.317	0.0180150
721.395	0.0181298
721.473	0.0181985
721.551	0.0180119
721.629	0.0183360
721.707	0.0182233
721.785	0.0182277
721.863	0.0182823
721.942	0.0183920
722.020	0.0181200
722.098	0.0182918
722.176	0.0181349
722.254	0.0182915
722.332	0.0182781
722.410	0.0182729
722.488	0.0182208
722.567	0.0182568
722.645	0.0182191
722.723	0.0182485
722.801	0.0181675
722.879	0.0181154
722.957	0.0182227
723.035	0.0181568
723.113	0.0181525
723.192	0.0182122
723.270	0.0182115
723.348	0.0180263
723.426	0.0180955
723.504	0.0180529
723.582	0.0180294
723.660	0.0180747
723.738	0.0179429
723.817	0.0179520
723.895	0.0177825
723.973	0.0178124
724.051	0.0178989
724.129	0.0177216
724.207	0.0176749
724.285	0.0177216
724.363	0.0176038
724.442	0.0175442
724.520	0.0175247
724.598	0.0175410
724.676	0.0173705
724.754	0.0174215
724.832	0.0173506
724.910	0.0173482
724.988	0.0173808
725.067	0.0174055
725.145	0.0173811
725.223	0.0173743
725.301	0.0174634
725.379	0.0175695
725.457	0.0174143
725.535	0.0175483
725.613	0.0175868
725.692	0.0176138
725.770	0.0176684
725.848	0.0177121
725.926	0.0176533
726.004	0.0177919
726.082	0.0178177
726.160	0.0178472
726.238	0.0178073
726.317	0.0179369
726.395	0.0179297
726.473	0.0180228
726.551	0.0179001
726.629	0.0179156
726.707	0.0179898
726.785	0.0179059
726.863	0.0179756
726.942	0.0179891
727.020	0.0181390
727.098	0.0180239
727.176	0.0178501
727.254	0.0179798
727.332	0.0181277
727.410	0.0179523
727.488	0.0180909
727.567	0.0178682
727.645	0.0179659
727.723	0.0179695
727.801	0.0180502
727.879	0.0181087
727.957	0.0181241
728.035	0.0180619
728.113	0.0180972
728.192	0.0180259
728.270	0.0180820
728.348	0.0182583
728.426	0.0181843
728.504	0.0181808
728.582	0.0181898
728.660	0.0182555
728.738	0.0182047
728.817	0.0179742
728.895	0.0181487
728.973	0.0177948
729.051	0.0179062
729.129	0.0179818
729.207	0.0179762
729.285	0.0178642
729.363	0.0178400
729.442	0.0178364
729.520	0.0177253
729.598	0.0178093
729.676	0.0177476
729.754	0.0176588
729.832	0.0177115
729.910	0.0179488
729.988	0.0178035
730.067	0.0177972
730.145	0.0179618
730.223	0.0178123
730.301	0.0177014
730.379	0.0179568
730.457	0.0179344
730.535	0.0178476
730.613	0.0178388
730.692	0.0179719
730.770	0.0177920
730.848	0.0177462
730.926	0.0177369
731.004	0.0177596
731.082	0.0176396
731.160	0.0176325
731.238	0.0176710
731.317	0.0174880
731.395	0.0175757
731.473	0.0175995
731.551	0.0175839
731.629	0.0176659
731.707	0.0176529
731.785	0.0177261
731.863	0.0177749
731.942	0.0176522
732.020	0.0179244
732.098	0.0178921
732.176	0.0179175
732.254	0.0180520
732.332	0.0179729
732.410	0.0180898
732.488	0.0181037
732.567	0.0182383
732.645	0.0181747
732.723	0.0180702
732.801	0.0182373
732.879	0.0182526
732.957	0.0180980
733.035	0.0182811
733.113	0.0181291
733.192	0.0181412
733.270	0.0182323
733.348	0.0181659
733.426	0.0179465
733.504	0.0180063
733.582	0.0179637
733.660	0.0180112
733.738	0.0179830
733.817	0.0179091
733.895	0.0178577
733.973	0.0178748
734.051	0.0178278
734.129	0.0178925
734.207	0.0179925
734.285	0.0179742
734.363	0.0180161
734.442	0.0179874
734.520	0.0181299
734.598	0.0179526
734.676	0.0180791
734.754	0.0180840
734.832	0.0180130
734.910	0.0181317
734.988	0.0180469
735.067	0.0182043
735.145	0.0180991
735.223	0.0181242
735.301	0.0181313
735.379	0.0182572
735.457	0.0181723
735.535	0.0182228
735.613	0.0182548
735.692	0.0182011
735.770	0.0182327
735.848	0.0182134
735.926	0.0181622
736.004	0.0182446
736.082	0.0182901
736.160	0.0183911
736.238	0.0184187
736.317	0.0183139
736.395	0.0182657
736.473	0.0183074
736.551	0.0182872
736.629	0.0184155
736.707	0.0181908
736.785	0.0183237
736.863	0.0182087
736.942	0.0182754
737.020	0.0183894
737.098	0.0182011
737.176	0.0181915
737.254	0.0180642
737.332	0.0181287
737.410	0.0181989
737.488	0.0180913
737.567	0.0180051
737.645	0.0182351
737.723	0.0182057
737.801	0.0181167
737.879	0.0179069
737.957	0.0179886
738.035	0.0180647
738.113	0.0180314
738.192	0.0178257
738.270	0.0178556
738.348	0.0179321
738.426	0.0177454
738.504	0.0177791
738.582	0.0178098
738.660	0.0177856
738.738	0.0178244
738.817	0.0177132
738.895	0.0176496
738.973	0.0177076
739.051	0.0177277
739.129	0.0177777
739.207	0.0177168
739.285	0.0175697
739.363	0.0176345
739.442	0.0174704
739.520	0.0175290
739.598	0.0175500
739.676	0.0175768
739.754	0.0175414
739.832	0.0177921
739.910	0.0178500
739.988	0.0177569
740.067	0.0176531
740.145	0.0176371
740.223	0.0178133
740.301	0.0178534
740.379	0.0179128
740.457	0.0178548
740.535	0.0179881
740.613	0.0177534
740.692	0.0178268
740.770	0.0179697
740.848	0.0178883
740.926	0.0179805
741.004	0.0181448
741.082	0.0180414
741.160	0.0182012
741.238	0.0181733
741.317	0.0180432
741.395	0.0180320
741.473	0.0181831
741.551	0.0180957
741.629	0.0182011
741.707	0.0182245
741.785	0.0182020
741.863	0.0182774
741.942	0.0181700
742.020	0.0181433
742.098	0.0180692
742.176	0.0181498
742.254	0.0182093
742.332	0.0181804
742.410	0.0181068
742.488	0.0180158
742.567	0.0180602
742.645	0.0180771
742.723	0.0180714
742.801	0.0180459
742.879	0.0179662
742.957	0.0181213
743.035	0.0181699
743.113	0.0181638
743.192	0.0181961
743.270	0.0182259
743.348	0.0181160
743.426	0.0181718
743.504	0.0183214
743.582	0.0181345
743.660	0.0181300
743.738	0.0180530
743.817	0.0182204
743.895	0.0179567
743.973	0.0180145
744.051	0.0180116
744.129	0.0180258
744.207	0.0179447
744.285	0.0178214
744.363	0.0178404
744.442	0.0178088
744.520	0.0178252
744.598	0.0177396
744.676	0.0176720
744.754	0.0177975
744.832	0.0177191
744.910	0.0176603
744.988	0.0175366
745.067	0.0176331
745.145	0.0177240
745.223	0.0178544
745.301	0.0178540
745.379	0.0178673
745.457	0.0178823
745.535	0.0178524
745.613	0.0178352
745.692	0.0178786
745.770	0.0180042
745.848	0.0180346
745.926	0.0180666
746.004	0.0180225
746.082	0.0180038
746.160	0.0181273
746.238	0.0181651
746.317	0.0181408
746.395	0.0182761
746.473	0.0181585
746.551	0.0181317
746.629	0.0181654
746.707	0.0181499
746.785	0.0181852
746.863	0.0181798
746.942	0.0182202
747.020	0.0182565
747.098	0.0181468
747.176	0.0180238
747.254	0.0179064
747.332	0.0180901
747.410	0.0180965
747.488	0.0179141
747.567	0.0179868
747.645	0.0179718
747.723	0.0178476
747.801	0.0177001
747.879	0.0178779
747.957	0.0179711
748.035	0.0178053
748.113	0.0178025
748.192	0.0179292
748.270	0.0179794
748.348	0.0179927
748.426	0.0180343
748.504	0.0179894
748.582	0.0180525
748.660	0.0179098
748.738	0.0178975
748.817	0.0178836
748.895	0.0178591
748.973	0.0178297
749.051	0.0179640
749.129	0.0179884
749.207	0.0177945
749.285	0.0178890
749.363	0.0178568
749.442	0.0177808
749.520	0.0178622
749.598	0.0177970
749.676	0.0178951
749.754	0.0179077
749.832	0.0179352
749.910	0.0177561
749.988	0.0178853
750.067	0.0179062
750.145	0.0179092
750.223	0.0178996
750.301	0.0178496
750.379	0.0178381
750.457	0.0179034
750.535	0.0180185
750.613	0.0181557
750.692	0.0179301
750.770	0.0179402
750.848	0.0179650
750.926	0.0180335
751.004	0.0179909
751.082	0.0180207
751.160	0.0180665
751.238	0.0181847
751.317	0.0180951
751.395	0.0178915
751.473	0.0179185
751.551	0.0179980
751.629	0.0179378
751.707	0.0178927
751.785	0.0178728
751.863	0.0178902
751.942	0.0177966
752.020	0.0176291
752.098	0.0178539
752.176	0.0177776
752.254	0.0178808
752.332	0.0178857
752.410	0.0178638
752.488	0.0178504
752.567	0.0177894
752.645	0.0177530
752.723	0.0178989
752.801	0.0178986
752.879	0.0179292
752.957	0.0178510
753.035	0.0179281
753.113	0.0179256
753.192	0.0179324
753.270	0.0179283
753.348	0.0177486
753.426	0.0180263
753.504	0.0179277
753.582	0.0179382
753.660	0.0178276
753.738	0.0179213
753.817	0.0178394
753.895	0.0179028
753.973	0.0178387
754.051	0.0178882
754.129	0.0177431
754.207	0.0177669
754.285	0.0179359
754.363	0.0176577
754.442	0.0177427
754.520	0.0178408
754.598	0.0177531
754.676	0.0176772
754.754	0.0176531
754.832	0.0177142
754.910	0.0177224
754.988	0.0177877
755.067	0.0177292
755.145	0.0176432
755.223	0.0177615
755.301	0.0176624
755.379	0.0178011
755.457	0.0178648
755.535	0.0178911
755.613	0.0178541
755.692	0.0179005
755.770	0.0180676
755.848	0.0179296
755.926	0.0180845
756.004	0.0182329
756.082	0.0181837
756.160	0.0181509
756.238	0.0181999
756.317	0.0182574
756.395	0.0182809
756.473	0.0181685
756.551	0.0181847
756.629	0.0182349
756.707	0.0183352
756.785	0.0182919
756.863	0.0182680
756.942	0.0183806
757.020	0.0182184
757.098	0.0183549
757.176	0.0183873
757.254	0.0184364
757.332	0.0182288
757.410	0.0182185
757.488	0.0183309
757.567	0.0182595
757.645	0.0181880
757.723	0.0182560
757.801	0.0183039
757.879	0.0181960
757.957	0.0181892
758.035	0.0180191
758.113	0.0180872
758.192	0.0181320
758.270	0.0180109
758.348	0.0179774
758.426	0.0179381
758.504	0.0178003
758.582	0.0178446
758.660	0.0178667
758.738	0.0179805
758.817	0.0178528
758.895	0.0178614
758.973	0.0180035
759.051	0.0178518
759.129	0.0177603
759.207	0.0178135
759.285	0.0178904
759.363	0.0178806
759.442	0.0178747
759.520	0.0179054
759.598	0.0178590
759.676	0.0177773
759.754	0.0179001
759.832	0.0179632
759.910	0.0178424
759.988	0.0177666
760.067	0.0178761
760.145	0.0177907
760.223	0.0178886
760.301	0.0179438
760.379	0.0178584
760.457	0.0179402
760.535	0.0178957
760.613	0.0178925
760.692	0.0178889
760.770	0.0178014
760.848	0.0178609
760.926	0.0178257
761.004	0.0177393
761.082	0.0177853
761.160	0.0178806
761.238	0.0178493
761.317	0.0178393
761.395	0.0176582
761.473	0.0177953
761.551	0.0178773
761.629	0.0177954
761.707	0.0177407
761.785	0.0178714
761.863	0.0178977
761.942	0.0178018
762.020	0.0178666
762.098	0.0178104
762.176	0.0177394
762.254	0.0176833
762.332	0.0177721
762.410	0.0176434
762.488	0.0176394
762.567	0.0175727
762.645	0.0176895
762.723	0.0176337
762.801	0.0175099
762.879	0.0175201
762.957	0.0176627
763.035	0.0176389
763.113	0.0176823
763.192	0.0176240
763.270	0.0176616
763.348	0.0177522
763.426	0.0177744
763.504	0.0178268
763.582	0.0179712
763.660	0.0179247
763.738	0.0179633
763.817	0.0180465
763.895	0.0180989
763.973	0.0181471
764.051	0.0180222
764.129	0.0181105
764.207	0.0182478
764.285	0.0181538
764.363	0.0181519
764.442	0.0181760
764.520	0.0182329
764.598	0.0181313
764.676	0.0181450
764.754	0.0181911
764.832	0.0181292
764.910	0.0181261
764.988	0.0180226
765.067	0.0181374
765.145	0.0180373
765.223	0.0180833
765.301	0.0179922
765.379	0.0180256
765.457	0.0181281
765.535	0.0180507
765.613	0.0180482
765.692	0.0180041
765.770	0.0182461
765.848	0.0181526
765.926	0.0181242
766.004	0.0182256
766.082	0.0181941
766.160	0.0181356
766.238	0.0181365
766.317	0.0182974
766.395	0.0181283
766.473	0.0180703
766.551	0.0180003
766.629	0.0180849
766.707	0.0180305
766.785	0.0179177
766.863	0.0179960
766.942	0.0179053
767.020	0.0179142
767.098	0.0178426
767.176	0.0178191
767.254	0.0176936
767.332	0.0177609
767.410	0.0177916
767.488	0.0177577
767.567	0.0177795
767.645	0.0177811
767.723	0.0177735
767.801	0.0178810
767.879	0.0178784
767.957	0.0178024
768.035	0.0178334
768.113	0.0177912
768.192	0.0177781
768.270	0.0178680
768.348	0.0179098
768.426	0.0179250
768.504	0.0177586
768.582	0.0178407
768.660	0.0180811
768.738	0.0179656
768.817	0.0179398
768.895	0.0180022
768.973	0.0178936
769.051	0.0178722
769.129	0.0177792
769.207	0.0179021
769.285	0.0179843
769.363	0.0179160
769.442	0.0179324
769.520	0.0177995
769.598	0.0179269
769.676	0.0179453
769.754	0.0180219
769.832	0.0179539
769.910	0.0179431
769.988	0.0177940
770.067	0.0179031
770.145	0.0179158
770.223	0.0179008
770.301	0.0178130
770.379	0.0178354
770.457	0.0178776
770.535	0.0178355
770.613	0.0178058
770.692	0.0180107
770.770	0.0180965
770.848	0.0180058
770.926	0.0180857
771.004	0.0181294
771.082	0.0181192
771.160	0.0182065
771.238	0.0182109
771.317	0.0182226
771.395	0.0183850
771.473	0.0181699
771.551	0.0181311
771.629	0.0180576
771.707	0.0180358
771.785	0.0180007
771.863	0.0178671
771.942	0.0178503
772.020	0.0180069
772.098	0.0180612
772.176	0.0179737
772.254	0.0178875
772.332	0.0179370
772.410	0.0180090
772.488	0.0179559
772.567	0.0179049
772.645	0.0179532
772.723	0.0180508
772.801	0.0180116
772.879	0.0178564
772.957	0.0179710
773.035	0.0179871
773.113	0.0179665
773.192	0.0179178
773.270	0.0178729
773.348	0.0178188
773.426	0.0178817
773.504	0.0178240
773.582	0.0176732
773.660	0.0177364
773.738	0.0175972
773.817	0.0176493
773.895	0.0175574
773.973	0.0174391
774.051	0.0176509
774.129	0.0175887
774.207	0.0176625
774.285	0.0176802
774.363	0.0175739
774.442	0.0178474
774.520	0.0177158
774.598	0.0177293
774.676	0.0177316
774.754	0.0177382
774.832	0.0177840
774.910	0.0179140
774.988	0.0180871
775.067	0.0179769
775.145	0.0181197
775.223	0.0180460
775.301	0.0180620
775.379	0.0180273
775.457	0.0180303
775.535	0.0180764
775.613	0.0181172
775.692	0.0181203
775.770	0.0181895
775.848	0.0180782
775.926	0.0181427
776.004	0.0181185
776.082	0.0179881
776.160	0.0178859
776.238	0.0178467
776.317	0.0177912
776.395	0.0177989
776.473	0.0179038
776.551	0.0177990
776.629	0.0177764
776.707	0.0179013
776.785	0.0178754
776.863	0.0178627
776.942	0.0179584
777.020	0.0180341
777.098	0.0180087
777.176	0.0179248
777.254	0.0179414
777.332	0.0180212
777.410	0.0180235
777.488	0.0180833
777.567	0.0180246
777.645	0.0180614
777.723	0.0180083
777.801	0.0181122
777.879	0.0181902
777.957	0.0181068
778.035	0.0180907
778.113	0.0181124
778.192	0.0180194
778.270	0.0179441
778.348	0.0179591
778.426	0.0179161
778.504	0.0179202
778.582	0.0178460
778.660	0.0179000
778.738	0.0178516
778.817	0.0179260
778.895	0.0179588
778.973	0.0179566
779.051	0.0180638
779.129	0.0178922
779.207	0.0179955
779.285	0.0180809
779.363	0.0180296
779.442	0.0179320
779.520	0.0178934
779.598	0.0180046
779.676	0.0180536
779.754	0.0181076
779.832	0.0179784
779.910	0.0178793
779.988	0.0179073
780.067	0.0179907
780.145	0.0178323
780.223	0.0179278
780.301	0.0178480
780.379	0.0178290
780.457	0.0177664
780.535	0.0179091
780.613	0.0177040
780.692	0.0176817
780.770	0.0176424
780.848	0.0177588
780.926	0.0175940
781.004	0.0176007
781.082	0.0173466
781.160	0.0174927
781.238	0.0175077
781.317	0.0175573
781.395	0.0174348
781.473	0.0174718
781.551	0.0173742
781.629	0.0173646
781.707	0.0173932
781.785	0.0174727
781.863	0.0173758
781.942	0.0174075
782.020	0.0173057
782.098	0.0174132
782.176	0.0174665
782.254	0.0175061
782.332	0.0174178
782.410	0.0174783
782.488	0.0176057
782.567	0.0175687
782.645	0.0177162
782.723	0.0176239
782.801	0.0176497
782.879	0.0178465
782.957	0.0176889
783.035	0.0177585
783.113	0.0177792
783.192	0.0179440
783.270	0.0178024
783.348	0.0177897
783.426	0.0178399
783.504	0.0179429
783.582	0.0180135
783.660	0.0179859
783.738	0.0178453
783.817	0.0179948
783.895	0.0180447
783.973	0.0179360
784.051	0.0179795
784.129	0.0180310
784.207	0.0180011
784.285	0.0179189
784.363	0.0179704
784.442	0.0181403
784.520	0.0181161
784.598	0.0181010
784.676	0.0180695
784.754	0.0182226
784.832	0.0181492
784.910	0.0180818
784.988	0.0181055
785.067	0.0181289
785.145	0.0181005
785.223	0.0179867
785.301	0.0180082
785.379	0.0180869
785.457	0.0181467
785.535	0.0180506
785.613	0.0181137
785.692	0.0181252
785.770	0.0181689
785.848	0.0181652
785.926	0.0180539
786.004	0.0181358
786.082	0.0181085
786.160	0.0180946
786.238	0.0180687
786.317	0.0181744
786.395	0.0182020
786.473	0.0182528
786.551	0.0182011
786.629	0.0182914
786.707	0.0181965
786.785	0.0181557
786.863	0.0182720
786.942	0.0182087
787.020	0.0180678
787.098	0.0180666
787.176	0.0180943
787.254	0.0179132
787.332	0.0180568
787.410	0.0180720
787.488	0.0179861
787.567	0.0181207
787.645	0.0180938
787.723	0.0179436
787.801	0.0178960
787.879	0.0178864
787.957	0.0179690
788.035	0.0179736
788.113	0.0180775
788.192	0.0177946
788.270	0.0180042
788.348	0.0178674
788.426	0.0178524
788.504	0.0177615
788.582	0.0178143
788.660	0.0178835
788.738	0.0179684
788.817	0.0178405
788.895	0.0176949
788.973	0.0179211
789.051	0.0177721
789.129	0.0177882
789.207	0.0177487
789.285	0.0178436
789.363	0.0177354
789.442	0.0177419
789.520	0.0177977
789.598	0.0177029
789.676	0.0177779
789.754	0.0177283
789.832	0.0178811
789.910	0.0177785
789.988	0.0178553
790.067	0.0178880
790.145	0.0177998
790.223	0.0178654
790.301	0.0179790
790.379	0.0178111
790.457	0.0178999
790.535	0.0179284
790.613	0.0179050
790.692	0.0180160
790.770	0.0180602
790.848	0.0179453
790.926	0.0180231
791.004	0.0180164
791.082	0.0180224
791.160	0.0180391
791.238	0.0180181
791.317	0.0180865
791.395	0.0179781
791.473	0.0181413
791.551	0.0182237
791.629	0.0181750
791.707	0.0180748
791.785	0.0181290
791.863	0.0182180
791.942	0.0181446
792.020	0.0179879
792.098	0.0180701
792.176	0.0180468
792.254	0.0179536
792.332	0.0178017
792.410	0.0177918
792.488	0.0179868
792.567	0.0181524
792.645	0.0179614
792.723	0.0178089
792.801	0.0178886
792.879	0.0179527
792.957	0.0179288
793.035	0.0179005
793.113	0.0179002
793.192	0.0179032
793.270	0.0178945
793.348	0.0180116
793.426	0.0181252
793.504	0.0180409
793.582	0.0179497
793.660	0.0179005
793.738	0.0180251
793.817	0.0178799
793.895	0.0180318
793.973	0.0178988
794.051	0.0179224
794.129	0.0179868
794.207	0.0180252
794.285	0.0179690
794.363	0.0178859
794.442	0.0179556
794.520	0.0179792
794.598	0.0179102
794.676	0.0179475
794.754	0.0179951
794.832	0.0179481
794.910	0.0178892
794.988	0.0177282
795.067	0.0178139
795.145	0.0179150
795.223	0.0178326
795.301	0.0176587
795.379	0.0177855
795.457	0.0177971
795.535	0.0178078
795.613	0.0176978
795.692	0.0176608
795.770	0.0176463
795.848	0.0177121
795.926	0.0176538
796.004	0.0177460
796.082	0.0176366
796.160	0.0177052
796.238	0.0176355
796.317	0.0176598
796.395	0.0176350
796.473	0.0177469
796.551	0.0175915
796.629	0.0176362
796.707	0.0176763
796.785	0.0175594
796.863	0.0176292
796.942	0.0176328
797.020	0.0175867
797.098	0.0176468
797.176	0.0177797
797.254	0.0177034
797.332	0.0177847
797.410	0.0176189
797.488	0.0177473
797.567	0.0177360
797.645	0.0178317
797.723	0.0178339
797.801	0.0179305
797.879	0.0178008
797.957	0.0178989
798.035	0.0178918
798.113	0.0178950
798.192	0.0178590
798.270	0.0178596
798.348	0.0179281
798.426	0.0180750
798.504	0.0180143
798.582	0.0180146
798.660	0.0181428
798.738	0.0180933
798.817	0.0180108
798.895	0.0180667
798.973	0.0181431
799.051	0.0180205
799.129	0.0180010
799.207	0.0181234
799.285	0.0180891
799.363	0.0179579
799.442	0.0180659
799.520	0.0179189
799.598	0.0179333
799.676	0.0181059
799.754	0.0180035
799.832	0.0179026
799.910	0.0179176
799.988	0.0179272
800.067	0.0179019
800.145	0.0180678
800.223	0.0179610
800.301	0.0179228
800.379	0.0180708
800.457	0.0178597
800.535	0.0179628
800.613	0.0181344
800.692	0.0179424
800.770	0.0180262
800.848	0.0178992
800.926	0.0180170
801.004	0.0180116
801.082	0.0179539
801.160	0.0180157
801.238	0.0180312
801.317	0.0179375
801.395	0.0178340
801.473	0.0179449
801.551	0.0180043
801.629	0.0178942
801.707	0.0179841
801.785	0.0179787
801.863	0.0180439
801.942	0.0179665
802.020	0.0179546
802.098	0.0179288
802.176	0.0178931
802.254	0.0179293
802.332	0.0177599
802.410	0.0178497
802.488	0.0179887
802.567	0.0178671
802.645	0.0178798
802.723	0.0178342
802.801	0.0177640
802.879	0.0177650
802.957	0.0178058
803.035	0.0179179
803.113	0.0177725
803.192	0.0178279
803.270	0.0178707
803.348	0.0178825
803.426	0.0178851
803.504	0.0177918
803.582	0.0178678
803.660	0.0177261
803.738	0.0176231
803.817	0.0177399
803.895	0.0178059
803.973	0.0179536
804.051	0.0177375
804.129	0.0177325
804.207	0.0178018
804.285	0.0176990
804.363	0.0178629
804.442	0.0178206
804.520	0.0177647
804.598	0.0177949
804.676	0.0177356
804.754	0.0177297
804.832	0.0177715
804.910	0.0178190
804.988	0.0178226
805.067	0.0178987
805.145	0.0179481
805.223	0.0178723
805.301	0.0179625
805.379	0.0177265
805.457	0.0179483
805.535	0.0180145
805.613	0.0180019
805.692	0.0178308
805.770	0.0180080
805.848	0.0180820
805.926	0.0181403
806.004	0.0180940
806.082	0.0180470
806.160	0.0182192
806.238	0.0182201
806.317	0.0182485
806.395	0.0182270
806.473	0.0183054
806.551	0.0183001
806.629	0.0182242
806.707	0.0181467
806.785	0.0183125
806.863	0.0184050
806.942	0.0182261
807.020	0.0183304
807.098	0.0185300
807.176	0.0181654
807.254	0.0182314
807.332	0.0183121
807.410	0.0182568
807.488	0.0182221
807.567	0.0182833
807.645	0.0182785
807.723	0.0183163
807.801	0.0183191
807.879	0.0181787
807.957	0.0181187
808.035	0.0181813
808.113	0.0181274
808.192	0.0181012
808.270	0.0180163
808.348	0.0181071
808.426	0.0180980
808.504	0.0181587
808.582	0.0181083
808.660	0.0179269
808.738	0.0181027
808.817	0.0181167
808.895	0.0179863
808.973	0.0181165
809.051	0.0180817
809.129	0.0179765
809.207	0.0180457
809.285	0.0180484
809.363	0.0180399
809.442	0.0180939
809.520	0.0180038
809.598	0.0180663
809.676	0.0180810
809.754	0.0180865
809.832	0.0180694
809.910	0.0180678
809.988	0.0180817
810.067	0.0181030
810.145	0.0179507
810.223	0.0180099
810.301	0.0179892
810.379	0.0179334
810.457	0.0179276
810.535	0.0179903
810.613	0.0179558
810.692	0.0178350
810.770	0.0178503
810.848	0.0178761
810.926	0.0179043
811.004	0.0180225
811.082	0.0179633
811.160	0.0179426
811.238	0.0179678
811.317	0.0180341
811.395	0.0179481
811.473	0.0180134
811.551	0.0179559
811.629	0.0180034
811.707	0.0180012
811.785	0.0180347
811.863	0.0180760
811.942	0.0179585
812.020	0.0180832
812.098	0.0179798
812.176	0.0179952
812.254	0.0180415
812.332	0.0179176
812.410	0.0179231
812.488	0.0180016
812.567	0.0178832
812.645	0.0180323
812.723	0.0179665
812.801	0.0180972
812.879	0.0180270
812.957	0.0178625
813.035	0.0180294
813.113	0.0180021
813.192	0.0178485
813.270	0.0179006
813.348	0.0179194
813.426	0.0179739
813.504	0.0179088
813.582	0.0178944
813.660	0.0178420
813.738	0.0179222
813.817	0.0178389
813.895	0.0178400
813.973	0.0178841
814.051	0.0178513
814.129	0.0177804
814.207	0.0178983
814.285	0.0178732
814.363	0.0179237
814.442	0.0177770
814.520	0.0178199
814.598	0.0179352
814.676	0.0177609
814.754	0.0179622
814.832	0.0178777
814.910	0.0179679
814.988	0.0179372
815.067	0.0180025
815.145	0.0180347
815.223	0.0179853
815.301	0.0178578
815.379	0.0178872
815.457	0.0178026
815.535	0.0178439
815.613	0.0178488
815.692	0.0178584
815.770	0.0177460
815.848	0.0177488
815.926	0.0177086
816.004	0.0175230
816.082	0.0177078
816.160	0.0176726
816.238	0.0176797
816.317	0.0176798
816.395	0.0177176
816.473	0.0177945
816.551	0.0177660
816.629	0.0177386
816.707	0.0178162
816.785	0.0178101
816.863	0.0178609
816.942	0.0178536
817.020	0.0177879
817.098	0.0178424
817.176	0.0178284
817.254	0.0180067
817.332	0.0180138
817.410	0.0179304
817.488	0.0179036
817.567	0.0178094
817.645	0.0179383
817.723	0.0177050
817.801	0.0180206
817.879	0.0178862
817.957	0.0179816
818.035	0.0180093
818.113	0.0179871
818.192	0.0179167
818.270	0.0177748
818.348	0.0177985
818.426	0.0177660
818.504	0.0179531
818.582	0.0177865
818.660	0.0177947
818.738	0.0177757
818.817	0.0179327
818.895	0.0179485
818.973	0.0179071
819.051	0.0177890
819.129	0.0178490
819.207	0.0179792
819.285	0.0178126
819.363	0.0179764
819.442	0.0180372
819.520	0.0180936
819.598	0.0180544
819.676	0.0179505
819.754	0.0179457
819.832	0.0179775
819.910	0.0179462
819.988	0.0178600
820.067	0.0180198
820.145	0.0179116
820.223	0.0179762
820.301	0.0180053
820.379	0.0179782
820.457	0.0176855
820.535	0.0179089
820.613	0.0177561
820.692	0.0179259
820.770	0.0177676
820.848	0.0178056
820.926	0.0177664
821.004	0.0179079
821.082	0.0177883
821.160	0.0177581
821.238	0.0178020
821.317	0.0178001
821.395	0.0179387
821.473	0.0179492
821.551	0.0180279
821.629	0.0179070
821.707	0.0178374
821.785	0.0179067
821.863	0.0179066
821.942	0.0180228
822.020	0.0179593
822.098	0.0179217
822.176	0.0178751
822.254	0.0180051
822.332	0.0179089
822.410	0.0179471
822.488	0.0180451
822.567	0.0180435
822.645	0.0180844
822.723	0.0180457
822.801	0.0179923
822.879	0.0180170
822.957	0.0180870
823.035	0.0180413
823.113	0.0180071
823.192	0.0179189
823.270	0.0179177
823.348	0.0180017
823.426	0.0180025
823.504	0.0180347
823.582	0.0178094
823.660	0.0179097
823.738	0.0179796
823.817	0.0180067
823.895	0.0179498
823.973	0.0177583
824.051	0.0178026
824.129	0.0179063
824.207	0.0178248
824.285	0.0177843
824.363	0.0178439
824.442	0.0179300
824.520	0.0179762
824.598	0.0178459
824.676	0.0178136
824.754	0.0179098
824.832	0.0178637
824.910	0.0178699
824.988	0.0178753
825.067	0.0178189
825.145	0.0178406
825.223	0.0179246
825.301	0.0178515
825.379	0.0179190
825.457	0.0178586
825.535	0.0178793
825.613	0.0178418
825.692	0.0178317
825.770	0.0177879
825.848	0.0177439
825.926	0.0179446
826.004	0.0180210
826.082	0.0179346
826.160	0.0178949
826.238	0.0179414
826.317	0.0179269
826.395	0.0177776
826.473	0.0177583
826.551	0.0179123
826.629	0.0179380
826.707	0.0178831
826.785	0.0178822
826.863	0.0179005
826.942	0.0178213
827.020	0.0179776
827.098	0.0177612
827.176	0.0176794
827.254	0.0178468
827.332	0.0178915
827.410	0.0180293
827.488	0.0180561
827.567	0.0178599
827.645	0.0179230
827.723	0.0179015
827.801	0.0179628
827.879	0.0179297
827.957	0.0179672
828.035	0.0180153
828.113	0.0180135
828.192	0.0182157
828.270	0.0181167
828.348	0.0179864
828.426	0.0181123
828.504	0.0179543
828.582	0.0180486
828.660	0.0180443
828.738	0.0180841
828.817	0.0180151
828.895	0.0181593
828.973	0.0180432
829.051	0.0180064
829.129	0.0180929
829.207	0.0179901
829.285	0.0180003
829.363	0.0180312
829.442	0.0180952
829.520	0.0180009
829.598	0.0179549
829.676	0.0178924
829.754	0.0179420
829.832	0.0180232
829.910	0.0180659
829.988	0.0180119
830.067	0.0178239
830.145	0.0178815
830.223	0.0180579
830.301	0.0179362
830.379	0.0181238
830.457	0.0179459
830.535	0.0179204
830.613	0.0179971
830.692	0.0178799
830.770	0.0180858
830.848	0.0180590
830.926	0.0179449
831.004	0.0180849
831.082	0.0180505
831.160	0.0179704
831.238	0.0180607
831.317	0.0180655
831.395	0.0178738
831.473	0.0180432
831.551	0.0180541
831.629	0.0180616
831.707	0.0180394
831.785	0.0179401
831.863	0.0180959
831.942	0.0180769
832.020	0.0180521
832.098	0.0179917
832.176	0.0180693
832.254	0.0180683
832.332	0.0179316
832.410	0.0181795
832.488	0.0181113
832.567	0.0180656
832.645	0.0180876
832.723	0.0181011
832.801	0.0179949
832.879	0.0180705
832.957	0.0179937
833.035	0.0180849
833.113	0.0180550
833.192	0.0182359
833.270	0.0180555
833.348	0.0179601
833.426	0.0180820
833.504	0.0181591
833.582	0.0179719
833.660	0.0180023
833.738	0.0180719
833.817	0.0179829
833.895	0.0180299
833.973	0.0179467
834.051	0.0180287
834.129	0.0180102
834.207	0.0179195
834.285	0.0179074
834.363	0.0177205
834.442	0.0179346
834.520	0.0180310
834.598	0.0179881
834.676	0.0178607
834.754	0.0178999
834.832	0.0177997
834.910	0.0179192
834.988	0.0178423
835.067	0.0178628
835.145	0.0179815
835.223	0.0178561
835.301	0.0178263
835.379	0.0178574
835.457	0.0179904
835.535	0.0178276
835.613	0.0178185
835.692	0.0177477
835.770	0.0178708
835.848	0.0178687
835.926	0.0178490
836.004	0.0179282
836.082	0.0180611
836.160	0.0180682
836.238	0.0178902
836.317	0.0178443
836.395	0.0179684
836.473	0.0179970
836.551	0.0178937
836.629	0.0178917
836.707	0.0179263
836.785	0.0179283
836.863	0.0178540
836.942	0.0179745
837.020	0.0177772
837.098	0.0178362
837.176	0.0177600
837.254	0.0177578
837.332	0.0179099
837.410	0.0178821
837.488	0.0178589
837.567	0.0177489
837.645	0.0177842
837.723	0.0178269
837.801	0.0178365
837.879	0.0176731
837.957	0.0178960
838.035	0.0178389
838.113	0.0176518
838.192	0.0178053
838.270	0.0178041
838.348	0.0177689
838.426	0.0177337
838.504	0.0178775
838.582	0.0177595
838.660	0.0177725
838.738	0.0177925
838.817	0.0177351
838.895	0.0178585
838.973	0.0179617
839.051	0.0177319
839.129	0.0178130
839.207	0.0178372
839.285	0.0178616
839.363	0.0179095
839.442	0.0179340
839.520	0.0178969
839.598	0.0180398
839.676	0.0179601
839.754	0.0178568
839.832	0.0179382
839.910	0.0180408
839.988	0.0180761
840.067	0.0179774
840.145	0.0181029
840.223	0.0179906
840.301	0.0180672
840.379	0.0181641
840.457	0.0180691
840.535	0.0180759
840.613	0.0180750
840.692	0.0180939
840.770	0.0181735
840.848	0.0181221
840.926	0.0180608
841.004	0.0181183
841.082	0.0182106
841.160	0.0180846
841.238	0.0180714
841.317	0.0180725
841.395	0.0182139
841.473	0.0182062
841.551	0.0181819
841.629	0.0181802
841.707	0.0181111
841.785	0.0181490
841.863	0.0180502
841.942	0.0180406
842.020	0.0181795
842.098	0.0181213
842.176	0.0181818
842.254	0.0180858
842.332	0.0179523
842.410	0.0180109
842.488	0.0180435
842.567	0.0180120
842.645	0.0180730
842.723	0.0180433
842.801	0.0178903
842.879	0.0179906
842.957	0.0178378
843.035	0.0178027
843.113	0.0178542
843.192	0.0179871
843.270	0.0178262
843.348	0.0179639
843.426	0.0177979
843.504	0.0177452
843.582	0.0177020
843.660	0.0175494
843.738	0.0176604
843.817	0.0178294
843.895	0.0176292
843.973	0.0175111
844.051	0.0176173
844.129	0.0177055
844.207	0.0175703
844.285	0.0175855
844.363	0.0176640
844.442	0.0176411
844.520	0.0176559
844.598	0.0175597
844.676	0.0174791
844.754	0.0175048
844.832	0.0176899
844.910	0.0175693
844.988	0.0176070
845.067	0.0176733
845.145	0.0176309
845.223	0.0178389
845.301	0.0177075
845.379	0.0177622
845.457	0.0176965
845.535	0.0178768
845.613	0.0176767
845.692	0.0175912
845.770	0.0179254
845.848	0.0176888
845.926	0.0177258
846.004	0.0178371
846.082	0.0178383
846.160	0.0178297
846.238	0.0176688
846.317	0.0178876
846.395	0.0177755
846.473	0.0179618
846.551	0.0178783
846.629	0.0180538
846.707	0.0180508
846.785	0.0179722
846.863	0.0179835
846.942	0.0179922
847.020	0.0178640
847.098	0.0179964
847.176	0.0181119
847.254	0.0181609
847.332	0.0181386
847.410	0.0179836
847.488	0.0182260
847.567	0.0181110
847.645	0.0181306
847.723	0.0182066
847.801	0.0180367
847.879	0.0181166
847.957	0.0182339
848.035	0.0181392
848.113	0.0181844
848.192	0.0182147
848.270	0.0181543
848.348	0.0181821
848.426	0.0182493
848.504	0.0182437
848.582	0.0181170
848.660	0.0180995
848.738	0.0182870
848.817	0.0182069
848.895	0.0180782
848.973	0.0183172
849.051	0.0181631
849.129	0.0182946
849.207	0.0182651
849.285	0.0181375
849.363	0.0182555
849.442	0.0181160
849.520	0.0179632
849.598	0.0182002
849.676	0.0182101
849.754	0.0180613
849.832	0.0180899
849.910	0.0181314
849.988	0.0180658
850.067	0.0179398
850.145	0.0181925
850.223	0.0181078
850.301	0.0181805
850.379	0.0181202
850.457	0.0180680
850.535	0.0182325
850.613	0.0180417
850.692	0.0179997
850.770	0.0181222
850.848	0.0181414
850.926	0.0179318
851.004	0.0180251
851.082	0.0180743
851.160	0.0180197
851.238	0.0179458
851.317	0.0180202
851.395	0.0181397
851.473	0.0180078
851.551	0.0179926
851.629	0.0179414
851.707	0.0180144
851.785	0.0179825
851.863	0.0180551
851.942	0.0181603
852.020	0.0182349
852.098	0.0179845
852.176	0.0181489
852.254	0.0182147
852.332	0.0180924
852.410	0.0178244
852.488	0.0179315
852.567	0.0179581
852.645	0.0180672
852.723	0.0179626
852.801	0.0177679
852.879	0.0178824
852.957	0.0179857
853.035	0.0178154
853.113	0.0178859
853.192	0.0177801
853.270	0.0177972
853.348	0.0176650
853.426	0.0177907
853.504	0.0176471
853.582	0.0177879
853.660	0.0178857
853.738	0.0178073
853.817	0.0176891
853.895	0.0177489
853.973	0.0176823
854.051	0.0176512
854.129	0.0177235
854.207	0.0177126
854.285	0.0177389
854.363	0.0178157
854.442	0.0178196
854.520	0.0177337
854.598	0.0177472
854.676	0.0178238
854.754	0.0177811
854.832	0.0179230
854.910	0.0178644
854.988	0.0177736
855.067	0.0177331
855.145	0.0177893
855.223	0.0176862
855.301	0.0178443
855.379	0.0177921
855.457	0.0177872
855.535	0.0177922
855.613	0.0177466
855.692	0.0178048
855.770	0.0179094
855.848	0.0177441
855.926	0.0178427
856.004	0.0177959
856.082	0.0179353
856.160	0.0177457
856.238	0.0178246
856.317	0.0177095
856.395	0.0178381
856.473	0.0178488
856.551	0.0175502
856.629	0.0177802
856.707	0.0178599
856.785	0.0177781
856.863	0.0175491
856.942	0.0176069
857.020	0.0178551
857.098	0.0176314
857.176	0.0176420
857.254	0.0178282
857.332	0.0177464
857.410	0.0177281
857.488	0.0177754
857.567	0.0177019
857.645	0.0176288
857.723	0.0176633
857.801	0.0177954
857.879	0.0177441
857.957	0.0175259
858.035	0.0177657
858.113	0.0177039
858.192	0.0175536
858.270	0.0176196
858.348	0.0177719
858.426	0.0176479
858.504	0.0177017
858.582	0.0177618
858.660	0.0177203
858.738	0.0178067
858.817	0.0179732
858.895	0.0179340
858.973	0.0178988
859.051	0.0178050
859.129	0.0178894
859.207	0.0180940
859.285	0.0179644
859.363	0.0180631
859.442	0.0178638
859.520	0.0179375
859.598	0.0178173
859.676	0.0179837
859.754	0.0179431
859.832	0.0178313
859.910	0.0178389
859.988	0.0179187
860.067	0.0179631
860.145	0.0179746
860.223	0.0179138
860.301	0.0178587
860.379	0.0179713
860.457	0.0179559
860.535	0.0178201
860.613	0.0177871
860.692	0.0177786
860.770	0.0178894
860.848	0.0178209
860.926	0.0176966
861.004	0.0178980
861.082	0.0178300
861.160	0.0178967
861.238	0.0178210
861.317	0.0178011
861.395	0.0178086
861.473	0.0177326
861.551	0.0179582
861.629	0.0179785
861.707	0.0177863
861.785	0.0178456
861.863	0.0179091
861.942	0.0178431
862.020	0.0178870
862.098	0.0179426
862.176	0.0179529
862.254	0.0179752
862.332	0.0178751
862.410	0.0179811
862.488	0.0178691
862.567	0.0179813
862.645	0.0178797
862.723	0.0179623
862.801	0.0180482
862.879	0.0180589
862.957	0.0180569
863.035	0.0178667
863.113	0.0181065
863.192	0.0180859
863.270	0.0180429
863.348	0.0179074
863.426	0.0180192
863.504	0.0180623
863.582	0.0180159
863.660	0.0179659
863.738	0.0180316
863.817	0.0180071
863.895	0.0179044
863.973	0.0180274
864.051	0.0180555
864.129	0.0181181
864.207	0.0180485
864.285	0.0180942
864.363	0.0180308
864.442	0.0179503
864.520	0.0181526
864.598	0.0180035
864.676	0.0179395
864.754	0.0180247
864.832	0.0181259
864.910	0.0180817
864.988	0.0181433
865.067	0.0180000
865.145	0.0181865
865.223	0.0181663
865.301	0.0179829
865.379	0.0182729
865.457	0.0181422
865.535	0.0180325
865.613	0.0179732
865.692	0.0179729
865.770	0.0179749
865.848	0.0180949
865.926	0.0181297
866.004	0.0181588
866.082	0.0180184
866.160	0.0181334
866.238	0.0179923
866.317	0.0181304
866.395	0.0182132
866.473	0.0181805
866.551	0.0180399
866.629	0.0181114
866.707	0.0181438
866.785	0.0181944
866.863	0.0180086
866.942	0.0181253
867.020	0.0180113
867.098	0.0180018
867.176	0.0180753
867.254	0.0180939
867.332	0.0180310
867.410	0.0180407
867.488	0.0181071
867.567	0.0182215
867.645	0.0179563
867.723	0.0180257
867.801	0.0181135
867.879	0.0181408
867.957	0.0180891
868.035	0.0178831
868.113	0.0179633
868.192	0.0180985
868.270	0.0181592
868.348	0.0182399
868.426	0.0179691
868.504	0.0180690
868.582	0.0180764
868.660	0.0179623
868.738	0.0179950
868.817	0.0180350
868.895	0.0180700
868.973	0.0181178
869.051	0.0178771
869.129	0.0180186
869.207	0.0180051
869.285	0.0179700
869.363	0.0181246
869.442	0.0181760
869.520	0.0179979
869.598	0.0181268
869.676	0.0181194
869.754	0.0178597
869.832	0.0178833
869.910	0.0180009
869.988	0.0177243
870.067	0.0179743
870.145	0.0179076
870.223	0.0178097
870.301	0.0178907
870.379	0.0179837
870.457	0.0178936
870.535	0.0179078
870.613	0.0178189
870.692	0.0179982
870.770	0.0178358
870.848	0.0178811
870.926	0.0179194
871.004	0.0178363
871.082	0.0178236
871.160	0.0178168
871.238	0.0180550
871.317	0.0179582
871.395	0.0178269
871.473	0.0178371
871.551	0.0179531
871.629	0.0180737
871.707	0.0179314
871.785	0.0179758
871.863	0.0179104
871.942	0.0180173
872.020	0.0179071
872.098	0.0179298
872.176	0.0180011
872.254	0.0178895
872.332	0.0178109
872.410	0.0179910
872.488	0.0179263
872.567	0.0179130
872.645	0.0179185
872.723	0.0179091
872.801	0.0180542
872.879	0.0179588
872.957	0.0178986
873.035	0.0179086
873.113	0.0178812
873.192	0.0179076
873.270	0.0179420
873.348	0.0179092
873.426	0.0179840
873.504	0.0180371
873.582	0.0179897
873.660	0.0178913
873.738	0.0179775
873.817	0.0179731
873.895	0.0179999
873.973	0.0179798
874.051	0.0179046
874.129	0.0179134
874.207	0.0179553
874.285	0.0179373
874.363	0.0179518
874.442	0.0179845
874.520	0.0179962
874.598	0.0179814
874.676	0.0180157
874.754	0.0178429
874.832	0.0178353
874.910	0.0180334
874.988	0.0180269
875.067	0.0179435
875.145	0.0179792
875.223	0.0178579
875.301	0.0179794
875.379	0.0179215
875.457	0.0181139
875.535	0.0177686
875.613	0.0177585
875.692	0.0178970
875.770	0.0179246
875.848	0.0179439
875.926	0.0179005
876.004	0.0179220
876.082	0.0179070
876.160	0.0178047
876.238	0.0178501
876.317	0.0178612
876.395	0.0177352
876.473	0.0178502
876.551	0.0178706
876.629	0.0178721
876.707	0.0179044
876.785	0.0178376
876.863	0.0178376
876.942	0.0177625
877.020	0.0176944
877.098	0.0177048
877.176	0.0176891
877.254	0.0178440
877.332	0.0176867
877.410	0.0176686
877.488	0.0177508
877.567	0.0177652
877.645	0.0176923
877.723	0.0176880
877.801	0.0176889
877.879	0.0178066
877.957	0.0178547
878.035	0.0177117
878.113	0.0176031
878.192	0.0174708
878.270	0.0176524
878.348	0.0177072
878.426	0.0176907
878.504	0.0176186
878.582	0.0177726
878.660	0.0177380
878.738	0.0177580
878.817	0.0176498
878.895	0.0178538
878.973	0.0177845
879.051	0.0177840
879.129	0.0176398
879.207	0.0178453
879.285	0.0178635
879.363	0.0177826
879.442	0.0179148
879.520	0.0178080
879.598	0.0178426
879.676	0.0178868
879.754	0.0178533
879.832	0.0178126
879.910	0.0179019
879.988	0.0178586
880.067	0.0179084
880.145	0.0178380
880.223	0.0178540
880.301	0.0178435
880.379	0.0178765
880.457	0.0179756
880.535	0.0178746
880.613	0.0178589
880.692	0.0178243
880.770	0.0178944
880.848	0.0178584
880.926	0.0178358
881.004	0.0179273
881.082	0.0179198
881.160	0.0178272
881.238	0.0178516
881.317	0.0178133
881.395	0.0178532
881.473	0.0178629
881.551	0.0179176
881.629	0.0179596
881.707	0.0179371
881.785	0.0180400
881.863	0.0178927
881.942	0.0179668
882.020	0.0180261
882.098	0.0179813
882.176	0.0180332
882.254	0.0179505
882.332	0.0178981
882.410	0.0180186
882.488	0.0180640
882.567	0.0179550
882.645	0.0180232
882.723	0.0179839
882.801	0.0179893
882.879	0.0180128
882.957	0.0179881
883.035	0.0180315
883.113	0.0179169
883.192	0.0180724
883.270	0.0178752
883.348	0.0179728
883.426	0.0180783
883.504	0.0180605
883.582	0.0179737
883.660	0.0179379
883.738	0.0179595
883.817	0.0179260
883.895	0.0180455
883.973	0.0179550
884.051	0.0180006
884.129	0.0180053
884.207	0.0180221
884.285	0.0179366
884.363	0.0179528
884.442	0.0180768
884.520	0.0180877
884.598	0.0180078
884.676	0.0178396
884.754	0.0178921
884.832	0.0179572
884.910	0.0179635
884.988	0.0178814
885.067	0.0177989
885.145	0.0178027
885.223	0.0178598
885.301	0.0178263
885.379	0.0177592
885.457	0.0179081
885.535	0.0178017
885.613	0.0179436
885.692	0.0180193
885.770	0.0178367
885.848	0.0179465
885.926	0.0177795
886.004	0.0178291
886.082	0.0178833
886.160	0.0178120
886.238	0.0179433
886.317	0.0178789
886.395	0.0179314
886.473	0.0179932
886.551	0.0179983
886.629	0.0178996
886.707	0.0177814
886.785	0.0178402
886.863	0.0179951
886.942	0.0179314
887.020	0.0179341
887.098	0.0178854
887.176	0.0178912
887.254	0.0179869
887.332	0.0180146
887.410	0.0179757
887.488	0.0180553
887.567	0.0179887
887.645	0.0179908
887.723	0.0181776
887.801	0.0180630
887.879	0.0179044
887.957	0.0181126
888.035	0.0181371
888.113	0.0179750
888.192	0.0179932
888.270	0.0180270
888.348	0.0180286
888.426	0.0180560
888.504	0.0181136
888.582	0.0180415
888.660	0.0179627
888.738	0.0179619
888.817	0.0179017
888.895	0.0180563
888.973	0.0181160
889.051	0.0180305
889.129	0.0179440
889.207	0.0179345
889.285	0.0180820
889.363	0.0181007
889.442	0.0179400
889.520	0.0181816
889.598	0.0180477
889.676	0.0179942
889.754	0.0179066
889.832	0.0180566
889.910	0.0181190
889.988	0.0179824
890.067	0.0179907
890.145	0.0180630
890.223	0.0180124
890.301	0.0179546
890.379	0.0180098
890.457	0.0180524
890.535	0.0180432
890.613	0.0178048
890.692	0.0180619
890.770	0.0178526
890.848	0.0180466
890.926	0.0178304
891.004	0.0177711
891.082	0.0179101
891.160	0.0177641
891.238	0.0179055
891.317	0.0179263
891.395	0.0178969
891.473	0.0178342
891.551	0.0179135
891.629	0.0179883
891.707	0.0180235
891.785	0.0179578
891.863	0.0178187
891.942	0.0179526
892.020	0.0179095
892.098	0.0179691
892.176	0.0180933
892.254	0.0180395
892.332	0.0180186
892.410	0.0180360
892.488	0.0178725
892.567	0.0179259
892.645	0.0180833
892.723	0.0179551
892.801	0.0179979
892.879	0.0178264
892.957	0.0178625
893.035	0.0178829
893.113	0.0179583
893.192	0.0177739
893.270	0.0179292
893.348	0.0178307
893.426	0.0178701
893.504	0.0177802
893.582	0.0179443
893.660	0.0178359
893.738	0.0178876
893.817	0.0178069
893.895	0.0178789
893.973	0.0177670
894.051	0.0178893
894.129	0.0178788
894.207	0.0179369
894.285	0.0179291
894.363	0.0179424
894.442	0.0177769
894.520	0.0178857
894.598	0.0179235
894.676	0.0179154
894.754	0.0179044
894.832	0.0179911
894.910	0.0177808
894.988	0.0179372
895.067	0.0179430
895.145	0.0179286
895.223	0.0179240
895.301	0.0179178
895.379	0.0179081
895.457	0.0180072
895.535	0.0178381
895.613	0.0179236
895.692	0.0179571
895.770	0.0178891
895.848	0.0180405
895.926	0.0179908
896.004	0.0179961
896.082	0.0180392
896.160	0.0179523
896.238	0.0179703
896.317	0.0178776
896.395	0.0179597
896.473	0.0180601
896.551	0.0178821
896.629	0.0180191
896.707	0.0180203
896.785	0.0179069
896.863	0.0178472
896.942	0.0178690
897.020	0.0179443
897.098	0.0178913
897.176	0.0178690
897.254	0.0178348
897.332	0.0178892
897.410	0.0177449
897.488	0.0178609
897.567	0.0178139
897.645	0.0178763
897.723	0.0178475
897.801	0.0178144
897.879	0.0178432
897.957	0.0178011
898.035	0.0177819
898.113	0.0177054
898.192	0.0177988
898.270	0.0178267
898.348	0.0177386
898.426	0.0175670
898.504	0.0177168
898.582	0.0177438
898.660	0.0176830
898.738	0.0176563
898.817	0.0177020
898.895	0.0177777
898.973	0.0177197
899.051	0.0175372
899.129	0.0176879
899.207	0.0176106
899.285	0.0174843
899.363	0.0177557
899.442	0.0176679
899.520	0.0175158
899.598	0.0175708
899.676	0.0175802
899.754	0.0176221
899.832	0.0176357
899.910	0.0176763
899.988	0.0176421
900.067	0.0175745
900.145	0.0177510
900.223	0.0176250
900.301	0.0175805
900.379	0.0176701
900.457	0.0176088
900.535	0.0176756
900.613	0.0178538
900.692	0.0177164
900.770	0.0177509
900.848	0.0177827
900.926	0.0178114
901.004	0.0177188
901.082	0.0178679
901.160	0.0177290
901.238	0.0177081
901.317	0.0178311
901.395	0.0177915
901.473	0.0178051
901.551	0.0178358
901.629	0.0177840
901.707	0.0178067
901.785	0.0180166
901.863	0.0178120
901.942	0.0178449
902.020	0.0178867
902.098	0.0179079
902.176	0.0179082
902.254	0.0179202
902.332	0.0179488
902.410	0.0180504
902.488	0.0179596
902.567	0.0178988
902.645	0.0179920
902.723	0.0179914
902.801	0.0179134
902.879	0.0179015
902.957	0.0179417
903.035	0.0180058
903.113	0.0178065
903.192	0.0178297
903.270	0.0180846
903.348	0.0179169
903.426	0.0180005
903.504	0.0179563
903.582	0.0179422
903.660	0.0179816
903.738	0.0179249
903.817	0.0178492
903.895	0.0180003
903.973	0.0179314
904.051	0.0179871
904.129	0.0179667
904.207	0.0180473
904.285	0.0179427
904.363	0.0180086
904.442	0.0180524
904.520	0.0179391
904.598	0.0180923
904.676	0.0180986
904.754	0.0179052
904.832	0.0178667
904.910	0.0180118
904.988	0.0180503
905.067	0.0179943
905.145	0.0179913
905.223	0.0178782
905.301	0.0179732
905.379	0.0179889
905.457	0.0180080
905.535	0.0180399
905.613	0.0180952
905.692	0.0179695
905.770	0.0180527
905.848	0.0180075
905.926	0.0180527
906.004	0.0179338
906.082	0.0179072
906.160	0.0179983
906.238	0.0180496
906.317	0.0180947
906.395	0.0180038
906.473	0.0180166
906.551	0.0180634
906.629	0.0180159
906.707	0.0179955
906.785	0.0180802
906.863	0.0180702
906.942	0.0179303
907.020	0.0180988
907.098	0.0180590
907.176	0.0181660
907.254	0.0181767
907.332	0.0182499
907.410	0.0182067
907.488	0.0181515
907.567	0.0182217
907.645	0.0181766
907.723	0.0182154
907.801	0.0180986
907.879	0.0180645
907.957	0.0179600
908.035	0.0180508
908.113	0.0180927
908.192	0.0182020
908.270	0.0180818
908.348	0.0180267
908.426	0.0181200
908.504	0.0180926
908.582	0.0180196
908.660	0.0178864
908.738	0.0180856
908.817	0.0180421
908.895	0.0179370
908.973	0.0179409
909.051	0.0180720
909.129	0.0180455
909.207	0.0180804
909.285	0.0181085
909.363	0.0180388
909.442	0.0180642
909.520	0.0180876
909.598	0.0179638
909.676	0.0179608
909.754	0.0180666
909.832	0.0181590
909.910	0.0181195
909.988	0.0181375
910.067	0.0180968
910.145	0.0180277
910.223	0.0181293
910.301	0.0181638
910.379	0.0181085
910.457	0.0180810
910.535	0.0180264
910.613	0.0181030
910.692	0.0180667
910.770	0.0180701
910.848	0.0181013
910.926	0.0180937
911.004	0.0180988
911.082	0.0180531
911.160	0.0182030
911.238	0.0181318
911.317	0.0180851
911.395	0.0180763
911.473	0.0180670
911.551	0.0181970
911.629	0.0180373
911.707	0.0180047
911.785	0.0181264
911.863	0.0179728
911.942	0.0181741
912.020	0.0181922
912.098	0.0180926
912.176	0.0179671
912.254	0.0179674
912.332	0.0181076
912.410	0.0181772
912.488	0.0179583
912.567	0.0179814
912.645	0.0180661
912.723	0.0179847
912.801	0.0179898
912.879	0.0180660
912.957	0.0180670
913.035	0.0179636
913.113	0.0181604
913.192	0.0179422
913.270	0.0179593
913.348	0.0179967
913.426	0.0179926
913.504	0.0181551
913.582	0.0181278
913.660	0.0179888
913.738	0.0180564
913.817	0.0181015
913.895	0.0180149
913.973	0.0180396
914.051	0.0180466
914.129	0.0181756
914.207	0.0179753
914.285	0.0180500
914.363	0.0180780
914.442	0.0180053
914.520	0.0180003
914.598	0.0179752
914.676	0.0178703
914.754	0.0180143
914.832	0.0180067
914.910	0.0179952
914.988	0.0178721
915.067	0.0178899
915.145	0.0178706
915.223	0.0179744
915.301	0.0181064
915.379	0.0179031
915.457	0.0178829
915.535	0.0179910
915.613	0.0181137
915.692	0.0180128
915.770	0.0178442
915.848	0.0178884
915.926	0.0180196
916.004	0.0179068
916.082	0.0178836
916.160	0.0179450
916.238	0.0181281
916.317	0.0179671
916.395	0.0179747
916.473	0.0179292
916.551	0.0181625
916.629	0.0182033
916.707	0.0181259
916.785	0.0181737
916.863	0.0181709
916.942	0.0181480
917.020	0.0180286
917.098	0.0179751
917.176	0.0182324
917.254	0.0181063
917.332	0.0182330
917.410	0.0181731
917.488	0.0181267
917.567	0.0179748
917.645	0.0180033
917.723	0.0179617
917.801	0.0179619
917.879	0.0179213
917.957	0.0179763
918.035	0.0180574
918.113	0.0179877
918.192	0.0179785
918.270	0.0178566
918.348	0.0179082
918.426	0.0179387
918.504	0.0179684
918.582	0.0177983
918.660	0.0177974
918.738	0.0178468
918.817	0.0178088
918.895	0.0178959
918.973	0.0177464
919.051	0.0177115
919.129	0.0178670
919.207	0.0178101
919.285	0.0177711
919.363	0.0176263
919.442	0.0176652
919.520	0.0176099
919.598	0.0175024
919.676	0.0176550
919.754	0.0177145
919.832	0.0176303
919.910	0.0177263
