06/01/2022	22:13:44	Ver.	4.1	UNKNOWN
Optical Delay	599.988409	Delta X		0.078125	Sweeps	1	Scan Rate	0/0
Coordinates	Axis 1	NaN	Axis 2	NaN	Axis 3	NaN	Axis 4	NaN	Axis 5	NaN	Axis 6	0.000000
TX Power	0.000000	RX Power	0.000000

599.988	0.0181197
600.067	0.0181907
600.145	0.0182539
600.223	0.0182030
600.301	0.0182051
600.379	0.0181923
600.457	0.0182156
600.535	0.0182903
600.613	0.0181283
600.692	0.0180894
600.770	0.0180473
600.848	0.0181566
600.926	0.0181686
601.004	0.0181006
601.082	0.0179877
601.160	0.0181107
601.238	0.0181502
601.317	0.0180093
601.395	0.0181966
601.473	0.0181074
601.551	0.0179626
601.629	0.0181336
601.707	0.0180927
601.785	0.0181225
601.863	0.0181586
601.942	0.0180036
602.020	0.0180885
602.098	0.0179697
602.176	0.0182277
602.254	0.0181938
602.332	0.0179527
602.410	0.0180900
602.488	0.0182114
602.567	0.0181445
602.645	0.0181807
602.723	0.0181218
602.801	0.0182706
602.879	0.0181410
602.957	0.0182702
603.035	0.0182395
603.113	0.0183260
603.192	0.0181218
603.270	0.0181846
603.348	0.0182606
603.426	0.0182946
603.504	0.0181955
603.582	0.0181448
603.660	0.0181416
603.738	0.0181762
603.817	0.0181907
603.895	0.0181696
603.973	0.0180338
604.051	0.0181510
604.129	0.0181485
604.207	0.0181358
604.285	0.0181538
604.363	0.0181149
604.442	0.0180351
604.520	0.0180125
604.598	0.0182211
604.676	0.0180085
604.754	0.0180006
604.832	0.0181182
604.910	0.0181023
604.988	0.0179203
605.067	0.0180753
605.145	0.0180336
605.223	0.0179372
605.301	0.0180555
605.379	0.0179933
605.457	0.0179306
605.535	0.0178307
605.613	0.0179556
605.692	0.0179656
605.770	0.0180219
605.848	0.0179076
605.926	0.0178935
606.004	0.0178970
606.082	0.0178056
606.160	0.0179279
606.238	0.0178504
606.317	0.0179124
606.395	0.0178793
606.473	0.0178305
606.551	0.0180141
606.629	0.0178011
606.707	0.0178095
606.785	0.0177631
606.863	0.0178891
606.942	0.0179719
607.020	0.0179264
607.098	0.0178104
607.176	0.0179258
607.254	0.0179550
607.332	0.0177342
607.410	0.0178858
607.488	0.0178635
607.567	0.0177209
607.645	0.0177439
607.723	0.0178223
607.801	0.0177564
607.879	0.0178546
607.957	0.0178006
608.035	0.0177332
608.113	0.0178187
608.192	0.0178735
608.270	0.0177750
608.348	0.0177972
608.426	0.0177944
608.504	0.0179721
608.582	0.0178714
608.660	0.0177814
608.738	0.0178265
608.817	0.0178900
608.895	0.0178788
608.973	0.0178370
609.051	0.0178180
609.129	0.0178393
609.207	0.0178592
609.285	0.0180418
609.363	0.0177654
609.442	0.0180398
609.520	0.0180672
609.598	0.0180688
609.676	0.0180450
609.754	0.0179994
609.832	0.0178493
609.910	0.0178819
609.988	0.0179995
610.067	0.0180826
610.145	0.0180824
610.223	0.0180531
610.301	0.0179697
610.379	0.0179986
610.457	0.0180312
610.535	0.0179498
610.613	0.0179784
610.692	0.0180643
610.770	0.0180173
610.848	0.0179166
610.926	0.0180686
611.004	0.0180189
611.082	0.0180908
611.160	0.0180570
611.238	0.0179337
611.317	0.0181240
611.395	0.0180650
611.473	0.0180019
611.551	0.0181593
611.629	0.0181307
611.707	0.0179691
611.785	0.0181355
611.863	0.0180234
611.942	0.0181049
612.020	0.0180846
612.098	0.0180228
612.176	0.0180058
612.254	0.0179597
612.332	0.0180579
612.410	0.0179941
612.488	0.0181448
612.567	0.0180013
612.645	0.0180608
612.723	0.0179218
612.801	0.0179420
612.879	0.0178924
612.957	0.0179001
613.035	0.0178973
613.113	0.0181166
613.192	0.0180309
613.270	0.0180187
613.348	0.0179517
613.426	0.0180273
613.504	0.0179499
613.582	0.0179191
613.660	0.0180693
613.738	0.0178741
613.817	0.0179163
613.895	0.0180704
613.973	0.0180731
614.051	0.0180148
614.129	0.0180204
614.207	0.0179104
614.285	0.0179276
614.363	0.0180862
614.442	0.0179238
614.520	0.0179211
614.598	0.0179945
614.676	0.0180961
614.754	0.0180814
614.832	0.0180103
614.910	0.0179308
614.988	0.0179794
615.067	0.0182008
615.145	0.0183437
615.223	0.0180123
615.301	0.0181774
615.379	0.0180674
615.457	0.0181126
615.535	0.0182370
615.613	0.0180765
615.692	0.0180842
615.770	0.0180468
615.848	0.0180715
615.926	0.0180600
616.004	0.0181710
616.082	0.0182249
616.160	0.0181167
616.238	0.0179248
616.317	0.0180661
616.395	0.0181847
616.473	0.0181048
616.551	0.0180322
616.629	0.0181086
616.707	0.0180877
616.785	0.0181320
616.863	0.0181454
616.942	0.0179794
617.020	0.0180477
617.098	0.0181555
617.176	0.0182663
617.254	0.0181020
617.332	0.0181322
617.410	0.0180639
617.488	0.0179872
617.567	0.0180831
617.645	0.0180854
617.723	0.0181101
617.801	0.0180434
617.879	0.0180589
617.957	0.0181737
618.035	0.0181003
618.113	0.0180965
618.192	0.0182172
618.270	0.0181139
618.348	0.0180091
618.426	0.0180389
618.504	0.0181191
618.582	0.0180759
618.660	0.0181927
618.738	0.0182294
618.817	0.0181676
618.895	0.0179993
618.973	0.0180223
619.051	0.0181806
619.129	0.0181647
619.207	0.0181307
619.285	0.0180782
619.363	0.0181640
619.442	0.0180231
619.520	0.0180046
619.598	0.0181135
619.676	0.0180354
619.754	0.0181046
619.832	0.0179541
619.910	0.0180108
619.988	0.0179717
620.067	0.0179441
620.145	0.0180917
620.223	0.0179790
620.301	0.0180771
620.379	0.0181064
620.457	0.0179578
620.535	0.0180966
620.613	0.0179404
620.692	0.0181229
620.770	0.0180315
620.848	0.0181036
620.926	0.0179035
621.004	0.0179745
621.082	0.0181985
621.160	0.0180731
621.238	0.0179867
621.317	0.0181508
621.395	0.0182333
621.473	0.0182285
621.551	0.0181158
621.629	0.0180682
621.707	0.0179927
621.785	0.0181160
621.863	0.0181275
621.942	0.0180944
622.020	0.0182285
622.098	0.0182221
622.176	0.0182362
622.254	0.0180680
622.332	0.0181797
622.410	0.0182175
622.488	0.0181171
622.567	0.0180679
622.645	0.0181308
622.723	0.0181136
622.801	0.0180449
622.879	0.0181406
622.957	0.0181194
623.035	0.0181098
623.113	0.0180668
623.192	0.0180616
623.270	0.0180874
623.348	0.0181149
623.426	0.0181359
623.504	0.0180241
623.582	0.0182102
623.660	0.0182200
623.738	0.0181102
623.817	0.0180921
623.895	0.0179678
623.973	0.0182063
624.051	0.0180909
624.129	0.0179751
624.207	0.0180739
624.285	0.0181002
624.363	0.0179500
624.442	0.0181026
624.520	0.0180705
624.598	0.0180665
624.676	0.0181369
624.754	0.0181458
624.832	0.0180569
624.910	0.0181156
624.988	0.0181519
625.067	0.0182437
625.145	0.0181822
625.223	0.0180310
625.301	0.0180176
625.379	0.0180161
625.457	0.0181380
625.535	0.0180882
625.613	0.0180779
625.692	0.0180424
625.770	0.0180539
625.848	0.0180925
625.926	0.0180719
626.004	0.0181140
626.082	0.0180843
626.160	0.0180834
626.238	0.0180350
626.317	0.0181707
626.395	0.0181271
626.473	0.0182346
626.551	0.0181687
626.629	0.0181860
626.707	0.0180995
626.785	0.0180972
626.863	0.0181966
626.942	0.0180852
627.020	0.0179916
627.098	0.0180325
627.176	0.0180689
627.254	0.0181179
627.332	0.0180373
627.410	0.0179584
627.488	0.0179732
627.567	0.0178925
627.645	0.0179511
627.723	0.0180651
627.801	0.0177738
627.879	0.0179008
627.957	0.0180663
628.035	0.0178765
628.113	0.0179183
628.192	0.0180261
628.270	0.0179969
628.348	0.0180547
628.426	0.0178931
628.504	0.0179017
628.582	0.0177670
628.660	0.0178742
628.738	0.0178675
628.817	0.0180303
628.895	0.0181389
628.973	0.0179133
629.051	0.0179648
629.129	0.0179920
629.207	0.0179630
629.285	0.0178780
629.363	0.0179755
629.442	0.0179463
629.520	0.0179345
629.598	0.0179359
629.676	0.0179255
629.754	0.0178662
629.832	0.0178904
629.910	0.0179779
629.988	0.0180579
630.067	0.0180375
630.145	0.0179603
630.223	0.0178524
630.301	0.0178313
630.379	0.0179491
630.457	0.0180515
630.535	0.0178127
630.613	0.0179123
630.692	0.0179121
630.770	0.0178987
630.848	0.0178227
630.926	0.0178646
631.004	0.0178908
631.082	0.0178156
631.160	0.0177995
631.238	0.0178632
631.317	0.0179220
631.395	0.0180220
631.473	0.0178310
631.551	0.0179198
631.629	0.0177845
631.707	0.0178351
631.785	0.0178703
631.863	0.0179034
631.942	0.0180212
632.020	0.0179168
632.098	0.0179405
632.176	0.0180130
632.254	0.0180123
632.332	0.0179238
632.410	0.0179382
632.488	0.0181007
632.567	0.0180569
632.645	0.0179607
632.723	0.0181879
632.801	0.0180023
632.879	0.0180659
632.957	0.0178831
633.035	0.0179690
633.113	0.0180729
633.192	0.0180106
633.270	0.0180731
633.348	0.0179510
633.426	0.0180361
633.504	0.0181611
633.582	0.0181525
633.660	0.0179969
633.738	0.0180845
633.817	0.0180295
633.895	0.0180145
633.973	0.0180961
634.051	0.0181093
634.129	0.0181110
634.207	0.0181452
634.285	0.0181110
634.363	0.0180692
634.442	0.0180722
634.520	0.0180853
634.598	0.0182365
634.676	0.0180196
634.754	0.0180624
634.832	0.0181201
634.910	0.0180523
634.988	0.0180465
635.067	0.0181010
635.145	0.0181522
635.223	0.0181548
635.301	0.0182364
635.379	0.0181543
635.457	0.0181287
635.535	0.0181996
635.613	0.0182008
635.692	0.0182756
635.770	0.0182072
635.848	0.0182369
635.926	0.0182287
636.004	0.0183427
636.082	0.0182968
636.160	0.0182128
636.238	0.0182160
636.317	0.0181332
636.395	0.0182865
636.473	0.0182272
636.551	0.0181394
636.629	0.0181798
636.707	0.0181030
636.785	0.0182384
636.863	0.0181104
636.942	0.0181187
637.020	0.0181608
637.098	0.0182150
637.176	0.0182351
637.254	0.0181999
637.332	0.0179826
637.410	0.0180791
637.488	0.0182201
637.567	0.0181496
637.645	0.0182921
637.723	0.0181738
637.801	0.0180171
637.879	0.0181932
637.957	0.0183049
638.035	0.0182375
638.113	0.0182375
638.192	0.0182860
638.270	0.0181207
638.348	0.0182714
638.426	0.0181500
638.504	0.0181734
638.582	0.0181843
638.660	0.0181460
638.738	0.0182345
638.817	0.0181842
638.895	0.0180809
638.973	0.0181617
639.051	0.0182467
639.129	0.0181484
639.207	0.0181865
639.285	0.0182177
639.363	0.0182055
639.442	0.0182504
639.520	0.0182369
639.598	0.0180737
639.676	0.0181048
639.754	0.0182452
639.832	0.0181494
639.910	0.0182520
639.988	0.0181287
640.067	0.0181966
640.145	0.0181665
640.223	0.0180125
640.301	0.0181280
640.379	0.0181992
640.457	0.0182307
640.535	0.0179290
640.613	0.0181824
640.692	0.0180116
640.770	0.0182200
640.848	0.0179527
640.926	0.0181185
641.004	0.0181566
641.082	0.0182980
641.160	0.0181108
641.238	0.0180305
641.317	0.0181474
641.395	0.0182310
641.473	0.0181254
641.551	0.0181162
641.629	0.0182816
641.707	0.0181827
641.785	0.0181651
641.863	0.0181713
641.942	0.0184174
642.020	0.0182060
642.098	0.0181494
642.176	0.0181836
642.254	0.0182581
642.332	0.0182979
642.410	0.0181811
642.488	0.0181034
642.567	0.0181715
642.645	0.0181699
642.723	0.0182575
642.801	0.0179151
642.879	0.0181392
642.957	0.0182715
643.035	0.0180745
643.113	0.0181759
643.192	0.0181008
643.270	0.0180727
643.348	0.0180334
643.426	0.0181269
643.504	0.0181711
643.582	0.0180297
643.660	0.0180650
643.738	0.0181780
643.817	0.0180437
643.895	0.0181086
643.973	0.0179540
644.051	0.0180614
644.129	0.0180427
644.207	0.0181100
644.285	0.0181932
644.363	0.0181437
644.442	0.0181158
644.520	0.0181155
644.598	0.0181078
644.676	0.0180638
644.754	0.0181481
644.832	0.0180370
644.910	0.0179706
644.988	0.0181461
645.067	0.0182215
645.145	0.0181786
645.223	0.0181869
645.301	0.0181393
645.379	0.0182791
645.457	0.0182572
645.535	0.0182491
645.613	0.0182146
645.692	0.0182410
645.770	0.0181300
645.848	0.0182475
645.926	0.0182452
646.004	0.0181167
646.082	0.0181843
646.160	0.0181293
646.238	0.0181470
646.317	0.0180922
646.395	0.0181107
646.473	0.0181767
646.551	0.0180959
646.629	0.0179421
646.707	0.0180264
646.785	0.0179658
646.863	0.0180301
646.942	0.0178941
647.020	0.0180841
647.098	0.0178802
647.176	0.0178673
647.254	0.0178601
647.332	0.0178886
647.410	0.0178977
647.488	0.0180027
647.567	0.0177979
647.645	0.0179791
647.723	0.0180642
647.801	0.0179844
647.879	0.0178909
647.957	0.0179628
648.035	0.0178909
648.113	0.0179445
648.192	0.0178752
648.270	0.0178865
648.348	0.0178408
648.426	0.0180327
648.504	0.0179044
648.582	0.0178054
648.660	0.0178809
648.738	0.0179373
648.817	0.0177811
648.895	0.0178323
648.973	0.0180151
649.051	0.0179847
649.129	0.0179521
649.207	0.0179949
649.285	0.0180663
649.363	0.0180762
649.442	0.0180181
649.520	0.0180318
649.598	0.0180201
649.676	0.0180772
649.754	0.0179394
649.832	0.0179556
649.910	0.0179988
649.988	0.0180611
650.067	0.0179666
650.145	0.0181162
650.223	0.0180874
650.301	0.0179816
650.379	0.0180242
650.457	0.0179956
650.535	0.0180193
650.613	0.0179945
650.692	0.0180643
650.770	0.0179978
650.848	0.0180162
650.926	0.0180554
651.004	0.0179475
651.082	0.0179444
651.160	0.0180453
651.238	0.0181149
651.317	0.0180225
651.395	0.0180412
651.473	0.0179874
651.551	0.0180355
651.629	0.0181537
651.707	0.0180109
651.785	0.0180588
651.863	0.0181052
651.942	0.0181619
652.020	0.0180196
652.098	0.0181138
652.176	0.0181956
652.254	0.0180840
652.332	0.0182232
652.410	0.0182097
652.488	0.0182655
652.567	0.0181321
652.645	0.0182603
652.723	0.0181585
652.801	0.0180365
652.879	0.0183602
652.957	0.0182258
653.035	0.0181531
653.113	0.0182558
653.192	0.0182104
653.270	0.0183604
653.348	0.0181954
653.426	0.0183257
653.504	0.0182787
653.582	0.0183433
653.660	0.0183770
653.738	0.0183878
653.817	0.0183244
653.895	0.0183337
653.973	0.0183083
654.051	0.0182151
654.129	0.0182006
654.207	0.0182519
654.285	0.0182023
654.363	0.0182473
654.442	0.0181973
654.520	0.0182751
654.598	0.0182991
654.676	0.0181468
654.754	0.0182224
654.832	0.0182388
654.910	0.0182663
654.988	0.0181656
655.067	0.0182541
655.145	0.0180806
655.223	0.0181575
655.301	0.0182381
655.379	0.0183021
655.457	0.0181208
655.535	0.0181977
655.613	0.0182180
655.692	0.0182343
655.770	0.0181760
655.848	0.0182095
655.926	0.0181635
656.004	0.0181632
656.082	0.0180950
656.160	0.0182613
656.238	0.0181728
656.317	0.0181661
656.395	0.0181389
656.473	0.0181267
656.551	0.0181687
656.629	0.0180615
656.707	0.0181709
656.785	0.0181146
656.863	0.0182058
656.942	0.0181432
657.020	0.0181302
657.098	0.0182182
657.176	0.0181078
657.254	0.0180173
657.332	0.0180837
657.410	0.0180888
657.488	0.0179702
657.567	0.0180496
657.645	0.0182339
657.723	0.0180664
657.801	0.0181240
657.879	0.0180354
657.957	0.0182565
658.035	0.0180913
658.113	0.0179382
658.192	0.0181365
658.270	0.0181074
658.348	0.0181530
658.426	0.0181540
658.504	0.0180184
658.582	0.0180799
658.660	0.0181366
658.738	0.0181452
658.817	0.0182593
658.895	0.0181102
658.973	0.0181140
659.051	0.0180230
659.129	0.0180951
659.207	0.0180789
659.285	0.0181139
659.363	0.0181448
659.442	0.0180001
659.520	0.0180025
659.598	0.0182312
659.676	0.0181550
659.754	0.0182005
659.832	0.0182090
659.910	0.0181541
659.988	0.0179958
660.067	0.0180663
660.145	0.0180689
660.223	0.0181116
660.301	0.0181027
660.379	0.0182012
660.457	0.0182530
660.535	0.0180309
660.613	0.0181163
660.692	0.0180908
660.770	0.0181110
660.848	0.0180876
660.926	0.0180903
661.004	0.0181040
661.082	0.0180151
661.160	0.0181573
661.238	0.0179919
661.317	0.0180132
661.395	0.0180032
661.473	0.0181123
661.551	0.0179503
661.629	0.0180621
661.707	0.0180291
661.785	0.0178952
661.863	0.0181606
661.942	0.0180536
662.020	0.0180904
662.098	0.0180897
662.176	0.0180366
662.254	0.0179885
662.332	0.0180975
662.410	0.0180645
662.488	0.0181027
662.567	0.0180532
662.645	0.0180553
662.723	0.0180196
662.801	0.0180753
662.879	0.0181103
662.957	0.0181067
663.035	0.0180692
663.113	0.0181676
663.192	0.0180294
663.270	0.0182212
663.348	0.0181499
663.426	0.0181293
663.504	0.0181913
663.582	0.0181969
663.660	0.0181657
663.738	0.0181839
663.817	0.0181588
663.895	0.0181435
663.973	0.0180814
664.051	0.0180953
664.129	0.0181927
664.207	0.0182636
664.285	0.0181438
664.363	0.0181870
664.442	0.0181327
664.520	0.0182689
664.598	0.0180318
664.676	0.0180576
664.754	0.0181308
664.832	0.0180844
664.910	0.0181941
664.988	0.0181097
665.067	0.0181393
665.145	0.0181531
665.223	0.0181566
665.301	0.0181575
665.379	0.0181080
665.457	0.0181319
665.535	0.0180176
665.613	0.0180545
665.692	0.0181599
665.770	0.0180399
665.848	0.0181841
665.926	0.0180116
666.004	0.0182094
666.082	0.0181720
666.160	0.0181528
666.238	0.0182137
666.317	0.0181198
666.395	0.0180777
666.473	0.0181310
666.551	0.0182622
666.629	0.0181653
666.707	0.0180853
666.785	0.0180799
666.863	0.0181995
666.942	0.0181023
667.020	0.0181172
667.098	0.0181380
667.176	0.0180815
667.254	0.0180617
667.332	0.0180865
667.410	0.0179966
667.488	0.0180939
667.567	0.0180390
667.645	0.0179703
667.723	0.0181271
667.801	0.0181474
667.879	0.0179889
667.957	0.0179924
668.035	0.0180000
668.113	0.0181905
668.192	0.0179482
668.270	0.0180809
668.348	0.0181549
668.426	0.0180565
668.504	0.0178992
668.582	0.0180373
668.660	0.0180441
668.738	0.0179211
668.817	0.0180179
668.895	0.0181289
668.973	0.0180770
669.051	0.0179370
669.129	0.0178954
669.207	0.0180207
669.285	0.0179449
669.363	0.0180205
669.442	0.0178497
669.520	0.0180033
669.598	0.0181015
669.676	0.0179793
669.754	0.0180729
669.832	0.0179337
669.910	0.0179976
669.988	0.0178104
670.067	0.0179234
670.145	0.0179025
670.223	0.0181203
670.301	0.0179235
670.379	0.0178571
670.457	0.0179948
670.535	0.0179533
670.613	0.0178556
670.692	0.0179739
670.770	0.0179801
670.848	0.0180003
670.926	0.0180376
671.004	0.0180836
671.082	0.0179243
671.160	0.0181049
671.238	0.0181277
671.317	0.0180734
671.395	0.0182574
671.473	0.0179974
671.551	0.0181997
671.629	0.0182173
671.707	0.0181281
671.785	0.0181844
671.863	0.0183727
671.942	0.0181816
672.020	0.0181441
672.098	0.0182212
672.176	0.0182537
672.254	0.0183421
672.332	0.0181591
672.410	0.0181673
672.488	0.0182322
672.567	0.0181338
672.645	0.0180717
672.723	0.0181490
672.801	0.0182211
672.879	0.0182359
672.957	0.0182581
673.035	0.0182355
673.113	0.0181451
673.192	0.0180931
673.270	0.0181258
673.348	0.0182685
673.426	0.0182571
673.504	0.0182419
673.582	0.0182537
673.660	0.0182436
673.738	0.0183693
673.817	0.0183053
673.895	0.0184779
673.973	0.0184229
674.051	0.0182016
674.129	0.0183163
674.207	0.0181451
674.285	0.0183016
674.363	0.0183882
674.442	0.0184084
674.520	0.0183247
674.598	0.0183158
674.676	0.0182912
674.754	0.0182462
674.832	0.0180733
674.910	0.0182787
674.988	0.0183824
675.067	0.0183191
675.145	0.0183636
675.223	0.0182354
675.301	0.0182240
675.379	0.0182175
675.457	0.0182763
675.535	0.0182917
675.613	0.0181953
675.692	0.0181963
675.770	0.0182012
675.848	0.0180994
675.926	0.0180898
676.004	0.0180797
676.082	0.0182270
676.160	0.0181563
676.238	0.0180972
676.317	0.0182624
676.395	0.0181749
676.473	0.0180071
676.551	0.0181612
676.629	0.0181527
676.707	0.0181570
676.785	0.0181128
676.863	0.0181855
676.942	0.0181744
677.020	0.0181628
677.098	0.0181362
677.176	0.0180100
677.254	0.0180305
677.332	0.0181049
677.410	0.0179950
677.488	0.0180530
677.567	0.0180418
677.645	0.0179172
677.723	0.0177923
677.801	0.0178664
677.879	0.0179164
677.957	0.0179019
678.035	0.0179146
678.113	0.0178159
678.192	0.0179611
678.270	0.0178905
678.348	0.0179322
678.426	0.0178952
678.504	0.0179157
678.582	0.0179426
678.660	0.0179059
678.738	0.0179958
678.817	0.0180180
678.895	0.0179459
678.973	0.0180132
679.051	0.0180388
679.129	0.0179438
679.207	0.0181113
679.285	0.0180335
679.363	0.0181543
679.442	0.0182310
679.520	0.0180853
679.598	0.0181370
679.676	0.0179793
679.754	0.0181755
679.832	0.0181592
679.910	0.0182068
679.988	0.0182083
680.067	0.0181470
680.145	0.0181878
680.223	0.0180947
680.301	0.0179618
680.379	0.0179269
680.457	0.0177809
680.535	0.0177266
680.613	0.0179364
680.692	0.0178255
680.770	0.0176951
680.848	0.0176290
680.926	0.0176286
681.004	0.0176498
681.082	0.0175836
681.160	0.0177580
681.238	0.0178877
681.317	0.0178211
681.395	0.0178539
681.473	0.0180920
681.551	0.0181454
681.629	0.0180515
681.707	0.0181289
681.785	0.0181213
681.863	0.0182252
681.942	0.0181428
682.020	0.0181591
682.098	0.0181379
682.176	0.0180569
682.254	0.0181954
682.332	0.0180145
682.410	0.0181155
682.488	0.0179340
682.567	0.0178529
682.645	0.0179638
682.723	0.0177596
682.801	0.0178366
682.879	0.0176908
682.957	0.0177708
683.035	0.0178253
683.113	0.0177948
683.192	0.0177461
683.270	0.0176424
683.348	0.0177102
683.426	0.0176826
683.504	0.0177837
683.582	0.0177653
683.660	0.0177786
683.738	0.0178346
683.817	0.0179659
683.895	0.0178829
683.973	0.0178863
684.051	0.0179530
684.129	0.0178911
684.207	0.0178389
684.285	0.0180779
684.363	0.0180515
684.442	0.0180560
684.520	0.0180240
684.598	0.0179250
684.676	0.0180317
684.754	0.0180899
684.832	0.0179178
684.910	0.0179569
684.988	0.0178999
685.067	0.0179252
685.145	0.0180418
685.223	0.0180408
685.301	0.0179974
685.379	0.0178899
685.457	0.0180281
685.535	0.0179165
685.613	0.0179518
685.692	0.0178844
685.770	0.0180200
685.848	0.0178879
685.926	0.0179640
686.004	0.0180151
686.082	0.0180012
686.160	0.0179237
686.238	0.0178842
686.317	0.0180151
686.395	0.0178457
686.473	0.0179172
686.551	0.0178445
686.629	0.0178953
686.707	0.0178601
686.785	0.0178711
686.863	0.0178349
686.942	0.0179330
687.020	0.0178697
687.098	0.0179713
687.176	0.0179227
687.254	0.0179510
687.332	0.0177699
687.410	0.0179208
687.488	0.0178799
687.567	0.0179221
687.645	0.0179950
687.723	0.0179530
687.801	0.0178880
687.879	0.0179010
687.957	0.0178316
688.035	0.0180321
688.113	0.0180590
688.192	0.0181173
688.270	0.0180539
688.348	0.0181348
688.426	0.0180091
688.504	0.0180494
688.582	0.0181918
688.660	0.0182867
688.738	0.0183139
688.817	0.0184940
688.895	0.0182846
688.973	0.0183501
689.051	0.0182829
689.129	0.0181670
689.207	0.0182820
689.285	0.0182653
689.363	0.0183109
689.442	0.0182500
689.520	0.0180917
689.598	0.0179593
689.676	0.0180129
689.754	0.0179469
689.832	0.0180614
689.910	0.0178237
689.988	0.0178509
690.067	0.0176073
690.145	0.0175627
690.223	0.0174319
690.301	0.0174776
690.379	0.0174092
690.457	0.0174669
690.535	0.0174173
690.613	0.0173415
690.692	0.0175248
690.770	0.0175193
690.848	0.0173418
690.926	0.0176800
691.004	0.0177291
691.082	0.0176772
691.160	0.0177881
691.238	0.0178007
691.317	0.0180366
691.395	0.0180250
691.473	0.0179573
691.551	0.0181361
691.629	0.0181779
691.707	0.0182763
691.785	0.0182468
691.863	0.0183014
691.942	0.0183263
692.020	0.0184393
692.098	0.0185540
692.176	0.0182896
692.254	0.0182348
692.332	0.0183511
692.410	0.0183598
692.488	0.0182974
692.567	0.0183767
692.645	0.0182201
692.723	0.0184098
692.801	0.0183326
692.879	0.0181942
692.957	0.0181819
693.035	0.0179128
693.113	0.0180780
693.192	0.0180756
693.270	0.0180639
693.348	0.0179643
693.426	0.0178644
693.504	0.0178754
693.582	0.0179111
693.660	0.0178989
693.738	0.0179069
693.817	0.0179496
693.895	0.0177395
693.973	0.0176395
694.051	0.0177822
694.129	0.0179113
694.207	0.0177787
694.285	0.0177787
694.363	0.0178294
694.442	0.0177779
694.520	0.0176566
694.598	0.0176308
694.676	0.0178294
694.754	0.0177399
694.832	0.0177332
694.910	0.0178078
694.988	0.0178660
695.067	0.0177240
695.145	0.0178614
695.223	0.0179210
695.301	0.0179881
695.379	0.0181218
695.457	0.0181416
695.535	0.0180398
695.613	0.0182734
695.692	0.0183516
695.770	0.0183109
695.848	0.0183810
695.926	0.0184561
696.004	0.0185431
696.082	0.0185648
696.160	0.0185548
696.238	0.0184983
696.317	0.0185407
696.395	0.0184603
696.473	0.0185218
696.551	0.0186570
696.629	0.0184634
696.707	0.0183755
696.785	0.0184689
696.863	0.0183438
696.942	0.0183135
697.020	0.0182583
697.098	0.0182850
697.176	0.0183199
697.254	0.0181998
697.332	0.0180048
697.410	0.0180473
697.488	0.0178625
697.567	0.0178573
697.645	0.0178961
697.723	0.0178681
697.801	0.0177017
697.879	0.0178358
697.957	0.0177278
698.035	0.0175924
698.113	0.0176685
698.192	0.0176027
698.270	0.0177187
698.348	0.0175694
698.426	0.0176969
698.504	0.0176543
698.582	0.0176047
698.660	0.0177568
698.738	0.0176904
698.817	0.0178147
698.895	0.0177901
698.973	0.0179344
699.051	0.0179585
699.129	0.0179890
699.207	0.0179086
699.285	0.0180024
699.363	0.0180100
699.442	0.0182657
699.520	0.0181390
699.598	0.0182326
699.676	0.0181522
699.754	0.0182691
699.832	0.0183578
699.910	0.0184061
699.988	0.0183081
700.067	0.0181567
700.145	0.0183068
700.223	0.0181397
700.301	0.0181824
700.379	0.0182312
700.457	0.0183784
700.535	0.0181329
700.613	0.0181376
700.692	0.0182288
700.770	0.0181809
700.848	0.0181367
700.926	0.0181278
701.004	0.0182085
701.082	0.0182261
701.160	0.0182492
701.238	0.0183208
701.317	0.0182758
701.395	0.0182893
701.473	0.0183411
701.551	0.0183351
701.629	0.0183601
701.707	0.0184471
701.785	0.0184190
701.863	0.0184423
701.942	0.0185577
702.020	0.0184457
702.098	0.0183416
702.176	0.0183540
702.254	0.0183646
702.332	0.0183099
702.410	0.0181236
702.488	0.0180032
702.567	0.0180766
702.645	0.0180112
702.723	0.0177336
702.801	0.0178120
702.879	0.0177992
702.957	0.0176386
703.035	0.0174299
703.113	0.0175671
703.192	0.0174775
703.270	0.0174089
703.348	0.0175229
703.426	0.0175191
703.504	0.0175610
703.582	0.0175470
703.660	0.0175149
703.738	0.0175451
703.817	0.0174601
703.895	0.0176296
703.973	0.0175504
704.051	0.0176520
704.129	0.0177798
704.207	0.0177254
704.285	0.0178033
704.363	0.0178326
704.442	0.0176785
704.520	0.0177612
704.598	0.0177856
704.676	0.0179091
704.754	0.0179426
704.832	0.0177861
704.910	0.0176868
704.988	0.0179355
705.067	0.0178022
705.145	0.0180672
705.223	0.0180876
705.301	0.0180342
705.379	0.0181121
705.457	0.0179803
705.535	0.0182147
705.613	0.0182800
705.692	0.0184042
705.770	0.0184486
705.848	0.0185925
705.926	0.0185605
706.004	0.0184066
706.082	0.0185821
706.160	0.0185277
706.238	0.0185428
706.317	0.0185954
706.395	0.0184591
706.473	0.0185114
706.551	0.0185303
706.629	0.0184483
706.707	0.0183704
706.785	0.0182937
706.863	0.0182188
706.942	0.0181955
707.020	0.0181933
707.098	0.0181129
707.176	0.0181748
707.254	0.0180092
707.332	0.0179150
707.410	0.0178503
707.488	0.0178174
707.567	0.0176141
707.645	0.0176969
707.723	0.0175794
707.801	0.0173381
707.879	0.0175181
707.957	0.0174352
708.035	0.0171584
708.113	0.0172565
708.192	0.0171529
708.270	0.0171401
708.348	0.0171677
708.426	0.0170567
708.504	0.0169145
708.582	0.0170705
708.660	0.0172297
708.738	0.0171540
708.817	0.0170506
708.895	0.0173017
708.973	0.0172232
709.051	0.0173961
709.129	0.0173932
709.207	0.0174670
709.285	0.0176418
709.363	0.0178031
709.442	0.0179094
709.520	0.0179890
709.598	0.0180664
709.676	0.0181261
709.754	0.0182238
709.832	0.0184498
709.910	0.0183631
709.988	0.0184360
710.067	0.0183961
710.145	0.0185596
710.223	0.0186310
710.301	0.0187563
710.379	0.0185375
710.457	0.0184769
710.535	0.0185580
710.613	0.0185860
710.692	0.0184394
710.770	0.0184779
710.848	0.0185590
710.926	0.0185265
711.004	0.0184297
711.082	0.0184637
711.160	0.0184304
711.238	0.0184205
711.317	0.0184323
711.395	0.0183567
711.473	0.0183929
711.551	0.0184724
711.629	0.0181970
711.707	0.0182965
711.785	0.0183775
711.863	0.0182976
711.942	0.0181622
712.020	0.0181337
712.098	0.0181809
712.176	0.0180800
712.254	0.0179391
712.332	0.0178692
712.410	0.0179692
712.488	0.0178560
712.567	0.0179121
712.645	0.0176845
712.723	0.0177487
712.801	0.0177827
712.879	0.0176131
712.957	0.0175654
713.035	0.0176662
713.113	0.0177206
713.192	0.0175504
713.270	0.0176138
713.348	0.0176817
713.426	0.0176827
713.504	0.0176815
713.582	0.0176191
713.660	0.0176841
713.738	0.0177268
713.817	0.0178056
713.895	0.0177283
713.973	0.0178180
714.051	0.0177534
714.129	0.0178233
714.207	0.0178144
714.285	0.0176917
714.363	0.0177450
714.442	0.0178259
714.520	0.0177012
714.598	0.0178879
714.676	0.0178836
714.754	0.0177573
714.832	0.0178769
714.910	0.0177912
714.988	0.0178987
715.067	0.0178205
715.145	0.0177841
715.223	0.0178022
715.301	0.0179275
715.379	0.0180010
715.457	0.0178146
715.535	0.0177694
715.613	0.0180302
715.692	0.0180793
715.770	0.0181259
715.848	0.0179797
715.926	0.0181728
716.004	0.0182013
716.082	0.0180522
716.160	0.0180807
716.238	0.0182819
716.317	0.0181808
716.395	0.0182167
716.473	0.0181240
716.551	0.0183332
716.629	0.0182981
716.707	0.0184047
716.785	0.0182875
716.863	0.0183425
716.942	0.0185117
717.020	0.0183938
717.098	0.0186494
717.176	0.0185312
717.254	0.0187259
717.332	0.0185792
717.410	0.0186740
717.488	0.0186376
717.567	0.0187121
717.645	0.0187932
717.723	0.0186351
717.801	0.0184576
717.879	0.0185122
717.957	0.0185916
718.035	0.0186474
718.113	0.0185336
718.192	0.0183488
718.270	0.0184193
718.348	0.0184404
718.426	0.0183198
718.504	0.0182580
718.582	0.0182307
718.660	0.0182890
718.738	0.0181480
718.817	0.0179418
718.895	0.0180193
718.973	0.0181886
719.051	0.0181002
719.129	0.0180712
719.207	0.0181007
719.285	0.0182409
719.363	0.0180265
719.442	0.0180094
719.520	0.0181364
719.598	0.0180457
719.676	0.0181503
719.754	0.0179377
719.832	0.0179028
719.910	0.0179348
719.988	0.0180244
720.067	0.0180125
720.145	0.0181261
720.223	0.0180109
720.301	0.0177853
720.379	0.0178937
720.457	0.0176891
720.535	0.0177969
720.613	0.0178249
720.692	0.0176381
720.770	0.0176794
720.848	0.0176060
720.926	0.0174841
721.004	0.0175475
721.082	0.0176063
721.160	0.0175472
721.238	0.0176727
721.317	0.0177270
721.395	0.0176434
721.473	0.0177726
721.551	0.0177829
721.629	0.0177694
721.707	0.0178840
721.785	0.0179693
721.863	0.0180087
721.942	0.0179515
722.020	0.0182004
722.098	0.0182103
722.176	0.0182072
722.254	0.0182607
722.332	0.0181129
722.410	0.0182330
722.488	0.0184536
722.567	0.0182230
722.645	0.0184010
722.723	0.0182990
722.801	0.0183136
722.879	0.0182432
722.957	0.0182369
723.035	0.0183582
723.113	0.0181832
723.192	0.0181728
723.270	0.0182431
723.348	0.0182002
723.426	0.0181789
723.504	0.0181963
723.582	0.0180888
723.660	0.0180576
723.738	0.0181994
723.817	0.0182280
723.895	0.0181433
723.973	0.0182403
724.051	0.0182059
724.129	0.0183145
724.207	0.0181937
724.285	0.0183531
724.363	0.0182658
724.442	0.0182227
724.520	0.0181053
724.598	0.0182408
724.676	0.0181407
724.754	0.0181253
724.832	0.0181547
724.910	0.0180705
724.988	0.0178774
725.067	0.0179582
725.145	0.0179586
725.223	0.0179958
725.301	0.0181642
725.379	0.0179871
725.457	0.0178152
725.535	0.0178307
725.613	0.0177893
725.692	0.0176958
725.770	0.0177395
725.848	0.0176983
725.926	0.0177763
726.004	0.0176859
726.082	0.0175482
726.160	0.0176128
726.238	0.0175180
726.317	0.0174061
726.395	0.0175477
726.473	0.0174609
726.551	0.0174966
726.629	0.0175262
726.707	0.0175981
726.785	0.0176840
726.863	0.0176345
726.942	0.0176698
727.020	0.0176233
727.098	0.0179044
727.176	0.0180233
727.254	0.0178170
727.332	0.0180013
727.410	0.0178311
727.488	0.0179380
727.567	0.0179926
727.645	0.0181579
727.723	0.0180793
727.801	0.0180018
727.879	0.0179904
727.957	0.0181915
728.035	0.0182088
728.113	0.0181152
728.192	0.0182343
728.270	0.0183158
728.348	0.0182505
728.426	0.0182736
728.504	0.0182193
728.582	0.0183244
728.660	0.0185067
728.738	0.0183997
728.817	0.0183686
728.895	0.0184649
728.973	0.0185368
729.051	0.0186773
729.129	0.0186596
729.207	0.0188601
729.285	0.0188227
729.363	0.0186534
729.442	0.0189108
729.520	0.0188801
729.598	0.0188354
729.676	0.0188849
729.754	0.0186832
729.832	0.0188483
729.910	0.0187738
729.988	0.0186203
730.067	0.0185603
730.145	0.0184904
730.223	0.0184589
730.301	0.0184679
730.379	0.0185018
730.457	0.0184808
730.535	0.0184407
730.613	0.0183116
730.692	0.0182581
730.770	0.0183454
730.848	0.0181702
730.926	0.0182504
731.004	0.0181112
731.082	0.0181535
731.160	0.0182653
731.238	0.0181577
731.317	0.0179008
731.395	0.0179213
731.473	0.0179787
731.551	0.0180533
731.629	0.0178381
731.707	0.0176834
731.785	0.0177547
731.863	0.0177488
731.942	0.0177899
732.020	0.0176563
732.098	0.0177179
732.176	0.0175756
732.254	0.0174676
732.332	0.0177282
732.410	0.0176733
732.488	0.0175889
732.567	0.0176049
732.645	0.0176112
732.723	0.0176544
732.801	0.0177659
732.879	0.0179327
732.957	0.0178651
733.035	0.0179548
733.113	0.0179919
733.192	0.0180009
733.270	0.0180095
733.348	0.0181139
733.426	0.0180816
733.504	0.0179501
733.582	0.0180616
733.660	0.0182151
733.738	0.0181913
733.817	0.0182155
733.895	0.0183104
733.973	0.0183213
734.051	0.0183388
734.129	0.0182034
734.207	0.0182880
734.285	0.0182220
734.363	0.0182394
734.442	0.0182672
734.520	0.0183492
734.598	0.0183617
734.676	0.0182819
734.754	0.0182964
734.832	0.0184631
734.910	0.0183678
734.988	0.0183057
735.067	0.0183323
735.145	0.0182127
735.223	0.0181986
735.301	0.0182234
735.379	0.0183196
735.457	0.0183530
735.535	0.0181377
735.613	0.0181218
735.692	0.0181591
735.770	0.0180360
735.848	0.0179274
735.926	0.0179049
736.004	0.0176984
736.082	0.0178797
736.160	0.0178672
736.238	0.0178020
736.317	0.0178757
736.395	0.0179169
736.473	0.0178412
736.551	0.0178290
736.629	0.0178094
736.707	0.0179491
736.785	0.0180510
736.863	0.0178999
736.942	0.0179984
737.020	0.0179865
737.098	0.0180523
737.176	0.0182108
737.254	0.0180443
737.332	0.0180076
737.410	0.0180260
737.488	0.0182325
737.567	0.0183041
737.645	0.0183401
737.723	0.0182932
737.801	0.0183964
737.879	0.0183082
737.957	0.0184899
738.035	0.0184901
738.113	0.0184742
738.192	0.0184689
738.270	0.0183967
738.348	0.0184056
738.426	0.0184675
738.504	0.0182665
738.582	0.0182505
738.660	0.0184345
738.738	0.0183369
738.817	0.0183105
738.895	0.0182029
738.973	0.0181904
739.051	0.0182326
739.129	0.0181689
739.207	0.0181073
739.285	0.0180957
739.363	0.0181557
739.442	0.0180547
739.520	0.0180083
739.598	0.0179644
739.676	0.0180907
739.754	0.0179842
739.832	0.0180949
739.910	0.0181484
739.988	0.0182718
740.067	0.0182088
740.145	0.0181065
740.223	0.0181371
740.301	0.0182217
740.379	0.0182738
740.457	0.0183371
740.535	0.0182022
740.613	0.0181357
740.692	0.0181492
740.770	0.0182266
740.848	0.0180251
740.926	0.0180473
741.004	0.0180635
741.082	0.0180193
741.160	0.0179375
741.238	0.0179137
741.317	0.0178524
741.395	0.0179388
741.473	0.0177949
741.551	0.0178592
741.629	0.0179050
741.707	0.0180063
741.785	0.0178799
741.863	0.0179742
741.942	0.0181737
742.020	0.0179268
742.098	0.0181026
742.176	0.0183794
742.254	0.0183576
742.332	0.0183405
742.410	0.0184498
742.488	0.0184996
742.567	0.0185187
742.645	0.0185637
742.723	0.0186051
742.801	0.0186366
742.879	0.0185063
742.957	0.0184814
743.035	0.0185860
743.113	0.0184895
743.192	0.0185193
743.270	0.0183761
743.348	0.0183334
743.426	0.0181976
743.504	0.0181667
743.582	0.0182504
743.660	0.0183249
743.738	0.0181425
743.817	0.0181345
743.895	0.0181942
743.973	0.0181635
744.051	0.0180721
744.129	0.0179208
744.207	0.0180463
744.285	0.0181313
744.363	0.0180104
744.442	0.0181145
744.520	0.0179771
744.598	0.0180618
744.676	0.0180534
744.754	0.0180991
744.832	0.0180732
744.910	0.0180021
744.988	0.0179095
745.067	0.0180035
745.145	0.0177959
745.223	0.0178497
745.301	0.0177901
745.379	0.0178655
745.457	0.0177230
745.535	0.0177862
745.613	0.0178146
745.692	0.0177946
745.770	0.0177953
745.848	0.0175511
745.926	0.0176329
746.004	0.0175382
746.082	0.0174539
746.160	0.0175949
746.238	0.0175713
746.317	0.0175529
746.395	0.0176265
746.473	0.0175353
746.551	0.0174815
746.629	0.0177089
746.707	0.0175880
746.785	0.0174741
746.863	0.0176692
746.942	0.0176541
747.020	0.0177225
747.098	0.0177963
747.176	0.0177038
747.254	0.0178393
747.332	0.0179171
747.410	0.0180700
747.488	0.0180170
747.567	0.0180850
747.645	0.0180086
747.723	0.0181657
747.801	0.0181128
747.879	0.0180540
747.957	0.0182230
748.035	0.0181611
748.113	0.0181202
748.192	0.0182216
748.270	0.0181701
748.348	0.0181386
748.426	0.0181725
748.504	0.0180923
748.582	0.0180121
748.660	0.0179827
748.738	0.0182050
748.817	0.0180415
748.895	0.0179330
748.973	0.0181512
749.051	0.0182117
749.129	0.0181241
749.207	0.0183546
749.285	0.0181909
749.363	0.0182826
749.442	0.0182167
749.520	0.0183237
749.598	0.0182703
749.676	0.0183759
749.754	0.0184457
749.832	0.0183953
749.910	0.0184550
749.988	0.0183529
750.067	0.0184005
750.145	0.0183736
750.223	0.0184558
750.301	0.0185093
750.379	0.0185030
750.457	0.0185611
750.535	0.0184881
750.613	0.0184102
750.692	0.0185137
750.770	0.0183360
750.848	0.0183165
750.926	0.0181731
751.004	0.0182759
751.082	0.0182260
751.160	0.0181842
751.238	0.0181989
751.317	0.0182173
751.395	0.0182243
751.473	0.0182381
751.551	0.0182789
751.629	0.0182487
751.707	0.0182922
751.785	0.0182789
751.863	0.0183795
751.942	0.0182820
752.020	0.0182614
752.098	0.0182204
752.176	0.0181446
752.254	0.0181432
752.332	0.0179219
752.410	0.0180800
752.488	0.0180713
752.567	0.0181306
752.645	0.0179608
752.723	0.0179043
752.801	0.0180570
752.879	0.0178958
752.957	0.0178733
753.035	0.0179012
753.113	0.0179865
753.192	0.0179390
753.270	0.0179700
753.348	0.0179713
753.426	0.0181287
753.504	0.0178535
753.582	0.0179452
753.660	0.0180524
753.738	0.0181207
753.817	0.0180789
753.895	0.0180186
753.973	0.0180587
754.051	0.0180904
754.129	0.0179871
754.207	0.0179982
754.285	0.0180595
754.363	0.0179029
754.442	0.0179492
754.520	0.0180635
754.598	0.0179874
754.676	0.0180084
754.754	0.0180014
754.832	0.0180425
754.910	0.0179838
754.988	0.0178638
755.067	0.0180791
755.145	0.0179475
755.223	0.0179662
755.301	0.0180753
755.379	0.0180072
755.457	0.0181034
755.535	0.0180090
755.613	0.0180788
755.692	0.0180896
755.770	0.0180968
755.848	0.0181160
755.926	0.0180749
756.004	0.0180769
756.082	0.0179655
756.160	0.0179769
756.238	0.0181126
756.317	0.0180383
756.395	0.0180861
756.473	0.0180392
756.551	0.0180754
756.629	0.0181177
756.707	0.0179980
756.785	0.0180853
756.863	0.0180999
756.942	0.0180048
757.020	0.0180337
757.098	0.0180850
757.176	0.0180769
757.254	0.0180163
757.332	0.0180317
757.410	0.0180071
757.488	0.0179862
757.567	0.0179288
757.645	0.0179176
757.723	0.0179365
757.801	0.0180115
757.879	0.0180607
757.957	0.0181219
758.035	0.0179993
758.113	0.0180109
758.192	0.0181076
758.270	0.0179840
758.348	0.0181338
758.426	0.0181094
758.504	0.0181381
758.582	0.0180034
758.660	0.0179521
758.738	0.0181846
758.817	0.0181670
758.895	0.0180588
758.973	0.0180417
759.051	0.0179301
759.129	0.0181003
759.207	0.0180547
759.285	0.0180859
759.363	0.0180607
759.442	0.0181448
759.520	0.0179419
759.598	0.0180148
759.676	0.0180466
759.754	0.0180946
759.832	0.0179897
759.910	0.0179520
759.988	0.0180783
760.067	0.0180542
760.145	0.0180867
760.223	0.0181219
760.301	0.0181357
760.379	0.0180707
760.457	0.0180479
760.535	0.0180829
760.613	0.0180796
760.692	0.0180526
760.770	0.0180629
760.848	0.0180009
760.926	0.0180343
761.004	0.0181183
761.082	0.0179777
761.160	0.0182246
761.238	0.0181544
761.317	0.0181048
761.395	0.0183108
761.473	0.0183212
761.551	0.0184015
761.629	0.0182183
761.707	0.0182699
761.785	0.0182697
761.863	0.0183385
761.942	0.0183829
762.020	0.0183196
762.098	0.0183045
762.176	0.0182445
762.254	0.0182782
762.332	0.0182876
762.410	0.0181959
762.488	0.0182676
762.567	0.0182123
762.645	0.0181079
762.723	0.0180893
762.801	0.0181467
762.879	0.0181152
762.957	0.0180166
763.035	0.0180353
763.113	0.0180011
763.192	0.0180896
763.270	0.0180588
763.348	0.0179353
763.426	0.0180957
763.504	0.0179660
763.582	0.0180045
763.660	0.0179535
763.738	0.0179868
763.817	0.0179240
763.895	0.0179289
763.973	0.0180058
764.051	0.0180429
764.129	0.0179665
764.207	0.0180022
764.285	0.0180933
764.363	0.0179526
764.442	0.0180198
764.520	0.0181430
764.598	0.0179350
764.676	0.0179108
764.754	0.0179706
764.832	0.0179800
764.910	0.0179775
764.988	0.0179410
765.067	0.0180339
765.145	0.0180191
765.223	0.0181440
765.301	0.0181032
765.379	0.0180576
765.457	0.0181054
765.535	0.0180907
765.613	0.0180885
765.692	0.0180554
765.770	0.0179762
765.848	0.0181400
765.926	0.0179691
766.004	0.0180811
766.082	0.0180366
766.160	0.0179858
766.238	0.0179486
766.317	0.0180354
766.395	0.0179292
766.473	0.0179311
766.551	0.0180228
766.629	0.0179714
766.707	0.0180584
766.785	0.0179132
766.863	0.0178914
766.942	0.0179688
767.020	0.0180360
767.098	0.0179424
767.176	0.0179568
767.254	0.0180912
767.332	0.0180910
767.410	0.0180997
767.488	0.0179267
767.567	0.0179624
767.645	0.0179405
767.723	0.0180649
767.801	0.0179304
767.879	0.0180427
767.957	0.0180410
768.035	0.0180343
768.113	0.0180351
768.192	0.0180852
768.270	0.0177901
768.348	0.0181306
768.426	0.0179914
768.504	0.0180514
768.582	0.0181528
768.660	0.0182157
768.738	0.0181226
768.817	0.0179636
768.895	0.0180653
768.973	0.0180930
769.051	0.0179256
769.129	0.0179765
769.207	0.0180402
769.285	0.0178220
769.363	0.0178785
769.442	0.0179325
769.520	0.0178767
769.598	0.0179224
769.676	0.0180456
769.754	0.0179149
769.832	0.0179844
769.910	0.0179061
769.988	0.0179304
770.067	0.0180872
770.145	0.0179309
770.223	0.0178390
770.301	0.0179955
770.379	0.0180032
770.457	0.0180680
770.535	0.0179411
770.613	0.0179950
770.692	0.0179433
770.770	0.0180396
770.848	0.0181823
770.926	0.0181760
771.004	0.0180280
771.082	0.0179281
771.160	0.0180163
771.238	0.0180822
771.317	0.0181311
771.395	0.0181230
771.473	0.0180587
771.551	0.0180991
771.629	0.0182335
771.707	0.0181517
771.785	0.0182273
771.863	0.0182476
771.942	0.0182313
772.020	0.0182983
772.098	0.0183451
772.176	0.0182483
772.254	0.0182952
772.332	0.0184108
772.410	0.0183276
772.488	0.0182024
772.567	0.0182011
772.645	0.0182258
772.723	0.0182117
772.801	0.0181597
772.879	0.0181284
772.957	0.0180244
773.035	0.0180184
773.113	0.0178969
773.192	0.0180731
773.270	0.0179391
773.348	0.0179613
773.426	0.0178342
773.504	0.0180139
773.582	0.0179308
773.660	0.0179441
773.738	0.0178852
773.817	0.0177851
773.895	0.0179154
773.973	0.0178826
774.051	0.0179236
774.129	0.0177505
774.207	0.0177026
774.285	0.0177847
774.363	0.0178198
774.442	0.0176403
774.520	0.0177169
774.598	0.0177007
774.676	0.0176346
774.754	0.0177176
774.832	0.0176240
774.910	0.0175731
774.988	0.0177437
775.067	0.0177890
775.145	0.0177107
775.223	0.0176584
775.301	0.0176655
775.379	0.0178539
775.457	0.0177730
775.535	0.0177161
775.613	0.0177885
775.692	0.0178107
775.770	0.0178941
775.848	0.0178747
775.926	0.0179756
776.004	0.0179593
776.082	0.0178407
776.160	0.0179070
776.238	0.0178921
776.317	0.0180087
776.395	0.0179881
776.473	0.0178989
776.551	0.0180571
776.629	0.0179511
776.707	0.0181278
776.785	0.0180052
776.863	0.0178505
776.942	0.0179250
777.020	0.0179646
777.098	0.0179704
777.176	0.0179042
777.254	0.0180043
777.332	0.0179823
777.410	0.0180485
777.488	0.0179810
777.567	0.0181053
777.645	0.0178955
777.723	0.0180389
777.801	0.0179718
777.879	0.0181579
777.957	0.0180947
778.035	0.0180599
778.113	0.0181703
778.192	0.0182381
778.270	0.0181712
778.348	0.0182168
778.426	0.0182224
778.504	0.0181958
778.582	0.0182462
778.660	0.0182850
778.738	0.0181986
778.817	0.0182751
778.895	0.0182089
778.973	0.0180460
779.051	0.0182540
779.129	0.0182761
779.207	0.0182037
779.285	0.0181090
779.363	0.0180936
779.442	0.0180907
779.520	0.0180399
779.598	0.0180354
779.676	0.0179965
779.754	0.0179784
779.832	0.0179589
779.910	0.0180093
779.988	0.0180035
780.067	0.0180659
780.145	0.0179784
780.223	0.0179482
780.301	0.0180669
780.379	0.0181961
780.457	0.0182011
780.535	0.0182238
780.613	0.0182137
780.692	0.0181921
780.770	0.0180189
780.848	0.0181527
780.926	0.0182019
781.004	0.0182463
781.082	0.0182318
781.160	0.0181887
781.238	0.0181893
781.317	0.0180506
781.395	0.0181804
781.473	0.0181438
781.551	0.0180458
781.629	0.0181097
781.707	0.0179654
781.785	0.0180308
781.863	0.0179324
781.942	0.0178053
782.020	0.0176695
782.098	0.0177450
782.176	0.0177724
782.254	0.0176647
782.332	0.0178465
782.410	0.0177773
782.488	0.0176873
782.567	0.0176133
782.645	0.0176272
782.723	0.0178459
782.801	0.0176279
782.879	0.0176652
782.957	0.0177808
783.035	0.0177682
783.113	0.0178753
783.192	0.0178633
783.270	0.0178291
783.348	0.0178729
783.426	0.0179491
783.504	0.0179711
783.582	0.0179465
783.660	0.0179871
783.738	0.0180676
783.817	0.0179179
783.895	0.0179218
783.973	0.0179773
784.051	0.0179683
784.129	0.0180097
784.207	0.0179823
784.285	0.0180917
784.363	0.0179579
784.442	0.0180138
784.520	0.0179700
784.598	0.0180253
784.676	0.0180419
784.754	0.0180550
784.832	0.0180212
784.910	0.0179798
784.988	0.0180943
785.067	0.0180575
785.145	0.0179794
785.223	0.0181503
785.301	0.0181221
785.379	0.0181229
785.457	0.0179848
785.535	0.0181162
785.613	0.0182391
785.692	0.0181966
785.770	0.0180135
785.848	0.0180837
785.926	0.0182883
786.004	0.0181709
786.082	0.0181888
786.160	0.0182273
786.238	0.0182040
786.317	0.0181827
786.395	0.0181649
786.473	0.0181783
786.551	0.0182397
786.629	0.0181354
786.707	0.0181533
786.785	0.0181221
786.863	0.0182389
786.942	0.0181453
787.020	0.0181117
787.098	0.0181657
787.176	0.0181232
787.254	0.0181403
787.332	0.0182104
787.410	0.0182364
787.488	0.0181491
787.567	0.0181660
787.645	0.0183275
787.723	0.0182845
787.801	0.0182626
787.879	0.0182367
787.957	0.0180887
788.035	0.0180347
788.113	0.0180717
788.192	0.0180901
788.270	0.0180946
788.348	0.0180847
788.426	0.0180973
788.504	0.0179290
788.582	0.0180006
788.660	0.0180243
788.738	0.0179905
788.817	0.0178799
788.895	0.0179163
788.973	0.0178116
789.051	0.0178201
789.129	0.0178213
789.207	0.0178486
789.285	0.0177798
789.363	0.0178288
789.442	0.0177559
789.520	0.0177438
789.598	0.0177838
789.676	0.0179117
789.754	0.0178100
789.832	0.0176933
789.910	0.0178918
789.988	0.0177503
790.067	0.0178273
790.145	0.0177131
790.223	0.0176321
790.301	0.0179111
790.379	0.0179012
790.457	0.0179200
790.535	0.0176707
790.613	0.0177615
790.692	0.0179097
790.770	0.0179642
790.848	0.0179015
790.926	0.0177748
791.004	0.0178323
791.082	0.0178544
791.160	0.0179795
791.238	0.0180088
791.317	0.0179148
791.395	0.0179018
791.473	0.0179062
791.551	0.0181087
791.629	0.0180508
791.707	0.0180639
791.785	0.0181450
791.863	0.0182248
791.942	0.0183131
792.020	0.0183577
792.098	0.0182313
792.176	0.0182633
792.254	0.0184482
792.332	0.0182050
792.410	0.0183134
792.488	0.0182400
792.567	0.0183295
792.645	0.0182807
792.723	0.0182616
792.801	0.0182994
792.879	0.0182565
792.957	0.0183332
793.035	0.0182433
793.113	0.0182638
793.192	0.0181792
793.270	0.0180217
793.348	0.0181293
793.426	0.0180621
793.504	0.0181110
793.582	0.0182080
793.660	0.0181085
793.738	0.0180409
793.817	0.0180303
793.895	0.0181440
793.973	0.0181927
794.051	0.0180450
794.129	0.0180579
794.207	0.0181598
794.285	0.0179868
794.363	0.0181514
794.442	0.0182127
794.520	0.0181822
794.598	0.0183553
794.676	0.0182072
794.754	0.0180952
794.832	0.0180813
794.910	0.0180570
794.988	0.0180420
795.067	0.0180344
795.145	0.0180952
795.223	0.0180751
795.301	0.0179965
795.379	0.0180539
795.457	0.0179941
795.535	0.0178303
795.613	0.0180438
795.692	0.0180871
795.770	0.0180048
795.848	0.0180782
795.926	0.0179747
796.004	0.0180532
796.082	0.0179170
796.160	0.0180141
796.238	0.0181323
796.317	0.0180061
796.395	0.0180017
796.473	0.0179985
796.551	0.0178546
796.629	0.0178478
796.707	0.0179953
796.785	0.0179220
796.863	0.0177820
796.942	0.0178510
797.020	0.0177674
797.098	0.0178947
797.176	0.0178101
797.254	0.0176204
797.332	0.0177868
797.410	0.0177167
797.488	0.0177790
797.567	0.0177896
797.645	0.0177504
797.723	0.0176690
797.801	0.0177964
797.879	0.0177961
797.957	0.0176920
798.035	0.0178053
798.113	0.0176875
798.192	0.0178238
798.270	0.0177303
798.348	0.0177351
798.426	0.0180836
798.504	0.0179301
798.582	0.0178464
798.660	0.0179691
798.738	0.0179976
798.817	0.0179901
798.895	0.0180061
798.973	0.0180999
799.051	0.0181037
799.129	0.0180540
799.207	0.0180483
799.285	0.0180631
799.363	0.0181808
799.442	0.0181557
799.520	0.0181454
799.598	0.0181217
799.676	0.0181210
799.754	0.0181573
799.832	0.0181953
799.910	0.0182906
799.988	0.0182096
800.067	0.0182426
800.145	0.0183414
800.223	0.0181612
800.301	0.0182873
800.379	0.0180267
800.457	0.0182251
800.535	0.0182361
800.613	0.0181882
800.692	0.0181953
800.770	0.0181900
800.848	0.0182632
800.926	0.0182250
801.004	0.0182254
801.082	0.0182194
801.160	0.0182548
801.238	0.0182341
801.317	0.0181330
801.395	0.0183038
801.473	0.0183475
801.551	0.0183824
801.629	0.0183958
801.707	0.0181777
801.785	0.0183204
801.863	0.0182730
801.942	0.0183438
802.020	0.0182740
802.098	0.0182943
802.176	0.0184087
802.254	0.0182475
802.332	0.0184514
802.410	0.0184270
802.488	0.0183956
802.567	0.0183538
802.645	0.0182233
802.723	0.0182834
802.801	0.0183163
802.879	0.0181300
802.957	0.0182951
803.035	0.0183025
803.113	0.0182968
803.192	0.0181635
803.270	0.0181931
803.348	0.0182241
803.426	0.0180332
803.504	0.0179705
803.582	0.0181409
803.660	0.0181149
803.738	0.0179356
803.817	0.0180300
803.895	0.0179729
803.973	0.0179443
804.051	0.0178255
804.129	0.0179028
804.207	0.0178930
804.285	0.0178361
804.363	0.0179292
804.442	0.0178078
804.520	0.0177780
804.598	0.0178659
804.676	0.0179199
804.754	0.0177749
804.832	0.0178678
804.910	0.0179131
804.988	0.0179311
805.067	0.0179961
805.145	0.0179528
805.223	0.0178040
805.301	0.0180294
805.379	0.0180000
805.457	0.0178947
805.535	0.0179235
805.613	0.0179771
805.692	0.0178345
805.770	0.0180008
805.848	0.0179550
805.926	0.0179924
806.004	0.0179226
806.082	0.0178476
806.160	0.0179439
806.238	0.0179025
806.317	0.0180024
806.395	0.0181305
806.473	0.0179851
806.551	0.0180732
806.629	0.0181143
806.707	0.0180981
806.785	0.0180986
806.863	0.0180996
806.942	0.0180683
807.020	0.0179763
807.098	0.0180492
807.176	0.0181635
807.254	0.0181014
807.332	0.0180522
807.410	0.0180572
807.488	0.0180037
807.567	0.0181348
807.645	0.0182085
807.723	0.0180825
807.801	0.0180730
807.879	0.0180529
807.957	0.0180324
808.035	0.0181324
808.113	0.0179216
808.192	0.0180814
808.270	0.0180813
808.348	0.0180726
808.426	0.0180840
808.504	0.0180721
808.582	0.0180325
808.660	0.0179829
808.738	0.0180352
808.817	0.0181797
808.895	0.0181194
808.973	0.0182088
809.051	0.0180032
809.129	0.0180692
809.207	0.0181165
809.285	0.0180328
809.363	0.0179734
809.442	0.0178893
809.520	0.0180250
809.598	0.0179825
809.676	0.0179624
809.754	0.0179588
809.832	0.0180183
809.910	0.0179920
809.988	0.0179439
810.067	0.0180305
810.145	0.0178796
810.223	0.0179590
810.301	0.0179536
810.379	0.0179845
810.457	0.0179831
810.535	0.0179533
810.613	0.0180375
810.692	0.0178845
810.770	0.0180803
810.848	0.0180691
810.926	0.0178049
811.004	0.0180149
811.082	0.0178833
811.160	0.0178730
811.238	0.0178932
811.317	0.0178538
811.395	0.0177786
811.473	0.0177876
811.551	0.0177175
811.629	0.0176974
811.707	0.0177816
811.785	0.0178231
811.863	0.0178339
811.942	0.0177558
812.020	0.0177228
812.098	0.0178762
812.176	0.0176881
812.254	0.0178786
812.332	0.0179118
812.410	0.0179108
812.488	0.0178246
812.567	0.0179586
812.645	0.0179408
812.723	0.0179971
812.801	0.0178942
812.879	0.0177850
812.957	0.0179305
813.035	0.0179005
813.113	0.0178573
813.192	0.0177586
813.270	0.0177104
813.348	0.0178712
813.426	0.0179951
813.504	0.0177922
813.582	0.0177419
813.660	0.0179646
813.738	0.0179282
813.817	0.0179669
813.895	0.0179306
813.973	0.0179804
814.051	0.0180544
814.129	0.0180171
814.207	0.0180164
814.285	0.0180012
814.363	0.0180215
814.442	0.0179626
814.520	0.0180487
814.598	0.0180531
814.676	0.0180576
814.754	0.0180909
814.832	0.0181512
814.910	0.0181168
814.988	0.0181301
815.067	0.0181607
815.145	0.0181438
815.223	0.0180833
815.301	0.0181766
815.379	0.0181451
815.457	0.0181960
815.535	0.0181171
815.613	0.0181274
815.692	0.0182391
815.770	0.0181728
815.848	0.0180780
815.926	0.0180746
816.004	0.0181873
816.082	0.0182189
816.160	0.0182880
816.238	0.0181367
816.317	0.0181230
816.395	0.0182661
816.473	0.0181303
816.551	0.0180943
816.629	0.0182236
816.707	0.0180559
816.785	0.0182130
816.863	0.0182329
816.942	0.0181954
817.020	0.0181868
817.098	0.0180821
817.176	0.0182859
817.254	0.0181567
817.332	0.0179652
817.410	0.0179874
817.488	0.0181275
817.567	0.0181857
817.645	0.0180050
817.723	0.0180085
817.801	0.0182052
817.879	0.0180552
817.957	0.0180943
818.035	0.0181384
818.113	0.0179968
818.192	0.0181284
818.270	0.0180360
818.348	0.0179929
818.426	0.0181620
818.504	0.0180440
818.582	0.0181275
818.660	0.0180456
818.738	0.0179441
818.817	0.0181866
818.895	0.0180679
818.973	0.0178839
819.051	0.0180250
819.129	0.0180164
819.207	0.0178699
819.285	0.0181417
819.363	0.0178931
819.442	0.0178490
819.520	0.0180554
819.598	0.0179619
819.676	0.0179637
819.754	0.0179227
819.832	0.0180290
819.910	0.0180101
819.988	0.0180385
820.067	0.0179794
820.145	0.0181050
820.223	0.0179887
820.301	0.0179441
820.379	0.0180118
820.457	0.0181615
820.535	0.0181245
820.613	0.0180902
820.692	0.0182050
820.770	0.0181700
820.848	0.0180262
820.926	0.0180913
821.004	0.0181044
821.082	0.0180161
821.160	0.0180459
821.238	0.0178944
821.317	0.0181255
821.395	0.0181319
821.473	0.0180518
821.551	0.0181625
821.629	0.0180375
821.707	0.0180034
821.785	0.0180765
821.863	0.0178908
821.942	0.0178728
822.020	0.0179688
822.098	0.0179597
822.176	0.0180694
822.254	0.0179804
822.332	0.0179420
822.410	0.0180173
822.488	0.0179214
822.567	0.0180697
822.645	0.0181506
822.723	0.0180614
822.801	0.0180853
822.879	0.0180368
822.957	0.0180659
823.035	0.0180136
823.113	0.0180453
823.192	0.0182195
823.270	0.0181951
823.348	0.0182738
823.426	0.0182305
823.504	0.0182205
823.582	0.0182623
823.660	0.0182414
823.738	0.0182951
823.817	0.0181731
823.895	0.0181693
823.973	0.0182149
824.051	0.0182833
824.129	0.0182864
824.207	0.0181623
824.285	0.0181866
824.363	0.0181464
824.442	0.0183253
824.520	0.0181154
824.598	0.0180447
824.676	0.0182230
824.754	0.0180512
824.832	0.0180902
824.910	0.0181314
824.988	0.0180180
825.067	0.0180675
825.145	0.0181826
825.223	0.0181776
825.301	0.0181409
825.379	0.0181339
825.457	0.0180908
825.535	0.0181031
825.613	0.0180616
825.692	0.0181134
825.770	0.0180453
825.848	0.0181588
825.926	0.0182410
826.004	0.0181503
826.082	0.0182676
826.160	0.0180724
826.238	0.0181176
826.317	0.0180513
826.395	0.0180494
826.473	0.0181784
826.551	0.0181609
826.629	0.0180529
826.707	0.0182565
826.785	0.0181098
826.863	0.0180224
826.942	0.0180027
827.020	0.0181734
827.098	0.0180120
827.176	0.0179727
827.254	0.0179958
827.332	0.0181014
827.410	0.0180595
827.488	0.0179617
827.567	0.0179935
827.645	0.0180655
827.723	0.0180919
827.801	0.0179909
827.879	0.0178082
827.957	0.0178633
828.035	0.0178867
828.113	0.0179605
828.192	0.0178825
828.270	0.0178822
828.348	0.0179286
828.426	0.0179474
828.504	0.0179137
828.582	0.0178826
828.660	0.0178975
828.738	0.0178745
828.817	0.0177905
828.895	0.0179424
828.973	0.0178347
829.051	0.0178699
829.129	0.0178187
829.207	0.0178296
829.285	0.0178571
829.363	0.0179382
829.442	0.0180354
829.520	0.0178813
829.598	0.0180181
829.676	0.0179567
829.754	0.0177053
829.832	0.0179308
829.910	0.0180847
829.988	0.0180973
830.067	0.0179738
830.145	0.0178693
830.223	0.0179516
830.301	0.0179584
830.379	0.0178876
830.457	0.0180197
830.535	0.0180450
830.613	0.0180064
830.692	0.0179485
830.770	0.0180931
830.848	0.0180611
830.926	0.0180273
831.004	0.0180237
831.082	0.0180238
831.160	0.0179453
831.238	0.0180518
831.317	0.0180320
831.395	0.0180781
831.473	0.0181863
831.551	0.0181523
831.629	0.0181207
831.707	0.0180334
831.785	0.0180777
831.863	0.0181272
831.942	0.0181853
832.020	0.0180389
832.098	0.0181989
832.176	0.0181248
832.254	0.0181541
832.332	0.0181746
832.410	0.0180960
832.488	0.0180810
832.567	0.0182067
832.645	0.0182121
832.723	0.0181194
832.801	0.0183344
832.879	0.0181551
832.957	0.0181559
833.035	0.0182536
833.113	0.0182647
833.192	0.0182925
833.270	0.0182738
833.348	0.0182755
833.426	0.0182845
833.504	0.0181755
833.582	0.0182265
833.660	0.0183133
833.738	0.0182275
833.817	0.0182113
833.895	0.0182440
833.973	0.0181982
834.051	0.0182572
834.129	0.0181576
834.207	0.0182408
834.285	0.0182049
834.363	0.0183655
834.442	0.0182365
834.520	0.0181995
834.598	0.0182047
834.676	0.0182898
834.754	0.0182696
834.832	0.0181466
834.910	0.0182591
834.988	0.0182269
835.067	0.0181755
835.145	0.0181044
835.223	0.0182077
835.301	0.0180963
835.379	0.0180489
835.457	0.0181201
835.535	0.0179633
835.613	0.0181607
835.692	0.0180561
835.770	0.0179355
835.848	0.0180368
835.926	0.0179900
836.004	0.0179878
836.082	0.0179033
836.160	0.0180367
836.238	0.0181464
836.317	0.0179887
836.395	0.0179836
836.473	0.0180585
836.551	0.0179156
836.629	0.0180659
836.707	0.0181145
836.785	0.0180241
836.863	0.0178526
836.942	0.0179578
837.020	0.0181606
837.098	0.0179814
837.176	0.0178987
837.254	0.0178858
837.332	0.0180147
837.410	0.0178893
837.488	0.0180547
837.567	0.0179343
837.645	0.0178217
837.723	0.0179109
837.801	0.0179229
837.879	0.0179607
837.957	0.0178654
838.035	0.0179420
838.113	0.0179701
838.192	0.0179529
838.270	0.0180532
838.348	0.0178882
838.426	0.0179986
838.504	0.0180573
838.582	0.0180450
838.660	0.0180402
838.738	0.0180821
838.817	0.0181751
838.895	0.0180538
838.973	0.0180564
839.051	0.0181522
839.129	0.0181367
839.207	0.0180157
839.285	0.0179890
839.363	0.0180148
839.442	0.0179432
839.520	0.0180560
839.598	0.0179397
839.676	0.0180678
839.754	0.0179631
839.832	0.0181199
839.910	0.0180534
839.988	0.0179662
840.067	0.0180062
840.145	0.0179008
840.223	0.0179890
840.301	0.0180058
840.379	0.0180699
840.457	0.0178620
840.535	0.0179806
840.613	0.0180031
840.692	0.0179871
840.770	0.0180046
840.848	0.0181019
840.926	0.0179006
841.004	0.0179626
841.082	0.0180280
841.160	0.0179858
841.238	0.0180783
841.317	0.0180669
841.395	0.0179369
841.473	0.0183337
841.551	0.0181588
841.629	0.0180477
841.707	0.0180429
841.785	0.0181430
841.863	0.0181915
841.942	0.0182333
842.020	0.0182204
842.098	0.0181168
842.176	0.0182543
842.254	0.0180850
842.332	0.0183351
842.410	0.0183176
842.488	0.0182701
842.567	0.0181672
842.645	0.0181071
842.723	0.0181818
842.801	0.0182631
842.879	0.0182961
842.957	0.0183283
843.035	0.0181226
843.113	0.0181834
843.192	0.0182738
843.270	0.0181133
843.348	0.0182161
843.426	0.0181274
843.504	0.0180133
843.582	0.0181666
843.660	0.0181691
843.738	0.0182587
843.817	0.0181562
843.895	0.0182631
843.973	0.0181983
844.051	0.0181860
844.129	0.0180931
844.207	0.0181242
844.285	0.0182206
844.363	0.0182572
844.442	0.0182214
844.520	0.0181986
844.598	0.0181390
844.676	0.0182195
844.754	0.0182713
844.832	0.0182439
844.910	0.0181850
844.988	0.0182162
845.067	0.0181811
845.145	0.0182166
845.223	0.0182210
845.301	0.0181150
845.379	0.0180963
845.457	0.0182228
845.535	0.0182138
845.613	0.0184254
845.692	0.0180909
845.770	0.0180359
845.848	0.0180650
845.926	0.0180089
846.004	0.0181415
846.082	0.0180888
846.160	0.0179456
846.238	0.0179417
846.317	0.0179330
846.395	0.0180286
846.473	0.0180077
846.551	0.0178378
846.629	0.0180942
846.707	0.0178925
846.785	0.0179128
846.863	0.0179997
846.942	0.0178943
847.020	0.0178434
847.098	0.0178632
847.176	0.0179011
847.254	0.0178747
847.332	0.0178092
847.410	0.0177895
847.488	0.0178260
847.567	0.0178094
847.645	0.0177943
847.723	0.0176833
847.801	0.0178362
847.879	0.0176593
847.957	0.0177913
848.035	0.0178988
848.113	0.0179935
848.192	0.0179322
848.270	0.0180034
848.348	0.0177741
848.426	0.0178860
848.504	0.0177977
848.582	0.0177332
848.660	0.0178094
848.738	0.0177470
848.817	0.0178777
848.895	0.0178442
848.973	0.0177225
849.051	0.0176986
849.129	0.0177361
849.207	0.0177176
849.285	0.0177525
849.363	0.0176678
849.442	0.0177361
849.520	0.0179352
849.598	0.0179044
849.676	0.0179594
849.754	0.0178255
849.832	0.0178463
849.910	0.0178307
849.988	0.0179182
850.067	0.0178052
850.145	0.0178768
850.223	0.0178857
850.301	0.0178577
850.379	0.0178966
850.457	0.0179296
850.535	0.0179798
850.613	0.0177937
850.692	0.0176683
850.770	0.0178671
850.848	0.0179386
850.926	0.0179087
851.004	0.0178686
851.082	0.0176970
851.160	0.0178898
851.238	0.0179001
851.317	0.0178595
851.395	0.0177569
851.473	0.0179707
851.551	0.0177831
851.629	0.0177911
851.707	0.0178563
851.785	0.0179630
851.863	0.0179596
851.942	0.0179236
852.020	0.0180556
852.098	0.0179156
852.176	0.0180193
852.254	0.0179192
852.332	0.0179480
852.410	0.0180254
852.488	0.0179628
852.567	0.0179229
852.645	0.0179597
852.723	0.0180615
852.801	0.0178795
852.879	0.0179797
852.957	0.0180588
853.035	0.0179942
853.113	0.0180188
853.192	0.0180529
853.270	0.0179427
853.348	0.0180740
853.426	0.0179659
853.504	0.0180315
853.582	0.0180503
853.660	0.0180682
853.738	0.0180905
853.817	0.0179691
853.895	0.0180551
853.973	0.0180540
854.051	0.0180135
854.129	0.0180901
854.207	0.0182020
854.285	0.0181112
854.363	0.0180414
854.442	0.0180824
854.520	0.0180727
854.598	0.0180318
854.676	0.0180405
854.754	0.0180038
854.832	0.0180962
854.910	0.0180467
854.988	0.0180584
855.067	0.0181109
855.145	0.0180946
855.223	0.0179652
855.301	0.0180682
855.379	0.0181898
855.457	0.0181451
855.535	0.0179768
855.613	0.0179707
855.692	0.0179649
855.770	0.0181001
855.848	0.0181449
855.926	0.0180757
856.004	0.0181483
856.082	0.0181112
856.160	0.0181475
856.238	0.0182574
856.317	0.0182755
856.395	0.0182021
856.473	0.0182108
856.551	0.0181416
856.629	0.0181340
856.707	0.0182388
856.785	0.0182523
856.863	0.0181046
856.942	0.0180453
857.020	0.0181769
857.098	0.0182394
857.176	0.0182282
857.254	0.0181226
857.332	0.0181893
857.410	0.0181020
857.488	0.0181566
857.567	0.0182400
857.645	0.0181776
857.723	0.0182526
857.801	0.0181729
857.879	0.0180406
857.957	0.0180902
858.035	0.0182095
858.113	0.0182705
858.192	0.0183024
858.270	0.0182633
858.348	0.0183247
858.426	0.0180785
858.504	0.0181435
858.582	0.0182450
858.660	0.0182107
858.738	0.0181619
858.817	0.0182475
858.895	0.0182323
858.973	0.0180590
859.051	0.0181619
859.129	0.0181345
859.207	0.0181596
859.285	0.0181684
859.363	0.0181568
859.442	0.0180065
859.520	0.0181719
859.598	0.0180714
859.676	0.0181373
859.754	0.0180906
859.832	0.0181953
859.910	0.0181512
859.988	0.0180292
860.067	0.0180066
860.145	0.0181800
860.223	0.0181829
860.301	0.0180674
860.379	0.0180891
860.457	0.0181005
860.535	0.0181516
860.613	0.0180827
860.692	0.0180007
860.770	0.0181193
860.848	0.0181024
860.926	0.0180741
861.004	0.0181005
861.082	0.0180994
861.160	0.0180699
861.238	0.0181390
861.317	0.0181684
861.395	0.0180215
861.473	0.0180715
861.551	0.0180885
861.629	0.0181551
861.707	0.0179803
861.785	0.0179543
861.863	0.0181696
861.942	0.0180572
862.020	0.0180766
862.098	0.0182370
862.176	0.0179751
862.254	0.0181149
862.332	0.0182285
862.410	0.0181370
862.488	0.0181731
862.567	0.0180493
862.645	0.0181162
862.723	0.0181298
862.801	0.0181134
862.879	0.0181323
862.957	0.0181020
863.035	0.0181098
863.113	0.0181765
863.192	0.0181257
863.270	0.0181240
863.348	0.0179914
863.426	0.0180917
863.504	0.0181171
863.582	0.0181829
863.660	0.0182162
863.738	0.0181071
863.817	0.0182106
863.895	0.0181031
863.973	0.0181834
864.051	0.0182529
864.129	0.0180053
864.207	0.0182162
864.285	0.0183184
864.363	0.0181708
864.442	0.0182758
864.520	0.0181815
864.598	0.0182396
864.676	0.0182085
864.754	0.0181296
864.832	0.0183957
864.910	0.0181948
864.988	0.0180614
865.067	0.0180550
865.145	0.0182372
865.223	0.0182653
865.301	0.0182283
865.379	0.0180869
865.457	0.0182298
865.535	0.0181233
865.613	0.0180512
865.692	0.0181657
865.770	0.0181100
865.848	0.0180958
865.926	0.0180147
866.004	0.0181290
866.082	0.0180717
866.160	0.0180393
866.238	0.0180920
866.317	0.0181206
866.395	0.0179979
866.473	0.0180702
866.551	0.0179823
866.629	0.0180217
866.707	0.0181667
866.785	0.0181650
866.863	0.0180614
866.942	0.0182275
867.020	0.0181664
867.098	0.0179938
867.176	0.0181079
867.254	0.0182246
867.332	0.0182198
867.410	0.0182084
867.488	0.0182021
867.567	0.0181882
867.645	0.0180647
867.723	0.0181777
867.801	0.0180981
867.879	0.0180905
867.957	0.0181651
868.035	0.0181225
868.113	0.0181497
868.192	0.0180031
868.270	0.0179701
868.348	0.0180846
868.426	0.0182542
868.504	0.0180820
868.582	0.0182073
868.660	0.0180035
868.738	0.0181381
868.817	0.0181480
868.895	0.0179913
868.973	0.0181245
869.051	0.0178773
869.129	0.0180179
869.207	0.0180788
869.285	0.0180121
869.363	0.0179585
869.442	0.0179333
869.520	0.0180200
869.598	0.0179089
869.676	0.0179199
869.754	0.0178365
869.832	0.0179022
869.910	0.0179807
869.988	0.0178430
870.067	0.0178606
870.145	0.0178857
870.223	0.0179182
870.301	0.0177322
870.379	0.0178823
870.457	0.0178527
870.535	0.0178539
870.613	0.0179314
870.692	0.0177711
870.770	0.0178241
870.848	0.0179512
870.926	0.0178291
871.004	0.0176751
871.082	0.0178041
871.160	0.0178948
871.238	0.0179145
871.317	0.0178712
871.395	0.0179095
871.473	0.0180500
871.551	0.0178471
871.629	0.0178269
871.707	0.0178428
871.785	0.0179082
871.863	0.0178420
871.942	0.0179376
872.020	0.0180085
872.098	0.0179926
872.176	0.0178376
872.254	0.0178398
872.332	0.0179845
872.410	0.0179318
872.488	0.0180251
872.567	0.0179835
872.645	0.0178570
872.723	0.0179072
872.801	0.0180523
872.879	0.0179281
872.957	0.0178794
873.035	0.0178954
873.113	0.0179118
873.192	0.0179463
873.270	0.0178372
873.348	0.0179134
873.426	0.0179162
873.504	0.0178114
873.582	0.0178812
873.660	0.0178330
873.738	0.0180396
873.817	0.0179821
873.895	0.0178260
873.973	0.0179080
874.051	0.0179008
874.129	0.0179029
874.207	0.0178877
874.285	0.0179238
874.363	0.0180715
874.442	0.0179085
874.520	0.0179295
874.598	0.0180474
874.676	0.0179645
874.754	0.0179812
874.832	0.0179176
874.910	0.0181041
874.988	0.0180840
875.067	0.0181475
875.145	0.0181002
875.223	0.0181472
875.301	0.0181944
875.379	0.0183427
875.457	0.0181143
875.535	0.0182726
875.613	0.0182024
875.692	0.0182426
875.770	0.0182800
875.848	0.0183640
875.926	0.0182409
876.004	0.0181855
876.082	0.0182321
876.160	0.0182132
876.238	0.0182522
876.317	0.0181635
876.395	0.0181978
876.473	0.0181668
876.551	0.0180643
876.629	0.0180719
876.707	0.0181799
876.785	0.0181470
876.863	0.0180640
876.942	0.0180892
877.020	0.0181489
877.098	0.0181221
877.176	0.0181831
877.254	0.0182312
877.332	0.0180212
877.410	0.0180807
877.488	0.0179720
877.567	0.0180901
877.645	0.0180777
877.723	0.0181693
877.801	0.0180379
877.879	0.0180202
877.957	0.0181394
878.035	0.0179884
878.113	0.0179605
878.192	0.0180888
878.270	0.0180354
878.348	0.0179539
878.426	0.0180322
878.504	0.0179180
878.582	0.0180544
878.660	0.0179914
878.738	0.0180386
878.817	0.0180522
878.895	0.0179821
878.973	0.0180270
879.051	0.0180312
879.129	0.0178951
879.207	0.0179962
879.285	0.0179979
879.363	0.0180829
879.442	0.0180841
879.520	0.0181297
879.598	0.0181562
879.676	0.0180186
879.754	0.0181272
879.832	0.0182212
879.910	0.0181400
879.988	0.0181400
880.067	0.0181193
880.145	0.0180112
880.223	0.0179839
880.301	0.0180816
880.379	0.0180116
880.457	0.0181438
880.535	0.0181006
880.613	0.0180422
880.692	0.0179334
880.770	0.0178004
880.848	0.0180259
880.926	0.0180189
881.004	0.0178719
881.082	0.0181441
881.160	0.0180898
881.238	0.0180412
881.317	0.0178863
881.395	0.0180196
881.473	0.0180963
881.551	0.0180476
881.629	0.0181012
881.707	0.0180333
881.785	0.0179541
881.863	0.0180428
881.942	0.0180335
882.020	0.0181611
882.098	0.0181209
882.176	0.0179659
882.254	0.0180554
882.332	0.0179957
882.410	0.0180601
882.488	0.0179770
882.567	0.0181386
882.645	0.0180985
882.723	0.0182063
882.801	0.0181170
882.879	0.0180147
882.957	0.0181611
883.035	0.0182003
883.113	0.0181691
883.192	0.0181942
883.270	0.0182959
883.348	0.0182655
883.426	0.0181428
883.504	0.0182388
883.582	0.0181683
883.660	0.0182369
883.738	0.0181834
883.817	0.0182799
883.895	0.0182716
883.973	0.0182901
884.051	0.0182103
884.129	0.0182726
884.207	0.0181570
884.285	0.0182535
884.363	0.0182662
884.442	0.0181220
884.520	0.0181361
884.598	0.0181667
884.676	0.0182075
884.754	0.0180639
884.832	0.0183396
884.910	0.0182722
884.988	0.0181417
885.067	0.0181445
885.145	0.0182169
885.223	0.0181686
885.301	0.0181689
885.379	0.0182719
885.457	0.0181333
885.535	0.0182184
885.613	0.0180999
885.692	0.0180738
885.770	0.0181213
885.848	0.0180980
885.926	0.0180247
886.004	0.0180911
886.082	0.0180996
886.160	0.0179918
886.238	0.0181063
886.317	0.0180973
886.395	0.0181269
886.473	0.0181367
886.551	0.0180874
886.629	0.0179192
886.707	0.0178917
886.785	0.0180502
886.863	0.0180814
886.942	0.0178523
887.020	0.0180092
887.098	0.0180449
887.176	0.0179914
887.254	0.0180415
887.332	0.0180622
887.410	0.0178618
887.488	0.0181113
887.567	0.0179943
887.645	0.0179919
887.723	0.0180084
887.801	0.0180882
887.879	0.0181887
887.957	0.0181668
888.035	0.0182013
888.113	0.0181065
888.192	0.0181290
888.270	0.0182264
888.348	0.0181427
888.426	0.0180571
888.504	0.0180876
888.582	0.0181496
888.660	0.0180331
888.738	0.0182065
888.817	0.0181295
888.895	0.0179783
888.973	0.0180910
889.051	0.0180812
889.129	0.0180957
889.207	0.0180280
889.285	0.0178250
889.363	0.0180141
889.442	0.0179656
889.520	0.0179024
889.598	0.0179810
889.676	0.0179384
889.754	0.0179083
889.832	0.0178537
889.910	0.0178806
889.988	0.0178505
890.067	0.0177697
890.145	0.0178429
890.223	0.0179752
890.301	0.0177934
890.379	0.0178046
890.457	0.0179067
890.535	0.0179937
890.613	0.0178669
890.692	0.0179216
890.770	0.0178048
890.848	0.0178297
890.926	0.0178945
891.004	0.0178160
891.082	0.0178964
891.160	0.0179095
891.238	0.0178333
891.317	0.0179243
891.395	0.0179694
891.473	0.0179362
891.551	0.0177650
891.629	0.0178113
891.707	0.0178950
891.785	0.0178248
891.863	0.0178842
891.942	0.0178131
892.020	0.0179550
892.098	0.0178780
892.176	0.0178021
892.254	0.0178495
892.332	0.0180902
892.410	0.0179452
892.488	0.0179262
892.567	0.0179720
892.645	0.0180344
892.723	0.0180589
892.801	0.0178455
892.879	0.0180405
892.957	0.0181113
893.035	0.0179355
893.113	0.0178634
893.192	0.0179677
893.270	0.0178040
893.348	0.0179504
893.426	0.0179101
893.504	0.0178965
893.582	0.0179456
893.660	0.0178133
893.738	0.0178712
893.817	0.0179124
893.895	0.0179384
893.973	0.0180129
894.051	0.0180184
894.129	0.0180188
894.207	0.0179148
894.285	0.0180652
894.363	0.0180187
894.442	0.0179907
894.520	0.0180597
894.598	0.0180650
894.676	0.0179762
894.754	0.0179237
894.832	0.0179386
894.910	0.0179905
894.988	0.0181475
895.067	0.0178906
895.145	0.0179500
895.223	0.0180446
895.301	0.0179777
895.379	0.0181323
895.457	0.0181970
895.535	0.0182102
895.613	0.0181010
895.692	0.0180180
895.770	0.0181068
895.848	0.0181372
895.926	0.0180608
896.004	0.0180601
896.082	0.0180766
896.160	0.0181183
896.238	0.0181034
896.317	0.0179909
896.395	0.0180012
896.473	0.0183147
896.551	0.0180612
896.629	0.0180424
896.707	0.0180284
896.785	0.0180860
896.863	0.0180055
896.942	0.0178788
897.020	0.0180482
897.098	0.0181195
897.176	0.0181133
897.254	0.0180750
897.332	0.0182111
897.410	0.0182917
897.488	0.0183293
897.567	0.0182458
897.645	0.0180502
897.723	0.0182372
897.801	0.0180890
897.879	0.0183559
897.957	0.0182975
898.035	0.0182033
898.113	0.0182950
898.192	0.0184061
898.270	0.0183211
898.348	0.0183162
898.426	0.0183129
898.504	0.0182735
898.582	0.0182355
898.660	0.0183092
898.738	0.0182004
898.817	0.0183833
898.895	0.0184106
898.973	0.0182088
899.051	0.0183330
899.129	0.0183368
899.207	0.0183097
899.285	0.0183121
899.363	0.0181861
899.442	0.0183134
899.520	0.0182341
899.598	0.0184241
899.676	0.0182510
899.754	0.0181873
899.832	0.0181684
899.910	0.0182252
899.988	0.0182074
900.067	0.0182117
900.145	0.0182153
900.223	0.0182627
900.301	0.0181771
900.379	0.0182973
900.457	0.0181483
900.535	0.0181729
900.613	0.0181650
900.692	0.0181423
900.770	0.0181464
900.848	0.0182302
900.926	0.0180783
901.004	0.0180759
901.082	0.0180901
901.160	0.0181807
901.238	0.0181245
901.317	0.0182197
901.395	0.0181815
901.473	0.0181165
901.551	0.0180818
901.629	0.0182239
901.707	0.0180610
901.785	0.0181210
901.863	0.0181892
901.942	0.0181876
902.020	0.0181496
902.098	0.0182227
902.176	0.0182092
902.254	0.0182193
902.332	0.0181760
902.410	0.0181940
902.488	0.0183134
902.567	0.0183202
902.645	0.0182143
902.723	0.0183227
902.801	0.0181011
902.879	0.0184023
902.957	0.0183442
903.035	0.0182989
903.113	0.0182891
903.192	0.0182928
903.270	0.0182568
903.348	0.0182796
903.426	0.0183337
903.504	0.0183865
903.582	0.0183047
903.660	0.0181243
903.738	0.0182384
903.817	0.0181812
903.895	0.0182535
903.973	0.0182146
904.051	0.0183675
904.129	0.0181553
904.207	0.0180612
904.285	0.0181368
904.363	0.0181898
904.442	0.0182059
904.520	0.0181658
904.598	0.0182678
904.676	0.0182259
904.754	0.0182123
904.832	0.0182059
904.910	0.0181245
904.988	0.0182701
905.067	0.0182965
905.145	0.0181368
905.223	0.0182682
905.301	0.0182510
905.379	0.0183090
905.457	0.0181387
905.535	0.0183257
905.613	0.0182101
905.692	0.0182185
905.770	0.0183320
905.848	0.0182918
905.926	0.0183386
906.004	0.0182736
906.082	0.0180502
906.160	0.0181313
906.238	0.0182700
906.317	0.0181308
906.395	0.0181632
906.473	0.0180768
906.551	0.0181097
906.629	0.0179543
906.707	0.0180634
906.785	0.0180033
906.863	0.0181194
906.942	0.0180224
907.020	0.0179304
907.098	0.0180535
907.176	0.0180186
907.254	0.0180160
907.332	0.0180809
907.410	0.0179668
907.488	0.0180149
907.567	0.0180434
907.645	0.0181219
907.723	0.0180923
907.801	0.0179994
907.879	0.0180119
907.957	0.0179729
908.035	0.0180593
908.113	0.0180978
908.192	0.0181200
908.270	0.0180013
908.348	0.0180842
908.426	0.0181110
908.504	0.0181123
908.582	0.0179983
908.660	0.0179354
908.738	0.0181190
908.817	0.0181149
908.895	0.0181332
908.973	0.0180969
909.051	0.0180446
909.129	0.0179220
909.207	0.0179659
909.285	0.0179996
909.363	0.0179692
909.442	0.0181252
909.520	0.0180430
909.598	0.0181148
909.676	0.0179243
909.754	0.0180462
909.832	0.0181837
909.910	0.0181006
909.988	0.0181940
910.067	0.0181973
910.145	0.0179700
910.223	0.0179674
910.301	0.0182037
910.379	0.0181241
910.457	0.0181161
910.535	0.0180448
910.613	0.0181796
910.692	0.0182474
910.770	0.0183123
910.848	0.0181610
910.926	0.0180651
911.004	0.0181153
911.082	0.0179852
911.160	0.0180461
911.238	0.0181581
911.317	0.0178985
911.395	0.0181371
911.473	0.0179550
911.551	0.0179874
911.629	0.0179749
911.707	0.0179782
911.785	0.0180424
911.863	0.0179527
911.942	0.0179844
912.020	0.0179842
912.098	0.0179189
912.176	0.0178617
912.254	0.0179230
912.332	0.0180402
912.410	0.0178881
912.488	0.0178036
912.567	0.0178639
912.645	0.0179565
912.723	0.0178463
912.801	0.0178322
912.879	0.0180474
912.957	0.0179688
913.035	0.0179222
913.113	0.0178278
913.192	0.0180007
913.270	0.0180577
913.348	0.0179263
913.426	0.0180014
913.504	0.0180543
913.582	0.0179947
913.660	0.0179628
913.738	0.0180691
913.817	0.0179007
913.895	0.0179762
913.973	0.0180753
914.051	0.0180103
914.129	0.0179681
914.207	0.0178925
914.285	0.0178653
914.363	0.0178920
914.442	0.0180456
914.520	0.0180583
914.598	0.0179359
914.676	0.0179292
914.754	0.0179294
914.832	0.0181132
914.910	0.0179926
914.988	0.0179872
915.067	0.0180315
915.145	0.0180661
915.223	0.0180765
915.301	0.0181234
915.379	0.0180231
915.457	0.0180647
915.535	0.0180714
915.613	0.0178933
915.692	0.0180804
915.770	0.0180885
915.848	0.0181438
915.926	0.0181379
916.004	0.0180461
916.082	0.0180433
916.160	0.0180709
916.238	0.0181355
916.317	0.0178465
916.395	0.0179450
916.473	0.0181923
916.551	0.0180368
916.629	0.0179710
916.707	0.0180245
916.785	0.0179482
916.863	0.0179258
916.942	0.0179517
917.020	0.0179994
917.098	0.0180077
917.176	0.0180968
917.254	0.0181239
917.332	0.0180467
917.410	0.0179737
917.488	0.0181039
917.567	0.0180859
917.645	0.0179341
917.723	0.0180392
917.801	0.0181429
917.879	0.0181968
917.957	0.0180659
918.035	0.0181893
918.113	0.0181644
918.192	0.0180631
918.270	0.0182464
918.348	0.0181963
918.426	0.0182101
918.504	0.0182832
918.582	0.0181749
918.660	0.0182324
918.738	0.0181591
918.817	0.0182420
918.895	0.0182755
918.973	0.0183064
919.051	0.0182344
919.129	0.0182925
919.207	0.0182833
919.285	0.0184218
919.363	0.0182780
919.442	0.0184377
919.520	0.0182737
919.598	0.0183724
919.676	0.0183392
919.754	0.0181995
919.832	0.0183190
919.910	0.0183703
