06/01/2022	22:14:49	Ver.	4.1	UNKNOWN
Optical Delay	599.988409	Delta X		0.078125	Sweeps	1	Scan Rate	0/0
Coordinates	Axis 1	NaN	Axis 2	NaN	Axis 3	NaN	Axis 4	NaN	Axis 5	NaN	Axis 6	0.000000
TX Power	0.000000	RX Power	0.000000

599.988	0.0173859
600.067	0.0172458
600.145	0.0174495
600.223	0.0173876
600.301	0.0172507
600.379	0.0173657
600.457	0.0174215
600.535	0.0173827
600.613	0.0173260
600.692	0.0173680
600.770	0.0175584
600.848	0.0173837
600.926	0.0172900
601.004	0.0174393
601.082	0.0174428
601.160	0.0173817
601.238	0.0172641
601.317	0.0174088
601.395	0.0174194
601.473	0.0173433
601.551	0.0174487
601.629	0.0175038
601.707	0.0174503
601.785	0.0173844
601.863	0.0174302
601.942	0.0174766
602.020	0.0175607
602.098	0.0175561
602.176	0.0174335
602.254	0.0175982
602.332	0.0174022
602.410	0.0175251
602.488	0.0174525
602.567	0.0176056
602.645	0.0174850
602.723	0.0175085
602.801	0.0174463
602.879	0.0174513
602.957	0.0173794
603.035	0.0174100
603.113	0.0174945
603.192	0.0174986
603.270	0.0173416
603.348	0.0175761
603.426	0.0175612
603.504	0.0175285
603.582	0.0174022
603.660	0.0175396
603.738	0.0175480
603.817	0.0175094
603.895	0.0175192
603.973	0.0174718
604.051	0.0174473
604.129	0.0174885
604.207	0.0174783
604.285	0.0174795
604.363	0.0174835
604.442	0.0173833
604.520	0.0174533
604.598	0.0175903
604.676	0.0174732
604.754	0.0174709
604.832	0.0174963
604.910	0.0176474
604.988	0.0175587
605.067	0.0176299
605.145	0.0174104
605.223	0.0175647
605.301	0.0176250
605.379	0.0175169
605.457	0.0175305
605.535	0.0175655
605.613	0.0175561
605.692	0.0174771
605.770	0.0176057
605.848	0.0175793
605.926	0.0173962
606.004	0.0174544
606.082	0.0175777
606.160	0.0174843
606.238	0.0173668
606.317	0.0174136
606.395	0.0175897
606.473	0.0175972
606.551	0.0174478
606.629	0.0175990
606.707	0.0175635
606.785	0.0175723
606.863	0.0175463
606.942	0.0175585
607.020	0.0175874
607.098	0.0174027
607.176	0.0175779
607.254	0.0176665
607.332	0.0175377
607.410	0.0175226
607.488	0.0176165
607.567	0.0176536
607.645	0.0174971
607.723	0.0176838
607.801	0.0176822
607.879	0.0175983
607.957	0.0176491
608.035	0.0174449
608.113	0.0176006
608.192	0.0176946
608.270	0.0176270
608.348	0.0177075
608.426	0.0176637
608.504	0.0175764
608.582	0.0175208
608.660	0.0176257
608.738	0.0176808
608.817	0.0176340
608.895	0.0176849
608.973	0.0174990
609.051	0.0174811
609.129	0.0176534
609.207	0.0175485
609.285	0.0175938
609.363	0.0174554
609.442	0.0175469
609.520	0.0175598
609.598	0.0174178
609.676	0.0176093
609.754	0.0176540
609.832	0.0176025
609.910	0.0176758
609.988	0.0175716
610.067	0.0176626
610.145	0.0175108
610.223	0.0176546
610.301	0.0176682
610.379	0.0176591
610.457	0.0176428
610.535	0.0175300
610.613	0.0178053
610.692	0.0176942
610.770	0.0176599
610.848	0.0175441
610.926	0.0175920
611.004	0.0177258
611.082	0.0176266
611.160	0.0177857
611.238	0.0176590
611.317	0.0175835
611.395	0.0176777
611.473	0.0176533
611.551	0.0177379
611.629	0.0177227
611.707	0.0175747
611.785	0.0177168
611.863	0.0178494
611.942	0.0176514
612.020	0.0176760
612.098	0.0176357
612.176	0.0178450
612.254	0.0176978
612.332	0.0176215
612.410	0.0177219
612.488	0.0176955
612.567	0.0176531
612.645	0.0175149
612.723	0.0175050
612.801	0.0175112
612.879	0.0175504
612.957	0.0176757
613.035	0.0173505
613.113	0.0173972
613.192	0.0174063
613.270	0.0173799
613.348	0.0173335
613.426	0.0173444
613.504	0.0172514
613.582	0.0174915
613.660	0.0174450
613.738	0.0173970
613.817	0.0173044
613.895	0.0174377
613.973	0.0173169
614.051	0.0174044
614.129	0.0173478
614.207	0.0172891
614.285	0.0173455
614.363	0.0174465
614.442	0.0173060
614.520	0.0173817
614.598	0.0174055
614.676	0.0175241
614.754	0.0175262
614.832	0.0174178
614.910	0.0174195
614.988	0.0176914
615.067	0.0174689
615.145	0.0174947
615.223	0.0174660
615.301	0.0176126
615.379	0.0175022
615.457	0.0175678
615.535	0.0174927
615.613	0.0176283
615.692	0.0176376
615.770	0.0177032
615.848	0.0175240
615.926	0.0177389
616.004	0.0175881
616.082	0.0177775
616.160	0.0176960
616.238	0.0177271
616.317	0.0176641
616.395	0.0174857
616.473	0.0175793
616.551	0.0175193
616.629	0.0174371
616.707	0.0175139
616.785	0.0175368
616.863	0.0174870
616.942	0.0175696
617.020	0.0175605
617.098	0.0172475
617.176	0.0176094
617.254	0.0174605
617.332	0.0174989
617.410	0.0174980
617.488	0.0174806
617.567	0.0173853
617.645	0.0174509
617.723	0.0173817
617.801	0.0175674
617.879	0.0174140
617.957	0.0173875
618.035	0.0174816
618.113	0.0177011
618.192	0.0175127
618.270	0.0176064
618.348	0.0175730
618.426	0.0174735
618.504	0.0176482
618.582	0.0177189
618.660	0.0175417
618.738	0.0176917
618.817	0.0176359
618.895	0.0176870
618.973	0.0176939
619.051	0.0175970
619.129	0.0174787
619.207	0.0175307
619.285	0.0175516
619.363	0.0176637
619.442	0.0175934
619.520	0.0174453
619.598	0.0175983
619.676	0.0174979
619.754	0.0175043
619.832	0.0174820
619.910	0.0174011
619.988	0.0175150
620.067	0.0175655
620.145	0.0175236
620.223	0.0174420
620.301	0.0177110
620.379	0.0174725
620.457	0.0177107
620.535	0.0175001
620.613	0.0175880
620.692	0.0176165
620.770	0.0176205
620.848	0.0176672
620.926	0.0176530
621.004	0.0175153
621.082	0.0175903
621.160	0.0175471
621.238	0.0175818
621.317	0.0175723
621.395	0.0175916
621.473	0.0175831
621.551	0.0176580
621.629	0.0176424
621.707	0.0176578
621.785	0.0175943
621.863	0.0176547
621.942	0.0175860
622.020	0.0174763
622.098	0.0174485
622.176	0.0176151
622.254	0.0175858
622.332	0.0175852
622.410	0.0176025
622.488	0.0175294
622.567	0.0175903
622.645	0.0176984
622.723	0.0175204
622.801	0.0176666
622.879	0.0176770
622.957	0.0175983
623.035	0.0177117
623.113	0.0176373
623.192	0.0176355
623.270	0.0175383
623.348	0.0175219
623.426	0.0175019
623.504	0.0175848
623.582	0.0176204
623.660	0.0175907
623.738	0.0174757
623.817	0.0175790
623.895	0.0173934
623.973	0.0175481
624.051	0.0175527
624.129	0.0175420
624.207	0.0176276
624.285	0.0175343
624.363	0.0174032
624.442	0.0175402
624.520	0.0175280
624.598	0.0175523
624.676	0.0176706
624.754	0.0175569
624.832	0.0176413
624.910	0.0177188
624.988	0.0176187
625.067	0.0177132
625.145	0.0176294
625.223	0.0175230
625.301	0.0176393
625.379	0.0177977
625.457	0.0177599
625.535	0.0176357
625.613	0.0177213
625.692	0.0177800
625.770	0.0177694
625.848	0.0177187
625.926	0.0177227
626.004	0.0178687
626.082	0.0177852
626.160	0.0176894
626.238	0.0178021
626.317	0.0177309
626.395	0.0177946
626.473	0.0179173
626.551	0.0178255
626.629	0.0178029
626.707	0.0177882
626.785	0.0176991
626.863	0.0178441
626.942	0.0178717
627.020	0.0177114
627.098	0.0178014
627.176	0.0177914
627.254	0.0177687
627.332	0.0177065
627.410	0.0177149
627.488	0.0178068
627.567	0.0178213
627.645	0.0178236
627.723	0.0176969
627.801	0.0176544
627.879	0.0176072
627.957	0.0177020
628.035	0.0177058
628.113	0.0175811
628.192	0.0176487
628.270	0.0175517
628.348	0.0175167
628.426	0.0175432
628.504	0.0174945
628.582	0.0175204
628.660	0.0174704
628.738	0.0174693
628.817	0.0175520
628.895	0.0176387
628.973	0.0176658
629.051	0.0174029
629.129	0.0175222
629.207	0.0174895
629.285	0.0174497
629.363	0.0174877
629.442	0.0173445
629.520	0.0175015
629.598	0.0174269
629.676	0.0174627
629.754	0.0175037
629.832	0.0175450
629.910	0.0175786
629.988	0.0175430
630.067	0.0176043
630.145	0.0174957
630.223	0.0175201
630.301	0.0175192
630.379	0.0175237
630.457	0.0174434
630.535	0.0176266
630.613	0.0175578
630.692	0.0174564
630.770	0.0175455
630.848	0.0175051
630.926	0.0176138
631.004	0.0175384
631.082	0.0174999
631.160	0.0175143
631.238	0.0175510
631.317	0.0174261
631.395	0.0174842
631.473	0.0174596
631.551	0.0175540
631.629	0.0175314
631.707	0.0174788
631.785	0.0174893
631.863	0.0173602
631.942	0.0174941
632.020	0.0176788
632.098	0.0174622
632.176	0.0173943
632.254	0.0175485
632.332	0.0175198
632.410	0.0176533
632.488	0.0175163
632.567	0.0175960
632.645	0.0175756
632.723	0.0177344
632.801	0.0176766
632.879	0.0176919
632.957	0.0176960
633.035	0.0176365
633.113	0.0177085
633.192	0.0177499
633.270	0.0178254
633.348	0.0177148
633.426	0.0177615
633.504	0.0177856
633.582	0.0178087
633.660	0.0176553
633.738	0.0177912
633.817	0.0178957
633.895	0.0178578
633.973	0.0178621
634.051	0.0179449
634.129	0.0179021
634.207	0.0178432
634.285	0.0178196
634.363	0.0179349
634.442	0.0177084
634.520	0.0178173
634.598	0.0178317
634.676	0.0178805
634.754	0.0178846
634.832	0.0179444
634.910	0.0179444
634.988	0.0177511
635.067	0.0178362
635.145	0.0178196
635.223	0.0177157
635.301	0.0177335
635.379	0.0176173
635.457	0.0175960
635.535	0.0175447
635.613	0.0175552
635.692	0.0174791
635.770	0.0174616
635.848	0.0174778
635.926	0.0173929
636.004	0.0174286
636.082	0.0174201
636.160	0.0174821
636.238	0.0172268
636.317	0.0173847
636.395	0.0175032
636.473	0.0173826
636.551	0.0173420
636.629	0.0172871
636.707	0.0173231
636.785	0.0172936
636.863	0.0173528
636.942	0.0174169
637.020	0.0174132
637.098	0.0174509
637.176	0.0172868
637.254	0.0173504
637.332	0.0174629
637.410	0.0175250
637.488	0.0173354
637.567	0.0172980
637.645	0.0176063
637.723	0.0175663
637.801	0.0175986
637.879	0.0177042
637.957	0.0174369
638.035	0.0175951
638.113	0.0175641
638.192	0.0175452
638.270	0.0175817
638.348	0.0175147
638.426	0.0176144
638.504	0.0176005
638.582	0.0174792
638.660	0.0174986
638.738	0.0175042
638.817	0.0174644
638.895	0.0175991
638.973	0.0175235
639.051	0.0174921
639.129	0.0174250
639.207	0.0175263
639.285	0.0175127
639.363	0.0174922
639.442	0.0175179
639.520	0.0174971
639.598	0.0174935
639.676	0.0175558
639.754	0.0173257
639.832	0.0174966
639.910	0.0175444
639.988	0.0175227
640.067	0.0175220
640.145	0.0176385
640.223	0.0174543
640.301	0.0175372
640.379	0.0175558
640.457	0.0175190
640.535	0.0175446
640.613	0.0174913
640.692	0.0175578
640.770	0.0175789
640.848	0.0175478
640.926	0.0176517
641.004	0.0176176
641.082	0.0176351
641.160	0.0175909
641.238	0.0176378
641.317	0.0177170
641.395	0.0176127
641.473	0.0176086
641.551	0.0176332
641.629	0.0176105
641.707	0.0175663
641.785	0.0175330
641.863	0.0177037
641.942	0.0177323
642.020	0.0177556
642.098	0.0176899
642.176	0.0175776
642.254	0.0176962
642.332	0.0177101
642.410	0.0175426
642.488	0.0176799
642.567	0.0176949
642.645	0.0176501
642.723	0.0177394
642.801	0.0176835
642.879	0.0176516
642.957	0.0178297
643.035	0.0176909
643.113	0.0176024
643.192	0.0177811
643.270	0.0178626
643.348	0.0178527
643.426	0.0179297
643.504	0.0177692
643.582	0.0177165
643.660	0.0176570
643.738	0.0178356
643.817	0.0179531
643.895	0.0178329
643.973	0.0178172
644.051	0.0178223
644.129	0.0178719
644.207	0.0179045
644.285	0.0179672
644.363	0.0177543
644.442	0.0178416
644.520	0.0177960
644.598	0.0178796
644.676	0.0177956
644.754	0.0179044
644.832	0.0178878
644.910	0.0178194
644.988	0.0179282
645.067	0.0177430
645.145	0.0177836
645.223	0.0178023
645.301	0.0179284
645.379	0.0178934
645.457	0.0178570
645.535	0.0177644
645.613	0.0177649
645.692	0.0177117
645.770	0.0177763
645.848	0.0176757
645.926	0.0176568
646.004	0.0176962
646.082	0.0175817
646.160	0.0177087
646.238	0.0176878
646.317	0.0177089
646.395	0.0176554
646.473	0.0175057
646.551	0.0174876
646.629	0.0177219
646.707	0.0175384
646.785	0.0174598
646.863	0.0174413
646.942	0.0175885
647.020	0.0176960
647.098	0.0175399
647.176	0.0174458
647.254	0.0175220
647.332	0.0175059
647.410	0.0173994
647.488	0.0174690
647.567	0.0174677
647.645	0.0175496
647.723	0.0175053
647.801	0.0175573
647.879	0.0175414
647.957	0.0175979
648.035	0.0175265
648.113	0.0175972
648.192	0.0175401
648.270	0.0176488
648.348	0.0174810
648.426	0.0176931
648.504	0.0176050
648.582	0.0174698
648.660	0.0175839
648.738	0.0176165
648.817	0.0176747
648.895	0.0175723
648.973	0.0174947
649.051	0.0176213
649.129	0.0176986
649.207	0.0176472
649.285	0.0175603
649.363	0.0176925
649.442	0.0176336
649.520	0.0175631
649.598	0.0175650
649.676	0.0176962
649.754	0.0175972
649.832	0.0174790
649.910	0.0176074
649.988	0.0176546
650.067	0.0175323
650.145	0.0176397
650.223	0.0175088
650.301	0.0174942
650.379	0.0174171
650.457	0.0174964
650.535	0.0174233
650.613	0.0173229
650.692	0.0174114
650.770	0.0173888
650.848	0.0174651
650.926	0.0174090
651.004	0.0175453
651.082	0.0174763
651.160	0.0174542
651.238	0.0174072
651.317	0.0173239
651.395	0.0175248
651.473	0.0174026
651.551	0.0176062
651.629	0.0175237
651.707	0.0174582
651.785	0.0174506
651.863	0.0175095
651.942	0.0175869
652.020	0.0174843
652.098	0.0175717
652.176	0.0175089
652.254	0.0175871
652.332	0.0176109
652.410	0.0176382
652.488	0.0175627
652.567	0.0176153
652.645	0.0175520
652.723	0.0176244
652.801	0.0175995
652.879	0.0176087
652.957	0.0175723
653.035	0.0175031
653.113	0.0174718
653.192	0.0176436
653.270	0.0175568
653.348	0.0175039
653.426	0.0175664
653.504	0.0174155
653.582	0.0174425
653.660	0.0175501
653.738	0.0173729
653.817	0.0173862
653.895	0.0177319
653.973	0.0175040
654.051	0.0175576
654.129	0.0176248
654.207	0.0176861
654.285	0.0175658
654.363	0.0175590
654.442	0.0176363
654.520	0.0176188
654.598	0.0176687
654.676	0.0177493
654.754	0.0175564
654.832	0.0176440
654.910	0.0176018
654.988	0.0177569
655.067	0.0176583
655.145	0.0178473
655.223	0.0177650
655.301	0.0176689
655.379	0.0178440
655.457	0.0177277
655.535	0.0177970
655.613	0.0177635
655.692	0.0176320
655.770	0.0177052
655.848	0.0176936
655.926	0.0177009
656.004	0.0175998
656.082	0.0176641
656.160	0.0175927
656.238	0.0175792
656.317	0.0176427
656.395	0.0176442
656.473	0.0175790
656.551	0.0175317
656.629	0.0175901
656.707	0.0176958
656.785	0.0176704
656.863	0.0177430
656.942	0.0175604
657.020	0.0176566
657.098	0.0176500
657.176	0.0176863
657.254	0.0176060
657.332	0.0175388
657.410	0.0174953
657.488	0.0175571
657.567	0.0176199
657.645	0.0175382
657.723	0.0174544
657.801	0.0175424
657.879	0.0173923
657.957	0.0173788
658.035	0.0176048
658.113	0.0174435
658.192	0.0174990
658.270	0.0174560
658.348	0.0174706
658.426	0.0174641
658.504	0.0175040
658.582	0.0175674
658.660	0.0174088
658.738	0.0173912
658.817	0.0175661
658.895	0.0175755
658.973	0.0174609
659.051	0.0173882
659.129	0.0175373
659.207	0.0175411
659.285	0.0174818
659.363	0.0174795
659.442	0.0175137
659.520	0.0175499
659.598	0.0173640
659.676	0.0172929
659.754	0.0174961
659.832	0.0174580
659.910	0.0175181
659.988	0.0174052
660.067	0.0174195
660.145	0.0173234
660.223	0.0173746
660.301	0.0173424
660.379	0.0174429
660.457	0.0174773
660.535	0.0175422
660.613	0.0174777
660.692	0.0174913
660.770	0.0172320
660.848	0.0175056
660.926	0.0174930
661.004	0.0173763
661.082	0.0174049
661.160	0.0173991
661.238	0.0174298
661.317	0.0175848
661.395	0.0175402
661.473	0.0174554
661.551	0.0174307
661.629	0.0174721
661.707	0.0175034
661.785	0.0175337
661.863	0.0175240
661.942	0.0173043
662.020	0.0173428
662.098	0.0173255
662.176	0.0175150
662.254	0.0175939
662.332	0.0175595
662.410	0.0176224
662.488	0.0175571
662.567	0.0176020
662.645	0.0175590
662.723	0.0175298
662.801	0.0175984
662.879	0.0177287
662.957	0.0174870
663.035	0.0176482
663.113	0.0176206
663.192	0.0175668
663.270	0.0176413
663.348	0.0175277
663.426	0.0175720
663.504	0.0176015
663.582	0.0176419
663.660	0.0177126
663.738	0.0175641
663.817	0.0176127
663.895	0.0176504
663.973	0.0175877
664.051	0.0176430
664.129	0.0176827
664.207	0.0176308
664.285	0.0176241
664.363	0.0177572
664.442	0.0176019
664.520	0.0175628
664.598	0.0176066
664.676	0.0176828
664.754	0.0176321
664.832	0.0176608
664.910	0.0175968
664.988	0.0177228
665.067	0.0177257
665.145	0.0176730
665.223	0.0176197
665.301	0.0176584
665.379	0.0177190
665.457	0.0177129
665.535	0.0177213
665.613	0.0175999
665.692	0.0176534
665.770	0.0177235
665.848	0.0176631
665.926	0.0175802
666.004	0.0177917
666.082	0.0177489
666.160	0.0176853
666.238	0.0177601
666.317	0.0177695
666.395	0.0176871
666.473	0.0177891
666.551	0.0176895
666.629	0.0177650
666.707	0.0177954
666.785	0.0177740
666.863	0.0177392
666.942	0.0176220
667.020	0.0176375
667.098	0.0176816
667.176	0.0176680
667.254	0.0176429
667.332	0.0175990
667.410	0.0178033
667.488	0.0177885
667.567	0.0176723
667.645	0.0175296
667.723	0.0174860
667.801	0.0176728
667.879	0.0174978
667.957	0.0176187
668.035	0.0175264
668.113	0.0175764
668.192	0.0174801
668.270	0.0175208
668.348	0.0174831
668.426	0.0174426
668.504	0.0173819
668.582	0.0175292
668.660	0.0175633
668.738	0.0174390
668.817	0.0174187
668.895	0.0173345
668.973	0.0174741
669.051	0.0173054
669.129	0.0174017
669.207	0.0173146
669.285	0.0173941
669.363	0.0173238
669.442	0.0173032
669.520	0.0172535
669.598	0.0173341
669.676	0.0174109
669.754	0.0171253
669.832	0.0173521
669.910	0.0174843
669.988	0.0173830
670.067	0.0172948
670.145	0.0174229
670.223	0.0173200
670.301	0.0173138
670.379	0.0173235
670.457	0.0171959
670.535	0.0173074
670.613	0.0173272
670.692	0.0172376
670.770	0.0173940
670.848	0.0173402
670.926	0.0172491
671.004	0.0173731
671.082	0.0174335
671.160	0.0174558
671.238	0.0174836
671.317	0.0173352
671.395	0.0174211
671.473	0.0174966
671.551	0.0175356
671.629	0.0174579
671.707	0.0173599
671.785	0.0173425
671.863	0.0174282
671.942	0.0175220
672.020	0.0174323
672.098	0.0175346
672.176	0.0175515
672.254	0.0175230
672.332	0.0174088
672.410	0.0175059
672.488	0.0174169
672.567	0.0174080
672.645	0.0173520
672.723	0.0173495
672.801	0.0174294
672.879	0.0173555
672.957	0.0173531
673.035	0.0173949
673.113	0.0175455
673.192	0.0173862
673.270	0.0173887
673.348	0.0175361
673.426	0.0174628
673.504	0.0175164
673.582	0.0174175
673.660	0.0174390
673.738	0.0175802
673.817	0.0175388
673.895	0.0176257
673.973	0.0175909
674.051	0.0177052
674.129	0.0175735
674.207	0.0175085
674.285	0.0176364
674.363	0.0178647
674.442	0.0177052
674.520	0.0175993
674.598	0.0176358
674.676	0.0175803
674.754	0.0176020
674.832	0.0176262
674.910	0.0176452
674.988	0.0175124
675.067	0.0175173
675.145	0.0174532
675.223	0.0174015
675.301	0.0174339
675.379	0.0176041
675.457	0.0174680
675.535	0.0175059
675.613	0.0175198
675.692	0.0174350
675.770	0.0175424
675.848	0.0174849
675.926	0.0174885
676.004	0.0174236
676.082	0.0174974
676.160	0.0175019
676.238	0.0174514
676.317	0.0175868
676.395	0.0176825
676.473	0.0174541
676.551	0.0174937
676.629	0.0175045
676.707	0.0175106
676.785	0.0176495
676.863	0.0175514
676.942	0.0175388
677.020	0.0174367
677.098	0.0173981
677.176	0.0174680
677.254	0.0174286
677.332	0.0175562
677.410	0.0174007
677.488	0.0174195
677.567	0.0174147
677.645	0.0172849
677.723	0.0173888
677.801	0.0172779
677.879	0.0172720
677.957	0.0172925
678.035	0.0172883
678.113	0.0173932
678.192	0.0174191
678.270	0.0173627
678.348	0.0171883
678.426	0.0173480
678.504	0.0171870
678.582	0.0171597
678.660	0.0171017
678.738	0.0173025
678.817	0.0173451
678.895	0.0172346
678.973	0.0172141
679.051	0.0172665
679.129	0.0173392
679.207	0.0174318
679.285	0.0172474
679.363	0.0172604
679.442	0.0172440
679.520	0.0174871
679.598	0.0174055
679.676	0.0173949
679.754	0.0173535
679.832	0.0175298
679.910	0.0173782
679.988	0.0174422
680.067	0.0174974
680.145	0.0175172
680.223	0.0175781
680.301	0.0175063
680.379	0.0175681
680.457	0.0175069
680.535	0.0175432
680.613	0.0174905
680.692	0.0176078
680.770	0.0174526
680.848	0.0172584
680.926	0.0173747
681.004	0.0172578
681.082	0.0172669
681.160	0.0171352
681.238	0.0172621
681.317	0.0171452
681.395	0.0171486
681.473	0.0172338
681.551	0.0171609
681.629	0.0172141
681.707	0.0171820
681.785	0.0172345
681.863	0.0172322
681.942	0.0173027
682.020	0.0175185
682.098	0.0174184
682.176	0.0175121
682.254	0.0175278
682.332	0.0176428
682.410	0.0177127
682.488	0.0176502
682.567	0.0176323
682.645	0.0177209
682.723	0.0175095
682.801	0.0176501
682.879	0.0176225
682.957	0.0176690
683.035	0.0173919
683.113	0.0174771
683.192	0.0175715
683.270	0.0174310
683.348	0.0174525
683.426	0.0174752
683.504	0.0174100
683.582	0.0174522
683.660	0.0175175
683.738	0.0175813
683.817	0.0175097
683.895	0.0174200
683.973	0.0174701
684.051	0.0175545
684.129	0.0175474
684.207	0.0175847
684.285	0.0174830
684.363	0.0176228
684.442	0.0175251
684.520	0.0175335
684.598	0.0175311
684.676	0.0176488
684.754	0.0175760
684.832	0.0174749
684.910	0.0175183
684.988	0.0175763
685.067	0.0174982
685.145	0.0174840
685.223	0.0174880
685.301	0.0173609
685.379	0.0175140
685.457	0.0175712
685.535	0.0175664
685.613	0.0175102
685.692	0.0175119
685.770	0.0174817
685.848	0.0175641
685.926	0.0175447
686.004	0.0175219
686.082	0.0174559
686.160	0.0175670
686.238	0.0174815
686.317	0.0174732
686.395	0.0174455
686.473	0.0177187
686.551	0.0176910
686.629	0.0175465
686.707	0.0175875
686.785	0.0175651
686.863	0.0174928
686.942	0.0175881
687.020	0.0176167
687.098	0.0174325
687.176	0.0174910
687.254	0.0175913
687.332	0.0174837
687.410	0.0174950
687.488	0.0175416
687.567	0.0174066
687.645	0.0173571
687.723	0.0174200
687.801	0.0173171
687.879	0.0173779
687.957	0.0174070
688.035	0.0174287
688.113	0.0174383
688.192	0.0172819
688.270	0.0172584
688.348	0.0174460
688.426	0.0173565
688.504	0.0173615
688.582	0.0172604
688.660	0.0173237
688.738	0.0173933
688.817	0.0173395
688.895	0.0174292
688.973	0.0174602
689.051	0.0175358
689.129	0.0175878
689.207	0.0174166
689.285	0.0175052
689.363	0.0176584
689.442	0.0176672
689.520	0.0177003
689.598	0.0176907
689.676	0.0176665
689.754	0.0177988
689.832	0.0175495
689.910	0.0176449
689.988	0.0176466
690.067	0.0177244
690.145	0.0177060
690.223	0.0176984
690.301	0.0174935
690.379	0.0174656
690.457	0.0174745
690.535	0.0173610
690.613	0.0173413
690.692	0.0172345
690.770	0.0171833
690.848	0.0172057
690.926	0.0172769
691.004	0.0173242
691.082	0.0171609
691.160	0.0172366
691.238	0.0174229
691.317	0.0171567
691.395	0.0172488
691.473	0.0175018
691.551	0.0172100
691.629	0.0172015
691.707	0.0172911
691.785	0.0174000
691.863	0.0173294
691.942	0.0172511
692.020	0.0174178
692.098	0.0173427
692.176	0.0174832
692.254	0.0174101
692.332	0.0175861
692.410	0.0175841
692.488	0.0175792
692.567	0.0175983
692.645	0.0175967
692.723	0.0175520
692.801	0.0175848
692.879	0.0175838
692.957	0.0175758
693.035	0.0176569
693.113	0.0177209
693.192	0.0176445
693.270	0.0177193
693.348	0.0176353
693.426	0.0179176
693.504	0.0177676
693.582	0.0177544
693.660	0.0177641
693.738	0.0177528
693.817	0.0176576
693.895	0.0175838
693.973	0.0177074
694.051	0.0176893
694.129	0.0176449
694.207	0.0176775
694.285	0.0175579
694.363	0.0175778
694.442	0.0175823
694.520	0.0175890
694.598	0.0174987
694.676	0.0174094
694.754	0.0173582
694.832	0.0173102
694.910	0.0172468
694.988	0.0173536
695.067	0.0172908
695.145	0.0172964
695.223	0.0173036
695.301	0.0171846
695.379	0.0172022
695.457	0.0171500
695.535	0.0171798
695.613	0.0170885
695.692	0.0171134
695.770	0.0171790
695.848	0.0170863
695.926	0.0172493
696.004	0.0173844
696.082	0.0173247
696.160	0.0175639
696.238	0.0172935
696.317	0.0174529
696.395	0.0175517
696.473	0.0176301
696.551	0.0176318
696.629	0.0177925
696.707	0.0178455
696.785	0.0178191
696.863	0.0177757
696.942	0.0178941
697.020	0.0180216
697.098	0.0179299
697.176	0.0179907
697.254	0.0179944
697.332	0.0178280
697.410	0.0178821
697.488	0.0178458
697.567	0.0177838
697.645	0.0177131
697.723	0.0177399
697.801	0.0175166
697.879	0.0176398
697.957	0.0176041
698.035	0.0176778
698.113	0.0176008
698.192	0.0176516
698.270	0.0174016
698.348	0.0175051
698.426	0.0174883
698.504	0.0173378
698.582	0.0174886
698.660	0.0175103
698.738	0.0173546
698.817	0.0175093
698.895	0.0173149
698.973	0.0173587
699.051	0.0174512
699.129	0.0173902
699.207	0.0174037
699.285	0.0174459
699.363	0.0173733
699.442	0.0172765
699.520	0.0173948
699.598	0.0174340
699.676	0.0173388
699.754	0.0173155
699.832	0.0172833
699.910	0.0172744
699.988	0.0172081
700.067	0.0174544
700.145	0.0174679
700.223	0.0174268
700.301	0.0174709
700.379	0.0174327
700.457	0.0173357
700.535	0.0173520
700.613	0.0175533
700.692	0.0175497
700.770	0.0174363
700.848	0.0174141
700.926	0.0175631
701.004	0.0175520
701.082	0.0175313
701.160	0.0175643
701.238	0.0173849
701.317	0.0174686
701.395	0.0174570
701.473	0.0174813
701.551	0.0175262
701.629	0.0175626
701.707	0.0176720
701.785	0.0175629
701.863	0.0175873
701.942	0.0177785
702.020	0.0178757
702.098	0.0178071
702.176	0.0177721
702.254	0.0178407
702.332	0.0178574
702.410	0.0178077
702.488	0.0179079
702.567	0.0179040
702.645	0.0176702
702.723	0.0178078
702.801	0.0179665
702.879	0.0178117
702.957	0.0177908
703.035	0.0176768
703.113	0.0176935
703.192	0.0175291
703.270	0.0175745
703.348	0.0174847
703.426	0.0174451
703.504	0.0173158
703.582	0.0174284
703.660	0.0173952
703.738	0.0171530
703.817	0.0171753
703.895	0.0170547
703.973	0.0170659
704.051	0.0170123
704.129	0.0169004
704.207	0.0169127
704.285	0.0170003
704.363	0.0169563
704.442	0.0170656
704.520	0.0170325
704.598	0.0170542
704.676	0.0170065
704.754	0.0170733
704.832	0.0171716
704.910	0.0172733
704.988	0.0173293
705.067	0.0174241
705.145	0.0174252
705.223	0.0173193
705.301	0.0173106
705.379	0.0174399
705.457	0.0176102
705.535	0.0175485
705.613	0.0174167
705.692	0.0175977
705.770	0.0175504
705.848	0.0177567
705.926	0.0177171
706.004	0.0174760
706.082	0.0176058
706.160	0.0176258
706.238	0.0177232
706.317	0.0176965
706.395	0.0178798
706.473	0.0179729
706.551	0.0178533
706.629	0.0178309
706.707	0.0180233
706.785	0.0181910
706.863	0.0183027
706.942	0.0181316
707.020	0.0181852
707.098	0.0182278
707.176	0.0183717
707.254	0.0183028
707.332	0.0182730
707.410	0.0183710
707.488	0.0182964
707.567	0.0183018
707.645	0.0181934
707.723	0.0182127
707.801	0.0181930
707.879	0.0181582
707.957	0.0181815
708.035	0.0179660
708.113	0.0179839
708.192	0.0178933
708.270	0.0178126
708.348	0.0177015
708.426	0.0176950
708.504	0.0174447
708.582	0.0173809
708.660	0.0173113
708.738	0.0173355
708.817	0.0172557
708.895	0.0169770
708.973	0.0170919
709.051	0.0169839
709.129	0.0169226
709.207	0.0168251
709.285	0.0169573
709.363	0.0169601
709.442	0.0171652
709.520	0.0169999
709.598	0.0169722
709.676	0.0171089
709.754	0.0171796
709.832	0.0173164
709.910	0.0173214
709.988	0.0173656
710.067	0.0175230
710.145	0.0174303
710.223	0.0176363
710.301	0.0177043
710.379	0.0177122
710.457	0.0179059
710.535	0.0179551
710.613	0.0178700
710.692	0.0178622
710.770	0.0180175
710.848	0.0180759
710.926	0.0180750
711.004	0.0181733
711.082	0.0179882
711.160	0.0179340
711.238	0.0180354
711.317	0.0178919
711.395	0.0178867
711.473	0.0179504
711.551	0.0178638
711.629	0.0178957
711.707	0.0180143
711.785	0.0178413
711.863	0.0178951
711.942	0.0178966
712.020	0.0179813
712.098	0.0179984
712.176	0.0179415
712.254	0.0178931
712.332	0.0178979
712.410	0.0179282
712.488	0.0179416
712.567	0.0177560
712.645	0.0177927
712.723	0.0178147
712.801	0.0176080
712.879	0.0175552
712.957	0.0174126
713.035	0.0175259
713.113	0.0175191
713.192	0.0174709
713.270	0.0173025
713.348	0.0172767
713.426	0.0173054
713.504	0.0172233
713.582	0.0171922
713.660	0.0172202
713.738	0.0172450
713.817	0.0170868
713.895	0.0171550
713.973	0.0171117
714.051	0.0170881
714.129	0.0172905
714.207	0.0172428
714.285	0.0172105
714.363	0.0170663
714.442	0.0172743
714.520	0.0171785
714.598	0.0170934
714.676	0.0172540
714.754	0.0172263
714.832	0.0169760
714.910	0.0171811
714.988	0.0170650
715.067	0.0171065
715.145	0.0171521
715.223	0.0170396
715.301	0.0171815
715.379	0.0171684
715.457	0.0171656
715.535	0.0172604
715.613	0.0171698
715.692	0.0172965
715.770	0.0174886
715.848	0.0175131
715.926	0.0176904
716.004	0.0175843
716.082	0.0174940
716.160	0.0176997
716.238	0.0176979
716.317	0.0176374
716.395	0.0175980
716.473	0.0178465
716.551	0.0178235
716.629	0.0178794
716.707	0.0177825
716.785	0.0179340
716.863	0.0179504
716.942	0.0180376
717.020	0.0179030
717.098	0.0178407
717.176	0.0179136
717.254	0.0179026
717.332	0.0180987
717.410	0.0179543
717.488	0.0179743
717.567	0.0179762
717.645	0.0179778
717.723	0.0179319
717.801	0.0179904
717.879	0.0179497
717.957	0.0181131
718.035	0.0179133
718.113	0.0180341
718.192	0.0179613
718.270	0.0179261
718.348	0.0180148
718.426	0.0179709
718.504	0.0180555
718.582	0.0180288
718.660	0.0180239
718.738	0.0179492
718.817	0.0178551
718.895	0.0179465
718.973	0.0179762
719.051	0.0178283
719.129	0.0176473
719.207	0.0176558
719.285	0.0177596
719.363	0.0176764
719.442	0.0176873
719.520	0.0177010
719.598	0.0176514
719.676	0.0177068
719.754	0.0177341
719.832	0.0176781
719.910	0.0175792
719.988	0.0177281
720.067	0.0175600
720.145	0.0176492
720.223	0.0177381
720.301	0.0174890
720.379	0.0176294
720.457	0.0177309
720.535	0.0175775
720.613	0.0177245
720.692	0.0176292
720.770	0.0175692
720.848	0.0175697
720.926	0.0174846
721.004	0.0174632
721.082	0.0175295
721.160	0.0174239
721.238	0.0174262
721.317	0.0176674
721.395	0.0175997
721.473	0.0174595
721.551	0.0174045
721.629	0.0175060
721.707	0.0175916
721.785	0.0176902
721.863	0.0175317
721.942	0.0175077
722.020	0.0176586
722.098	0.0175159
722.176	0.0176746
722.254	0.0176627
722.332	0.0176923
722.410	0.0176276
722.488	0.0178270
722.567	0.0179003
722.645	0.0179154
722.723	0.0178845
722.801	0.0180107
722.879	0.0178876
722.957	0.0179081
723.035	0.0179449
723.113	0.0178489
723.192	0.0179472
723.270	0.0179407
723.348	0.0181479
723.426	0.0180480
723.504	0.0179073
723.582	0.0182423
723.660	0.0180046
723.738	0.0179783
723.817	0.0177928
723.895	0.0179172
723.973	0.0178229
724.051	0.0176607
724.129	0.0177882
724.207	0.0177097
724.285	0.0177673
724.363	0.0177443
724.442	0.0176527
724.520	0.0176662
724.598	0.0176665
724.676	0.0176379
724.754	0.0176339
724.832	0.0176566
724.910	0.0175770
724.988	0.0175240
725.067	0.0175149
725.145	0.0175460
725.223	0.0175719
725.301	0.0174461
725.379	0.0173448
725.457	0.0174564
725.535	0.0175259
725.613	0.0176026
725.692	0.0174205
725.770	0.0172562
725.848	0.0175806
725.926	0.0177023
726.004	0.0175349
726.082	0.0174844
726.160	0.0175492
726.238	0.0175886
726.317	0.0176929
726.395	0.0175927
726.473	0.0173664
726.551	0.0174897
726.629	0.0174904
726.707	0.0175639
726.785	0.0174451
726.863	0.0174720
726.942	0.0173283
727.020	0.0175198
727.098	0.0174593
727.176	0.0172869
727.254	0.0172677
727.332	0.0173198
727.410	0.0172787
727.488	0.0171240
727.567	0.0171198
727.645	0.0173045
727.723	0.0170738
727.801	0.0170813
727.879	0.0171555
727.957	0.0171820
728.035	0.0174007
728.113	0.0173438
728.192	0.0174125
728.270	0.0174033
728.348	0.0173613
728.426	0.0173806
728.504	0.0174009
728.582	0.0174733
728.660	0.0174660
728.738	0.0175208
728.817	0.0175381
728.895	0.0176375
728.973	0.0176320
729.051	0.0175737
729.129	0.0177020
729.207	0.0177334
729.285	0.0175469
729.363	0.0177505
729.442	0.0177590
729.520	0.0177254
729.598	0.0179071
729.676	0.0179693
729.754	0.0178974
729.832	0.0178616
729.910	0.0179438
729.988	0.0180493
730.067	0.0180700
730.145	0.0179646
730.223	0.0181438
730.301	0.0181473
730.379	0.0181343
730.457	0.0182476
730.535	0.0182107
730.613	0.0182785
730.692	0.0182739
730.770	0.0182504
730.848	0.0181237
730.926	0.0183099
731.004	0.0181834
731.082	0.0181726
731.160	0.0182133
731.238	0.0181219
731.317	0.0182569
731.395	0.0181573
731.473	0.0182187
731.551	0.0180833
731.629	0.0180691
731.707	0.0180411
731.785	0.0180964
731.863	0.0180072
731.942	0.0179922
732.020	0.0178706
732.098	0.0178798
732.176	0.0177862
732.254	0.0178422
732.332	0.0176407
732.410	0.0176941
732.488	0.0176314
732.567	0.0176445
732.645	0.0175614
732.723	0.0175442
732.801	0.0174415
732.879	0.0174462
732.957	0.0173618
733.035	0.0174148
733.113	0.0172256
733.192	0.0173371
733.270	0.0171259
733.348	0.0171629
733.426	0.0171206
733.504	0.0170248
733.582	0.0170234
733.660	0.0170429
733.738	0.0170134
733.817	0.0172361
733.895	0.0170952
733.973	0.0172445
734.051	0.0170509
734.129	0.0171124
734.207	0.0172214
734.285	0.0173123
734.363	0.0172494
734.442	0.0173830
734.520	0.0172422
734.598	0.0174371
734.676	0.0174581
734.754	0.0172916
734.832	0.0173227
734.910	0.0173581
734.988	0.0173432
735.067	0.0173083
735.145	0.0173784
735.223	0.0173980
735.301	0.0174895
735.379	0.0175758
735.457	0.0176478
735.535	0.0174310
735.613	0.0177888
735.692	0.0175732
735.770	0.0176724
735.848	0.0177993
735.926	0.0176347
736.004	0.0177304
736.082	0.0176820
736.160	0.0177013
736.238	0.0177161
736.317	0.0177931
736.395	0.0178259
736.473	0.0178133
736.551	0.0179503
736.629	0.0178648
736.707	0.0178364
736.785	0.0179116
736.863	0.0178475
736.942	0.0179298
737.020	0.0179113
737.098	0.0177831
737.176	0.0177087
737.254	0.0177642
737.332	0.0175388
737.410	0.0176164
737.488	0.0176396
737.567	0.0175415
737.645	0.0174151
737.723	0.0174044
737.801	0.0172973
737.879	0.0172580
737.957	0.0173144
738.035	0.0173237
738.113	0.0173879
738.192	0.0172834
738.270	0.0171820
738.348	0.0171603
738.426	0.0172245
738.504	0.0171319
738.582	0.0172779
738.660	0.0172817
738.738	0.0175454
738.817	0.0175343
738.895	0.0175497
738.973	0.0175066
739.051	0.0175634
739.129	0.0177405
739.207	0.0177715
739.285	0.0177077
739.363	0.0176966
739.442	0.0176884
739.520	0.0177618
739.598	0.0177935
739.676	0.0176447
739.754	0.0177201
739.832	0.0176294
739.910	0.0176154
739.988	0.0175144
740.067	0.0176234
740.145	0.0175855
740.223	0.0175911
740.301	0.0176456
740.379	0.0177357
740.457	0.0177838
740.535	0.0175616
740.613	0.0176845
740.692	0.0176358
740.770	0.0177953
740.848	0.0178752
740.926	0.0177525
741.004	0.0177181
741.082	0.0178074
741.160	0.0178552
741.238	0.0177730
741.317	0.0177250
741.395	0.0179044
741.473	0.0178599
741.551	0.0179043
741.629	0.0177152
741.707	0.0178019
741.785	0.0177558
741.863	0.0178418
741.942	0.0176192
742.020	0.0176320
742.098	0.0176820
742.176	0.0175209
742.254	0.0176199
742.332	0.0176006
742.410	0.0175812
742.488	0.0175130
742.567	0.0175546
742.645	0.0176036
742.723	0.0174707
742.801	0.0174899
742.879	0.0175652
742.957	0.0176554
743.035	0.0176339
743.113	0.0177158
743.192	0.0178378
743.270	0.0176592
743.348	0.0176219
743.426	0.0176971
743.504	0.0178935
743.582	0.0180108
743.660	0.0178519
743.738	0.0178529
743.817	0.0179246
743.895	0.0180152
743.973	0.0179817
744.051	0.0179353
744.129	0.0178901
744.207	0.0177727
744.285	0.0179906
744.363	0.0178090
744.442	0.0178194
744.520	0.0176466
744.598	0.0178760
744.676	0.0176392
744.754	0.0174765
744.832	0.0176546
744.910	0.0176504
744.988	0.0175253
745.067	0.0176186
745.145	0.0175331
745.223	0.0174423
745.301	0.0175330
745.379	0.0175223
745.457	0.0174019
745.535	0.0174642
745.613	0.0176065
745.692	0.0174420
745.770	0.0173398
745.848	0.0175177
745.926	0.0173070
746.004	0.0174339
746.082	0.0172901
746.160	0.0173524
746.238	0.0173692
746.317	0.0172841
746.395	0.0171387
746.473	0.0172852
746.551	0.0172408
746.629	0.0171847
746.707	0.0170582
746.785	0.0171124
746.863	0.0171751
746.942	0.0171422
747.020	0.0171939
747.098	0.0169987
747.176	0.0171097
747.254	0.0171185
747.332	0.0171226
747.410	0.0171328
747.488	0.0171174
747.567	0.0170872
747.645	0.0173595
747.723	0.0172554
747.801	0.0172555
747.879	0.0172165
747.957	0.0172159
748.035	0.0172894
748.113	0.0174135
748.192	0.0174859
748.270	0.0174050
748.348	0.0174953
748.426	0.0174693
748.504	0.0175132
748.582	0.0177955
748.660	0.0176350
748.738	0.0177274
748.817	0.0177049
748.895	0.0176456
748.973	0.0177799
749.051	0.0177770
749.129	0.0177171
749.207	0.0176015
749.285	0.0176936
749.363	0.0175251
749.442	0.0176907
749.520	0.0177137
749.598	0.0176658
749.676	0.0175869
749.754	0.0177312
749.832	0.0176802
749.910	0.0176177
749.988	0.0176681
750.067	0.0176605
750.145	0.0176593
750.223	0.0176009
750.301	0.0177931
750.379	0.0176920
750.457	0.0176176
750.535	0.0176376
750.613	0.0177072
750.692	0.0176420
750.770	0.0176632
750.848	0.0176218
750.926	0.0176044
751.004	0.0175081
751.082	0.0176147
751.160	0.0174677
751.238	0.0175260
751.317	0.0175134
751.395	0.0175175
751.473	0.0173586
751.551	0.0174469
751.629	0.0175910
751.707	0.0175546
751.785	0.0176421
751.863	0.0176531
751.942	0.0175944
752.020	0.0177196
752.098	0.0177537
752.176	0.0176539
752.254	0.0175954
752.332	0.0178291
752.410	0.0177529
752.488	0.0176737
752.567	0.0177388
752.645	0.0176325
752.723	0.0176407
752.801	0.0175953
752.879	0.0176814
752.957	0.0174920
753.035	0.0174612
753.113	0.0176462
753.192	0.0175533
753.270	0.0174492
753.348	0.0173680
753.426	0.0173317
753.504	0.0173070
753.582	0.0171897
753.660	0.0171416
753.738	0.0171889
753.817	0.0172244
753.895	0.0170303
753.973	0.0172588
754.051	0.0172713
754.129	0.0172906
754.207	0.0173154
754.285	0.0174463
754.363	0.0174413
754.442	0.0174672
754.520	0.0173679
754.598	0.0175349
754.676	0.0175610
754.754	0.0176064
754.832	0.0174826
754.910	0.0176614
754.988	0.0176164
755.067	0.0175256
755.145	0.0174493
755.223	0.0175056
755.301	0.0174780
755.379	0.0175190
755.457	0.0174284
755.535	0.0172967
755.613	0.0173250
755.692	0.0173432
755.770	0.0174480
755.848	0.0173023
755.926	0.0173177
756.004	0.0173672
756.082	0.0174075
756.160	0.0173936
756.238	0.0174500
756.317	0.0173792
756.395	0.0174815
756.473	0.0174265
756.551	0.0173972
756.629	0.0174965
756.707	0.0176765
756.785	0.0175498
756.863	0.0174803
756.942	0.0176958
757.020	0.0176171
757.098	0.0175685
757.176	0.0177711
757.254	0.0176432
757.332	0.0175607
757.410	0.0178796
757.488	0.0177308
757.567	0.0175841
757.645	0.0178953
757.723	0.0178889
757.801	0.0177389
757.879	0.0178366
757.957	0.0178571
758.035	0.0178729
758.113	0.0179443
758.192	0.0180038
758.270	0.0178662
758.348	0.0178742
758.426	0.0179310
758.504	0.0179124
758.582	0.0178333
758.660	0.0177692
758.738	0.0178376
758.817	0.0176959
758.895	0.0176569
758.973	0.0175916
759.051	0.0177044
759.129	0.0176818
759.207	0.0174968
759.285	0.0175494
759.363	0.0174802
759.442	0.0174232
759.520	0.0175491
759.598	0.0174253
759.676	0.0173851
759.754	0.0174284
759.832	0.0172723
759.910	0.0174452
759.988	0.0175316
760.067	0.0175198
760.145	0.0175500
760.223	0.0174389
760.301	0.0176053
760.379	0.0175254
760.457	0.0175149
760.535	0.0176584
760.613	0.0177028
760.692	0.0174505
760.770	0.0175556
760.848	0.0175908
760.926	0.0175275
761.004	0.0175240
761.082	0.0175888
761.160	0.0174807
761.238	0.0174126
761.317	0.0175182
761.395	0.0175586
761.473	0.0174344
761.551	0.0175420
761.629	0.0175514
761.707	0.0175189
761.785	0.0174514
761.863	0.0175356
761.942	0.0176221
762.020	0.0175613
762.098	0.0175948
762.176	0.0176521
762.254	0.0176498
762.332	0.0175979
762.410	0.0175465
762.488	0.0175160
762.567	0.0176658
762.645	0.0175166
762.723	0.0175513
762.801	0.0175066
762.879	0.0175238
762.957	0.0175723
763.035	0.0175059
763.113	0.0175448
763.192	0.0174998
763.270	0.0174460
763.348	0.0175291
763.426	0.0174319
763.504	0.0175314
763.582	0.0174274
763.660	0.0173992
763.738	0.0173294
763.817	0.0173533
763.895	0.0174944
763.973	0.0174554
764.051	0.0173153
764.129	0.0174118
764.207	0.0175494
764.285	0.0175027
764.363	0.0173663
764.442	0.0174544
764.520	0.0175860
764.598	0.0174216
764.676	0.0175269
764.754	0.0173577
764.832	0.0174274
764.910	0.0174330
764.988	0.0174680
765.067	0.0173735
765.145	0.0174602
765.223	0.0174711
765.301	0.0174593
765.379	0.0174349
765.457	0.0174654
765.535	0.0174684
765.613	0.0173978
765.692	0.0173607
765.770	0.0173767
765.848	0.0172765
765.926	0.0172482
766.004	0.0173028
766.082	0.0173355
766.160	0.0172060
766.238	0.0172447
766.317	0.0172680
766.395	0.0173306
766.473	0.0171508
766.551	0.0171727
766.629	0.0171284
766.707	0.0171722
766.785	0.0172249
766.863	0.0171401
766.942	0.0172137
767.020	0.0171232
767.098	0.0171389
767.176	0.0171700
767.254	0.0173734
767.332	0.0172384
767.410	0.0172126
767.488	0.0172812
767.567	0.0172764
767.645	0.0172128
767.723	0.0174450
767.801	0.0172038
767.879	0.0172412
767.957	0.0172844
768.035	0.0173637
768.113	0.0173318
768.192	0.0172108
768.270	0.0172426
768.348	0.0172552
768.426	0.0173631
768.504	0.0173440
768.582	0.0173782
768.660	0.0174323
768.738	0.0173093
768.817	0.0173878
768.895	0.0173579
768.973	0.0174162
769.051	0.0174036
769.129	0.0175742
769.207	0.0175383
769.285	0.0175829
769.363	0.0177213
769.442	0.0177113
769.520	0.0176967
769.598	0.0178239
769.676	0.0177048
769.754	0.0175365
769.832	0.0177454
769.910	0.0176513
769.988	0.0176104
770.067	0.0175141
770.145	0.0175504
770.223	0.0175426
770.301	0.0177908
770.379	0.0176271
770.457	0.0174848
770.535	0.0176136
770.613	0.0175253
770.692	0.0174915
770.770	0.0176302
770.848	0.0174792
770.926	0.0176111
771.004	0.0176185
771.082	0.0174294
771.160	0.0175346
771.238	0.0174152
771.317	0.0173540
771.395	0.0174038
771.473	0.0173476
771.551	0.0172818
771.629	0.0172636
771.707	0.0173108
771.785	0.0172826
771.863	0.0172822
771.942	0.0173467
772.020	0.0173136
772.098	0.0174421
772.176	0.0173690
772.254	0.0173972
772.332	0.0174564
772.410	0.0174306
772.488	0.0175161
772.567	0.0176219
772.645	0.0174564
772.723	0.0176306
772.801	0.0176517
772.879	0.0176909
772.957	0.0176508
773.035	0.0176255
773.113	0.0175731
773.192	0.0177597
773.270	0.0177038
773.348	0.0177047
773.426	0.0178519
773.504	0.0177448
773.582	0.0177442
773.660	0.0177531
773.738	0.0178334
773.817	0.0177460
773.895	0.0179321
773.973	0.0178549
774.051	0.0178075
774.129	0.0177678
774.207	0.0177657
774.285	0.0176837
774.363	0.0178305
774.442	0.0178203
774.520	0.0176817
774.598	0.0176926
774.676	0.0176889
774.754	0.0176952
774.832	0.0177520
774.910	0.0175768
774.988	0.0177177
775.067	0.0176911
775.145	0.0177443
775.223	0.0176653
775.301	0.0175609
775.379	0.0176330
775.457	0.0176161
775.535	0.0175620
775.613	0.0175486
775.692	0.0174500
775.770	0.0173986
775.848	0.0176641
775.926	0.0175211
776.004	0.0175384
776.082	0.0175959
776.160	0.0174751
776.238	0.0175153
776.317	0.0174413
776.395	0.0175817
776.473	0.0174503
776.551	0.0174735
776.629	0.0174834
776.707	0.0175909
776.785	0.0175264
776.863	0.0174443
776.942	0.0175645
777.020	0.0175594
777.098	0.0174525
777.176	0.0174152
777.254	0.0174924
777.332	0.0175367
777.410	0.0174615
777.488	0.0174078
777.567	0.0174065
777.645	0.0173753
777.723	0.0173586
777.801	0.0175939
777.879	0.0173882
777.957	0.0173820
778.035	0.0173787
778.113	0.0174992
778.192	0.0174179
778.270	0.0173398
778.348	0.0174895
778.426	0.0174088
778.504	0.0172599
778.582	0.0174077
778.660	0.0173788
778.738	0.0174507
778.817	0.0174312
778.895	0.0174554
778.973	0.0173782
779.051	0.0175027
779.129	0.0174013
779.207	0.0174393
779.285	0.0173363
779.363	0.0174625
779.442	0.0173854
779.520	0.0175240
779.598	0.0176080
779.676	0.0176057
779.754	0.0175445
779.832	0.0176582
779.910	0.0176109
779.988	0.0175842
780.067	0.0175677
780.145	0.0175171
780.223	0.0175490
780.301	0.0176131
780.379	0.0176188
780.457	0.0175636
780.535	0.0174602
780.613	0.0175334
780.692	0.0175139
780.770	0.0176348
780.848	0.0175494
780.926	0.0175710
781.004	0.0176516
781.082	0.0175814
781.160	0.0177177
781.238	0.0177630
781.317	0.0177270
781.395	0.0176969
781.473	0.0177242
781.551	0.0178734
781.629	0.0178745
781.707	0.0176794
781.785	0.0177148
781.863	0.0179080
781.942	0.0178400
782.020	0.0178279
782.098	0.0178008
782.176	0.0176853
782.254	0.0177651
782.332	0.0175043
782.410	0.0176669
782.488	0.0176523
782.567	0.0175632
782.645	0.0175712
782.723	0.0176118
782.801	0.0174735
782.879	0.0175101
782.957	0.0174456
783.035	0.0175156
783.113	0.0174721
783.192	0.0172809
783.270	0.0174380
783.348	0.0174242
783.426	0.0174060
783.504	0.0173727
783.582	0.0174587
783.660	0.0174313
783.738	0.0174249
783.817	0.0174949
783.895	0.0174492
783.973	0.0174738
784.051	0.0175934
784.129	0.0175034
784.207	0.0175197
784.285	0.0173849
784.363	0.0175322
784.442	0.0176148
784.520	0.0175172
784.598	0.0175033
784.676	0.0175659
784.754	0.0175386
784.832	0.0176268
784.910	0.0176313
784.988	0.0176984
785.067	0.0175470
785.145	0.0175378
785.223	0.0176053
785.301	0.0173894
785.379	0.0175414
785.457	0.0174657
785.535	0.0174992
785.613	0.0174522
785.692	0.0177031
785.770	0.0175049
785.848	0.0174304
785.926	0.0174007
786.004	0.0174052
786.082	0.0174838
786.160	0.0172772
786.238	0.0172268
786.317	0.0173489
786.395	0.0173969
786.473	0.0172974
786.551	0.0173531
786.629	0.0172194
786.707	0.0173077
786.785	0.0174350
786.863	0.0174338
786.942	0.0173702
787.020	0.0173434
787.098	0.0173753
787.176	0.0173238
787.254	0.0172379
787.332	0.0173566
787.410	0.0174796
787.488	0.0174812
787.567	0.0175116
787.645	0.0175020
787.723	0.0174555
787.801	0.0176276
787.879	0.0174948
787.957	0.0176508
788.035	0.0175439
788.113	0.0177437
788.192	0.0177110
788.270	0.0177171
788.348	0.0177323
788.426	0.0176804
788.504	0.0177634
788.582	0.0177164
788.660	0.0177502
788.738	0.0177893
788.817	0.0177922
788.895	0.0177299
788.973	0.0176601
789.051	0.0176445
789.129	0.0177267
789.207	0.0176684
789.285	0.0176937
789.363	0.0177014
789.442	0.0175831
789.520	0.0176283
789.598	0.0175146
789.676	0.0176260
789.754	0.0176156
789.832	0.0174876
789.910	0.0176170
789.988	0.0175291
790.067	0.0175948
790.145	0.0174979
790.223	0.0175589
790.301	0.0175211
790.379	0.0174876
790.457	0.0174669
790.535	0.0174183
790.613	0.0173666
790.692	0.0174339
790.770	0.0174704
790.848	0.0174139
790.926	0.0173826
791.004	0.0173040
791.082	0.0173541
791.160	0.0173677
791.238	0.0172593
791.317	0.0174133
791.395	0.0173488
791.473	0.0174001
791.551	0.0173460
791.629	0.0172536
791.707	0.0174817
791.785	0.0174790
791.863	0.0175182
791.942	0.0174953
792.020	0.0174190
792.098	0.0174744
792.176	0.0175258
792.254	0.0174718
792.332	0.0174953
792.410	0.0177288
792.488	0.0175338
792.567	0.0175623
792.645	0.0176737
792.723	0.0176013
792.801	0.0178298
792.879	0.0177093
792.957	0.0176463
793.035	0.0178130
793.113	0.0177634
793.192	0.0176814
793.270	0.0175971
793.348	0.0177337
793.426	0.0177079
793.504	0.0176499
793.582	0.0175858
793.660	0.0175727
793.738	0.0176366
793.817	0.0174924
793.895	0.0175573
793.973	0.0176844
794.051	0.0175669
794.129	0.0176048
794.207	0.0174741
794.285	0.0176897
794.363	0.0177945
794.442	0.0177778
794.520	0.0178072
794.598	0.0178445
794.676	0.0176690
794.754	0.0177080
794.832	0.0178245
794.910	0.0177322
794.988	0.0177988
795.067	0.0177655
795.145	0.0177404
795.223	0.0179925
795.301	0.0178500
795.379	0.0178006
795.457	0.0177107
795.535	0.0179909
795.613	0.0177578
795.692	0.0177545
795.770	0.0177776
795.848	0.0178769
795.926	0.0178506
796.004	0.0177264
796.082	0.0179493
796.160	0.0177709
796.238	0.0177961
796.317	0.0177761
796.395	0.0178829
796.473	0.0177405
796.551	0.0176801
796.629	0.0178391
796.707	0.0177419
796.785	0.0178931
796.863	0.0178737
796.942	0.0177246
797.020	0.0178680
797.098	0.0179190
797.176	0.0177065
797.254	0.0176600
797.332	0.0176182
797.410	0.0177945
797.488	0.0178174
797.567	0.0176019
797.645	0.0175384
797.723	0.0175459
797.801	0.0176197
797.879	0.0174890
797.957	0.0175009
798.035	0.0175199
798.113	0.0175055
798.192	0.0173039
798.270	0.0174049
798.348	0.0174232
798.426	0.0172847
798.504	0.0174532
798.582	0.0173774
798.660	0.0173943
798.738	0.0174321
798.817	0.0173412
798.895	0.0171970
798.973	0.0173775
799.051	0.0173988
799.129	0.0173840
799.207	0.0173555
799.285	0.0174384
799.363	0.0173181
799.442	0.0173915
799.520	0.0173513
799.598	0.0173347
799.676	0.0173582
799.754	0.0174940
799.832	0.0173982
799.910	0.0174406
799.988	0.0174334
800.067	0.0174377
800.145	0.0173961
800.223	0.0176105
800.301	0.0175655
800.379	0.0175452
800.457	0.0175946
800.535	0.0176704
800.613	0.0175113
800.692	0.0176453
800.770	0.0177724
800.848	0.0177354
800.926	0.0175854
801.004	0.0176518
801.082	0.0177312
801.160	0.0177239
801.238	0.0175851
801.317	0.0174576
801.395	0.0175835
801.473	0.0175399
801.551	0.0175632
801.629	0.0174564
801.707	0.0176260
801.785	0.0175488
801.863	0.0174840
801.942	0.0176447
802.020	0.0175603
802.098	0.0174256
802.176	0.0176236
802.254	0.0176736
802.332	0.0177518
802.410	0.0176127
802.488	0.0175784
802.567	0.0176852
802.645	0.0175916
802.723	0.0176237
802.801	0.0176920
802.879	0.0176400
802.957	0.0176201
803.035	0.0175515
803.113	0.0175672
803.192	0.0175479
803.270	0.0174998
803.348	0.0175514
803.426	0.0175094
803.504	0.0176083
803.582	0.0175358
803.660	0.0174213
803.738	0.0174310
803.817	0.0175079
803.895	0.0176997
803.973	0.0175362
804.051	0.0174583
804.129	0.0174295
804.207	0.0174259
804.285	0.0175479
804.363	0.0174052
804.442	0.0173669
804.520	0.0173003
804.598	0.0173215
804.676	0.0173559
804.754	0.0173985
804.832	0.0173831
804.910	0.0173221
804.988	0.0172118
805.067	0.0172308
805.145	0.0171891
805.223	0.0172440
805.301	0.0173132
805.379	0.0171803
805.457	0.0172041
805.535	0.0171266
805.613	0.0170882
805.692	0.0172556
805.770	0.0172498
805.848	0.0171634
805.926	0.0171513
806.004	0.0171816
806.082	0.0173183
806.160	0.0172987
806.238	0.0171226
806.317	0.0173159
806.395	0.0173668
806.473	0.0171820
806.551	0.0174321
806.629	0.0174487
806.707	0.0173758
806.785	0.0174408
806.863	0.0175402
806.942	0.0173352
807.020	0.0174506
807.098	0.0175590
807.176	0.0175448
807.254	0.0175037
807.332	0.0174483
807.410	0.0175138
807.488	0.0176612
807.567	0.0177355
807.645	0.0177287
807.723	0.0176115
807.801	0.0177911
807.879	0.0177787
807.957	0.0177914
808.035	0.0179994
808.113	0.0179513
808.192	0.0178993
808.270	0.0179146
808.348	0.0180022
808.426	0.0178642
808.504	0.0178054
808.582	0.0180110
808.660	0.0180787
808.738	0.0179841
808.817	0.0180360
808.895	0.0181417
808.973	0.0179085
809.051	0.0179541
809.129	0.0180974
809.207	0.0181216
809.285	0.0179617
809.363	0.0180063
809.442	0.0181152
809.520	0.0181718
809.598	0.0179383
809.676	0.0180385
809.754	0.0179865
809.832	0.0179791
809.910	0.0181033
809.988	0.0179193
810.067	0.0178866
810.145	0.0180437
810.223	0.0179614
810.301	0.0178735
810.379	0.0178310
810.457	0.0177884
810.535	0.0177225
810.613	0.0177692
810.692	0.0176926
810.770	0.0176785
810.848	0.0176501
810.926	0.0175407
811.004	0.0176587
811.082	0.0176411
811.160	0.0176205
811.238	0.0176035
811.317	0.0175427
811.395	0.0175015
811.473	0.0174502
811.551	0.0175137
811.629	0.0174695
811.707	0.0174832
811.785	0.0175115
811.863	0.0175272
811.942	0.0175392
812.020	0.0173475
812.098	0.0174964
812.176	0.0174699
812.254	0.0173028
812.332	0.0173905
812.410	0.0174953
812.488	0.0175668
812.567	0.0175260
812.645	0.0174046
812.723	0.0174557
812.801	0.0174033
812.879	0.0175012
812.957	0.0175091
813.035	0.0175437
813.113	0.0175150
813.192	0.0174731
813.270	0.0174300
813.348	0.0175211
813.426	0.0175504
813.504	0.0174443
813.582	0.0174901
813.660	0.0175122
813.738	0.0174228
813.817	0.0174914
813.895	0.0174462
813.973	0.0175917
814.051	0.0173826
814.129	0.0174542
814.207	0.0174138
814.285	0.0175068
814.363	0.0173769
814.442	0.0174048
814.520	0.0175226
814.598	0.0174701
814.676	0.0174009
814.754	0.0174805
814.832	0.0173968
814.910	0.0174387
814.988	0.0175214
815.067	0.0175047
815.145	0.0175429
815.223	0.0174682
815.301	0.0175967
815.379	0.0175827
815.457	0.0174429
815.535	0.0175478
815.613	0.0175119
815.692	0.0176492
815.770	0.0175785
815.848	0.0177019
815.926	0.0175276
816.004	0.0176821
816.082	0.0176522
816.160	0.0177032
816.238	0.0174760
816.317	0.0176809
816.395	0.0175375
816.473	0.0175880
816.551	0.0176971
816.629	0.0174810
816.707	0.0175634
816.785	0.0175536
816.863	0.0174909
816.942	0.0175859
817.020	0.0174945
817.098	0.0174380
817.176	0.0174142
817.254	0.0174248
817.332	0.0175680
817.410	0.0174003
817.488	0.0174089
817.567	0.0175106
817.645	0.0175211
817.723	0.0175537
817.801	0.0173943
817.879	0.0174315
817.957	0.0174667
818.035	0.0174068
818.113	0.0173333
818.192	0.0174380
818.270	0.0174510
818.348	0.0173373
818.426	0.0174319
818.504	0.0174756
818.582	0.0174612
818.660	0.0174513
818.738	0.0174134
818.817	0.0175159
818.895	0.0174883
818.973	0.0175671
819.051	0.0175222
819.129	0.0174373
819.207	0.0176443
819.285	0.0176133
819.363	0.0175134
819.442	0.0174126
819.520	0.0174110
819.598	0.0176290
819.676	0.0176428
819.754	0.0175708
819.832	0.0174884
819.910	0.0173064
819.988	0.0173872
820.067	0.0175341
820.145	0.0175712
820.223	0.0175728
820.301	0.0174410
820.379	0.0174684
820.457	0.0174077
820.535	0.0174732
820.613	0.0175425
820.692	0.0174869
820.770	0.0174628
820.848	0.0174889
820.926	0.0175262
821.004	0.0175018
821.082	0.0175806
821.160	0.0175909
821.238	0.0176629
821.317	0.0175926
821.395	0.0175330
821.473	0.0175955
821.551	0.0175581
821.629	0.0176434
821.707	0.0177927
821.785	0.0177954
821.863	0.0176316
821.942	0.0175809
822.020	0.0178034
822.098	0.0177164
822.176	0.0177090
822.254	0.0176622
822.332	0.0175717
822.410	0.0178056
822.488	0.0176405
822.567	0.0177197
822.645	0.0177249
822.723	0.0176883
822.801	0.0177250
822.879	0.0177324
822.957	0.0177166
823.035	0.0177858
823.113	0.0179270
823.192	0.0176595
823.270	0.0176871
823.348	0.0178234
823.426	0.0178017
823.504	0.0177400
823.582	0.0177551
823.660	0.0178751
823.738	0.0177312
823.817	0.0178113
823.895	0.0178967
823.973	0.0179706
824.051	0.0179627
824.129	0.0178568
824.207	0.0179243
824.285	0.0179232
824.363	0.0179262
824.442	0.0179254
824.520	0.0178883
824.598	0.0179164
824.676	0.0178943
824.754	0.0179116
824.832	0.0179363
824.910	0.0179279
824.988	0.0177242
825.067	0.0178625
825.145	0.0176904
825.223	0.0178149
825.301	0.0178068
825.379	0.0176672
825.457	0.0175919
825.535	0.0176189
825.613	0.0175617
825.692	0.0174621
825.770	0.0175528
825.848	0.0174714
825.926	0.0175210
826.004	0.0176034
826.082	0.0172364
826.160	0.0173021
826.238	0.0173991
826.317	0.0173380
826.395	0.0172545
826.473	0.0173003
826.551	0.0171924
826.629	0.0173158
826.707	0.0172025
826.785	0.0173412
826.863	0.0172271
826.942	0.0173147
827.020	0.0173454
827.098	0.0173067
827.176	0.0172871
827.254	0.0172046
827.332	0.0172355
827.410	0.0173097
827.488	0.0171782
827.567	0.0173322
827.645	0.0173382
827.723	0.0173424
827.801	0.0173675
827.879	0.0173231
827.957	0.0174015
828.035	0.0173445
828.113	0.0174010
828.192	0.0174505
828.270	0.0175105
828.348	0.0175180
828.426	0.0175251
828.504	0.0175055
828.582	0.0175047
828.660	0.0175272
828.738	0.0175465
828.817	0.0175674
828.895	0.0175876
828.973	0.0174795
829.051	0.0174707
829.129	0.0174949
829.207	0.0174368
829.285	0.0173746
829.363	0.0174290
829.442	0.0173866
829.520	0.0174364
829.598	0.0174153
829.676	0.0174117
829.754	0.0174146
829.832	0.0173932
829.910	0.0174298
829.988	0.0173923
830.067	0.0175372
830.145	0.0173772
830.223	0.0174091
830.301	0.0174374
830.379	0.0174960
830.457	0.0174724
830.535	0.0173525
830.613	0.0174075
830.692	0.0175264
830.770	0.0176662
830.848	0.0176525
830.926	0.0175734
831.004	0.0175178
831.082	0.0175803
831.160	0.0176734
831.238	0.0176449
831.317	0.0178371
831.395	0.0178061
831.473	0.0178249
831.551	0.0178370
831.629	0.0178600
831.707	0.0179389
831.785	0.0179784
831.863	0.0179749
831.942	0.0179958
832.020	0.0179893
832.098	0.0180170
832.176	0.0178742
832.254	0.0178651
832.332	0.0179941
832.410	0.0179021
832.488	0.0179382
832.567	0.0179182
832.645	0.0179388
832.723	0.0179242
832.801	0.0178638
832.879	0.0178140
832.957	0.0179086
833.035	0.0179673
833.113	0.0179834
833.192	0.0177893
833.270	0.0178453
833.348	0.0178529
833.426	0.0177491
833.504	0.0177644
833.582	0.0178297
833.660	0.0177472
833.738	0.0179490
833.817	0.0178937
833.895	0.0178158
833.973	0.0177802
834.051	0.0178147
834.129	0.0178902
834.207	0.0177630
834.285	0.0176884
834.363	0.0178268
834.442	0.0176569
834.520	0.0176836
834.598	0.0177167
834.676	0.0176283
834.754	0.0177500
834.832	0.0177652
834.910	0.0177168
834.988	0.0176910
835.067	0.0175062
835.145	0.0175116
835.223	0.0174933
835.301	0.0176113
835.379	0.0174888
835.457	0.0173243
835.535	0.0175414
835.613	0.0174364
835.692	0.0174564
835.770	0.0175474
835.848	0.0174551
835.926	0.0174300
836.004	0.0173473
836.082	0.0172974
836.160	0.0172241
836.238	0.0174533
836.317	0.0173757
836.395	0.0173472
836.473	0.0173555
836.551	0.0172777
836.629	0.0173513
836.707	0.0174316
836.785	0.0173730
836.863	0.0174506
836.942	0.0173801
837.020	0.0174238
837.098	0.0172856
837.176	0.0173541
837.254	0.0173769
837.332	0.0174015
837.410	0.0173685
837.488	0.0175558
837.567	0.0172675
837.645	0.0174165
837.723	0.0175277
837.801	0.0174843
837.879	0.0174850
837.957	0.0174615
838.035	0.0174464
838.113	0.0174965
838.192	0.0175671
838.270	0.0175401
838.348	0.0176626
838.426	0.0176099
838.504	0.0176124
838.582	0.0175579
838.660	0.0174805
838.738	0.0174989
838.817	0.0176310
838.895	0.0176261
838.973	0.0175962
839.051	0.0174773
839.129	0.0176711
839.207	0.0174467
839.285	0.0174580
839.363	0.0176752
839.442	0.0175368
839.520	0.0176525
839.598	0.0174595
839.676	0.0175620
839.754	0.0176125
839.832	0.0174857
839.910	0.0173558
839.988	0.0174625
840.067	0.0174451
840.145	0.0174300
840.223	0.0174379
840.301	0.0174077
840.379	0.0173869
840.457	0.0173795
840.535	0.0173985
840.613	0.0173296
840.692	0.0172673
840.770	0.0173192
840.848	0.0173235
840.926	0.0172730
841.004	0.0171751
841.082	0.0172426
841.160	0.0174730
841.238	0.0173428
841.317	0.0171069
841.395	0.0173145
841.473	0.0173083
841.551	0.0174383
841.629	0.0173666
841.707	0.0172218
841.785	0.0171597
841.863	0.0173241
841.942	0.0174117
842.020	0.0173930
842.098	0.0173529
842.176	0.0173257
842.254	0.0173449
842.332	0.0172454
842.410	0.0173908
842.488	0.0172858
842.567	0.0173077
842.645	0.0174651
842.723	0.0173566
842.801	0.0174385
842.879	0.0173814
842.957	0.0173550
843.035	0.0173520
843.113	0.0173156
843.192	0.0173573
843.270	0.0174613
843.348	0.0173697
843.426	0.0173830
843.504	0.0174531
843.582	0.0174789
843.660	0.0174576
843.738	0.0174001
843.817	0.0174639
843.895	0.0174600
843.973	0.0173692
844.051	0.0176123
844.129	0.0175002
844.207	0.0175082
844.285	0.0174799
844.363	0.0175913
844.442	0.0175816
844.520	0.0175957
844.598	0.0175673
844.676	0.0176849
844.754	0.0176524
844.832	0.0176742
844.910	0.0177003
844.988	0.0178184
845.067	0.0177126
845.145	0.0176825
845.223	0.0177372
845.301	0.0177653
845.379	0.0178626
845.457	0.0177005
845.535	0.0177247
845.613	0.0179087
845.692	0.0176897
845.770	0.0177843
845.848	0.0178714
845.926	0.0176904
846.004	0.0176760
846.082	0.0179194
846.160	0.0179314
846.238	0.0176590
846.317	0.0176495
846.395	0.0176984
846.473	0.0176105
846.551	0.0176312
846.629	0.0177737
846.707	0.0178266
846.785	0.0177739
846.863	0.0176624
846.942	0.0177092
847.020	0.0176971
847.098	0.0177816
847.176	0.0176825
847.254	0.0176197
847.332	0.0177340
847.410	0.0178126
847.488	0.0178661
847.567	0.0178346
847.645	0.0176616
847.723	0.0177570
847.801	0.0176012
847.879	0.0179551
847.957	0.0178320
848.035	0.0175672
848.113	0.0176939
848.192	0.0176723
848.270	0.0177014
848.348	0.0177477
848.426	0.0176962
848.504	0.0176052
848.582	0.0176823
848.660	0.0174891
848.738	0.0175506
848.817	0.0175197
848.895	0.0176023
848.973	0.0175755
849.051	0.0176189
849.129	0.0176659
849.207	0.0177606
849.285	0.0177196
849.363	0.0175924
849.442	0.0175554
849.520	0.0175520
849.598	0.0177026
849.676	0.0177028
849.754	0.0176793
849.832	0.0176693
849.910	0.0175901
849.988	0.0178365
850.067	0.0177146
850.145	0.0175499
850.223	0.0178310
850.301	0.0177072
850.379	0.0177144
850.457	0.0176832
850.535	0.0177303
850.613	0.0177502
850.692	0.0178136
850.770	0.0176866
850.848	0.0177290
850.926	0.0177499
851.004	0.0176165
851.082	0.0176550
851.160	0.0176759
851.238	0.0177293
851.317	0.0175721
851.395	0.0176665
851.473	0.0175137
851.551	0.0175950
851.629	0.0174229
851.707	0.0175517
851.785	0.0175337
851.863	0.0174129
851.942	0.0174368
852.020	0.0175092
852.098	0.0173690
852.176	0.0175801
852.254	0.0174738
852.332	0.0173502
852.410	0.0175397
852.488	0.0174628
852.567	0.0173969
852.645	0.0174912
852.723	0.0174765
852.801	0.0175771
852.879	0.0174054
852.957	0.0175585
853.035	0.0174655
853.113	0.0174390
853.192	0.0174670
853.270	0.0174863
853.348	0.0174616
853.426	0.0174848
853.504	0.0174181
853.582	0.0174965
853.660	0.0174894
853.738	0.0174603
853.817	0.0174602
853.895	0.0174915
853.973	0.0174449
854.051	0.0174960
854.129	0.0175414
854.207	0.0174120
854.285	0.0173655
854.363	0.0174612
854.442	0.0174210
854.520	0.0175338
854.598	0.0175874
854.676	0.0175432
854.754	0.0175184
854.832	0.0175055
854.910	0.0175362
854.988	0.0176048
855.067	0.0177116
855.145	0.0177662
855.223	0.0177031
855.301	0.0177156
855.379	0.0176947
855.457	0.0177956
855.535	0.0178381
855.613	0.0178116
855.692	0.0177731
855.770	0.0177378
855.848	0.0178257
855.926	0.0177962
856.004	0.0178171
856.082	0.0178399
856.160	0.0178035
856.238	0.0178257
856.317	0.0179041
856.395	0.0178023
856.473	0.0178014
856.551	0.0177681
856.629	0.0178616
856.707	0.0177884
856.785	0.0177534
856.863	0.0177496
856.942	0.0178097
857.020	0.0179395
857.098	0.0178047
857.176	0.0177045
857.254	0.0177629
857.332	0.0177158
857.410	0.0177847
857.488	0.0176836
857.567	0.0177685
857.645	0.0177644
857.723	0.0176805
857.801	0.0176167
857.879	0.0176304
857.957	0.0177177
858.035	0.0177776
858.113	0.0176497
858.192	0.0176612
858.270	0.0175551
858.348	0.0177384
858.426	0.0176867
858.504	0.0175295
858.582	0.0175065
858.660	0.0173434
858.738	0.0174346
858.817	0.0175130
858.895	0.0174266
858.973	0.0174850
859.051	0.0174738
859.129	0.0173999
859.207	0.0173727
859.285	0.0174288
859.363	0.0173118
859.442	0.0173297
859.520	0.0173048
859.598	0.0172958
859.676	0.0173888
859.754	0.0174310
859.832	0.0173666
859.910	0.0173458
859.988	0.0174854
860.067	0.0174516
860.145	0.0174618
860.223	0.0175581
860.301	0.0174457
860.379	0.0176960
860.457	0.0175375
860.535	0.0176545
860.613	0.0175315
860.692	0.0176208
860.770	0.0175580
860.848	0.0175005
860.926	0.0176270
861.004	0.0175206
861.082	0.0176176
861.160	0.0176146
861.238	0.0175211
861.317	0.0174894
861.395	0.0175085
861.473	0.0174907
861.551	0.0174966
861.629	0.0175921
861.707	0.0175771
861.785	0.0174920
861.863	0.0175500
861.942	0.0175882
862.020	0.0175361
862.098	0.0173350
862.176	0.0172317
862.254	0.0173450
862.332	0.0173580
862.410	0.0172992
862.488	0.0174699
862.567	0.0172208
862.645	0.0173425
862.723	0.0173236
862.801	0.0172876
862.879	0.0173439
862.957	0.0173482
863.035	0.0173335
863.113	0.0173991
863.192	0.0173217
863.270	0.0173239
863.348	0.0173396
863.426	0.0172723
863.504	0.0174219
863.582	0.0174883
863.660	0.0172942
863.738	0.0175217
863.817	0.0174695
863.895	0.0175072
863.973	0.0174664
864.051	0.0174715
864.129	0.0173705
864.207	0.0173735
864.285	0.0175408
864.363	0.0174744
864.442	0.0174885
864.520	0.0175456
864.598	0.0174841
864.676	0.0174947
864.754	0.0175172
864.832	0.0174310
864.910	0.0174677
864.988	0.0175166
865.067	0.0175391
865.145	0.0176367
865.223	0.0175094
865.301	0.0175310
865.379	0.0176398
865.457	0.0176215
865.535	0.0175356
865.613	0.0176019
865.692	0.0175148
865.770	0.0176140
865.848	0.0176024
865.926	0.0176518
866.004	0.0174535
866.082	0.0176552
866.160	0.0175533
866.238	0.0176488
866.317	0.0175829
866.395	0.0175685
866.473	0.0176720
866.551	0.0175835
866.629	0.0176590
866.707	0.0177262
866.785	0.0176972
866.863	0.0176459
866.942	0.0177402
867.020	0.0177486
867.098	0.0176688
867.176	0.0177684
867.254	0.0178340
867.332	0.0177161
867.410	0.0177343
867.488	0.0177078
867.567	0.0178313
867.645	0.0179098
867.723	0.0178166
867.801	0.0178819
867.879	0.0178175
867.957	0.0179593
868.035	0.0177340
868.113	0.0180151
868.192	0.0178870
868.270	0.0180566
868.348	0.0179224
868.426	0.0179224
868.504	0.0179260
868.582	0.0179443
868.660	0.0179950
868.738	0.0179496
868.817	0.0180190
868.895	0.0179881
868.973	0.0179680
869.051	0.0179384
869.129	0.0177682
869.207	0.0178508
869.285	0.0179102
869.363	0.0178882
869.442	0.0177681
869.520	0.0178583
869.598	0.0177495
869.676	0.0177951
869.754	0.0177165
869.832	0.0176617
869.910	0.0176626
869.988	0.0177628
870.067	0.0177168
870.145	0.0176014
870.223	0.0174677
870.301	0.0175128
870.379	0.0174818
870.457	0.0174534
870.535	0.0174587
870.613	0.0173273
870.692	0.0172583
870.770	0.0173750
870.848	0.0173697
870.926	0.0173990
871.004	0.0173393
871.082	0.0173551
871.160	0.0174894
871.238	0.0174557
871.317	0.0172720
871.395	0.0173916
871.473	0.0174725
871.551	0.0175185
871.629	0.0174870
871.707	0.0173866
871.785	0.0173995
871.863	0.0174583
871.942	0.0175512
872.020	0.0174864
872.098	0.0174858
872.176	0.0175339
872.254	0.0174707
872.332	0.0173841
872.410	0.0174749
872.488	0.0176365
872.567	0.0175939
872.645	0.0175381
872.723	0.0175810
872.801	0.0174902
872.879	0.0175109
872.957	0.0175391
873.035	0.0175678
873.113	0.0175818
873.192	0.0174374
873.270	0.0175668
873.348	0.0176659
873.426	0.0176838
873.504	0.0175090
873.582	0.0174912
873.660	0.0176496
873.738	0.0175807
873.817	0.0176260
873.895	0.0176588
873.973	0.0176120
874.051	0.0175437
874.129	0.0174539
874.207	0.0175676
874.285	0.0175777
874.363	0.0175884
874.442	0.0177024
874.520	0.0175401
874.598	0.0173506
874.676	0.0174261
874.754	0.0174781
874.832	0.0175485
874.910	0.0175680
874.988	0.0174924
875.067	0.0174394
875.145	0.0175052
875.223	0.0174261
875.301	0.0176531
875.379	0.0175789
875.457	0.0174674
875.535	0.0176425
875.613	0.0176589
875.692	0.0176675
875.770	0.0176782
875.848	0.0175945
875.926	0.0176752
876.004	0.0177801
876.082	0.0176737
876.160	0.0176211
876.238	0.0177084
876.317	0.0176989
876.395	0.0177810
876.473	0.0176804
876.551	0.0176779
876.629	0.0175568
876.707	0.0178880
876.785	0.0178949
876.863	0.0176678
876.942	0.0176455
877.020	0.0177938
877.098	0.0177293
877.176	0.0177245
877.254	0.0177507
877.332	0.0178035
877.410	0.0177328
877.488	0.0176859
877.567	0.0176180
877.645	0.0177322
877.723	0.0176588
877.801	0.0176357
877.879	0.0176185
877.957	0.0176057
878.035	0.0177023
878.113	0.0174992
878.192	0.0175541
878.270	0.0175938
878.348	0.0176746
878.426	0.0175678
878.504	0.0174807
878.582	0.0173635
878.660	0.0176237
878.738	0.0173995
878.817	0.0174932
878.895	0.0175054
878.973	0.0174532
879.051	0.0173793
879.129	0.0173291
879.207	0.0174271
879.285	0.0173865
879.363	0.0173154
879.442	0.0174515
879.520	0.0173244
879.598	0.0172250
879.676	0.0173151
879.754	0.0174048
879.832	0.0174377
879.910	0.0172610
879.988	0.0172255
880.067	0.0173268
880.145	0.0173645
880.223	0.0173032
880.301	0.0172114
880.379	0.0172952
880.457	0.0172585
880.535	0.0173494
880.613	0.0173250
880.692	0.0173789
880.770	0.0174355
880.848	0.0174175
880.926	0.0175997
881.004	0.0175087
881.082	0.0174594
881.160	0.0175423
881.238	0.0174536
881.317	0.0174176
881.395	0.0175616
881.473	0.0174213
881.551	0.0174648
881.629	0.0175156
881.707	0.0175280
881.785	0.0174595
881.863	0.0174628
881.942	0.0175218
882.020	0.0175391
882.098	0.0175675
882.176	0.0174888
882.254	0.0174837
882.332	0.0175033
882.410	0.0174590
882.488	0.0174671
882.567	0.0177399
882.645	0.0177453
882.723	0.0175737
882.801	0.0175034
882.879	0.0176283
882.957	0.0176238
883.035	0.0177299
883.113	0.0176299
883.192	0.0177439
883.270	0.0176074
883.348	0.0175995
883.426	0.0177088
883.504	0.0174857
883.582	0.0176001
883.660	0.0175908
883.738	0.0176932
883.817	0.0177289
883.895	0.0176658
883.973	0.0175304
884.051	0.0177103
884.129	0.0176279
884.207	0.0175822
884.285	0.0176427
884.363	0.0175995
884.442	0.0177486
884.520	0.0176036
884.598	0.0177087
884.676	0.0177454
884.754	0.0176418
884.832	0.0176189
884.910	0.0176868
884.988	0.0176476
885.067	0.0175534
885.145	0.0176821
885.223	0.0176849
885.301	0.0177468
885.379	0.0176524
885.457	0.0175230
885.535	0.0175581
885.613	0.0176665
885.692	0.0175464
885.770	0.0177412
885.848	0.0176607
885.926	0.0176148
886.004	0.0175964
886.082	0.0176523
886.160	0.0176555
886.238	0.0175977
886.317	0.0176386
886.395	0.0176809
886.473	0.0176740
886.551	0.0176217
886.629	0.0176028
886.707	0.0175956
886.785	0.0175673
886.863	0.0176437
886.942	0.0174648
887.020	0.0175876
887.098	0.0175044
887.176	0.0175642
887.254	0.0175282
887.332	0.0174030
887.410	0.0173866
887.488	0.0175275
887.567	0.0176438
887.645	0.0174493
887.723	0.0173897
887.801	0.0174323
887.879	0.0175079
887.957	0.0175263
888.035	0.0176137
888.113	0.0174857
888.192	0.0174819
888.270	0.0176095
888.348	0.0176378
888.426	0.0176218
888.504	0.0176635
888.582	0.0176231
888.660	0.0176775
888.738	0.0177453
888.817	0.0177575
888.895	0.0178214
888.973	0.0177992
889.051	0.0178669
889.129	0.0179413
889.207	0.0178461
889.285	0.0179170
889.363	0.0178326
889.442	0.0178941
889.520	0.0178645
889.598	0.0179125
889.676	0.0179354
889.754	0.0178976
889.832	0.0177914
889.910	0.0178226
889.988	0.0178480
890.067	0.0177778
890.145	0.0177995
890.223	0.0178434
890.301	0.0178443
890.379	0.0177517
890.457	0.0177802
890.535	0.0175857
890.613	0.0176556
890.692	0.0177036
890.770	0.0177460
890.848	0.0177383
890.926	0.0176810
891.004	0.0176949
891.082	0.0177216
891.160	0.0175769
891.238	0.0176933
891.317	0.0176984
891.395	0.0176458
891.473	0.0177560
891.551	0.0177084
891.629	0.0176157
891.707	0.0176309
891.785	0.0176336
891.863	0.0175372
891.942	0.0175845
892.020	0.0175856
892.098	0.0176032
892.176	0.0176199
892.254	0.0177541
892.332	0.0174980
892.410	0.0176227
892.488	0.0176730
892.567	0.0174773
892.645	0.0176399
892.723	0.0176953
892.801	0.0176434
892.879	0.0176495
892.957	0.0175803
893.035	0.0175892
893.113	0.0176121
893.192	0.0174660
893.270	0.0176931
893.348	0.0176928
893.426	0.0175439
893.504	0.0176485
893.582	0.0175502
893.660	0.0176663
893.738	0.0176257
893.817	0.0176467
893.895	0.0176508
893.973	0.0176897
894.051	0.0177553
894.129	0.0175748
894.207	0.0176199
894.285	0.0178324
894.363	0.0175821
894.442	0.0177512
894.520	0.0177267
894.598	0.0177406
894.676	0.0177237
894.754	0.0177849
894.832	0.0179139
894.910	0.0177953
894.988	0.0178680
895.067	0.0177689
895.145	0.0177406
895.223	0.0179176
895.301	0.0177847
895.379	0.0177560
895.457	0.0178398
895.535	0.0179232
895.613	0.0178291
895.692	0.0179420
895.770	0.0179883
895.848	0.0178241
895.926	0.0177841
896.004	0.0178148
896.082	0.0178545
896.160	0.0179937
896.238	0.0177795
896.317	0.0177967
896.395	0.0178035
896.473	0.0177283
896.551	0.0177836
896.629	0.0177055
896.707	0.0179102
896.785	0.0178480
896.863	0.0177059
896.942	0.0177293
897.020	0.0177058
897.098	0.0177574
897.176	0.0177506
897.254	0.0178507
897.332	0.0176485
897.410	0.0175491
897.488	0.0176588
897.567	0.0176987
897.645	0.0176440
897.723	0.0175961
897.801	0.0176730
897.879	0.0176885
897.957	0.0176622
898.035	0.0176022
898.113	0.0176950
898.192	0.0175978
898.270	0.0174989
898.348	0.0173672
898.426	0.0174801
898.504	0.0175702
898.582	0.0176225
898.660	0.0176271
898.738	0.0174614
898.817	0.0174301
898.895	0.0176335
898.973	0.0175268
899.051	0.0174009
899.129	0.0174757
899.207	0.0172555
899.285	0.0174773
899.363	0.0175018
899.442	0.0174047
899.520	0.0173249
899.598	0.0173704
899.676	0.0172871
899.754	0.0172678
899.832	0.0173447
899.910	0.0173992
899.988	0.0173089
900.067	0.0171249
900.145	0.0172265
900.223	0.0173985
900.301	0.0172899
900.379	0.0171519
900.457	0.0172087
900.535	0.0173224
900.613	0.0172096
900.692	0.0172020
900.770	0.0171590
900.848	0.0171539
900.926	0.0172211
901.004	0.0172308
901.082	0.0172518
901.160	0.0171528
901.238	0.0170569
901.317	0.0171387
901.395	0.0171838
901.473	0.0171552
901.551	0.0171524
901.629	0.0171014
901.707	0.0171814
901.785	0.0171010
901.863	0.0172313
901.942	0.0171496
902.020	0.0171780
902.098	0.0172396
902.176	0.0171204
902.254	0.0172177
902.332	0.0171150
902.410	0.0171432
902.488	0.0172360
902.567	0.0171920
902.645	0.0172387
902.723	0.0172541
902.801	0.0172932
902.879	0.0175034
902.957	0.0174075
903.035	0.0174944
903.113	0.0174516
903.192	0.0175845
903.270	0.0175728
903.348	0.0175151
903.426	0.0175610
903.504	0.0176488
903.582	0.0175338
903.660	0.0176692
903.738	0.0176965
903.817	0.0179409
903.895	0.0178290
903.973	0.0177863
904.051	0.0178832
904.129	0.0179852
904.207	0.0177513
904.285	0.0178625
904.363	0.0179077
904.442	0.0179474
904.520	0.0179166
904.598	0.0179936
904.676	0.0180152
904.754	0.0178459
904.832	0.0178732
904.910	0.0179025
904.988	0.0179492
905.067	0.0179691
905.145	0.0178089
905.223	0.0177426
905.301	0.0178195
905.379	0.0177114
905.457	0.0176461
905.535	0.0176807
905.613	0.0176006
905.692	0.0176456
905.770	0.0175992
905.848	0.0175844
905.926	0.0176019
906.004	0.0175743
906.082	0.0177034
906.160	0.0176456
906.238	0.0175701
906.317	0.0175676
906.395	0.0174557
906.473	0.0176566
906.551	0.0176814
906.629	0.0175222
906.707	0.0175791
906.785	0.0177352
906.863	0.0176742
906.942	0.0175868
907.020	0.0176363
907.098	0.0177341
907.176	0.0177264
907.254	0.0177184
907.332	0.0177192
907.410	0.0178181
907.488	0.0178615
907.567	0.0177630
907.645	0.0176799
907.723	0.0177567
907.801	0.0178033
907.879	0.0178270
907.957	0.0179277
908.035	0.0179141
908.113	0.0178117
908.192	0.0178326
908.270	0.0178419
908.348	0.0176568
908.426	0.0177390
908.504	0.0178227
908.582	0.0177610
908.660	0.0177069
908.738	0.0178170
908.817	0.0178397
908.895	0.0177277
908.973	0.0177370
909.051	0.0177150
909.129	0.0177859
909.207	0.0178939
909.285	0.0177145
909.363	0.0176308
909.442	0.0177040
909.520	0.0176328
909.598	0.0177087
909.676	0.0177687
909.754	0.0177389
909.832	0.0176243
909.910	0.0175507
909.988	0.0176396
910.067	0.0175188
910.145	0.0176226
910.223	0.0174958
910.301	0.0175807
910.379	0.0175843
910.457	0.0174069
910.535	0.0174400
910.613	0.0174209
910.692	0.0175198
910.770	0.0174959
910.848	0.0175329
910.926	0.0175661
911.004	0.0175094
911.082	0.0175538
911.160	0.0173483
911.238	0.0175497
911.317	0.0176846
911.395	0.0175291
911.473	0.0175330
911.551	0.0175907
911.629	0.0175568
911.707	0.0174854
911.785	0.0175762
911.863	0.0175751
911.942	0.0174580
912.020	0.0175564
912.098	0.0177114
912.176	0.0176569
912.254	0.0176558
912.332	0.0176704
912.410	0.0176926
912.488	0.0175227
912.567	0.0177151
912.645	0.0176312
912.723	0.0176723
912.801	0.0176998
912.879	0.0175639
912.957	0.0175096
913.035	0.0175859
913.113	0.0174857
913.192	0.0175048
913.270	0.0175456
913.348	0.0175610
913.426	0.0175597
913.504	0.0174324
913.582	0.0175043
913.660	0.0175984
913.738	0.0176748
913.817	0.0174609
913.895	0.0174866
913.973	0.0175533
914.051	0.0175566
914.129	0.0174561
914.207	0.0174645
914.285	0.0175269
914.363	0.0175156
914.442	0.0176089
914.520	0.0175457
914.598	0.0174879
914.676	0.0175101
914.754	0.0174567
914.832	0.0174349
914.910	0.0174027
914.988	0.0173982
915.067	0.0173959
915.145	0.0173738
915.223	0.0173390
915.301	0.0174315
915.379	0.0173797
915.457	0.0173287
915.535	0.0173804
915.613	0.0173412
915.692	0.0172089
915.770	0.0173277
915.848	0.0173460
915.926	0.0174302
916.004	0.0173066
916.082	0.0171273
916.160	0.0174230
916.238	0.0174393
916.317	0.0173766
916.395	0.0173749
916.473	0.0174438
916.551	0.0174926
916.629	0.0175632
916.707	0.0174636
916.785	0.0175288
916.863	0.0174297
916.942	0.0174555
917.020	0.0174737
917.098	0.0173680
917.176	0.0175497
917.254	0.0176407
917.332	0.0175256
917.410	0.0176137
917.488	0.0176180
917.567	0.0175602
917.645	0.0176022
917.723	0.0175207
917.801	0.0174809
917.879	0.0174862
917.957	0.0175617
918.035	0.0176522
918.113	0.0176519
918.192	0.0177067
918.270	0.0175921
918.348	0.0175627
918.426	0.0176965
918.504	0.0177221
918.582	0.0176530
918.660	0.0176412
918.738	0.0176570
918.817	0.0176391
918.895	0.0177559
918.973	0.0177010
919.051	0.0177551
919.129	0.0177453
919.207	0.0178297
919.285	0.0177037
919.363	0.0177043
919.442	0.0178277
919.520	0.0176450
919.598	0.0176903
919.676	0.0176738
919.754	0.0177547
919.832	0.0175858
919.910	0.0176236
