06/01/2022	22:16:04	Ver.	4.1	UNKNOWN
Optical Delay	599.988409	Delta X		0.078125	Sweeps	1	Scan Rate	0/0
Coordinates	Axis 1	NaN	Axis 2	NaN	Axis 3	NaN	Axis 4	NaN	Axis 5	NaN	Axis 6	0.000000
TX Power	0.000000	RX Power	0.000000

599.988	0.0180080
600.067	0.0182684
600.145	0.0182655
600.223	0.0183139
600.301	0.0181820
600.379	0.0183304
600.457	0.0182493
600.535	0.0182819
600.613	0.0182536
600.692	0.0183304
600.770	0.0183496
600.848	0.0184266
600.926	0.0183650
601.004	0.0184847
601.082	0.0183525
601.160	0.0184107
601.238	0.0184533
601.317	0.0183405
601.395	0.0184418
601.473	0.0184825
601.551	0.0183858
601.629	0.0183600
601.707	0.0184607
601.785	0.0186227
601.863	0.0183815
601.942	0.0184022
602.020	0.0185125
602.098	0.0184601
602.176	0.0184511
602.254	0.0185278
602.332	0.0183489
602.410	0.0183149
602.488	0.0184901
602.567	0.0185609
602.645	0.0184618
602.723	0.0182740
602.801	0.0184261
602.879	0.0183379
602.957	0.0182999
603.035	0.0183382
603.113	0.0184052
603.192	0.0182960
603.270	0.0182481
603.348	0.0183862
603.426	0.0184019
603.504	0.0182790
603.582	0.0183127
603.660	0.0182816
603.738	0.0183736
603.817	0.0182877
603.895	0.0183926
603.973	0.0182963
604.051	0.0182645
604.129	0.0181065
604.207	0.0180798
604.285	0.0182027
604.363	0.0180236
604.442	0.0180831
604.520	0.0180511
604.598	0.0181302
604.676	0.0180869
604.754	0.0177712
604.832	0.0179510
604.910	0.0179851
604.988	0.0179156
605.067	0.0178354
605.145	0.0178719
605.223	0.0179079
605.301	0.0179257
605.379	0.0178643
605.457	0.0176662
605.535	0.0177570
605.613	0.0178032
605.692	0.0177713
605.770	0.0177995
605.848	0.0178344
605.926	0.0177740
606.004	0.0177536
606.082	0.0177625
606.160	0.0176898
606.238	0.0176734
606.317	0.0175947
606.395	0.0176314
606.473	0.0177022
606.551	0.0177443
606.629	0.0176012
606.707	0.0176464
606.785	0.0176279
606.863	0.0176434
606.942	0.0177795
607.020	0.0175376
607.098	0.0177269
607.176	0.0177014
607.254	0.0177739
607.332	0.0177611
607.410	0.0176040
607.488	0.0177633
607.567	0.0178912
607.645	0.0176929
607.723	0.0178194
607.801	0.0178761
607.879	0.0177145
607.957	0.0178515
608.035	0.0178471
608.113	0.0178182
608.192	0.0179379
608.270	0.0179111
608.348	0.0177895
608.426	0.0177631
608.504	0.0177869
608.582	0.0177182
608.660	0.0176882
608.738	0.0177872
608.817	0.0179232
608.895	0.0178053
608.973	0.0178239
609.051	0.0176928
609.129	0.0175956
609.207	0.0178304
609.285	0.0177363
609.363	0.0176650
609.442	0.0175893
609.520	0.0175460
609.598	0.0177081
609.676	0.0176467
609.754	0.0177028
609.832	0.0175824
609.910	0.0175848
609.988	0.0176556
610.067	0.0178486
610.145	0.0177496
610.223	0.0176918
610.301	0.0177668
610.379	0.0177730
610.457	0.0177162
610.535	0.0175803
610.613	0.0177814
610.692	0.0176704
610.770	0.0176376
610.848	0.0177940
610.926	0.0176606
611.004	0.0175947
611.082	0.0177306
611.160	0.0175580
611.238	0.0178038
611.317	0.0176563
611.395	0.0176955
611.473	0.0178276
611.551	0.0176370
611.629	0.0177083
611.707	0.0178241
611.785	0.0177351
611.863	0.0178833
611.942	0.0178362
612.020	0.0178669
612.098	0.0179543
612.176	0.0179302
612.254	0.0177761
612.332	0.0177064
612.410	0.0179065
612.488	0.0177428
612.567	0.0177251
612.645	0.0178772
612.723	0.0177465
612.801	0.0178110
612.879	0.0178905
612.957	0.0177489
613.035	0.0178518
613.113	0.0178793
613.192	0.0178918
613.270	0.0177910
613.348	0.0177264
613.426	0.0179173
613.504	0.0179201
613.582	0.0178930
613.660	0.0178992
613.738	0.0179057
613.817	0.0178393
613.895	0.0179328
613.973	0.0179043
614.051	0.0178156
614.129	0.0178614
614.207	0.0178328
614.285	0.0179559
614.363	0.0180371
614.442	0.0179224
614.520	0.0179701
614.598	0.0179091
614.676	0.0180165
614.754	0.0179731
614.832	0.0179979
614.910	0.0179360
614.988	0.0179894
615.067	0.0179823
615.145	0.0180412
615.223	0.0180010
615.301	0.0179765
615.379	0.0179082
615.457	0.0178996
615.535	0.0178485
615.613	0.0178037
615.692	0.0177847
615.770	0.0178120
615.848	0.0176983
615.926	0.0178254
616.004	0.0177173
616.082	0.0176394
616.160	0.0177467
616.238	0.0178057
616.317	0.0177253
616.395	0.0177052
616.473	0.0176778
616.551	0.0177087
616.629	0.0178588
616.707	0.0178320
616.785	0.0176971
616.863	0.0176855
616.942	0.0178524
617.020	0.0177618
617.098	0.0179301
617.176	0.0178452
617.254	0.0177802
617.332	0.0177911
617.410	0.0178244
617.488	0.0177654
617.567	0.0177237
617.645	0.0179374
617.723	0.0178083
617.801	0.0179435
617.879	0.0177670
617.957	0.0177496
618.035	0.0178298
618.113	0.0178646
618.192	0.0178425
618.270	0.0178763
618.348	0.0178891
618.426	0.0177811
618.504	0.0177155
618.582	0.0178941
618.660	0.0178837
618.738	0.0178536
618.817	0.0178117
618.895	0.0179307
618.973	0.0177992
619.051	0.0178405
619.129	0.0179274
619.207	0.0178637
619.285	0.0179421
619.363	0.0179427
619.442	0.0178901
619.520	0.0178998
619.598	0.0177876
619.676	0.0178635
619.754	0.0179506
619.832	0.0178983
619.910	0.0179566
619.988	0.0179440
620.067	0.0179114
620.145	0.0179425
620.223	0.0178622
620.301	0.0179224
620.379	0.0179558
620.457	0.0179783
620.535	0.0180123
620.613	0.0179574
620.692	0.0179807
620.770	0.0180169
620.848	0.0180560
620.926	0.0180128
621.004	0.0180058
621.082	0.0180396
621.160	0.0181460
621.238	0.0180801
621.317	0.0180228
621.395	0.0180582
621.473	0.0180888
621.551	0.0181071
621.629	0.0180972
621.707	0.0179714
621.785	0.0179915
621.863	0.0180074
621.942	0.0179839
622.020	0.0180193
622.098	0.0179984
622.176	0.0180256
622.254	0.0180258
622.332	0.0181328
622.410	0.0180483
622.488	0.0180920
622.567	0.0181692
622.645	0.0180612
622.723	0.0181077
622.801	0.0181548
622.879	0.0180618
622.957	0.0180510
623.035	0.0180292
623.113	0.0180436
623.192	0.0180241
623.270	0.0180309
623.348	0.0180360
623.426	0.0181330
623.504	0.0181619
623.582	0.0179834
623.660	0.0179404
623.738	0.0180198
623.817	0.0180898
623.895	0.0179447
623.973	0.0180456
624.051	0.0179884
624.129	0.0181315
624.207	0.0182336
624.285	0.0182795
624.363	0.0182345
624.442	0.0182286
624.520	0.0182057
624.598	0.0182616
624.676	0.0183021
624.754	0.0182372
624.832	0.0182662
624.910	0.0182685
624.988	0.0182930
625.067	0.0181796
625.145	0.0180933
625.223	0.0183200
625.301	0.0182879
625.379	0.0182802
625.457	0.0182671
625.535	0.0182913
625.613	0.0183443
625.692	0.0181994
625.770	0.0181716
625.848	0.0182698
625.926	0.0182333
626.004	0.0183318
626.082	0.0183292
626.160	0.0183891
626.238	0.0181455
626.317	0.0183592
626.395	0.0182565
626.473	0.0183144
626.551	0.0183067
626.629	0.0182748
626.707	0.0181821
626.785	0.0183286
626.863	0.0183109
626.942	0.0182183
627.020	0.0181866
627.098	0.0182596
627.176	0.0183426
627.254	0.0181882
627.332	0.0180581
627.410	0.0181049
627.488	0.0181151
627.567	0.0182410
627.645	0.0180807
627.723	0.0179353
627.801	0.0179911
627.879	0.0180660
627.957	0.0178959
628.035	0.0177418
628.113	0.0177348
628.192	0.0177234
628.270	0.0178425
628.348	0.0177309
628.426	0.0175760
628.504	0.0175120
628.582	0.0176672
628.660	0.0176397
628.738	0.0175144
628.817	0.0174362
628.895	0.0176170
628.973	0.0174743
629.051	0.0173615
629.129	0.0173650
629.207	0.0173643
629.285	0.0174068
629.363	0.0174246
629.442	0.0175169
629.520	0.0173878
629.598	0.0174203
629.676	0.0173241
629.754	0.0174072
629.832	0.0175047
629.910	0.0175604
629.988	0.0174707
630.067	0.0175313
630.145	0.0176346
630.223	0.0175558
630.301	0.0176292
630.379	0.0178184
630.457	0.0177193
630.535	0.0177027
630.613	0.0176344
630.692	0.0177026
630.770	0.0178655
630.848	0.0177858
630.926	0.0180019
631.004	0.0179228
631.082	0.0178622
631.160	0.0178718
631.238	0.0179214
631.317	0.0180859
631.395	0.0180921
631.473	0.0180710
631.551	0.0181635
631.629	0.0180808
631.707	0.0181188
631.785	0.0181926
631.863	0.0181810
631.942	0.0182111
632.020	0.0182957
632.098	0.0181667
632.176	0.0180663
632.254	0.0182372
632.332	0.0181856
632.410	0.0182388
632.488	0.0182029
632.567	0.0181586
632.645	0.0181629
632.723	0.0182188
632.801	0.0180994
632.879	0.0182119
632.957	0.0180531
633.035	0.0180389
633.113	0.0179799
633.192	0.0179909
633.270	0.0180351
633.348	0.0180576
633.426	0.0180704
633.504	0.0180307
633.582	0.0180850
633.660	0.0179539
633.738	0.0179171
633.817	0.0181129
633.895	0.0179153
633.973	0.0179884
634.051	0.0179630
634.129	0.0181766
634.207	0.0180377
634.285	0.0180074
634.363	0.0178461
634.442	0.0181102
634.520	0.0180956
634.598	0.0181068
634.676	0.0179594
634.754	0.0179182
634.832	0.0180792
634.910	0.0180791
634.988	0.0180173
635.067	0.0180199
635.145	0.0180245
635.223	0.0181194
635.301	0.0181425
635.379	0.0180789
635.457	0.0181044
635.535	0.0180884
635.613	0.0179816
635.692	0.0181815
635.770	0.0182000
635.848	0.0180297
635.926	0.0179158
636.004	0.0180836
636.082	0.0180412
636.160	0.0180903
636.238	0.0180336
636.317	0.0179600
636.395	0.0178998
636.473	0.0180625
636.551	0.0181378
636.629	0.0180015
636.707	0.0180050
636.785	0.0178625
636.863	0.0178886
636.942	0.0179536
637.020	0.0179005
637.098	0.0179067
637.176	0.0179444
637.254	0.0178120
637.332	0.0178034
637.410	0.0179254
637.488	0.0180586
637.567	0.0177786
637.645	0.0178227
637.723	0.0178850
637.801	0.0176372
637.879	0.0178316
637.957	0.0178588
638.035	0.0176442
638.113	0.0176631
638.192	0.0176984
638.270	0.0177518
638.348	0.0176822
638.426	0.0177278
638.504	0.0175715
638.582	0.0177213
638.660	0.0176635
638.738	0.0175852
638.817	0.0176299
638.895	0.0175992
638.973	0.0177084
639.051	0.0176759
639.129	0.0176774
639.207	0.0177180
639.285	0.0178332
639.363	0.0176894
639.442	0.0177681
639.520	0.0178574
639.598	0.0178093
639.676	0.0178100
639.754	0.0178699
639.832	0.0177937
639.910	0.0176973
639.988	0.0177328
640.067	0.0177949
640.145	0.0176752
640.223	0.0177331
640.301	0.0179471
640.379	0.0178553
640.457	0.0176894
640.535	0.0178277
640.613	0.0177943
640.692	0.0178140
640.770	0.0178310
640.848	0.0176890
640.926	0.0177662
641.004	0.0177856
641.082	0.0177113
641.160	0.0177328
641.238	0.0178170
641.317	0.0178108
641.395	0.0177268
641.473	0.0177229
641.551	0.0177979
641.629	0.0178277
641.707	0.0178174
641.785	0.0178410
641.863	0.0177466
641.942	0.0178146
642.020	0.0178178
642.098	0.0176798
642.176	0.0178368
642.254	0.0177209
642.332	0.0177796
642.410	0.0178774
642.488	0.0177643
642.567	0.0177267
642.645	0.0178101
642.723	0.0177900
642.801	0.0178456
642.879	0.0178864
642.957	0.0179330
643.035	0.0178494
643.113	0.0180529
643.192	0.0179504
643.270	0.0178991
643.348	0.0179752
643.426	0.0179619
643.504	0.0179371
643.582	0.0179694
643.660	0.0179282
643.738	0.0179623
643.817	0.0180521
643.895	0.0181035
643.973	0.0180173
644.051	0.0180936
644.129	0.0180038
644.207	0.0179565
644.285	0.0181343
644.363	0.0181843
644.442	0.0181147
644.520	0.0180413
644.598	0.0180453
644.676	0.0180994
644.754	0.0180514
644.832	0.0180328
644.910	0.0180415
644.988	0.0180795
645.067	0.0180589
645.145	0.0180688
645.223	0.0180565
645.301	0.0180589
645.379	0.0180915
645.457	0.0180012
645.535	0.0180572
645.613	0.0180114
645.692	0.0178034
645.770	0.0179773
645.848	0.0179166
645.926	0.0180397
646.004	0.0179233
646.082	0.0177895
646.160	0.0178765
646.238	0.0178848
646.317	0.0179029
646.395	0.0178611
646.473	0.0178425
646.551	0.0178249
646.629	0.0177475
646.707	0.0179659
646.785	0.0178961
646.863	0.0177406
646.942	0.0178145
647.020	0.0178484
647.098	0.0179667
647.176	0.0178328
647.254	0.0179408
647.332	0.0179623
647.410	0.0180676
647.488	0.0180336
647.567	0.0179315
647.645	0.0178162
647.723	0.0180972
647.801	0.0179808
647.879	0.0180528
647.957	0.0181073
648.035	0.0180222
648.113	0.0181640
648.192	0.0181340
648.270	0.0182713
648.348	0.0183206
648.426	0.0181190
648.504	0.0182137
648.582	0.0182614
648.660	0.0181086
648.738	0.0180755
648.817	0.0180183
648.895	0.0181322
648.973	0.0180454
649.051	0.0180410
649.129	0.0179233
649.207	0.0179601
649.285	0.0178219
649.363	0.0177682
649.442	0.0179132
649.520	0.0177874
649.598	0.0178129
649.676	0.0179288
649.754	0.0178771
649.832	0.0178548
649.910	0.0178571
649.988	0.0179809
650.067	0.0177918
650.145	0.0177992
650.223	0.0176508
650.301	0.0178727
650.379	0.0178934
650.457	0.0178393
650.535	0.0176147
650.613	0.0176489
650.692	0.0177551
650.770	0.0176680
650.848	0.0174742
650.926	0.0176703
651.004	0.0175560
651.082	0.0175216
651.160	0.0174303
651.238	0.0176373
651.317	0.0174661
651.395	0.0175143
651.473	0.0174929
651.551	0.0174455
651.629	0.0175187
651.707	0.0175194
651.785	0.0174910
651.863	0.0175544
651.942	0.0176280
652.020	0.0175587
652.098	0.0176180
652.176	0.0176411
652.254	0.0176737
652.332	0.0176794
652.410	0.0176865
652.488	0.0177591
652.567	0.0177351
652.645	0.0177187
652.723	0.0177871
652.801	0.0177706
652.879	0.0177654
652.957	0.0177737
653.035	0.0178579
653.113	0.0179671
653.192	0.0178939
653.270	0.0178819
653.348	0.0179626
653.426	0.0179285
653.504	0.0179479
653.582	0.0180193
653.660	0.0179887
653.738	0.0180232
653.817	0.0179826
653.895	0.0180800
653.973	0.0179482
654.051	0.0179616
654.129	0.0179472
654.207	0.0180729
654.285	0.0179932
654.363	0.0180305
654.442	0.0181834
654.520	0.0180668
654.598	0.0180382
654.676	0.0178960
654.754	0.0180476
654.832	0.0181678
654.910	0.0179446
654.988	0.0179417
655.067	0.0181136
655.145	0.0180727
655.223	0.0179983
655.301	0.0181256
655.379	0.0180868
655.457	0.0180624
655.535	0.0181760
655.613	0.0180632
655.692	0.0179866
655.770	0.0179749
655.848	0.0180530
655.926	0.0180055
656.004	0.0179562
656.082	0.0181050
656.160	0.0180349
656.238	0.0179929
656.317	0.0179812
656.395	0.0178852
656.473	0.0180492
656.551	0.0180253
656.629	0.0178836
656.707	0.0180988
656.785	0.0180038
656.863	0.0179312
656.942	0.0179720
657.020	0.0180263
657.098	0.0180750
657.176	0.0180401
657.254	0.0180096
657.332	0.0180937
657.410	0.0179799
657.488	0.0178255
657.567	0.0179195
657.645	0.0178671
657.723	0.0179234
657.801	0.0179114
657.879	0.0180411
657.957	0.0180295
658.035	0.0178840
658.113	0.0179418
658.192	0.0178780
658.270	0.0179675
658.348	0.0179916
658.426	0.0178727
658.504	0.0179413
658.582	0.0180362
658.660	0.0179671
658.738	0.0180099
658.817	0.0178927
658.895	0.0179554
658.973	0.0180636
659.051	0.0179588
659.129	0.0179240
659.207	0.0179177
659.285	0.0179021
659.363	0.0178643
659.442	0.0180470
659.520	0.0179836
659.598	0.0179425
659.676	0.0179450
659.754	0.0179304
659.832	0.0179111
659.910	0.0180356
659.988	0.0180717
660.067	0.0179643
660.145	0.0179472
660.223	0.0179158
660.301	0.0179792
660.379	0.0179973
660.457	0.0178558
660.535	0.0179534
660.613	0.0178699
660.692	0.0177477
660.770	0.0176438
660.848	0.0177184
660.926	0.0176939
661.004	0.0176685
661.082	0.0175754
661.160	0.0177118
661.238	0.0176257
661.317	0.0176379
661.395	0.0179323
661.473	0.0177439
661.551	0.0175258
661.629	0.0176665
661.707	0.0175824
661.785	0.0174869
661.863	0.0175897
661.942	0.0175868
662.020	0.0176167
662.098	0.0175975
662.176	0.0176381
662.254	0.0175023
662.332	0.0174600
662.410	0.0175571
662.488	0.0174696
662.567	0.0173522
662.645	0.0175629
662.723	0.0175265
662.801	0.0175040
662.879	0.0174603
662.957	0.0174318
663.035	0.0175487
663.113	0.0176877
663.192	0.0175090
663.270	0.0175747
663.348	0.0175220
663.426	0.0177141
663.504	0.0176874
663.582	0.0175072
663.660	0.0176408
663.738	0.0177335
663.817	0.0177208
663.895	0.0179005
663.973	0.0176409
664.051	0.0177177
664.129	0.0178685
664.207	0.0177557
664.285	0.0177515
664.363	0.0179662
664.442	0.0176676
664.520	0.0178970
664.598	0.0177573
664.676	0.0179245
664.754	0.0178463
664.832	0.0177852
664.910	0.0178992
664.988	0.0178968
665.067	0.0177981
665.145	0.0178423
665.223	0.0179498
665.301	0.0178327
665.379	0.0178764
665.457	0.0179237
665.535	0.0180008
665.613	0.0178459
665.692	0.0179399
665.770	0.0178255
665.848	0.0178835
665.926	0.0178162
666.004	0.0179417
666.082	0.0179472
666.160	0.0178697
666.238	0.0181450
666.317	0.0179776
666.395	0.0179969
666.473	0.0178806
666.551	0.0179806
666.629	0.0178299
666.707	0.0179324
666.785	0.0179742
666.863	0.0178919
666.942	0.0179815
667.020	0.0179604
667.098	0.0179891
667.176	0.0179874
667.254	0.0180250
667.332	0.0179656
667.410	0.0179545
667.488	0.0181368
667.567	0.0180404
667.645	0.0179314
667.723	0.0180738
667.801	0.0179518
667.879	0.0180245
667.957	0.0179967
668.035	0.0180437
668.113	0.0179148
668.192	0.0180119
668.270	0.0179549
668.348	0.0179414
668.426	0.0178168
668.504	0.0178109
668.582	0.0179007
668.660	0.0179056
668.738	0.0178492
668.817	0.0178453
668.895	0.0176682
668.973	0.0176388
669.051	0.0177211
669.129	0.0177010
669.207	0.0176908
669.285	0.0176260
669.363	0.0175859
669.442	0.0174780
669.520	0.0175450
669.598	0.0174900
669.676	0.0175362
669.754	0.0174870
669.832	0.0175337
669.910	0.0174773
669.988	0.0175195
670.067	0.0176034
670.145	0.0174685
670.223	0.0174883
670.301	0.0175248
670.379	0.0174216
670.457	0.0175221
670.535	0.0174627
670.613	0.0174323
670.692	0.0174542
670.770	0.0176014
670.848	0.0177468
670.926	0.0174244
671.004	0.0175781
671.082	0.0174695
671.160	0.0175683
671.238	0.0176487
671.317	0.0176235
671.395	0.0176080
671.473	0.0175526
671.551	0.0176617
671.629	0.0176868
671.707	0.0175408
671.785	0.0176027
671.863	0.0176564
671.942	0.0176714
672.020	0.0177036
672.098	0.0175848
672.176	0.0176782
672.254	0.0177504
672.332	0.0176553
672.410	0.0177672
672.488	0.0177787
672.567	0.0177090
672.645	0.0177921
672.723	0.0177142
672.801	0.0176917
672.879	0.0177972
672.957	0.0178198
673.035	0.0178512
673.113	0.0178971
673.192	0.0178692
673.270	0.0179482
673.348	0.0178157
673.426	0.0179225
673.504	0.0179621
673.582	0.0178657
673.660	0.0179152
673.738	0.0176871
673.817	0.0179341
673.895	0.0178646
673.973	0.0178365
674.051	0.0179131
674.129	0.0177702
674.207	0.0177184
674.285	0.0177301
674.363	0.0178580
674.442	0.0177755
674.520	0.0177799
674.598	0.0178449
674.676	0.0178360
674.754	0.0178896
674.832	0.0177905
674.910	0.0179279
674.988	0.0178423
675.067	0.0179108
675.145	0.0179601
675.223	0.0180094
675.301	0.0180262
675.379	0.0179758
675.457	0.0179455
675.535	0.0180630
675.613	0.0179576
675.692	0.0180119
675.770	0.0180923
675.848	0.0179616
675.926	0.0179667
676.004	0.0181021
676.082	0.0181013
676.160	0.0179671
676.238	0.0180344
676.317	0.0180170
676.395	0.0180014
676.473	0.0181507
676.551	0.0180948
676.629	0.0180550
676.707	0.0182552
676.785	0.0180547
676.863	0.0181900
676.942	0.0181258
677.020	0.0181886
677.098	0.0182473
677.176	0.0183824
677.254	0.0181887
677.332	0.0180779
677.410	0.0182455
677.488	0.0183159
677.567	0.0182970
677.645	0.0182837
677.723	0.0180564
677.801	0.0181422
677.879	0.0182563
677.957	0.0183456
678.035	0.0183594
678.113	0.0182565
678.192	0.0182410
678.270	0.0181318
678.348	0.0181521
678.426	0.0181411
678.504	0.0180396
678.582	0.0182000
678.660	0.0181099
678.738	0.0180540
678.817	0.0181377
678.895	0.0179985
678.973	0.0179529
679.051	0.0179515
679.129	0.0180359
679.207	0.0180453
679.285	0.0179183
679.363	0.0179106
679.442	0.0179687
679.520	0.0178847
679.598	0.0178201
679.676	0.0178968
679.754	0.0177863
679.832	0.0177260
679.910	0.0177077
679.988	0.0178481
680.067	0.0176778
680.145	0.0177087
680.223	0.0176817
680.301	0.0176715
680.379	0.0177544
680.457	0.0178403
680.535	0.0177709
680.613	0.0175893
680.692	0.0177399
680.770	0.0176961
680.848	0.0178165
680.926	0.0177390
681.004	0.0178972
681.082	0.0178371
681.160	0.0177947
681.238	0.0178246
681.317	0.0178091
681.395	0.0179356
681.473	0.0176822
681.551	0.0178860
681.629	0.0177956
681.707	0.0177479
681.785	0.0177850
681.863	0.0177913
681.942	0.0178609
682.020	0.0176767
682.098	0.0176702
682.176	0.0177236
682.254	0.0174881
682.332	0.0175944
682.410	0.0176726
682.488	0.0175985
682.567	0.0174608
682.645	0.0175235
682.723	0.0174864
682.801	0.0174429
682.879	0.0174917
682.957	0.0175338
683.035	0.0174450
683.113	0.0173928
683.192	0.0175109
683.270	0.0176011
683.348	0.0176321
683.426	0.0175110
683.504	0.0174944
683.582	0.0175006
683.660	0.0174634
683.738	0.0175401
683.817	0.0176344
683.895	0.0176413
683.973	0.0177523
684.051	0.0177702
684.129	0.0178236
684.207	0.0178357
684.285	0.0177726
684.363	0.0178297
684.442	0.0178735
684.520	0.0178995
684.598	0.0178474
684.676	0.0177888
684.754	0.0179251
684.832	0.0178441
684.910	0.0176799
684.988	0.0177385
685.067	0.0177482
685.145	0.0178126
685.223	0.0178738
685.301	0.0176823
685.379	0.0177676
685.457	0.0177612
685.535	0.0178735
685.613	0.0178408
685.692	0.0179298
685.770	0.0179636
685.848	0.0178786
685.926	0.0179343
686.004	0.0179697
686.082	0.0178625
686.160	0.0181078
686.238	0.0180859
686.317	0.0179312
686.395	0.0179526
686.473	0.0179816
686.551	0.0180709
686.629	0.0179585
686.707	0.0179586
686.785	0.0180836
686.863	0.0179929
686.942	0.0181534
687.020	0.0180577
687.098	0.0180791
687.176	0.0182677
687.254	0.0181429
687.332	0.0181763
687.410	0.0181198
687.488	0.0181170
687.567	0.0182324
687.645	0.0181424
687.723	0.0180252
687.801	0.0181744
687.879	0.0182279
687.957	0.0180798
688.035	0.0181784
688.113	0.0182356
688.192	0.0182690
688.270	0.0182206
688.348	0.0181232
688.426	0.0180598
688.504	0.0182191
688.582	0.0182096
688.660	0.0181573
688.738	0.0180386
688.817	0.0179607
688.895	0.0181385
688.973	0.0180997
689.051	0.0180268
689.129	0.0179119
689.207	0.0179932
689.285	0.0179854
689.363	0.0179066
689.442	0.0179443
689.520	0.0179993
689.598	0.0180229
689.676	0.0179926
689.754	0.0180269
689.832	0.0179619
689.910	0.0179321
689.988	0.0179414
690.067	0.0180507
690.145	0.0179517
690.223	0.0180399
690.301	0.0180480
690.379	0.0179053
690.457	0.0180495
690.535	0.0180460
690.613	0.0180389
690.692	0.0180226
690.770	0.0180653
690.848	0.0180251
690.926	0.0179577
691.004	0.0180331
691.082	0.0179905
691.160	0.0179380
691.238	0.0179795
691.317	0.0178908
691.395	0.0180228
691.473	0.0180273
691.551	0.0178573
691.629	0.0180014
691.707	0.0181036
691.785	0.0178076
691.863	0.0178534
691.942	0.0178455
692.020	0.0178851
692.098	0.0178164
692.176	0.0177473
692.254	0.0176208
692.332	0.0176808
692.410	0.0176790
692.488	0.0176415
692.567	0.0176104
692.645	0.0176396
692.723	0.0174136
692.801	0.0175127
692.879	0.0173772
692.957	0.0174340
693.035	0.0173257
693.113	0.0174073
693.192	0.0174715
693.270	0.0175739
693.348	0.0174846
693.426	0.0174939
693.504	0.0176286
693.582	0.0175805
693.660	0.0175931
693.738	0.0176854
693.817	0.0178261
693.895	0.0176854
693.973	0.0178481
694.051	0.0176513
694.129	0.0175376
694.207	0.0177089
694.285	0.0178156
694.363	0.0177824
694.442	0.0177368
694.520	0.0178358
694.598	0.0178358
694.676	0.0179981
694.754	0.0179868
694.832	0.0179284
694.910	0.0179965
694.988	0.0180954
695.067	0.0180843
695.145	0.0181730
695.223	0.0181032
695.301	0.0180383
695.379	0.0181068
695.457	0.0181642
695.535	0.0182569
695.613	0.0181282
695.692	0.0180680
695.770	0.0180524
695.848	0.0182847
695.926	0.0180329
696.004	0.0180234
696.082	0.0182240
696.160	0.0182150
696.238	0.0179663
696.317	0.0179136
696.395	0.0179311
696.473	0.0179987
696.551	0.0178508
696.629	0.0176781
696.707	0.0178176
696.785	0.0177103
696.863	0.0176990
696.942	0.0177721
697.020	0.0173994
697.098	0.0175526
697.176	0.0176478
697.254	0.0175858
697.332	0.0176457
697.410	0.0174464
697.488	0.0175542
697.567	0.0177486
697.645	0.0175594
697.723	0.0175418
697.801	0.0177677
697.879	0.0178261
697.957	0.0177078
698.035	0.0178685
698.113	0.0179447
698.192	0.0180083
698.270	0.0179746
698.348	0.0180228
698.426	0.0180989
698.504	0.0182736
698.582	0.0182964
698.660	0.0182818
698.738	0.0181997
698.817	0.0182628
698.895	0.0182594
698.973	0.0182529
699.051	0.0181203
699.129	0.0181860
699.207	0.0182355
699.285	0.0182110
699.363	0.0182960
699.442	0.0181974
699.520	0.0179724
699.598	0.0180042
699.676	0.0180118
699.754	0.0179669
699.832	0.0178651
699.910	0.0179209
699.988	0.0178726
700.067	0.0178618
700.145	0.0178093
700.223	0.0178116
700.301	0.0178331
700.379	0.0177870
700.457	0.0178098
700.535	0.0179525
700.613	0.0178023
700.692	0.0179007
700.770	0.0179121
700.848	0.0178349
700.926	0.0179269
701.004	0.0179306
701.082	0.0179372
701.160	0.0179914
701.238	0.0178714
701.317	0.0179965
701.395	0.0180180
701.473	0.0179261
701.551	0.0179237
701.629	0.0180529
701.707	0.0178494
701.785	0.0179301
701.863	0.0179029
701.942	0.0179540
702.020	0.0179684
702.098	0.0179193
702.176	0.0179034
702.254	0.0178970
702.332	0.0180930
702.410	0.0179843
702.488	0.0179463
702.567	0.0179572
702.645	0.0179956
702.723	0.0179030
702.801	0.0179984
702.879	0.0179621
702.957	0.0180216
703.035	0.0180347
703.113	0.0179514
703.192	0.0180318
703.270	0.0180639
703.348	0.0180825
703.426	0.0181348
703.504	0.0179902
703.582	0.0179918
703.660	0.0181429
703.738	0.0181073
703.817	0.0180357
703.895	0.0182520
703.973	0.0181020
704.051	0.0181804
704.129	0.0181287
704.207	0.0180827
704.285	0.0180762
704.363	0.0181915
704.442	0.0182047
704.520	0.0181322
704.598	0.0181569
704.676	0.0181253
704.754	0.0183176
704.832	0.0181750
704.910	0.0181735
704.988	0.0183130
705.067	0.0181552
705.145	0.0180663
705.223	0.0182168
705.301	0.0180999
705.379	0.0179636
705.457	0.0180473
705.535	0.0179685
705.613	0.0179568
705.692	0.0177777
705.770	0.0179639
705.848	0.0178625
705.926	0.0176670
706.004	0.0176955
706.082	0.0177226
706.160	0.0178695
706.238	0.0176654
706.317	0.0177745
706.395	0.0177497
706.473	0.0178207
706.551	0.0178142
706.629	0.0178017
706.707	0.0178850
706.785	0.0178432
706.863	0.0178098
706.942	0.0177628
707.020	0.0177560
707.098	0.0177599
707.176	0.0177274
707.254	0.0178217
707.332	0.0178285
707.410	0.0178476
707.488	0.0178626
707.567	0.0177753
707.645	0.0178969
707.723	0.0178417
707.801	0.0179101
707.879	0.0179253
707.957	0.0181095
708.035	0.0181109
708.113	0.0181994
708.192	0.0182618
708.270	0.0182723
708.348	0.0182040
708.426	0.0183288
708.504	0.0184003
708.582	0.0183342
708.660	0.0182841
708.738	0.0183548
708.817	0.0183618
708.895	0.0184000
708.973	0.0184286
709.051	0.0183215
709.129	0.0181596
709.207	0.0184079
709.285	0.0184429
709.363	0.0185110
709.442	0.0184633
709.520	0.0182392
709.598	0.0184660
709.676	0.0184319
709.754	0.0185462
709.832	0.0184256
709.910	0.0184821
709.988	0.0184236
710.067	0.0182855
710.145	0.0183227
710.223	0.0183090
710.301	0.0183688
710.379	0.0181117
710.457	0.0180600
710.535	0.0180550
710.613	0.0180164
710.692	0.0178234
710.770	0.0179491
710.848	0.0178677
710.926	0.0178713
711.004	0.0176330
711.082	0.0176248
711.160	0.0174912
711.238	0.0176339
711.317	0.0176361
711.395	0.0174117
711.473	0.0175112
711.551	0.0175316
711.629	0.0174861
711.707	0.0175561
711.785	0.0175180
711.863	0.0175314
711.942	0.0176437
712.020	0.0176306
712.098	0.0177061
712.176	0.0178133
712.254	0.0178698
712.332	0.0179848
712.410	0.0180752
712.488	0.0179137
712.567	0.0180647
712.645	0.0182740
712.723	0.0181216
712.801	0.0181886
712.879	0.0183078
712.957	0.0182963
713.035	0.0183617
713.113	0.0184109
713.192	0.0184286
713.270	0.0183456
713.348	0.0183150
713.426	0.0182195
713.504	0.0184776
713.582	0.0183840
713.660	0.0181977
713.738	0.0182597
713.817	0.0182552
713.895	0.0183228
713.973	0.0183077
714.051	0.0181839
714.129	0.0183739
714.207	0.0183871
714.285	0.0183094
714.363	0.0181760
714.442	0.0181541
714.520	0.0181913
714.598	0.0181441
714.676	0.0181963
714.754	0.0181635
714.832	0.0182084
714.910	0.0179951
714.988	0.0179016
715.067	0.0179646
715.145	0.0179091
715.223	0.0178226
715.301	0.0178855
715.379	0.0178010
715.457	0.0180407
715.535	0.0178741
715.613	0.0179625
715.692	0.0180194
715.770	0.0178564
715.848	0.0178436
715.926	0.0180508
716.004	0.0179506
716.082	0.0178490
716.160	0.0180022
716.238	0.0180541
716.317	0.0179097
716.395	0.0178874
716.473	0.0177434
716.551	0.0178672
716.629	0.0178819
716.707	0.0177869
716.785	0.0176258
716.863	0.0174459
716.942	0.0176110
717.020	0.0175838
717.098	0.0173972
717.176	0.0173001
717.254	0.0172942
717.332	0.0172331
717.410	0.0172049
717.488	0.0171364
717.567	0.0173794
717.645	0.0173832
717.723	0.0173349
717.801	0.0173807
717.879	0.0174551
717.957	0.0174714
718.035	0.0175243
718.113	0.0176278
718.192	0.0175767
718.270	0.0176892
718.348	0.0177272
718.426	0.0178240
718.504	0.0179279
718.582	0.0178952
718.660	0.0180251
718.738	0.0181677
718.817	0.0181023
718.895	0.0181361
718.973	0.0182392
719.051	0.0181625
719.129	0.0181932
719.207	0.0181539
719.285	0.0181716
719.363	0.0181361
719.442	0.0181451
719.520	0.0180189
719.598	0.0181766
719.676	0.0181241
719.754	0.0181524
719.832	0.0181760
719.910	0.0180820
719.988	0.0182858
720.067	0.0183556
720.145	0.0184124
720.223	0.0184370
720.301	0.0182304
720.379	0.0182996
720.457	0.0184267
720.535	0.0182034
720.613	0.0180917
720.692	0.0180555
720.770	0.0179449
720.848	0.0179638
720.926	0.0179179
721.004	0.0177349
721.082	0.0177757
721.160	0.0177134
721.238	0.0177283
721.317	0.0176905
721.395	0.0177305
721.473	0.0176651
721.551	0.0177558
721.629	0.0176879
721.707	0.0178795
721.785	0.0178550
721.863	0.0178217
721.942	0.0179224
722.020	0.0179993
722.098	0.0181436
722.176	0.0181097
722.254	0.0181260
722.332	0.0181384
722.410	0.0182052
722.488	0.0179633
722.567	0.0181460
722.645	0.0181181
722.723	0.0180309
722.801	0.0181970
722.879	0.0179616
722.957	0.0179578
723.035	0.0179203
723.113	0.0179341
723.192	0.0177558
723.270	0.0177528
723.348	0.0177396
723.426	0.0176920
723.504	0.0177354
723.582	0.0176708
723.660	0.0178084
723.738	0.0177177
723.817	0.0175587
723.895	0.0175602
723.973	0.0176076
724.051	0.0177197
724.129	0.0177202
724.207	0.0176828
724.285	0.0177642
724.363	0.0178422
724.442	0.0178748
724.520	0.0180149
724.598	0.0179631
724.676	0.0181327
724.754	0.0180791
724.832	0.0182712
724.910	0.0181699
724.988	0.0181018
725.067	0.0182512
725.145	0.0182047
725.223	0.0181304
725.301	0.0182758
725.379	0.0179508
725.457	0.0181296
725.535	0.0181041
725.613	0.0180336
725.692	0.0180621
725.770	0.0179484
725.848	0.0179356
725.926	0.0179918
726.004	0.0179333
726.082	0.0178152
726.160	0.0179751
726.238	0.0178511
726.317	0.0178381
726.395	0.0179317
726.473	0.0178350
726.551	0.0177708
726.629	0.0178589
726.707	0.0178719
726.785	0.0178537
726.863	0.0180300
726.942	0.0181236
727.020	0.0179421
727.098	0.0178605
727.176	0.0178512
727.254	0.0177723
727.332	0.0178438
727.410	0.0178900
727.488	0.0177937
727.567	0.0178631
727.645	0.0177574
727.723	0.0177532
727.801	0.0178501
727.879	0.0178348
727.957	0.0177706
728.035	0.0178808
728.113	0.0178451
728.192	0.0177134
728.270	0.0180258
728.348	0.0178328
728.426	0.0178553
728.504	0.0179041
728.582	0.0180125
728.660	0.0178437
728.738	0.0180176
728.817	0.0181067
728.895	0.0179302
728.973	0.0179584
729.051	0.0180743
729.129	0.0180083
729.207	0.0180688
729.285	0.0181297
729.363	0.0181142
729.442	0.0179997
729.520	0.0180905
729.598	0.0180009
729.676	0.0178441
729.754	0.0178442
729.832	0.0178402
729.910	0.0177795
729.988	0.0179038
730.067	0.0178136
730.145	0.0176577
730.223	0.0177653
730.301	0.0178699
730.379	0.0176568
730.457	0.0177114
730.535	0.0177744
730.613	0.0177283
730.692	0.0176615
730.770	0.0177157
730.848	0.0177108
730.926	0.0176688
731.004	0.0178206
731.082	0.0176686
731.160	0.0177943
731.238	0.0179693
731.317	0.0178321
731.395	0.0179402
731.473	0.0181065
731.551	0.0180097
731.629	0.0179859
731.707	0.0180132
731.785	0.0182277
731.863	0.0181634
731.942	0.0181367
732.020	0.0182166
732.098	0.0181825
732.176	0.0182510
732.254	0.0183224
732.332	0.0184184
732.410	0.0182367
732.488	0.0182973
732.567	0.0181590
732.645	0.0181769
732.723	0.0183129
732.801	0.0183955
732.879	0.0183080
732.957	0.0181361
733.035	0.0182291
733.113	0.0183135
733.192	0.0183498
733.270	0.0182422
733.348	0.0182510
733.426	0.0184010
733.504	0.0183456
733.582	0.0183315
733.660	0.0183045
733.738	0.0182142
733.817	0.0183153
733.895	0.0185278
733.973	0.0184654
734.051	0.0183813
734.129	0.0183637
734.207	0.0182792
734.285	0.0183348
734.363	0.0184007
734.442	0.0182467
734.520	0.0181025
734.598	0.0180630
734.676	0.0179903
734.754	0.0179812
734.832	0.0179103
734.910	0.0178055
734.988	0.0178299
735.067	0.0177796
735.145	0.0177651
735.223	0.0176983
735.301	0.0174856
735.379	0.0175814
735.457	0.0176340
735.535	0.0175156
735.613	0.0176086
735.692	0.0174417
735.770	0.0174586
735.848	0.0176813
735.926	0.0175917
736.004	0.0176196
736.082	0.0174251
736.160	0.0175805
736.238	0.0174783
736.317	0.0174677
736.395	0.0175235
736.473	0.0173595
736.551	0.0174577
736.629	0.0175592
736.707	0.0175169
736.785	0.0173952
736.863	0.0177047
736.942	0.0177069
737.020	0.0176331
737.098	0.0177070
737.176	0.0177449
737.254	0.0177441
737.332	0.0178049
737.410	0.0177319
737.488	0.0177780
737.567	0.0178430
737.645	0.0179970
737.723	0.0178427
737.801	0.0178386
737.879	0.0178426
737.957	0.0181112
738.035	0.0180708
738.113	0.0179282
738.192	0.0179305
738.270	0.0179384
738.348	0.0180669
738.426	0.0180830
738.504	0.0182118
738.582	0.0181387
738.660	0.0181016
738.738	0.0181258
738.817	0.0182274
738.895	0.0183258
738.973	0.0182198
739.051	0.0182447
739.129	0.0181932
739.207	0.0181799
739.285	0.0179855
739.363	0.0180658
739.442	0.0179922
739.520	0.0180242
739.598	0.0180914
739.676	0.0178954
739.754	0.0180080
739.832	0.0179981
739.910	0.0178585
739.988	0.0178927
740.067	0.0180160
740.145	0.0179819
740.223	0.0177268
740.301	0.0178737
740.379	0.0179768
740.457	0.0178991
740.535	0.0178738
740.613	0.0179533
740.692	0.0177400
740.770	0.0176881
740.848	0.0178409
740.926	0.0178500
741.004	0.0178033
741.082	0.0176717
741.160	0.0176929
741.238	0.0177599
741.317	0.0174319
741.395	0.0176173
741.473	0.0175271
741.551	0.0174839
741.629	0.0175478
741.707	0.0176096
741.785	0.0175505
741.863	0.0173564
741.942	0.0173811
742.020	0.0173059
742.098	0.0174157
742.176	0.0175570
742.254	0.0174337
742.332	0.0174560
742.410	0.0175258
742.488	0.0175420
742.567	0.0176079
742.645	0.0176022
742.723	0.0175826
742.801	0.0176860
742.879	0.0177428
742.957	0.0177945
743.035	0.0178084
743.113	0.0178786
743.192	0.0178662
743.270	0.0177976
743.348	0.0178493
743.426	0.0179474
743.504	0.0179653
743.582	0.0177323
743.660	0.0179148
743.738	0.0179076
743.817	0.0178947
743.895	0.0178727
743.973	0.0178017
744.051	0.0177840
744.129	0.0179020
744.207	0.0179916
744.285	0.0180301
744.363	0.0179623
744.442	0.0178825
744.520	0.0181283
744.598	0.0181526
744.676	0.0180215
744.754	0.0180166
744.832	0.0180473
744.910	0.0181683
744.988	0.0182520
745.067	0.0181504
745.145	0.0181119
745.223	0.0182104
745.301	0.0182517
745.379	0.0184203
745.457	0.0183118
745.535	0.0182988
745.613	0.0182652
745.692	0.0185597
745.770	0.0185357
745.848	0.0183830
745.926	0.0182390
746.004	0.0183533
746.082	0.0183531
746.160	0.0182190
746.238	0.0181023
746.317	0.0182485
746.395	0.0181979
746.473	0.0182748
746.551	0.0181477
746.629	0.0181930
746.707	0.0179536
746.785	0.0180802
746.863	0.0181535
746.942	0.0180741
747.020	0.0179546
747.098	0.0180003
747.176	0.0181934
747.254	0.0180378
747.332	0.0179539
747.410	0.0180676
747.488	0.0181103
747.567	0.0180456
747.645	0.0180811
747.723	0.0181496
747.801	0.0180351
747.879	0.0179304
747.957	0.0178528
748.035	0.0178128
748.113	0.0178028
748.192	0.0177209
748.270	0.0175990
748.348	0.0176118
748.426	0.0176882
748.504	0.0175894
748.582	0.0175846
748.660	0.0174554
748.738	0.0175538
748.817	0.0174529
748.895	0.0173875
748.973	0.0172927
749.051	0.0173826
749.129	0.0173549
749.207	0.0173417
749.285	0.0174220
749.363	0.0173328
749.442	0.0174610
749.520	0.0173417
749.598	0.0174349
749.676	0.0172929
749.754	0.0174067
749.832	0.0173753
749.910	0.0175446
749.988	0.0174169
750.067	0.0174488
750.145	0.0176896
750.223	0.0176566
750.301	0.0178823
750.379	0.0178089
750.457	0.0177905
750.535	0.0179115
750.613	0.0178910
750.692	0.0179557
750.770	0.0179335
750.848	0.0180327
750.926	0.0178804
751.004	0.0178603
751.082	0.0180066
751.160	0.0177319
751.238	0.0178279
751.317	0.0179301
751.395	0.0178313
751.473	0.0178192
751.551	0.0177551
751.629	0.0177617
751.707	0.0178345
751.785	0.0178545
751.863	0.0180844
751.942	0.0179016
752.020	0.0178704
752.098	0.0181380
752.176	0.0179849
752.254	0.0180907
752.332	0.0182301
752.410	0.0180996
752.488	0.0182285
752.567	0.0182925
752.645	0.0181814
752.723	0.0181857
752.801	0.0182223
752.879	0.0182185
752.957	0.0181153
753.035	0.0180791
753.113	0.0180980
753.192	0.0181593
753.270	0.0180040
753.348	0.0179583
753.426	0.0180057
753.504	0.0180634
753.582	0.0180253
753.660	0.0180338
753.738	0.0180185
753.817	0.0180410
753.895	0.0179612
753.973	0.0178953
754.051	0.0178822
754.129	0.0181483
754.207	0.0181723
754.285	0.0179916
754.363	0.0179219
754.442	0.0180288
754.520	0.0179788
754.598	0.0179857
754.676	0.0179095
754.754	0.0179424
754.832	0.0180397
754.910	0.0179691
754.988	0.0179070
755.067	0.0178751
755.145	0.0177930
755.223	0.0176723
755.301	0.0179520
755.379	0.0178314
755.457	0.0176888
755.535	0.0176497
755.613	0.0176328
755.692	0.0176140
755.770	0.0175846
755.848	0.0176222
755.926	0.0176353
756.004	0.0175150
756.082	0.0175790
756.160	0.0175423
756.238	0.0175439
756.317	0.0176285
756.395	0.0175773
756.473	0.0175899
756.551	0.0176027
756.629	0.0176228
756.707	0.0176075
756.785	0.0175877
756.863	0.0177319
756.942	0.0175955
757.020	0.0175590
757.098	0.0176247
757.176	0.0174993
757.254	0.0176318
757.332	0.0176684
757.410	0.0176830
757.488	0.0177062
757.567	0.0174860
757.645	0.0174805
757.723	0.0175674
757.801	0.0175120
757.879	0.0174940
757.957	0.0174979
758.035	0.0177064
758.113	0.0174361
758.192	0.0175339
758.270	0.0176077
758.348	0.0176202
758.426	0.0176276
758.504	0.0175521
758.582	0.0178442
758.660	0.0176845
758.738	0.0176719
758.817	0.0177929
758.895	0.0177996
758.973	0.0176889
759.051	0.0177219
759.129	0.0177928
759.207	0.0176462
759.285	0.0178321
759.363	0.0177033
759.442	0.0177557
759.520	0.0177319
759.598	0.0177930
759.676	0.0177970
759.754	0.0178677
759.832	0.0177837
759.910	0.0177708
759.988	0.0177368
760.067	0.0178222
760.145	0.0179769
760.223	0.0178155
760.301	0.0179066
760.379	0.0177740
760.457	0.0178995
760.535	0.0178992
760.613	0.0179218
760.692	0.0179015
760.770	0.0178018
760.848	0.0177772
760.926	0.0178086
761.004	0.0177846
761.082	0.0178708
761.160	0.0177597
761.238	0.0177822
761.317	0.0176900
761.395	0.0178680
761.473	0.0177428
761.551	0.0177187
761.629	0.0176421
761.707	0.0178145
761.785	0.0178541
761.863	0.0178356
761.942	0.0177626
762.020	0.0177116
762.098	0.0177409
762.176	0.0176829
762.254	0.0177036
762.332	0.0177740
762.410	0.0178790
762.488	0.0177651
762.567	0.0176646
762.645	0.0177076
762.723	0.0177788
762.801	0.0176286
762.879	0.0175795
762.957	0.0177211
763.035	0.0176875
763.113	0.0175855
763.192	0.0176430
763.270	0.0177232
763.348	0.0176939
763.426	0.0177135
763.504	0.0177837
763.582	0.0178079
763.660	0.0177951
763.738	0.0180021
763.817	0.0178693
763.895	0.0180534
763.973	0.0179745
764.051	0.0180022
764.129	0.0180359
764.207	0.0181115
764.285	0.0181426
764.363	0.0181396
764.442	0.0181752
764.520	0.0181541
764.598	0.0181477
764.676	0.0180386
764.754	0.0181118
764.832	0.0181829
764.910	0.0181484
764.988	0.0180309
765.067	0.0180155
765.145	0.0180596
765.223	0.0181365
765.301	0.0180475
765.379	0.0181374
765.457	0.0181438
765.535	0.0180847
765.613	0.0180857
765.692	0.0182555
765.770	0.0180438
765.848	0.0181103
765.926	0.0182092
766.004	0.0181556
766.082	0.0181924
766.160	0.0181365
766.238	0.0183200
766.317	0.0182788
766.395	0.0182693
766.473	0.0182841
766.551	0.0182307
766.629	0.0182249
766.707	0.0182065
766.785	0.0181850
766.863	0.0182793
766.942	0.0183074
767.020	0.0182729
767.098	0.0182331
767.176	0.0181525
767.254	0.0180992
767.332	0.0181576
767.410	0.0181613
767.488	0.0181538
767.567	0.0181628
767.645	0.0181825
767.723	0.0181791
767.801	0.0180803
767.879	0.0179716
767.957	0.0179415
768.035	0.0180448
768.113	0.0180412
768.192	0.0178902
768.270	0.0179081
768.348	0.0178996
768.426	0.0179121
768.504	0.0178331
768.582	0.0178333
768.660	0.0178753
768.738	0.0176956
768.817	0.0177155
768.895	0.0177093
768.973	0.0176598
769.051	0.0176863
769.129	0.0177014
769.207	0.0176749
769.285	0.0175764
769.363	0.0175520
769.442	0.0177280
769.520	0.0177562
769.598	0.0176592
769.676	0.0177006
769.754	0.0177577
769.832	0.0177767
769.910	0.0178299
769.988	0.0176825
770.067	0.0177157
770.145	0.0176077
770.223	0.0175519
770.301	0.0176574
770.379	0.0175490
770.457	0.0176156
770.535	0.0176675
770.613	0.0178510
770.692	0.0177142
770.770	0.0177316
770.848	0.0178114
770.926	0.0176668
771.004	0.0178310
771.082	0.0179234
771.160	0.0179160
771.238	0.0178158
771.317	0.0178700
771.395	0.0179276
771.473	0.0181210
771.551	0.0180654
771.629	0.0180505
771.707	0.0179765
771.785	0.0179408
771.863	0.0179897
771.942	0.0180496
772.020	0.0178808
772.098	0.0179282
772.176	0.0179964
772.254	0.0181068
772.332	0.0180968
772.410	0.0181329
772.488	0.0181041
772.567	0.0180566
772.645	0.0181534
772.723	0.0181329
772.801	0.0182291
772.879	0.0181561
772.957	0.0181128
773.035	0.0182743
773.113	0.0181283
773.192	0.0179523
773.270	0.0180585
773.348	0.0181156
773.426	0.0181456
773.504	0.0180669
773.582	0.0180549
773.660	0.0179512
773.738	0.0181033
773.817	0.0179678
773.895	0.0179050
773.973	0.0178944
774.051	0.0177847
774.129	0.0178821
774.207	0.0178034
774.285	0.0178499
774.363	0.0177911
774.442	0.0177548
774.520	0.0178551
774.598	0.0178319
774.676	0.0177523
774.754	0.0178197
774.832	0.0177875
774.910	0.0177265
774.988	0.0177380
775.067	0.0176753
775.145	0.0177277
775.223	0.0178260
775.301	0.0177272
775.379	0.0178713
775.457	0.0178665
775.535	0.0178077
775.613	0.0177659
775.692	0.0177944
775.770	0.0178738
775.848	0.0178777
775.926	0.0178163
776.004	0.0177330
776.082	0.0178651
776.160	0.0178031
776.238	0.0178020
776.317	0.0178581
776.395	0.0178230
776.473	0.0177541
776.551	0.0179615
776.629	0.0178365
776.707	0.0179136
776.785	0.0179807
776.863	0.0178183
776.942	0.0178289
777.020	0.0179301
777.098	0.0179311
777.176	0.0179254
777.254	0.0179975
777.332	0.0180286
777.410	0.0179380
777.488	0.0179844
777.567	0.0181061
777.645	0.0180363
777.723	0.0180542
777.801	0.0180979
777.879	0.0180718
777.957	0.0183408
778.035	0.0182394
778.113	0.0180223
778.192	0.0180934
778.270	0.0180912
778.348	0.0181052
778.426	0.0181139
778.504	0.0181618
778.582	0.0179585
778.660	0.0178516
778.738	0.0178489
778.817	0.0177452
778.895	0.0179014
778.973	0.0179156
779.051	0.0178504
779.129	0.0177697
779.207	0.0177924
779.285	0.0177055
779.363	0.0176863
779.442	0.0177432
779.520	0.0177237
779.598	0.0176933
779.676	0.0177673
779.754	0.0175914
779.832	0.0174431
779.910	0.0175692
779.988	0.0176612
780.067	0.0176380
780.145	0.0174602
780.223	0.0174708
780.301	0.0174644
780.379	0.0173618
780.457	0.0172150
780.535	0.0174022
780.613	0.0173991
780.692	0.0172819
780.770	0.0172135
780.848	0.0173394
780.926	0.0173685
781.004	0.0172437
781.082	0.0172922
781.160	0.0173845
781.238	0.0175064
781.317	0.0174535
781.395	0.0175264
781.473	0.0174478
781.551	0.0174435
781.629	0.0177625
781.707	0.0176004
781.785	0.0176810
781.863	0.0177144
781.942	0.0177549
782.020	0.0177061
782.098	0.0178090
782.176	0.0179162
782.254	0.0178905
782.332	0.0178543
782.410	0.0178112
782.488	0.0179227
782.567	0.0178765
782.645	0.0179150
782.723	0.0179691
782.801	0.0180302
782.879	0.0180056
782.957	0.0180688
783.035	0.0179566
783.113	0.0180292
783.192	0.0181017
783.270	0.0179918
783.348	0.0180745
783.426	0.0180818
783.504	0.0181470
783.582	0.0181180
783.660	0.0180344
783.738	0.0181038
783.817	0.0180403
783.895	0.0179884
783.973	0.0180795
784.051	0.0179945
784.129	0.0179670
784.207	0.0178658
784.285	0.0176804
784.363	0.0178244
784.442	0.0178406
784.520	0.0177726
784.598	0.0177815
784.676	0.0177152
784.754	0.0177747
784.832	0.0178852
784.910	0.0178258
784.988	0.0179190
785.067	0.0177282
785.145	0.0178613
785.223	0.0178020
785.301	0.0178620
785.379	0.0178277
785.457	0.0179360
785.535	0.0178513
785.613	0.0177137
785.692	0.0179195
785.770	0.0178307
785.848	0.0178735
785.926	0.0178007
786.004	0.0178448
786.082	0.0178959
786.160	0.0178445
786.238	0.0178069
786.317	0.0179552
786.395	0.0178560
786.473	0.0178856
786.551	0.0180106
786.629	0.0179858
786.707	0.0180151
786.785	0.0180113
786.863	0.0180069
786.942	0.0180301
787.020	0.0180536
787.098	0.0180791
787.176	0.0180761
787.254	0.0181023
787.332	0.0181709
787.410	0.0182030
787.488	0.0180712
787.567	0.0180602
787.645	0.0180343
787.723	0.0180902
787.801	0.0180845
787.879	0.0180606
787.957	0.0180072
788.035	0.0181153
788.113	0.0183034
788.192	0.0181002
788.270	0.0180472
788.348	0.0181413
788.426	0.0181612
788.504	0.0181383
788.582	0.0182161
788.660	0.0182140
788.738	0.0182466
788.817	0.0182082
788.895	0.0182126
788.973	0.0182995
789.051	0.0182624
789.129	0.0181921
789.207	0.0183488
789.285	0.0183260
789.363	0.0184034
789.442	0.0183488
789.520	0.0184714
789.598	0.0184502
789.676	0.0183538
789.754	0.0182132
789.832	0.0183408
789.910	0.0182863
789.988	0.0183150
790.067	0.0182311
790.145	0.0183764
790.223	0.0184416
790.301	0.0183361
790.379	0.0184308
790.457	0.0184702
790.535	0.0183787
790.613	0.0183015
790.692	0.0185278
790.770	0.0183975
790.848	0.0184045
790.926	0.0183991
791.004	0.0182262
791.082	0.0182705
791.160	0.0182930
791.238	0.0183113
791.317	0.0181302
791.395	0.0182490
791.473	0.0180642
791.551	0.0181146
791.629	0.0179743
791.707	0.0179751
791.785	0.0180033
791.863	0.0179342
791.942	0.0178415
792.020	0.0179123
792.098	0.0178350
792.176	0.0177921
792.254	0.0178356
792.332	0.0177862
792.410	0.0178813
792.488	0.0178601
792.567	0.0176765
792.645	0.0177585
792.723	0.0177014
792.801	0.0178622
792.879	0.0178159
792.957	0.0179202
793.035	0.0178943
793.113	0.0178191
793.192	0.0178851
793.270	0.0179140
793.348	0.0177772
793.426	0.0179475
793.504	0.0179652
793.582	0.0177280
793.660	0.0178389
793.738	0.0178506
793.817	0.0179999
793.895	0.0178266
793.973	0.0179922
794.051	0.0178699
794.129	0.0179025
794.207	0.0178275
794.285	0.0179529
794.363	0.0179575
794.442	0.0179564
794.520	0.0178021
794.598	0.0180677
794.676	0.0179259
794.754	0.0179080
794.832	0.0178989
794.910	0.0179900
794.988	0.0178658
795.067	0.0178046
795.145	0.0178367
795.223	0.0178518
795.301	0.0178265
795.379	0.0178008
795.457	0.0177759
795.535	0.0179146
795.613	0.0178326
795.692	0.0177749
795.770	0.0178515
795.848	0.0177203
795.926	0.0177363
796.004	0.0178167
796.082	0.0175906
796.160	0.0177548
796.238	0.0178320
796.317	0.0178041
796.395	0.0178129
796.473	0.0177512
796.551	0.0177383
796.629	0.0176023
796.707	0.0177587
796.785	0.0179005
796.863	0.0178703
796.942	0.0176776
797.020	0.0177715
797.098	0.0178228
797.176	0.0178506
797.254	0.0177811
797.332	0.0176885
797.410	0.0177912
797.488	0.0177119
797.567	0.0177533
797.645	0.0177766
797.723	0.0178117
797.801	0.0178422
797.879	0.0178419
797.957	0.0177528
798.035	0.0178234
798.113	0.0178731
798.192	0.0177667
798.270	0.0177654
798.348	0.0176308
798.426	0.0176803
798.504	0.0178030
798.582	0.0177159
798.660	0.0175045
798.738	0.0176246
798.817	0.0176408
798.895	0.0176342
798.973	0.0177797
799.051	0.0175986
799.129	0.0176984
799.207	0.0177782
799.285	0.0176506
799.363	0.0174805
799.442	0.0176428
799.520	0.0175245
799.598	0.0176125
799.676	0.0176208
799.754	0.0175895
799.832	0.0178178
799.910	0.0177222
799.988	0.0176120
800.067	0.0176739
800.145	0.0175612
800.223	0.0177033
800.301	0.0176534
800.379	0.0175686
800.457	0.0176845
800.535	0.0178036
800.613	0.0178420
800.692	0.0178085
800.770	0.0178246
800.848	0.0177267
800.926	0.0177682
801.004	0.0176620
801.082	0.0178158
801.160	0.0179443
801.238	0.0178945
801.317	0.0179310
801.395	0.0179646
801.473	0.0178219
801.551	0.0178467
801.629	0.0180798
801.707	0.0180370
801.785	0.0180887
801.863	0.0180534
801.942	0.0180234
802.020	0.0182276
802.098	0.0182130
802.176	0.0181459
802.254	0.0181165
802.332	0.0181614
802.410	0.0180162
802.488	0.0181747
802.567	0.0180540
802.645	0.0180993
802.723	0.0182919
802.801	0.0180839
802.879	0.0181058
802.957	0.0181793
803.035	0.0182548
803.113	0.0180640
803.192	0.0180307
803.270	0.0180499
803.348	0.0180857
803.426	0.0181502
803.504	0.0181117
803.582	0.0180403
803.660	0.0180257
803.738	0.0180763
803.817	0.0181223
803.895	0.0180077
803.973	0.0181136
804.051	0.0180679
804.129	0.0180702
804.207	0.0179238
804.285	0.0179528
804.363	0.0181542
804.442	0.0181578
804.520	0.0179523
804.598	0.0180125
804.676	0.0180543
804.754	0.0181161
804.832	0.0180307
804.910	0.0181136
804.988	0.0182307
805.067	0.0179700
805.145	0.0180646
805.223	0.0181126
805.301	0.0180984
805.379	0.0180450
805.457	0.0181191
805.535	0.0182220
805.613	0.0182226
805.692	0.0181166
805.770	0.0180482
805.848	0.0181328
805.926	0.0181606
806.004	0.0180464
806.082	0.0181593
806.160	0.0180584
806.238	0.0180323
806.317	0.0180166
806.395	0.0179967
806.473	0.0180396
806.551	0.0180082
806.629	0.0177789
806.707	0.0178043
806.785	0.0176842
806.863	0.0179048
806.942	0.0179132
807.020	0.0178006
807.098	0.0175999
807.176	0.0174916
807.254	0.0174979
807.332	0.0175121
807.410	0.0174024
807.488	0.0174593
807.567	0.0174496
807.645	0.0175023
807.723	0.0174660
807.801	0.0172714
807.879	0.0174098
807.957	0.0173608
808.035	0.0174216
808.113	0.0174019
808.192	0.0173773
808.270	0.0174242
808.348	0.0174765
808.426	0.0173991
808.504	0.0175058
808.582	0.0173434
808.660	0.0174329
808.738	0.0174837
808.817	0.0175086
808.895	0.0175881
808.973	0.0175877
809.051	0.0176057
809.129	0.0177844
809.207	0.0175226
809.285	0.0176337
809.363	0.0177955
809.442	0.0178368
809.520	0.0179974
809.598	0.0178328
809.676	0.0178918
809.754	0.0179122
809.832	0.0178959
809.910	0.0179839
809.988	0.0179453
810.067	0.0180727
810.145	0.0180874
810.223	0.0180369
810.301	0.0180568
810.379	0.0179984
810.457	0.0180330
810.535	0.0180408
810.613	0.0180089
810.692	0.0181168
810.770	0.0179265
810.848	0.0182205
810.926	0.0181532
811.004	0.0182192
811.082	0.0183055
811.160	0.0183568
811.238	0.0183945
811.317	0.0184068
811.395	0.0184191
811.473	0.0184058
811.551	0.0184783
811.629	0.0184989
811.707	0.0183531
811.785	0.0186056
811.863	0.0185772
811.942	0.0185336
812.020	0.0186385
812.098	0.0185917
812.176	0.0185001
812.254	0.0185133
812.332	0.0184679
812.410	0.0184397
812.488	0.0185346
812.567	0.0184365
812.645	0.0184097
812.723	0.0183364
812.801	0.0181953
812.879	0.0183555
812.957	0.0183988
813.035	0.0183198
813.113	0.0182845
813.192	0.0182343
813.270	0.0182969
813.348	0.0182188
813.426	0.0181763
813.504	0.0180426
813.582	0.0180862
813.660	0.0180613
813.738	0.0179636
813.817	0.0180540
813.895	0.0180518
813.973	0.0178150
814.051	0.0179317
814.129	0.0180702
814.207	0.0180026
814.285	0.0178983
814.363	0.0179836
814.442	0.0178847
814.520	0.0178495
814.598	0.0180411
814.676	0.0178190
814.754	0.0178510
814.832	0.0178976
814.910	0.0179227
814.988	0.0179395
815.067	0.0179552
815.145	0.0178078
815.223	0.0179308
815.301	0.0179794
815.379	0.0179834
815.457	0.0178365
815.535	0.0179415
815.613	0.0180191
815.692	0.0178188
815.770	0.0177126
815.848	0.0179430
815.926	0.0179346
816.004	0.0179221
816.082	0.0177975
816.160	0.0177440
816.238	0.0178023
816.317	0.0178245
816.395	0.0178593
816.473	0.0177994
816.551	0.0177641
816.629	0.0177693
816.707	0.0177589
816.785	0.0177522
816.863	0.0178960
816.942	0.0178118
817.020	0.0177142
817.098	0.0178544
817.176	0.0177927
817.254	0.0177862
817.332	0.0179969
817.410	0.0179034
817.488	0.0178850
817.567	0.0178824
817.645	0.0180324
817.723	0.0179736
817.801	0.0179472
817.879	0.0178891
817.957	0.0178879
818.035	0.0179001
818.113	0.0180547
818.192	0.0180047
818.270	0.0178294
818.348	0.0178892
818.426	0.0179003
818.504	0.0178844
818.582	0.0178268
818.660	0.0178553
818.738	0.0177772
818.817	0.0178105
818.895	0.0179131
818.973	0.0178482
819.051	0.0177675
819.129	0.0177261
819.207	0.0177748
819.285	0.0176706
819.363	0.0177443
819.442	0.0178394
819.520	0.0177428
819.598	0.0177505
819.676	0.0178226
819.754	0.0177570
819.832	0.0177551
819.910	0.0176455
819.988	0.0177252
820.067	0.0178432
820.145	0.0177464
820.223	0.0178674
820.301	0.0176477
820.379	0.0175845
820.457	0.0176172
820.535	0.0176110
820.613	0.0175742
820.692	0.0176598
820.770	0.0175344
820.848	0.0175697
820.926	0.0176112
821.004	0.0175541
821.082	0.0177196
821.160	0.0178484
821.238	0.0176512
821.317	0.0176726
821.395	0.0178010
821.473	0.0178476
821.551	0.0177000
821.629	0.0177972
821.707	0.0179266
821.785	0.0177449
821.863	0.0177702
821.942	0.0178494
822.020	0.0179033
822.098	0.0179124
822.176	0.0179506
822.254	0.0180159
822.332	0.0179108
822.410	0.0178804
822.488	0.0178818
822.567	0.0179667
822.645	0.0180442
822.723	0.0180167
822.801	0.0179749
822.879	0.0180291
822.957	0.0180894
823.035	0.0180135
823.113	0.0181332
823.192	0.0179739
823.270	0.0180277
823.348	0.0179861
823.426	0.0179044
823.504	0.0179947
823.582	0.0180578
823.660	0.0179926
823.738	0.0178614
823.817	0.0179128
823.895	0.0179588
823.973	0.0180204
824.051	0.0180211
824.129	0.0180965
824.207	0.0180228
824.285	0.0180212
824.363	0.0181406
824.442	0.0181731
824.520	0.0180327
824.598	0.0182131
824.676	0.0182366
824.754	0.0181097
824.832	0.0182194
824.910	0.0183088
824.988	0.0183629
825.067	0.0182771
825.145	0.0183578
825.223	0.0183286
825.301	0.0183268
825.379	0.0183751
825.457	0.0182883
825.535	0.0183317
825.613	0.0184872
825.692	0.0183978
825.770	0.0181691
825.848	0.0183675
825.926	0.0182571
826.004	0.0182064
826.082	0.0182986
826.160	0.0181822
826.238	0.0180423
826.317	0.0181200
826.395	0.0182393
826.473	0.0181236
826.551	0.0180601
826.629	0.0179552
826.707	0.0178740
826.785	0.0179849
826.863	0.0178806
826.942	0.0179352
827.020	0.0178583
827.098	0.0177504
827.176	0.0178707
827.254	0.0178408
827.332	0.0178100
827.410	0.0176608
827.488	0.0176864
827.567	0.0176305
827.645	0.0176330
827.723	0.0177029
827.801	0.0178096
827.879	0.0176244
827.957	0.0176541
828.035	0.0176198
828.113	0.0177023
828.192	0.0177511
828.270	0.0177309
828.348	0.0176044
828.426	0.0177427
828.504	0.0177766
828.582	0.0178842
828.660	0.0178674
828.738	0.0177827
828.817	0.0177822
828.895	0.0178467
828.973	0.0178738
829.051	0.0177264
829.129	0.0178764
829.207	0.0177585
829.285	0.0178267
829.363	0.0178687
829.442	0.0177931
829.520	0.0179227
829.598	0.0180064
829.676	0.0179136
829.754	0.0178600
829.832	0.0178230
829.910	0.0178439
829.988	0.0178568
830.067	0.0180415
830.145	0.0179139
830.223	0.0178595
830.301	0.0179678
830.379	0.0180895
830.457	0.0179810
830.535	0.0180318
830.613	0.0178873
830.692	0.0180643
830.770	0.0178494
830.848	0.0179624
830.926	0.0179865
831.004	0.0179725
831.082	0.0177935
831.160	0.0177833
831.238	0.0177954
831.317	0.0177847
831.395	0.0177288
831.473	0.0178719
831.551	0.0177271
831.629	0.0176971
831.707	0.0176975
831.785	0.0175894
831.863	0.0176409
831.942	0.0176894
832.020	0.0177233
832.098	0.0176189
832.176	0.0178004
832.254	0.0177081
832.332	0.0176176
832.410	0.0177317
832.488	0.0177084
832.567	0.0177039
832.645	0.0177499
832.723	0.0178735
832.801	0.0179794
832.879	0.0178929
832.957	0.0178107
833.035	0.0178616
833.113	0.0179910
833.192	0.0179718
833.270	0.0179644
833.348	0.0179402
833.426	0.0180717
833.504	0.0180450
833.582	0.0179586
833.660	0.0180335
833.738	0.0181086
833.817	0.0180190
833.895	0.0180005
833.973	0.0181496
834.051	0.0180700
834.129	0.0180998
834.207	0.0181328
834.285	0.0180884
834.363	0.0181480
834.442	0.0180074
834.520	0.0181308
834.598	0.0181808
834.676	0.0181877
834.754	0.0181397
834.832	0.0181187
834.910	0.0182394
834.988	0.0183436
835.067	0.0181454
835.145	0.0181091
835.223	0.0180249
835.301	0.0180664
835.379	0.0181576
835.457	0.0180627
835.535	0.0181467
835.613	0.0182114
835.692	0.0179648
835.770	0.0179945
835.848	0.0180695
835.926	0.0181107
836.004	0.0179832
836.082	0.0180478
836.160	0.0179173
836.238	0.0179152
836.317	0.0179668
836.395	0.0178277
836.473	0.0178916
836.551	0.0179270
836.629	0.0180057
836.707	0.0178545
836.785	0.0177450
836.863	0.0177800
836.942	0.0178477
837.020	0.0179017
837.098	0.0178421
837.176	0.0178645
837.254	0.0178947
837.332	0.0178068
837.410	0.0178472
837.488	0.0177394
837.567	0.0177398
837.645	0.0177293
837.723	0.0177273
837.801	0.0176579
837.879	0.0176808
837.957	0.0177058
838.035	0.0176498
838.113	0.0177602
838.192	0.0176359
838.270	0.0177520
838.348	0.0177525
838.426	0.0175835
838.504	0.0175485
838.582	0.0177702
838.660	0.0177938
838.738	0.0176769
838.817	0.0175956
838.895	0.0175418
838.973	0.0175678
839.051	0.0177247
839.129	0.0177591
839.207	0.0175945
839.285	0.0174973
839.363	0.0175113
839.442	0.0175565
839.520	0.0175637
839.598	0.0175459
839.676	0.0175291
839.754	0.0174791
839.832	0.0176136
839.910	0.0175275
839.988	0.0175877
840.067	0.0177244
840.145	0.0175880
840.223	0.0175803
840.301	0.0177999
840.379	0.0177129
840.457	0.0177919
840.535	0.0177803
840.613	0.0177010
840.692	0.0177075
840.770	0.0178427
840.848	0.0178172
840.926	0.0179382
841.004	0.0178005
841.082	0.0178546
841.160	0.0180497
841.238	0.0178616
841.317	0.0178692
841.395	0.0178192
841.473	0.0178813
841.551	0.0179427
841.629	0.0179498
841.707	0.0179723
841.785	0.0180874
841.863	0.0180335
841.942	0.0181754
842.020	0.0178690
842.098	0.0179649
842.176	0.0179631
842.254	0.0180325
842.332	0.0179725
842.410	0.0180614
842.488	0.0181608
842.567	0.0179684
842.645	0.0179755
842.723	0.0181083
842.801	0.0180356
842.879	0.0181411
842.957	0.0181660
843.035	0.0180783
843.113	0.0181019
843.192	0.0181550
843.270	0.0181704
843.348	0.0181829
843.426	0.0181817
843.504	0.0179923
843.582	0.0181071
843.660	0.0182659
843.738	0.0181529
843.817	0.0181762
843.895	0.0181360
843.973	0.0180132
844.051	0.0183094
844.129	0.0182279
844.207	0.0181641
844.285	0.0181661
844.363	0.0180112
844.442	0.0180553
844.520	0.0181736
844.598	0.0181680
844.676	0.0181248
844.754	0.0180578
844.832	0.0181486
844.910	0.0181315
844.988	0.0180347
845.067	0.0179848
845.145	0.0180231
845.223	0.0179319
845.301	0.0179639
845.379	0.0181250
845.457	0.0178651
845.535	0.0179562
845.613	0.0178994
845.692	0.0177880
845.770	0.0179435
845.848	0.0178909
845.926	0.0179656
846.004	0.0178963
846.082	0.0179899
846.160	0.0179260
846.238	0.0180125
846.317	0.0179559
846.395	0.0180459
846.473	0.0179932
846.551	0.0179437
846.629	0.0179767
846.707	0.0180653
846.785	0.0179780
846.863	0.0180209
846.942	0.0181232
847.020	0.0181605
847.098	0.0180546
847.176	0.0179468
847.254	0.0179917
847.332	0.0179779
847.410	0.0179929
847.488	0.0178324
847.567	0.0178861
847.645	0.0180499
847.723	0.0179771
847.801	0.0179145
847.879	0.0180109
847.957	0.0180046
848.035	0.0179008
848.113	0.0179070
848.192	0.0180620
848.270	0.0179709
848.348	0.0179603
848.426	0.0178202
848.504	0.0179413
848.582	0.0179999
848.660	0.0179120
848.738	0.0180451
848.817	0.0179494
848.895	0.0180354
848.973	0.0181165
849.051	0.0179913
849.129	0.0180479
849.207	0.0180795
849.285	0.0181857
849.363	0.0180773
849.442	0.0181281
849.520	0.0180122
849.598	0.0181042
849.676	0.0179507
849.754	0.0180400
849.832	0.0180956
849.910	0.0179824
849.988	0.0180663
850.067	0.0179116
850.145	0.0180129
850.223	0.0178806
850.301	0.0180448
850.379	0.0179971
850.457	0.0178830
850.535	0.0180253
850.613	0.0179794
850.692	0.0180634
850.770	0.0178665
850.848	0.0179298
850.926	0.0177564
851.004	0.0178506
851.082	0.0179630
851.160	0.0178285
851.238	0.0177613
851.317	0.0180418
851.395	0.0180067
851.473	0.0177895
851.551	0.0178164
851.629	0.0180171
851.707	0.0178085
851.785	0.0178857
851.863	0.0178354
851.942	0.0179151
852.020	0.0178551
852.098	0.0179379
852.176	0.0179353
852.254	0.0178907
852.332	0.0178656
852.410	0.0178677
852.488	0.0179860
852.567	0.0178532
852.645	0.0178586
852.723	0.0178933
852.801	0.0179292
852.879	0.0178350
852.957	0.0179256
853.035	0.0179686
853.113	0.0180561
853.192	0.0179028
853.270	0.0179884
853.348	0.0178574
853.426	0.0178880
853.504	0.0179489
853.582	0.0178713
853.660	0.0179978
853.738	0.0178989
853.817	0.0178411
853.895	0.0178350
853.973	0.0178642
854.051	0.0180034
854.129	0.0177988
854.207	0.0178764
854.285	0.0180552
854.363	0.0176904
854.442	0.0177215
854.520	0.0178371
854.598	0.0179684
854.676	0.0178390
854.754	0.0179464
854.832	0.0178210
854.910	0.0177094
854.988	0.0176942
855.067	0.0178207
855.145	0.0177491
855.223	0.0178059
855.301	0.0176710
855.379	0.0178132
855.457	0.0177910
855.535	0.0177896
855.613	0.0178749
855.692	0.0176902
855.770	0.0177835
855.848	0.0177921
855.926	0.0176421
856.004	0.0176663
856.082	0.0176905
856.160	0.0176308
856.238	0.0175556
856.317	0.0176630
856.395	0.0177357
856.473	0.0177739
856.551	0.0177110
856.629	0.0175663
856.707	0.0178817
856.785	0.0177708
856.863	0.0176711
856.942	0.0177429
857.020	0.0178198
857.098	0.0178704
857.176	0.0178741
857.254	0.0178066
857.332	0.0178901
857.410	0.0179893
857.488	0.0178566
857.567	0.0180204
857.645	0.0179051
857.723	0.0179003
857.801	0.0178185
857.879	0.0179889
857.957	0.0177654
858.035	0.0179618
858.113	0.0178821
858.192	0.0178330
858.270	0.0178980
858.348	0.0178310
858.426	0.0178576
858.504	0.0178556
858.582	0.0178822
858.660	0.0175605
858.738	0.0177324
858.817	0.0178780
858.895	0.0178111
858.973	0.0176528
859.051	0.0178702
859.129	0.0177217
859.207	0.0178571
859.285	0.0177911
859.363	0.0178319
859.442	0.0177425
859.520	0.0178426
859.598	0.0177562
859.676	0.0178839
859.754	0.0177716
859.832	0.0178684
859.910	0.0179322
859.988	0.0179393
860.067	0.0179107
860.145	0.0179712
860.223	0.0178205
860.301	0.0178905
860.379	0.0179092
860.457	0.0177849
860.535	0.0179999
860.613	0.0179577
860.692	0.0178728
860.770	0.0178050
860.848	0.0178268
860.926	0.0178701
861.004	0.0177994
861.082	0.0178796
861.160	0.0179611
861.238	0.0178153
861.317	0.0180128
861.395	0.0180194
861.473	0.0179870
861.551	0.0178481
861.629	0.0178709
861.707	0.0180426
861.785	0.0177163
861.863	0.0178479
861.942	0.0178893
862.020	0.0178339
862.098	0.0179037
862.176	0.0179073
862.254	0.0178770
862.332	0.0177920
862.410	0.0180253
862.488	0.0177538
862.567	0.0176718
862.645	0.0179565
862.723	0.0177983
862.801	0.0177941
862.879	0.0178039
862.957	0.0180041
863.035	0.0178454
863.113	0.0175914
863.192	0.0177028
863.270	0.0177676
863.348	0.0175971
863.426	0.0177784
863.504	0.0176495
863.582	0.0175679
863.660	0.0176604
863.738	0.0176502
863.817	0.0175324
863.895	0.0174519
863.973	0.0175694
864.051	0.0175620
864.129	0.0174031
864.207	0.0174588
864.285	0.0176374
864.363	0.0175784
864.442	0.0175204
864.520	0.0175304
864.598	0.0175303
864.676	0.0176686
864.754	0.0176646
864.832	0.0176994
864.910	0.0177612
864.988	0.0176397
865.067	0.0177370
865.145	0.0177869
865.223	0.0177773
865.301	0.0178788
865.379	0.0178033
865.457	0.0177866
865.535	0.0179176
865.613	0.0179781
865.692	0.0178928
865.770	0.0178825
865.848	0.0178854
865.926	0.0181448
866.004	0.0180603
866.082	0.0180168
866.160	0.0180328
866.238	0.0180205
866.317	0.0181543
866.395	0.0181200
866.473	0.0182537
866.551	0.0182427
866.629	0.0183578
866.707	0.0181257
866.785	0.0182306
866.863	0.0183414
866.942	0.0182359
867.020	0.0183249
867.098	0.0183511
867.176	0.0182672
867.254	0.0181924
867.332	0.0180595
867.410	0.0181674
867.488	0.0182050
867.567	0.0181631
867.645	0.0181475
867.723	0.0180405
867.801	0.0180810
867.879	0.0180988
867.957	0.0180627
868.035	0.0181512
868.113	0.0179977
868.192	0.0181568
868.270	0.0181213
868.348	0.0180594
868.426	0.0181044
868.504	0.0179780
868.582	0.0181052
868.660	0.0179836
868.738	0.0179855
868.817	0.0180168
868.895	0.0179940
868.973	0.0178588
869.051	0.0179015
869.129	0.0178918
869.207	0.0179245
869.285	0.0180126
869.363	0.0180470
869.442	0.0180010
869.520	0.0179930
869.598	0.0178597
869.676	0.0180113
869.754	0.0182034
869.832	0.0179481
869.910	0.0178278
869.988	0.0178846
870.067	0.0179232
870.145	0.0178992
870.223	0.0180038
870.301	0.0179079
870.379	0.0180375
870.457	0.0179089
870.535	0.0179296
870.613	0.0179227
870.692	0.0179138
870.770	0.0179228
870.848	0.0178817
870.926	0.0179874
871.004	0.0179858
871.082	0.0179183
871.160	0.0179557
871.238	0.0179633
871.317	0.0177778
871.395	0.0178768
871.473	0.0178935
871.551	0.0179253
871.629	0.0179754
871.707	0.0179059
871.785	0.0177782
871.863	0.0178223
871.942	0.0179176
872.020	0.0177772
872.098	0.0178276
872.176	0.0175797
872.254	0.0178142
872.332	0.0177467
872.410	0.0177922
872.488	0.0177934
872.567	0.0177885
872.645	0.0177077
872.723	0.0178331
872.801	0.0178131
872.879	0.0177059
872.957	0.0177870
873.035	0.0178139
873.113	0.0176945
873.192	0.0177011
873.270	0.0178725
873.348	0.0179250
873.426	0.0176904
873.504	0.0177058
873.582	0.0177441
873.660	0.0177525
873.738	0.0177354
873.817	0.0177131
873.895	0.0177826
873.973	0.0178310
874.051	0.0177013
874.129	0.0176390
874.207	0.0176656
874.285	0.0177522
874.363	0.0175826
874.442	0.0177699
874.520	0.0177345
874.598	0.0176961
874.676	0.0178725
874.754	0.0178575
874.832	0.0179066
874.910	0.0179060
874.988	0.0178846
875.067	0.0178318
875.145	0.0178658
875.223	0.0179616
875.301	0.0179922
875.379	0.0180521
875.457	0.0181707
875.535	0.0180224
875.613	0.0179099
875.692	0.0180745
875.770	0.0178164
875.848	0.0179543
875.926	0.0179794
876.004	0.0180468
876.082	0.0179578
876.160	0.0180999
876.238	0.0180187
876.317	0.0180526
876.395	0.0181549
876.473	0.0181544
876.551	0.0180247
876.629	0.0181601
876.707	0.0180890
876.785	0.0181570
876.863	0.0182063
876.942	0.0181457
877.020	0.0180328
877.098	0.0182048
877.176	0.0179994
877.254	0.0179437
877.332	0.0180803
877.410	0.0182294
877.488	0.0181611
877.567	0.0181336
877.645	0.0181169
877.723	0.0180813
877.801	0.0181828
877.879	0.0181874
877.957	0.0181328
878.035	0.0181417
878.113	0.0182958
878.192	0.0181297
878.270	0.0179846
878.348	0.0179643
878.426	0.0181758
878.504	0.0179076
878.582	0.0181039
878.660	0.0181841
878.738	0.0178680
878.817	0.0178200
878.895	0.0180396
878.973	0.0179359
879.051	0.0179645
879.129	0.0179317
879.207	0.0179771
879.285	0.0179105
879.363	0.0179852
879.442	0.0179900
879.520	0.0180074
879.598	0.0181035
879.676	0.0180680
879.754	0.0179475
879.832	0.0179396
879.910	0.0179574
879.988	0.0179721
880.067	0.0178835
880.145	0.0179066
880.223	0.0180294
880.301	0.0179988
880.379	0.0178609
880.457	0.0179130
880.535	0.0179574
880.613	0.0177858
880.692	0.0178191
880.770	0.0178196
880.848	0.0178524
880.926	0.0178770
881.004	0.0177985
881.082	0.0178252
881.160	0.0179362
881.238	0.0179026
881.317	0.0177637
881.395	0.0178099
881.473	0.0178517
881.551	0.0178362
881.629	0.0178213
881.707	0.0177467
881.785	0.0177061
881.863	0.0175891
881.942	0.0176254
882.020	0.0177406
882.098	0.0177650
882.176	0.0177701
882.254	0.0177865
882.332	0.0176883
882.410	0.0176300
882.488	0.0176012
882.567	0.0175942
882.645	0.0177744
882.723	0.0176477
882.801	0.0176601
882.879	0.0176499
882.957	0.0177472
883.035	0.0177704
883.113	0.0177489
883.192	0.0177187
883.270	0.0178268
883.348	0.0177628
883.426	0.0176849
883.504	0.0176797
883.582	0.0177049
883.660	0.0177895
883.738	0.0178474
883.817	0.0177882
883.895	0.0179890
883.973	0.0177177
884.051	0.0179014
884.129	0.0179700
884.207	0.0179692
884.285	0.0178928
884.363	0.0180713
884.442	0.0180222
884.520	0.0181607
884.598	0.0181847
884.676	0.0180842
884.754	0.0180701
884.832	0.0181456
884.910	0.0180788
884.988	0.0181068
885.067	0.0181535
885.145	0.0181549
885.223	0.0181596
885.301	0.0181337
885.379	0.0183060
885.457	0.0181785
885.535	0.0180731
885.613	0.0182236
885.692	0.0182629
885.770	0.0182817
885.848	0.0183046
885.926	0.0181908
886.004	0.0182162
886.082	0.0182592
886.160	0.0181583
886.238	0.0180873
886.317	0.0183306
886.395	0.0183211
886.473	0.0182348
886.551	0.0182033
886.629	0.0182988
886.707	0.0182069
886.785	0.0182343
886.863	0.0183608
886.942	0.0183012
887.020	0.0182589
887.098	0.0180692
887.176	0.0182077
887.254	0.0181747
887.332	0.0181746
887.410	0.0182504
887.488	0.0182218
887.567	0.0182301
887.645	0.0181950
887.723	0.0182422
887.801	0.0181169
887.879	0.0182084
887.957	0.0181389
888.035	0.0181655
888.113	0.0180830
888.192	0.0181741
888.270	0.0181274
888.348	0.0181177
888.426	0.0180843
888.504	0.0179187
888.582	0.0179733
888.660	0.0181580
888.738	0.0180899
888.817	0.0181793
888.895	0.0180347
888.973	0.0179898
889.051	0.0179138
889.129	0.0181091
889.207	0.0180197
889.285	0.0179611
889.363	0.0179797
889.442	0.0180222
889.520	0.0178797
889.598	0.0178761
889.676	0.0179312
889.754	0.0178091
889.832	0.0177734
889.910	0.0177207
889.988	0.0176890
890.067	0.0177010
890.145	0.0176553
890.223	0.0176244
890.301	0.0176585
890.379	0.0176727
890.457	0.0176462
890.535	0.0177428
890.613	0.0175665
890.692	0.0176737
890.770	0.0174612
890.848	0.0176647
890.926	0.0177192
891.004	0.0176826
891.082	0.0177053
891.160	0.0176649
891.238	0.0176929
891.317	0.0176492
891.395	0.0177788
891.473	0.0176656
891.551	0.0177586
891.629	0.0177487
891.707	0.0176710
891.785	0.0176062
891.863	0.0177260
891.942	0.0176647
892.020	0.0176491
892.098	0.0178147
892.176	0.0176495
892.254	0.0177118
892.332	0.0175916
892.410	0.0175981
892.488	0.0176180
892.567	0.0178095
892.645	0.0177660
892.723	0.0177981
892.801	0.0177152
892.879	0.0176841
892.957	0.0176813
893.035	0.0176625
893.113	0.0177035
893.192	0.0175325
893.270	0.0176265
893.348	0.0175746
893.426	0.0175996
893.504	0.0175239
893.582	0.0176159
893.660	0.0175747
893.738	0.0175197
893.817	0.0175902
893.895	0.0176397
893.973	0.0176283
894.051	0.0176160
894.129	0.0177484
894.207	0.0176927
894.285	0.0177550
894.363	0.0178809
894.442	0.0178958
894.520	0.0179414
894.598	0.0179521
894.676	0.0179408
894.754	0.0179276
894.832	0.0179796
894.910	0.0178591
894.988	0.0179093
895.067	0.0179015
895.145	0.0178966
895.223	0.0179899
895.301	0.0179635
895.379	0.0177981
895.457	0.0180283
895.535	0.0180905
895.613	0.0179501
895.692	0.0179688
895.770	0.0180341
895.848	0.0181497
895.926	0.0181278
896.004	0.0180991
896.082	0.0182439
896.160	0.0181889
896.238	0.0179871
896.317	0.0181205
896.395	0.0182253
896.473	0.0180000
896.551	0.0181252
896.629	0.0180824
896.707	0.0181223
896.785	0.0181022
896.863	0.0180979
896.942	0.0180386
897.020	0.0180874
897.098	0.0181924
897.176	0.0180942
897.254	0.0180237
897.332	0.0180294
897.410	0.0179576
897.488	0.0180517
897.567	0.0180554
897.645	0.0182051
897.723	0.0179292
897.801	0.0179826
897.879	0.0179565
897.957	0.0179472
898.035	0.0179538
898.113	0.0180045
898.192	0.0179732
898.270	0.0179028
898.348	0.0178699
898.426	0.0179797
898.504	0.0178822
898.582	0.0179670
898.660	0.0179065
898.738	0.0180229
898.817	0.0179497
898.895	0.0180139
898.973	0.0180145
899.051	0.0179309
899.129	0.0178087
899.207	0.0179161
899.285	0.0180642
899.363	0.0180928
899.442	0.0180638
899.520	0.0180356
899.598	0.0179711
899.676	0.0180646
899.754	0.0180849
899.832	0.0180916
899.910	0.0180981
899.988	0.0181513
900.067	0.0180708
900.145	0.0180713
900.223	0.0179182
900.301	0.0179431
900.379	0.0180766
900.457	0.0180924
900.535	0.0181028
900.613	0.0179635
900.692	0.0180134
900.770	0.0179551
900.848	0.0178947
900.926	0.0179481
901.004	0.0179519
901.082	0.0178690
901.160	0.0178988
901.238	0.0179007
901.317	0.0178481
901.395	0.0177181
901.473	0.0176893
901.551	0.0177529
901.629	0.0177337
901.707	0.0178333
901.785	0.0177559
901.863	0.0176851
901.942	0.0176392
902.020	0.0176748
902.098	0.0177121
902.176	0.0176423
902.254	0.0176289
902.332	0.0177277
902.410	0.0177450
902.488	0.0176939
902.567	0.0176151
902.645	0.0177247
902.723	0.0176144
902.801	0.0177810
902.879	0.0177136
902.957	0.0176375
903.035	0.0176958
903.113	0.0176662
903.192	0.0176214
903.270	0.0177617
903.348	0.0178235
903.426	0.0179200
903.504	0.0177741
903.582	0.0178941
903.660	0.0179461
903.738	0.0179930
903.817	0.0179506
903.895	0.0180079
903.973	0.0181110
904.051	0.0179604
904.129	0.0178526
904.207	0.0180383
904.285	0.0180897
904.363	0.0181328
904.442	0.0181626
904.520	0.0180653
904.598	0.0181779
904.676	0.0181297
904.754	0.0181952
904.832	0.0181092
904.910	0.0180827
904.988	0.0180987
905.067	0.0181218
905.145	0.0181303
905.223	0.0181420
905.301	0.0180364
905.379	0.0180855
905.457	0.0181213
905.535	0.0179431
905.613	0.0179355
905.692	0.0179550
905.770	0.0179536
905.848	0.0179919
905.926	0.0180199
906.004	0.0180588
906.082	0.0180698
906.160	0.0178423
906.238	0.0180029
906.317	0.0180854
906.395	0.0180054
906.473	0.0178989
906.551	0.0178798
906.629	0.0178648
906.707	0.0178162
906.785	0.0179234
906.863	0.0178674
906.942	0.0177684
907.020	0.0177831
907.098	0.0178328
907.176	0.0177161
907.254	0.0178238
907.332	0.0177657
907.410	0.0178989
907.488	0.0177122
907.567	0.0177140
907.645	0.0178267
907.723	0.0178050
907.801	0.0178117
907.879	0.0177913
907.957	0.0178249
908.035	0.0178566
908.113	0.0178492
908.192	0.0179016
908.270	0.0177780
908.348	0.0178350
908.426	0.0178834
908.504	0.0179792
908.582	0.0177975
908.660	0.0178834
908.738	0.0179534
908.817	0.0179981
908.895	0.0178719
908.973	0.0179621
909.051	0.0180315
909.129	0.0178851
909.207	0.0179704
909.285	0.0180403
909.363	0.0179203
909.442	0.0179107
909.520	0.0179380
909.598	0.0180011
909.676	0.0179631
909.754	0.0181239
909.832	0.0179789
909.910	0.0180542
909.988	0.0181029
910.067	0.0180492
910.145	0.0179002
910.223	0.0179900
910.301	0.0180988
910.379	0.0182153
910.457	0.0180363
910.535	0.0179337
910.613	0.0180175
910.692	0.0180410
910.770	0.0180013
910.848	0.0180058
910.926	0.0179218
911.004	0.0180379
911.082	0.0179219
911.160	0.0178981
911.238	0.0178779
911.317	0.0179689
911.395	0.0179751
911.473	0.0179313
911.551	0.0179678
911.629	0.0178278
911.707	0.0179720
911.785	0.0179585
911.863	0.0178955
911.942	0.0178872
912.020	0.0178623
912.098	0.0178069
912.176	0.0179425
912.254	0.0178011
912.332	0.0177592
912.410	0.0177805
912.488	0.0178107
912.567	0.0177499
912.645	0.0177077
912.723	0.0177515
912.801	0.0178349
912.879	0.0178043
912.957	0.0177704
913.035	0.0177919
913.113	0.0177222
913.192	0.0176743
913.270	0.0178865
913.348	0.0176979
913.426	0.0177602
913.504	0.0176733
913.582	0.0177214
913.660	0.0178461
913.738	0.0177684
913.817	0.0178573
913.895	0.0177280
913.973	0.0177927
914.051	0.0177396
914.129	0.0177697
914.207	0.0178562
914.285	0.0179154
914.363	0.0179809
914.442	0.0179237
914.520	0.0179294
914.598	0.0178248
914.676	0.0179498
914.754	0.0178104
914.832	0.0180545
914.910	0.0180607
914.988	0.0180674
915.067	0.0180318
915.145	0.0180869
915.223	0.0181963
915.301	0.0180251
915.379	0.0180833
915.457	0.0181485
915.535	0.0181089
915.613	0.0181650
915.692	0.0182846
915.770	0.0181710
915.848	0.0181120
915.926	0.0181140
916.004	0.0181979
916.082	0.0181495
916.160	0.0182181
916.238	0.0181046
916.317	0.0180872
916.395	0.0181471
916.473	0.0181699
916.551	0.0181833
916.629	0.0181068
916.707	0.0181095
916.785	0.0181530
916.863	0.0180190
916.942	0.0180008
917.020	0.0181316
917.098	0.0181073
917.176	0.0180710
917.254	0.0179833
917.332	0.0179962
917.410	0.0179522
917.488	0.0181444
917.567	0.0181408
917.645	0.0180762
917.723	0.0182819
917.801	0.0181389
917.879	0.0180004
917.957	0.0181496
918.035	0.0180727
918.113	0.0181116
918.192	0.0179772
918.270	0.0181392
918.348	0.0180727
918.426	0.0179103
918.504	0.0180167
918.582	0.0181316
918.660	0.0180173
918.738	0.0179470
918.817	0.0179905
918.895	0.0178381
918.973	0.0179371
919.051	0.0179266
919.129	0.0178079
919.207	0.0179039
919.285	0.0178349
919.363	0.0179185
919.442	0.0178131
919.520	0.0177873
919.598	0.0178564
919.676	0.0178558
919.754	0.0178753
919.832	0.0179259
919.910	0.0179736
