06/01/2022	22:16:34	Ver.	4.1	UNKNOWN
Optical Delay	599.988409	Delta X		0.078125	Sweeps	1	Scan Rate	0/0
Coordinates	Axis 1	NaN	Axis 2	NaN	Axis 3	NaN	Axis 4	NaN	Axis 5	NaN	Axis 6	0.000000
TX Power	0.000000	RX Power	0.000000

599.988	0.0179252
600.067	0.0180103
600.145	0.0180088
600.223	0.0178211
600.301	0.0178802
600.379	0.0179264
600.457	0.0178243
600.535	0.0178833
600.613	0.0178657
600.692	0.0176794
600.770	0.0178830
600.848	0.0177232
600.926	0.0177462
601.004	0.0176386
601.082	0.0178025
601.160	0.0177079
601.238	0.0176402
601.317	0.0175484
601.395	0.0174969
601.473	0.0176139
601.551	0.0174604
601.629	0.0174576
601.707	0.0175127
601.785	0.0173824
601.863	0.0173219
601.942	0.0173927
602.020	0.0172973
602.098	0.0172747
602.176	0.0171861
602.254	0.0172659
602.332	0.0172060
602.410	0.0171339
602.488	0.0171576
602.567	0.0171604
602.645	0.0172824
602.723	0.0171535
602.801	0.0172240
602.879	0.0172165
602.957	0.0172346
603.035	0.0172536
603.113	0.0171519
603.192	0.0171361
603.270	0.0172159
603.348	0.0171955
603.426	0.0170671
603.504	0.0170892
603.582	0.0172196
603.660	0.0172698
603.738	0.0172028
603.817	0.0171922
603.895	0.0171514
603.973	0.0172558
604.051	0.0172343
604.129	0.0171518
604.207	0.0172040
604.285	0.0172329
604.363	0.0170976
604.442	0.0172369
604.520	0.0172398
604.598	0.0173074
604.676	0.0172656
604.754	0.0173570
604.832	0.0172504
604.910	0.0173166
604.988	0.0173868
605.067	0.0172847
605.145	0.0173256
605.223	0.0173338
605.301	0.0173403
605.379	0.0173923
605.457	0.0172652
605.535	0.0174210
605.613	0.0174397
605.692	0.0172794
605.770	0.0173162
605.848	0.0173299
605.926	0.0173045
606.004	0.0172578
606.082	0.0171854
606.160	0.0171610
606.238	0.0174274
606.317	0.0173767
606.395	0.0173422
606.473	0.0172237
606.551	0.0172443
606.629	0.0172917
606.707	0.0173780
606.785	0.0172272
606.863	0.0172923
606.942	0.0173982
607.020	0.0173584
607.098	0.0172475
607.176	0.0174052
607.254	0.0173199
607.332	0.0172983
607.410	0.0172455
607.488	0.0172713
607.567	0.0172468
607.645	0.0172679
607.723	0.0172736
607.801	0.0173277
607.879	0.0173771
607.957	0.0174451
608.035	0.0171938
608.113	0.0172706
608.192	0.0172261
608.270	0.0172784
608.348	0.0172946
608.426	0.0172073
608.504	0.0172593
608.582	0.0171275
608.660	0.0171561
608.738	0.0172063
608.817	0.0171201
608.895	0.0171558
608.973	0.0172725
609.051	0.0170343
609.129	0.0173956
609.207	0.0172353
609.285	0.0171603
609.363	0.0171642
609.442	0.0171987
609.520	0.0172717
609.598	0.0173095
609.676	0.0172418
609.754	0.0174084
609.832	0.0175765
609.910	0.0173515
609.988	0.0174368
610.067	0.0174900
610.145	0.0175890
610.223	0.0174785
610.301	0.0174229
610.379	0.0174387
610.457	0.0174800
610.535	0.0175773
610.613	0.0175402
610.692	0.0173154
610.770	0.0173898
610.848	0.0174661
610.926	0.0176167
611.004	0.0176936
611.082	0.0174201
611.160	0.0172941
611.238	0.0173573
611.317	0.0175432
611.395	0.0173593
611.473	0.0173452
611.551	0.0175426
611.629	0.0173897
611.707	0.0174852
611.785	0.0173511
611.863	0.0174408
611.942	0.0174205
612.020	0.0174339
612.098	0.0174187
612.176	0.0174789
612.254	0.0172935
612.332	0.0175354
612.410	0.0173750
612.488	0.0174718
612.567	0.0174450
612.645	0.0174057
612.723	0.0173885
612.801	0.0173832
612.879	0.0174983
612.957	0.0174350
613.035	0.0174294
613.113	0.0174421
613.192	0.0174607
613.270	0.0175249
613.348	0.0174660
613.426	0.0174814
613.504	0.0173495
613.582	0.0175211
613.660	0.0175366
613.738	0.0174557
613.817	0.0174644
613.895	0.0174110
613.973	0.0173381
614.051	0.0176147
614.129	0.0175154
614.207	0.0173931
614.285	0.0173586
614.363	0.0174718
614.442	0.0174840
614.520	0.0174741
614.598	0.0174043
614.676	0.0173487
614.754	0.0174400
614.832	0.0175981
614.910	0.0174564
614.988	0.0174851
615.067	0.0174353
615.145	0.0173661
615.223	0.0174073
615.301	0.0173827
615.379	0.0174073
615.457	0.0173736
615.535	0.0175114
615.613	0.0174766
615.692	0.0174834
615.770	0.0176350
615.848	0.0175855
615.926	0.0175488
616.004	0.0175032
616.082	0.0175185
616.160	0.0176014
616.238	0.0174963
616.317	0.0175996
616.395	0.0174725
616.473	0.0176208
616.551	0.0176887
616.629	0.0175092
616.707	0.0176390
616.785	0.0175932
616.863	0.0175140
616.942	0.0175758
617.020	0.0176043
617.098	0.0175950
617.176	0.0175338
617.254	0.0177928
617.332	0.0176861
617.410	0.0176597
617.488	0.0175145
617.567	0.0176308
617.645	0.0175600
617.723	0.0175862
617.801	0.0176321
617.879	0.0175681
617.957	0.0177670
618.035	0.0175848
618.113	0.0177471
618.192	0.0176330
618.270	0.0177324
618.348	0.0177740
618.426	0.0176614
618.504	0.0177073
618.582	0.0177541
618.660	0.0177073
618.738	0.0177459
618.817	0.0178043
618.895	0.0176674
618.973	0.0178236
619.051	0.0179097
619.129	0.0178748
619.207	0.0177575
619.285	0.0177398
619.363	0.0178688
619.442	0.0177385
619.520	0.0177335
619.598	0.0176555
619.676	0.0176206
619.754	0.0176562
619.832	0.0178696
619.910	0.0176187
619.988	0.0177042
620.067	0.0176977
620.145	0.0176038
620.223	0.0177451
620.301	0.0176900
620.379	0.0178136
620.457	0.0177404
620.535	0.0178376
620.613	0.0178204
620.692	0.0177470
620.770	0.0176673
620.848	0.0176722
620.926	0.0175880
621.004	0.0177044
621.082	0.0176822
621.160	0.0176665
621.238	0.0176929
621.317	0.0176091
621.395	0.0176440
621.473	0.0176696
621.551	0.0177546
621.629	0.0176682
621.707	0.0177189
621.785	0.0177621
621.863	0.0179499
621.942	0.0178445
622.020	0.0180059
622.098	0.0180017
622.176	0.0179136
622.254	0.0179717
622.332	0.0181786
622.410	0.0180714
622.488	0.0181017
622.567	0.0179399
622.645	0.0179388
622.723	0.0179028
622.801	0.0180194
622.879	0.0177808
622.957	0.0178374
623.035	0.0177895
623.113	0.0176928
623.192	0.0178566
623.270	0.0176653
623.348	0.0176936
623.426	0.0176706
623.504	0.0175426
623.582	0.0176829
623.660	0.0175304
623.738	0.0176175
623.817	0.0175166
623.895	0.0176273
623.973	0.0177931
624.051	0.0176109
624.129	0.0176064
624.207	0.0177251
624.285	0.0176128
624.363	0.0176250
624.442	0.0176099
624.520	0.0176379
624.598	0.0178059
624.676	0.0177009
624.754	0.0176037
624.832	0.0177119
624.910	0.0176475
624.988	0.0175372
625.067	0.0175004
625.145	0.0174310
625.223	0.0173543
625.301	0.0174409
625.379	0.0174278
625.457	0.0172505
625.535	0.0172451
625.613	0.0171017
625.692	0.0172076
625.770	0.0170578
625.848	0.0172547
625.926	0.0171515
626.004	0.0169645
626.082	0.0169221
626.160	0.0170692
626.238	0.0169845
626.317	0.0169665
626.395	0.0168906
626.473	0.0169599
626.551	0.0170061
626.629	0.0169786
626.707	0.0170332
626.785	0.0169559
626.863	0.0169557
626.942	0.0170817
627.020	0.0169972
627.098	0.0170293
627.176	0.0170836
627.254	0.0169958
627.332	0.0169967
627.410	0.0171499
627.488	0.0171045
627.567	0.0171519
627.645	0.0171655
627.723	0.0172256
627.801	0.0171142
627.879	0.0172713
627.957	0.0173260
628.035	0.0171909
628.113	0.0172072
628.192	0.0172798
628.270	0.0174733
628.348	0.0174639
628.426	0.0174389
628.504	0.0174042
628.582	0.0174266
628.660	0.0175998
628.738	0.0175423
628.817	0.0175621
628.895	0.0176021
628.973	0.0176231
629.051	0.0175534
629.129	0.0177914
629.207	0.0176659
629.285	0.0177853
629.363	0.0177027
629.442	0.0177631
629.520	0.0177353
629.598	0.0177485
629.676	0.0178782
629.754	0.0178779
629.832	0.0178358
629.910	0.0178979
629.988	0.0179752
630.067	0.0175785
630.145	0.0177372
630.223	0.0177853
630.301	0.0175327
630.379	0.0176958
630.457	0.0177187
630.535	0.0175752
630.613	0.0175207
630.692	0.0175615
630.770	0.0175047
630.848	0.0176192
630.926	0.0175053
631.004	0.0175406
631.082	0.0175385
631.160	0.0174373
631.238	0.0174958
631.317	0.0176198
631.395	0.0175600
631.473	0.0175125
631.551	0.0175298
631.629	0.0175960
631.707	0.0176092
631.785	0.0175321
631.863	0.0174629
631.942	0.0175544
632.020	0.0175772
632.098	0.0176144
632.176	0.0176535
632.254	0.0176157
632.332	0.0175474
632.410	0.0177144
632.488	0.0177535
632.567	0.0176258
632.645	0.0178851
632.723	0.0177309
632.801	0.0177614
632.879	0.0177661
632.957	0.0178737
633.035	0.0178135
633.113	0.0176736
633.192	0.0176378
633.270	0.0176459
633.348	0.0176776
633.426	0.0177912
633.504	0.0175888
633.582	0.0176467
633.660	0.0175809
633.738	0.0175986
633.817	0.0175189
633.895	0.0174100
633.973	0.0175579
634.051	0.0175976
634.129	0.0174995
634.207	0.0175027
634.285	0.0175427
634.363	0.0173520
634.442	0.0173546
634.520	0.0174133
634.598	0.0173963
634.676	0.0172304
634.754	0.0172746
634.832	0.0173661
634.910	0.0173538
634.988	0.0173497
635.067	0.0172680
635.145	0.0173663
635.223	0.0172274
635.301	0.0170280
635.379	0.0172197
635.457	0.0174096
635.535	0.0171895
635.613	0.0171465
635.692	0.0171607
635.770	0.0172103
635.848	0.0172838
635.926	0.0171924
636.004	0.0171378
636.082	0.0171550
636.160	0.0171605
636.238	0.0172250
636.317	0.0172397
636.395	0.0171733
636.473	0.0173038
636.551	0.0172861
636.629	0.0172792
636.707	0.0172113
636.785	0.0173558
636.863	0.0173154
636.942	0.0172202
637.020	0.0173096
637.098	0.0174652
637.176	0.0173910
637.254	0.0173882
637.332	0.0173851
637.410	0.0173003
637.488	0.0173911
637.567	0.0174000
637.645	0.0174637
637.723	0.0173954
637.801	0.0174416
637.879	0.0174188
637.957	0.0173692
638.035	0.0173696
638.113	0.0173280
638.192	0.0174020
638.270	0.0174077
638.348	0.0174351
638.426	0.0173746
638.504	0.0173494
638.582	0.0175992
638.660	0.0173797
638.738	0.0174873
638.817	0.0174489
638.895	0.0175524
638.973	0.0175030
639.051	0.0174459
639.129	0.0174252
639.207	0.0175913
639.285	0.0175702
639.363	0.0174928
639.442	0.0173525
639.520	0.0173990
639.598	0.0173632
639.676	0.0173642
639.754	0.0175425
639.832	0.0172380
639.910	0.0173681
639.988	0.0174407
640.067	0.0174421
640.145	0.0172890
640.223	0.0174353
640.301	0.0175528
640.379	0.0174716
640.457	0.0175187
640.535	0.0175275
640.613	0.0174185
640.692	0.0176003
640.770	0.0177550
640.848	0.0176097
640.926	0.0176237
641.004	0.0175944
641.082	0.0177544
641.160	0.0178325
641.238	0.0176634
641.317	0.0176780
641.395	0.0175991
641.473	0.0176169
641.551	0.0177020
641.629	0.0176396
641.707	0.0176894
641.785	0.0177142
641.863	0.0175970
641.942	0.0175858
642.020	0.0174259
642.098	0.0174578
642.176	0.0174649
642.254	0.0174680
642.332	0.0173589
642.410	0.0174136
642.488	0.0173100
642.567	0.0174676
642.645	0.0173999
642.723	0.0174507
642.801	0.0175040
642.879	0.0173466
642.957	0.0173714
643.035	0.0173548
643.113	0.0174062
643.192	0.0174342
643.270	0.0174119
643.348	0.0175047
643.426	0.0175338
643.504	0.0174598
643.582	0.0174682
643.660	0.0172942
643.738	0.0175448
643.817	0.0174908
643.895	0.0174391
643.973	0.0176127
644.051	0.0173351
644.129	0.0173695
644.207	0.0173961
644.285	0.0174953
644.363	0.0175570
644.442	0.0176182
644.520	0.0175639
644.598	0.0175991
644.676	0.0175673
644.754	0.0174350
644.832	0.0176394
644.910	0.0175036
644.988	0.0175074
645.067	0.0175412
645.145	0.0175330
645.223	0.0175854
645.301	0.0175217
645.379	0.0176418
645.457	0.0175817
645.535	0.0176794
645.613	0.0177200
645.692	0.0176582
645.770	0.0176765
645.848	0.0178270
645.926	0.0178470
646.004	0.0178117
646.082	0.0177502
646.160	0.0178325
646.238	0.0179277
646.317	0.0176878
646.395	0.0177094
646.473	0.0177834
646.551	0.0176553
646.629	0.0173996
646.707	0.0173340
646.785	0.0173621
646.863	0.0172009
646.942	0.0171996
647.020	0.0172781
647.098	0.0172670
647.176	0.0173831
647.254	0.0171915
647.332	0.0171166
647.410	0.0174040
647.488	0.0172125
647.567	0.0172771
647.645	0.0173046
647.723	0.0173724
647.801	0.0173921
647.879	0.0174075
647.957	0.0173232
648.035	0.0172869
648.113	0.0171673
648.192	0.0172586
648.270	0.0173746
648.348	0.0172282
648.426	0.0171816
648.504	0.0170850
648.582	0.0171497
648.660	0.0171423
648.738	0.0171938
648.817	0.0170598
648.895	0.0169576
648.973	0.0170335
649.051	0.0170390
649.129	0.0170718
649.207	0.0171535
649.285	0.0170989
649.363	0.0170547
649.442	0.0172250
649.520	0.0172070
649.598	0.0171288
649.676	0.0172165
649.754	0.0172623
649.832	0.0173354
649.910	0.0172224
649.988	0.0173509
650.067	0.0173785
650.145	0.0173692
650.223	0.0174283
650.301	0.0175916
650.379	0.0175210
650.457	0.0174353
650.535	0.0174699
650.613	0.0176116
650.692	0.0175307
650.770	0.0176886
650.848	0.0175661
650.926	0.0175727
651.004	0.0175799
651.082	0.0177059
651.160	0.0176283
651.238	0.0176786
651.317	0.0175169
651.395	0.0174550
651.473	0.0175832
651.551	0.0176740
651.629	0.0176160
651.707	0.0175706
651.785	0.0177226
651.863	0.0176197
651.942	0.0175478
652.020	0.0175290
652.098	0.0176045
652.176	0.0175625
652.254	0.0176453
652.332	0.0177184
652.410	0.0176605
652.488	0.0176604
652.567	0.0175140
652.645	0.0175252
652.723	0.0178127
652.801	0.0177651
652.879	0.0176330
652.957	0.0176558
653.035	0.0175837
653.113	0.0175289
653.192	0.0174776
653.270	0.0175008
653.348	0.0175352
653.426	0.0174050
653.504	0.0174809
653.582	0.0174807
653.660	0.0175024
653.738	0.0175139
653.817	0.0175695
653.895	0.0173477
653.973	0.0173587
654.051	0.0175417
654.129	0.0174403
654.207	0.0175526
654.285	0.0173537
654.363	0.0174406
654.442	0.0174969
654.520	0.0175591
654.598	0.0173723
654.676	0.0176461
654.754	0.0175465
654.832	0.0174516
654.910	0.0175391
654.988	0.0175063
655.067	0.0174351
655.145	0.0174760
655.223	0.0175562
655.301	0.0174452
655.379	0.0174572
655.457	0.0173308
655.535	0.0175182
655.613	0.0175009
655.692	0.0176948
655.770	0.0174652
655.848	0.0176649
655.926	0.0175236
656.004	0.0174429
656.082	0.0175665
656.160	0.0174838
656.238	0.0174345
656.317	0.0176167
656.395	0.0175356
656.473	0.0173836
656.551	0.0175038
656.629	0.0175765
656.707	0.0174941
656.785	0.0172913
656.863	0.0173761
656.942	0.0175492
657.020	0.0174303
657.098	0.0174967
657.176	0.0177016
657.254	0.0176215
657.332	0.0177146
657.410	0.0176595
657.488	0.0177600
657.567	0.0178124
657.645	0.0177523
657.723	0.0177637
657.801	0.0178154
657.879	0.0177116
657.957	0.0176774
658.035	0.0176175
658.113	0.0176119
658.192	0.0175973
658.270	0.0174756
658.348	0.0174030
658.426	0.0173526
658.504	0.0175293
658.582	0.0173048
658.660	0.0172932
658.738	0.0173833
658.817	0.0174356
658.895	0.0171967
658.973	0.0171352
659.051	0.0173038
659.129	0.0173841
659.207	0.0172631
659.285	0.0172012
659.363	0.0172659
659.442	0.0171964
659.520	0.0172549
659.598	0.0172958
659.676	0.0171415
659.754	0.0171647
659.832	0.0172513
659.910	0.0171664
659.988	0.0171796
660.067	0.0171101
660.145	0.0171223
660.223	0.0171276
660.301	0.0171795
660.379	0.0171756
660.457	0.0170970
660.535	0.0170535
660.613	0.0171606
660.692	0.0171523
660.770	0.0170980
660.848	0.0171660
660.926	0.0172061
661.004	0.0173062
661.082	0.0172449
661.160	0.0172443
661.238	0.0173003
661.317	0.0172962
661.395	0.0173615
661.473	0.0174536
661.551	0.0173743
661.629	0.0174000
661.707	0.0173943
661.785	0.0174942
661.863	0.0174246
661.942	0.0175925
662.020	0.0174714
662.098	0.0175026
662.176	0.0173481
662.254	0.0173367
662.332	0.0173076
662.410	0.0174710
662.488	0.0174024
662.567	0.0173868
662.645	0.0173713
662.723	0.0174478
662.801	0.0173146
662.879	0.0174609
662.957	0.0173209
663.035	0.0173449
663.113	0.0174184
663.192	0.0174955
663.270	0.0174284
663.348	0.0174931
663.426	0.0173554
663.504	0.0174056
663.582	0.0175179
663.660	0.0175914
663.738	0.0174712
663.817	0.0176112
663.895	0.0175230
663.973	0.0174094
664.051	0.0174435
664.129	0.0173934
664.207	0.0174504
664.285	0.0174024
664.363	0.0174676
664.442	0.0174363
664.520	0.0173424
664.598	0.0172661
664.676	0.0174875
664.754	0.0173479
664.832	0.0175024
664.910	0.0175394
664.988	0.0176031
665.067	0.0174844
665.145	0.0174343
665.223	0.0175688
665.301	0.0175436
665.379	0.0173871
665.457	0.0175743
665.535	0.0175802
665.613	0.0174721
665.692	0.0175472
665.770	0.0175804
665.848	0.0175261
665.926	0.0174334
666.004	0.0174560
666.082	0.0174381
666.160	0.0175134
666.238	0.0173917
666.317	0.0173296
666.395	0.0172366
666.473	0.0171527
666.551	0.0173701
666.629	0.0173663
666.707	0.0173019
666.785	0.0172785
666.863	0.0173212
666.942	0.0173134
667.020	0.0173154
667.098	0.0172749
667.176	0.0173118
667.254	0.0174634
667.332	0.0172749
667.410	0.0174261
667.488	0.0173199
667.567	0.0173636
667.645	0.0174216
667.723	0.0173026
667.801	0.0172937
667.879	0.0174586
667.957	0.0173046
668.035	0.0173467
668.113	0.0174173
668.192	0.0173791
668.270	0.0173030
668.348	0.0174216
668.426	0.0173322
668.504	0.0173014
668.582	0.0172163
668.660	0.0172804
668.738	0.0173720
668.817	0.0174594
668.895	0.0172231
668.973	0.0173189
669.051	0.0172861
669.129	0.0172815
669.207	0.0173295
669.285	0.0173687
669.363	0.0171880
669.442	0.0172463
669.520	0.0175037
669.598	0.0174332
669.676	0.0173706
669.754	0.0172870
669.832	0.0172977
669.910	0.0174747
669.988	0.0173376
670.067	0.0173078
670.145	0.0173997
670.223	0.0174941
670.301	0.0174323
670.379	0.0173672
670.457	0.0174606
670.535	0.0175748
670.613	0.0176695
670.692	0.0175012
670.770	0.0174055
670.848	0.0174307
670.926	0.0175620
671.004	0.0175979
671.082	0.0177052
671.160	0.0176067
671.238	0.0176398
671.317	0.0175850
671.395	0.0175903
671.473	0.0177197
671.551	0.0175150
671.629	0.0175665
671.707	0.0175729
671.785	0.0175341
671.863	0.0176866
671.942	0.0177392
672.020	0.0175210
672.098	0.0175115
672.176	0.0175657
672.254	0.0176447
672.332	0.0176096
672.410	0.0176013
672.488	0.0174806
672.567	0.0174756
672.645	0.0174784
672.723	0.0177132
672.801	0.0176074
672.879	0.0175953
672.957	0.0175356
673.035	0.0176865
673.113	0.0177857
673.192	0.0177643
673.270	0.0177402
673.348	0.0177448
673.426	0.0176653
673.504	0.0176495
673.582	0.0176917
673.660	0.0176547
673.738	0.0176231
673.817	0.0178031
673.895	0.0178098
673.973	0.0176021
674.051	0.0178577
674.129	0.0177877
674.207	0.0178374
674.285	0.0177217
674.363	0.0176290
674.442	0.0176768
674.520	0.0176839
674.598	0.0175637
674.676	0.0176311
674.754	0.0176527
674.832	0.0175332
674.910	0.0174824
674.988	0.0174463
675.067	0.0176036
675.145	0.0175766
675.223	0.0173500
675.301	0.0174058
675.379	0.0176079
675.457	0.0175320
675.535	0.0174847
675.613	0.0176080
675.692	0.0175812
675.770	0.0175497
675.848	0.0174282
675.926	0.0175164
676.004	0.0174356
676.082	0.0174943
676.160	0.0174245
676.238	0.0174554
676.317	0.0174574
676.395	0.0173863
676.473	0.0173962
676.551	0.0174236
676.629	0.0174590
676.707	0.0174544
676.785	0.0173660
676.863	0.0172477
676.942	0.0172720
677.020	0.0172877
677.098	0.0172770
677.176	0.0173923
677.254	0.0172321
677.332	0.0174300
677.410	0.0173370
677.488	0.0172056
677.567	0.0172467
677.645	0.0173004
677.723	0.0173798
677.801	0.0174309
677.879	0.0172805
677.957	0.0172311
678.035	0.0174191
678.113	0.0173213
678.192	0.0172969
678.270	0.0174561
678.348	0.0173833
678.426	0.0173795
678.504	0.0173483
678.582	0.0172544
678.660	0.0172433
678.738	0.0173702
678.817	0.0173837
678.895	0.0172706
678.973	0.0172060
679.051	0.0173123
679.129	0.0173189
679.207	0.0173821
679.285	0.0173141
679.363	0.0172762
679.442	0.0173609
679.520	0.0171687
679.598	0.0171651
679.676	0.0171463
679.754	0.0171175
679.832	0.0171159
679.910	0.0172227
679.988	0.0172513
680.067	0.0172017
680.145	0.0171925
680.223	0.0173459
680.301	0.0172588
680.379	0.0172477
680.457	0.0171376
680.535	0.0174004
680.613	0.0171404
680.692	0.0172416
680.770	0.0171648
680.848	0.0172138
680.926	0.0171980
681.004	0.0172311
681.082	0.0174020
681.160	0.0174292
681.238	0.0173996
681.317	0.0173556
681.395	0.0174792
681.473	0.0175103
681.551	0.0174413
681.629	0.0177020
681.707	0.0176283
681.785	0.0175264
681.863	0.0176662
681.942	0.0176191
682.020	0.0177462
682.098	0.0176873
682.176	0.0175784
682.254	0.0176738
682.332	0.0176910
682.410	0.0176280
682.488	0.0177654
682.567	0.0176881
682.645	0.0175864
682.723	0.0176005
682.801	0.0175628
682.879	0.0176599
682.957	0.0176128
683.035	0.0175677
683.113	0.0176752
683.192	0.0175153
683.270	0.0176718
683.348	0.0176418
683.426	0.0175320
683.504	0.0176960
683.582	0.0176585
683.660	0.0175176
683.738	0.0175696
683.817	0.0174712
683.895	0.0175893
683.973	0.0176118
684.051	0.0175307
684.129	0.0176195
684.207	0.0175134
684.285	0.0175851
684.363	0.0175397
684.442	0.0176160
684.520	0.0176043
684.598	0.0175526
684.676	0.0176543
684.754	0.0176192
684.832	0.0174942
684.910	0.0176009
684.988	0.0176306
685.067	0.0175404
685.145	0.0174539
685.223	0.0175023
685.301	0.0175323
685.379	0.0176476
685.457	0.0173746
685.535	0.0176051
685.613	0.0175674
685.692	0.0174081
685.770	0.0174506
685.848	0.0177044
685.926	0.0176008
686.004	0.0175017
686.082	0.0176517
686.160	0.0177213
686.238	0.0175952
686.317	0.0176089
686.395	0.0177194
686.473	0.0176160
686.551	0.0176216
686.629	0.0174953
686.707	0.0175261
686.785	0.0174667
686.863	0.0175466
686.942	0.0176501
687.020	0.0174894
687.098	0.0176410
687.176	0.0174795
687.254	0.0174314
687.332	0.0173906
687.410	0.0174782
687.488	0.0175620
687.567	0.0174999
687.645	0.0173791
687.723	0.0174642
687.801	0.0176357
687.879	0.0176015
687.957	0.0175260
688.035	0.0178083
688.113	0.0177869
688.192	0.0176187
688.270	0.0174764
688.348	0.0175582
688.426	0.0176638
688.504	0.0175890
688.582	0.0174432
688.660	0.0175500
688.738	0.0175658
688.817	0.0175915
688.895	0.0175036
688.973	0.0175838
689.051	0.0175126
689.129	0.0173855
689.207	0.0174856
689.285	0.0176151
689.363	0.0174305
689.442	0.0173817
689.520	0.0173709
689.598	0.0174192
689.676	0.0172813
689.754	0.0173922
689.832	0.0174003
689.910	0.0175087
689.988	0.0174030
690.067	0.0174067
690.145	0.0173968
690.223	0.0175600
690.301	0.0175728
690.379	0.0174799
690.457	0.0174905
690.535	0.0174792
690.613	0.0176131
690.692	0.0174819
690.770	0.0174001
690.848	0.0174573
690.926	0.0175238
691.004	0.0172299
691.082	0.0174016
691.160	0.0174926
691.238	0.0173690
691.317	0.0173027
691.395	0.0173872
691.473	0.0173746
691.551	0.0174898
691.629	0.0173896
691.707	0.0174831
691.785	0.0174520
691.863	0.0174615
691.942	0.0173469
692.020	0.0175141
692.098	0.0175248
692.176	0.0175867
692.254	0.0175807
692.332	0.0175584
692.410	0.0176479
692.488	0.0178349
692.567	0.0177422
692.645	0.0175797
692.723	0.0175876
692.801	0.0175664
692.879	0.0176586
692.957	0.0174994
693.035	0.0174180
693.113	0.0173698
693.192	0.0173170
693.270	0.0174115
693.348	0.0174545
693.426	0.0173877
693.504	0.0173667
693.582	0.0172576
693.660	0.0173645
693.738	0.0173309
693.817	0.0174226
693.895	0.0175106
693.973	0.0174017
694.051	0.0175810
694.129	0.0174449
694.207	0.0173415
694.285	0.0174904
694.363	0.0175402
694.442	0.0175351
694.520	0.0175314
694.598	0.0175635
694.676	0.0176093
694.754	0.0176223
694.832	0.0176038
694.910	0.0174384
694.988	0.0175340
695.067	0.0176212
695.145	0.0175569
695.223	0.0176556
695.301	0.0174955
695.379	0.0174297
695.457	0.0176143
695.535	0.0175224
695.613	0.0175587
695.692	0.0176752
695.770	0.0173824
695.848	0.0174288
695.926	0.0175186
696.004	0.0173975
696.082	0.0176554
696.160	0.0178308
696.238	0.0176476
696.317	0.0176437
696.395	0.0175806
696.473	0.0175610
696.551	0.0176750
696.629	0.0178349
696.707	0.0176460
696.785	0.0174372
696.863	0.0174501
696.942	0.0175884
697.020	0.0174989
697.098	0.0174651
697.176	0.0172519
697.254	0.0173461
697.332	0.0172312
697.410	0.0172659
697.488	0.0171456
697.567	0.0170895
697.645	0.0171452
697.723	0.0169770
697.801	0.0171150
697.879	0.0172816
697.957	0.0170522
698.035	0.0171416
698.113	0.0172215
698.192	0.0171202
698.270	0.0171552
698.348	0.0172908
698.426	0.0174065
698.504	0.0174465
698.582	0.0174500
698.660	0.0175678
698.738	0.0176281
698.817	0.0177442
698.895	0.0177714
698.973	0.0179257
699.051	0.0181103
699.129	0.0179347
699.207	0.0180712
699.285	0.0180743
699.363	0.0180379
699.442	0.0179369
699.520	0.0179215
699.598	0.0179862
699.676	0.0179147
699.754	0.0180682
699.832	0.0182801
699.910	0.0180116
699.988	0.0180592
700.067	0.0180188
700.145	0.0181077
700.223	0.0181834
700.301	0.0180443
700.379	0.0179419
700.457	0.0179588
700.535	0.0179350
700.613	0.0178918
700.692	0.0178941
700.770	0.0178340
700.848	0.0176662
700.926	0.0177827
701.004	0.0176603
701.082	0.0176415
701.160	0.0176196
701.238	0.0176096
701.317	0.0176579
701.395	0.0175994
701.473	0.0175488
701.551	0.0175311
701.629	0.0175872
701.707	0.0175485
701.785	0.0175252
701.863	0.0175681
701.942	0.0174026
702.020	0.0174108
702.098	0.0173769
702.176	0.0173859
702.254	0.0173119
702.332	0.0173634
702.410	0.0173015
702.488	0.0172712
702.567	0.0174150
702.645	0.0173122
702.723	0.0174734
702.801	0.0173282
702.879	0.0174570
702.957	0.0175062
703.035	0.0175597
703.113	0.0176315
703.192	0.0176338
703.270	0.0176991
703.348	0.0177113
703.426	0.0177456
703.504	0.0177699
703.582	0.0176544
703.660	0.0176358
703.738	0.0177255
703.817	0.0178499
703.895	0.0176617
703.973	0.0178236
704.051	0.0175891
704.129	0.0178055
704.207	0.0176442
704.285	0.0177040
704.363	0.0178880
704.442	0.0177962
704.520	0.0177004
704.598	0.0177872
704.676	0.0178125
704.754	0.0178950
704.832	0.0177994
704.910	0.0178761
704.988	0.0177592
705.067	0.0179149
705.145	0.0179475
705.223	0.0178890
705.301	0.0179732
705.379	0.0177042
705.457	0.0176783
705.535	0.0178322
705.613	0.0179185
705.692	0.0177222
705.770	0.0178271
705.848	0.0177625
705.926	0.0175507
706.004	0.0176586
706.082	0.0175690
706.160	0.0174339
706.238	0.0174306
706.317	0.0174426
706.395	0.0173286
706.473	0.0172002
706.551	0.0173203
706.629	0.0175089
706.707	0.0173474
706.785	0.0173410
706.863	0.0172573
706.942	0.0172263
707.020	0.0172407
707.098	0.0174296
707.176	0.0173103
707.254	0.0174202
707.332	0.0174916
707.410	0.0175331
707.488	0.0173777
707.567	0.0173178
707.645	0.0173158
707.723	0.0173251
707.801	0.0173763
707.879	0.0172651
707.957	0.0173314
708.035	0.0173382
708.113	0.0171049
708.192	0.0171742
708.270	0.0172996
708.348	0.0172528
708.426	0.0172794
708.504	0.0173469
708.582	0.0174938
708.660	0.0175354
708.738	0.0174854
708.817	0.0174845
708.895	0.0177652
708.973	0.0178757
709.051	0.0179314
709.129	0.0179132
709.207	0.0179847
709.285	0.0179375
709.363	0.0179395
709.442	0.0179974
709.520	0.0178613
709.598	0.0179539
709.676	0.0178367
709.754	0.0178964
709.832	0.0179848
709.910	0.0178395
709.988	0.0179448
710.067	0.0178960
710.145	0.0178915
710.223	0.0180219
710.301	0.0179815
710.379	0.0177956
710.457	0.0178659
710.535	0.0178548
710.613	0.0179839
710.692	0.0179706
710.770	0.0179527
710.848	0.0178640
710.926	0.0176659
711.004	0.0176929
711.082	0.0178095
711.160	0.0177491
711.238	0.0174344
711.317	0.0175961
711.395	0.0174930
711.473	0.0174101
711.551	0.0174670
711.629	0.0173791
711.707	0.0171318
711.785	0.0172658
711.863	0.0170558
711.942	0.0170657
712.020	0.0170985
712.098	0.0171136
712.176	0.0171581
712.254	0.0170786
712.332	0.0171136
712.410	0.0172279
712.488	0.0170509
712.567	0.0170926
712.645	0.0171789
712.723	0.0172605
712.801	0.0172246
712.879	0.0172831
712.957	0.0174194
713.035	0.0173917
713.113	0.0174063
713.192	0.0174957
713.270	0.0176138
713.348	0.0176004
713.426	0.0175423
713.504	0.0177658
713.582	0.0177242
713.660	0.0176516
713.738	0.0176589
713.817	0.0178399
713.895	0.0178092
713.973	0.0176154
714.051	0.0177303
714.129	0.0176592
714.207	0.0176865
714.285	0.0177429
714.363	0.0177409
714.442	0.0177104
714.520	0.0176388
714.598	0.0176607
714.676	0.0176792
714.754	0.0176580
714.832	0.0176867
714.910	0.0176280
714.988	0.0176839
715.067	0.0175676
715.145	0.0174395
715.223	0.0174590
715.301	0.0176463
715.379	0.0175058
715.457	0.0174448
715.535	0.0173780
715.613	0.0173774
715.692	0.0174886
715.770	0.0174087
715.848	0.0173528
715.926	0.0172707
716.004	0.0172913
716.082	0.0172833
716.160	0.0171925
716.238	0.0172701
716.317	0.0173138
716.395	0.0173282
716.473	0.0172537
716.551	0.0174628
716.629	0.0174796
716.707	0.0176250
716.785	0.0175682
716.863	0.0174358
716.942	0.0174002
717.020	0.0174212
717.098	0.0174885
717.176	0.0174289
717.254	0.0172788
717.332	0.0172011
717.410	0.0172594
717.488	0.0172491
717.567	0.0171870
717.645	0.0172192
717.723	0.0171848
717.801	0.0171771
717.879	0.0171979
717.957	0.0171353
718.035	0.0173117
718.113	0.0170524
718.192	0.0169805
718.270	0.0171633
718.348	0.0172790
718.426	0.0173354
718.504	0.0173360
718.582	0.0173234
718.660	0.0173894
718.738	0.0174032
718.817	0.0174931
718.895	0.0175209
718.973	0.0177161
719.051	0.0178230
719.129	0.0178601
719.207	0.0177879
719.285	0.0178027
719.363	0.0178239
719.442	0.0177877
719.520	0.0180008
719.598	0.0179677
719.676	0.0179028
719.754	0.0179033
719.832	0.0181161
719.910	0.0177367
719.988	0.0176605
720.067	0.0176260
720.145	0.0176935
720.223	0.0177248
720.301	0.0176928
720.379	0.0176091
720.457	0.0175771
720.535	0.0175620
720.613	0.0176228
720.692	0.0175466
720.770	0.0177141
720.848	0.0177094
720.926	0.0177573
721.004	0.0177300
721.082	0.0177711
721.160	0.0178473
721.238	0.0179269
721.317	0.0178468
721.395	0.0178787
721.473	0.0178550
721.551	0.0177962
721.629	0.0178965
721.707	0.0179140
721.785	0.0177032
721.863	0.0179723
721.942	0.0179744
722.020	0.0180250
722.098	0.0179073
722.176	0.0179962
722.254	0.0181146
722.332	0.0180938
722.410	0.0180190
722.488	0.0180672
722.567	0.0181044
722.645	0.0179729
722.723	0.0179343
722.801	0.0177613
722.879	0.0179123
722.957	0.0177875
723.035	0.0177994
723.113	0.0176393
723.192	0.0176785
723.270	0.0175967
723.348	0.0175944
723.426	0.0175119
723.504	0.0172324
723.582	0.0171349
723.660	0.0171709
723.738	0.0171668
723.817	0.0170434
723.895	0.0170787
723.973	0.0170812
724.051	0.0170879
724.129	0.0170148
724.207	0.0170554
724.285	0.0169694
724.363	0.0168162
724.442	0.0169492
724.520	0.0169734
724.598	0.0168872
724.676	0.0171390
724.754	0.0169367
724.832	0.0170486
724.910	0.0171448
724.988	0.0170282
725.067	0.0170835
725.145	0.0171413
725.223	0.0171002
725.301	0.0173004
725.379	0.0173739
725.457	0.0172757
725.535	0.0174466
725.613	0.0175167
725.692	0.0174837
725.770	0.0176247
725.848	0.0175841
725.926	0.0175713
726.004	0.0176795
726.082	0.0177732
726.160	0.0176176
726.238	0.0176309
726.317	0.0177684
726.395	0.0179388
726.473	0.0178397
726.551	0.0178400
726.629	0.0179517
726.707	0.0179356
726.785	0.0179031
726.863	0.0179678
726.942	0.0179409
727.020	0.0179121
727.098	0.0178010
727.176	0.0178408
727.254	0.0178837
727.332	0.0179574
727.410	0.0178517
727.488	0.0178762
727.567	0.0178267
727.645	0.0178415
727.723	0.0178159
727.801	0.0177983
727.879	0.0178162
727.957	0.0176940
728.035	0.0176374
728.113	0.0177229
728.192	0.0177713
728.270	0.0176370
728.348	0.0176344
728.426	0.0175191
728.504	0.0175244
728.582	0.0173798
728.660	0.0173766
728.738	0.0174182
728.817	0.0173296
728.895	0.0172295
728.973	0.0173052
729.051	0.0173371
729.129	0.0172699
729.207	0.0172943
729.285	0.0174783
729.363	0.0173812
729.442	0.0172829
729.520	0.0173326
729.598	0.0175047
729.676	0.0174095
729.754	0.0173249
729.832	0.0175370
729.910	0.0174200
729.988	0.0173447
730.067	0.0174541
730.145	0.0174056
730.223	0.0172972
730.301	0.0174557
730.379	0.0172926
730.457	0.0172713
730.535	0.0172475
730.613	0.0171967
730.692	0.0172306
730.770	0.0172334
730.848	0.0172891
730.926	0.0172439
731.004	0.0172365
731.082	0.0171878
731.160	0.0172752
731.238	0.0173449
731.317	0.0173598
731.395	0.0173251
731.473	0.0173787
731.551	0.0173000
731.629	0.0174415
731.707	0.0174059
731.785	0.0174476
731.863	0.0176028
731.942	0.0175684
732.020	0.0175026
732.098	0.0176064
732.176	0.0176724
732.254	0.0174863
732.332	0.0176466
732.410	0.0178884
732.488	0.0177010
732.567	0.0179874
732.645	0.0179308
732.723	0.0178883
732.801	0.0179063
732.879	0.0180219
732.957	0.0179906
733.035	0.0179572
733.113	0.0178881
733.192	0.0179594
733.270	0.0177431
733.348	0.0177272
733.426	0.0177170
733.504	0.0177020
733.582	0.0177374
733.660	0.0177974
733.738	0.0175994
733.817	0.0177208
733.895	0.0177978
733.973	0.0176450
734.051	0.0177395
734.129	0.0177753
734.207	0.0178403
734.285	0.0178626
734.363	0.0177802
734.442	0.0177063
734.520	0.0176647
734.598	0.0179112
734.676	0.0179367
734.754	0.0179614
734.832	0.0178767
734.910	0.0178204
734.988	0.0177085
735.067	0.0178490
735.145	0.0179561
735.223	0.0178090
735.301	0.0177102
735.379	0.0176702
735.457	0.0177601
735.535	0.0174644
735.613	0.0175729
735.692	0.0174418
735.770	0.0174331
735.848	0.0173133
735.926	0.0172764
736.004	0.0173833
736.082	0.0170948
736.160	0.0171233
736.238	0.0170899
736.317	0.0169461
736.395	0.0168764
736.473	0.0167894
736.551	0.0168497
736.629	0.0165924
736.707	0.0166875
736.785	0.0167123
736.863	0.0167625
736.942	0.0167387
737.020	0.0166039
737.098	0.0168057
737.176	0.0167815
737.254	0.0167411
737.332	0.0166212
737.410	0.0166613
737.488	0.0167865
737.567	0.0168285
737.645	0.0168024
737.723	0.0168835
737.801	0.0169023
737.879	0.0170388
737.957	0.0170138
738.035	0.0171334
738.113	0.0171196
738.192	0.0172062
738.270	0.0170407
738.348	0.0172661
738.426	0.0174537
738.504	0.0174199
738.582	0.0174049
738.660	0.0176405
738.738	0.0175694
738.817	0.0175461
738.895	0.0175948
738.973	0.0176662
739.051	0.0176407
739.129	0.0177051
739.207	0.0176182
739.285	0.0177131
739.363	0.0177380
739.442	0.0178960
739.520	0.0177638
739.598	0.0178966
739.676	0.0179254
739.754	0.0179614
739.832	0.0180271
739.910	0.0179591
739.988	0.0178682
740.067	0.0179677
740.145	0.0178978
740.223	0.0178992
740.301	0.0179688
740.379	0.0178000
740.457	0.0178067
740.535	0.0177831
740.613	0.0178652
740.692	0.0177642
740.770	0.0177026
740.848	0.0176180
740.926	0.0176604
741.004	0.0176654
741.082	0.0175076
741.160	0.0175639
741.238	0.0175803
741.317	0.0174793
741.395	0.0173142
741.473	0.0174590
741.551	0.0174646
741.629	0.0173286
741.707	0.0172860
741.785	0.0174548
741.863	0.0172849
741.942	0.0172719
742.020	0.0173080
742.098	0.0172586
742.176	0.0173927
742.254	0.0172626
742.332	0.0170515
742.410	0.0172466
742.488	0.0173143
742.567	0.0172069
742.645	0.0171277
742.723	0.0171308
742.801	0.0171761
742.879	0.0172217
742.957	0.0172162
743.035	0.0172427
743.113	0.0174339
743.192	0.0173365
743.270	0.0173895
743.348	0.0174664
743.426	0.0174591
743.504	0.0175445
743.582	0.0175700
743.660	0.0174206
743.738	0.0174960
743.817	0.0174620
743.895	0.0175816
743.973	0.0174487
744.051	0.0174429
744.129	0.0174843
744.207	0.0175336
744.285	0.0175504
744.363	0.0174138
744.442	0.0174805
744.520	0.0175245
744.598	0.0174241
744.676	0.0173345
744.754	0.0173388
744.832	0.0174158
744.910	0.0174135
744.988	0.0174452
745.067	0.0173583
745.145	0.0174048
745.223	0.0174328
745.301	0.0174989
745.379	0.0175151
745.457	0.0175068
745.535	0.0174767
745.613	0.0173870
745.692	0.0174928
745.770	0.0174859
745.848	0.0174927
745.926	0.0174760
746.004	0.0174310
746.082	0.0175136
746.160	0.0174178
746.238	0.0173376
746.317	0.0174551
746.395	0.0174200
746.473	0.0173656
746.551	0.0173961
746.629	0.0175048
746.707	0.0174639
746.785	0.0174951
746.863	0.0173016
746.942	0.0173606
747.020	0.0172579
747.098	0.0173655
747.176	0.0174180
747.254	0.0174023
747.332	0.0173129
747.410	0.0174817
747.488	0.0174123
747.567	0.0175392
747.645	0.0174593
747.723	0.0175765
747.801	0.0175219
747.879	0.0176296
747.957	0.0175777
748.035	0.0176282
748.113	0.0176440
748.192	0.0176968
748.270	0.0176176
748.348	0.0175369
748.426	0.0176270
748.504	0.0177143
748.582	0.0176880
748.660	0.0174941
748.738	0.0173396
748.817	0.0174566
748.895	0.0174082
748.973	0.0173951
749.051	0.0172640
749.129	0.0173038
749.207	0.0171565
749.285	0.0171981
749.363	0.0171875
749.442	0.0170668
749.520	0.0171249
749.598	0.0172482
749.676	0.0170848
749.754	0.0171511
749.832	0.0171008
749.910	0.0170197
749.988	0.0170535
750.067	0.0170192
750.145	0.0171156
750.223	0.0170347
750.301	0.0171210
750.379	0.0172482
750.457	0.0170165
750.535	0.0171333
750.613	0.0171141
750.692	0.0172805
750.770	0.0173449
750.848	0.0174093
750.926	0.0173399
751.004	0.0173773
751.082	0.0173807
751.160	0.0176569
751.238	0.0175707
751.317	0.0175876
751.395	0.0176299
751.473	0.0177320
751.551	0.0177270
751.629	0.0178268
751.707	0.0176884
751.785	0.0178106
751.863	0.0179279
751.942	0.0177899
752.020	0.0176414
752.098	0.0178084
752.176	0.0176672
752.254	0.0175673
752.332	0.0175995
752.410	0.0176004
752.488	0.0175465
752.567	0.0175816
752.645	0.0175579
752.723	0.0175282
752.801	0.0174915
752.879	0.0176565
752.957	0.0176711
753.035	0.0176308
753.113	0.0175445
753.192	0.0174500
753.270	0.0175259
753.348	0.0175314
753.426	0.0174231
753.504	0.0174775
753.582	0.0173992
753.660	0.0174163
753.738	0.0173657
753.817	0.0173238
753.895	0.0173116
753.973	0.0172848
754.051	0.0172710
754.129	0.0171764
754.207	0.0172794
754.285	0.0170495
754.363	0.0171454
754.442	0.0172146
754.520	0.0171446
754.598	0.0171714
754.676	0.0171904
754.754	0.0171790
754.832	0.0172401
754.910	0.0172753
754.988	0.0173369
755.067	0.0172001
755.145	0.0172091
755.223	0.0170652
755.301	0.0170576
755.379	0.0172707
755.457	0.0172060
755.535	0.0172746
755.613	0.0173425
755.692	0.0173870
755.770	0.0172944
755.848	0.0170164
755.926	0.0171512
756.004	0.0169445
756.082	0.0169566
756.160	0.0168483
756.238	0.0169481
756.317	0.0170900
756.395	0.0170128
756.473	0.0169587
756.551	0.0169305
756.629	0.0168854
756.707	0.0169340
756.785	0.0170314
756.863	0.0169672
756.942	0.0169889
757.020	0.0170525
757.098	0.0170090
757.176	0.0168098
757.254	0.0169336
757.332	0.0169844
757.410	0.0171699
757.488	0.0170474
757.567	0.0170055
757.645	0.0170721
757.723	0.0171982
757.801	0.0171502
757.879	0.0172932
757.957	0.0172198
758.035	0.0173112
758.113	0.0172657
758.192	0.0172811
758.270	0.0174624
758.348	0.0174570
758.426	0.0173589
758.504	0.0173994
758.582	0.0174452
758.660	0.0174340
758.738	0.0175116
758.817	0.0176994
758.895	0.0174323
758.973	0.0174610
759.051	0.0175013
759.129	0.0175757
759.207	0.0174964
759.285	0.0174878
759.363	0.0175689
759.442	0.0176334
759.520	0.0176086
759.598	0.0176587
759.676	0.0176565
759.754	0.0176662
759.832	0.0178961
759.910	0.0178191
759.988	0.0177611
760.067	0.0177961
760.145	0.0178933
760.223	0.0178931
760.301	0.0178721
760.379	0.0179503
760.457	0.0180361
760.535	0.0178751
760.613	0.0179806
760.692	0.0178503
760.770	0.0179236
760.848	0.0179214
760.926	0.0178391
761.004	0.0179482
761.082	0.0180079
761.160	0.0179254
761.238	0.0178421
761.317	0.0178262
761.395	0.0177937
761.473	0.0177744
761.551	0.0177235
761.629	0.0178399
761.707	0.0177357
761.785	0.0176295
761.863	0.0176376
761.942	0.0175719
762.020	0.0176525
762.098	0.0176952
762.176	0.0175858
762.254	0.0175495
762.332	0.0176165
762.410	0.0176410
762.488	0.0176357
762.567	0.0176478
762.645	0.0176098
762.723	0.0176590
762.801	0.0176612
762.879	0.0177518
762.957	0.0177161
763.035	0.0177052
763.113	0.0178034
763.192	0.0178136
763.270	0.0178016
763.348	0.0178886
763.426	0.0178508
763.504	0.0178091
763.582	0.0177769
763.660	0.0178148
763.738	0.0178993
763.817	0.0177640
763.895	0.0177497
763.973	0.0176298
764.051	0.0177794
764.129	0.0177682
764.207	0.0177148
764.285	0.0175452
764.363	0.0176288
764.442	0.0175110
764.520	0.0177058
764.598	0.0176376
764.676	0.0175361
764.754	0.0174966
764.832	0.0175402
764.910	0.0176183
764.988	0.0176197
765.067	0.0174825
765.145	0.0175916
765.223	0.0174363
765.301	0.0177261
765.379	0.0176694
765.457	0.0176733
765.535	0.0175948
765.613	0.0176532
765.692	0.0177048
765.770	0.0177611
765.848	0.0177261
765.926	0.0176408
766.004	0.0176888
766.082	0.0177108
766.160	0.0177479
766.238	0.0176589
766.317	0.0175339
766.395	0.0175365
766.473	0.0175023
766.551	0.0176765
766.629	0.0174493
766.707	0.0173235
766.785	0.0176000
766.863	0.0174954
766.942	0.0174804
767.020	0.0173390
767.098	0.0174113
767.176	0.0174983
767.254	0.0176455
767.332	0.0175768
767.410	0.0174174
767.488	0.0174974
767.567	0.0176176
767.645	0.0175211
767.723	0.0176418
767.801	0.0175156
767.879	0.0176105
767.957	0.0174414
768.035	0.0174622
768.113	0.0173953
768.192	0.0173824
768.270	0.0174850
768.348	0.0174838
768.426	0.0174149
768.504	0.0173844
768.582	0.0175005
768.660	0.0173630
768.738	0.0173516
768.817	0.0173580
768.895	0.0173235
768.973	0.0171892
769.051	0.0172228
769.129	0.0173412
769.207	0.0173566
769.285	0.0172328
769.363	0.0172356
769.442	0.0172906
769.520	0.0172371
769.598	0.0172347
769.676	0.0174194
769.754	0.0174648
769.832	0.0173827
769.910	0.0173980
769.988	0.0173105
770.067	0.0174349
770.145	0.0175139
770.223	0.0175616
770.301	0.0175196
770.379	0.0174905
770.457	0.0176046
770.535	0.0175341
770.613	0.0176309
770.692	0.0176578
770.770	0.0175887
770.848	0.0176469
770.926	0.0176067
771.004	0.0174546
771.082	0.0174046
771.160	0.0175427
771.238	0.0172878
771.317	0.0172401
771.395	0.0171854
771.473	0.0171059
771.551	0.0171531
771.629	0.0171417
771.707	0.0171880
771.785	0.0171229
771.863	0.0169564
771.942	0.0172793
772.020	0.0171442
772.098	0.0172989
772.176	0.0173753
772.254	0.0172992
772.332	0.0174311
772.410	0.0173759
772.488	0.0173757
772.567	0.0174152
772.645	0.0173524
772.723	0.0173989
772.801	0.0175388
772.879	0.0173440
772.957	0.0173666
773.035	0.0172796
773.113	0.0174632
773.192	0.0174697
773.270	0.0173522
773.348	0.0174043
773.426	0.0173901
773.504	0.0173316
773.582	0.0174797
773.660	0.0174465
773.738	0.0174350
773.817	0.0175368
773.895	0.0176436
773.973	0.0176733
774.051	0.0174990
774.129	0.0176505
774.207	0.0177419
774.285	0.0176693
774.363	0.0176520
774.442	0.0177568
774.520	0.0177216
774.598	0.0177448
774.676	0.0176985
774.754	0.0176823
774.832	0.0176433
774.910	0.0175555
774.988	0.0176057
775.067	0.0176909
775.145	0.0175459
775.223	0.0175178
775.301	0.0174419
775.379	0.0174618
775.457	0.0174403
775.535	0.0174445
775.613	0.0175166
775.692	0.0173592
775.770	0.0174180
775.848	0.0172419
775.926	0.0172931
776.004	0.0172281
776.082	0.0172140
776.160	0.0173817
776.238	0.0172913
776.317	0.0173576
776.395	0.0171860
776.473	0.0171558
776.551	0.0172661
776.629	0.0172037
776.707	0.0171275
776.785	0.0171072
776.863	0.0172350
776.942	0.0173544
777.020	0.0170969
777.098	0.0170947
777.176	0.0170713
777.254	0.0170781
777.332	0.0171645
777.410	0.0171458
777.488	0.0170943
777.567	0.0170057
777.645	0.0170617
777.723	0.0170987
777.801	0.0171904
777.879	0.0170172
777.957	0.0171571
778.035	0.0171344
778.113	0.0170831
778.192	0.0171169
778.270	0.0171108
778.348	0.0170613
778.426	0.0171916
778.504	0.0172961
778.582	0.0172179
778.660	0.0172179
778.738	0.0172153
778.817	0.0172417
778.895	0.0172168
778.973	0.0172350
779.051	0.0172237
779.129	0.0172152
779.207	0.0173647
779.285	0.0172535
779.363	0.0172225
779.442	0.0173162
779.520	0.0172946
779.598	0.0172103
779.676	0.0173168
779.754	0.0172137
779.832	0.0173019
779.910	0.0172525
779.988	0.0171651
780.067	0.0171886
780.145	0.0172483
780.223	0.0172840
780.301	0.0171585
780.379	0.0173116
780.457	0.0174266
780.535	0.0173801
780.613	0.0172709
780.692	0.0173320
780.770	0.0174366
780.848	0.0175065
780.926	0.0173782
781.004	0.0173762
781.082	0.0174800
781.160	0.0175451
781.238	0.0174575
781.317	0.0174320
781.395	0.0175414
781.473	0.0174876
781.551	0.0176043
781.629	0.0175399
781.707	0.0175959
781.785	0.0174553
781.863	0.0176047
781.942	0.0175413
782.020	0.0176396
782.098	0.0175575
782.176	0.0175777
782.254	0.0176236
782.332	0.0176617
782.410	0.0176955
782.488	0.0175657
782.567	0.0177303
782.645	0.0176959
782.723	0.0175749
782.801	0.0176553
782.879	0.0178495
782.957	0.0177068
783.035	0.0178412
783.113	0.0178632
783.192	0.0177907
783.270	0.0178559
783.348	0.0179130
783.426	0.0180093
783.504	0.0179624
783.582	0.0178883
783.660	0.0179849
783.738	0.0179435
783.817	0.0180282
783.895	0.0182798
783.973	0.0182531
784.051	0.0181537
784.129	0.0181789
784.207	0.0182024
784.285	0.0181939
784.363	0.0180366
784.442	0.0179381
784.520	0.0179460
784.598	0.0180730
784.676	0.0179493
784.754	0.0178551
784.832	0.0178869
784.910	0.0179092
784.988	0.0178659
785.067	0.0177924
785.145	0.0177943
785.223	0.0178107
785.301	0.0178276
785.379	0.0176771
785.457	0.0176434
785.535	0.0177070
785.613	0.0176453
785.692	0.0176017
785.770	0.0177402
785.848	0.0176884
785.926	0.0176427
786.004	0.0176808
786.082	0.0176201
786.160	0.0175819
786.238	0.0176124
786.317	0.0176930
786.395	0.0176208
786.473	0.0176928
786.551	0.0176531
786.629	0.0174760
786.707	0.0176856
786.785	0.0176180
786.863	0.0175029
786.942	0.0174674
787.020	0.0174530
787.098	0.0174855
787.176	0.0174235
787.254	0.0174714
787.332	0.0174892
787.410	0.0174415
787.488	0.0173774
787.567	0.0175483
787.645	0.0173096
787.723	0.0174093
787.801	0.0174442
787.879	0.0171396
787.957	0.0173686
788.035	0.0173070
788.113	0.0174116
788.192	0.0173764
788.270	0.0174014
788.348	0.0174435
788.426	0.0173697
788.504	0.0174191
788.582	0.0173910
788.660	0.0173363
788.738	0.0174097
788.817	0.0173888
788.895	0.0172832
788.973	0.0173268
789.051	0.0173750
789.129	0.0175180
789.207	0.0175320
789.285	0.0173815
789.363	0.0175256
789.442	0.0174518
789.520	0.0174170
789.598	0.0175700
789.676	0.0173643
789.754	0.0174416
789.832	0.0176199
789.910	0.0175597
789.988	0.0177435
790.067	0.0175469
790.145	0.0177063
790.223	0.0177539
790.301	0.0176379
790.379	0.0176927
790.457	0.0177425
790.535	0.0178719
790.613	0.0177818
790.692	0.0178675
790.770	0.0179618
790.848	0.0179762
790.926	0.0179230
791.004	0.0177885
791.082	0.0178080
791.160	0.0179144
791.238	0.0179580
791.317	0.0179472
791.395	0.0178377
791.473	0.0178595
791.551	0.0178920
791.629	0.0178426
791.707	0.0178803
791.785	0.0177816
791.863	0.0177109
791.942	0.0177473
792.020	0.0178080
792.098	0.0176942
792.176	0.0175229
792.254	0.0175139
792.332	0.0175641
792.410	0.0174751
792.488	0.0175689
792.567	0.0175819
792.645	0.0174250
792.723	0.0172723
792.801	0.0174316
792.879	0.0172858
792.957	0.0172222
793.035	0.0171892
793.113	0.0171928
793.192	0.0171122
793.270	0.0171411
793.348	0.0170485
793.426	0.0169664
793.504	0.0169217
793.582	0.0171429
793.660	0.0170918
793.738	0.0169318
793.817	0.0169274
793.895	0.0167229
793.973	0.0168619
794.051	0.0169878
794.129	0.0169147
794.207	0.0168342
794.285	0.0167910
794.363	0.0168690
794.442	0.0169096
794.520	0.0169283
794.598	0.0169627
794.676	0.0169886
794.754	0.0170870
794.832	0.0170747
794.910	0.0170811
794.988	0.0171302
795.067	0.0171526
795.145	0.0172124
795.223	0.0172588
795.301	0.0172564
795.379	0.0172344
795.457	0.0172911
795.535	0.0174138
795.613	0.0172478
795.692	0.0173000
795.770	0.0171332
795.848	0.0173029
795.926	0.0174442
796.004	0.0173030
796.082	0.0172344
796.160	0.0172696
796.238	0.0172176
796.317	0.0173779
796.395	0.0172228
796.473	0.0172456
796.551	0.0171605
796.629	0.0171158
796.707	0.0173795
796.785	0.0171649
796.863	0.0172447
796.942	0.0172296
797.020	0.0172753
797.098	0.0172038
797.176	0.0172564
797.254	0.0171770
797.332	0.0172296
797.410	0.0173253
797.488	0.0172158
797.567	0.0172852
797.645	0.0173478
797.723	0.0175165
797.801	0.0175706
797.879	0.0173738
797.957	0.0174203
798.035	0.0175236
798.113	0.0175775
798.192	0.0176332
798.270	0.0175858
798.348	0.0174824
798.426	0.0174895
798.504	0.0176378
798.582	0.0177088
798.660	0.0175778
798.738	0.0175582
798.817	0.0176395
798.895	0.0176749
798.973	0.0177693
799.051	0.0177000
799.129	0.0178999
799.207	0.0178110
799.285	0.0177177
799.363	0.0179729
799.442	0.0177869
799.520	0.0177601
799.598	0.0178886
799.676	0.0178767
799.754	0.0177419
799.832	0.0178629
799.910	0.0178391
799.988	0.0177238
800.067	0.0178161
800.145	0.0177741
800.223	0.0176379
800.301	0.0176305
800.379	0.0178042
800.457	0.0177045
800.535	0.0176986
800.613	0.0176392
800.692	0.0176460
800.770	0.0176446
800.848	0.0176592
800.926	0.0176714
801.004	0.0175697
801.082	0.0176918
801.160	0.0176946
801.238	0.0175621
801.317	0.0175835
801.395	0.0175669
801.473	0.0175031
801.551	0.0174986
801.629	0.0174483
801.707	0.0175735
801.785	0.0175365
801.863	0.0174351
801.942	0.0174895
802.020	0.0173584
802.098	0.0173920
802.176	0.0172987
802.254	0.0173521
802.332	0.0174114
802.410	0.0173032
802.488	0.0173676
802.567	0.0175116
802.645	0.0174148
802.723	0.0174250
802.801	0.0175599
802.879	0.0176491
802.957	0.0174494
803.035	0.0174428
803.113	0.0175423
803.192	0.0175481
803.270	0.0175874
803.348	0.0173989
803.426	0.0173739
803.504	0.0173015
803.582	0.0174731
803.660	0.0174856
803.738	0.0174057
803.817	0.0175098
803.895	0.0174516
803.973	0.0174231
804.051	0.0174332
804.129	0.0174923
804.207	0.0175278
804.285	0.0173589
804.363	0.0176632
804.442	0.0175361
804.520	0.0175027
804.598	0.0175446
804.676	0.0174805
804.754	0.0176227
804.832	0.0174823
804.910	0.0173978
804.988	0.0174799
805.067	0.0174941
805.145	0.0172333
805.223	0.0174194
805.301	0.0175426
805.379	0.0172926
805.457	0.0173150
805.535	0.0173510
805.613	0.0172646
805.692	0.0173461
805.770	0.0173270
805.848	0.0172480
805.926	0.0173228
806.004	0.0174277
806.082	0.0173317
806.160	0.0173842
806.238	0.0174159
806.317	0.0173335
806.395	0.0174068
806.473	0.0173924
806.551	0.0173865
806.629	0.0174309
806.707	0.0175446
806.785	0.0175191
806.863	0.0176008
806.942	0.0175851
807.020	0.0176093
807.098	0.0174029
807.176	0.0175554
807.254	0.0175151
807.332	0.0177641
807.410	0.0174860
807.488	0.0176048
807.567	0.0177254
807.645	0.0177673
807.723	0.0177975
807.801	0.0177207
807.879	0.0176185
807.957	0.0177077
808.035	0.0177302
808.113	0.0176289
808.192	0.0176142
808.270	0.0177519
808.348	0.0175603
808.426	0.0176006
808.504	0.0176586
808.582	0.0176192
808.660	0.0175400
808.738	0.0175077
808.817	0.0175940
808.895	0.0176476
808.973	0.0175919
809.051	0.0176244
809.129	0.0175366
809.207	0.0174507
809.285	0.0175793
809.363	0.0174260
809.442	0.0175523
809.520	0.0175790
809.598	0.0175947
809.676	0.0174957
809.754	0.0175882
809.832	0.0175259
809.910	0.0175456
809.988	0.0176183
810.067	0.0177639
810.145	0.0178034
810.223	0.0177230
810.301	0.0175591
810.379	0.0177312
810.457	0.0177446
810.535	0.0176936
810.613	0.0176592
810.692	0.0178067
810.770	0.0177631
810.848	0.0177641
810.926	0.0177089
811.004	0.0176857
811.082	0.0176919
811.160	0.0177696
811.238	0.0177087
811.317	0.0176475
811.395	0.0176594
811.473	0.0176395
811.551	0.0175775
811.629	0.0176640
811.707	0.0175418
811.785	0.0174621
811.863	0.0175732
811.942	0.0176163
812.020	0.0175424
812.098	0.0175964
812.176	0.0176422
812.254	0.0176115
812.332	0.0176990
812.410	0.0178072
812.488	0.0176944
812.567	0.0176522
812.645	0.0177407
812.723	0.0178284
812.801	0.0178147
812.879	0.0176906
812.957	0.0177310
813.035	0.0178780
813.113	0.0178699
813.192	0.0177315
813.270	0.0177563
813.348	0.0176929
813.426	0.0177525
813.504	0.0177614
813.582	0.0176402
813.660	0.0176592
813.738	0.0176038
813.817	0.0176672
813.895	0.0176508
813.973	0.0177234
814.051	0.0177268
814.129	0.0177122
814.207	0.0176436
814.285	0.0176157
814.363	0.0176604
814.442	0.0176719
814.520	0.0175861
814.598	0.0177039
814.676	0.0175005
814.754	0.0175927
814.832	0.0173856
814.910	0.0175855
814.988	0.0177119
815.067	0.0175420
815.145	0.0175661
815.223	0.0175827
815.301	0.0176996
815.379	0.0175912
815.457	0.0173882
815.535	0.0175671
815.613	0.0173878
815.692	0.0175026
815.770	0.0173925
815.848	0.0174529
815.926	0.0174540
816.004	0.0173706
816.082	0.0172200
816.160	0.0173737
816.238	0.0173229
816.317	0.0173404
816.395	0.0173877
816.473	0.0172489
816.551	0.0173043
816.629	0.0171924
816.707	0.0171510
816.785	0.0172486
816.863	0.0172034
816.942	0.0172325
817.020	0.0171841
817.098	0.0171409
817.176	0.0172879
817.254	0.0172980
817.332	0.0170868
817.410	0.0171357
817.488	0.0171773
817.567	0.0170150
817.645	0.0170937
817.723	0.0170455
817.801	0.0171696
817.879	0.0170058
817.957	0.0170223
818.035	0.0170637
818.113	0.0170402
818.192	0.0171098
818.270	0.0171019
818.348	0.0170025
818.426	0.0171658
818.504	0.0171762
818.582	0.0171776
818.660	0.0172440
818.738	0.0174389
818.817	0.0172312
818.895	0.0172038
818.973	0.0173960
819.051	0.0174187
819.129	0.0173991
819.207	0.0174589
819.285	0.0172778
819.363	0.0172978
819.442	0.0173360
819.520	0.0173743
819.598	0.0173462
819.676	0.0174114
819.754	0.0174290
819.832	0.0174901
819.910	0.0175287
819.988	0.0176401
820.067	0.0175716
820.145	0.0174380
820.223	0.0176317
820.301	0.0176093
820.379	0.0176707
820.457	0.0177016
820.535	0.0176360
820.613	0.0176409
820.692	0.0175536
820.770	0.0176097
820.848	0.0175132
820.926	0.0175359
821.004	0.0176721
821.082	0.0174571
821.160	0.0174976
821.238	0.0173362
821.317	0.0174587
821.395	0.0174211
821.473	0.0175446
821.551	0.0174773
821.629	0.0176434
821.707	0.0175986
821.785	0.0177105
821.863	0.0177194
821.942	0.0177258
822.020	0.0178732
822.098	0.0177912
822.176	0.0179430
822.254	0.0178976
822.332	0.0181458
822.410	0.0181175
822.488	0.0180518
822.567	0.0181020
822.645	0.0181846
822.723	0.0181206
822.801	0.0182361
822.879	0.0182257
822.957	0.0181609
823.035	0.0181287
823.113	0.0180441
823.192	0.0181637
823.270	0.0181754
823.348	0.0179820
823.426	0.0180152
823.504	0.0179604
823.582	0.0178790
823.660	0.0178182
823.738	0.0178905
823.817	0.0177914
823.895	0.0175933
823.973	0.0176772
824.051	0.0176556
824.129	0.0175277
824.207	0.0175583
824.285	0.0174124
824.363	0.0174448
824.442	0.0173644
824.520	0.0173236
824.598	0.0173561
824.676	0.0173228
824.754	0.0172529
824.832	0.0172746
824.910	0.0171628
824.988	0.0171280
825.067	0.0172134
825.145	0.0170404
825.223	0.0170753
825.301	0.0172292
825.379	0.0170946
825.457	0.0170149
825.535	0.0170191
825.613	0.0170381
825.692	0.0170514
825.770	0.0170960
825.848	0.0171118
825.926	0.0171838
826.004	0.0171303
826.082	0.0171221
826.160	0.0171681
826.238	0.0172894
826.317	0.0172559
826.395	0.0172760
826.473	0.0172997
826.551	0.0172443
826.629	0.0172814
826.707	0.0174271
826.785	0.0174570
826.863	0.0174075
826.942	0.0175203
827.020	0.0174488
827.098	0.0174424
827.176	0.0173788
827.254	0.0174765
827.332	0.0176277
827.410	0.0174414
827.488	0.0176715
827.567	0.0176485
827.645	0.0176523
827.723	0.0175457
827.801	0.0175722
827.879	0.0175566
827.957	0.0175790
828.035	0.0176725
828.113	0.0178024
828.192	0.0177458
828.270	0.0175777
828.348	0.0176458
828.426	0.0176766
828.504	0.0177841
828.582	0.0177026
828.660	0.0175868
828.738	0.0176996
828.817	0.0176627
828.895	0.0177314
828.973	0.0175525
829.051	0.0175896
829.129	0.0175968
829.207	0.0175836
829.285	0.0175274
829.363	0.0175782
829.442	0.0175835
829.520	0.0174648
829.598	0.0175581
829.676	0.0175137
829.754	0.0175331
829.832	0.0173243
829.910	0.0173898
829.988	0.0174355
830.067	0.0174136
830.145	0.0174096
830.223	0.0175460
830.301	0.0176181
830.379	0.0175406
830.457	0.0175021
830.535	0.0175983
830.613	0.0174872
830.692	0.0175163
830.770	0.0176309
830.848	0.0177460
830.926	0.0178082
831.004	0.0176704
831.082	0.0176327
831.160	0.0175780
831.238	0.0175203
831.317	0.0176355
831.395	0.0175086
831.473	0.0173830
831.551	0.0173383
831.629	0.0174051
831.707	0.0173588
831.785	0.0172944
831.863	0.0173051
831.942	0.0171507
832.020	0.0172960
832.098	0.0172124
832.176	0.0172984
832.254	0.0170823
832.332	0.0172088
832.410	0.0173607
832.488	0.0172612
832.567	0.0171408
832.645	0.0172862
832.723	0.0173218
832.801	0.0172486
832.879	0.0172573
832.957	0.0173039
833.035	0.0172807
833.113	0.0173093
833.192	0.0172057
833.270	0.0171471
833.348	0.0172980
833.426	0.0173367
833.504	0.0173698
833.582	0.0173621
833.660	0.0173196
833.738	0.0175094
833.817	0.0174081
833.895	0.0175266
833.973	0.0175166
834.051	0.0174901
834.129	0.0175667
834.207	0.0176035
834.285	0.0174149
834.363	0.0173477
834.442	0.0174990
834.520	0.0175821
834.598	0.0175375
834.676	0.0176093
834.754	0.0175146
834.832	0.0175163
834.910	0.0175029
834.988	0.0175815
835.067	0.0172822
835.145	0.0176132
835.223	0.0175980
835.301	0.0176761
835.379	0.0175397
835.457	0.0176533
835.535	0.0177065
835.613	0.0176167
835.692	0.0176753
835.770	0.0176662
835.848	0.0177049
835.926	0.0175675
836.004	0.0177488
836.082	0.0175422
836.160	0.0176482
836.238	0.0174787
836.317	0.0175118
836.395	0.0175953
836.473	0.0177145
836.551	0.0175765
836.629	0.0175843
836.707	0.0176516
836.785	0.0175082
836.863	0.0175731
836.942	0.0174360
837.020	0.0173956
837.098	0.0174168
837.176	0.0174693
837.254	0.0173373
837.332	0.0173923
837.410	0.0173532
837.488	0.0174369
837.567	0.0173875
837.645	0.0173291
837.723	0.0173187
837.801	0.0173434
837.879	0.0173651
837.957	0.0173169
838.035	0.0173492
838.113	0.0173232
838.192	0.0173939
838.270	0.0174706
838.348	0.0173630
838.426	0.0173351
838.504	0.0173216
838.582	0.0174252
838.660	0.0173519
838.738	0.0174492
838.817	0.0173994
838.895	0.0172798
838.973	0.0174631
839.051	0.0173044
839.129	0.0173678
839.207	0.0174296
839.285	0.0173097
839.363	0.0173149
839.442	0.0174458
839.520	0.0173972
839.598	0.0173775
839.676	0.0175114
839.754	0.0174457
839.832	0.0174621
839.910	0.0175248
839.988	0.0175214
840.067	0.0175076
840.145	0.0175711
840.223	0.0174696
840.301	0.0175771
840.379	0.0176762
840.457	0.0176701
840.535	0.0176357
840.613	0.0175806
840.692	0.0177943
840.770	0.0177158
840.848	0.0175973
840.926	0.0176858
841.004	0.0177122
841.082	0.0178156
841.160	0.0178820
841.238	0.0177578
841.317	0.0176801
841.395	0.0177859
841.473	0.0177364
841.551	0.0177602
841.629	0.0178127
841.707	0.0179173
841.785	0.0176645
841.863	0.0177090
841.942	0.0179517
842.020	0.0178799
842.098	0.0177972
842.176	0.0178159
842.254	0.0177467
842.332	0.0178140
842.410	0.0178556
842.488	0.0177279
842.567	0.0177254
842.645	0.0176685
842.723	0.0177095
842.801	0.0176172
842.879	0.0176026
842.957	0.0176626
843.035	0.0175497
843.113	0.0175267
843.192	0.0174527
843.270	0.0175069
843.348	0.0173603
843.426	0.0173709
843.504	0.0173637
843.582	0.0174534
843.660	0.0172569
843.738	0.0172778
843.817	0.0174798
843.895	0.0174910
843.973	0.0174464
844.051	0.0175509
844.129	0.0175349
844.207	0.0173878
844.285	0.0175419
844.363	0.0174589
844.442	0.0175063
844.520	0.0175871
844.598	0.0175589
844.676	0.0176514
844.754	0.0176388
844.832	0.0175569
844.910	0.0176590
844.988	0.0175256
845.067	0.0174886
845.145	0.0174578
845.223	0.0174876
845.301	0.0174090
845.379	0.0173592
845.457	0.0172341
845.535	0.0173685
845.613	0.0174249
845.692	0.0173708
845.770	0.0173888
845.848	0.0175358
845.926	0.0173045
846.004	0.0173727
846.082	0.0173755
846.160	0.0173454
846.238	0.0174294
846.317	0.0174550
846.395	0.0174643
846.473	0.0175695
846.551	0.0174918
846.629	0.0174722
846.707	0.0174410
846.785	0.0175124
846.863	0.0174823
846.942	0.0175819
847.020	0.0175216
847.098	0.0175414
847.176	0.0175269
847.254	0.0175751
847.332	0.0174619
847.410	0.0176524
847.488	0.0176637
847.567	0.0177074
847.645	0.0176495
847.723	0.0176519
847.801	0.0176447
847.879	0.0175382
847.957	0.0177464
848.035	0.0178668
848.113	0.0177654
848.192	0.0176646
848.270	0.0177190
848.348	0.0177283
848.426	0.0177198
848.504	0.0177145
848.582	0.0177544
848.660	0.0179444
848.738	0.0176763
848.817	0.0177162
848.895	0.0177344
848.973	0.0177261
849.051	0.0176796
849.129	0.0178058
849.207	0.0177719
849.285	0.0176034
849.363	0.0176775
849.442	0.0177068
849.520	0.0177646
849.598	0.0176529
849.676	0.0176331
849.754	0.0175577
849.832	0.0177654
849.910	0.0176740
849.988	0.0176297
850.067	0.0176318
850.145	0.0176682
850.223	0.0176662
850.301	0.0174738
850.379	0.0176255
850.457	0.0174809
850.535	0.0174835
850.613	0.0174085
850.692	0.0174179
850.770	0.0174425
850.848	0.0174487
850.926	0.0175168
851.004	0.0173890
851.082	0.0174648
851.160	0.0175793
851.238	0.0173547
851.317	0.0174197
851.395	0.0174293
851.473	0.0174313
851.551	0.0175084
851.629	0.0173438
851.707	0.0174182
851.785	0.0174442
851.863	0.0174732
851.942	0.0174702
852.020	0.0174451
852.098	0.0173566
852.176	0.0174171
852.254	0.0173409
852.332	0.0174281
852.410	0.0174717
852.488	0.0173544
852.567	0.0173991
852.645	0.0173271
852.723	0.0173463
852.801	0.0174140
852.879	0.0174049
852.957	0.0171700
853.035	0.0173109
853.113	0.0174181
853.192	0.0173283
853.270	0.0173346
853.348	0.0172890
853.426	0.0173970
853.504	0.0171669
853.582	0.0171556
853.660	0.0173499
853.738	0.0172093
853.817	0.0172121
853.895	0.0171108
853.973	0.0169590
854.051	0.0170344
854.129	0.0170701
854.207	0.0170952
854.285	0.0170560
854.363	0.0170105
854.442	0.0171214
854.520	0.0170744
854.598	0.0170245
854.676	0.0170667
854.754	0.0170734
854.832	0.0171345
854.910	0.0171926
854.988	0.0172063
855.067	0.0173612
855.145	0.0173736
855.223	0.0172586
855.301	0.0172705
855.379	0.0173096
855.457	0.0172871
855.535	0.0171935
855.613	0.0172923
855.692	0.0174823
855.770	0.0172934
855.848	0.0173035
855.926	0.0173674
856.004	0.0174123
856.082	0.0173816
856.160	0.0174948
856.238	0.0173360
856.317	0.0173711
856.395	0.0174076
856.473	0.0173365
856.551	0.0174781
856.629	0.0174849
856.707	0.0174065
856.785	0.0174615
856.863	0.0175262
856.942	0.0175554
857.020	0.0175539
857.098	0.0175559
857.176	0.0177165
857.254	0.0176661
857.332	0.0175470
857.410	0.0177253
857.488	0.0175908
857.567	0.0176743
857.645	0.0177227
857.723	0.0176329
857.801	0.0176315
857.879	0.0176175
857.957	0.0176212
858.035	0.0176615
858.113	0.0175239
858.192	0.0176449
858.270	0.0175684
858.348	0.0175973
858.426	0.0175903
858.504	0.0177284
858.582	0.0175836
858.660	0.0175681
858.738	0.0175036
858.817	0.0174882
858.895	0.0174833
858.973	0.0174416
859.051	0.0175779
859.129	0.0175574
859.207	0.0173704
859.285	0.0175123
859.363	0.0175691
859.442	0.0175943
859.520	0.0175059
859.598	0.0174033
859.676	0.0175166
859.754	0.0177132
859.832	0.0174783
859.910	0.0176083
859.988	0.0174535
860.067	0.0174022
860.145	0.0175472
860.223	0.0174525
860.301	0.0175292
860.379	0.0176479
860.457	0.0174164
860.535	0.0174356
860.613	0.0174462
860.692	0.0175313
860.770	0.0174609
860.848	0.0175669
860.926	0.0172882
861.004	0.0174390
861.082	0.0175640
861.160	0.0173690
861.238	0.0174741
861.317	0.0173914
861.395	0.0172934
861.473	0.0173228
861.551	0.0171722
861.629	0.0172157
861.707	0.0170924
861.785	0.0171626
861.863	0.0170445
861.942	0.0173128
862.020	0.0171757
862.098	0.0170971
862.176	0.0172825
862.254	0.0171828
862.332	0.0171755
862.410	0.0172633
862.488	0.0174401
862.567	0.0173121
862.645	0.0174039
862.723	0.0173448
862.801	0.0174235
862.879	0.0173946
862.957	0.0174551
863.035	0.0173975
863.113	0.0174911
863.192	0.0175224
863.270	0.0175076
863.348	0.0176420
863.426	0.0175799
863.504	0.0176373
863.582	0.0176872
863.660	0.0176544
863.738	0.0176927
863.817	0.0176774
863.895	0.0176987
863.973	0.0177132
864.051	0.0176401
864.129	0.0176977
864.207	0.0177396
864.285	0.0175627
864.363	0.0175616
864.442	0.0175763
864.520	0.0175492
864.598	0.0175924
864.676	0.0175652
864.754	0.0176076
864.832	0.0175536
864.910	0.0176578
864.988	0.0175131
865.067	0.0176229
865.145	0.0174617
865.223	0.0174654
865.301	0.0176148
865.379	0.0175060
865.457	0.0175690
865.535	0.0176543
865.613	0.0176344
865.692	0.0175426
865.770	0.0175478
865.848	0.0175285
865.926	0.0176323
866.004	0.0175660
866.082	0.0176833
866.160	0.0176261
866.238	0.0176395
866.317	0.0176324
866.395	0.0175872
866.473	0.0177428
866.551	0.0175247
866.629	0.0175837
866.707	0.0176142
866.785	0.0176396
866.863	0.0176321
866.942	0.0177258
867.020	0.0177084
867.098	0.0176513
867.176	0.0177165
867.254	0.0177123
867.332	0.0178089
867.410	0.0176208
867.488	0.0175320
867.567	0.0175568
867.645	0.0176756
867.723	0.0176600
867.801	0.0175894
867.879	0.0177284
867.957	0.0174992
868.035	0.0174888
868.113	0.0176715
868.192	0.0178263
868.270	0.0176154
868.348	0.0175389
868.426	0.0176391
868.504	0.0175887
868.582	0.0176520
868.660	0.0176293
868.738	0.0177276
868.817	0.0175999
868.895	0.0176661
868.973	0.0175865
869.051	0.0176125
869.129	0.0175401
869.207	0.0175821
869.285	0.0175132
869.363	0.0175284
869.442	0.0175156
869.520	0.0175766
869.598	0.0175561
869.676	0.0175011
869.754	0.0174370
869.832	0.0174383
869.910	0.0173636
869.988	0.0172935
870.067	0.0174058
870.145	0.0174366
870.223	0.0173125
870.301	0.0174235
870.379	0.0174234
870.457	0.0172591
870.535	0.0175155
870.613	0.0173995
870.692	0.0174097
870.770	0.0174120
870.848	0.0173811
870.926	0.0173433
871.004	0.0173354
871.082	0.0172438
871.160	0.0173723
871.238	0.0173910
871.317	0.0172195
871.395	0.0173935
871.473	0.0174349
871.551	0.0171648
871.629	0.0172189
871.707	0.0172236
871.785	0.0173347
871.863	0.0171507
871.942	0.0172701
872.020	0.0173595
872.098	0.0174403
872.176	0.0173568
872.254	0.0173952
872.332	0.0173126
872.410	0.0173890
872.488	0.0173982
872.567	0.0172955
872.645	0.0175103
872.723	0.0174658
872.801	0.0174537
872.879	0.0174837
872.957	0.0175010
873.035	0.0174649
873.113	0.0176042
873.192	0.0176163
873.270	0.0176144
873.348	0.0175841
873.426	0.0177048
873.504	0.0177480
873.582	0.0175940
873.660	0.0176432
873.738	0.0177336
873.817	0.0176096
873.895	0.0176448
873.973	0.0176621
874.051	0.0177135
874.129	0.0176748
874.207	0.0177463
874.285	0.0176569
874.363	0.0178551
874.442	0.0177731
874.520	0.0176244
874.598	0.0176417
874.676	0.0175912
874.754	0.0177499
874.832	0.0176419
874.910	0.0175865
874.988	0.0175565
875.067	0.0176772
875.145	0.0175101
875.223	0.0175333
875.301	0.0174311
875.379	0.0174564
875.457	0.0174607
875.535	0.0173571
875.613	0.0172876
875.692	0.0173468
875.770	0.0173536
875.848	0.0173063
875.926	0.0172404
876.004	0.0174593
876.082	0.0174209
876.160	0.0174007
876.238	0.0174542
876.317	0.0174664
876.395	0.0174706
876.473	0.0174483
876.551	0.0176763
876.629	0.0175860
876.707	0.0174695
876.785	0.0176202
876.863	0.0175385
876.942	0.0176112
877.020	0.0177609
877.098	0.0177486
877.176	0.0175945
877.254	0.0176329
877.332	0.0176695
877.410	0.0176917
877.488	0.0176172
877.567	0.0177086
877.645	0.0175374
877.723	0.0174694
877.801	0.0175009
877.879	0.0176913
877.957	0.0174947
878.035	0.0175249
878.113	0.0175010
878.192	0.0174168
878.270	0.0173895
878.348	0.0172929
878.426	0.0173698
878.504	0.0174124
878.582	0.0174804
878.660	0.0174004
878.738	0.0174551
878.817	0.0175003
878.895	0.0174161
878.973	0.0173787
879.051	0.0173435
879.129	0.0172023
879.207	0.0174549
879.285	0.0174475
879.363	0.0174516
879.442	0.0173929
879.520	0.0173899
879.598	0.0172775
879.676	0.0174759
879.754	0.0175175
879.832	0.0173887
879.910	0.0174010
879.988	0.0173899
880.067	0.0174946
880.145	0.0173946
880.223	0.0173079
880.301	0.0173109
880.379	0.0174013
880.457	0.0172237
880.535	0.0174342
880.613	0.0174050
880.692	0.0174062
880.770	0.0174427
880.848	0.0175894
880.926	0.0175689
881.004	0.0176836
881.082	0.0176045
881.160	0.0176215
881.238	0.0177261
881.317	0.0176666
881.395	0.0176530
881.473	0.0176411
881.551	0.0175860
881.629	0.0177541
881.707	0.0177618
881.785	0.0176360
881.863	0.0177476
881.942	0.0176916
882.020	0.0177183
882.098	0.0177418
882.176	0.0177737
882.254	0.0178837
882.332	0.0178281
882.410	0.0177431
882.488	0.0176843
882.567	0.0178092
882.645	0.0177408
882.723	0.0177411
882.801	0.0177157
882.879	0.0177073
882.957	0.0177068
883.035	0.0176500
883.113	0.0176855
883.192	0.0175728
883.270	0.0177352
883.348	0.0176412
883.426	0.0176554
883.504	0.0177197
883.582	0.0176958
883.660	0.0177006
883.738	0.0177190
883.817	0.0178321
883.895	0.0177131
883.973	0.0176495
884.051	0.0175356
884.129	0.0177156
884.207	0.0177679
884.285	0.0176189
884.363	0.0177692
884.442	0.0177842
884.520	0.0176325
884.598	0.0177201
884.676	0.0176701
884.754	0.0176877
884.832	0.0176707
884.910	0.0176618
884.988	0.0175523
885.067	0.0176845
885.145	0.0176164
885.223	0.0176942
885.301	0.0176455
885.379	0.0176456
885.457	0.0175913
885.535	0.0175327
885.613	0.0176154
885.692	0.0176649
885.770	0.0176301
885.848	0.0174829
885.926	0.0175565
886.004	0.0177766
886.082	0.0175686
886.160	0.0175024
886.238	0.0175104
886.317	0.0176154
886.395	0.0174023
886.473	0.0174200
886.551	0.0175697
886.629	0.0176023
886.707	0.0174071
886.785	0.0174566
886.863	0.0175082
886.942	0.0175562
887.020	0.0174816
887.098	0.0173916
887.176	0.0173635
887.254	0.0174506
887.332	0.0174245
887.410	0.0173724
887.488	0.0171526
887.567	0.0172373
887.645	0.0173371
887.723	0.0170941
887.801	0.0171337
887.879	0.0171360
887.957	0.0171296
888.035	0.0171969
888.113	0.0172379
888.192	0.0170369
888.270	0.0169875
888.348	0.0171730
888.426	0.0171373
888.504	0.0171877
888.582	0.0172099
888.660	0.0172870
888.738	0.0171530
888.817	0.0171622
888.895	0.0170923
888.973	0.0171868
889.051	0.0173072
889.129	0.0172291
889.207	0.0172189
889.285	0.0172796
889.363	0.0173198
889.442	0.0172665
889.520	0.0172105
889.598	0.0172926
889.676	0.0173312
889.754	0.0172491
889.832	0.0172446
889.910	0.0174236
889.988	0.0173423
890.067	0.0173911
890.145	0.0175912
890.223	0.0174660
890.301	0.0173347
890.379	0.0173962
890.457	0.0174152
890.535	0.0173196
890.613	0.0173884
890.692	0.0174534
890.770	0.0173003
890.848	0.0173563
890.926	0.0171707
891.004	0.0171693
891.082	0.0171955
891.160	0.0172163
891.238	0.0172334
891.317	0.0172681
891.395	0.0172546
891.473	0.0172044
891.551	0.0171885
891.629	0.0173912
891.707	0.0174611
891.785	0.0175003
891.863	0.0174746
891.942	0.0176964
892.020	0.0176263
892.098	0.0177174
892.176	0.0177787
892.254	0.0177296
892.332	0.0177277
892.410	0.0176453
892.488	0.0176248
892.567	0.0175589
892.645	0.0176057
892.723	0.0175858
892.801	0.0174458
892.879	0.0174753
892.957	0.0174465
893.035	0.0175348
893.113	0.0175226
893.192	0.0174799
893.270	0.0175164
893.348	0.0175346
893.426	0.0175719
893.504	0.0176395
893.582	0.0175988
893.660	0.0174738
893.738	0.0176942
893.817	0.0177325
893.895	0.0178535
893.973	0.0178227
894.051	0.0178143
894.129	0.0177813
894.207	0.0176828
894.285	0.0175682
894.363	0.0178735
894.442	0.0178378
894.520	0.0177495
894.598	0.0176109
894.676	0.0175998
894.754	0.0176875
894.832	0.0177450
894.910	0.0177530
894.988	0.0176792
895.067	0.0176733
895.145	0.0175938
895.223	0.0175333
895.301	0.0176482
895.379	0.0176299
895.457	0.0176332
895.535	0.0175129
895.613	0.0175842
895.692	0.0176453
895.770	0.0175459
895.848	0.0174603
895.926	0.0175558
896.004	0.0175574
896.082	0.0175855
896.160	0.0175084
896.238	0.0173935
896.317	0.0175404
896.395	0.0174648
896.473	0.0175278
896.551	0.0174052
896.629	0.0173151
896.707	0.0173255
896.785	0.0175024
896.863	0.0173473
896.942	0.0174441
897.020	0.0173820
897.098	0.0174643
897.176	0.0173595
897.254	0.0173978
897.332	0.0175053
897.410	0.0174683
897.488	0.0174226
897.567	0.0173586
897.645	0.0174612
897.723	0.0173970
897.801	0.0175570
897.879	0.0174234
897.957	0.0173312
898.035	0.0173972
898.113	0.0172903
898.192	0.0173415
898.270	0.0172337
898.348	0.0172787
898.426	0.0173179
898.504	0.0173074
898.582	0.0173412
898.660	0.0173388
898.738	0.0170902
898.817	0.0170645
898.895	0.0172431
898.973	0.0172662
899.051	0.0173492
899.129	0.0171602
899.207	0.0171727
899.285	0.0172509
899.363	0.0172328
899.442	0.0173104
899.520	0.0172910
899.598	0.0174309
899.676	0.0173911
899.754	0.0173420
899.832	0.0175461
899.910	0.0173750
899.988	0.0174403
900.067	0.0174004
900.145	0.0174503
900.223	0.0175979
900.301	0.0176345
900.379	0.0175140
900.457	0.0175602
900.535	0.0176009
900.613	0.0177058
900.692	0.0176312
900.770	0.0177079
900.848	0.0176900
900.926	0.0176241
901.004	0.0177499
901.082	0.0176215
901.160	0.0177068
901.238	0.0178605
901.317	0.0176084
901.395	0.0178469
901.473	0.0177515
901.551	0.0177306
901.629	0.0177919
901.707	0.0177988
901.785	0.0176937
901.863	0.0178503
901.942	0.0177271
902.020	0.0177146
902.098	0.0176926
902.176	0.0176633
902.254	0.0177193
902.332	0.0176001
902.410	0.0174599
902.488	0.0177289
902.567	0.0176312
902.645	0.0176044
902.723	0.0175791
902.801	0.0175333
902.879	0.0176203
902.957	0.0176259
903.035	0.0175391
903.113	0.0176205
903.192	0.0176820
903.270	0.0176398
903.348	0.0175118
903.426	0.0176312
903.504	0.0175258
903.582	0.0175189
903.660	0.0175784
903.738	0.0175559
903.817	0.0175816
903.895	0.0174667
903.973	0.0176345
904.051	0.0175829
904.129	0.0174857
904.207	0.0174015
904.285	0.0174968
904.363	0.0175265
904.442	0.0174091
904.520	0.0174613
904.598	0.0174628
904.676	0.0174718
904.754	0.0175077
904.832	0.0175077
904.910	0.0174033
904.988	0.0175748
905.067	0.0175120
905.145	0.0174103
905.223	0.0175352
905.301	0.0173332
905.379	0.0174724
905.457	0.0175475
905.535	0.0175294
905.613	0.0174099
905.692	0.0175879
905.770	0.0175667
905.848	0.0175948
905.926	0.0174793
906.004	0.0175612
906.082	0.0177151
906.160	0.0176126
906.238	0.0174746
906.317	0.0175766
906.395	0.0175492
906.473	0.0176665
906.551	0.0176140
906.629	0.0175999
906.707	0.0175340
906.785	0.0176519
906.863	0.0175916
906.942	0.0175060
907.020	0.0175093
907.098	0.0176323
907.176	0.0175740
907.254	0.0175053
907.332	0.0175493
907.410	0.0177309
907.488	0.0177567
907.567	0.0175996
907.645	0.0176180
907.723	0.0175537
907.801	0.0177177
907.879	0.0176755
907.957	0.0177135
908.035	0.0175636
908.113	0.0177258
908.192	0.0176013
908.270	0.0176858
908.348	0.0176530
908.426	0.0176391
908.504	0.0176283
908.582	0.0177393
908.660	0.0176145
908.738	0.0175307
908.817	0.0175830
908.895	0.0175925
908.973	0.0176112
909.051	0.0176390
909.129	0.0176193
909.207	0.0175580
909.285	0.0176197
909.363	0.0175075
909.442	0.0175665
909.520	0.0176770
909.598	0.0175958
909.676	0.0175274
909.754	0.0175463
909.832	0.0174974
909.910	0.0174014
909.988	0.0174612
910.067	0.0174455
910.145	0.0175133
910.223	0.0173479
910.301	0.0173216
910.379	0.0172674
910.457	0.0173354
910.535	0.0173367
910.613	0.0173175
910.692	0.0174136
910.770	0.0174390
910.848	0.0173116
910.926	0.0173159
911.004	0.0174051
911.082	0.0174418
911.160	0.0175443
911.238	0.0173017
911.317	0.0174051
911.395	0.0174300
911.473	0.0173182
911.551	0.0172703
911.629	0.0173383
911.707	0.0173029
911.785	0.0173076
911.863	0.0172237
911.942	0.0173164
912.020	0.0173982
912.098	0.0172722
912.176	0.0173624
912.254	0.0174438
912.332	0.0174145
912.410	0.0174637
912.488	0.0174507
912.567	0.0175672
912.645	0.0176077
912.723	0.0173524
912.801	0.0176700
912.879	0.0176275
912.957	0.0174851
913.035	0.0175800
913.113	0.0176191
913.192	0.0175066
913.270	0.0175869
913.348	0.0176964
913.426	0.0175545
913.504	0.0175948
913.582	0.0175259
913.660	0.0175524
913.738	0.0175707
913.817	0.0175904
913.895	0.0176723
913.973	0.0175173
914.051	0.0177019
914.129	0.0175490
914.207	0.0176276
914.285	0.0176157
914.363	0.0176567
914.442	0.0175354
914.520	0.0176859
914.598	0.0175523
914.676	0.0175974
914.754	0.0176343
914.832	0.0177319
914.910	0.0175745
914.988	0.0174960
915.067	0.0176100
915.145	0.0176726
915.223	0.0177549
915.301	0.0177549
915.379	0.0177985
915.457	0.0176814
915.535	0.0176572
915.613	0.0177956
915.692	0.0178374
915.770	0.0176810
915.848	0.0177341
915.926	0.0176999
916.004	0.0176546
916.082	0.0176471
916.160	0.0176659
916.238	0.0176542
916.317	0.0176402
916.395	0.0176063
916.473	0.0175623
916.551	0.0176517
916.629	0.0176349
916.707	0.0175044
916.785	0.0176652
916.863	0.0176383
916.942	0.0176034
917.020	0.0175882
917.098	0.0177568
917.176	0.0177677
917.254	0.0176054
917.332	0.0176104
917.410	0.0176735
917.488	0.0175233
917.567	0.0174167
917.645	0.0174088
917.723	0.0174473
917.801	0.0173825
917.879	0.0172396
917.957	0.0173853
918.035	0.0170932
918.113	0.0171339
918.192	0.0172079
918.270	0.0172038
918.348	0.0170280
918.426	0.0169641
918.504	0.0170100
918.582	0.0169647
918.660	0.0169425
918.738	0.0169270
918.817	0.0169210
918.895	0.0168693
918.973	0.0169640
919.051	0.0169067
919.129	0.0168728
919.207	0.0169105
919.285	0.0168733
919.363	0.0170140
919.442	0.0169298
919.520	0.0168905
919.598	0.0169002
919.676	0.0170959
919.754	0.0171044
919.832	0.0169848
919.910	0.0170014
