06/01/2022	21:32:32	Ver.	4.1	UNKNOWN
Optical Delay	599.988409	Delta X		0.078125	Sweeps	1	Scan Rate	0/0
Coordinates	Axis 1	NaN	Axis 2	NaN	Axis 3	NaN	Axis 4	NaN	Axis 5	NaN	Axis 6	0.000000
TX Power	0.000000	RX Power	0.000000

599.988	0.0178470
600.067	0.0178087
600.145	0.0176500
600.223	0.0178432
600.301	0.0178679
600.379	0.0177021
600.457	0.0177908
600.535	0.0177516
600.613	0.0177945
600.692	0.0178172
600.770	0.0178939
600.848	0.0178134
600.926	0.0178298
601.004	0.0178053
601.082	0.0178853
601.160	0.0178625
601.238	0.0177271
601.317	0.0178227
601.395	0.0178112
601.473	0.0178365
601.551	0.0178304
601.629	0.0177036
601.707	0.0177139
601.785	0.0177318
601.863	0.0178171
601.942	0.0178921
602.020	0.0178182
602.098	0.0178966
602.176	0.0178010
602.254	0.0177526
602.332	0.0178598
602.410	0.0178623
602.488	0.0178316
602.567	0.0177506
602.645	0.0177779
602.723	0.0177782
602.801	0.0177900
602.879	0.0178355
602.957	0.0178318
603.035	0.0177387
603.113	0.0178154
603.192	0.0178622
603.270	0.0178143
603.348	0.0178035
603.426	0.0176988
603.504	0.0178503
603.582	0.0179085
603.660	0.0178017
603.738	0.0177972
603.817	0.0177612
603.895	0.0177819
603.973	0.0178598
604.051	0.0177329
604.129	0.0177245
604.207	0.0177797
604.285	0.0178549
604.363	0.0176833
604.442	0.0178365
604.520	0.0178410
604.598	0.0178650
604.676	0.0178940
604.754	0.0179007
604.832	0.0179114
604.910	0.0179384
604.988	0.0179698
605.067	0.0178445
605.145	0.0178436
605.223	0.0177858
605.301	0.0178616
605.379	0.0178031
605.457	0.0178598
605.535	0.0178856
605.613	0.0177637
605.692	0.0178053
605.770	0.0177850
605.848	0.0177003
605.926	0.0179197
606.004	0.0178714
606.082	0.0179144
606.160	0.0178944
606.238	0.0177021
606.317	0.0176537
606.395	0.0177796
606.473	0.0178683
606.551	0.0177955
606.629	0.0178917
606.707	0.0178931
606.785	0.0179047
606.863	0.0175725
606.942	0.0178483
607.020	0.0179416
607.098	0.0178267
607.176	0.0178371
607.254	0.0178378
607.332	0.0178180
607.410	0.0178473
607.488	0.0178087
607.567	0.0178603
607.645	0.0179239
607.723	0.0178220
607.801	0.0178291
607.879	0.0177583
607.957	0.0177953
608.035	0.0178522
608.113	0.0178624
608.192	0.0178938
608.270	0.0178708
608.348	0.0178741
608.426	0.0178353
608.504	0.0178825
608.582	0.0177941
608.660	0.0178276
608.738	0.0178938
608.817	0.0178223
608.895	0.0177479
608.973	0.0178339
609.051	0.0178287
609.129	0.0177843
609.207	0.0178288
609.285	0.0178184
609.363	0.0178766
609.442	0.0178375
609.520	0.0179957
609.598	0.0179290
609.676	0.0178799
609.754	0.0178542
609.832	0.0178066
609.910	0.0177292
609.988	0.0179989
610.067	0.0178552
610.145	0.0177026
610.223	0.0179284
610.301	0.0179681
610.379	0.0177323
610.457	0.0179236
610.535	0.0179289
610.613	0.0178503
610.692	0.0176772
610.770	0.0177083
610.848	0.0178041
610.926	0.0178876
611.004	0.0178901
611.082	0.0179427
611.160	0.0177684
611.238	0.0178514
611.317	0.0177950
611.395	0.0177890
611.473	0.0176757
611.551	0.0177947
611.629	0.0178498
611.707	0.0177249
611.785	0.0177816
611.863	0.0178297
611.942	0.0177875
612.020	0.0176852
612.098	0.0177422
612.176	0.0178932
612.254	0.0177978
612.332	0.0178723
612.410	0.0178223
612.488	0.0178298
612.567	0.0179131
612.645	0.0179201
612.723	0.0178356
612.801	0.0178725
612.879	0.0179858
612.957	0.0178387
613.035	0.0179037
613.113	0.0178480
613.192	0.0178108
613.270	0.0178446
613.348	0.0177441
613.426	0.0177805
613.504	0.0177655
613.582	0.0177928
613.660	0.0177093
613.738	0.0177870
613.817	0.0177529
613.895	0.0177962
613.973	0.0177882
614.051	0.0178304
614.129	0.0178635
614.207	0.0177864
614.285	0.0178385
614.363	0.0178882
614.442	0.0179841
614.520	0.0178505
614.598	0.0178934
614.676	0.0177947
614.754	0.0178516
614.832	0.0177679
614.910	0.0178173
614.988	0.0179275
615.067	0.0179333
615.145	0.0178465
615.223	0.0178964
615.301	0.0179104
615.379	0.0178723
615.457	0.0178239
615.535	0.0176949
615.613	0.0176981
615.692	0.0178850
615.770	0.0179508
615.848	0.0177247
615.926	0.0176556
616.004	0.0177834
616.082	0.0177217
616.160	0.0177666
616.238	0.0179127
616.317	0.0177753
616.395	0.0178153
616.473	0.0178938
616.551	0.0178887
616.629	0.0177069
616.707	0.0178648
616.785	0.0179382
616.863	0.0178693
616.942	0.0178017
617.020	0.0177409
617.098	0.0178069
617.176	0.0178910
617.254	0.0177561
617.332	0.0177499
617.410	0.0177507
617.488	0.0177412
617.567	0.0177491
617.645	0.0178072
617.723	0.0178364
617.801	0.0178727
617.879	0.0178526
617.957	0.0176886
618.035	0.0178461
618.113	0.0178136
618.192	0.0177885
618.270	0.0177351
618.348	0.0176981
618.426	0.0178848
618.504	0.0178403
618.582	0.0177230
618.660	0.0178560
618.738	0.0178283
618.817	0.0178141
618.895	0.0177350
618.973	0.0178854
619.051	0.0178419
619.129	0.0177517
619.207	0.0178053
619.285	0.0178271
619.363	0.0178054
619.442	0.0177722
619.520	0.0179212
619.598	0.0178609
619.676	0.0178358
619.754	0.0177766
619.832	0.0178664
619.910	0.0178397
619.988	0.0177864
620.067	0.0178289
620.145	0.0179099
620.223	0.0177656
620.301	0.0179019
620.379	0.0178537
620.457	0.0177173
620.535	0.0177480
620.613	0.0178299
620.692	0.0179025
620.770	0.0178764
620.848	0.0177319
620.926	0.0178040
621.004	0.0178181
621.082	0.0177555
621.160	0.0178619
621.238	0.0178677
621.317	0.0179810
621.395	0.0177122
621.473	0.0178430
621.551	0.0177269
621.629	0.0178291
621.707	0.0179012
621.785	0.0179517
621.863	0.0178042
621.942	0.0178382
622.020	0.0178246
622.098	0.0177347
622.176	0.0177810
622.254	0.0176802
622.332	0.0177837
622.410	0.0177848
622.488	0.0178755
622.567	0.0178866
622.645	0.0177076
622.723	0.0178510
622.801	0.0177085
622.879	0.0179630
622.957	0.0178281
623.035	0.0178643
623.113	0.0179185
623.192	0.0178661
623.270	0.0177613
623.348	0.0179509
623.426	0.0177728
623.504	0.0179012
623.582	0.0178654
623.660	0.0178591
623.738	0.0177653
623.817	0.0177355
623.895	0.0178877
623.973	0.0177429
624.051	0.0178469
624.129	0.0177553
624.207	0.0176889
624.285	0.0176921
624.363	0.0178819
624.442	0.0177853
624.520	0.0178770
624.598	0.0178075
624.676	0.0179652
624.754	0.0178123
624.832	0.0178784
624.910	0.0178603
624.988	0.0178014
625.067	0.0178849
625.145	0.0178522
625.223	0.0178123
625.301	0.0178413
625.379	0.0177936
625.457	0.0176793
625.535	0.0178115
625.613	0.0178396
625.692	0.0177503
625.770	0.0177252
625.848	0.0178397
625.926	0.0178848
626.004	0.0178278
626.082	0.0178484
626.160	0.0178805
626.238	0.0178811
626.317	0.0177660
626.395	0.0178450
626.473	0.0178767
626.551	0.0177510
626.629	0.0178909
626.707	0.0177221
626.785	0.0177518
626.863	0.0177898
626.942	0.0176853
627.020	0.0179063
627.098	0.0177201
627.176	0.0178372
627.254	0.0177032
627.332	0.0178446
627.410	0.0177346
627.488	0.0176685
627.567	0.0178633
627.645	0.0177702
627.723	0.0178490
627.801	0.0177965
627.879	0.0177699
627.957	0.0178080
628.035	0.0178086
628.113	0.0179031
628.192	0.0177670
628.270	0.0178719
628.348	0.0178023
628.426	0.0177505
628.504	0.0178017
628.582	0.0179076
628.660	0.0177868
628.738	0.0178035
628.817	0.0178932
628.895	0.0177341
628.973	0.0177341
629.051	0.0178757
629.129	0.0178431
629.207	0.0178587
629.285	0.0177830
629.363	0.0178076
629.442	0.0177976
629.520	0.0177198
629.598	0.0178680
629.676	0.0177692
629.754	0.0177140
629.832	0.0177385
629.910	0.0177990
629.988	0.0178239
630.067	0.0177740
630.145	0.0179227
630.223	0.0177032
630.301	0.0178812
630.379	0.0178639
630.457	0.0177081
630.535	0.0178072
630.613	0.0177063
630.692	0.0177820
630.770	0.0177447
630.848	0.0177606
630.926	0.0177850
631.004	0.0178914
631.082	0.0179077
631.160	0.0178187
631.238	0.0179279
631.317	0.0178802
631.395	0.0178111
631.473	0.0177955
631.551	0.0176782
631.629	0.0176707
631.707	0.0177239
631.785	0.0178515
631.863	0.0178253
631.942	0.0178867
632.020	0.0178387
632.098	0.0178202
632.176	0.0178240
632.254	0.0177483
632.332	0.0177548
632.410	0.0178599
632.488	0.0178529
632.567	0.0178149
632.645	0.0178108
632.723	0.0178784
632.801	0.0178196
632.879	0.0178369
632.957	0.0177284
633.035	0.0177789
633.113	0.0177808
633.192	0.0177653
633.270	0.0177066
633.348	0.0178531
633.426	0.0178798
633.504	0.0178368
633.582	0.0178073
633.660	0.0178310
633.738	0.0177696
633.817	0.0176866
633.895	0.0178986
633.973	0.0179655
634.051	0.0176086
634.129	0.0177299
634.207	0.0177084
634.285	0.0178660
634.363	0.0180303
634.442	0.0178264
634.520	0.0178172
634.598	0.0178062
634.676	0.0177504
634.754	0.0177821
634.832	0.0179104
634.910	0.0179139
634.988	0.0179527
635.067	0.0179015
635.145	0.0178687
635.223	0.0178925
635.301	0.0178255
635.379	0.0177261
635.457	0.0179076
635.535	0.0178751
635.613	0.0177470
635.692	0.0177802
635.770	0.0177735
635.848	0.0178294
635.926	0.0178484
636.004	0.0178156
636.082	0.0178225
636.160	0.0176922
636.238	0.0177992
636.317	0.0178645
636.395	0.0178488
636.473	0.0177531
636.551	0.0177098
636.629	0.0178274
636.707	0.0178017
636.785	0.0177863
636.863	0.0178694
636.942	0.0179443
637.020	0.0178349
637.098	0.0178493
637.176	0.0177885
637.254	0.0177760
637.332	0.0177882
637.410	0.0177831
637.488	0.0178371
637.567	0.0176598
637.645	0.0177856
637.723	0.0177196
637.801	0.0177849
637.879	0.0178325
637.957	0.0178674
638.035	0.0177470
638.113	0.0178304
638.192	0.0178336
638.270	0.0176615
638.348	0.0177779
638.426	0.0178246
638.504	0.0177897
638.582	0.0178333
638.660	0.0178058
638.738	0.0177225
638.817	0.0180365
638.895	0.0177657
638.973	0.0177862
639.051	0.0178115
639.129	0.0177764
639.207	0.0177065
639.285	0.0179784
639.363	0.0177978
639.442	0.0178639
639.520	0.0178876
639.598	0.0177383
639.676	0.0176501
639.754	0.0179153
639.832	0.0177721
639.910	0.0177709
639.988	0.0178372
640.067	0.0177975
640.145	0.0178016
640.223	0.0179330
640.301	0.0178517
640.379	0.0178324
640.457	0.0179073
640.535	0.0177822
640.613	0.0178101
640.692	0.0177406
640.770	0.0178437
640.848	0.0178781
640.926	0.0176855
641.004	0.0178208
641.082	0.0179642
641.160	0.0177444
641.238	0.0177670
641.317	0.0177576
641.395	0.0178834
641.473	0.0177184
641.551	0.0178572
641.629	0.0178661
641.707	0.0177538
641.785	0.0176846
641.863	0.0177763
641.942	0.0179070
642.020	0.0177898
642.098	0.0177889
642.176	0.0178138
642.254	0.0178529
642.332	0.0178596
642.410	0.0178818
642.488	0.0177495
642.567	0.0177229
642.645	0.0178138
642.723	0.0178771
642.801	0.0177732
642.879	0.0179330
642.957	0.0178234
643.035	0.0177792
643.113	0.0179337
643.192	0.0178014
643.270	0.0178568
643.348	0.0177650
643.426	0.0178631
643.504	0.0177866
643.582	0.0180709
643.660	0.0179092
643.738	0.0178821
643.817	0.0177378
643.895	0.0177632
643.973	0.0178199
644.051	0.0177888
644.129	0.0177686
644.207	0.0177923
644.285	0.0179383
644.363	0.0177628
644.442	0.0178802
644.520	0.0178882
644.598	0.0176753
644.676	0.0177144
644.754	0.0177518
644.832	0.0178199
644.910	0.0177139
644.988	0.0178056
645.067	0.0179136
645.145	0.0177483
645.223	0.0179016
645.301	0.0177805
645.379	0.0179536
645.457	0.0178350
645.535	0.0177715
645.613	0.0179886
645.692	0.0178612
645.770	0.0179227
645.848	0.0177199
645.926	0.0178074
646.004	0.0178413
646.082	0.0178853
646.160	0.0179384
646.238	0.0179410
646.317	0.0177441
646.395	0.0178149
646.473	0.0176873
646.551	0.0177242
646.629	0.0179341
646.707	0.0177727
646.785	0.0178233
646.863	0.0179279
646.942	0.0177756
647.020	0.0178077
647.098	0.0179712
647.176	0.0178408
647.254	0.0178355
647.332	0.0177680
647.410	0.0177943
647.488	0.0180482
647.567	0.0178842
647.645	0.0176537
647.723	0.0178027
647.801	0.0178770
647.879	0.0178851
647.957	0.0177306
648.035	0.0177646
648.113	0.0179169
648.192	0.0179344
648.270	0.0177126
648.348	0.0177505
648.426	0.0178326
648.504	0.0177408
648.582	0.0177540
648.660	0.0177377
648.738	0.0177297
648.817	0.0180029
648.895	0.0178490
648.973	0.0178312
649.051	0.0177876
649.129	0.0178413
649.207	0.0179002
649.285	0.0178629
649.363	0.0177111
649.442	0.0178281
649.520	0.0177374
649.598	0.0176984
649.676	0.0179961
649.754	0.0179205
649.832	0.0175529
649.910	0.0179062
649.988	0.0179593
650.067	0.0178715
650.145	0.0177354
650.223	0.0178775
650.301	0.0179031
650.379	0.0178101
650.457	0.0178236
650.535	0.0179485
650.613	0.0176213
650.692	0.0178064
650.770	0.0178333
650.848	0.0177993
650.926	0.0178148
651.004	0.0177801
651.082	0.0178667
651.160	0.0178682
651.238	0.0177197
651.317	0.0177696
651.395	0.0177502
651.473	0.0177598
651.551	0.0178544
651.629	0.0177042
651.707	0.0177946
651.785	0.0178889
651.863	0.0178303
651.942	0.0178220
652.020	0.0177926
652.098	0.0178032
652.176	0.0178671
652.254	0.0178513
652.332	0.0178937
652.410	0.0177814
652.488	0.0178295
652.567	0.0178050
652.645	0.0177976
652.723	0.0177765
652.801	0.0179672
652.879	0.0179208
652.957	0.0178006
653.035	0.0178639
653.113	0.0178125
653.192	0.0176995
653.270	0.0178136
653.348	0.0177904
653.426	0.0178304
653.504	0.0177897
653.582	0.0178749
653.660	0.0178564
653.738	0.0179478
653.817	0.0177880
653.895	0.0178438
653.973	0.0178543
654.051	0.0176846
654.129	0.0179214
654.207	0.0178591
654.285	0.0179341
654.363	0.0177808
654.442	0.0177966
654.520	0.0177914
654.598	0.0178627
654.676	0.0179276
654.754	0.0177856
654.832	0.0179539
654.910	0.0178217
654.988	0.0177534
655.067	0.0177917
655.145	0.0178875
655.223	0.0178223
655.301	0.0177547
655.379	0.0177697
655.457	0.0178391
655.535	0.0177831
655.613	0.0177051
655.692	0.0178534
655.770	0.0178575
655.848	0.0177785
655.926	0.0178422
656.004	0.0178164
656.082	0.0178323
656.160	0.0178330
656.238	0.0177586
656.317	0.0177756
656.395	0.0179467
656.473	0.0178426
656.551	0.0178973
656.629	0.0178799
656.707	0.0177604
656.785	0.0179044
656.863	0.0179135
656.942	0.0179149
657.020	0.0178137
657.098	0.0178674
657.176	0.0177736
657.254	0.0178209
657.332	0.0178446
657.410	0.0177176
657.488	0.0178749
657.567	0.0179742
657.645	0.0178267
657.723	0.0177781
657.801	0.0178195
657.879	0.0179422
657.957	0.0179404
658.035	0.0178162
658.113	0.0177834
658.192	0.0178726
658.270	0.0177907
658.348	0.0179124
658.426	0.0177720
658.504	0.0177200
658.582	0.0179165
658.660	0.0178961
658.738	0.0178655
658.817	0.0178638
658.895	0.0178650
658.973	0.0177551
659.051	0.0177187
659.129	0.0178168
659.207	0.0178155
659.285	0.0178139
659.363	0.0178274
659.442	0.0178693
659.520	0.0177940
659.598	0.0177223
659.676	0.0177518
659.754	0.0178786
659.832	0.0179483
659.910	0.0178100
659.988	0.0178638
660.067	0.0178723
660.145	0.0178455
660.223	0.0177733
660.301	0.0178361
660.379	0.0177911
660.457	0.0178641
660.535	0.0178494
660.613	0.0178978
660.692	0.0177912
660.770	0.0177721
660.848	0.0178870
660.926	0.0177736
661.004	0.0178464
661.082	0.0177789
661.160	0.0178670
661.238	0.0178681
661.317	0.0177868
661.395	0.0178144
661.473	0.0179778
661.551	0.0179430
661.629	0.0177068
661.707	0.0178172
661.785	0.0179768
661.863	0.0179026
661.942	0.0178590
662.020	0.0179265
662.098	0.0177731
662.176	0.0178168
662.254	0.0178266
662.332	0.0178201
662.410	0.0177338
662.488	0.0177782
662.567	0.0177216
662.645	0.0178075
662.723	0.0179025
662.801	0.0176816
662.879	0.0177135
662.957	0.0178020
663.035	0.0179189
663.113	0.0178415
663.192	0.0177572
663.270	0.0177790
663.348	0.0178230
663.426	0.0177934
663.504	0.0177703
663.582	0.0179433
663.660	0.0177833
663.738	0.0178625
663.817	0.0178414
663.895	0.0178242
663.973	0.0178777
664.051	0.0177766
664.129	0.0178506
664.207	0.0179146
664.285	0.0178577
664.363	0.0178712
664.442	0.0178309
664.520	0.0178551
664.598	0.0178656
664.676	0.0180520
664.754	0.0178381
664.832	0.0178828
664.910	0.0179605
664.988	0.0179182
665.067	0.0177950
665.145	0.0178197
665.223	0.0177378
665.301	0.0178262
665.379	0.0178769
665.457	0.0179289
665.535	0.0178647
665.613	0.0179283
665.692	0.0178247
665.770	0.0177725
665.848	0.0177149
665.926	0.0176942
666.004	0.0178983
666.082	0.0178291
666.160	0.0178322
666.238	0.0176849
666.317	0.0178959
666.395	0.0179020
666.473	0.0177984
666.551	0.0179598
666.629	0.0177888
666.707	0.0178518
666.785	0.0178289
666.863	0.0178724
666.942	0.0176957
667.020	0.0177955
667.098	0.0179293
667.176	0.0179379
667.254	0.0178239
667.332	0.0177868
667.410	0.0179033
667.488	0.0178410
667.567	0.0177174
667.645	0.0178339
667.723	0.0178116
667.801	0.0177111
667.879	0.0179218
667.957	0.0179909
668.035	0.0179509
668.113	0.0178510
668.192	0.0178355
668.270	0.0179479
668.348	0.0178561
668.426	0.0177538
668.504	0.0179061
668.582	0.0177905
668.660	0.0177987
668.738	0.0178331
668.817	0.0179559
668.895	0.0177563
668.973	0.0177216
669.051	0.0178108
669.129	0.0178983
669.207	0.0178123
669.285	0.0178498
669.363	0.0177937
669.442	0.0178830
669.520	0.0178339
669.598	0.0177309
669.676	0.0177390
669.754	0.0178620
669.832	0.0178079
669.910	0.0178584
669.988	0.0178091
670.067	0.0178412
670.145	0.0178462
670.223	0.0177234
670.301	0.0178481
670.379	0.0179005
670.457	0.0176514
670.535	0.0179154
670.613	0.0179111
670.692	0.0178627
670.770	0.0178365
670.848	0.0177411
670.926	0.0177835
671.004	0.0177888
671.082	0.0177641
671.160	0.0178938
671.238	0.0178085
671.317	0.0176801
671.395	0.0178078
671.473	0.0177483
671.551	0.0178072
671.629	0.0177941
671.707	0.0178224
671.785	0.0178390
671.863	0.0177457
671.942	0.0177510
672.020	0.0177631
672.098	0.0177721
672.176	0.0178114
672.254	0.0178208
672.332	0.0177029
672.410	0.0178215
672.488	0.0178271
672.567	0.0178439
672.645	0.0176933
672.723	0.0178165
672.801	0.0176878
672.879	0.0178050
672.957	0.0178136
673.035	0.0178750
673.113	0.0177747
673.192	0.0178172
673.270	0.0177016
673.348	0.0177228
673.426	0.0178860
673.504	0.0178209
673.582	0.0177684
673.660	0.0177776
673.738	0.0177388
673.817	0.0177848
673.895	0.0177251
673.973	0.0177449
674.051	0.0178080
674.129	0.0177772
674.207	0.0178069
674.285	0.0178671
674.363	0.0178014
674.442	0.0177972
674.520	0.0178646
674.598	0.0178281
674.676	0.0179060
674.754	0.0177879
674.832	0.0177399
674.910	0.0178496
674.988	0.0176947
675.067	0.0178329
675.145	0.0179160
675.223	0.0177714
675.301	0.0178259
675.379	0.0178809
675.457	0.0178117
675.535	0.0177516
675.613	0.0178494
675.692	0.0179826
675.770	0.0177657
675.848	0.0177578
675.926	0.0178618
676.004	0.0178633
676.082	0.0177110
676.160	0.0179007
676.238	0.0177802
676.317	0.0179690
676.395	0.0178179
676.473	0.0177231
676.551	0.0179401
676.629	0.0179490
676.707	0.0179829
676.785	0.0177283
676.863	0.0179690
676.942	0.0178301
677.020	0.0178358
677.098	0.0179775
677.176	0.0179535
677.254	0.0179931
677.332	0.0178662
677.410	0.0180194
677.488	0.0180402
677.567	0.0177832
677.645	0.0178094
677.723	0.0180253
677.801	0.0179031
677.879	0.0179726
677.957	0.0179108
678.035	0.0179856
678.113	0.0177972
678.192	0.0178588
678.270	0.0178017
678.348	0.0179021
678.426	0.0179548
678.504	0.0179729
678.582	0.0179567
678.660	0.0179840
678.738	0.0180145
678.817	0.0179534
678.895	0.0178795
678.973	0.0179943
679.051	0.0179350
679.129	0.0177849
679.207	0.0179076
679.285	0.0178088
679.363	0.0179396
679.442	0.0178884
679.520	0.0179346
679.598	0.0179346
679.676	0.0178020
679.754	0.0178307
679.832	0.0179349
679.910	0.0180917
679.988	0.0179015
680.067	0.0178376
680.145	0.0179144
680.223	0.0179723
680.301	0.0178024
680.379	0.0179714
680.457	0.0179514
680.535	0.0178989
680.613	0.0178414
680.692	0.0179279
680.770	0.0179119
680.848	0.0178102
680.926	0.0176989
681.004	0.0178773
681.082	0.0179057
681.160	0.0176817
681.238	0.0179055
681.317	0.0177735
681.395	0.0176732
681.473	0.0177150
681.551	0.0178623
681.629	0.0180507
681.707	0.0178413
681.785	0.0177305
681.863	0.0178084
681.942	0.0179166
682.020	0.0177662
682.098	0.0177771
682.176	0.0177457
682.254	0.0178591
682.332	0.0176420
682.410	0.0178270
682.488	0.0177399
682.567	0.0176875
682.645	0.0176675
682.723	0.0177612
682.801	0.0177367
682.879	0.0176854
682.957	0.0177446
683.035	0.0177263
683.113	0.0178542
683.192	0.0177534
683.270	0.0177208
683.348	0.0176422
683.426	0.0177275
683.504	0.0178173
683.582	0.0177558
683.660	0.0177598
683.738	0.0178138
683.817	0.0178262
683.895	0.0177074
683.973	0.0177126
684.051	0.0177385
684.129	0.0177677
684.207	0.0177146
684.285	0.0177058
684.363	0.0178360
684.442	0.0177430
684.520	0.0178494
684.598	0.0177031
684.676	0.0177387
684.754	0.0176942
684.832	0.0177148
684.910	0.0177579
684.988	0.0178133
685.067	0.0177805
685.145	0.0178629
685.223	0.0177675
685.301	0.0177487
685.379	0.0177086
685.457	0.0177599
685.535	0.0177789
685.613	0.0178347
685.692	0.0177747
685.770	0.0178266
685.848	0.0178709
685.926	0.0177635
686.004	0.0177757
686.082	0.0177580
686.160	0.0176730
686.238	0.0178539
686.317	0.0176919
686.395	0.0177662
686.473	0.0177636
686.551	0.0177077
686.629	0.0178423
686.707	0.0178145
686.785	0.0176313
686.863	0.0176755
686.942	0.0177078
687.020	0.0178769
687.098	0.0177386
687.176	0.0177245
687.254	0.0177843
687.332	0.0178072
687.410	0.0178124
687.488	0.0177668
687.567	0.0177725
687.645	0.0179110
687.723	0.0178113
687.801	0.0178089
687.879	0.0177535
687.957	0.0179526
688.035	0.0179945
688.113	0.0177586
688.192	0.0177813
688.270	0.0177869
688.348	0.0177979
688.426	0.0179328
688.504	0.0179435
688.582	0.0179928
688.660	0.0179198
688.738	0.0177548
688.817	0.0178539
688.895	0.0179362
688.973	0.0179041
689.051	0.0178342
689.129	0.0177940
689.207	0.0178452
689.285	0.0179457
689.363	0.0177528
689.442	0.0177219
689.520	0.0178749
689.598	0.0178506
689.676	0.0177171
689.754	0.0177655
689.832	0.0180229
689.910	0.0179427
689.988	0.0181139
690.067	0.0182922
690.145	0.0183228
690.223	0.0183606
690.301	0.0184675
690.379	0.0184925
690.457	0.0183939
690.535	0.0182477
690.613	0.0180326
690.692	0.0177206
690.770	0.0172670
690.848	0.0169688
690.926	0.0165597
691.004	0.0159738
691.082	0.0158292
691.160	0.0155897
691.238	0.0156402
691.317	0.0158454
691.395	0.0162353
691.473	0.0171121
691.551	0.0180340
691.629	0.0191227
691.707	0.0203089
691.785	0.0214824
691.863	0.0223676
691.942	0.0229284
692.020	0.0233510
692.098	0.0230923
692.176	0.0224986
692.254	0.0214957
692.332	0.0198037
692.410	0.0181902
692.488	0.0163596
692.567	0.0144943
692.645	0.0127485
692.723	0.0113411
692.801	0.0102260
692.879	0.00937096
692.957	0.00948624
693.035	0.00972321
693.113	0.0108564
693.192	0.0122807
693.270	0.0142204
693.348	0.0164427
693.426	0.0188390
693.504	0.0212389
693.582	0.0233619
693.660	0.0251027
693.738	0.0267403
693.817	0.0277372
693.895	0.0280483
693.973	0.0281020
694.051	0.0276009
694.129	0.0264727
694.207	0.0248212
694.285	0.0229691
694.363	0.0206535
694.442	0.0183538
694.520	0.0160915
694.598	0.0138343
694.676	0.0117715
694.754	0.00989906
694.832	0.00859940
694.910	0.00768112
694.988	0.00749191
695.067	0.00757660
695.145	0.00802505
695.223	0.00881378
695.301	0.0100212
695.379	0.0116026
695.457	0.0134558
695.535	0.0153606
695.613	0.0171743
695.692	0.0191367
695.770	0.0208900
695.848	0.0224709
695.926	0.0236636
696.004	0.0247734
696.082	0.0255349
696.160	0.0259244
696.238	0.0259280
696.317	0.0257348
696.395	0.0252525
696.473	0.0245887
696.551	0.0236536
696.629	0.0225789
696.707	0.0214825
696.785	0.0202395
696.863	0.0192344
696.942	0.0180479
697.020	0.0168681
697.098	0.0161216
697.176	0.0152844
697.254	0.0144510
697.332	0.0139845
697.410	0.0135059
697.488	0.0131296
697.567	0.0129103
697.645	0.0128468
697.723	0.0127932
697.801	0.0130100
697.879	0.0132967
697.957	0.0135789
698.035	0.0139022
698.113	0.0145437
698.192	0.0149586
698.270	0.0155237
698.348	0.0161443
698.426	0.0166350
698.504	0.0171530
698.582	0.0176884
698.660	0.0181282
698.738	0.0184678
698.817	0.0188322
698.895	0.0189438
698.973	0.0192260
699.051	0.0194267
699.129	0.0195000
699.207	0.0196289
699.285	0.0198895
699.363	0.0201292
699.442	0.0203529
699.520	0.0206297
699.598	0.0207298
699.676	0.0211031
699.754	0.0211024
699.832	0.0213914
699.910	0.0215073
699.988	0.0215697
700.067	0.0214687
700.145	0.0213587
700.223	0.0211496
700.301	0.0208196
700.379	0.0202568
700.457	0.0197336
700.535	0.0191439
700.613	0.0183031
700.692	0.0176378
700.770	0.0168272
700.848	0.0160070
700.926	0.0152775
701.004	0.0146664
701.082	0.0142181
701.160	0.0137051
701.238	0.0133829
701.317	0.0129700
701.395	0.0130832
701.473	0.0131101
701.551	0.0132265
701.629	0.0135053
701.707	0.0139172
701.785	0.0143446
701.863	0.0149069
701.942	0.0153049
702.020	0.0159114
702.098	0.0165289
702.176	0.0170225
702.254	0.0173381
702.332	0.0178220
702.410	0.0183097
702.488	0.0186381
702.567	0.0190699
702.645	0.0195811
702.723	0.0197192
702.801	0.0200452
702.879	0.0203008
702.957	0.0206389
703.035	0.0207023
703.113	0.0207616
703.192	0.0210538
703.270	0.0211781
703.348	0.0212405
703.426	0.0212374
703.504	0.0211758
703.582	0.0211246
703.660	0.0208144
703.738	0.0206436
703.817	0.0202863
703.895	0.0199236
703.973	0.0195846
704.051	0.0191774
704.129	0.0187785
704.207	0.0182104
704.285	0.0177102
704.363	0.0173406
704.442	0.0169865
704.520	0.0166547
704.598	0.0163262
704.676	0.0161575
704.754	0.0158676
704.832	0.0157069
704.910	0.0156691
704.988	0.0155476
705.067	0.0154477
705.145	0.0155513
705.223	0.0153591
705.301	0.0156593
705.379	0.0158001
705.457	0.0158717
705.535	0.0159374
705.613	0.0162230
705.692	0.0163342
705.770	0.0165673
705.848	0.0166597
705.926	0.0168124
706.004	0.0170125
706.082	0.0171522
706.160	0.0172556
706.238	0.0174520
706.317	0.0174091
706.395	0.0175349
706.473	0.0177711
706.551	0.0178508
706.629	0.0180313
706.707	0.0182014
706.785	0.0184206
706.863	0.0186213
706.942	0.0188046
707.020	0.0190131
707.098	0.0190344
707.176	0.0192457
707.254	0.0193839
707.332	0.0194292
707.410	0.0194654
707.488	0.0196000
707.567	0.0194705
707.645	0.0194107
707.723	0.0193317
707.801	0.0191962
707.879	0.0191051
707.957	0.0189310
708.035	0.0186840
708.113	0.0185363
708.192	0.0185561
708.270	0.0183627
708.348	0.0183312
708.426	0.0183417
708.504	0.0184219
708.582	0.0184108
708.660	0.0183442
708.738	0.0184944
708.817	0.0184068
708.895	0.0184398
708.973	0.0183721
709.051	0.0182175
709.129	0.0180261
709.207	0.0177399
709.285	0.0175701
709.363	0.0172243
709.442	0.0169089
709.520	0.0163936
709.598	0.0160480
709.676	0.0156176
709.754	0.0154187
709.832	0.0151443
709.910	0.0150082
709.988	0.0148943
710.067	0.0147942
710.145	0.0150935
710.223	0.0151594
710.301	0.0153347
710.379	0.0156422
710.457	0.0160670
710.535	0.0166073
710.613	0.0170320
710.692	0.0174511
710.770	0.0179776
710.848	0.0183986
710.926	0.0188808
711.004	0.0189753
711.082	0.0193930
711.160	0.0193919
711.238	0.0196455
711.317	0.0195523
711.395	0.0194381
711.473	0.0193211
711.551	0.0193056
711.629	0.0187729
711.707	0.0185876
711.785	0.0184733
711.863	0.0182655
711.942	0.0181142
712.020	0.0180157
712.098	0.0179347
712.176	0.0177409
712.254	0.0178082
712.332	0.0179212
712.410	0.0179583
712.488	0.0180627
712.567	0.0180639
712.645	0.0182751
712.723	0.0181923
712.801	0.0182030
712.879	0.0182392
712.957	0.0181969
713.035	0.0181572
713.113	0.0179477
713.192	0.0180313
713.270	0.0178844
713.348	0.0178408
713.426	0.0176851
713.504	0.0177216
713.582	0.0176579
713.660	0.0176543
713.738	0.0177903
713.817	0.0179259
713.895	0.0179589
713.973	0.0182745
714.051	0.0183993
714.129	0.0183196
714.207	0.0185439
714.285	0.0187024
714.363	0.0188197
714.442	0.0185395
714.520	0.0183160
714.598	0.0183516
714.676	0.0181120
714.754	0.0176942
714.832	0.0173222
714.910	0.0170432
714.988	0.0168624
715.067	0.0165694
715.145	0.0161963
715.223	0.0160322
715.301	0.0157962
715.379	0.0157550
715.457	0.0159957
715.535	0.0158813
715.613	0.0159923
715.692	0.0162325
715.770	0.0165215
715.848	0.0168247
715.926	0.0171436
716.004	0.0174585
716.082	0.0176933
716.160	0.0179971
716.238	0.0183388
716.317	0.0186663
716.395	0.0187979
716.473	0.0189045
716.551	0.0189735
716.629	0.0191953
716.707	0.0191214
716.785	0.0192351
716.863	0.0190208
716.942	0.0189124
717.020	0.0188264
717.098	0.0187305
717.176	0.0186062
717.254	0.0182700
717.332	0.0181853
717.410	0.0179747
717.488	0.0176828
717.567	0.0177275
717.645	0.0176411
717.723	0.0173758
717.801	0.0174866
717.879	0.0175696
717.957	0.0175648
718.035	0.0176871
718.113	0.0178407
718.192	0.0178986
718.270	0.0180672
718.348	0.0181975
718.426	0.0182381
718.504	0.0183951
718.582	0.0185093
718.660	0.0184240
718.738	0.0185992
718.817	0.0185585
718.895	0.0184661
718.973	0.0183314
719.051	0.0182020
719.129	0.0181004
719.207	0.0182233
719.285	0.0179591
719.363	0.0177713
719.442	0.0177226
719.520	0.0177081
719.598	0.0175237
719.676	0.0174918
719.754	0.0172346
719.832	0.0173286
719.910	0.0172057
719.988	0.0170678
720.067	0.0169116
720.145	0.0169491
720.223	0.0167884
720.301	0.0166494
720.379	0.0166595
720.457	0.0165548
720.535	0.0164330
720.613	0.0164990
720.692	0.0164690
720.770	0.0165534
720.848	0.0165898
720.926	0.0168298
721.004	0.0168864
721.082	0.0172085
721.160	0.0173721
721.238	0.0174017
721.317	0.0178188
721.395	0.0180141
721.473	0.0182563
721.551	0.0184550
721.629	0.0185909
721.707	0.0186694
721.785	0.0187847
721.863	0.0189806
721.942	0.0188646
722.020	0.0189970
722.098	0.0188776
722.176	0.0188394
722.254	0.0186959
722.332	0.0186369
722.410	0.0187349
722.488	0.0183986
722.567	0.0184967
722.645	0.0183571
722.723	0.0182005
722.801	0.0179891
722.879	0.0179790
722.957	0.0178709
723.035	0.0175575
723.113	0.0176304
723.192	0.0176662
723.270	0.0175304
723.348	0.0173390
723.426	0.0173790
723.504	0.0172620
723.582	0.0172440
723.660	0.0172755
723.738	0.0173972
723.817	0.0172648
723.895	0.0175555
723.973	0.0176534
724.051	0.0176835
724.129	0.0177618
724.207	0.0180489
724.285	0.0179453
724.363	0.0180078
724.442	0.0180733
724.520	0.0181412
724.598	0.0181688
724.676	0.0179510
724.754	0.0179526
724.832	0.0179788
724.910	0.0180373
724.988	0.0178764
725.067	0.0178378
725.145	0.0176247
725.223	0.0176493
725.301	0.0174906
725.379	0.0174141
725.457	0.0173737
725.535	0.0172762
725.613	0.0173263
725.692	0.0172768
725.770	0.0173623
725.848	0.0174229
725.926	0.0174181
726.004	0.0173097
726.082	0.0175052
726.160	0.0174914
726.238	0.0175301
726.317	0.0175890
726.395	0.0179037
726.473	0.0177902
726.551	0.0179906
726.629	0.0180148
726.707	0.0181221
726.785	0.0181857
726.863	0.0181474
726.942	0.0181459
727.020	0.0182701
727.098	0.0182748
727.176	0.0182481
727.254	0.0181908
727.332	0.0180616
727.410	0.0180273
727.488	0.0178173
727.567	0.0177007
727.645	0.0177177
727.723	0.0175851
727.801	0.0174863
727.879	0.0175772
727.957	0.0177793
728.035	0.0175097
728.113	0.0174984
728.192	0.0177778
728.270	0.0178098
728.348	0.0179878
728.426	0.0181240
728.504	0.0182837
728.582	0.0182505
728.660	0.0184195
728.738	0.0184508
728.817	0.0185721
728.895	0.0184070
728.973	0.0183247
729.051	0.0184339
729.129	0.0183546
729.207	0.0181543
729.285	0.0181343
729.363	0.0178307
729.442	0.0177084
729.520	0.0176783
729.598	0.0175231
729.676	0.0174657
729.754	0.0173481
729.832	0.0173151
729.910	0.0173564
729.988	0.0173886
730.067	0.0175715
730.145	0.0175417
730.223	0.0175900
730.301	0.0176603
730.379	0.0177592
730.457	0.0178026
730.535	0.0179529
730.613	0.0178545
730.692	0.0179922
730.770	0.0179267
730.848	0.0179793
730.926	0.0179540
731.004	0.0180976
731.082	0.0178821
731.160	0.0177419
731.238	0.0176386
731.317	0.0176578
731.395	0.0176250
731.473	0.0174707
731.551	0.0176378
731.629	0.0177043
731.707	0.0175480
731.785	0.0176730
731.863	0.0177204
731.942	0.0178278
732.020	0.0179413
732.098	0.0182296
732.176	0.0181194
732.254	0.0183344
732.332	0.0182283
732.410	0.0182847
732.488	0.0184895
732.567	0.0184968
732.645	0.0183318
732.723	0.0183523
732.801	0.0181270
732.879	0.0181170
732.957	0.0180047
733.035	0.0178398
733.113	0.0178009
733.192	0.0175880
733.270	0.0175632
733.348	0.0174509
733.426	0.0173727
733.504	0.0173076
733.582	0.0174535
733.660	0.0172966
733.738	0.0174235
733.817	0.0173665
733.895	0.0175204
733.973	0.0176624
734.051	0.0176323
734.129	0.0176118
734.207	0.0176697
734.285	0.0177863
734.363	0.0176655
734.442	0.0178131
734.520	0.0178387
734.598	0.0178324
734.676	0.0177242
734.754	0.0177884
734.832	0.0177460
734.910	0.0176279
734.988	0.0175309
735.067	0.0175711
735.145	0.0174561
735.223	0.0175821
735.301	0.0176091
735.379	0.0174089
735.457	0.0173989
735.535	0.0174934
735.613	0.0174744
735.692	0.0174427
735.770	0.0176225
735.848	0.0175407
735.926	0.0175591
736.004	0.0176077
736.082	0.0176988
736.160	0.0176043
736.238	0.0177631
736.317	0.0177394
736.395	0.0176788
736.473	0.0177955
736.551	0.0178137
736.629	0.0177032
736.707	0.0177393
736.785	0.0177338
736.863	0.0177771
736.942	0.0176511
737.020	0.0175941
737.098	0.0175628
737.176	0.0176996
737.254	0.0178298
737.332	0.0177952
737.410	0.0178421
737.488	0.0178864
737.567	0.0179372
737.645	0.0179580
737.723	0.0180089
737.801	0.0180981
737.879	0.0181301
737.957	0.0180769
738.035	0.0181027
738.113	0.0182269
738.192	0.0181042
738.270	0.0180222
738.348	0.0180670
738.426	0.0180504
738.504	0.0180220
738.582	0.0179038
738.660	0.0178140
738.738	0.0178281
738.817	0.0177989
738.895	0.0176730
738.973	0.0178345
739.051	0.0178719
739.129	0.0176439
739.207	0.0177360
739.285	0.0178175
739.363	0.0178283
739.442	0.0178059
739.520	0.0178339
739.598	0.0177254
739.676	0.0177826
739.754	0.0176568
739.832	0.0177164
739.910	0.0176032
739.988	0.0174395
740.067	0.0176057
740.145	0.0175352
740.223	0.0175905
740.301	0.0176998
740.379	0.0175908
740.457	0.0177243
740.535	0.0178215
740.613	0.0176993
740.692	0.0176678
740.770	0.0178487
740.848	0.0178853
740.926	0.0180444
741.004	0.0179742
741.082	0.0180565
741.160	0.0179807
741.238	0.0179654
741.317	0.0178921
741.395	0.0179527
741.473	0.0179178
741.551	0.0177764
741.629	0.0177998
741.707	0.0177763
741.785	0.0175687
741.863	0.0175539
741.942	0.0174258
742.020	0.0173759
742.098	0.0174581
742.176	0.0172894
742.254	0.0172605
742.332	0.0172020
742.410	0.0172481
742.488	0.0173386
742.567	0.0172390
742.645	0.0174435
742.723	0.0176594
742.801	0.0176058
742.879	0.0177077
742.957	0.0177279
743.035	0.0178040
743.113	0.0180013
743.192	0.0180025
743.270	0.0179801
743.348	0.0180923
743.426	0.0180965
743.504	0.0181972
743.582	0.0182020
743.660	0.0181333
743.738	0.0183310
743.817	0.0181396
743.895	0.0180183
743.973	0.0180931
744.051	0.0179202
744.129	0.0178411
744.207	0.0178355
744.285	0.0179226
744.363	0.0178154
744.442	0.0179385
744.520	0.0178168
744.598	0.0177762
744.676	0.0178369
744.754	0.0178039
744.832	0.0176454
744.910	0.0178889
744.988	0.0177917
745.067	0.0178868
745.145	0.0179691
745.223	0.0178603
745.301	0.0179301
745.379	0.0179517
745.457	0.0178517
745.535	0.0178496
745.613	0.0179650
745.692	0.0180282
745.770	0.0178329
745.848	0.0178096
745.926	0.0178179
746.004	0.0178101
746.082	0.0179274
746.160	0.0178750
746.238	0.0178551
746.317	0.0178595
746.395	0.0179101
746.473	0.0177211
746.551	0.0177999
746.629	0.0178707
746.707	0.0178887
746.785	0.0177926
746.863	0.0177220
746.942	0.0177235
747.020	0.0176127
747.098	0.0176961
747.176	0.0176136
747.254	0.0174696
747.332	0.0174323
747.410	0.0173074
747.488	0.0174673
747.567	0.0174419
747.645	0.0174135
747.723	0.0174171
747.801	0.0174638
747.879	0.0175243
747.957	0.0175499
748.035	0.0176948
748.113	0.0175354
748.192	0.0177487
748.270	0.0177850
748.348	0.0177890
748.426	0.0177865
748.504	0.0178240
748.582	0.0179327
748.660	0.0179317
748.738	0.0178433
748.817	0.0179079
748.895	0.0178306
748.973	0.0179131
749.051	0.0178583
749.129	0.0177453
749.207	0.0177072
749.285	0.0177297
749.363	0.0176092
749.442	0.0177441
749.520	0.0176715
749.598	0.0177283
749.676	0.0176720
749.754	0.0177534
749.832	0.0178516
749.910	0.0179034
749.988	0.0177834
750.067	0.0179609
750.145	0.0179222
750.223	0.0180410
750.301	0.0179131
750.379	0.0178928
750.457	0.0178698
750.535	0.0178877
750.613	0.0179496
750.692	0.0178987
750.770	0.0177603
750.848	0.0177731
750.926	0.0177128
751.004	0.0177663
751.082	0.0177092
751.160	0.0176902
751.238	0.0176567
751.317	0.0176572
751.395	0.0176278
751.473	0.0176594
751.551	0.0175814
751.629	0.0178108
751.707	0.0179548
751.785	0.0178960
751.863	0.0180186
751.942	0.0179636
752.020	0.0181936
752.098	0.0180930
752.176	0.0183875
752.254	0.0183028
752.332	0.0182458
752.410	0.0182348
752.488	0.0181804
752.567	0.0181287
752.645	0.0181450
752.723	0.0181322
752.801	0.0180459
752.879	0.0180447
752.957	0.0179727
753.035	0.0178722
753.113	0.0178354
753.192	0.0177755
753.270	0.0178277
753.348	0.0177779
753.426	0.0176689
753.504	0.0177992
753.582	0.0177594
753.660	0.0176781
753.738	0.0176591
753.817	0.0176792
753.895	0.0177504
753.973	0.0177193
754.051	0.0177045
754.129	0.0176836
754.207	0.0176452
754.285	0.0176708
754.363	0.0178159
754.442	0.0177170
754.520	0.0177350
754.598	0.0177023
754.676	0.0177586
754.754	0.0178603
754.832	0.0177049
754.910	0.0179498
754.988	0.0180257
755.067	0.0177572
755.145	0.0179761
755.223	0.0180376
755.301	0.0180422
755.379	0.0180610
755.457	0.0179379
755.535	0.0178053
755.613	0.0179414
755.692	0.0178622
755.770	0.0178429
755.848	0.0177495
755.926	0.0176424
756.004	0.0176803
756.082	0.0176733
756.160	0.0176016
756.238	0.0178383
756.317	0.0178087
756.395	0.0177448
756.473	0.0177116
756.551	0.0177131
756.629	0.0178976
756.707	0.0178059
756.785	0.0177510
756.863	0.0178242
756.942	0.0180251
757.020	0.0178925
757.098	0.0178802
757.176	0.0179175
757.254	0.0178558
757.332	0.0178178
757.410	0.0179626
757.488	0.0181197
757.567	0.0180283
757.645	0.0179250
757.723	0.0179108
757.801	0.0179037
757.879	0.0178365
757.957	0.0178594
758.035	0.0178493
758.113	0.0177061
758.192	0.0177818
758.270	0.0176811
758.348	0.0175286
758.426	0.0176756
758.504	0.0176214
758.582	0.0174336
758.660	0.0175388
758.738	0.0176090
758.817	0.0177547
758.895	0.0175299
758.973	0.0177143
759.051	0.0176539
759.129	0.0177182
759.207	0.0179589
759.285	0.0179051
759.363	0.0179487
759.442	0.0178783
759.520	0.0181076
759.598	0.0181872
759.676	0.0179768
759.754	0.0179052
759.832	0.0181644
759.910	0.0181566
759.988	0.0180447
760.067	0.0179631
760.145	0.0179773
760.223	0.0178481
760.301	0.0179000
760.379	0.0177975
760.457	0.0177571
760.535	0.0177874
760.613	0.0177699
760.692	0.0176347
760.770	0.0175983
760.848	0.0177687
760.926	0.0176691
761.004	0.0175195
761.082	0.0176051
761.160	0.0176762
761.238	0.0176466
761.317	0.0175600
761.395	0.0174655
761.473	0.0176681
761.551	0.0176910
761.629	0.0175311
761.707	0.0175799
761.785	0.0176728
761.863	0.0175475
761.942	0.0177232
762.020	0.0177737
762.098	0.0178429
762.176	0.0177830
762.254	0.0178129
762.332	0.0176217
762.410	0.0178886
762.488	0.0179112
762.567	0.0179043
762.645	0.0180490
762.723	0.0180610
762.801	0.0181699
762.879	0.0179491
762.957	0.0180138
763.035	0.0179076
763.113	0.0179417
763.192	0.0179375
763.270	0.0178899
763.348	0.0179216
763.426	0.0178388
763.504	0.0178242
763.582	0.0178082
763.660	0.0175594
763.738	0.0176120
763.817	0.0175801
763.895	0.0175673
763.973	0.0175372
764.051	0.0175703
764.129	0.0174333
764.207	0.0176051
764.285	0.0177664
764.363	0.0176414
764.442	0.0177785
764.520	0.0179113
764.598	0.0178106
764.676	0.0177168
764.754	0.0178661
764.832	0.0179955
764.910	0.0180414
764.988	0.0181876
765.067	0.0180884
765.145	0.0180489
765.223	0.0179977
765.301	0.0179343
765.379	0.0179173
765.457	0.0179319
765.535	0.0180075
765.613	0.0177751
765.692	0.0178512
765.770	0.0177338
765.848	0.0176431
765.926	0.0177142
766.004	0.0177035
766.082	0.0176625
766.160	0.0176729
766.238	0.0176247
766.317	0.0176661
766.395	0.0177908
766.473	0.0176263
766.551	0.0178140
766.629	0.0178576
766.707	0.0178643
766.785	0.0180151
766.863	0.0179612
766.942	0.0179268
767.020	0.0179406
767.098	0.0179588
767.176	0.0177779
767.254	0.0177343
767.332	0.0177777
767.410	0.0177822
767.488	0.0178513
767.567	0.0176477
767.645	0.0175500
767.723	0.0175365
767.801	0.0175610
767.879	0.0174821
767.957	0.0174299
768.035	0.0175365
768.113	0.0175668
768.192	0.0176128
768.270	0.0176962
768.348	0.0177617
768.426	0.0178014
768.504	0.0176864
768.582	0.0178075
768.660	0.0178928
768.738	0.0178226
768.817	0.0180106
768.895	0.0180200
768.973	0.0178887
769.051	0.0180797
769.129	0.0180711
769.207	0.0179810
769.285	0.0179803
769.363	0.0180482
769.442	0.0178630
769.520	0.0177920
769.598	0.0177955
769.676	0.0177514
769.754	0.0178072
769.832	0.0178106
769.910	0.0177676
769.988	0.0175500
770.067	0.0176231
770.145	0.0177993
770.223	0.0175800
770.301	0.0175893
770.379	0.0176028
770.457	0.0176612
770.535	0.0178011
770.613	0.0178043
770.692	0.0176303
770.770	0.0177020
770.848	0.0177546
770.926	0.0177934
771.004	0.0179484
771.082	0.0178461
771.160	0.0176860
771.238	0.0178331
771.317	0.0178207
771.395	0.0178237
771.473	0.0179213
771.551	0.0179032
771.629	0.0176784
771.707	0.0176058
771.785	0.0175423
771.863	0.0177507
771.942	0.0177128
772.020	0.0175574
772.098	0.0175876
772.176	0.0177885
772.254	0.0177383
772.332	0.0176180
772.410	0.0177430
772.488	0.0176762
772.567	0.0178226
772.645	0.0178541
772.723	0.0177995
772.801	0.0178460
772.879	0.0178078
772.957	0.0178730
773.035	0.0179738
773.113	0.0179630
773.192	0.0180140
773.270	0.0179166
773.348	0.0180823
773.426	0.0180569
773.504	0.0179935
773.582	0.0179489
773.660	0.0179427
773.738	0.0179391
773.817	0.0180540
773.895	0.0179519
773.973	0.0179073
774.051	0.0177296
774.129	0.0177584
774.207	0.0179681
774.285	0.0178554
774.363	0.0177087
774.442	0.0177067
774.520	0.0176811
774.598	0.0176825
774.676	0.0177888
774.754	0.0177509
774.832	0.0175771
774.910	0.0176550
774.988	0.0175792
775.067	0.0176563
775.145	0.0177546
775.223	0.0177874
775.301	0.0177534
775.379	0.0177830
775.457	0.0177882
775.535	0.0178712
775.613	0.0178284
775.692	0.0179589
775.770	0.0179599
775.848	0.0180869
775.926	0.0179575
776.004	0.0178773
776.082	0.0178425
776.160	0.0178020
776.238	0.0178654
776.317	0.0177629
776.395	0.0177594
776.473	0.0178482
776.551	0.0177438
776.629	0.0176371
776.707	0.0177404
776.785	0.0176648
776.863	0.0176013
776.942	0.0176228
777.020	0.0176111
777.098	0.0176236
777.176	0.0175214
777.254	0.0176197
777.332	0.0176417
777.410	0.0175217
777.488	0.0177212
777.567	0.0178189
777.645	0.0176989
777.723	0.0177718
777.801	0.0178702
777.879	0.0180178
777.957	0.0175851
778.035	0.0178247
778.113	0.0179013
778.192	0.0179416
778.270	0.0178904
778.348	0.0179505
778.426	0.0179139
778.504	0.0179916
778.582	0.0179790
778.660	0.0178558
778.738	0.0178570
778.817	0.0178232
778.895	0.0179230
778.973	0.0178793
779.051	0.0179210
779.129	0.0178593
779.207	0.0177942
779.285	0.0177699
779.363	0.0178315
779.442	0.0177888
779.520	0.0178767
779.598	0.0178340
779.676	0.0177673
779.754	0.0179282
779.832	0.0178397
779.910	0.0178013
779.988	0.0178084
780.067	0.0179816
780.145	0.0178951
780.223	0.0179089
780.301	0.0178693
780.379	0.0177562
780.457	0.0178458
780.535	0.0178641
780.613	0.0179535
780.692	0.0179728
780.770	0.0177673
780.848	0.0177972
780.926	0.0178555
781.004	0.0178323
781.082	0.0178014
781.160	0.0176860
781.238	0.0178814
781.317	0.0177856
781.395	0.0178072
781.473	0.0178495
781.551	0.0178313
781.629	0.0177532
781.707	0.0179187
781.785	0.0178699
781.863	0.0179533
781.942	0.0178754
782.020	0.0179363
782.098	0.0180287
782.176	0.0178280
782.254	0.0179925
782.332	0.0178996
782.410	0.0178800
782.488	0.0178878
782.567	0.0179242
782.645	0.0177683
782.723	0.0179713
782.801	0.0179962
782.879	0.0177882
782.957	0.0178726
783.035	0.0179561
783.113	0.0177649
783.192	0.0177026
783.270	0.0178305
783.348	0.0177674
783.426	0.0178061
783.504	0.0177416
783.582	0.0177393
783.660	0.0178577
783.738	0.0177228
783.817	0.0177242
783.895	0.0179000
783.973	0.0178249
784.051	0.0178969
784.129	0.0178938
784.207	0.0179678
784.285	0.0179320
784.363	0.0177039
784.442	0.0177887
784.520	0.0179897
784.598	0.0178389
784.676	0.0177157
784.754	0.0177879
784.832	0.0177113
784.910	0.0176051
784.988	0.0177304
785.067	0.0176775
785.145	0.0177506
785.223	0.0175908
785.301	0.0175683
785.379	0.0176167
785.457	0.0176567
785.535	0.0176829
785.613	0.0175732
785.692	0.0173663
785.770	0.0175850
785.848	0.0174564
785.926	0.0176318
786.004	0.0176162
786.082	0.0175002
786.160	0.0176758
786.238	0.0177500
786.317	0.0176454
786.395	0.0176839
786.473	0.0178042
786.551	0.0179292
786.629	0.0177915
786.707	0.0179407
786.785	0.0179112
786.863	0.0180557
786.942	0.0180234
787.020	0.0179575
787.098	0.0179874
787.176	0.0179721
787.254	0.0179646
787.332	0.0180819
787.410	0.0180965
787.488	0.0180423
787.567	0.0180913
787.645	0.0180019
787.723	0.0179556
787.801	0.0180338
787.879	0.0180009
787.957	0.0181331
788.035	0.0181183
788.113	0.0180994
788.192	0.0181455
788.270	0.0182024
788.348	0.0180630
788.426	0.0179936
788.504	0.0179488
788.582	0.0178350
788.660	0.0178564
788.738	0.0176337
788.817	0.0177058
788.895	0.0176543
788.973	0.0176058
789.051	0.0175670
789.129	0.0174165
789.207	0.0173184
789.285	0.0174031
789.363	0.0174007
789.442	0.0173228
789.520	0.0173264
789.598	0.0174736
789.676	0.0174325
789.754	0.0174994
789.832	0.0176040
789.910	0.0175891
789.988	0.0176706
790.067	0.0177898
790.145	0.0179406
790.223	0.0180325
790.301	0.0180414
790.379	0.0180372
790.457	0.0181017
790.535	0.0184204
790.613	0.0183512
790.692	0.0183415
790.770	0.0183446
790.848	0.0182445
790.926	0.0180875
791.004	0.0180464
791.082	0.0179924
791.160	0.0176392
791.238	0.0176603
791.317	0.0174697
791.395	0.0174480
791.473	0.0173339
791.551	0.0170857
791.629	0.0169965
791.707	0.0170653
791.785	0.0168556
791.863	0.0168452
791.942	0.0169912
792.020	0.0171110
792.098	0.0172694
792.176	0.0173745
792.254	0.0173685
792.332	0.0177153
792.410	0.0177374
792.488	0.0179722
792.567	0.0179903
792.645	0.0182293
792.723	0.0183325
792.801	0.0184658
792.879	0.0184912
792.957	0.0185841
793.035	0.0185497
793.113	0.0185091
793.192	0.0184544
793.270	0.0183677
793.348	0.0181887
793.426	0.0181026
793.504	0.0179456
793.582	0.0178983
793.660	0.0177489
793.738	0.0175113
793.817	0.0173840
793.895	0.0172473
793.973	0.0171529
794.051	0.0170844
794.129	0.0170385
794.207	0.0170280
794.285	0.0168915
794.363	0.0168897
794.442	0.0169199
794.520	0.0170978
794.598	0.0170958
794.676	0.0172323
794.754	0.0172829
794.832	0.0172830
794.910	0.0174916
794.988	0.0175104
795.067	0.0176733
795.145	0.0178345
795.223	0.0179025
795.301	0.0177216
795.379	0.0178917
795.457	0.0180183
795.535	0.0180353
795.613	0.0179992
795.692	0.0181174
795.770	0.0179465
795.848	0.0180624
795.926	0.0181322
796.004	0.0181696
796.082	0.0180563
796.160	0.0181132
796.238	0.0181429
796.317	0.0181664
796.395	0.0181184
796.473	0.0182654
796.551	0.0183031
796.629	0.0180937
796.707	0.0182451
796.785	0.0182868
796.863	0.0183835
796.942	0.0182375
797.020	0.0181462
797.098	0.0181735
797.176	0.0179911
797.254	0.0180035
797.332	0.0178316
797.410	0.0177471
797.488	0.0175987
797.567	0.0174174
797.645	0.0171804
797.723	0.0171077
797.801	0.0171549
797.879	0.0169192
797.957	0.0167790
798.035	0.0169135
798.113	0.0168631
798.192	0.0168683
798.270	0.0170247
798.348	0.0169134
798.426	0.0171535
798.504	0.0173334
798.582	0.0172317
798.660	0.0174892
798.738	0.0176679
798.817	0.0178568
798.895	0.0179414
798.973	0.0180820
799.051	0.0182311
799.129	0.0183750
799.207	0.0182394
799.285	0.0182648
799.363	0.0184219
799.442	0.0182951
799.520	0.0182576
799.598	0.0183308
799.676	0.0181329
799.754	0.0181371
799.832	0.0180088
799.910	0.0178053
799.988	0.0178218
800.067	0.0177449
800.145	0.0177280
800.223	0.0176103
800.301	0.0175613
800.379	0.0176142
800.457	0.0177711
800.535	0.0176637
800.613	0.0176627
800.692	0.0177400
800.770	0.0177047
800.848	0.0178336
800.926	0.0176432
801.004	0.0177495
801.082	0.0179106
801.160	0.0179869
801.238	0.0177998
801.317	0.0176797
801.395	0.0177956
801.473	0.0178214
801.551	0.0177486
801.629	0.0177368
801.707	0.0178075
801.785	0.0176123
801.863	0.0175129
801.942	0.0175641
802.020	0.0176297
802.098	0.0175967
802.176	0.0175574
802.254	0.0176481
802.332	0.0174136
802.410	0.0174324
802.488	0.0176379
802.567	0.0176157
802.645	0.0176178
802.723	0.0177422
802.801	0.0176366
802.879	0.0176916
802.957	0.0178569
803.035	0.0176679
803.113	0.0177172
803.192	0.0177793
803.270	0.0178606
803.348	0.0180451
803.426	0.0179637
803.504	0.0179585
803.582	0.0180537
803.660	0.0181369
803.738	0.0180956
803.817	0.0180389
803.895	0.0180795
803.973	0.0180399
804.051	0.0181435
804.129	0.0180560
804.207	0.0180961
804.285	0.0180746
804.363	0.0181207
804.442	0.0180035
804.520	0.0181538
804.598	0.0181229
804.676	0.0179662
804.754	0.0180235
804.832	0.0179089
804.910	0.0180320
804.988	0.0179388
805.067	0.0179563
805.145	0.0179366
805.223	0.0178769
805.301	0.0179713
805.379	0.0178158
805.457	0.0177215
805.535	0.0178016
805.613	0.0178015
805.692	0.0178405
805.770	0.0176587
805.848	0.0176575
805.926	0.0175632
806.004	0.0175487
806.082	0.0174552
806.160	0.0174780
806.238	0.0174163
806.317	0.0173653
806.395	0.0174757
806.473	0.0173308
806.551	0.0173105
806.629	0.0173963
806.707	0.0172897
806.785	0.0173169
806.863	0.0174573
806.942	0.0174017
807.020	0.0174252
807.098	0.0173287
807.176	0.0174500
807.254	0.0175080
807.332	0.0176196
807.410	0.0175735
807.488	0.0175913
807.567	0.0175844
807.645	0.0175857
807.723	0.0176914
807.801	0.0177425
807.879	0.0177148
807.957	0.0177470
808.035	0.0177522
808.113	0.0177199
808.192	0.0176671
808.270	0.0179326
808.348	0.0178780
808.426	0.0178053
808.504	0.0178643
808.582	0.0179762
808.660	0.0181291
808.738	0.0179659
808.817	0.0179657
808.895	0.0181514
808.973	0.0178846
809.051	0.0179607
809.129	0.0180815
809.207	0.0180463
809.285	0.0179586
809.363	0.0177909
809.442	0.0177303
809.520	0.0179015
809.598	0.0179307
809.676	0.0178548
809.754	0.0177963
809.832	0.0178164
809.910	0.0178633
809.988	0.0177598
810.067	0.0178491
810.145	0.0178759
810.223	0.0178525
810.301	0.0180009
810.379	0.0179018
810.457	0.0179943
810.535	0.0179745
810.613	0.0178719
810.692	0.0178737
810.770	0.0178835
810.848	0.0178711
810.926	0.0177489
811.004	0.0176942
811.082	0.0176440
811.160	0.0176130
811.238	0.0176456
811.317	0.0175760
811.395	0.0175281
811.473	0.0175526
811.551	0.0174484
811.629	0.0175882
811.707	0.0175217
811.785	0.0174590
811.863	0.0175494
811.942	0.0174678
812.020	0.0175833
812.098	0.0176109
812.176	0.0175195
812.254	0.0177148
812.332	0.0179304
812.410	0.0179527
812.488	0.0179268
812.567	0.0180284
812.645	0.0179568
812.723	0.0181006
812.801	0.0180677
812.879	0.0179911
812.957	0.0179470
813.035	0.0179525
813.113	0.0178431
813.192	0.0179108
813.270	0.0178285
813.348	0.0178355
813.426	0.0179488
813.504	0.0178221
813.582	0.0176696
813.660	0.0177769
813.738	0.0178191
813.817	0.0177036
813.895	0.0177745
813.973	0.0177279
814.051	0.0177656
814.129	0.0177711
814.207	0.0176505
814.285	0.0177803
814.363	0.0178275
814.442	0.0177295
814.520	0.0177191
814.598	0.0176778
814.676	0.0176785
814.754	0.0177258
814.832	0.0179431
814.910	0.0177760
814.988	0.0177311
815.067	0.0177163
815.145	0.0179047
815.223	0.0176405
815.301	0.0177371
815.379	0.0177293
815.457	0.0178774
815.535	0.0180331
815.613	0.0179633
815.692	0.0178003
815.770	0.0177448
815.848	0.0178272
815.926	0.0176958
816.004	0.0177197
816.082	0.0177062
816.160	0.0176853
816.238	0.0175952
816.317	0.0175639
816.395	0.0176320
816.473	0.0175408
816.551	0.0176733
816.629	0.0175644
816.707	0.0175335
816.785	0.0175130
816.863	0.0175900
816.942	0.0175597
817.020	0.0177009
817.098	0.0174915
817.176	0.0174535
817.254	0.0176212
817.332	0.0173587
817.410	0.0175719
817.488	0.0176326
817.567	0.0175848
817.645	0.0175963
817.723	0.0175981
817.801	0.0176833
817.879	0.0175706
817.957	0.0177699
818.035	0.0178535
818.113	0.0178982
818.192	0.0178858
818.270	0.0179766
818.348	0.0179962
818.426	0.0179884
818.504	0.0181496
818.582	0.0182551
818.660	0.0181815
818.738	0.0181300
818.817	0.0180881
818.895	0.0180166
818.973	0.0180495
819.051	0.0180373
819.129	0.0179933
819.207	0.0178716
819.285	0.0177367
819.363	0.0177691
819.442	0.0177637
819.520	0.0177336
819.598	0.0176496
819.676	0.0176680
819.754	0.0176529
819.832	0.0175980
819.910	0.0176475
819.988	0.0176886
820.067	0.0177499
820.145	0.0178275
820.223	0.0179369
820.301	0.0177999
820.379	0.0179366
820.457	0.0179796
820.535	0.0180776
820.613	0.0179160
820.692	0.0180500
820.770	0.0181242
820.848	0.0181114
820.926	0.0179939
821.004	0.0179981
821.082	0.0179721
821.160	0.0178931
821.238	0.0178526
821.317	0.0177989
821.395	0.0175916
821.473	0.0176380
821.551	0.0175182
821.629	0.0172726
821.707	0.0173942
821.785	0.0173814
821.863	0.0174197
821.942	0.0173301
822.020	0.0172402
822.098	0.0175024
822.176	0.0174682
822.254	0.0174659
822.332	0.0175560
822.410	0.0175131
822.488	0.0176326
822.567	0.0176474
822.645	0.0177216
822.723	0.0177943
822.801	0.0178122
822.879	0.0177411
822.957	0.0178197
823.035	0.0176937
823.113	0.0178814
823.192	0.0177769
823.270	0.0178006
823.348	0.0178103
823.426	0.0178409
823.504	0.0178912
823.582	0.0177427
823.660	0.0176958
823.738	0.0178070
823.817	0.0176358
823.895	0.0176413
823.973	0.0178450
824.051	0.0178813
824.129	0.0178630
824.207	0.0179156
824.285	0.0178959
824.363	0.0179440
824.442	0.0178127
824.520	0.0178793
824.598	0.0178583
824.676	0.0178825
824.754	0.0180083
824.832	0.0178336
824.910	0.0178179
824.988	0.0178432
825.067	0.0177514
825.145	0.0177322
825.223	0.0178506
825.301	0.0179011
825.379	0.0179244
825.457	0.0179903
825.535	0.0180257
825.613	0.0179778
825.692	0.0179781
825.770	0.0182040
825.848	0.0181324
825.926	0.0180464
826.004	0.0181975
826.082	0.0181324
826.160	0.0182084
826.238	0.0180471
826.317	0.0181129
826.395	0.0180058
826.473	0.0178902
826.551	0.0180106
826.629	0.0178587
826.707	0.0178609
826.785	0.0177905
826.863	0.0177020
826.942	0.0176382
827.020	0.0176537
827.098	0.0176434
827.176	0.0175791
827.254	0.0175456
827.332	0.0174525
827.410	0.0175954
827.488	0.0176618
827.567	0.0176448
827.645	0.0176200
827.723	0.0176324
827.801	0.0178387
827.879	0.0176614
827.957	0.0177280
828.035	0.0177155
828.113	0.0177219
828.192	0.0175739
828.270	0.0175491
828.348	0.0176064
828.426	0.0177590
828.504	0.0177278
828.582	0.0176538
828.660	0.0176687
828.738	0.0174782
828.817	0.0177962
828.895	0.0177708
828.973	0.0176610
829.051	0.0177489
829.129	0.0177753
829.207	0.0177265
829.285	0.0178002
829.363	0.0178626
829.442	0.0177583
829.520	0.0179046
829.598	0.0179631
829.676	0.0179471
829.754	0.0178114
829.832	0.0179566
829.910	0.0180770
829.988	0.0178122
830.067	0.0177671
830.145	0.0178432
830.223	0.0178337
830.301	0.0177160
830.379	0.0178718
830.457	0.0178139
830.535	0.0177869
830.613	0.0177850
830.692	0.0176834
830.770	0.0175826
830.848	0.0177306
830.926	0.0176364
831.004	0.0177321
831.082	0.0176814
831.160	0.0177407
831.238	0.0176939
831.317	0.0176349
831.395	0.0178352
831.473	0.0176891
831.551	0.0176966
831.629	0.0177929
831.707	0.0177274
831.785	0.0176584
831.863	0.0176028
831.942	0.0178362
832.020	0.0177396
832.098	0.0176604
832.176	0.0175800
832.254	0.0175939
832.332	0.0176326
832.410	0.0177061
832.488	0.0176955
832.567	0.0176418
832.645	0.0175368
832.723	0.0175985
832.801	0.0177957
832.879	0.0176960
832.957	0.0176987
833.035	0.0178127
833.113	0.0179659
833.192	0.0177168
833.270	0.0178451
833.348	0.0178596
833.426	0.0177971
833.504	0.0178319
833.582	0.0178342
833.660	0.0178043
833.738	0.0176938
833.817	0.0178111
833.895	0.0177909
833.973	0.0178398
834.051	0.0177390
834.129	0.0175948
834.207	0.0177312
834.285	0.0175381
834.363	0.0176958
834.442	0.0176575
834.520	0.0177394
834.598	0.0177438
834.676	0.0178448
834.754	0.0177918
834.832	0.0177958
834.910	0.0178463
834.988	0.0177904
835.067	0.0178561
835.145	0.0177930
835.223	0.0178999
835.301	0.0181405
835.379	0.0179395
835.457	0.0179336
835.535	0.0178451
835.613	0.0178738
835.692	0.0177958
835.770	0.0177949
835.848	0.0178392
835.926	0.0177177
836.004	0.0178557
836.082	0.0177930
836.160	0.0178947
836.238	0.0177710
836.317	0.0177823
836.395	0.0177773
836.473	0.0177052
836.551	0.0177705
836.629	0.0175801
836.707	0.0176904
836.785	0.0177339
836.863	0.0177396
836.942	0.0176289
837.020	0.0176363
837.098	0.0176249
837.176	0.0177048
837.254	0.0176552
837.332	0.0179282
837.410	0.0177728
837.488	0.0176523
837.567	0.0178905
837.645	0.0178382
837.723	0.0177934
837.801	0.0177824
837.879	0.0177236
837.957	0.0177850
838.035	0.0177390
838.113	0.0178280
838.192	0.0178346
838.270	0.0178923
838.348	0.0177568
838.426	0.0178508
838.504	0.0177730
838.582	0.0178017
838.660	0.0177722
838.738	0.0178405
838.817	0.0176927
838.895	0.0177435
838.973	0.0177552
839.051	0.0177959
839.129	0.0177047
839.207	0.0177454
839.285	0.0177441
839.363	0.0177409
839.442	0.0177023
839.520	0.0177667
839.598	0.0177273
839.676	0.0176461
839.754	0.0177647
839.832	0.0177586
839.910	0.0178499
839.988	0.0178420
840.067	0.0178512
840.145	0.0178233
840.223	0.0178539
840.301	0.0177528
840.379	0.0179394
840.457	0.0180053
840.535	0.0178269
840.613	0.0179039
840.692	0.0178001
840.770	0.0180064
840.848	0.0179514
840.926	0.0177983
841.004	0.0178801
841.082	0.0180379
841.160	0.0179657
841.238	0.0178482
841.317	0.0178773
841.395	0.0178967
841.473	0.0179987
841.551	0.0179993
841.629	0.0178419
841.707	0.0180022
841.785	0.0179875
841.863	0.0179458
841.942	0.0179986
842.020	0.0180334
842.098	0.0178688
842.176	0.0177933
842.254	0.0178374
842.332	0.0180360
842.410	0.0178835
842.488	0.0177892
842.567	0.0178045
842.645	0.0177209
842.723	0.0178150
842.801	0.0177924
842.879	0.0177867
842.957	0.0177470
843.035	0.0176743
843.113	0.0177628
843.192	0.0175816
843.270	0.0176389
843.348	0.0175430
843.426	0.0175241
843.504	0.0176456
843.582	0.0175843
843.660	0.0174608
843.738	0.0174359
843.817	0.0174962
843.895	0.0174956
843.973	0.0172900
844.051	0.0174379
844.129	0.0173559
844.207	0.0175565
844.285	0.0175684
844.363	0.0175564
844.442	0.0177651
844.520	0.0175819
844.598	0.0177200
844.676	0.0178899
844.754	0.0178057
844.832	0.0178783
844.910	0.0180994
844.988	0.0180524
845.067	0.0180278
845.145	0.0180550
845.223	0.0180643
845.301	0.0180786
845.379	0.0180585
845.457	0.0180830
845.535	0.0179357
845.613	0.0178992
845.692	0.0179123
845.770	0.0178103
845.848	0.0176974
845.926	0.0177635
846.004	0.0175879
846.082	0.0176477
846.160	0.0177941
846.238	0.0176353
846.317	0.0176145
846.395	0.0175436
846.473	0.0177482
846.551	0.0176485
846.629	0.0178020
846.707	0.0177214
846.785	0.0178228
846.863	0.0178105
846.942	0.0179294
847.020	0.0178653
847.098	0.0178287
847.176	0.0180252
847.254	0.0178748
847.332	0.0179086
847.410	0.0179556
847.488	0.0178016
847.567	0.0177888
847.645	0.0177369
847.723	0.0177660
847.801	0.0177652
847.879	0.0176907
847.957	0.0176785
848.035	0.0176474
848.113	0.0176262
848.192	0.0176640
848.270	0.0178007
848.348	0.0177453
848.426	0.0176154
848.504	0.0175704
848.582	0.0177487
848.660	0.0177332
848.738	0.0176727
848.817	0.0177331
848.895	0.0177436
848.973	0.0177946
849.051	0.0176227
849.129	0.0177814
849.207	0.0178764
849.285	0.0179153
849.363	0.0177737
849.442	0.0178404
849.520	0.0179446
849.598	0.0178949
849.676	0.0178954
849.754	0.0180338
849.832	0.0179929
849.910	0.0180739
849.988	0.0179871
850.067	0.0180359
850.145	0.0181254
850.223	0.0179828
850.301	0.0180639
850.379	0.0180379
850.457	0.0182238
850.535	0.0180522
850.613	0.0181035
850.692	0.0178976
850.770	0.0179266
850.848	0.0178931
850.926	0.0180113
851.004	0.0177659
851.082	0.0176338
851.160	0.0176794
851.238	0.0176014
851.317	0.0176651
851.395	0.0176962
851.473	0.0176611
851.551	0.0175978
851.629	0.0177898
851.707	0.0175100
851.785	0.0177158
851.863	0.0176692
851.942	0.0176969
852.020	0.0176393
852.098	0.0176365
852.176	0.0176437
852.254	0.0177055
852.332	0.0176615
852.410	0.0177636
852.488	0.0176109
852.567	0.0176824
852.645	0.0177633
852.723	0.0176681
852.801	0.0175861
852.879	0.0177604
852.957	0.0176514
853.035	0.0177208
853.113	0.0177040
853.192	0.0175595
853.270	0.0178335
853.348	0.0178603
853.426	0.0177890
853.504	0.0176237
853.582	0.0176893
853.660	0.0177142
853.738	0.0177242
853.817	0.0177126
853.895	0.0178348
853.973	0.0177071
854.051	0.0176664
854.129	0.0178846
854.207	0.0178354
854.285	0.0178293
854.363	0.0178287
854.442	0.0178688
854.520	0.0179166
854.598	0.0178720
854.676	0.0179509
854.754	0.0180114
854.832	0.0179330
854.910	0.0178554
854.988	0.0179648
855.067	0.0178793
855.145	0.0177608
855.223	0.0179807
855.301	0.0179838
855.379	0.0179586
855.457	0.0178712
855.535	0.0178650
855.613	0.0179065
855.692	0.0178875
855.770	0.0177852
855.848	0.0178300
855.926	0.0178826
856.004	0.0179891
856.082	0.0178353
856.160	0.0179469
856.238	0.0179623
856.317	0.0180262
856.395	0.0178362
856.473	0.0180608
856.551	0.0180635
856.629	0.0179831
856.707	0.0179238
856.785	0.0179509
856.863	0.0179824
856.942	0.0180096
857.020	0.0179224
857.098	0.0178165
857.176	0.0178570
857.254	0.0178159
857.332	0.0176846
857.410	0.0178806
857.488	0.0177637
857.567	0.0177461
857.645	0.0176456
857.723	0.0177549
857.801	0.0178298
857.879	0.0175207
857.957	0.0175932
858.035	0.0176922
858.113	0.0175890
858.192	0.0176502
858.270	0.0176401
858.348	0.0176640
858.426	0.0175719
858.504	0.0177810
858.582	0.0177467
858.660	0.0176389
858.738	0.0176921
858.817	0.0177841
858.895	0.0177045
858.973	0.0178418
859.051	0.0177311
859.129	0.0177126
859.207	0.0177644
859.285	0.0178443
859.363	0.0177305
859.442	0.0178780
859.520	0.0178491
859.598	0.0178113
859.676	0.0178350
859.754	0.0177939
859.832	0.0177583
859.910	0.0178545
859.988	0.0178820
860.067	0.0177921
860.145	0.0177936
860.223	0.0178014
860.301	0.0176616
860.379	0.0176971
860.457	0.0176677
860.535	0.0176598
860.613	0.0174876
860.692	0.0176263
860.770	0.0176802
860.848	0.0176671
860.926	0.0175968
861.004	0.0176967
861.082	0.0177247
861.160	0.0176561
861.238	0.0177982
861.317	0.0177308
861.395	0.0177109
861.473	0.0178761
861.551	0.0179790
861.629	0.0178617
861.707	0.0178938
861.785	0.0179184
861.863	0.0179343
861.942	0.0179269
862.020	0.0178853
862.098	0.0178596
862.176	0.0177950
862.254	0.0178848
862.332	0.0179122
862.410	0.0178912
862.488	0.0178234
862.567	0.0178164
862.645	0.0178414
862.723	0.0178059
862.801	0.0178241
862.879	0.0180293
862.957	0.0178706
863.035	0.0178786
863.113	0.0179689
863.192	0.0180175
863.270	0.0179755
863.348	0.0179160
863.426	0.0178120
863.504	0.0180347
863.582	0.0180115
863.660	0.0179424
863.738	0.0179746
863.817	0.0178658
863.895	0.0179568
863.973	0.0178973
864.051	0.0178748
864.129	0.0178682
864.207	0.0179881
864.285	0.0179899
864.363	0.0177393
864.442	0.0177076
864.520	0.0178594
864.598	0.0178816
864.676	0.0176456
864.754	0.0175587
864.832	0.0177438
864.910	0.0176379
864.988	0.0176476
865.067	0.0176361
865.145	0.0176859
865.223	0.0176700
865.301	0.0175935
865.379	0.0177316
865.457	0.0177818
865.535	0.0176561
865.613	0.0177065
865.692	0.0177290
865.770	0.0176270
865.848	0.0177631
865.926	0.0176684
866.004	0.0178128
866.082	0.0177635
866.160	0.0177540
866.238	0.0178488
866.317	0.0178905
866.395	0.0177971
866.473	0.0178378
866.551	0.0178439
866.629	0.0177193
866.707	0.0178162
866.785	0.0177617
866.863	0.0178600
866.942	0.0178623
867.020	0.0177915
867.098	0.0177654
867.176	0.0177433
867.254	0.0176968
867.332	0.0177729
867.410	0.0178987
867.488	0.0178752
867.567	0.0178298
867.645	0.0178763
867.723	0.0179939
867.801	0.0179263
867.879	0.0177579
867.957	0.0179127
868.035	0.0177352
868.113	0.0176390
868.192	0.0177392
868.270	0.0177466
868.348	0.0177195
868.426	0.0175739
868.504	0.0177769
868.582	0.0177693
868.660	0.0177512
868.738	0.0176505
868.817	0.0176432
868.895	0.0177930
868.973	0.0177942
869.051	0.0178069
869.129	0.0178214
869.207	0.0178878
869.285	0.0179059
869.363	0.0178184
869.442	0.0177673
869.520	0.0178304
869.598	0.0180067
869.676	0.0177107
869.754	0.0177089
869.832	0.0176836
869.910	0.0178139
869.988	0.0177578
870.067	0.0177631
870.145	0.0178138
870.223	0.0177155
870.301	0.0177612
870.379	0.0177081
870.457	0.0177954
870.535	0.0178690
870.613	0.0177538
870.692	0.0178404
870.770	0.0179627
870.848	0.0178630
870.926	0.0177980
871.004	0.0178297
871.082	0.0178696
871.160	0.0177893
871.238	0.0177866
871.317	0.0177997
871.395	0.0179134
871.473	0.0179435
871.551	0.0177272
871.629	0.0178358
871.707	0.0177918
871.785	0.0179314
871.863	0.0178676
871.942	0.0178493
872.020	0.0178731
872.098	0.0177892
872.176	0.0177198
872.254	0.0176908
872.332	0.0179406
872.410	0.0178147
872.488	0.0177164
872.567	0.0176917
872.645	0.0175647
872.723	0.0175712
872.801	0.0178001
872.879	0.0176102
872.957	0.0176634
873.035	0.0178348
873.113	0.0176886
873.192	0.0176202
873.270	0.0177986
873.348	0.0179174
873.426	0.0177715
873.504	0.0179227
873.582	0.0179673
873.660	0.0179346
873.738	0.0179305
873.817	0.0180590
873.895	0.0180635
873.973	0.0179599
874.051	0.0180280
874.129	0.0180148
874.207	0.0177842
874.285	0.0179307
874.363	0.0180902
874.442	0.0178710
874.520	0.0179384
874.598	0.0179732
874.676	0.0177360
874.754	0.0177538
874.832	0.0176996
874.910	0.0178133
874.988	0.0179498
875.067	0.0179338
875.145	0.0178912
875.223	0.0178096
875.301	0.0179827
875.379	0.0178074
875.457	0.0177824
875.535	0.0177901
875.613	0.0178283
875.692	0.0177643
875.770	0.0177419
875.848	0.0178009
875.926	0.0176733
876.004	0.0176999
876.082	0.0175838
876.160	0.0177837
876.238	0.0178000
876.317	0.0176926
876.395	0.0176534
876.473	0.0177296
876.551	0.0177791
876.629	0.0178219
876.707	0.0176751
876.785	0.0178182
876.863	0.0178542
876.942	0.0177894
877.020	0.0177492
877.098	0.0177310
877.176	0.0177505
877.254	0.0177180
877.332	0.0178317
877.410	0.0178040
877.488	0.0177029
877.567	0.0177272
877.645	0.0176821
877.723	0.0179102
877.801	0.0179514
877.879	0.0177173
877.957	0.0176651
878.035	0.0175853
878.113	0.0177251
878.192	0.0179117
878.270	0.0177866
878.348	0.0177032
878.426	0.0179221
878.504	0.0177850
878.582	0.0178796
878.660	0.0178487
878.738	0.0176461
878.817	0.0179079
878.895	0.0176877
878.973	0.0176608
879.051	0.0176744
879.129	0.0177273
879.207	0.0176708
879.285	0.0177353
879.363	0.0176743
879.442	0.0176473
879.520	0.0176535
879.598	0.0178147
879.676	0.0178033
879.754	0.0178287
879.832	0.0176633
879.910	0.0177558
879.988	0.0179758
880.067	0.0177864
880.145	0.0178252
880.223	0.0178800
880.301	0.0177762
880.379	0.0177645
880.457	0.0175455
880.535	0.0177293
880.613	0.0176818
880.692	0.0176286
880.770	0.0175133
880.848	0.0177183
880.926	0.0178057
881.004	0.0177338
881.082	0.0175845
881.160	0.0176877
881.238	0.0177641
881.317	0.0177707
881.395	0.0176577
881.473	0.0177744
881.551	0.0176801
881.629	0.0178362
881.707	0.0179124
881.785	0.0178954
881.863	0.0179291
881.942	0.0179194
882.020	0.0180482
882.098	0.0179424
882.176	0.0180597
882.254	0.0179054
882.332	0.0179717
882.410	0.0179205
882.488	0.0178727
882.567	0.0177835
882.645	0.0176823
882.723	0.0177657
882.801	0.0176306
882.879	0.0177177
882.957	0.0177942
883.035	0.0177952
883.113	0.0177272
883.192	0.0177114
883.270	0.0179086
883.348	0.0181139
883.426	0.0180525
883.504	0.0182102
883.582	0.0182186
883.660	0.0183926
883.738	0.0183952
883.817	0.0183971
883.895	0.0181533
883.973	0.0181249
884.051	0.0179388
884.129	0.0176739
884.207	0.0175785
884.285	0.0173151
884.363	0.0171606
884.442	0.0169869
884.520	0.0168996
884.598	0.0170399
884.676	0.0170174
884.754	0.0169654
884.832	0.0170387
884.910	0.0172884
884.988	0.0175260
885.067	0.0177108
885.145	0.0178085
885.223	0.0181960
885.301	0.0182310
885.379	0.0183669
885.457	0.0184514
885.535	0.0185551
885.613	0.0185932
885.692	0.0185746
885.770	0.0184128
885.848	0.0182494
885.926	0.0180949
886.004	0.0177581
886.082	0.0176826
886.160	0.0173988
886.238	0.0171294
886.317	0.0168946
886.395	0.0167201
886.473	0.0166969
886.551	0.0166129
886.629	0.0167422
886.707	0.0167917
886.785	0.0168624
886.863	0.0170366
886.942	0.0172544
887.020	0.0175180
887.098	0.0178354
887.176	0.0180732
887.254	0.0183761
887.332	0.0185538
887.410	0.0186832
887.488	0.0187846
887.567	0.0188383
887.645	0.0189527
887.723	0.0189272
887.801	0.0188905
887.879	0.0186990
887.957	0.0186150
888.035	0.0184210
888.113	0.0183778
888.192	0.0181529
888.270	0.0179343
888.348	0.0177901
888.426	0.0177032
888.504	0.0174538
888.582	0.0174200
888.660	0.0173569
888.738	0.0174600
888.817	0.0173242
888.895	0.0173518
888.973	0.0172690
889.051	0.0174677
889.129	0.0176000
889.207	0.0174086
889.285	0.0175377
889.363	0.0176212
889.442	0.0176694
889.520	0.0176252
889.598	0.0177649
889.676	0.0178957
889.754	0.0177372
889.832	0.0177848
889.910	0.0177419
889.988	0.0177717
890.067	0.0177804
890.145	0.0177058
890.223	0.0176415
890.301	0.0176768
890.379	0.0177798
890.457	0.0178328
890.535	0.0177093
890.613	0.0176821
890.692	0.0177956
890.770	0.0176991
890.848	0.0177962
890.926	0.0177563
891.004	0.0178121
891.082	0.0178256
891.160	0.0179659
891.238	0.0179989
891.317	0.0179646
891.395	0.0180439
891.473	0.0179160
891.551	0.0178869
891.629	0.0181115
891.707	0.0179154
891.785	0.0178065
891.863	0.0177633
891.942	0.0175439
892.020	0.0175464
892.098	0.0174213
892.176	0.0173987
892.254	0.0173506
892.332	0.0172360
892.410	0.0172337
892.488	0.0171822
892.567	0.0171720
892.645	0.0170120
892.723	0.0171690
892.801	0.0171438
892.879	0.0172838
892.957	0.0173375
893.035	0.0173469
893.113	0.0176039
893.192	0.0176032
893.270	0.0175606
893.348	0.0178970
893.426	0.0178259
893.504	0.0178777
893.582	0.0180299
893.660	0.0179657
893.738	0.0179023
893.817	0.0179895
893.895	0.0180903
893.973	0.0181537
894.051	0.0181191
894.129	0.0182368
894.207	0.0180625
894.285	0.0181393
894.363	0.0181572
894.442	0.0180639
894.520	0.0182360
894.598	0.0182607
894.676	0.0182017
894.754	0.0181396
894.832	0.0181697
894.910	0.0180359
894.988	0.0181051
895.067	0.0179958
895.145	0.0180113
895.223	0.0180421
895.301	0.0180603
895.379	0.0178374
895.457	0.0177665
895.535	0.0175912
895.613	0.0176498
895.692	0.0175587
895.770	0.0175247
895.848	0.0174929
895.926	0.0175108
896.004	0.0174912
896.082	0.0175489
896.160	0.0174276
896.238	0.0175382
896.317	0.0175700
896.395	0.0176320
896.473	0.0176910
896.551	0.0176918
896.629	0.0176839
896.707	0.0177552
896.785	0.0179256
896.863	0.0178129
896.942	0.0178261
897.020	0.0179993
897.098	0.0179374
897.176	0.0178210
897.254	0.0178091
897.332	0.0178479
897.410	0.0178560
897.488	0.0177578
897.567	0.0176797
897.645	0.0176314
897.723	0.0177911
897.801	0.0176552
897.879	0.0175454
897.957	0.0174380
898.035	0.0175043
898.113	0.0174960
898.192	0.0175453
898.270	0.0175489
898.348	0.0176669
898.426	0.0176701
898.504	0.0177111
898.582	0.0177137
898.660	0.0176929
898.738	0.0176219
898.817	0.0178217
898.895	0.0178454
898.973	0.0178286
899.051	0.0180649
899.129	0.0177929
899.207	0.0178053
899.285	0.0179487
899.363	0.0179647
899.442	0.0178474
899.520	0.0179353
899.598	0.0179746
899.676	0.0178677
899.754	0.0177894
899.832	0.0179499
899.910	0.0179036
899.988	0.0178022
900.067	0.0178917
900.145	0.0178835
900.223	0.0176828
900.301	0.0177924
900.379	0.0178206
900.457	0.0177541
900.535	0.0177802
900.613	0.0177218
900.692	0.0178066
900.770	0.0178328
900.848	0.0178192
900.926	0.0176205
901.004	0.0177669
901.082	0.0176701
901.160	0.0177036
901.238	0.0177938
901.317	0.0177324
901.395	0.0176384
901.473	0.0176309
901.551	0.0177863
901.629	0.0177175
901.707	0.0178185
901.785	0.0177823
901.863	0.0178471
901.942	0.0178821
902.020	0.0177682
902.098	0.0178529
902.176	0.0178664
902.254	0.0179901
902.332	0.0179676
902.410	0.0179823
902.488	0.0178497
902.567	0.0179454
902.645	0.0180162
902.723	0.0179987
902.801	0.0177672
902.879	0.0177912
902.957	0.0177682
903.035	0.0176942
903.113	0.0176075
903.192	0.0176519
903.270	0.0175745
903.348	0.0175494
903.426	0.0175383
903.504	0.0174960
903.582	0.0175036
903.660	0.0174887
903.738	0.0175022
903.817	0.0177261
903.895	0.0175555
903.973	0.0177314
904.051	0.0176083
904.129	0.0177295
904.207	0.0178192
904.285	0.0178563
904.363	0.0178547
904.442	0.0179218
904.520	0.0178999
904.598	0.0177621
904.676	0.0177589
904.754	0.0178329
904.832	0.0177511
904.910	0.0175933
904.988	0.0177000
905.067	0.0176353
905.145	0.0176321
905.223	0.0175585
905.301	0.0177187
905.379	0.0175158
905.457	0.0176086
905.535	0.0175527
905.613	0.0174481
905.692	0.0177636
905.770	0.0177118
905.848	0.0177180
905.926	0.0176987
906.004	0.0178397
906.082	0.0178175
906.160	0.0178992
906.238	0.0178139
906.317	0.0179198
906.395	0.0180785
906.473	0.0180200
906.551	0.0180261
906.629	0.0180973
906.707	0.0180198
906.785	0.0181009
906.863	0.0179379
906.942	0.0179732
907.020	0.0178186
907.098	0.0178517
907.176	0.0178489
907.254	0.0177180
907.332	0.0177827
907.410	0.0177469
907.488	0.0180315
907.567	0.0178091
907.645	0.0177154
907.723	0.0178991
907.801	0.0177340
907.879	0.0177043
907.957	0.0179913
908.035	0.0177806
908.113	0.0176460
908.192	0.0177141
908.270	0.0176649
908.348	0.0175916
908.426	0.0176228
908.504	0.0176764
908.582	0.0176595
908.660	0.0175913
908.738	0.0176814
908.817	0.0175627
908.895	0.0175707
908.973	0.0176838
909.051	0.0174448
909.129	0.0176438
909.207	0.0175853
909.285	0.0178035
909.363	0.0176717
909.442	0.0177564
909.520	0.0178546
909.598	0.0178873
909.676	0.0177647
909.754	0.0178152
909.832	0.0178800
909.910	0.0179752
909.988	0.0181114
910.067	0.0180467
910.145	0.0181966
910.223	0.0180642
910.301	0.0180604
910.379	0.0181376
910.457	0.0181337
910.535	0.0180212
910.613	0.0180416
910.692	0.0180452
910.770	0.0180445
910.848	0.0178395
910.926	0.0178004
911.004	0.0178280
911.082	0.0178242
911.160	0.0177869
911.238	0.0178699
911.317	0.0176217
911.395	0.0175845
911.473	0.0176188
911.551	0.0176058
911.629	0.0175534
911.707	0.0175402
911.785	0.0174107
911.863	0.0175272
911.942	0.0176302
912.020	0.0177420
912.098	0.0177692
912.176	0.0176408
912.254	0.0177666
912.332	0.0177078
912.410	0.0178831
912.488	0.0178920
912.567	0.0179384
912.645	0.0179810
912.723	0.0178823
912.801	0.0179865
912.879	0.0178065
912.957	0.0178426
913.035	0.0178851
913.113	0.0178957
913.192	0.0178885
913.270	0.0179350
913.348	0.0178556
913.426	0.0178567
913.504	0.0178714
913.582	0.0177893
913.660	0.0177518
913.738	0.0177559
913.817	0.0177589
913.895	0.0177554
913.973	0.0177892
914.051	0.0177715
914.129	0.0178939
914.207	0.0178266
914.285	0.0177404
914.363	0.0178546
914.442	0.0178426
914.520	0.0178780
914.598	0.0178041
914.676	0.0177521
914.754	0.0180463
914.832	0.0179220
914.910	0.0179288
914.988	0.0179144
915.067	0.0178542
915.145	0.0179369
915.223	0.0178810
915.301	0.0179301
915.379	0.0177557
915.457	0.0176086
915.535	0.0177958
915.613	0.0175560
915.692	0.0174905
915.770	0.0175731
915.848	0.0176466
915.926	0.0176582
916.004	0.0175523
916.082	0.0174744
916.160	0.0176925
916.238	0.0176419
916.317	0.0175869
916.395	0.0177156
916.473	0.0177144
916.551	0.0177063
916.629	0.0177269
916.707	0.0177788
916.785	0.0178611
916.863	0.0178341
916.942	0.0179759
917.020	0.0179274
917.098	0.0179574
917.176	0.0179764
917.254	0.0178793
917.332	0.0179131
917.410	0.0179845
917.488	0.0179520
917.567	0.0178850
917.645	0.0177251
917.723	0.0178592
917.801	0.0178009
917.879	0.0176773
917.957	0.0176624
918.035	0.0177088
918.113	0.0176576
918.192	0.0177895
918.270	0.0176684
918.348	0.0176584
918.426	0.0175880
918.504	0.0176088
918.582	0.0178386
918.660	0.0176586
918.738	0.0177338
918.817	0.0177967
918.895	0.0177434
918.973	0.0178844
919.051	0.0178440
919.129	0.0178692
919.207	0.0180073
919.285	0.0178710
919.363	0.0179170
919.442	0.0179156
919.520	0.0178107
919.598	0.0177876
919.676	0.0178303
919.754	0.0177672
919.832	0.0176580
919.910	0.0176929
