06/01/2022	22:17:49	Ver.	4.1	UNKNOWN
Optical Delay	599.988409	Delta X		0.078125	Sweeps	1	Scan Rate	0/0
Coordinates	Axis 1	NaN	Axis 2	NaN	Axis 3	NaN	Axis 4	NaN	Axis 5	NaN	Axis 6	0.000000
TX Power	0.000000	RX Power	0.000000

599.988	0.0176358
600.067	0.0179793
600.145	0.0180116
600.223	0.0180090
600.301	0.0180650
600.379	0.0180145
600.457	0.0179653
600.535	0.0179793
600.613	0.0179774
600.692	0.0178956
600.770	0.0178973
600.848	0.0180433
600.926	0.0181246
601.004	0.0179530
601.082	0.0180588
601.160	0.0180781
601.238	0.0180035
601.317	0.0179269
601.395	0.0178223
601.473	0.0179181
601.551	0.0180595
601.629	0.0179030
601.707	0.0178106
601.785	0.0179190
601.863	0.0179260
601.942	0.0178740
602.020	0.0177782
602.098	0.0179241
602.176	0.0178888
602.254	0.0178933
602.332	0.0178100
602.410	0.0178423
602.488	0.0177630
602.567	0.0177895
602.645	0.0177010
602.723	0.0178534
602.801	0.0176310
602.879	0.0177494
602.957	0.0177429
603.035	0.0177042
603.113	0.0177061
603.192	0.0176681
603.270	0.0177053
603.348	0.0178030
603.426	0.0177054
603.504	0.0177860
603.582	0.0178967
603.660	0.0177193
603.738	0.0176974
603.817	0.0177213
603.895	0.0178210
603.973	0.0177882
604.051	0.0178646
604.129	0.0178623
604.207	0.0178506
604.285	0.0179028
604.363	0.0177798
604.442	0.0179391
604.520	0.0179412
604.598	0.0179019
604.676	0.0180105
604.754	0.0179324
604.832	0.0178461
604.910	0.0179597
604.988	0.0180142
605.067	0.0180956
605.145	0.0180786
605.223	0.0181424
605.301	0.0179996
605.379	0.0178919
605.457	0.0180393
605.535	0.0181599
605.613	0.0181523
605.692	0.0180025
605.770	0.0180658
605.848	0.0180796
605.926	0.0181828
606.004	0.0180958
606.082	0.0180039
606.160	0.0180980
606.238	0.0182345
606.317	0.0180832
606.395	0.0181419
606.473	0.0182135
606.551	0.0181013
606.629	0.0182632
606.707	0.0181690
606.785	0.0181804
606.863	0.0181110
606.942	0.0181377
607.020	0.0180454
607.098	0.0180315
607.176	0.0181214
607.254	0.0181316
607.332	0.0180802
607.410	0.0179841
607.488	0.0181657
607.567	0.0180833
607.645	0.0180968
607.723	0.0180128
607.801	0.0179805
607.879	0.0181016
607.957	0.0180586
608.035	0.0180914
608.113	0.0180416
608.192	0.0181313
608.270	0.0180344
608.348	0.0180031
608.426	0.0179358
608.504	0.0180520
608.582	0.0178851
608.660	0.0179408
608.738	0.0177589
608.817	0.0180502
608.895	0.0177449
608.973	0.0177636
609.051	0.0178571
609.129	0.0178123
609.207	0.0177097
609.285	0.0176844
609.363	0.0178952
609.442	0.0178779
609.520	0.0177926
609.598	0.0179006
609.676	0.0178671
609.754	0.0180191
609.832	0.0180283
609.910	0.0179467
609.988	0.0178991
610.067	0.0179245
610.145	0.0181003
610.223	0.0182211
610.301	0.0179738
610.379	0.0179874
610.457	0.0181212
610.535	0.0180509
610.613	0.0179980
610.692	0.0180249
610.770	0.0181483
610.848	0.0179691
610.926	0.0181059
611.004	0.0180528
611.082	0.0179906
611.160	0.0179878
611.238	0.0177885
611.317	0.0179465
611.395	0.0177957
611.473	0.0178976
611.551	0.0179101
611.629	0.0177391
611.707	0.0178091
611.785	0.0177454
611.863	0.0178040
611.942	0.0178696
612.020	0.0177848
612.098	0.0178168
612.176	0.0177245
612.254	0.0177712
612.332	0.0177707
612.410	0.0178018
612.488	0.0177888
612.567	0.0177602
612.645	0.0176793
612.723	0.0177832
612.801	0.0177876
612.879	0.0177034
612.957	0.0177483
613.035	0.0178207
613.113	0.0178809
613.192	0.0177786
613.270	0.0177608
613.348	0.0177879
613.426	0.0178777
613.504	0.0178558
613.582	0.0177629
613.660	0.0178246
613.738	0.0178292
613.817	0.0179324
613.895	0.0178952
613.973	0.0178535
614.051	0.0179928
614.129	0.0180307
614.207	0.0179790
614.285	0.0179071
614.363	0.0180100
614.442	0.0181380
614.520	0.0180790
614.598	0.0181380
614.676	0.0182275
614.754	0.0182143
614.832	0.0182025
614.910	0.0180070
614.988	0.0180777
615.067	0.0181986
615.145	0.0182255
615.223	0.0180382
615.301	0.0181404
615.379	0.0181920
615.457	0.0182559
615.535	0.0182931
615.613	0.0183067
615.692	0.0182880
615.770	0.0183585
615.848	0.0183038
615.926	0.0183033
616.004	0.0182745
616.082	0.0182894
616.160	0.0183968
616.238	0.0182086
616.317	0.0183102
616.395	0.0183252
616.473	0.0182595
616.551	0.0183076
616.629	0.0182866
616.707	0.0182441
616.785	0.0183498
616.863	0.0183800
616.942	0.0183260
617.020	0.0182634
617.098	0.0183528
617.176	0.0182520
617.254	0.0182814
617.332	0.0185041
617.410	0.0184184
617.488	0.0183067
617.567	0.0184380
617.645	0.0183012
617.723	0.0183115
617.801	0.0182690
617.879	0.0181931
617.957	0.0182970
618.035	0.0181982
618.113	0.0182322
618.192	0.0180914
618.270	0.0180989
618.348	0.0180569
618.426	0.0180890
618.504	0.0180281
618.582	0.0179248
618.660	0.0178909
618.738	0.0179022
618.817	0.0178374
618.895	0.0179061
618.973	0.0177031
619.051	0.0179968
619.129	0.0179386
619.207	0.0178796
619.285	0.0179317
619.363	0.0178377
619.442	0.0177124
619.520	0.0178764
619.598	0.0179250
619.676	0.0177457
619.754	0.0177980
619.832	0.0177623
619.910	0.0177857
619.988	0.0178258
620.067	0.0176502
620.145	0.0177610
620.223	0.0177383
620.301	0.0175742
620.379	0.0175814
620.457	0.0176006
620.535	0.0173736
620.613	0.0174604
620.692	0.0176224
620.770	0.0175956
620.848	0.0174620
620.926	0.0176118
621.004	0.0176271
621.082	0.0177128
621.160	0.0174876
621.238	0.0176425
621.317	0.0177782
621.395	0.0175587
621.473	0.0176894
621.551	0.0178146
621.629	0.0177951
621.707	0.0177203
621.785	0.0178731
621.863	0.0179002
621.942	0.0179173
622.020	0.0179465
622.098	0.0180551
622.176	0.0179532
622.254	0.0180167
622.332	0.0182534
622.410	0.0180882
622.488	0.0181451
622.567	0.0180881
622.645	0.0181470
622.723	0.0180611
622.801	0.0181061
622.879	0.0180449
622.957	0.0179896
623.035	0.0181127
623.113	0.0178532
623.192	0.0180330
623.270	0.0181475
623.348	0.0179869
623.426	0.0177939
623.504	0.0178774
623.582	0.0178747
623.660	0.0179802
623.738	0.0178590
623.817	0.0177943
623.895	0.0179248
623.973	0.0177909
624.051	0.0178143
624.129	0.0179720
624.207	0.0177996
624.285	0.0178034
624.363	0.0179993
624.442	0.0178684
624.520	0.0179647
624.598	0.0180328
624.676	0.0180807
624.754	0.0181585
624.832	0.0180964
624.910	0.0181358
624.988	0.0180620
625.067	0.0180672
625.145	0.0180862
625.223	0.0181009
625.301	0.0180209
625.379	0.0178710
625.457	0.0180933
625.535	0.0179224
625.613	0.0180708
625.692	0.0179189
625.770	0.0180338
625.848	0.0179768
625.926	0.0178857
626.004	0.0180666
626.082	0.0178904
626.160	0.0179510
626.238	0.0180152
626.317	0.0179750
626.395	0.0178408
626.473	0.0179041
626.551	0.0179655
626.629	0.0181483
626.707	0.0179591
626.785	0.0179585
626.863	0.0179860
626.942	0.0180473
627.020	0.0179739
627.098	0.0179419
627.176	0.0180159
627.254	0.0180089
627.332	0.0179987
627.410	0.0179995
627.488	0.0180839
627.567	0.0180113
627.645	0.0179343
627.723	0.0178669
627.801	0.0179881
627.879	0.0178893
627.957	0.0179890
628.035	0.0180336
628.113	0.0178493
628.192	0.0180199
628.270	0.0179566
628.348	0.0179220
628.426	0.0178824
628.504	0.0178175
628.582	0.0179545
628.660	0.0179524
628.738	0.0179744
628.817	0.0179600
628.895	0.0178850
628.973	0.0179817
629.051	0.0179326
629.129	0.0179392
629.207	0.0180200
629.285	0.0181287
629.363	0.0180547
629.442	0.0181152
629.520	0.0180382
629.598	0.0178378
629.676	0.0180164
629.754	0.0179918
629.832	0.0179974
629.910	0.0179906
629.988	0.0179394
630.067	0.0179806
630.145	0.0179499
630.223	0.0178093
630.301	0.0178628
630.379	0.0178696
630.457	0.0179191
630.535	0.0177444
630.613	0.0178514
630.692	0.0178620
630.770	0.0179282
630.848	0.0179308
630.926	0.0177870
631.004	0.0179145
631.082	0.0177656
631.160	0.0178428
631.238	0.0178263
631.317	0.0176543
631.395	0.0178100
631.473	0.0177074
631.551	0.0176919
631.629	0.0176572
631.707	0.0177264
631.785	0.0176106
631.863	0.0177176
631.942	0.0176751
632.020	0.0176421
632.098	0.0177483
632.176	0.0176992
632.254	0.0178010
632.332	0.0178778
632.410	0.0176377
632.488	0.0176691
632.567	0.0177437
632.645	0.0176770
632.723	0.0178227
632.801	0.0177397
632.879	0.0177982
632.957	0.0177727
633.035	0.0178757
633.113	0.0177756
633.192	0.0178376
633.270	0.0180017
633.348	0.0180571
633.426	0.0180108
633.504	0.0181674
633.582	0.0182501
633.660	0.0181170
633.738	0.0181406
633.817	0.0181505
633.895	0.0181356
633.973	0.0182356
634.051	0.0181828
634.129	0.0180395
634.207	0.0179720
634.285	0.0182433
634.363	0.0181478
634.442	0.0179984
634.520	0.0181698
634.598	0.0181976
634.676	0.0180679
634.754	0.0180922
634.832	0.0180976
634.910	0.0181075
634.988	0.0180880
635.067	0.0181401
635.145	0.0181641
635.223	0.0181256
635.301	0.0181580
635.379	0.0181750
635.457	0.0181660
635.535	0.0182331
635.613	0.0182290
635.692	0.0181248
635.770	0.0180396
635.848	0.0180935
635.926	0.0182046
636.004	0.0180845
636.082	0.0180651
636.160	0.0180663
636.238	0.0181242
636.317	0.0180142
636.395	0.0180762
636.473	0.0180862
636.551	0.0179964
636.629	0.0178194
636.707	0.0180454
636.785	0.0179852
636.863	0.0180801
636.942	0.0180020
637.020	0.0177991
637.098	0.0180081
637.176	0.0178461
637.254	0.0178752
637.332	0.0179816
637.410	0.0179207
637.488	0.0179155
637.567	0.0179567
637.645	0.0179199
637.723	0.0178801
637.801	0.0178815
637.879	0.0181876
637.957	0.0179163
638.035	0.0179765
638.113	0.0179144
638.192	0.0180238
638.270	0.0179639
638.348	0.0181387
638.426	0.0179985
638.504	0.0180579
638.582	0.0181665
638.660	0.0181707
638.738	0.0179968
638.817	0.0180203
638.895	0.0179986
638.973	0.0179465
639.051	0.0179495
639.129	0.0179584
639.207	0.0179333
639.285	0.0179274
639.363	0.0179833
639.442	0.0178922
639.520	0.0178114
639.598	0.0177460
639.676	0.0178825
639.754	0.0178037
639.832	0.0178214
639.910	0.0177682
639.988	0.0178596
640.067	0.0177829
640.145	0.0177192
640.223	0.0177962
640.301	0.0179552
640.379	0.0179330
640.457	0.0179435
640.535	0.0180507
640.613	0.0180320
640.692	0.0180379
640.770	0.0181154
640.848	0.0180277
640.926	0.0180133
641.004	0.0180471
641.082	0.0180505
641.160	0.0179735
641.238	0.0180842
641.317	0.0180659
641.395	0.0177535
641.473	0.0178903
641.551	0.0180018
641.629	0.0179495
641.707	0.0179900
641.785	0.0179382
641.863	0.0179520
641.942	0.0179031
642.020	0.0178446
642.098	0.0178730
642.176	0.0179378
642.254	0.0177768
642.332	0.0178792
642.410	0.0179844
642.488	0.0178822
642.567	0.0179068
642.645	0.0179613
642.723	0.0178830
642.801	0.0179321
642.879	0.0179118
642.957	0.0179688
643.035	0.0179881
643.113	0.0180188
643.192	0.0178266
643.270	0.0178411
643.348	0.0177753
643.426	0.0178319
643.504	0.0179308
643.582	0.0178255
643.660	0.0176485
643.738	0.0177478
643.817	0.0178202
643.895	0.0177850
643.973	0.0176769
644.051	0.0176801
644.129	0.0176995
644.207	0.0177696
644.285	0.0177107
644.363	0.0178066
644.442	0.0178295
644.520	0.0179112
644.598	0.0179511
644.676	0.0179725
644.754	0.0179597
644.832	0.0179625
644.910	0.0179846
644.988	0.0178333
645.067	0.0179949
645.145	0.0181000
645.223	0.0180967
645.301	0.0181516
645.379	0.0180056
645.457	0.0180239
645.535	0.0182153
645.613	0.0182030
645.692	0.0179976
645.770	0.0180502
645.848	0.0180988
645.926	0.0180995
646.004	0.0180103
646.082	0.0181365
646.160	0.0180039
646.238	0.0179484
646.317	0.0181306
646.395	0.0178873
646.473	0.0178822
646.551	0.0178778
646.629	0.0179504
646.707	0.0178413
646.785	0.0178207
646.863	0.0178241
646.942	0.0179839
647.020	0.0179794
647.098	0.0178203
647.176	0.0177348
647.254	0.0178368
647.332	0.0178803
647.410	0.0178049
647.488	0.0177982
647.567	0.0178544
647.645	0.0178152
647.723	0.0177731
647.801	0.0178754
647.879	0.0178165
647.957	0.0178029
648.035	0.0179044
648.113	0.0178571
648.192	0.0177763
648.270	0.0179041
648.348	0.0178186
648.426	0.0178269
648.504	0.0179987
648.582	0.0179256
648.660	0.0179934
648.738	0.0179179
648.817	0.0180037
648.895	0.0177562
648.973	0.0177998
649.051	0.0177999
649.129	0.0178588
649.207	0.0179402
649.285	0.0178069
649.363	0.0180266
649.442	0.0179168
649.520	0.0179958
649.598	0.0180042
649.676	0.0181215
649.754	0.0180402
649.832	0.0179510
649.910	0.0179235
649.988	0.0180791
650.067	0.0181211
650.145	0.0180771
650.223	0.0181327
650.301	0.0181833
650.379	0.0180958
650.457	0.0181816
650.535	0.0180988
650.613	0.0181495
650.692	0.0182369
650.770	0.0182406
650.848	0.0180531
650.926	0.0180959
651.004	0.0181618
651.082	0.0181575
651.160	0.0181578
651.238	0.0182665
651.317	0.0182663
651.395	0.0181107
651.473	0.0181090
651.551	0.0183211
651.629	0.0181072
651.707	0.0181053
651.785	0.0182318
651.863	0.0183267
651.942	0.0183237
652.020	0.0181886
652.098	0.0181136
652.176	0.0182455
652.254	0.0181967
652.332	0.0181950
652.410	0.0182911
652.488	0.0182581
652.567	0.0181405
652.645	0.0183199
652.723	0.0181396
652.801	0.0181579
652.879	0.0182174
652.957	0.0181518
653.035	0.0181157
653.113	0.0180774
653.192	0.0180511
653.270	0.0181628
653.348	0.0181682
653.426	0.0180541
653.504	0.0179417
653.582	0.0180091
653.660	0.0181534
653.738	0.0180833
653.817	0.0179401
653.895	0.0179939
653.973	0.0180151
654.051	0.0182428
654.129	0.0179864
654.207	0.0179700
654.285	0.0179906
654.363	0.0179494
654.442	0.0178637
654.520	0.0178403
654.598	0.0176981
654.676	0.0178258
654.754	0.0178648
654.832	0.0177474
654.910	0.0176137
654.988	0.0177107
655.067	0.0176429
655.145	0.0175711
655.223	0.0176964
655.301	0.0174969
655.379	0.0176737
655.457	0.0177316
655.535	0.0176636
655.613	0.0176154
655.692	0.0174946
655.770	0.0176385
655.848	0.0176534
655.926	0.0175146
656.004	0.0175504
656.082	0.0176287
656.160	0.0175927
656.238	0.0176155
656.317	0.0176716
656.395	0.0178126
656.473	0.0178146
656.551	0.0179127
656.629	0.0178224
656.707	0.0177681
656.785	0.0178377
656.863	0.0179890
656.942	0.0179690
657.020	0.0178309
657.098	0.0177885
657.176	0.0179736
657.254	0.0178224
657.332	0.0178626
657.410	0.0177695
657.488	0.0178327
657.567	0.0180086
657.645	0.0179903
657.723	0.0179742
657.801	0.0178275
657.879	0.0179529
657.957	0.0179610
658.035	0.0180257
658.113	0.0179629
658.192	0.0179730
658.270	0.0179871
658.348	0.0179031
658.426	0.0179244
658.504	0.0179810
658.582	0.0179839
658.660	0.0180399
658.738	0.0180328
658.817	0.0179471
658.895	0.0179084
658.973	0.0179079
659.051	0.0180479
659.129	0.0178889
659.207	0.0179881
659.285	0.0178796
659.363	0.0178771
659.442	0.0176666
659.520	0.0177384
659.598	0.0177403
659.676	0.0178585
659.754	0.0178139
659.832	0.0178063
659.910	0.0177059
659.988	0.0176978
660.067	0.0179307
660.145	0.0178132
660.223	0.0177303
660.301	0.0177991
660.379	0.0177277
660.457	0.0178149
660.535	0.0177541
660.613	0.0178746
660.692	0.0179191
660.770	0.0178594
660.848	0.0177476
660.926	0.0177579
661.004	0.0178677
661.082	0.0177957
661.160	0.0179262
661.238	0.0179502
661.317	0.0178223
661.395	0.0178452
661.473	0.0179159
661.551	0.0177356
661.629	0.0178426
661.707	0.0178961
661.785	0.0178487
661.863	0.0177998
661.942	0.0177645
662.020	0.0179517
662.098	0.0178552
662.176	0.0177985
662.254	0.0178027
662.332	0.0178744
662.410	0.0178720
662.488	0.0179068
662.567	0.0179369
662.645	0.0180204
662.723	0.0178698
662.801	0.0180370
662.879	0.0179826
662.957	0.0179165
663.035	0.0179223
663.113	0.0179897
663.192	0.0180625
663.270	0.0177857
663.348	0.0178727
663.426	0.0178929
663.504	0.0178211
663.582	0.0178428
663.660	0.0178000
663.738	0.0177129
663.817	0.0176971
663.895	0.0178230
663.973	0.0178116
664.051	0.0176671
664.129	0.0178651
664.207	0.0177498
664.285	0.0176154
664.363	0.0178202
664.442	0.0176779
664.520	0.0176260
664.598	0.0176599
664.676	0.0178040
664.754	0.0177017
664.832	0.0178109
664.910	0.0176480
664.988	0.0177527
665.067	0.0177760
665.145	0.0177404
665.223	0.0177843
665.301	0.0179319
665.379	0.0178997
665.457	0.0177726
665.535	0.0177381
665.613	0.0177467
665.692	0.0178275
665.770	0.0178717
665.848	0.0179102
665.926	0.0178558
666.004	0.0179164
666.082	0.0178820
666.160	0.0177905
666.238	0.0178967
666.317	0.0178651
666.395	0.0179066
666.473	0.0178387
666.551	0.0178107
666.629	0.0180196
666.707	0.0180395
666.785	0.0180514
666.863	0.0180548
666.942	0.0181261
667.020	0.0180511
667.098	0.0180503
667.176	0.0180016
667.254	0.0180193
667.332	0.0179785
667.410	0.0180495
667.488	0.0181273
667.567	0.0180257
667.645	0.0180386
667.723	0.0180180
667.801	0.0180604
667.879	0.0180576
667.957	0.0180302
668.035	0.0180991
668.113	0.0179243
668.192	0.0178905
668.270	0.0180985
668.348	0.0180318
668.426	0.0178890
668.504	0.0179951
668.582	0.0181640
668.660	0.0181234
668.738	0.0180708
668.817	0.0182554
668.895	0.0181739
668.973	0.0180580
669.051	0.0181458
669.129	0.0180070
669.207	0.0180275
669.285	0.0180643
669.363	0.0180541
669.442	0.0179644
669.520	0.0180993
669.598	0.0179323
669.676	0.0178906
669.754	0.0180360
669.832	0.0179157
669.910	0.0179381
669.988	0.0178273
670.067	0.0179254
670.145	0.0180139
670.223	0.0179044
670.301	0.0180035
670.379	0.0180170
670.457	0.0179363
670.535	0.0180177
670.613	0.0180382
670.692	0.0180729
670.770	0.0178329
670.848	0.0179177
670.926	0.0180544
671.004	0.0179321
671.082	0.0179228
671.160	0.0179452
671.238	0.0178788
671.317	0.0179588
671.395	0.0179503
671.473	0.0179618
671.551	0.0178297
671.629	0.0179115
671.707	0.0179707
671.785	0.0178191
671.863	0.0178436
671.942	0.0179459
672.020	0.0178497
672.098	0.0179506
672.176	0.0180076
672.254	0.0179147
672.332	0.0179328
672.410	0.0179221
672.488	0.0180399
672.567	0.0179156
672.645	0.0179070
672.723	0.0179469
672.801	0.0181088
672.879	0.0180281
672.957	0.0179845
673.035	0.0178955
673.113	0.0179887
673.192	0.0180135
673.270	0.0179423
673.348	0.0180231
673.426	0.0179603
673.504	0.0180030
673.582	0.0180480
673.660	0.0179269
673.738	0.0179473
673.817	0.0180439
673.895	0.0180062
673.973	0.0180733
674.051	0.0180911
674.129	0.0179870
674.207	0.0180790
674.285	0.0179728
674.363	0.0179307
674.442	0.0180802
674.520	0.0180366
674.598	0.0179334
674.676	0.0179446
674.754	0.0180492
674.832	0.0180695
674.910	0.0180962
674.988	0.0180963
675.067	0.0179351
675.145	0.0180193
675.223	0.0180856
675.301	0.0179939
675.379	0.0180117
675.457	0.0179595
675.535	0.0178355
675.613	0.0178568
675.692	0.0178171
675.770	0.0177645
675.848	0.0177255
675.926	0.0178557
676.004	0.0176554
676.082	0.0177540
676.160	0.0177956
676.238	0.0176392
676.317	0.0176432
676.395	0.0177673
676.473	0.0177593
676.551	0.0177733
676.629	0.0177939
676.707	0.0179414
676.785	0.0176872
676.863	0.0177332
676.942	0.0179208
677.020	0.0179655
677.098	0.0178489
677.176	0.0177800
677.254	0.0179424
677.332	0.0179365
677.410	0.0181238
677.488	0.0179332
677.567	0.0179678
677.645	0.0181520
677.723	0.0180732
677.801	0.0179250
677.879	0.0180068
677.957	0.0181142
678.035	0.0180903
678.113	0.0179990
678.192	0.0180726
678.270	0.0179679
678.348	0.0178198
678.426	0.0179806
678.504	0.0179472
678.582	0.0178290
678.660	0.0178342
678.738	0.0179111
678.817	0.0180751
678.895	0.0180508
678.973	0.0179790
679.051	0.0179687
679.129	0.0179884
679.207	0.0181016
679.285	0.0180838
679.363	0.0180252
679.442	0.0181796
679.520	0.0181827
679.598	0.0181152
679.676	0.0181219
679.754	0.0180608
679.832	0.0181937
679.910	0.0180463
679.988	0.0179686
680.067	0.0180746
680.145	0.0182475
680.223	0.0179443
680.301	0.0179811
680.379	0.0179568
680.457	0.0178815
680.535	0.0178312
680.613	0.0180218
680.692	0.0179050
680.770	0.0180000
680.848	0.0179602
680.926	0.0178716
681.004	0.0178998
681.082	0.0179704
681.160	0.0177921
681.238	0.0178994
681.317	0.0179211
681.395	0.0179268
681.473	0.0178560
681.551	0.0178716
681.629	0.0180223
681.707	0.0180556
681.785	0.0180101
681.863	0.0180661
681.942	0.0179323
682.020	0.0181483
682.098	0.0181303
682.176	0.0179897
682.254	0.0180683
682.332	0.0179877
682.410	0.0179917
682.488	0.0179012
682.567	0.0179253
682.645	0.0179381
682.723	0.0179074
682.801	0.0178751
682.879	0.0180077
682.957	0.0179614
683.035	0.0179279
683.113	0.0179276
683.192	0.0178830
683.270	0.0178666
683.348	0.0178442
683.426	0.0180349
683.504	0.0179948
683.582	0.0179147
683.660	0.0181781
683.738	0.0180480
683.817	0.0178857
683.895	0.0179617
683.973	0.0180744
684.051	0.0178665
684.129	0.0177601
684.207	0.0178659
684.285	0.0179643
684.363	0.0178188
684.442	0.0178474
684.520	0.0178344
684.598	0.0176265
684.676	0.0177840
684.754	0.0178751
684.832	0.0177695
684.910	0.0177199
684.988	0.0176816
685.067	0.0177364
685.145	0.0175843
685.223	0.0175241
685.301	0.0177831
685.379	0.0177422
685.457	0.0177329
685.535	0.0175484
685.613	0.0176698
685.692	0.0176665
685.770	0.0177342
685.848	0.0177289
685.926	0.0177615
686.004	0.0177361
686.082	0.0177580
686.160	0.0177853
686.238	0.0178646
686.317	0.0178395
686.395	0.0179549
686.473	0.0179209
686.551	0.0179440
686.629	0.0181095
686.707	0.0180270
686.785	0.0179708
686.863	0.0179916
686.942	0.0180939
687.020	0.0181286
687.098	0.0179757
687.176	0.0179795
687.254	0.0181586
687.332	0.0183305
687.410	0.0180764
687.488	0.0179713
687.567	0.0180544
687.645	0.0180817
687.723	0.0179523
687.801	0.0179768
687.879	0.0180647
687.957	0.0181635
688.035	0.0180804
688.113	0.0180369
688.192	0.0179828
688.270	0.0180324
688.348	0.0179676
688.426	0.0179552
688.504	0.0180716
688.582	0.0178144
688.660	0.0179784
688.738	0.0179078
688.817	0.0178794
688.895	0.0180008
688.973	0.0179527
689.051	0.0180775
689.129	0.0179106
689.207	0.0178909
689.285	0.0178317
689.363	0.0180729
689.442	0.0180280
689.520	0.0182066
689.598	0.0181145
689.676	0.0179671
689.754	0.0179724
689.832	0.0181679
689.910	0.0181331
689.988	0.0181951
690.067	0.0181075
690.145	0.0181776
690.223	0.0182307
690.301	0.0182849
690.379	0.0183583
690.457	0.0183492
690.535	0.0182903
690.613	0.0182764
690.692	0.0182529
690.770	0.0182457
690.848	0.0181757
690.926	0.0181895
691.004	0.0181376
691.082	0.0180892
691.160	0.0180064
691.238	0.0180680
691.317	0.0179321
691.395	0.0180392
691.473	0.0178799
691.551	0.0179522
691.629	0.0180793
691.707	0.0179908
691.785	0.0181464
691.863	0.0180222
691.942	0.0180456
692.020	0.0180521
692.098	0.0181759
692.176	0.0181023
692.254	0.0181006
692.332	0.0181849
692.410	0.0182228
692.488	0.0182898
692.567	0.0182262
692.645	0.0183484
692.723	0.0180996
692.801	0.0182628
692.879	0.0183105
692.957	0.0183749
693.035	0.0182013
693.113	0.0181416
693.192	0.0183089
693.270	0.0181705
693.348	0.0182241
693.426	0.0182236
693.504	0.0183244
693.582	0.0181952
693.660	0.0182736
693.738	0.0182071
693.817	0.0182497
693.895	0.0183871
693.973	0.0183685
694.051	0.0182608
694.129	0.0183137
694.207	0.0182576
694.285	0.0183370
694.363	0.0182148
694.442	0.0184001
694.520	0.0183916
694.598	0.0182590
694.676	0.0183864
694.754	0.0182207
694.832	0.0180621
694.910	0.0181624
694.988	0.0180459
695.067	0.0181811
695.145	0.0182018
695.223	0.0179378
695.301	0.0179506
695.379	0.0180782
695.457	0.0178716
695.535	0.0178899
695.613	0.0179051
695.692	0.0178772
695.770	0.0178479
695.848	0.0179535
695.926	0.0178546
696.004	0.0176656
696.082	0.0178428
696.160	0.0178519
696.238	0.0178678
696.317	0.0178297
696.395	0.0178229
696.473	0.0178487
696.551	0.0177852
696.629	0.0177742
696.707	0.0178737
696.785	0.0178804
696.863	0.0178792
696.942	0.0179540
697.020	0.0180041
697.098	0.0179325
697.176	0.0179223
697.254	0.0180445
697.332	0.0180946
697.410	0.0179460
697.488	0.0182610
697.567	0.0182803
697.645	0.0181926
697.723	0.0181815
697.801	0.0181456
697.879	0.0181733
697.957	0.0183927
698.035	0.0182497
698.113	0.0182264
698.192	0.0181912
698.270	0.0180995
698.348	0.0182816
698.426	0.0183392
698.504	0.0181763
698.582	0.0180504
698.660	0.0181197
698.738	0.0180109
698.817	0.0179919
698.895	0.0179454
698.973	0.0178415
699.051	0.0177878
699.129	0.0175747
699.207	0.0176804
699.285	0.0175726
699.363	0.0174242
699.442	0.0175589
699.520	0.0176379
699.598	0.0174392
699.676	0.0174039
699.754	0.0173299
699.832	0.0175054
699.910	0.0174415
699.988	0.0175509
700.067	0.0175680
700.145	0.0176103
700.223	0.0176508
700.301	0.0176248
700.379	0.0177848
700.457	0.0176805
700.535	0.0177692
700.613	0.0178170
700.692	0.0178338
700.770	0.0179471
700.848	0.0179829
700.926	0.0181155
701.004	0.0180218
701.082	0.0180456
701.160	0.0181112
701.238	0.0182503
701.317	0.0181374
701.395	0.0182728
701.473	0.0182269
701.551	0.0183598
701.629	0.0182789
701.707	0.0182853
701.785	0.0183120
701.863	0.0182003
701.942	0.0181995
702.020	0.0181135
702.098	0.0181260
702.176	0.0181062
702.254	0.0180063
702.332	0.0182374
702.410	0.0180158
702.488	0.0180496
702.567	0.0181027
702.645	0.0180792
702.723	0.0180904
702.801	0.0180874
702.879	0.0181749
702.957	0.0179572
703.035	0.0180103
703.113	0.0180556
703.192	0.0179303
703.270	0.0179670
703.348	0.0178675
703.426	0.0177860
703.504	0.0177486
703.582	0.0177744
703.660	0.0177424
703.738	0.0177051
703.817	0.0176849
703.895	0.0176889
703.973	0.0177017
704.051	0.0176955
704.129	0.0177747
704.207	0.0177567
704.285	0.0178574
704.363	0.0178363
704.442	0.0177831
704.520	0.0178411
704.598	0.0178568
704.676	0.0177947
704.754	0.0177296
704.832	0.0179787
704.910	0.0178898
704.988	0.0178901
705.067	0.0179472
705.145	0.0180370
705.223	0.0180347
705.301	0.0180154
705.379	0.0180769
705.457	0.0180250
705.535	0.0182086
705.613	0.0180616
705.692	0.0181071
705.770	0.0182355
705.848	0.0182369
705.926	0.0180648
706.004	0.0181448
706.082	0.0182697
706.160	0.0181548
706.238	0.0182024
706.317	0.0182755
706.395	0.0182670
706.473	0.0183311
706.551	0.0183312
706.629	0.0183853
706.707	0.0184410
706.785	0.0183943
706.863	0.0182182
706.942	0.0181532
707.020	0.0181573
707.098	0.0182086
707.176	0.0181950
707.254	0.0181103
707.332	0.0180103
707.410	0.0180871
707.488	0.0180807
707.567	0.0179002
707.645	0.0177845
707.723	0.0178518
707.801	0.0177505
707.879	0.0177957
707.957	0.0175982
708.035	0.0177389
708.113	0.0175971
708.192	0.0176809
708.270	0.0176243
708.348	0.0176452
708.426	0.0174747
708.504	0.0175704
708.582	0.0175343
708.660	0.0173431
708.738	0.0174770
708.817	0.0175871
708.895	0.0175848
708.973	0.0176605
709.051	0.0175388
709.129	0.0177859
709.207	0.0176920
709.285	0.0176968
709.363	0.0176761
709.442	0.0176773
709.520	0.0179002
709.598	0.0176785
709.676	0.0176315
709.754	0.0177801
709.832	0.0177897
709.910	0.0177866
709.988	0.0175362
710.067	0.0177021
710.145	0.0178285
710.223	0.0176719
710.301	0.0177893
710.379	0.0179076
710.457	0.0179385
710.535	0.0179073
710.613	0.0179984
710.692	0.0181165
710.770	0.0179857
710.848	0.0181429
710.926	0.0181501
711.004	0.0184055
711.082	0.0183680
711.160	0.0183851
711.238	0.0184961
711.317	0.0183984
711.395	0.0183378
711.473	0.0184705
711.551	0.0184491
711.629	0.0184823
711.707	0.0184802
711.785	0.0185619
711.863	0.0184356
711.942	0.0183011
712.020	0.0182961
712.098	0.0183284
712.176	0.0181808
712.254	0.0182605
712.332	0.0182074
712.410	0.0181693
712.488	0.0181273
712.567	0.0179017
712.645	0.0179768
712.723	0.0179610
712.801	0.0179453
712.879	0.0179073
712.957	0.0177689
713.035	0.0177707
713.113	0.0177721
713.192	0.0177390
713.270	0.0177373
713.348	0.0175514
713.426	0.0175793
713.504	0.0173785
713.582	0.0175555
713.660	0.0173611
713.738	0.0173612
713.817	0.0173045
713.895	0.0172740
713.973	0.0172170
714.051	0.0172878
714.129	0.0173788
714.207	0.0172311
714.285	0.0173582
714.363	0.0173839
714.442	0.0175549
714.520	0.0175021
714.598	0.0176331
714.676	0.0175507
714.754	0.0178413
714.832	0.0178408
714.910	0.0179751
714.988	0.0177485
715.067	0.0180145
715.145	0.0180778
715.223	0.0179099
715.301	0.0180920
715.379	0.0182157
715.457	0.0183355
715.535	0.0183788
715.613	0.0184472
715.692	0.0184083
715.770	0.0185299
715.848	0.0186955
715.926	0.0187006
716.004	0.0188500
716.082	0.0187826
716.160	0.0189346
716.238	0.0189465
716.317	0.0189838
716.395	0.0189725
716.473	0.0188691
716.551	0.0189663
716.629	0.0189228
716.707	0.0188168
716.785	0.0187685
716.863	0.0186604
716.942	0.0187649
717.020	0.0187139
717.098	0.0185142
717.176	0.0184010
717.254	0.0183829
717.332	0.0183582
717.410	0.0182589
717.488	0.0180435
717.567	0.0179755
717.645	0.0178079
717.723	0.0177630
717.801	0.0176269
717.879	0.0176899
717.957	0.0176447
718.035	0.0175761
718.113	0.0175123
718.192	0.0173392
718.270	0.0174467
718.348	0.0172775
718.426	0.0173325
718.504	0.0173553
718.582	0.0174373
718.660	0.0172291
718.738	0.0172920
718.817	0.0176360
718.895	0.0175220
718.973	0.0174411
719.051	0.0176381
719.129	0.0177451
719.207	0.0178034
719.285	0.0178196
719.363	0.0178891
719.442	0.0180140
719.520	0.0180857
719.598	0.0182117
719.676	0.0180724
719.754	0.0180828
719.832	0.0181953
719.910	0.0181512
719.988	0.0182723
720.067	0.0182555
720.145	0.0181263
720.223	0.0181345
720.301	0.0181556
720.379	0.0181747
720.457	0.0181210
720.535	0.0182132
720.613	0.0181556
720.692	0.0180374
720.770	0.0181483
720.848	0.0182819
720.926	0.0183770
721.004	0.0184177
721.082	0.0181676
721.160	0.0181233
721.238	0.0183766
721.317	0.0182714
721.395	0.0181723
721.473	0.0182624
721.551	0.0180730
721.629	0.0181226
721.707	0.0181553
721.785	0.0182217
721.863	0.0181742
721.942	0.0181410
722.020	0.0181612
722.098	0.0181810
722.176	0.0183578
722.254	0.0183005
722.332	0.0182677
722.410	0.0183176
722.488	0.0182808
722.567	0.0184103
722.645	0.0184375
722.723	0.0183137
722.801	0.0184238
722.879	0.0182213
722.957	0.0183481
723.035	0.0183605
723.113	0.0181435
723.192	0.0179504
723.270	0.0180701
723.348	0.0180102
723.426	0.0180254
723.504	0.0178287
723.582	0.0177773
723.660	0.0178321
723.738	0.0177524
723.817	0.0176467
723.895	0.0176954
723.973	0.0177203
724.051	0.0177592
724.129	0.0176555
724.207	0.0177064
724.285	0.0177755
724.363	0.0178548
724.442	0.0178624
724.520	0.0178329
724.598	0.0179369
724.676	0.0179273
724.754	0.0178841
724.832	0.0179189
724.910	0.0178527
724.988	0.0178368
725.067	0.0179095
725.145	0.0179440
725.223	0.0178983
725.301	0.0179124
725.379	0.0178941
725.457	0.0180058
725.535	0.0179910
725.613	0.0179163
725.692	0.0177896
725.770	0.0179416
725.848	0.0180257
725.926	0.0179266
726.004	0.0178321
726.082	0.0180083
726.160	0.0179488
726.238	0.0179507
726.317	0.0180341
726.395	0.0180489
726.473	0.0181078
726.551	0.0181196
726.629	0.0182072
726.707	0.0182547
726.785	0.0181422
726.863	0.0181411
726.942	0.0181696
727.020	0.0181972
727.098	0.0182430
727.176	0.0180843
727.254	0.0180196
727.332	0.0180586
727.410	0.0179927
727.488	0.0178777
727.567	0.0179260
727.645	0.0179534
727.723	0.0179432
727.801	0.0178236
727.879	0.0178921
727.957	0.0178378
728.035	0.0177120
728.113	0.0178556
728.192	0.0178522
728.270	0.0179037
728.348	0.0177879
728.426	0.0179390
728.504	0.0179350
728.582	0.0180987
728.660	0.0179486
728.738	0.0178291
728.817	0.0179903
728.895	0.0182178
728.973	0.0179807
729.051	0.0181479
729.129	0.0181952
729.207	0.0180412
729.285	0.0181495
729.363	0.0180578
729.442	0.0179353
729.520	0.0179095
729.598	0.0178767
729.676	0.0177782
729.754	0.0178818
729.832	0.0177930
729.910	0.0177952
729.988	0.0178127
730.067	0.0178264
730.145	0.0175864
730.223	0.0175240
730.301	0.0176529
730.379	0.0174538
730.457	0.0175694
730.535	0.0174070
730.613	0.0175047
730.692	0.0174974
730.770	0.0174149
730.848	0.0173879
730.926	0.0175406
731.004	0.0174380
731.082	0.0173852
731.160	0.0172990
731.238	0.0174934
731.317	0.0174986
731.395	0.0174167
731.473	0.0173545
731.551	0.0174042
731.629	0.0173007
731.707	0.0175842
731.785	0.0173537
731.863	0.0175596
731.942	0.0174027
732.020	0.0174982
732.098	0.0175614
732.176	0.0176975
732.254	0.0177061
732.332	0.0176971
732.410	0.0177946
732.488	0.0177144
732.567	0.0178670
732.645	0.0179925
732.723	0.0179172
732.801	0.0179938
732.879	0.0177893
732.957	0.0179574
733.035	0.0180215
733.113	0.0179997
733.192	0.0178820
733.270	0.0180754
733.348	0.0180373
733.426	0.0178872
733.504	0.0179752
733.582	0.0179919
733.660	0.0179213
733.738	0.0178081
733.817	0.0178577
733.895	0.0178117
733.973	0.0176137
734.051	0.0175682
734.129	0.0176706
734.207	0.0176168
734.285	0.0176171
734.363	0.0176875
734.442	0.0176286
734.520	0.0174863
734.598	0.0176467
734.676	0.0176353
734.754	0.0177117
734.832	0.0176572
734.910	0.0176534
734.988	0.0177004
735.067	0.0177287
735.145	0.0177338
735.223	0.0177566
735.301	0.0177262
735.379	0.0179562
735.457	0.0177884
735.535	0.0178581
735.613	0.0179187
735.692	0.0179128
735.770	0.0179939
735.848	0.0180209
735.926	0.0180099
736.004	0.0180797
736.082	0.0179464
736.160	0.0180662
736.238	0.0180070
736.317	0.0181596
736.395	0.0181459
736.473	0.0182633
736.551	0.0181394
736.629	0.0181226
736.707	0.0182314
736.785	0.0182079
736.863	0.0180846
736.942	0.0182043
737.020	0.0181758
737.098	0.0180515
737.176	0.0181776
737.254	0.0181467
737.332	0.0181559
737.410	0.0181967
737.488	0.0181276
737.567	0.0181002
737.645	0.0181620
737.723	0.0181198
737.801	0.0181892
737.879	0.0182888
737.957	0.0181663
738.035	0.0182695
738.113	0.0182436
738.192	0.0179050
738.270	0.0179502
738.348	0.0181751
738.426	0.0179807
738.504	0.0178931
738.582	0.0178218
738.660	0.0178809
738.738	0.0178291
738.817	0.0177746
738.895	0.0176193
738.973	0.0177148
739.051	0.0176259
739.129	0.0176725
739.207	0.0173985
739.285	0.0174787
739.363	0.0174804
739.442	0.0173485
739.520	0.0174073
739.598	0.0174796
739.676	0.0174755
739.754	0.0175551
739.832	0.0176691
739.910	0.0174327
739.988	0.0176410
740.067	0.0174992
740.145	0.0175202
740.223	0.0175331
740.301	0.0176234
740.379	0.0177456
740.457	0.0175748
740.535	0.0175787
740.613	0.0175859
740.692	0.0175681
740.770	0.0175873
740.848	0.0177130
740.926	0.0177301
741.004	0.0177923
741.082	0.0179651
741.160	0.0180309
741.238	0.0181599
741.317	0.0180319
741.395	0.0179306
741.473	0.0182259
741.551	0.0182025
741.629	0.0181785
741.707	0.0181202
741.785	0.0183296
741.863	0.0181509
741.942	0.0183556
742.020	0.0183691
742.098	0.0184711
742.176	0.0184578
742.254	0.0183520
742.332	0.0183687
742.410	0.0184331
742.488	0.0184315
742.567	0.0182970
742.645	0.0183520
742.723	0.0182961
742.801	0.0182891
742.879	0.0181930
742.957	0.0182740
743.035	0.0183370
743.113	0.0182291
743.192	0.0184261
743.270	0.0181983
743.348	0.0180979
743.426	0.0182601
743.504	0.0181578
743.582	0.0181194
743.660	0.0180975
743.738	0.0180877
743.817	0.0179837
743.895	0.0179074
743.973	0.0179407
744.051	0.0178260
744.129	0.0178914
744.207	0.0178496
744.285	0.0178075
744.363	0.0178250
744.442	0.0178407
744.520	0.0177037
744.598	0.0175946
744.676	0.0175774
744.754	0.0175857
744.832	0.0176205
744.910	0.0175932
744.988	0.0174766
745.067	0.0175909
745.145	0.0175163
745.223	0.0176332
745.301	0.0175759
745.379	0.0176675
745.457	0.0176515
745.535	0.0176582
745.613	0.0176925
745.692	0.0178017
745.770	0.0177825
745.848	0.0178273
745.926	0.0178048
746.004	0.0179030
746.082	0.0179276
746.160	0.0178824
746.238	0.0179877
746.317	0.0180859
746.395	0.0180449
746.473	0.0178113
746.551	0.0180364
746.629	0.0179917
746.707	0.0181072
746.785	0.0180601
746.863	0.0180453
746.942	0.0180486
747.020	0.0180046
747.098	0.0178814
747.176	0.0179288
747.254	0.0180341
747.332	0.0180184
747.410	0.0179797
747.488	0.0179128
747.567	0.0179953
747.645	0.0180540
747.723	0.0179296
747.801	0.0179698
747.879	0.0182597
747.957	0.0179698
748.035	0.0180014
748.113	0.0180518
748.192	0.0182380
748.270	0.0182735
748.348	0.0181890
748.426	0.0181792
748.504	0.0182640
748.582	0.0182852
748.660	0.0182352
748.738	0.0182995
748.817	0.0181280
748.895	0.0181262
748.973	0.0181428
749.051	0.0180668
749.129	0.0180565
749.207	0.0181482
749.285	0.0180014
749.363	0.0178483
749.442	0.0179308
749.520	0.0177663
749.598	0.0176685
749.676	0.0175713
749.754	0.0176392
749.832	0.0175863
749.910	0.0175413
749.988	0.0174690
750.067	0.0173122
750.145	0.0175372
750.223	0.0174271
750.301	0.0172570
750.379	0.0172550
750.457	0.0173253
750.535	0.0174490
750.613	0.0171842
750.692	0.0172401
750.770	0.0171553
750.848	0.0172657
750.926	0.0171512
751.004	0.0172426
751.082	0.0171655
751.160	0.0171164
751.238	0.0171008
751.317	0.0172463
751.395	0.0172382
751.473	0.0171173
751.551	0.0171614
751.629	0.0172479
751.707	0.0173746
751.785	0.0171854
751.863	0.0172993
751.942	0.0174982
752.020	0.0174841
752.098	0.0175761
752.176	0.0176886
752.254	0.0176924
752.332	0.0176718
752.410	0.0177597
752.488	0.0179946
752.567	0.0178864
752.645	0.0180370
752.723	0.0180486
752.801	0.0181273
752.879	0.0182436
752.957	0.0182150
753.035	0.0184210
753.113	0.0183833
753.192	0.0183157
753.270	0.0183133
753.348	0.0184834
753.426	0.0184190
753.504	0.0185078
753.582	0.0184265
753.660	0.0183578
753.738	0.0184025
753.817	0.0182729
753.895	0.0184107
753.973	0.0184227
754.051	0.0182034
754.129	0.0182632
754.207	0.0183965
754.285	0.0184813
754.363	0.0184091
754.442	0.0183624
754.520	0.0184605
754.598	0.0184916
754.676	0.0183371
754.754	0.0184464
754.832	0.0185486
754.910	0.0185266
754.988	0.0184932
755.067	0.0184600
755.145	0.0185445
755.223	0.0185551
755.301	0.0183595
755.379	0.0184202
755.457	0.0183572
755.535	0.0183195
755.613	0.0182444
755.692	0.0180715
755.770	0.0181165
755.848	0.0180914
755.926	0.0180138
756.004	0.0179354
756.082	0.0179745
756.160	0.0179614
756.238	0.0179489
756.317	0.0179369
756.395	0.0179687
756.473	0.0179752
756.551	0.0180393
756.629	0.0181352
756.707	0.0180702
756.785	0.0179304
756.863	0.0180357
756.942	0.0181157
757.020	0.0179759
757.098	0.0180251
757.176	0.0181871
757.254	0.0181821
757.332	0.0179382
757.410	0.0180441
757.488	0.0182252
757.567	0.0181265
757.645	0.0180540
757.723	0.0181168
757.801	0.0181284
757.879	0.0181503
757.957	0.0181790
758.035	0.0181260
758.113	0.0181229
758.192	0.0180231
758.270	0.0181041
758.348	0.0180556
758.426	0.0180760
758.504	0.0180298
758.582	0.0180740
758.660	0.0178715
758.738	0.0179156
758.817	0.0180013
758.895	0.0177895
758.973	0.0178365
759.051	0.0179046
759.129	0.0178008
759.207	0.0178117
759.285	0.0178906
759.363	0.0178593
759.442	0.0179519
759.520	0.0179591
759.598	0.0179215
759.676	0.0178604
759.754	0.0179180
759.832	0.0178983
759.910	0.0179784
759.988	0.0180003
760.067	0.0180142
760.145	0.0179460
760.223	0.0178918
760.301	0.0179098
760.379	0.0177618
760.457	0.0179365
760.535	0.0178410
760.613	0.0177041
760.692	0.0177275
760.770	0.0177383
760.848	0.0177603
760.926	0.0176231
761.004	0.0176681
761.082	0.0178007
761.160	0.0176794
761.238	0.0178488
761.317	0.0177834
761.395	0.0176498
761.473	0.0175611
761.551	0.0176064
761.629	0.0175459
761.707	0.0174999
761.785	0.0174533
761.863	0.0175258
761.942	0.0175623
762.020	0.0173431
762.098	0.0175940
762.176	0.0175404
762.254	0.0176335
762.332	0.0175809
762.410	0.0175787
762.488	0.0177853
762.567	0.0178299
762.645	0.0177730
762.723	0.0178580
762.801	0.0179221
762.879	0.0179502
762.957	0.0179491
763.035	0.0179140
763.113	0.0179770
763.192	0.0180202
763.270	0.0179591
763.348	0.0180573
763.426	0.0179166
763.504	0.0181272
763.582	0.0180130
763.660	0.0179463
763.738	0.0180570
763.817	0.0179487
763.895	0.0179787
763.973	0.0182217
764.051	0.0179285
764.129	0.0181628
764.207	0.0181665
764.285	0.0181864
764.363	0.0183851
764.442	0.0182358
764.520	0.0183704
764.598	0.0184171
764.676	0.0182343
764.754	0.0182272
764.832	0.0182806
764.910	0.0182806
764.988	0.0182121
765.067	0.0180346
765.145	0.0181646
765.223	0.0179022
765.301	0.0179766
765.379	0.0179316
765.457	0.0177747
765.535	0.0179021
765.613	0.0178638
765.692	0.0177499
765.770	0.0177618
765.848	0.0177968
765.926	0.0176328
766.004	0.0175687
766.082	0.0176025
766.160	0.0177518
766.238	0.0177544
766.317	0.0176713
766.395	0.0175710
766.473	0.0177740
766.551	0.0178254
766.629	0.0177728
766.707	0.0177470
766.785	0.0177405
766.863	0.0177908
766.942	0.0178513
767.020	0.0178394
767.098	0.0180592
767.176	0.0177390
767.254	0.0178773
767.332	0.0178754
767.410	0.0177988
767.488	0.0178817
767.567	0.0178719
767.645	0.0178671
767.723	0.0180200
767.801	0.0179598
767.879	0.0178512
767.957	0.0179636
768.035	0.0179892
768.113	0.0179927
768.192	0.0179631
768.270	0.0181161
768.348	0.0182092
768.426	0.0180652
768.504	0.0181699
768.582	0.0180710
768.660	0.0179907
768.738	0.0181181
768.817	0.0182554
768.895	0.0181346
768.973	0.0181300
769.051	0.0181187
769.129	0.0180842
769.207	0.0181149
769.285	0.0181058
769.363	0.0181848
769.442	0.0182788
769.520	0.0182258
769.598	0.0182070
769.676	0.0181405
769.754	0.0181324
769.832	0.0181509
769.910	0.0181856
769.988	0.0182677
770.067	0.0182047
770.145	0.0180986
770.223	0.0181165
770.301	0.0183199
770.379	0.0182878
770.457	0.0182107
770.535	0.0179745
770.613	0.0180862
770.692	0.0180827
770.770	0.0178551
770.848	0.0179245
770.926	0.0178803
771.004	0.0177367
771.082	0.0178478
771.160	0.0178240
771.238	0.0178045
771.317	0.0178253
771.395	0.0175932
771.473	0.0178374
771.551	0.0177061
771.629	0.0176379
771.707	0.0176190
771.785	0.0176472
771.863	0.0176369
771.942	0.0175764
772.020	0.0175633
772.098	0.0175152
772.176	0.0175511
772.254	0.0175345
772.332	0.0175072
772.410	0.0175491
772.488	0.0175217
772.567	0.0175602
772.645	0.0173878
772.723	0.0175134
772.801	0.0173367
772.879	0.0174615
772.957	0.0174390
773.035	0.0173920
773.113	0.0175684
773.192	0.0175549
773.270	0.0173305
773.348	0.0174487
773.426	0.0174788
773.504	0.0175464
773.582	0.0175256
773.660	0.0175972
773.738	0.0176694
773.817	0.0177809
773.895	0.0176472
773.973	0.0177818
774.051	0.0177876
774.129	0.0179361
774.207	0.0178650
774.285	0.0179490
774.363	0.0178994
774.442	0.0180572
774.520	0.0179278
774.598	0.0179679
774.676	0.0181948
774.754	0.0180293
774.832	0.0182200
774.910	0.0181037
774.988	0.0182319
775.067	0.0182143
775.145	0.0183094
775.223	0.0181495
775.301	0.0182225
775.379	0.0181089
775.457	0.0181854
775.535	0.0182291
775.613	0.0182219
775.692	0.0182343
775.770	0.0183508
775.848	0.0182343
775.926	0.0181981
776.004	0.0182813
776.082	0.0181448
776.160	0.0181600
776.238	0.0182036
776.317	0.0182501
776.395	0.0181718
776.473	0.0183279
776.551	0.0183382
776.629	0.0182853
776.707	0.0182362
776.785	0.0181276
776.863	0.0183276
776.942	0.0183171
777.020	0.0182314
777.098	0.0181698
777.176	0.0180701
777.254	0.0180991
777.332	0.0181873
777.410	0.0180923
777.488	0.0181677
777.567	0.0181004
777.645	0.0179393
777.723	0.0181961
777.801	0.0181992
777.879	0.0182571
777.957	0.0182006
778.035	0.0182366
778.113	0.0182395
778.192	0.0181430
778.270	0.0181760
778.348	0.0182134
778.426	0.0181659
778.504	0.0179276
778.582	0.0179189
778.660	0.0181689
778.738	0.0178863
778.817	0.0178932
778.895	0.0178061
778.973	0.0178211
779.051	0.0178725
779.129	0.0178061
779.207	0.0178588
779.285	0.0176207
779.363	0.0178370
779.442	0.0178025
779.520	0.0178976
779.598	0.0178911
779.676	0.0178842
779.754	0.0177809
779.832	0.0177888
779.910	0.0179502
779.988	0.0180227
780.067	0.0179425
780.145	0.0178874
780.223	0.0178213
780.301	0.0179580
780.379	0.0179290
780.457	0.0179358
780.535	0.0179039
780.613	0.0180260
780.692	0.0180402
780.770	0.0178653
780.848	0.0180094
780.926	0.0178886
781.004	0.0178994
781.082	0.0179457
781.160	0.0178699
781.238	0.0179712
781.317	0.0179427
781.395	0.0182341
781.473	0.0182326
781.551	0.0181192
781.629	0.0181239
781.707	0.0181389
781.785	0.0181030
781.863	0.0180494
781.942	0.0182293
782.020	0.0183201
782.098	0.0182185
782.176	0.0181719
782.254	0.0181854
782.332	0.0182448
782.410	0.0182983
782.488	0.0181579
782.567	0.0183210
782.645	0.0182291
782.723	0.0182558
782.801	0.0182033
782.879	0.0180904
782.957	0.0181393
783.035	0.0182105
783.113	0.0181772
783.192	0.0180876
783.270	0.0180618
783.348	0.0180045
783.426	0.0181398
783.504	0.0181915
783.582	0.0180576
783.660	0.0181071
783.738	0.0181194
783.817	0.0181470
783.895	0.0179724
783.973	0.0181121
784.051	0.0182356
784.129	0.0182297
784.207	0.0180183
784.285	0.0180247
784.363	0.0180919
784.442	0.0182184
784.520	0.0182286
784.598	0.0181193
784.676	0.0181976
784.754	0.0181712
784.832	0.0180570
784.910	0.0181027
784.988	0.0181145
785.067	0.0181597
785.145	0.0182085
785.223	0.0182182
785.301	0.0180495
785.379	0.0180697
785.457	0.0182370
785.535	0.0182355
785.613	0.0183227
785.692	0.0182863
785.770	0.0182869
785.848	0.0182926
785.926	0.0183499
786.004	0.0181635
786.082	0.0182653
786.160	0.0182632
786.238	0.0183365
786.317	0.0182138
786.395	0.0182668
786.473	0.0182654
786.551	0.0180585
786.629	0.0181080
786.707	0.0181325
786.785	0.0180714
786.863	0.0180236
786.942	0.0178773
787.020	0.0179900
787.098	0.0179912
787.176	0.0179890
787.254	0.0179064
787.332	0.0178918
787.410	0.0178496
787.488	0.0178879
787.567	0.0177600
787.645	0.0177066
787.723	0.0176954
787.801	0.0176670
787.879	0.0176944
787.957	0.0178344
788.035	0.0177921
788.113	0.0177700
788.192	0.0176436
788.270	0.0176271
788.348	0.0176289
788.426	0.0176544
788.504	0.0177507
788.582	0.0178173
788.660	0.0177757
788.738	0.0177264
788.817	0.0176260
788.895	0.0177111
788.973	0.0177091
789.051	0.0176763
789.129	0.0177289
789.207	0.0176045
789.285	0.0177040
789.363	0.0176864
789.442	0.0176938
789.520	0.0174915
789.598	0.0175964
789.676	0.0175484
789.754	0.0175284
789.832	0.0176028
789.910	0.0175157
789.988	0.0174941
790.067	0.0176610
790.145	0.0174754
790.223	0.0174216
790.301	0.0176494
790.379	0.0174809
790.457	0.0173752
790.535	0.0174568
790.613	0.0174306
790.692	0.0176022
790.770	0.0174986
790.848	0.0175574
790.926	0.0176547
791.004	0.0176175
791.082	0.0177356
791.160	0.0175972
791.238	0.0176611
791.317	0.0177703
791.395	0.0177454
791.473	0.0177487
791.551	0.0178672
791.629	0.0179044
791.707	0.0179310
791.785	0.0180049
791.863	0.0181216
791.942	0.0180573
792.020	0.0181478
792.098	0.0181607
792.176	0.0181844
792.254	0.0182766
792.332	0.0180940
792.410	0.0181483
792.488	0.0181247
792.567	0.0181657
792.645	0.0180689
792.723	0.0180345
792.801	0.0182372
792.879	0.0182443
792.957	0.0183048
793.035	0.0182478
793.113	0.0182463
793.192	0.0182920
793.270	0.0182003
793.348	0.0181114
793.426	0.0183088
793.504	0.0182626
793.582	0.0181905
793.660	0.0181248
793.738	0.0182648
793.817	0.0181711
793.895	0.0181772
793.973	0.0183413
794.051	0.0181266
794.129	0.0182336
794.207	0.0182349
794.285	0.0182410
794.363	0.0181937
794.442	0.0182881
794.520	0.0181184
794.598	0.0182275
794.676	0.0182967
794.754	0.0182475
794.832	0.0182274
794.910	0.0183694
794.988	0.0182098
795.067	0.0182728
795.145	0.0183676
795.223	0.0183858
795.301	0.0183056
795.379	0.0182072
795.457	0.0182716
795.535	0.0183614
795.613	0.0182704
795.692	0.0182281
795.770	0.0183603
795.848	0.0184247
795.926	0.0182564
796.004	0.0181622
796.082	0.0181792
796.160	0.0181681
796.238	0.0182130
796.317	0.0181533
796.395	0.0182271
796.473	0.0181887
796.551	0.0181741
796.629	0.0181520
796.707	0.0182025
796.785	0.0181590
796.863	0.0180363
796.942	0.0181066
797.020	0.0181908
797.098	0.0181319
797.176	0.0181525
797.254	0.0181608
797.332	0.0181897
797.410	0.0180499
797.488	0.0180009
797.567	0.0179123
797.645	0.0180300
797.723	0.0180581
797.801	0.0181526
797.879	0.0179202
797.957	0.0180156
798.035	0.0179572
798.113	0.0178210
798.192	0.0179135
798.270	0.0179374
798.348	0.0179375
798.426	0.0177102
798.504	0.0178618
798.582	0.0177766
798.660	0.0178592
798.738	0.0179491
798.817	0.0178474
798.895	0.0178869
798.973	0.0179538
799.051	0.0178176
799.129	0.0178466
799.207	0.0176692
799.285	0.0177013
799.363	0.0178652
799.442	0.0178588
799.520	0.0179263
799.598	0.0178421
799.676	0.0179274
799.754	0.0180199
799.832	0.0179395
799.910	0.0180124
799.988	0.0177721
800.067	0.0179473
800.145	0.0179295
800.223	0.0179184
800.301	0.0178477
800.379	0.0180519
800.457	0.0179652
800.535	0.0180485
800.613	0.0179012
800.692	0.0178582
800.770	0.0178571
800.848	0.0178869
800.926	0.0178457
801.004	0.0179016
801.082	0.0178848
801.160	0.0179124
801.238	0.0177956
801.317	0.0178700
801.395	0.0178691
801.473	0.0178453
801.551	0.0177947
801.629	0.0179753
801.707	0.0180083
801.785	0.0177345
801.863	0.0178437
801.942	0.0177233
802.020	0.0177081
802.098	0.0177654
802.176	0.0177837
802.254	0.0178571
802.332	0.0177779
802.410	0.0177645
802.488	0.0177934
802.567	0.0177988
802.645	0.0178477
802.723	0.0177893
802.801	0.0179044
802.879	0.0179479
802.957	0.0179902
803.035	0.0181384
803.113	0.0179865
803.192	0.0180465
803.270	0.0180312
803.348	0.0181686
803.426	0.0182462
803.504	0.0181638
803.582	0.0182387
803.660	0.0180840
803.738	0.0182590
803.817	0.0183512
803.895	0.0182312
803.973	0.0181728
804.051	0.0182362
804.129	0.0181610
804.207	0.0182181
804.285	0.0182427
804.363	0.0181307
804.442	0.0182233
804.520	0.0181683
804.598	0.0181811
804.676	0.0183361
804.754	0.0182388
804.832	0.0182053
804.910	0.0181823
804.988	0.0182043
805.067	0.0180019
805.145	0.0180495
805.223	0.0180954
805.301	0.0180032
805.379	0.0179762
805.457	0.0180365
805.535	0.0179444
805.613	0.0180887
805.692	0.0180625
805.770	0.0180260
805.848	0.0180290
805.926	0.0180031
806.004	0.0178923
806.082	0.0180061
806.160	0.0181024
806.238	0.0180197
806.317	0.0180667
806.395	0.0179424
806.473	0.0180035
806.551	0.0180504
806.629	0.0178897
806.707	0.0179771
806.785	0.0180697
806.863	0.0180279
806.942	0.0180814
807.020	0.0182999
807.098	0.0182052
807.176	0.0181525
807.254	0.0181847
807.332	0.0181718
807.410	0.0182334
807.488	0.0181442
807.567	0.0182998
807.645	0.0182027
807.723	0.0181480
807.801	0.0181584
807.879	0.0182535
807.957	0.0181394
808.035	0.0182681
808.113	0.0182303
808.192	0.0181728
808.270	0.0180910
808.348	0.0181653
808.426	0.0182448
808.504	0.0181932
808.582	0.0182613
808.660	0.0184116
808.738	0.0183472
808.817	0.0181977
808.895	0.0182924
808.973	0.0182583
809.051	0.0182230
809.129	0.0183277
809.207	0.0180833
809.285	0.0180630
809.363	0.0180208
809.442	0.0180984
809.520	0.0179906
809.598	0.0179687
809.676	0.0179575
809.754	0.0179504
809.832	0.0178960
809.910	0.0176582
809.988	0.0178062
810.067	0.0177198
810.145	0.0178190
810.223	0.0176427
810.301	0.0175639
810.379	0.0175706
810.457	0.0175278
810.535	0.0176530
810.613	0.0176360
810.692	0.0177707
810.770	0.0175346
810.848	0.0174715
810.926	0.0176305
811.004	0.0175813
811.082	0.0176411
811.160	0.0176250
811.238	0.0175717
811.317	0.0176748
811.395	0.0177515
811.473	0.0177586
811.551	0.0177411
811.629	0.0177682
811.707	0.0176559
811.785	0.0176736
811.863	0.0177331
811.942	0.0177462
812.020	0.0177088
812.098	0.0178142
812.176	0.0179507
812.254	0.0178481
812.332	0.0178178
812.410	0.0180291
812.488	0.0178461
812.567	0.0178535
812.645	0.0179052
812.723	0.0179044
812.801	0.0179079
812.879	0.0179588
812.957	0.0178980
813.035	0.0178848
813.113	0.0177541
813.192	0.0177766
813.270	0.0177686
813.348	0.0177405
813.426	0.0177352
813.504	0.0177758
813.582	0.0177552
813.660	0.0176710
813.738	0.0176343
813.817	0.0176933
813.895	0.0177361
813.973	0.0177470
814.051	0.0176174
814.129	0.0175710
814.207	0.0175990
814.285	0.0175231
814.363	0.0175378
814.442	0.0176598
814.520	0.0175497
814.598	0.0175157
814.676	0.0176862
814.754	0.0176131
814.832	0.0176349
814.910	0.0176559
814.988	0.0177718
815.067	0.0177786
815.145	0.0178695
815.223	0.0178867
815.301	0.0180006
815.379	0.0180305
815.457	0.0181590
815.535	0.0181870
815.613	0.0181840
815.692	0.0182545
815.770	0.0182592
815.848	0.0182957
815.926	0.0182722
816.004	0.0184863
816.082	0.0184051
816.160	0.0182682
816.238	0.0183010
816.317	0.0183479
816.395	0.0183891
816.473	0.0184568
816.551	0.0183293
816.629	0.0184096
816.707	0.0185300
816.785	0.0183591
816.863	0.0182323
816.942	0.0184753
817.020	0.0184312
817.098	0.0182541
817.176	0.0184447
817.254	0.0186062
817.332	0.0184968
817.410	0.0185526
817.488	0.0184959
817.567	0.0185281
817.645	0.0184303
817.723	0.0185606
817.801	0.0184711
817.879	0.0184300
817.957	0.0183752
818.035	0.0182587
818.113	0.0183803
818.192	0.0183395
818.270	0.0181593
818.348	0.0183719
818.426	0.0182002
818.504	0.0180208
818.582	0.0180707
818.660	0.0180337
818.738	0.0179965
818.817	0.0180985
818.895	0.0180367
818.973	0.0180182
819.051	0.0179459
819.129	0.0178458
819.207	0.0179792
819.285	0.0179817
819.363	0.0181140
819.442	0.0179443
819.520	0.0179829
819.598	0.0180321
819.676	0.0180324
819.754	0.0179353
819.832	0.0181071
819.910	0.0179462
819.988	0.0181319
820.067	0.0179915
820.145	0.0180513
820.223	0.0178358
820.301	0.0179322
820.379	0.0180944
820.457	0.0180682
820.535	0.0179239
820.613	0.0179922
820.692	0.0179418
820.770	0.0181386
820.848	0.0179278
820.926	0.0181264
821.004	0.0179900
821.082	0.0179276
821.160	0.0178204
821.238	0.0179627
821.317	0.0180676
821.395	0.0179734
821.473	0.0179053
821.551	0.0179394
821.629	0.0178773
821.707	0.0178676
821.785	0.0179588
821.863	0.0179077
821.942	0.0178059
822.020	0.0178558
822.098	0.0178050
822.176	0.0177956
822.254	0.0178020
822.332	0.0176382
822.410	0.0177430
822.488	0.0178014
822.567	0.0178863
822.645	0.0178630
822.723	0.0178493
822.801	0.0178503
822.879	0.0178778
822.957	0.0178015
823.035	0.0178066
823.113	0.0177053
823.192	0.0177172
823.270	0.0177227
823.348	0.0176858
823.426	0.0179098
823.504	0.0177510
823.582	0.0177486
823.660	0.0178434
823.738	0.0177290
823.817	0.0179348
823.895	0.0179075
823.973	0.0179073
824.051	0.0179106
824.129	0.0177432
824.207	0.0179036
824.285	0.0179810
824.363	0.0177844
824.442	0.0181324
824.520	0.0180714
824.598	0.0179317
824.676	0.0179649
824.754	0.0180056
824.832	0.0179223
824.910	0.0177903
824.988	0.0178349
825.067	0.0179586
825.145	0.0178374
825.223	0.0177533
825.301	0.0178814
825.379	0.0177935
825.457	0.0176729
825.535	0.0178563
825.613	0.0178811
825.692	0.0178645
825.770	0.0178328
825.848	0.0178317
825.926	0.0178755
826.004	0.0177575
826.082	0.0178154
826.160	0.0179396
826.238	0.0177349
826.317	0.0177703
826.395	0.0178387
826.473	0.0177555
826.551	0.0177486
826.629	0.0176868
826.707	0.0176397
826.785	0.0176579
826.863	0.0176157
826.942	0.0175941
827.020	0.0175928
827.098	0.0176146
827.176	0.0175967
827.254	0.0175620
827.332	0.0175587
827.410	0.0175533
827.488	0.0175876
827.567	0.0175713
827.645	0.0175566
827.723	0.0176462
827.801	0.0175586
827.879	0.0176357
827.957	0.0177480
828.035	0.0178822
828.113	0.0177724
828.192	0.0177604
828.270	0.0176784
828.348	0.0178056
828.426	0.0178578
828.504	0.0177905
828.582	0.0178867
828.660	0.0177456
828.738	0.0178110
828.817	0.0179730
828.895	0.0179913
828.973	0.0180038
829.051	0.0180354
829.129	0.0180257
829.207	0.0179867
829.285	0.0181580
829.363	0.0181732
829.442	0.0182058
829.520	0.0181691
829.598	0.0182259
829.676	0.0182226
829.754	0.0181333
829.832	0.0182446
829.910	0.0182106
829.988	0.0182384
830.067	0.0182027
830.145	0.0182290
830.223	0.0183530
830.301	0.0183031
830.379	0.0182856
830.457	0.0184793
830.535	0.0184190
830.613	0.0184877
830.692	0.0183421
830.770	0.0184241
830.848	0.0182320
830.926	0.0182449
831.004	0.0183865
831.082	0.0183438
831.160	0.0182645
831.238	0.0183558
831.317	0.0181510
831.395	0.0182395
831.473	0.0182458
831.551	0.0182112
831.629	0.0182857
831.707	0.0182099
831.785	0.0182063
831.863	0.0183463
831.942	0.0181295
832.020	0.0181835
832.098	0.0182162
832.176	0.0182387
832.254	0.0181957
832.332	0.0181366
832.410	0.0181642
832.488	0.0182356
832.567	0.0182870
832.645	0.0181460
832.723	0.0181034
832.801	0.0182556
832.879	0.0182658
832.957	0.0182990
833.035	0.0182392
833.113	0.0181556
833.192	0.0181535
833.270	0.0181208
833.348	0.0182362
833.426	0.0182221
833.504	0.0182036
833.582	0.0181191
833.660	0.0181457
833.738	0.0180798
833.817	0.0179897
833.895	0.0181084
833.973	0.0180349
834.051	0.0179315
834.129	0.0179359
834.207	0.0179962
834.285	0.0179391
834.363	0.0178239
834.442	0.0177529
834.520	0.0178690
834.598	0.0178500
834.676	0.0176733
834.754	0.0178702
834.832	0.0177393
834.910	0.0178598
834.988	0.0177848
835.067	0.0178467
835.145	0.0176814
835.223	0.0177655
835.301	0.0177103
835.379	0.0177162
835.457	0.0178007
835.535	0.0176386
835.613	0.0177522
835.692	0.0176308
835.770	0.0177699
835.848	0.0177028
835.926	0.0178022
836.004	0.0177219
836.082	0.0176086
836.160	0.0176534
836.238	0.0176649
836.317	0.0176070
836.395	0.0176396
836.473	0.0176938
836.551	0.0175627
836.629	0.0177431
836.707	0.0177564
836.785	0.0175414
836.863	0.0174611
836.942	0.0175532
837.020	0.0176777
837.098	0.0176759
837.176	0.0176415
837.254	0.0175927
837.332	0.0176270
837.410	0.0177423
837.488	0.0176970
837.567	0.0177063
837.645	0.0177117
837.723	0.0178067
837.801	0.0178259
837.879	0.0177957
837.957	0.0179465
838.035	0.0179409
838.113	0.0178570
838.192	0.0178565
838.270	0.0178925
838.348	0.0180161
838.426	0.0180141
838.504	0.0179956
838.582	0.0180641
838.660	0.0179633
838.738	0.0179507
838.817	0.0179247
838.895	0.0180540
838.973	0.0181956
839.051	0.0179602
839.129	0.0179919
839.207	0.0181470
839.285	0.0180669
839.363	0.0181010
839.442	0.0181183
839.520	0.0181341
839.598	0.0182600
839.676	0.0181516
839.754	0.0180291
839.832	0.0180691
839.910	0.0180006
839.988	0.0180114
840.067	0.0179406
840.145	0.0180724
840.223	0.0180570
840.301	0.0179582
840.379	0.0179331
840.457	0.0179335
840.535	0.0178986
840.613	0.0178407
840.692	0.0178447
840.770	0.0179221
840.848	0.0179739
840.926	0.0178274
841.004	0.0177295
841.082	0.0178773
841.160	0.0178419
841.238	0.0177074
841.317	0.0179038
841.395	0.0180051
841.473	0.0179596
841.551	0.0180306
841.629	0.0180099
841.707	0.0179720
841.785	0.0182268
841.863	0.0181915
841.942	0.0181131
842.020	0.0181390
842.098	0.0182774
842.176	0.0180688
842.254	0.0181584
842.332	0.0181514
842.410	0.0182556
842.488	0.0181724
842.567	0.0181658
842.645	0.0182851
842.723	0.0183747
842.801	0.0183164
842.879	0.0182845
842.957	0.0184829
843.035	0.0183490
843.113	0.0183548
843.192	0.0183250
843.270	0.0183643
843.348	0.0183578
843.426	0.0184090
843.504	0.0182334
843.582	0.0183764
843.660	0.0182146
843.738	0.0182234
843.817	0.0183625
843.895	0.0181052
843.973	0.0182255
844.051	0.0182466
844.129	0.0181567
844.207	0.0181036
844.285	0.0181585
844.363	0.0182247
844.442	0.0181073
844.520	0.0181209
844.598	0.0180275
844.676	0.0180833
844.754	0.0180631
844.832	0.0181079
844.910	0.0180029
844.988	0.0179871
845.067	0.0179627
845.145	0.0181603
845.223	0.0180017
845.301	0.0178878
845.379	0.0179900
845.457	0.0178391
845.535	0.0179802
845.613	0.0180286
845.692	0.0179646
845.770	0.0177709
845.848	0.0178712
845.926	0.0178455
846.004	0.0178076
846.082	0.0176985
846.160	0.0176626
846.238	0.0177216
846.317	0.0177164
846.395	0.0176852
846.473	0.0176463
846.551	0.0175552
846.629	0.0175987
846.707	0.0175030
846.785	0.0175347
846.863	0.0175980
846.942	0.0174806
847.020	0.0175325
847.098	0.0174638
847.176	0.0172706
847.254	0.0174261
847.332	0.0175596
847.410	0.0173403
847.488	0.0172144
847.567	0.0174086
847.645	0.0173001
847.723	0.0173960
847.801	0.0174664
847.879	0.0175643
847.957	0.0174358
848.035	0.0173754
848.113	0.0173785
848.192	0.0174530
848.270	0.0175404
848.348	0.0175626
848.426	0.0175072
848.504	0.0175062
848.582	0.0174481
848.660	0.0175253
848.738	0.0175967
848.817	0.0174992
848.895	0.0175546
848.973	0.0176149
849.051	0.0178004
849.129	0.0175982
849.207	0.0176454
849.285	0.0176105
849.363	0.0176791
849.442	0.0177677
849.520	0.0177345
849.598	0.0175713
849.676	0.0177146
849.754	0.0176664
849.832	0.0177604
849.910	0.0177921
849.988	0.0178335
850.067	0.0179164
850.145	0.0178571
850.223	0.0179841
850.301	0.0178988
850.379	0.0179499
850.457	0.0180511
850.535	0.0180662
850.613	0.0181441
850.692	0.0180618
850.770	0.0181954
850.848	0.0180134
850.926	0.0180997
851.004	0.0181641
851.082	0.0181642
851.160	0.0180731
851.238	0.0180273
851.317	0.0181920
851.395	0.0181956
851.473	0.0180814
851.551	0.0181207
851.629	0.0180645
851.707	0.0180892
851.785	0.0181129
851.863	0.0181568
851.942	0.0180399
852.020	0.0180039
852.098	0.0181390
852.176	0.0181487
852.254	0.0182359
852.332	0.0182359
852.410	0.0182494
852.488	0.0182042
852.567	0.0183167
852.645	0.0182935
852.723	0.0182209
852.801	0.0182983
852.879	0.0182131
852.957	0.0182567
853.035	0.0182455
853.113	0.0181818
853.192	0.0180930
853.270	0.0181332
853.348	0.0182079
853.426	0.0181360
853.504	0.0181111
853.582	0.0181551
853.660	0.0180932
853.738	0.0178121
853.817	0.0180132
853.895	0.0180041
853.973	0.0180157
854.051	0.0179458
854.129	0.0180154
854.207	0.0179285
854.285	0.0177525
854.363	0.0179803
854.442	0.0180379
854.520	0.0180042
854.598	0.0178924
854.676	0.0178460
854.754	0.0179021
854.832	0.0179584
854.910	0.0179282
854.988	0.0178939
855.067	0.0180072
855.145	0.0178484
855.223	0.0178236
855.301	0.0179897
855.379	0.0177103
855.457	0.0177544
855.535	0.0179226
855.613	0.0179913
855.692	0.0177785
855.770	0.0177390
855.848	0.0179022
855.926	0.0179243
856.004	0.0178236
856.082	0.0178374
856.160	0.0178123
856.238	0.0177892
856.317	0.0178779
856.395	0.0178735
856.473	0.0176680
856.551	0.0176527
856.629	0.0177380
856.707	0.0178320
856.785	0.0176640
856.863	0.0176794
856.942	0.0177412
857.020	0.0177194
857.098	0.0177018
857.176	0.0179265
857.254	0.0178635
857.332	0.0178382
857.410	0.0179203
857.488	0.0179221
857.567	0.0178879
857.645	0.0178518
857.723	0.0179251
857.801	0.0178999
857.879	0.0179044
857.957	0.0179382
858.035	0.0178162
858.113	0.0179164
858.192	0.0179425
858.270	0.0177357
858.348	0.0179941
858.426	0.0178397
858.504	0.0179321
858.582	0.0180225
858.660	0.0178999
858.738	0.0179446
858.817	0.0179061
858.895	0.0180258
858.973	0.0180625
859.051	0.0179276
859.129	0.0178976
859.207	0.0181329
859.285	0.0180845
859.363	0.0180255
859.442	0.0180978
859.520	0.0179723
859.598	0.0180847
859.676	0.0178862
859.754	0.0180914
859.832	0.0178941
859.910	0.0179985
859.988	0.0179008
860.067	0.0180515
860.145	0.0179408
860.223	0.0179382
860.301	0.0180049
860.379	0.0179478
860.457	0.0179314
860.535	0.0181119
860.613	0.0182493
860.692	0.0181472
860.770	0.0180849
860.848	0.0180884
860.926	0.0182503
861.004	0.0182265
861.082	0.0181828
861.160	0.0182250
861.238	0.0182794
861.317	0.0182773
861.395	0.0182083
861.473	0.0182965
861.551	0.0182278
861.629	0.0183759
861.707	0.0184094
861.785	0.0184455
861.863	0.0183001
861.942	0.0183974
862.020	0.0183978
862.098	0.0184581
862.176	0.0184253
862.254	0.0182150
862.332	0.0183817
862.410	0.0185941
862.488	0.0182724
862.567	0.0182957
862.645	0.0182785
862.723	0.0181704
862.801	0.0184194
862.879	0.0183207
862.957	0.0182303
863.035	0.0182157
863.113	0.0183171
863.192	0.0183106
863.270	0.0182058
863.348	0.0181807
863.426	0.0182039
863.504	0.0182033
863.582	0.0181345
863.660	0.0180083
863.738	0.0180147
863.817	0.0179516
863.895	0.0177699
863.973	0.0177390
864.051	0.0179641
864.129	0.0177497
864.207	0.0177285
864.285	0.0176903
864.363	0.0177168
864.442	0.0177791
864.520	0.0176067
864.598	0.0177246
864.676	0.0175858
864.754	0.0175251
864.832	0.0176089
864.910	0.0175520
864.988	0.0174986
865.067	0.0177658
865.145	0.0175809
865.223	0.0175761
865.301	0.0173860
865.379	0.0175149
865.457	0.0177381
865.535	0.0174512
865.613	0.0174973
865.692	0.0174202
865.770	0.0175056
865.848	0.0173090
865.926	0.0172669
866.004	0.0174634
866.082	0.0174966
866.160	0.0173620
866.238	0.0174430
866.317	0.0173328
866.395	0.0172756
866.473	0.0174049
866.551	0.0173321
866.629	0.0171571
866.707	0.0172724
866.785	0.0172114
866.863	0.0173014
866.942	0.0172574
867.020	0.0173583
867.098	0.0172540
867.176	0.0173022
867.254	0.0174158
867.332	0.0174222
867.410	0.0174271
867.488	0.0174152
867.567	0.0174131
867.645	0.0175234
867.723	0.0175925
867.801	0.0176026
867.879	0.0176677
867.957	0.0175749
868.035	0.0176903
868.113	0.0177235
868.192	0.0178141
868.270	0.0177720
868.348	0.0176585
868.426	0.0179176
868.504	0.0177567
868.582	0.0178840
868.660	0.0178352
868.738	0.0178841
868.817	0.0180328
868.895	0.0180967
868.973	0.0180047
869.051	0.0180309
869.129	0.0180375
869.207	0.0180396
869.285	0.0180848
869.363	0.0182365
869.442	0.0181612
869.520	0.0183272
869.598	0.0183058
869.676	0.0182123
869.754	0.0182394
869.832	0.0184008
869.910	0.0184594
869.988	0.0184255
870.067	0.0183577
870.145	0.0183442
870.223	0.0184777
870.301	0.0184751
870.379	0.0182262
870.457	0.0184323
870.535	0.0184369
870.613	0.0184489
870.692	0.0183368
870.770	0.0183627
870.848	0.0182453
870.926	0.0181480
871.004	0.0181733
871.082	0.0181976
871.160	0.0181357
871.238	0.0181275
871.317	0.0182505
871.395	0.0181988
871.473	0.0181787
871.551	0.0181227
871.629	0.0181050
871.707	0.0182706
871.785	0.0182227
871.863	0.0182494
871.942	0.0182519
872.020	0.0183346
872.098	0.0182877
872.176	0.0182861
872.254	0.0183141
872.332	0.0184064
872.410	0.0184414
872.488	0.0183356
872.567	0.0182372
872.645	0.0183294
872.723	0.0182728
872.801	0.0182101
872.879	0.0183556
872.957	0.0182042
873.035	0.0181375
873.113	0.0181635
873.192	0.0181054
873.270	0.0180825
873.348	0.0180644
873.426	0.0178788
873.504	0.0180962
873.582	0.0180234
873.660	0.0181477
873.738	0.0180939
873.817	0.0180566
873.895	0.0181262
873.973	0.0180436
874.051	0.0182265
874.129	0.0182158
874.207	0.0180541
874.285	0.0182310
874.363	0.0182020
874.442	0.0180629
874.520	0.0181318
874.598	0.0180550
874.676	0.0181538
874.754	0.0180509
874.832	0.0181097
874.910	0.0182074
874.988	0.0182755
875.067	0.0181355
875.145	0.0180122
875.223	0.0182078
875.301	0.0181297
875.379	0.0179807
875.457	0.0180336
875.535	0.0179498
875.613	0.0178648
875.692	0.0178553
875.770	0.0179234
875.848	0.0178124
875.926	0.0179689
876.004	0.0178636
876.082	0.0178653
876.160	0.0177953
876.238	0.0178881
876.317	0.0179945
876.395	0.0179325
876.473	0.0180147
876.551	0.0179361
876.629	0.0179844
876.707	0.0178189
876.785	0.0179169
876.863	0.0179419
876.942	0.0177125
877.020	0.0179945
877.098	0.0178772
877.176	0.0178020
877.254	0.0179282
877.332	0.0178651
877.410	0.0178324
877.488	0.0179190
877.567	0.0178902
877.645	0.0177949
877.723	0.0179139
877.801	0.0178001
877.879	0.0179021
877.957	0.0177505
878.035	0.0178815
878.113	0.0177454
878.192	0.0176228
878.270	0.0176944
878.348	0.0177010
878.426	0.0177818
878.504	0.0176976
878.582	0.0177309
878.660	0.0176817
878.738	0.0176593
878.817	0.0177529
878.895	0.0176562
878.973	0.0176184
879.051	0.0176252
879.129	0.0177023
879.207	0.0177477
879.285	0.0176811
879.363	0.0175694
879.442	0.0174414
879.520	0.0175850
879.598	0.0176684
879.676	0.0176293
879.754	0.0176036
879.832	0.0176788
879.910	0.0176177
879.988	0.0175927
880.067	0.0175122
880.145	0.0176781
880.223	0.0177712
880.301	0.0177597
880.379	0.0176574
880.457	0.0175972
880.535	0.0177932
880.613	0.0178132
880.692	0.0178281
880.770	0.0177595
880.848	0.0176495
880.926	0.0176471
881.004	0.0177662
881.082	0.0177859
881.160	0.0179591
881.238	0.0179639
881.317	0.0178188
881.395	0.0178716
881.473	0.0178179
881.551	0.0178778
881.629	0.0179058
881.707	0.0178642
881.785	0.0179571
881.863	0.0178966
881.942	0.0177683
882.020	0.0179327
882.098	0.0178751
882.176	0.0178384
882.254	0.0179954
882.332	0.0179993
882.410	0.0179144
882.488	0.0179962
882.567	0.0179897
882.645	0.0179620
882.723	0.0179982
882.801	0.0180183
882.879	0.0181120
882.957	0.0180694
883.035	0.0180595
883.113	0.0180816
883.192	0.0179504
883.270	0.0179278
883.348	0.0179240
883.426	0.0179688
883.504	0.0179443
883.582	0.0180019
883.660	0.0178679
883.738	0.0178884
883.817	0.0178186
883.895	0.0179974
883.973	0.0178838
884.051	0.0178448
884.129	0.0178564
884.207	0.0177690
884.285	0.0178971
884.363	0.0178796
884.442	0.0180595
884.520	0.0179088
884.598	0.0179271
884.676	0.0178104
884.754	0.0177285
884.832	0.0177206
884.910	0.0179312
884.988	0.0178162
885.067	0.0178807
885.145	0.0179000
885.223	0.0178878
885.301	0.0178346
885.379	0.0178833
885.457	0.0178449
885.535	0.0178800
885.613	0.0179613
885.692	0.0179649
885.770	0.0180172
885.848	0.0180749
885.926	0.0180319
886.004	0.0181011
886.082	0.0181270
886.160	0.0181061
886.238	0.0181334
886.317	0.0180978
886.395	0.0181509
886.473	0.0183210
886.551	0.0180135
886.629	0.0181185
886.707	0.0181815
886.785	0.0181416
886.863	0.0181628
886.942	0.0180347
887.020	0.0181443
887.098	0.0181927
887.176	0.0181131
887.254	0.0180135
887.332	0.0181574
887.410	0.0183128
887.488	0.0181352
887.567	0.0180406
887.645	0.0183133
887.723	0.0182602
887.801	0.0181708
887.879	0.0183467
887.957	0.0181642
888.035	0.0181068
888.113	0.0182626
888.192	0.0181246
888.270	0.0181787
888.348	0.0180544
888.426	0.0180637
888.504	0.0180212
888.582	0.0181338
888.660	0.0179810
888.738	0.0181067
888.817	0.0181437
888.895	0.0180274
888.973	0.0180241
889.051	0.0179527
889.129	0.0181184
889.207	0.0180069
889.285	0.0180217
889.363	0.0179136
889.442	0.0178303
889.520	0.0178207
889.598	0.0178915
889.676	0.0179135
889.754	0.0176299
889.832	0.0177349
889.910	0.0178309
889.988	0.0177197
890.067	0.0175918
890.145	0.0177489
890.223	0.0176834
890.301	0.0176427
890.379	0.0176839
890.457	0.0177266
890.535	0.0177654
890.613	0.0177944
890.692	0.0176465
890.770	0.0176377
890.848	0.0177203
890.926	0.0176047
891.004	0.0177125
891.082	0.0176781
891.160	0.0178103
891.238	0.0176363
891.317	0.0177164
891.395	0.0178014
891.473	0.0176508
891.551	0.0177396
891.629	0.0176852
891.707	0.0177103
891.785	0.0178082
891.863	0.0178059
891.942	0.0177724
892.020	0.0178248
892.098	0.0180048
892.176	0.0180051
892.254	0.0179574
892.332	0.0179361
892.410	0.0180947
892.488	0.0181692
892.567	0.0181364
892.645	0.0181678
892.723	0.0181385
892.801	0.0181527
892.879	0.0182659
892.957	0.0182597
893.035	0.0180642
893.113	0.0180765
893.192	0.0180955
893.270	0.0181754
893.348	0.0181825
893.426	0.0181042
893.504	0.0182760
893.582	0.0182108
893.660	0.0181404
893.738	0.0183396
893.817	0.0183302
893.895	0.0182030
893.973	0.0184005
894.051	0.0183720
894.129	0.0183767
894.207	0.0183929
894.285	0.0182047
894.363	0.0182797
894.442	0.0184115
894.520	0.0184134
894.598	0.0182319
894.676	0.0183932
894.754	0.0183356
894.832	0.0182785
894.910	0.0183640
894.988	0.0183493
895.067	0.0182513
895.145	0.0183172
895.223	0.0183219
895.301	0.0182702
895.379	0.0181432
895.457	0.0181610
895.535	0.0181991
895.613	0.0182421
895.692	0.0182384
895.770	0.0181581
895.848	0.0181223
895.926	0.0180984
896.004	0.0182284
896.082	0.0182711
896.160	0.0182508
896.238	0.0182985
896.317	0.0181832
896.395	0.0182088
896.473	0.0182995
896.551	0.0182689
896.629	0.0184001
896.707	0.0182359
896.785	0.0182250
896.863	0.0181838
896.942	0.0181002
897.020	0.0184195
897.098	0.0182470
897.176	0.0182127
897.254	0.0181818
897.332	0.0183228
897.410	0.0182904
897.488	0.0184146
897.567	0.0183174
897.645	0.0183449
897.723	0.0183157
897.801	0.0185217
897.879	0.0184625
897.957	0.0182925
898.035	0.0184563
898.113	0.0183488
898.192	0.0183654
898.270	0.0182700
898.348	0.0182277
898.426	0.0184318
898.504	0.0182240
898.582	0.0183206
898.660	0.0182991
898.738	0.0182941
898.817	0.0182941
898.895	0.0183224
898.973	0.0182082
899.051	0.0181515
899.129	0.0181216
899.207	0.0180309
899.285	0.0181411
899.363	0.0181978
899.442	0.0180913
899.520	0.0181250
899.598	0.0180041
899.676	0.0180138
899.754	0.0179699
899.832	0.0180046
899.910	0.0179669
899.988	0.0181696
900.067	0.0180051
900.145	0.0179444
900.223	0.0178104
900.301	0.0178793
900.379	0.0178635
900.457	0.0177349
900.535	0.0178484
900.613	0.0177055
900.692	0.0177077
900.770	0.0178544
900.848	0.0177531
900.926	0.0177377
901.004	0.0177291
901.082	0.0178748
901.160	0.0177351
901.238	0.0177858
901.317	0.0177623
901.395	0.0179234
901.473	0.0177652
901.551	0.0178665
901.629	0.0176743
901.707	0.0178265
901.785	0.0177307
901.863	0.0177645
901.942	0.0177594
902.020	0.0178822
902.098	0.0179736
902.176	0.0179062
902.254	0.0180327
902.332	0.0180555
902.410	0.0180388
902.488	0.0179193
902.567	0.0180986
902.645	0.0180743
902.723	0.0182474
902.801	0.0181300
902.879	0.0181403
902.957	0.0181313
903.035	0.0181677
903.113	0.0181499
903.192	0.0179779
903.270	0.0181051
903.348	0.0183887
903.426	0.0181661
903.504	0.0182472
903.582	0.0179183
903.660	0.0180062
903.738	0.0179929
903.817	0.0180068
903.895	0.0178776
903.973	0.0178818
904.051	0.0178777
904.129	0.0179104
904.207	0.0179003
904.285	0.0178172
904.363	0.0177816
904.442	0.0177315
904.520	0.0175852
904.598	0.0175182
904.676	0.0176528
904.754	0.0177352
904.832	0.0175552
904.910	0.0176443
904.988	0.0174930
905.067	0.0174363
905.145	0.0174496
905.223	0.0175255
905.301	0.0174434
905.379	0.0174071
905.457	0.0174067
905.535	0.0174032
905.613	0.0173698
905.692	0.0172868
905.770	0.0173315
905.848	0.0172922
905.926	0.0173288
906.004	0.0173833
906.082	0.0174092
906.160	0.0174883
906.238	0.0172894
906.317	0.0174155
906.395	0.0175715
906.473	0.0175964
906.551	0.0175140
906.629	0.0175177
906.707	0.0174681
906.785	0.0174940
906.863	0.0175282
906.942	0.0174649
907.020	0.0174348
907.098	0.0176271
907.176	0.0176059
907.254	0.0175146
907.332	0.0177561
907.410	0.0177067
907.488	0.0176365
907.567	0.0177163
907.645	0.0178436
907.723	0.0178059
907.801	0.0179322
907.879	0.0178883
907.957	0.0177444
908.035	0.0177502
908.113	0.0177277
908.192	0.0178489
908.270	0.0178777
908.348	0.0177520
908.426	0.0177756
908.504	0.0177426
908.582	0.0177753
908.660	0.0178431
908.738	0.0177162
908.817	0.0177879
908.895	0.0177179
908.973	0.0179756
909.051	0.0179041
909.129	0.0177631
909.207	0.0178922
909.285	0.0179417
909.363	0.0181180
909.442	0.0178897
909.520	0.0178354
909.598	0.0178726
909.676	0.0179153
909.754	0.0178509
909.832	0.0179686
909.910	0.0180276
909.988	0.0180131
910.067	0.0180805
910.145	0.0180315
910.223	0.0180817
910.301	0.0182082
910.379	0.0180657
910.457	0.0183958
910.535	0.0183010
910.613	0.0181189
910.692	0.0184073
910.770	0.0184387
910.848	0.0183537
910.926	0.0184796
911.004	0.0183073
911.082	0.0182650
911.160	0.0183932
911.238	0.0183637
911.317	0.0182114
911.395	0.0182510
911.473	0.0183200
911.551	0.0182144
911.629	0.0182936
911.707	0.0182098
911.785	0.0181516
911.863	0.0180038
911.942	0.0180195
912.020	0.0180231
912.098	0.0180022
912.176	0.0179734
912.254	0.0179316
912.332	0.0178799
912.410	0.0178691
912.488	0.0177694
912.567	0.0179024
912.645	0.0179238
912.723	0.0179211
912.801	0.0179446
912.879	0.0178135
912.957	0.0178783
913.035	0.0177402
913.113	0.0178407
913.192	0.0178503
913.270	0.0179610
913.348	0.0179008
913.426	0.0179449
913.504	0.0178474
913.582	0.0179752
913.660	0.0176874
913.738	0.0177661
913.817	0.0178236
913.895	0.0178932
913.973	0.0179390
914.051	0.0178253
914.129	0.0177775
914.207	0.0179932
914.285	0.0178614
914.363	0.0177789
914.442	0.0177897
914.520	0.0179353
914.598	0.0178609
914.676	0.0178700
914.754	0.0178330
914.832	0.0178161
914.910	0.0178423
914.988	0.0177194
915.067	0.0178214
915.145	0.0176801
915.223	0.0176041
915.301	0.0177040
915.379	0.0176249
915.457	0.0177643
915.535	0.0177003
915.613	0.0175911
915.692	0.0177195
915.770	0.0176002
915.848	0.0176170
915.926	0.0176025
916.004	0.0176249
916.082	0.0177554
916.160	0.0177926
916.238	0.0176739
916.317	0.0176540
916.395	0.0176740
916.473	0.0177608
916.551	0.0179314
916.629	0.0178192
916.707	0.0178185
916.785	0.0178104
916.863	0.0179841
916.942	0.0178475
917.020	0.0178922
917.098	0.0179578
917.176	0.0177714
917.254	0.0178757
917.332	0.0178146
917.410	0.0177005
917.488	0.0176605
917.567	0.0176544
917.645	0.0176756
917.723	0.0176379
917.801	0.0176611
917.879	0.0177112
917.957	0.0176923
918.035	0.0175996
918.113	0.0176218
918.192	0.0176912
918.270	0.0176830
918.348	0.0177097
918.426	0.0177135
918.504	0.0179581
918.582	0.0177586
918.660	0.0177177
918.738	0.0178571
918.817	0.0179041
918.895	0.0177570
918.973	0.0179224
919.051	0.0179006
919.129	0.0178883
919.207	0.0180621
919.285	0.0180590
919.363	0.0179453
919.442	0.0180019
919.520	0.0181484
919.598	0.0180498
919.676	0.0180513
919.754	0.0180463
919.832	0.0180819
919.910	0.0180721
