06/01/2022	22:18:59	Ver.	4.1	UNKNOWN
Optical Delay	599.988409	Delta X		0.078125	Sweeps	1	Scan Rate	0/0
Coordinates	Axis 1	NaN	Axis 2	NaN	Axis 3	NaN	Axis 4	NaN	Axis 5	NaN	Axis 6	0.000000
TX Power	0.000000	RX Power	0.000000

599.988	0.0170740
600.067	0.0167868
600.145	0.0169668
600.223	0.0168036
600.301	0.0168050
600.379	0.0169634
600.457	0.0166527
600.535	0.0167204
600.613	0.0167225
600.692	0.0166924
600.770	0.0166571
600.848	0.0165968
600.926	0.0166489
601.004	0.0164980
601.082	0.0166992
601.160	0.0166762
601.238	0.0165798
601.317	0.0165667
601.395	0.0166142
601.473	0.0165491
601.551	0.0166605
601.629	0.0167353
601.707	0.0165649
601.785	0.0167406
601.863	0.0167066
601.942	0.0166663
602.020	0.0165833
602.098	0.0166643
602.176	0.0167725
602.254	0.0168185
602.332	0.0167924
602.410	0.0167868
602.488	0.0169421
602.567	0.0168911
602.645	0.0168726
602.723	0.0169662
602.801	0.0169215
602.879	0.0169725
602.957	0.0169971
603.035	0.0170496
603.113	0.0170707
603.192	0.0170168
603.270	0.0169417
603.348	0.0170557
603.426	0.0171555
603.504	0.0172385
603.582	0.0170730
603.660	0.0171026
603.738	0.0170218
603.817	0.0168993
603.895	0.0171068
603.973	0.0169360
604.051	0.0168710
604.129	0.0169949
604.207	0.0168810
604.285	0.0168096
604.363	0.0169230
604.442	0.0169735
604.520	0.0169987
604.598	0.0168846
604.676	0.0168098
604.754	0.0168913
604.832	0.0167836
604.910	0.0170215
604.988	0.0169689
605.067	0.0170042
605.145	0.0169282
605.223	0.0168159
605.301	0.0169480
605.379	0.0169001
605.457	0.0168083
605.535	0.0167947
605.613	0.0168746
605.692	0.0168964
605.770	0.0169017
605.848	0.0168620
605.926	0.0168526
606.004	0.0167996
606.082	0.0169173
606.160	0.0168327
606.238	0.0169289
606.317	0.0168890
606.395	0.0169398
606.473	0.0168121
606.551	0.0167577
606.629	0.0168839
606.707	0.0169707
606.785	0.0168491
606.863	0.0169228
606.942	0.0168139
607.020	0.0170129
607.098	0.0168256
607.176	0.0168711
607.254	0.0169605
607.332	0.0168248
607.410	0.0168288
607.488	0.0170664
607.567	0.0169705
607.645	0.0171111
607.723	0.0170260
607.801	0.0171598
607.879	0.0170042
607.957	0.0170055
608.035	0.0171609
608.113	0.0171627
608.192	0.0171519
608.270	0.0171079
608.348	0.0171351
608.426	0.0169959
608.504	0.0169975
608.582	0.0171526
608.660	0.0168687
608.738	0.0168002
608.817	0.0169077
608.895	0.0169171
608.973	0.0169925
609.051	0.0169202
609.129	0.0170320
609.207	0.0169695
609.285	0.0170208
609.363	0.0169938
609.442	0.0169147
609.520	0.0170061
609.598	0.0168260
609.676	0.0170063
609.754	0.0168948
609.832	0.0170725
609.910	0.0170206
609.988	0.0168571
610.067	0.0169663
610.145	0.0171212
610.223	0.0169462
610.301	0.0169632
610.379	0.0171336
610.457	0.0170766
610.535	0.0170190
610.613	0.0170653
610.692	0.0171002
610.770	0.0170885
610.848	0.0171774
610.926	0.0173467
611.004	0.0170892
611.082	0.0172368
611.160	0.0173483
611.238	0.0173470
611.317	0.0173022
611.395	0.0173241
611.473	0.0175287
611.551	0.0174403
611.629	0.0175976
611.707	0.0174702
611.785	0.0174706
611.863	0.0176868
611.942	0.0177445
612.020	0.0176607
612.098	0.0176276
612.176	0.0177145
612.254	0.0177795
612.332	0.0176942
612.410	0.0176601
612.488	0.0177247
612.567	0.0178020
612.645	0.0178175
612.723	0.0178110
612.801	0.0178378
612.879	0.0178644
612.957	0.0178133
613.035	0.0175923
613.113	0.0176441
613.192	0.0177890
613.270	0.0177876
613.348	0.0177341
613.426	0.0176148
613.504	0.0176823
613.582	0.0177507
613.660	0.0177610
613.738	0.0175391
613.817	0.0176353
613.895	0.0176788
613.973	0.0176122
614.051	0.0176620
614.129	0.0174192
614.207	0.0175322
614.285	0.0175942
614.363	0.0175785
614.442	0.0175248
614.520	0.0173687
614.598	0.0174554
614.676	0.0175129
614.754	0.0172279
614.832	0.0174520
614.910	0.0173161
614.988	0.0173351
615.067	0.0173423
615.145	0.0171413
615.223	0.0172261
615.301	0.0171011
615.379	0.0171721
615.457	0.0169941
615.535	0.0168398
615.613	0.0168401
615.692	0.0168747
615.770	0.0167606
615.848	0.0166835
615.926	0.0165780
616.004	0.0164135
616.082	0.0165601
616.160	0.0164572
616.238	0.0163994
616.317	0.0163702
616.395	0.0164165
616.473	0.0163544
616.551	0.0162337
616.629	0.0164792
616.707	0.0163039
616.785	0.0162336
616.863	0.0162292
616.942	0.0163634
617.020	0.0163425
617.098	0.0163217
617.176	0.0165685
617.254	0.0164114
617.332	0.0164959
617.410	0.0164835
617.488	0.0165227
617.567	0.0164349
617.645	0.0166685
617.723	0.0166486
617.801	0.0164882
617.879	0.0165662
617.957	0.0167044
618.035	0.0167500
618.113	0.0167015
618.192	0.0167627
618.270	0.0167387
618.348	0.0165643
618.426	0.0168427
618.504	0.0169379
618.582	0.0170257
618.660	0.0169257
618.738	0.0169627
618.817	0.0170695
618.895	0.0170834
618.973	0.0170538
619.051	0.0171024
619.129	0.0172205
619.207	0.0171875
619.285	0.0171863
619.363	0.0172511
619.442	0.0170543
619.520	0.0171858
619.598	0.0171848
619.676	0.0172321
619.754	0.0173346
619.832	0.0172626
619.910	0.0172040
619.988	0.0171468
620.067	0.0170274
620.145	0.0170407
620.223	0.0171333
620.301	0.0172361
620.379	0.0171008
620.457	0.0170987
620.535	0.0169738
620.613	0.0170012
620.692	0.0169515
620.770	0.0171768
620.848	0.0170793
620.926	0.0170729
621.004	0.0170614
621.082	0.0169682
621.160	0.0170040
621.238	0.0170552
621.317	0.0169432
621.395	0.0169645
621.473	0.0171044
621.551	0.0170062
621.629	0.0170998
621.707	0.0171010
621.785	0.0170482
621.863	0.0171271
621.942	0.0171675
622.020	0.0170989
622.098	0.0170917
622.176	0.0170142
622.254	0.0171006
622.332	0.0170306
622.410	0.0170567
622.488	0.0170524
622.567	0.0170602
622.645	0.0171023
622.723	0.0170968
622.801	0.0171257
622.879	0.0171005
622.957	0.0171046
623.035	0.0170316
623.113	0.0171468
623.192	0.0172071
623.270	0.0170464
623.348	0.0171129
623.426	0.0171275
623.504	0.0171465
623.582	0.0172706
623.660	0.0172017
623.738	0.0173627
623.817	0.0173227
623.895	0.0173198
623.973	0.0172266
624.051	0.0174630
624.129	0.0174355
624.207	0.0173170
624.285	0.0172805
624.363	0.0174006
624.442	0.0174151
624.520	0.0174576
624.598	0.0171924
624.676	0.0171989
624.754	0.0171175
624.832	0.0172443
624.910	0.0172464
624.988	0.0172619
625.067	0.0171621
625.145	0.0172805
625.223	0.0172476
625.301	0.0173196
625.379	0.0172377
625.457	0.0172112
625.535	0.0173492
625.613	0.0172894
625.692	0.0172691
625.770	0.0173020
625.848	0.0171326
625.926	0.0171881
626.004	0.0172219
626.082	0.0172589
626.160	0.0172435
626.238	0.0170641
626.317	0.0169862
626.395	0.0171198
626.473	0.0171267
626.551	0.0170330
626.629	0.0168822
626.707	0.0169975
626.785	0.0168900
626.863	0.0168513
626.942	0.0168468
627.020	0.0168577
627.098	0.0169575
627.176	0.0167898
627.254	0.0167719
627.332	0.0168158
627.410	0.0168962
627.488	0.0167745
627.567	0.0167208
627.645	0.0168426
627.723	0.0168785
627.801	0.0168075
627.879	0.0168959
627.957	0.0169575
628.035	0.0168781
628.113	0.0169602
628.192	0.0169352
628.270	0.0170011
628.348	0.0169432
628.426	0.0169718
628.504	0.0169096
628.582	0.0168851
628.660	0.0169178
628.738	0.0170010
628.817	0.0168840
628.895	0.0168228
628.973	0.0167798
629.051	0.0167342
629.129	0.0168736
629.207	0.0168291
629.285	0.0167635
629.363	0.0167155
629.442	0.0169025
629.520	0.0168264
629.598	0.0167779
629.676	0.0166799
629.754	0.0166910
629.832	0.0170060
629.910	0.0168732
629.988	0.0169300
630.067	0.0166990
630.145	0.0168436
630.223	0.0169786
630.301	0.0169543
630.379	0.0170255
630.457	0.0170154
630.535	0.0171124
630.613	0.0170995
630.692	0.0171320
630.770	0.0171703
630.848	0.0172643
630.926	0.0172039
631.004	0.0173078
631.082	0.0170508
631.160	0.0172923
631.238	0.0172443
631.317	0.0174769
631.395	0.0174102
631.473	0.0173000
631.551	0.0173077
631.629	0.0173756
631.707	0.0173962
631.785	0.0172595
631.863	0.0173367
631.942	0.0172958
632.020	0.0173584
632.098	0.0172610
632.176	0.0171735
632.254	0.0173086
632.332	0.0171669
632.410	0.0171170
632.488	0.0172493
632.567	0.0171556
632.645	0.0172730
632.723	0.0170285
632.801	0.0170995
632.879	0.0171901
632.957	0.0171365
633.035	0.0170065
633.113	0.0167896
633.192	0.0169724
633.270	0.0169338
633.348	0.0168572
633.426	0.0169534
633.504	0.0170599
633.582	0.0169984
633.660	0.0169855
633.738	0.0168359
633.817	0.0168311
633.895	0.0168842
633.973	0.0169414
634.051	0.0169619
634.129	0.0169622
634.207	0.0170623
634.285	0.0169873
634.363	0.0170816
634.442	0.0170788
634.520	0.0170538
634.598	0.0170790
634.676	0.0170296
634.754	0.0171638
634.832	0.0170743
634.910	0.0170217
634.988	0.0171037
635.067	0.0173202
635.145	0.0171880
635.223	0.0171761
635.301	0.0172051
635.379	0.0173441
635.457	0.0173330
635.535	0.0171769
635.613	0.0172613
635.692	0.0173605
635.770	0.0173387
635.848	0.0173055
635.926	0.0173431
636.004	0.0173951
636.082	0.0173973
636.160	0.0174154
636.238	0.0173412
636.317	0.0173914
636.395	0.0174464
636.473	0.0174955
636.551	0.0175982
636.629	0.0174770
636.707	0.0175185
636.785	0.0174152
636.863	0.0174361
636.942	0.0174799
637.020	0.0173110
637.098	0.0173933
637.176	0.0174605
637.254	0.0174267
637.332	0.0172823
637.410	0.0173082
637.488	0.0172767
637.567	0.0173327
637.645	0.0173161
637.723	0.0172633
637.801	0.0173649
637.879	0.0172018
637.957	0.0173145
638.035	0.0172015
638.113	0.0171740
638.192	0.0172700
638.270	0.0173321
638.348	0.0172021
638.426	0.0172507
638.504	0.0171597
638.582	0.0172161
638.660	0.0170856
638.738	0.0171620
638.817	0.0170648
638.895	0.0171062
638.973	0.0170885
639.051	0.0170092
639.129	0.0171097
639.207	0.0169915
639.285	0.0169949
639.363	0.0170033
639.442	0.0171491
639.520	0.0171429
639.598	0.0170370
639.676	0.0170449
639.754	0.0170835
639.832	0.0169798
639.910	0.0169395
639.988	0.0169501
640.067	0.0170538
640.145	0.0170213
640.223	0.0168194
640.301	0.0170047
640.379	0.0170808
640.457	0.0168218
640.535	0.0168027
640.613	0.0170383
640.692	0.0169249
640.770	0.0169016
640.848	0.0170126
640.926	0.0168517
641.004	0.0168832
641.082	0.0169481
641.160	0.0168671
641.238	0.0168723
641.317	0.0169489
641.395	0.0169793
641.473	0.0168400
641.551	0.0168491
641.629	0.0169244
641.707	0.0168151
641.785	0.0168974
641.863	0.0169089
641.942	0.0169605
642.020	0.0167883
642.098	0.0168829
642.176	0.0168078
642.254	0.0167035
642.332	0.0167617
642.410	0.0168278
642.488	0.0167496
642.567	0.0168417
642.645	0.0167138
642.723	0.0168674
642.801	0.0168249
642.879	0.0168108
642.957	0.0165990
643.035	0.0167287
643.113	0.0167856
643.192	0.0167706
643.270	0.0166043
643.348	0.0168295
643.426	0.0168428
643.504	0.0169294
643.582	0.0170040
643.660	0.0169310
643.738	0.0169379
643.817	0.0170949
643.895	0.0170358
643.973	0.0169455
644.051	0.0169956
644.129	0.0172278
644.207	0.0171166
644.285	0.0170053
644.363	0.0171308
644.442	0.0171565
644.520	0.0171510
644.598	0.0170148
644.676	0.0172089
644.754	0.0172670
644.832	0.0170644
644.910	0.0170749
644.988	0.0171341
645.067	0.0170719
645.145	0.0171044
645.223	0.0171173
645.301	0.0171287
645.379	0.0171578
645.457	0.0171340
645.535	0.0171610
645.613	0.0171445
645.692	0.0171680
645.770	0.0171272
645.848	0.0171098
645.926	0.0170049
646.004	0.0169860
646.082	0.0169779
646.160	0.0170639
646.238	0.0168922
646.317	0.0169221
646.395	0.0170567
646.473	0.0169643
646.551	0.0169654
646.629	0.0171105
646.707	0.0167603
646.785	0.0169237
646.863	0.0170319
646.942	0.0169547
647.020	0.0170282
647.098	0.0170536
647.176	0.0171122
647.254	0.0169741
647.332	0.0170065
647.410	0.0170639
647.488	0.0170083
647.567	0.0172355
647.645	0.0171369
647.723	0.0173507
647.801	0.0171680
647.879	0.0171490
647.957	0.0169978
648.035	0.0171935
648.113	0.0171909
648.192	0.0171302
648.270	0.0171931
648.348	0.0171284
648.426	0.0171584
648.504	0.0172237
648.582	0.0172395
648.660	0.0172003
648.738	0.0170441
648.817	0.0170583
648.895	0.0171305
648.973	0.0171025
649.051	0.0169047
649.129	0.0172361
649.207	0.0172386
649.285	0.0171254
649.363	0.0172501
649.442	0.0171818
649.520	0.0171233
649.598	0.0171942
649.676	0.0171439
649.754	0.0171651
649.832	0.0173593
649.910	0.0173029
649.988	0.0172430
650.067	0.0171844
650.145	0.0172702
650.223	0.0173431
650.301	0.0171931
650.379	0.0174213
650.457	0.0172829
650.535	0.0172956
650.613	0.0172520
650.692	0.0173114
650.770	0.0172620
650.848	0.0169254
650.926	0.0171379
651.004	0.0171037
651.082	0.0170413
651.160	0.0169754
651.238	0.0169075
651.317	0.0170560
651.395	0.0170026
651.473	0.0168315
651.551	0.0168925
651.629	0.0168992
651.707	0.0167470
651.785	0.0166902
651.863	0.0167905
651.942	0.0167964
652.020	0.0167102
652.098	0.0168243
652.176	0.0169151
652.254	0.0166148
652.332	0.0168027
652.410	0.0167967
652.488	0.0169070
652.567	0.0168613
652.645	0.0168300
652.723	0.0167721
652.801	0.0167733
652.879	0.0168313
652.957	0.0167368
653.035	0.0169411
653.113	0.0169966
653.192	0.0170354
653.270	0.0169357
653.348	0.0170337
653.426	0.0171560
653.504	0.0171419
653.582	0.0170033
653.660	0.0170104
653.738	0.0172355
653.817	0.0173440
653.895	0.0172546
653.973	0.0172015
654.051	0.0172575
654.129	0.0172762
654.207	0.0173785
654.285	0.0172396
654.363	0.0173318
654.442	0.0172807
654.520	0.0173299
654.598	0.0173333
654.676	0.0173837
654.754	0.0173692
654.832	0.0173038
654.910	0.0172160
654.988	0.0174036
655.067	0.0173293
655.145	0.0172204
655.223	0.0172141
655.301	0.0172239
655.379	0.0172791
655.457	0.0171748
655.535	0.0172330
655.613	0.0171421
655.692	0.0172668
655.770	0.0172324
655.848	0.0170490
655.926	0.0171578
656.004	0.0171835
656.082	0.0171767
656.160	0.0168807
656.238	0.0170338
656.317	0.0172114
656.395	0.0168460
656.473	0.0170492
656.551	0.0169187
656.629	0.0168430
656.707	0.0169005
656.785	0.0167803
656.863	0.0168266
656.942	0.0167244
657.020	0.0167025
657.098	0.0168376
657.176	0.0167902
657.254	0.0167966
657.332	0.0167664
657.410	0.0168650
657.488	0.0166994
657.567	0.0168552
657.645	0.0167771
657.723	0.0167968
657.801	0.0167057
657.879	0.0167931
657.957	0.0168687
658.035	0.0168194
658.113	0.0167328
658.192	0.0168459
658.270	0.0168304
658.348	0.0167324
658.426	0.0169111
658.504	0.0169454
658.582	0.0168279
658.660	0.0166821
658.738	0.0167762
658.817	0.0168114
658.895	0.0169221
658.973	0.0168818
659.051	0.0169048
659.129	0.0168439
659.207	0.0168964
659.285	0.0169180
659.363	0.0170104
659.442	0.0168562
659.520	0.0169593
659.598	0.0170215
659.676	0.0168904
659.754	0.0170683
659.832	0.0170183
659.910	0.0170016
659.988	0.0170884
660.067	0.0169996
660.145	0.0169128
660.223	0.0170568
660.301	0.0170055
660.379	0.0171895
660.457	0.0170943
660.535	0.0169768
660.613	0.0171028
660.692	0.0170750
660.770	0.0171306
660.848	0.0169981
660.926	0.0170243
661.004	0.0168948
661.082	0.0171022
661.160	0.0169260
661.238	0.0168214
661.317	0.0169847
661.395	0.0167989
661.473	0.0169232
661.551	0.0169983
661.629	0.0168827
661.707	0.0168943
661.785	0.0168961
661.863	0.0167713
661.942	0.0168606
662.020	0.0168416
662.098	0.0168960
662.176	0.0168114
662.254	0.0167559
662.332	0.0167515
662.410	0.0169586
662.488	0.0168238
662.567	0.0168089
662.645	0.0169395
662.723	0.0168790
662.801	0.0170055
662.879	0.0167496
662.957	0.0169714
663.035	0.0171557
663.113	0.0169375
663.192	0.0169077
663.270	0.0170814
663.348	0.0170998
663.426	0.0170377
663.504	0.0171241
663.582	0.0171321
663.660	0.0171577
663.738	0.0170537
663.817	0.0169523
663.895	0.0172347
663.973	0.0170055
664.051	0.0169924
664.129	0.0171297
664.207	0.0171536
664.285	0.0170155
664.363	0.0169063
664.442	0.0171434
664.520	0.0172181
664.598	0.0171182
664.676	0.0169594
664.754	0.0170313
664.832	0.0170411
664.910	0.0170374
664.988	0.0169225
665.067	0.0169854
665.145	0.0169788
665.223	0.0171250
665.301	0.0168994
665.379	0.0169121
665.457	0.0169575
665.535	0.0171082
665.613	0.0170116
665.692	0.0169756
665.770	0.0171896
665.848	0.0170381
665.926	0.0170213
666.004	0.0171577
666.082	0.0171815
666.160	0.0171362
666.238	0.0170656
666.317	0.0171005
666.395	0.0171908
666.473	0.0170440
666.551	0.0170377
666.629	0.0169703
666.707	0.0171400
666.785	0.0171512
666.863	0.0170272
666.942	0.0169279
667.020	0.0171368
667.098	0.0172042
667.176	0.0170814
667.254	0.0170581
667.332	0.0170783
667.410	0.0171606
667.488	0.0171558
667.567	0.0170665
667.645	0.0171352
667.723	0.0170811
667.801	0.0170888
667.879	0.0170168
667.957	0.0169392
668.035	0.0169505
668.113	0.0171095
668.192	0.0170537
668.270	0.0169250
668.348	0.0169345
668.426	0.0169817
668.504	0.0169669
668.582	0.0169405
668.660	0.0169150
668.738	0.0168943
668.817	0.0168809
668.895	0.0169329
668.973	0.0167634
669.051	0.0168211
669.129	0.0168463
669.207	0.0169728
669.285	0.0168774
669.363	0.0168637
669.442	0.0170784
669.520	0.0170033
669.598	0.0169230
669.676	0.0168266
669.754	0.0170237
669.832	0.0169642
669.910	0.0170065
669.988	0.0169978
670.067	0.0169056
670.145	0.0169649
670.223	0.0169557
670.301	0.0169028
670.379	0.0168414
670.457	0.0170709
670.535	0.0169424
670.613	0.0169144
670.692	0.0170301
670.770	0.0168752
670.848	0.0168397
670.926	0.0170559
671.004	0.0168494
671.082	0.0169424
671.160	0.0168533
671.238	0.0169275
671.317	0.0168478
671.395	0.0168168
671.473	0.0168342
671.551	0.0168457
671.629	0.0167520
671.707	0.0168659
671.785	0.0167521
671.863	0.0167641
671.942	0.0167097
672.020	0.0168043
672.098	0.0166850
672.176	0.0168024
672.254	0.0168182
672.332	0.0167382
672.410	0.0167197
672.488	0.0166757
672.567	0.0167263
672.645	0.0166987
672.723	0.0168073
672.801	0.0168492
672.879	0.0166296
672.957	0.0167548
673.035	0.0167956
673.113	0.0166954
673.192	0.0169112
673.270	0.0169115
673.348	0.0168131
673.426	0.0168332
673.504	0.0169263
673.582	0.0169405
673.660	0.0169404
673.738	0.0170183
673.817	0.0169403
673.895	0.0169212
673.973	0.0169729
674.051	0.0168953
674.129	0.0171476
674.207	0.0170428
674.285	0.0169726
674.363	0.0171792
674.442	0.0171918
674.520	0.0171582
674.598	0.0172379
674.676	0.0173218
674.754	0.0171442
674.832	0.0170567
674.910	0.0171416
674.988	0.0172886
675.067	0.0172540
675.145	0.0172968
675.223	0.0173469
675.301	0.0173205
675.379	0.0172933
675.457	0.0173074
675.535	0.0173096
675.613	0.0171848
675.692	0.0171954
675.770	0.0172504
675.848	0.0173154
675.926	0.0171499
676.004	0.0172248
676.082	0.0171825
676.160	0.0171552
676.238	0.0171600
676.317	0.0172739
676.395	0.0171857
676.473	0.0172504
676.551	0.0173450
676.629	0.0172681
676.707	0.0170602
676.785	0.0171801
676.863	0.0172319
676.942	0.0172288
677.020	0.0173579
677.098	0.0172411
677.176	0.0170883
677.254	0.0171795
677.332	0.0172956
677.410	0.0172059
677.488	0.0172632
677.567	0.0171500
677.645	0.0170626
677.723	0.0171312
677.801	0.0172382
677.879	0.0172272
677.957	0.0172131
678.035	0.0171671
678.113	0.0172176
678.192	0.0173598
678.270	0.0172659
678.348	0.0172726
678.426	0.0173028
678.504	0.0173561
678.582	0.0171664
678.660	0.0171047
678.738	0.0171821
678.817	0.0172290
678.895	0.0170780
678.973	0.0172104
679.051	0.0171438
679.129	0.0171043
679.207	0.0170934
679.285	0.0170834
679.363	0.0170643
679.442	0.0170176
679.520	0.0170640
679.598	0.0170704
679.676	0.0169222
679.754	0.0169447
679.832	0.0170599
679.910	0.0170753
679.988	0.0170197
680.067	0.0170757
680.145	0.0171791
680.223	0.0169307
680.301	0.0170707
680.379	0.0170010
680.457	0.0172576
680.535	0.0170586
680.613	0.0170596
680.692	0.0170269
680.770	0.0169102
680.848	0.0168708
680.926	0.0169441
681.004	0.0170149
681.082	0.0168285
681.160	0.0167889
681.238	0.0169482
681.317	0.0167510
681.395	0.0168350
681.473	0.0168860
681.551	0.0169456
681.629	0.0168069
681.707	0.0168299
681.785	0.0169079
681.863	0.0167684
681.942	0.0168024
682.020	0.0168261
682.098	0.0168143
682.176	0.0168246
682.254	0.0169097
682.332	0.0168900
682.410	0.0168201
682.488	0.0168041
682.567	0.0169699
682.645	0.0169731
682.723	0.0169662
682.801	0.0169632
682.879	0.0168233
682.957	0.0168335
683.035	0.0168382
683.113	0.0167068
683.192	0.0166058
683.270	0.0167949
683.348	0.0166588
683.426	0.0167395
683.504	0.0167302
683.582	0.0167332
683.660	0.0166741
683.738	0.0169300
683.817	0.0168047
683.895	0.0168079
683.973	0.0167209
684.051	0.0169907
684.129	0.0168937
684.207	0.0169263
684.285	0.0169710
684.363	0.0167641
684.442	0.0168169
684.520	0.0170429
684.598	0.0168540
684.676	0.0168529
684.754	0.0169778
684.832	0.0170319
684.910	0.0168845
684.988	0.0169458
685.067	0.0168961
685.145	0.0169643
685.223	0.0169680
685.301	0.0169939
685.379	0.0170718
685.457	0.0170213
685.535	0.0169711
685.613	0.0172447
685.692	0.0170962
685.770	0.0171558
685.848	0.0171545
685.926	0.0171768
686.004	0.0172547
686.082	0.0172542
686.160	0.0172124
686.238	0.0172459
686.317	0.0171724
686.395	0.0173260
686.473	0.0172985
686.551	0.0171019
686.629	0.0173575
686.707	0.0172169
686.785	0.0172272
686.863	0.0171419
686.942	0.0172567
687.020	0.0171773
687.098	0.0171452
687.176	0.0171361
687.254	0.0171713
687.332	0.0173284
687.410	0.0171841
687.488	0.0171137
687.567	0.0172204
687.645	0.0172683
687.723	0.0172299
687.801	0.0172819
687.879	0.0173808
687.957	0.0173656
688.035	0.0173043
688.113	0.0172409
688.192	0.0173972
688.270	0.0173264
688.348	0.0172015
688.426	0.0171024
688.504	0.0170179
688.582	0.0170900
688.660	0.0169666
688.738	0.0170684
688.817	0.0169350
688.895	0.0169323
688.973	0.0169376
689.051	0.0168974
689.129	0.0168996
689.207	0.0170053
689.285	0.0168951
689.363	0.0168079
689.442	0.0167778
689.520	0.0169173
689.598	0.0169724
689.676	0.0170551
689.754	0.0170573
689.832	0.0170889
689.910	0.0171465
689.988	0.0171365
690.067	0.0171467
690.145	0.0172099
690.223	0.0172654
690.301	0.0172878
690.379	0.0173421
690.457	0.0171615
690.535	0.0172254
690.613	0.0171767
690.692	0.0173109
690.770	0.0173278
690.848	0.0171696
690.926	0.0172103
691.004	0.0173439
691.082	0.0172275
691.160	0.0171097
691.238	0.0172234
691.317	0.0172200
691.395	0.0171023
691.473	0.0171001
691.551	0.0170253
691.629	0.0172036
691.707	0.0171873
691.785	0.0171281
691.863	0.0169540
691.942	0.0169352
692.020	0.0169640
692.098	0.0170864
692.176	0.0168604
692.254	0.0168777
692.332	0.0168938
692.410	0.0168304
692.488	0.0167256
692.567	0.0168578
692.645	0.0168054
692.723	0.0168558
692.801	0.0169487
692.879	0.0168592
692.957	0.0169298
693.035	0.0169112
693.113	0.0170493
693.192	0.0171622
693.270	0.0171440
693.348	0.0170966
693.426	0.0172444
693.504	0.0173266
693.582	0.0171729
693.660	0.0171100
693.738	0.0171436
693.817	0.0172805
693.895	0.0173560
693.973	0.0172700
694.051	0.0172449
694.129	0.0173472
694.207	0.0172631
694.285	0.0171471
694.363	0.0171249
694.442	0.0173207
694.520	0.0171292
694.598	0.0170045
694.676	0.0169955
694.754	0.0170303
694.832	0.0170026
694.910	0.0170082
694.988	0.0170465
695.067	0.0171428
695.145	0.0170923
695.223	0.0170332
695.301	0.0172442
695.379	0.0172365
695.457	0.0171868
695.535	0.0172614
695.613	0.0173764
695.692	0.0173586
695.770	0.0174806
695.848	0.0174351
695.926	0.0172783
696.004	0.0175420
696.082	0.0175046
696.160	0.0173234
696.238	0.0173116
696.317	0.0174805
696.395	0.0173515
696.473	0.0172427
696.551	0.0172294
696.629	0.0172376
696.707	0.0172117
696.785	0.0169448
696.863	0.0171259
696.942	0.0171400
697.020	0.0170188
697.098	0.0170236
697.176	0.0170664
697.254	0.0170271
697.332	0.0170852
697.410	0.0171010
697.488	0.0171673
697.567	0.0171553
697.645	0.0171098
697.723	0.0172800
697.801	0.0172796
697.879	0.0171805
697.957	0.0171972
698.035	0.0172001
698.113	0.0171368
698.192	0.0171624
698.270	0.0171069
698.348	0.0172124
698.426	0.0171924
698.504	0.0172789
698.582	0.0172147
698.660	0.0171883
698.738	0.0171704
698.817	0.0172630
698.895	0.0170994
698.973	0.0171764
699.051	0.0170329
699.129	0.0170621
699.207	0.0170859
699.285	0.0169923
699.363	0.0172457
699.442	0.0170966
699.520	0.0170330
699.598	0.0171233
699.676	0.0171809
699.754	0.0170286
699.832	0.0169736
699.910	0.0170758
699.988	0.0169480
700.067	0.0169888
700.145	0.0169865
700.223	0.0169619
700.301	0.0169199
700.379	0.0166177
700.457	0.0167891
700.535	0.0166692
700.613	0.0166594
700.692	0.0167152
700.770	0.0167436
700.848	0.0166464
700.926	0.0165799
701.004	0.0167601
701.082	0.0166439
701.160	0.0167170
701.238	0.0168114
701.317	0.0168550
701.395	0.0167279
701.473	0.0169714
701.551	0.0169901
701.629	0.0169380
701.707	0.0170708
701.785	0.0170670
701.863	0.0171508
701.942	0.0171829
702.020	0.0172866
702.098	0.0172668
702.176	0.0172684
702.254	0.0171809
702.332	0.0172550
702.410	0.0173076
702.488	0.0172334
702.567	0.0173082
702.645	0.0173381
702.723	0.0172376
702.801	0.0173365
702.879	0.0172998
702.957	0.0173457
703.035	0.0172321
703.113	0.0173067
703.192	0.0172445
703.270	0.0170559
703.348	0.0171239
703.426	0.0170787
703.504	0.0171674
703.582	0.0171278
703.660	0.0169898
703.738	0.0171123
703.817	0.0170917
703.895	0.0169102
703.973	0.0169429
704.051	0.0170856
704.129	0.0169839
704.207	0.0170343
704.285	0.0169807
704.363	0.0169089
704.442	0.0170299
704.520	0.0169479
704.598	0.0168247
704.676	0.0166786
704.754	0.0166943
704.832	0.0166407
704.910	0.0166787
704.988	0.0167065
705.067	0.0167143
705.145	0.0167696
705.223	0.0168109
705.301	0.0167685
705.379	0.0167548
705.457	0.0166373
705.535	0.0167440
705.613	0.0167345
705.692	0.0166904
705.770	0.0167175
705.848	0.0166281
705.926	0.0167688
706.004	0.0168230
706.082	0.0167591
706.160	0.0168810
706.238	0.0169783
706.317	0.0170415
706.395	0.0170989
706.473	0.0169778
706.551	0.0169444
706.629	0.0170854
706.707	0.0170020
706.785	0.0169960
706.863	0.0172668
706.942	0.0171766
707.020	0.0172774
707.098	0.0172394
707.176	0.0171315
707.254	0.0173491
707.332	0.0172198
707.410	0.0171521
707.488	0.0171250
707.567	0.0172623
707.645	0.0172490
707.723	0.0172307
707.801	0.0170367
707.879	0.0171947
707.957	0.0171198
708.035	0.0170451
708.113	0.0170560
708.192	0.0170513
708.270	0.0171081
708.348	0.0170235
708.426	0.0170897
708.504	0.0171536
708.582	0.0171317
708.660	0.0171908
708.738	0.0171386
708.817	0.0170403
708.895	0.0170367
708.973	0.0169826
709.051	0.0169492
709.129	0.0171052
709.207	0.0170023
709.285	0.0168581
709.363	0.0169728
709.442	0.0169128
709.520	0.0171087
709.598	0.0168069
709.676	0.0167762
709.754	0.0166553
709.832	0.0167175
709.910	0.0166227
709.988	0.0165504
710.067	0.0165571
710.145	0.0164577
710.223	0.0164140
710.301	0.0163741
710.379	0.0164806
710.457	0.0164120
710.535	0.0165473
710.613	0.0165126
710.692	0.0165488
710.770	0.0163455
710.848	0.0166274
710.926	0.0164053
711.004	0.0164684
711.082	0.0165134
711.160	0.0165250
711.238	0.0167217
711.317	0.0166969
711.395	0.0167766
711.473	0.0168248
711.551	0.0169641
711.629	0.0170521
711.707	0.0170293
711.785	0.0171530
711.863	0.0172845
711.942	0.0173920
712.020	0.0174393
712.098	0.0176153
712.176	0.0175194
712.254	0.0176268
712.332	0.0176824
712.410	0.0176690
712.488	0.0176319
712.567	0.0176832
712.645	0.0177094
712.723	0.0176227
712.801	0.0177080
712.879	0.0176239
712.957	0.0176588
713.035	0.0174852
713.113	0.0177729
713.192	0.0175165
713.270	0.0174783
713.348	0.0174421
713.426	0.0173721
713.504	0.0174056
713.582	0.0171756
713.660	0.0171024
713.738	0.0171687
713.817	0.0171648
713.895	0.0169820
713.973	0.0168262
714.051	0.0166506
714.129	0.0166108
714.207	0.0168192
714.285	0.0163724
714.363	0.0164197
714.442	0.0164700
714.520	0.0163378
714.598	0.0162970
714.676	0.0164195
714.754	0.0163799
714.832	0.0164656
714.910	0.0164736
714.988	0.0163634
715.067	0.0166404
715.145	0.0165601
715.223	0.0166220
715.301	0.0166007
715.379	0.0166904
715.457	0.0167208
715.535	0.0168237
715.613	0.0169126
715.692	0.0170506
715.770	0.0169755
715.848	0.0171979
715.926	0.0172862
716.004	0.0172869
716.082	0.0173985
716.160	0.0173472
716.238	0.0175085
716.317	0.0175504
716.395	0.0176261
716.473	0.0178166
716.551	0.0176353
716.629	0.0177528
716.707	0.0177116
716.785	0.0177967
716.863	0.0177047
716.942	0.0177856
717.020	0.0177623
717.098	0.0176240
717.176	0.0177097
717.254	0.0178320
717.332	0.0178537
717.410	0.0178133
717.488	0.0176762
717.567	0.0177361
717.645	0.0177696
717.723	0.0178134
717.801	0.0178021
717.879	0.0178310
717.957	0.0178011
718.035	0.0178507
718.113	0.0177847
718.192	0.0176293
718.270	0.0177754
718.348	0.0176455
718.426	0.0175688
718.504	0.0176140
718.582	0.0173977
718.660	0.0173812
718.738	0.0174648
718.817	0.0172507
718.895	0.0171443
718.973	0.0171344
719.051	0.0171140
719.129	0.0172300
719.207	0.0171042
719.285	0.0171964
719.363	0.0171589
719.442	0.0173426
719.520	0.0173151
719.598	0.0173474
719.676	0.0173640
719.754	0.0173817
719.832	0.0173240
719.910	0.0172087
719.988	0.0171858
720.067	0.0173418
720.145	0.0174201
720.223	0.0171220
720.301	0.0173803
720.379	0.0171574
720.457	0.0172311
720.535	0.0170939
720.613	0.0170705
720.692	0.0170600
720.770	0.0169621
720.848	0.0170179
720.926	0.0168871
721.004	0.0168037
721.082	0.0168987
721.160	0.0170950
721.238	0.0169162
721.317	0.0168607
721.395	0.0168495
721.473	0.0169711
721.551	0.0169795
721.629	0.0168932
721.707	0.0170734
721.785	0.0169455
721.863	0.0171044
721.942	0.0170155
722.020	0.0169659
722.098	0.0170159
722.176	0.0168292
722.254	0.0168089
722.332	0.0169024
722.410	0.0169147
722.488	0.0168221
722.567	0.0168301
722.645	0.0168944
722.723	0.0168881
722.801	0.0169144
722.879	0.0169411
722.957	0.0169013
723.035	0.0168670
723.113	0.0169547
723.192	0.0170921
723.270	0.0169338
723.348	0.0168985
723.426	0.0169778
723.504	0.0170646
723.582	0.0169010
723.660	0.0168938
723.738	0.0170831
723.817	0.0171553
723.895	0.0169887
723.973	0.0168794
724.051	0.0169881
724.129	0.0168874
724.207	0.0168246
724.285	0.0167759
724.363	0.0167651
724.442	0.0167499
724.520	0.0167188
724.598	0.0166338
724.676	0.0168092
724.754	0.0167590
724.832	0.0166219
724.910	0.0167577
724.988	0.0168887
725.067	0.0167266
725.145	0.0167984
725.223	0.0168057
725.301	0.0168879
725.379	0.0169250
725.457	0.0168617
725.535	0.0169470
725.613	0.0169040
725.692	0.0171119
725.770	0.0170280
725.848	0.0169760
725.926	0.0170110
726.004	0.0170459
726.082	0.0169015
726.160	0.0170238
726.238	0.0170014
726.317	0.0168774
726.395	0.0167887
726.473	0.0169199
726.551	0.0167636
726.629	0.0166980
726.707	0.0166473
726.785	0.0167178
726.863	0.0166376
726.942	0.0166000
727.020	0.0166233
727.098	0.0164786
727.176	0.0167049
727.254	0.0166926
727.332	0.0167074
727.410	0.0166151
727.488	0.0166609
727.567	0.0167139
727.645	0.0167102
727.723	0.0165932
727.801	0.0167601
727.879	0.0168336
727.957	0.0167463
728.035	0.0168890
728.113	0.0168569
728.192	0.0170081
728.270	0.0170401
728.348	0.0170584
728.426	0.0170377
728.504	0.0170345
728.582	0.0170111
728.660	0.0171141
728.738	0.0172803
728.817	0.0171814
728.895	0.0171676
728.973	0.0171706
729.051	0.0171140
729.129	0.0172038
729.207	0.0171800
729.285	0.0171761
729.363	0.0170805
729.442	0.0171278
729.520	0.0172133
729.598	0.0171253
729.676	0.0171857
729.754	0.0171176
729.832	0.0171288
729.910	0.0170621
729.988	0.0170745
730.067	0.0171060
730.145	0.0171918
730.223	0.0169580
730.301	0.0168896
730.379	0.0169250
730.457	0.0169876
730.535	0.0167176
730.613	0.0167994
730.692	0.0167607
730.770	0.0166669
730.848	0.0166915
730.926	0.0165363
731.004	0.0166322
731.082	0.0166376
731.160	0.0162843
731.238	0.0164133
731.317	0.0164027
731.395	0.0165411
731.473	0.0163332
731.551	0.0163757
731.629	0.0164144
731.707	0.0164445
731.785	0.0165010
731.863	0.0163062
731.942	0.0164580
732.020	0.0166531
732.098	0.0165737
732.176	0.0166233
732.254	0.0165176
732.332	0.0166328
732.410	0.0166994
732.488	0.0167036
732.567	0.0166841
732.645	0.0166898
732.723	0.0166598
732.801	0.0167562
732.879	0.0167384
732.957	0.0166473
733.035	0.0167310
733.113	0.0168258
733.192	0.0168338
733.270	0.0169020
733.348	0.0168650
733.426	0.0169610
733.504	0.0169025
733.582	0.0169465
733.660	0.0170300
733.738	0.0170296
733.817	0.0171528
733.895	0.0170938
733.973	0.0172339
734.051	0.0171493
734.129	0.0171004
734.207	0.0171727
734.285	0.0172649
734.363	0.0171210
734.442	0.0169861
734.520	0.0170314
734.598	0.0170818
734.676	0.0170565
734.754	0.0171194
734.832	0.0170300
734.910	0.0170531
734.988	0.0171256
735.067	0.0171844
735.145	0.0171473
735.223	0.0171838
735.301	0.0170676
735.379	0.0172245
735.457	0.0172493
735.535	0.0172261
735.613	0.0171689
735.692	0.0172057
735.770	0.0173576
735.848	0.0173383
735.926	0.0172795
736.004	0.0172009
736.082	0.0173407
736.160	0.0172672
736.238	0.0172957
736.317	0.0174334
736.395	0.0174489
736.473	0.0173062
736.551	0.0172508
736.629	0.0174112
736.707	0.0173129
736.785	0.0172440
736.863	0.0174148
736.942	0.0172523
737.020	0.0173087
737.098	0.0172250
737.176	0.0173354
737.254	0.0171381
737.332	0.0172877
737.410	0.0173851
737.488	0.0172009
737.567	0.0171224
737.645	0.0172174
737.723	0.0172100
737.801	0.0170625
737.879	0.0168444
737.957	0.0169931
738.035	0.0169429
738.113	0.0169357
738.192	0.0169674
738.270	0.0170123
738.348	0.0169108
738.426	0.0168130
738.504	0.0169414
738.582	0.0168586
738.660	0.0167170
738.738	0.0167101
738.817	0.0167484
738.895	0.0166433
738.973	0.0167986
739.051	0.0168268
739.129	0.0167402
739.207	0.0167336
739.285	0.0166875
739.363	0.0167746
739.442	0.0167079
739.520	0.0166514
739.598	0.0165481
739.676	0.0167419
739.754	0.0165766
739.832	0.0166058
739.910	0.0165766
739.988	0.0165809
740.067	0.0164254
740.145	0.0164893
740.223	0.0166067
740.301	0.0164799
740.379	0.0165211
740.457	0.0166929
740.535	0.0166843
740.613	0.0166141
740.692	0.0166399
740.770	0.0166550
740.848	0.0167860
740.926	0.0167735
741.004	0.0170638
741.082	0.0169987
741.160	0.0167508
741.238	0.0170270
741.317	0.0169615
741.395	0.0170940
741.473	0.0172902
741.551	0.0170945
741.629	0.0171345
741.707	0.0173656
741.785	0.0172082
741.863	0.0171249
741.942	0.0172008
742.020	0.0172459
742.098	0.0173321
742.176	0.0171957
742.254	0.0172135
742.332	0.0171961
742.410	0.0172957
742.488	0.0173236
742.567	0.0172959
742.645	0.0175132
742.723	0.0174444
742.801	0.0174188
742.879	0.0174352
742.957	0.0172557
743.035	0.0174464
743.113	0.0175505
743.192	0.0175511
743.270	0.0175069
743.348	0.0175442
743.426	0.0175214
743.504	0.0174309
743.582	0.0174632
743.660	0.0174744
743.738	0.0175358
743.817	0.0175244
743.895	0.0174839
743.973	0.0174900
744.051	0.0175824
744.129	0.0174095
744.207	0.0172514
744.285	0.0173052
744.363	0.0173866
744.442	0.0173564
744.520	0.0172218
744.598	0.0172792
744.676	0.0173178
744.754	0.0170796
744.832	0.0169933
744.910	0.0170770
744.988	0.0170163
745.067	0.0169730
745.145	0.0168796
745.223	0.0169445
745.301	0.0170064
745.379	0.0168845
745.457	0.0167192
745.535	0.0167815
745.613	0.0167430
745.692	0.0168507
745.770	0.0168190
745.848	0.0167497
745.926	0.0165658
746.004	0.0165417
746.082	0.0166644
746.160	0.0165614
746.238	0.0165323
746.317	0.0164984
746.395	0.0164930
746.473	0.0164841
746.551	0.0166283
746.629	0.0163516
746.707	0.0165383
746.785	0.0165321
746.863	0.0164715
746.942	0.0163932
747.020	0.0164637
747.098	0.0165932
747.176	0.0165052
747.254	0.0165321
747.332	0.0165573
747.410	0.0166376
747.488	0.0167927
747.567	0.0167629
747.645	0.0168153
747.723	0.0168018
747.801	0.0167007
747.879	0.0169312
747.957	0.0170227
748.035	0.0169821
748.113	0.0170502
748.192	0.0170946
748.270	0.0171297
748.348	0.0172359
748.426	0.0172054
748.504	0.0172214
748.582	0.0172584
748.660	0.0173444
748.738	0.0173067
748.817	0.0173670
748.895	0.0172578
748.973	0.0173359
749.051	0.0174744
749.129	0.0175553
749.207	0.0173058
749.285	0.0175086
749.363	0.0175999
749.442	0.0175589
749.520	0.0175795
749.598	0.0177153
749.676	0.0174854
749.754	0.0175471
749.832	0.0175153
749.910	0.0175734
749.988	0.0175775
750.067	0.0175001
750.145	0.0175292
750.223	0.0174982
750.301	0.0173489
750.379	0.0175174
750.457	0.0174071
750.535	0.0173027
750.613	0.0173936
750.692	0.0172363
750.770	0.0172001
750.848	0.0171534
750.926	0.0170543
751.004	0.0169961
751.082	0.0168586
751.160	0.0168681
751.238	0.0168800
751.317	0.0168520
751.395	0.0168194
751.473	0.0169480
751.551	0.0167216
751.629	0.0167857
751.707	0.0167136
751.785	0.0166477
751.863	0.0166835
751.942	0.0165960
752.020	0.0165905
752.098	0.0166644
752.176	0.0164864
752.254	0.0164520
752.332	0.0164393
752.410	0.0163498
752.488	0.0165601
752.567	0.0164986
752.645	0.0165772
752.723	0.0165337
752.801	0.0163922
752.879	0.0164398
752.957	0.0166351
753.035	0.0166253
753.113	0.0165300
753.192	0.0166486
753.270	0.0167291
753.348	0.0168622
753.426	0.0168558
753.504	0.0168903
753.582	0.0169063
753.660	0.0170818
753.738	0.0171305
753.817	0.0171070
753.895	0.0172713
753.973	0.0171711
754.051	0.0171708
754.129	0.0171995
754.207	0.0172049
754.285	0.0173546
754.363	0.0173362
754.442	0.0172748
754.520	0.0173239
754.598	0.0171992
754.676	0.0171997
754.754	0.0172141
754.832	0.0172222
754.910	0.0172134
754.988	0.0171593
755.067	0.0171500
755.145	0.0171434
755.223	0.0170889
755.301	0.0169674
755.379	0.0170870
755.457	0.0170753
755.535	0.0169970
755.613	0.0171222
755.692	0.0171667
755.770	0.0171467
755.848	0.0169273
755.926	0.0171367
756.004	0.0170750
756.082	0.0172081
756.160	0.0170934
756.238	0.0172691
756.317	0.0172742
756.395	0.0171194
756.473	0.0170619
756.551	0.0170683
756.629	0.0170798
756.707	0.0170075
756.785	0.0170609
756.863	0.0172207
756.942	0.0170107
757.020	0.0168687
757.098	0.0169411
757.176	0.0168877
757.254	0.0167846
757.332	0.0168330
757.410	0.0170211
757.488	0.0170211
757.567	0.0168864
757.645	0.0169433
757.723	0.0169318
757.801	0.0169391
757.879	0.0170084
757.957	0.0169936
758.035	0.0169582
758.113	0.0171875
758.192	0.0170798
758.270	0.0171875
758.348	0.0171735
758.426	0.0170298
758.504	0.0171411
758.582	0.0172035
758.660	0.0171602
758.738	0.0171018
758.817	0.0171653
758.895	0.0171040
758.973	0.0172342
759.051	0.0172108
759.129	0.0170012
759.207	0.0169510
759.285	0.0170657
759.363	0.0172355
759.442	0.0170504
759.520	0.0171941
759.598	0.0171449
759.676	0.0170872
759.754	0.0171091
759.832	0.0170858
759.910	0.0170489
759.988	0.0170870
760.067	0.0169138
760.145	0.0170975
760.223	0.0169767
760.301	0.0170483
760.379	0.0170148
760.457	0.0169089
760.535	0.0170422
760.613	0.0170290
760.692	0.0171013
760.770	0.0171261
760.848	0.0171040
760.926	0.0170788
761.004	0.0171566
761.082	0.0172993
761.160	0.0171541
761.238	0.0171069
761.317	0.0170994
761.395	0.0172305
761.473	0.0171462
761.551	0.0172272
761.629	0.0171478
761.707	0.0171300
761.785	0.0170708
761.863	0.0171104
761.942	0.0169541
762.020	0.0168758
762.098	0.0169533
762.176	0.0168240
762.254	0.0166355
762.332	0.0167243
762.410	0.0166652
762.488	0.0164198
762.567	0.0164504
762.645	0.0165203
762.723	0.0164099
762.801	0.0162892
762.879	0.0163284
762.957	0.0164500
763.035	0.0164307
763.113	0.0163865
763.192	0.0166130
763.270	0.0165584
763.348	0.0165265
763.426	0.0164777
763.504	0.0166538
763.582	0.0167029
763.660	0.0166480
763.738	0.0167686
763.817	0.0167235
763.895	0.0168374
763.973	0.0167548
764.051	0.0167823
764.129	0.0167145
764.207	0.0168211
764.285	0.0167272
764.363	0.0167609
764.442	0.0167863
764.520	0.0168613
764.598	0.0167889
764.676	0.0167504
764.754	0.0168211
764.832	0.0167786
764.910	0.0168671
764.988	0.0169019
765.067	0.0168362
765.145	0.0170063
765.223	0.0168761
765.301	0.0168542
765.379	0.0170089
765.457	0.0169489
765.535	0.0169361
765.613	0.0168700
765.692	0.0169235
765.770	0.0171002
765.848	0.0170208
765.926	0.0171290
766.004	0.0170946
766.082	0.0171735
766.160	0.0171735
766.238	0.0171748
766.317	0.0172819
766.395	0.0172118
766.473	0.0173098
766.551	0.0171847
766.629	0.0171494
766.707	0.0171585
766.785	0.0172527
766.863	0.0173631
766.942	0.0172117
767.020	0.0172720
767.098	0.0172163
767.176	0.0171746
767.254	0.0173370
767.332	0.0171812
767.410	0.0172120
767.488	0.0171574
767.567	0.0170058
767.645	0.0171552
767.723	0.0170619
767.801	0.0168990
767.879	0.0170947
767.957	0.0170197
768.035	0.0171362
768.113	0.0170860
768.192	0.0168549
768.270	0.0171571
768.348	0.0170599
768.426	0.0171746
768.504	0.0172233
768.582	0.0173110
768.660	0.0172510
768.738	0.0172513
768.817	0.0173515
768.895	0.0172596
768.973	0.0173261
769.051	0.0172421
769.129	0.0172275
769.207	0.0173341
769.285	0.0173595
769.363	0.0173723
769.442	0.0173865
769.520	0.0174802
769.598	0.0174528
769.676	0.0174290
769.754	0.0174068
769.832	0.0172346
769.910	0.0173159
769.988	0.0173067
770.067	0.0174339
770.145	0.0173287
770.223	0.0172243
770.301	0.0172849
770.379	0.0173723
770.457	0.0173904
770.535	0.0173533
770.613	0.0173434
770.692	0.0173643
770.770	0.0173937
770.848	0.0174908
770.926	0.0175312
771.004	0.0175331
771.082	0.0174541
771.160	0.0173812
771.238	0.0174438
771.317	0.0173809
771.395	0.0173196
771.473	0.0172751
771.551	0.0172141
771.629	0.0170980
771.707	0.0171851
771.785	0.0170555
771.863	0.0171912
771.942	0.0171058
772.020	0.0169377
772.098	0.0170655
772.176	0.0170142
772.254	0.0169353
772.332	0.0169498
772.410	0.0170121
772.488	0.0170918
772.567	0.0170370
772.645	0.0170509
772.723	0.0170957
772.801	0.0170139
772.879	0.0169797
772.957	0.0170634
773.035	0.0171394
773.113	0.0170586
773.192	0.0171208
773.270	0.0170592
773.348	0.0170487
773.426	0.0169952
773.504	0.0170406
773.582	0.0170094
773.660	0.0168374
773.738	0.0168407
773.817	0.0168807
773.895	0.0168746
773.973	0.0168081
774.051	0.0167276
774.129	0.0169052
774.207	0.0168317
774.285	0.0167760
774.363	0.0168381
774.442	0.0167854
774.520	0.0165923
774.598	0.0166985
774.676	0.0167810
774.754	0.0167419
774.832	0.0167775
774.910	0.0168534
774.988	0.0168286
775.067	0.0166535
775.145	0.0167674
775.223	0.0167254
775.301	0.0167744
775.379	0.0167210
775.457	0.0167120
775.535	0.0167740
775.613	0.0168102
775.692	0.0168742
775.770	0.0168971
775.848	0.0167273
775.926	0.0168367
776.004	0.0167174
776.082	0.0168487
776.160	0.0168052
776.238	0.0169348
776.317	0.0169192
776.395	0.0169388
776.473	0.0170370
776.551	0.0169038
776.629	0.0169187
776.707	0.0170349
776.785	0.0169888
776.863	0.0169998
776.942	0.0169566
777.020	0.0171736
777.098	0.0170486
777.176	0.0168819
777.254	0.0170264
777.332	0.0170846
777.410	0.0169671
777.488	0.0168857
777.567	0.0169144
777.645	0.0168317
777.723	0.0170333
777.801	0.0168977
777.879	0.0168842
777.957	0.0167790
778.035	0.0168459
778.113	0.0168145
778.192	0.0168829
778.270	0.0167596
778.348	0.0167926
778.426	0.0168167
778.504	0.0168740
778.582	0.0169331
778.660	0.0167819
778.738	0.0168831
778.817	0.0167991
778.895	0.0169557
778.973	0.0169015
779.051	0.0168711
779.129	0.0170229
779.207	0.0170665
779.285	0.0169513
779.363	0.0168404
779.442	0.0170084
779.520	0.0170452
779.598	0.0170454
779.676	0.0169628
779.754	0.0169659
779.832	0.0170711
779.910	0.0169765
779.988	0.0169772
780.067	0.0169595
780.145	0.0171437
780.223	0.0169079
780.301	0.0170187
780.379	0.0170045
780.457	0.0169513
780.535	0.0171154
780.613	0.0171377
780.692	0.0171574
780.770	0.0171198
780.848	0.0172201
780.926	0.0171535
781.004	0.0172344
781.082	0.0172523
781.160	0.0172822
781.238	0.0173085
781.317	0.0173251
781.395	0.0174099
781.473	0.0172694
781.551	0.0173741
781.629	0.0172438
781.707	0.0173293
781.785	0.0173713
781.863	0.0175111
781.942	0.0174677
782.020	0.0173839
782.098	0.0175199
782.176	0.0175324
782.254	0.0176147
782.332	0.0175675
782.410	0.0176404
782.488	0.0175888
782.567	0.0174774
782.645	0.0175836
782.723	0.0176211
782.801	0.0176055
782.879	0.0175941
782.957	0.0175484
783.035	0.0176005
783.113	0.0176621
783.192	0.0177721
783.270	0.0176733
783.348	0.0176617
783.426	0.0177152
783.504	0.0175946
783.582	0.0175388
783.660	0.0175043
783.738	0.0176228
783.817	0.0175356
783.895	0.0175645
783.973	0.0173090
784.051	0.0173393
784.129	0.0173600
784.207	0.0174223
784.285	0.0173389
784.363	0.0172207
784.442	0.0172120
784.520	0.0172536
784.598	0.0171979
784.676	0.0171779
784.754	0.0171625
784.832	0.0170616
784.910	0.0170679
784.988	0.0170203
785.067	0.0170164
785.145	0.0169819
785.223	0.0168058
785.301	0.0167992
785.379	0.0167337
785.457	0.0168005
785.535	0.0167657
785.613	0.0168002
785.692	0.0167585
785.770	0.0165691
785.848	0.0166325
785.926	0.0164430
786.004	0.0166132
786.082	0.0165710
786.160	0.0165942
786.238	0.0164438
786.317	0.0164797
786.395	0.0165264
786.473	0.0165314
786.551	0.0163908
786.629	0.0164183
786.707	0.0165141
786.785	0.0165804
786.863	0.0165302
786.942	0.0165956
787.020	0.0165448
787.098	0.0166692
787.176	0.0166201
787.254	0.0167271
787.332	0.0167336
787.410	0.0166954
787.488	0.0166679
787.567	0.0167465
787.645	0.0167348
787.723	0.0166985
787.801	0.0168085
787.879	0.0167416
787.957	0.0168388
788.035	0.0169003
788.113	0.0168617
788.192	0.0168591
788.270	0.0168925
788.348	0.0169540
788.426	0.0169852
788.504	0.0169463
788.582	0.0170506
788.660	0.0168691
788.738	0.0170856
788.817	0.0170424
788.895	0.0170148
788.973	0.0170078
789.051	0.0170888
789.129	0.0172738
789.207	0.0171539
789.285	0.0172806
789.363	0.0172083
789.442	0.0172945
789.520	0.0172076
789.598	0.0171936
789.676	0.0171732
789.754	0.0172964
789.832	0.0172676
789.910	0.0172155
789.988	0.0174284
790.067	0.0173637
790.145	0.0173098
790.223	0.0172479
790.301	0.0173656
790.379	0.0172971
790.457	0.0172781
790.535	0.0174538
790.613	0.0174595
790.692	0.0174495
790.770	0.0173189
790.848	0.0173885
790.926	0.0173088
791.004	0.0172823
791.082	0.0174605
791.160	0.0174057
791.238	0.0173233
791.317	0.0173664
791.395	0.0170768
791.473	0.0172985
791.551	0.0173164
791.629	0.0172857
791.707	0.0171647
791.785	0.0172823
791.863	0.0172749
791.942	0.0171627
792.020	0.0172519
792.098	0.0172708
792.176	0.0172498
792.254	0.0173103
792.332	0.0171546
792.410	0.0173133
792.488	0.0173096
792.567	0.0171099
792.645	0.0172630
792.723	0.0172961
792.801	0.0172034
792.879	0.0173428
792.957	0.0173384
793.035	0.0172973
793.113	0.0171722
793.192	0.0172215
793.270	0.0172047
793.348	0.0170532
793.426	0.0172152
793.504	0.0171703
793.582	0.0170275
793.660	0.0171146
793.738	0.0170150
793.817	0.0172527
793.895	0.0171835
793.973	0.0170759
794.051	0.0171461
794.129	0.0172182
794.207	0.0171121
794.285	0.0171735
794.363	0.0172652
794.442	0.0171898
794.520	0.0172276
794.598	0.0171105
794.676	0.0171182
794.754	0.0172570
794.832	0.0173113
794.910	0.0171040
794.988	0.0170065
795.067	0.0171655
795.145	0.0170534
795.223	0.0171076
795.301	0.0170764
795.379	0.0171885
795.457	0.0169180
795.535	0.0170187
795.613	0.0171377
795.692	0.0171493
795.770	0.0169578
795.848	0.0169860
795.926	0.0171116
796.004	0.0170081
796.082	0.0169838
796.160	0.0170216
796.238	0.0170145
796.317	0.0168613
796.395	0.0169639
796.473	0.0170679
796.551	0.0169395
796.629	0.0168678
796.707	0.0169582
796.785	0.0169762
796.863	0.0169344
796.942	0.0169586
797.020	0.0169834
797.098	0.0169508
797.176	0.0170473
797.254	0.0170538
797.332	0.0169448
797.410	0.0169809
797.488	0.0168854
797.567	0.0169635
797.645	0.0170034
797.723	0.0168420
797.801	0.0170825
797.879	0.0170581
797.957	0.0170527
798.035	0.0171220
798.113	0.0171384
798.192	0.0169303
798.270	0.0169097
798.348	0.0171684
798.426	0.0170667
798.504	0.0170240
798.582	0.0170745
798.660	0.0172039
798.738	0.0170412
798.817	0.0170538
798.895	0.0170229
798.973	0.0170869
799.051	0.0170569
799.129	0.0168537
799.207	0.0169772
799.285	0.0169082
799.363	0.0170475
799.442	0.0168259
799.520	0.0167972
799.598	0.0168536
799.676	0.0168079
799.754	0.0168624
799.832	0.0167819
799.910	0.0167616
799.988	0.0168153
800.067	0.0169096
800.145	0.0169046
800.223	0.0168895
800.301	0.0168439
800.379	0.0169312
800.457	0.0169077
800.535	0.0169708
800.613	0.0170795
800.692	0.0170081
800.770	0.0169709
800.848	0.0170096
800.926	0.0171786
801.004	0.0170230
801.082	0.0171191
801.160	0.0169638
801.238	0.0167995
801.317	0.0168377
801.395	0.0168652
801.473	0.0167929
801.551	0.0170948
801.629	0.0169019
801.707	0.0169749
801.785	0.0169757
801.863	0.0170914
801.942	0.0169486
802.020	0.0169430
802.098	0.0168478
802.176	0.0169930
802.254	0.0170072
802.332	0.0169905
802.410	0.0169158
802.488	0.0167345
802.567	0.0169287
802.645	0.0171005
802.723	0.0170113
802.801	0.0168813
802.879	0.0169656
802.957	0.0168800
803.035	0.0169317
803.113	0.0169415
803.192	0.0168814
803.270	0.0170811
803.348	0.0170050
803.426	0.0168709
803.504	0.0169780
803.582	0.0169843
803.660	0.0171342
803.738	0.0170797
803.817	0.0171191
803.895	0.0170839
803.973	0.0170567
804.051	0.0171075
804.129	0.0170496
804.207	0.0171483
804.285	0.0172147
804.363	0.0171534
804.442	0.0172567
804.520	0.0170426
804.598	0.0170226
804.676	0.0171244
804.754	0.0170457
804.832	0.0173029
804.910	0.0171596
804.988	0.0171902
805.067	0.0170341
805.145	0.0171500
805.223	0.0171740
805.301	0.0172027
805.379	0.0171330
805.457	0.0173342
805.535	0.0172520
805.613	0.0172980
805.692	0.0172971
805.770	0.0171873
805.848	0.0172020
805.926	0.0172632
806.004	0.0173353
806.082	0.0171761
806.160	0.0172305
806.238	0.0172192
806.317	0.0172804
806.395	0.0172292
806.473	0.0172244
806.551	0.0171312
806.629	0.0171154
806.707	0.0170806
806.785	0.0170209
806.863	0.0170674
806.942	0.0168871
807.020	0.0169521
807.098	0.0168552
807.176	0.0167323
807.254	0.0167271
807.332	0.0168059
807.410	0.0167936
807.488	0.0167357
807.567	0.0166566
807.645	0.0168065
807.723	0.0167538
807.801	0.0168568
807.879	0.0168117
807.957	0.0167735
808.035	0.0167108
808.113	0.0168639
808.192	0.0168552
808.270	0.0169253
808.348	0.0168839
808.426	0.0170547
808.504	0.0170620
808.582	0.0170147
808.660	0.0170856
808.738	0.0171651
808.817	0.0173492
808.895	0.0172588
808.973	0.0172971
809.051	0.0174072
809.129	0.0174851
809.207	0.0174859
809.285	0.0173893
809.363	0.0175433
809.442	0.0175398
809.520	0.0176463
809.598	0.0175976
809.676	0.0175277
809.754	0.0174618
809.832	0.0176600
809.910	0.0174039
809.988	0.0174918
810.067	0.0174703
810.145	0.0175214
810.223	0.0172318
810.301	0.0174380
810.379	0.0173149
810.457	0.0171102
810.535	0.0172178
810.613	0.0171812
810.692	0.0169617
810.770	0.0169741
810.848	0.0169695
810.926	0.0166718
811.004	0.0167060
811.082	0.0167021
811.160	0.0166023
811.238	0.0166012
811.317	0.0164258
811.395	0.0166440
811.473	0.0165467
811.551	0.0167017
811.629	0.0166566
811.707	0.0165092
811.785	0.0166465
811.863	0.0166409
811.942	0.0167167
812.020	0.0168409
812.098	0.0169347
812.176	0.0168631
812.254	0.0169152
812.332	0.0169300
812.410	0.0169614
812.488	0.0170919
812.567	0.0171909
812.645	0.0171067
812.723	0.0173071
812.801	0.0173206
812.879	0.0172425
812.957	0.0174335
813.035	0.0173434
813.113	0.0174004
813.192	0.0174391
813.270	0.0175073
813.348	0.0174098
813.426	0.0174660
813.504	0.0173115
813.582	0.0176327
813.660	0.0174016
813.738	0.0173878
813.817	0.0174859
813.895	0.0174329
813.973	0.0173059
814.051	0.0171968
814.129	0.0171738
814.207	0.0173123
814.285	0.0173073
814.363	0.0172454
814.442	0.0170282
814.520	0.0170099
814.598	0.0169209
814.676	0.0170498
814.754	0.0168606
814.832	0.0169238
814.910	0.0168575
814.988	0.0168103
815.067	0.0168989
815.145	0.0169974
815.223	0.0168876
815.301	0.0167465
815.379	0.0168940
815.457	0.0167907
815.535	0.0168327
815.613	0.0168672
815.692	0.0168389
815.770	0.0168699
815.848	0.0169057
815.926	0.0168575
816.004	0.0168313
816.082	0.0169041
816.160	0.0170681
816.238	0.0168089
816.317	0.0167513
816.395	0.0168024
816.473	0.0169567
816.551	0.0168982
816.629	0.0168338
816.707	0.0169397
816.785	0.0170947
816.863	0.0169599
816.942	0.0170005
817.020	0.0170340
817.098	0.0169882
817.176	0.0170631
817.254	0.0170826
817.332	0.0171453
817.410	0.0171264
817.488	0.0169761
817.567	0.0170860
817.645	0.0172266
817.723	0.0170248
817.801	0.0171022
817.879	0.0171199
817.957	0.0171433
818.035	0.0171425
818.113	0.0172926
818.192	0.0173025
818.270	0.0172440
818.348	0.0173756
818.426	0.0172949
818.504	0.0172550
818.582	0.0173270
818.660	0.0172478
818.738	0.0173396
818.817	0.0173042
818.895	0.0172341
818.973	0.0172620
819.051	0.0173936
819.129	0.0172495
819.207	0.0172690
819.285	0.0172101
819.363	0.0172817
819.442	0.0172285
819.520	0.0171666
819.598	0.0171588
819.676	0.0172060
819.754	0.0171844
819.832	0.0172832
819.910	0.0171014
819.988	0.0171843
820.067	0.0170444
820.145	0.0172029
820.223	0.0171210
820.301	0.0170607
820.379	0.0171487
820.457	0.0170618
820.535	0.0171597
820.613	0.0171172
820.692	0.0171272
820.770	0.0171722
820.848	0.0169920
820.926	0.0170032
821.004	0.0169122
821.082	0.0170294
821.160	0.0169820
821.238	0.0170419
821.317	0.0169506
821.395	0.0170212
821.473	0.0169473
821.551	0.0168534
821.629	0.0170041
821.707	0.0169534
821.785	0.0169594
821.863	0.0169271
821.942	0.0169871
822.020	0.0169061
822.098	0.0169328
822.176	0.0169679
822.254	0.0170542
822.332	0.0168790
822.410	0.0168371
822.488	0.0169424
822.567	0.0168474
822.645	0.0168201
822.723	0.0167847
822.801	0.0168385
822.879	0.0168519
822.957	0.0169898
823.035	0.0168447
823.113	0.0168125
823.192	0.0170378
823.270	0.0169209
823.348	0.0168079
823.426	0.0169709
823.504	0.0170421
823.582	0.0168004
823.660	0.0168515
823.738	0.0170035
823.817	0.0168875
823.895	0.0169426
823.973	0.0168372
824.051	0.0169251
824.129	0.0169068
824.207	0.0168047
824.285	0.0168295
824.363	0.0167448
824.442	0.0167931
824.520	0.0169244
824.598	0.0169497
824.676	0.0168345
824.754	0.0168710
824.832	0.0168522
824.910	0.0167365
824.988	0.0168568
825.067	0.0168233
825.145	0.0169962
825.223	0.0170658
825.301	0.0168923
825.379	0.0169668
825.457	0.0171465
825.535	0.0170353
825.613	0.0171280
825.692	0.0172735
825.770	0.0170691
825.848	0.0169480
825.926	0.0171611
826.004	0.0171204
826.082	0.0171027
826.160	0.0171170
826.238	0.0171474
826.317	0.0169966
826.395	0.0171175
826.473	0.0171961
826.551	0.0170502
826.629	0.0171803
826.707	0.0170155
826.785	0.0169926
826.863	0.0170189
826.942	0.0170628
827.020	0.0170370
827.098	0.0169434
827.176	0.0168752
827.254	0.0169180
827.332	0.0170290
827.410	0.0170552
827.488	0.0170726
827.567	0.0169959
827.645	0.0170178
827.723	0.0170148
827.801	0.0169630
827.879	0.0169352
827.957	0.0169305
828.035	0.0167490
828.113	0.0168669
828.192	0.0167670
828.270	0.0167961
828.348	0.0168037
828.426	0.0166045
828.504	0.0167025
828.582	0.0166077
828.660	0.0166461
828.738	0.0167621
828.817	0.0166280
828.895	0.0166176
828.973	0.0165673
829.051	0.0166022
829.129	0.0165272
829.207	0.0165888
829.285	0.0166199
829.363	0.0165488
829.442	0.0165195
829.520	0.0167030
829.598	0.0167083
829.676	0.0166319
829.754	0.0166620
829.832	0.0167936
829.910	0.0167674
829.988	0.0168214
830.067	0.0167396
830.145	0.0166799
830.223	0.0169141
830.301	0.0168543
830.379	0.0169098
830.457	0.0169576
830.535	0.0169473
830.613	0.0169317
830.692	0.0170291
830.770	0.0171013
830.848	0.0170635
830.926	0.0170797
831.004	0.0170804
831.082	0.0170551
831.160	0.0171274
831.238	0.0173091
831.317	0.0172353
831.395	0.0172330
831.473	0.0171493
831.551	0.0171829
831.629	0.0172343
831.707	0.0171582
831.785	0.0171703
831.863	0.0172580
831.942	0.0172214
832.020	0.0172305
832.098	0.0171175
832.176	0.0170992
832.254	0.0171393
832.332	0.0171624
832.410	0.0171282
832.488	0.0171816
832.567	0.0170705
832.645	0.0170225
832.723	0.0171178
832.801	0.0170351
832.879	0.0168803
832.957	0.0169476
833.035	0.0168951
833.113	0.0169436
833.192	0.0169822
833.270	0.0169344
833.348	0.0168277
833.426	0.0169522
833.504	0.0169102
833.582	0.0167372
833.660	0.0166690
833.738	0.0168225
833.817	0.0168008
833.895	0.0167682
833.973	0.0167493
834.051	0.0168485
834.129	0.0169839
834.207	0.0167639
834.285	0.0168746
834.363	0.0167025
834.442	0.0169462
834.520	0.0170044
834.598	0.0169476
834.676	0.0170387
834.754	0.0170268
834.832	0.0170499
834.910	0.0170377
834.988	0.0170396
835.067	0.0171091
835.145	0.0171111
835.223	0.0170540
835.301	0.0171023
835.379	0.0171555
835.457	0.0172476
835.535	0.0170940
835.613	0.0170984
835.692	0.0172769
835.770	0.0171288
835.848	0.0171729
835.926	0.0172680
836.004	0.0171739
836.082	0.0173378
836.160	0.0170974
836.238	0.0170676
836.317	0.0171658
836.395	0.0172832
836.473	0.0170268
836.551	0.0172908
836.629	0.0172463
836.707	0.0172152
836.785	0.0172578
836.863	0.0175004
836.942	0.0172376
837.020	0.0170956
837.098	0.0172224
837.176	0.0173028
837.254	0.0171897
837.332	0.0172301
837.410	0.0171986
837.488	0.0171075
837.567	0.0172133
837.645	0.0172012
837.723	0.0171011
837.801	0.0170797
837.879	0.0172697
837.957	0.0169569
838.035	0.0170010
838.113	0.0170663
838.192	0.0170184
838.270	0.0169774
838.348	0.0169333
838.426	0.0170766
838.504	0.0170120
838.582	0.0170877
838.660	0.0171431
838.738	0.0172256
838.817	0.0171291
838.895	0.0170585
838.973	0.0172500
839.051	0.0172227
839.129	0.0171638
839.207	0.0171885
839.285	0.0171506
839.363	0.0170911
839.442	0.0170581
839.520	0.0170717
839.598	0.0171485
839.676	0.0171445
839.754	0.0170890
839.832	0.0169762
839.910	0.0169763
839.988	0.0169497
840.067	0.0170261
840.145	0.0168562
840.223	0.0169742
840.301	0.0168797
840.379	0.0169331
840.457	0.0170940
840.535	0.0170457
840.613	0.0169543
840.692	0.0168674
840.770	0.0169664
840.848	0.0169225
840.926	0.0169971
841.004	0.0168613
841.082	0.0168945
841.160	0.0168689
841.238	0.0167231
841.317	0.0167316
841.395	0.0168562
841.473	0.0167603
841.551	0.0166187
841.629	0.0165941
841.707	0.0165388
841.785	0.0166853
841.863	0.0166158
841.942	0.0166550
842.020	0.0165722
842.098	0.0165439
842.176	0.0165332
842.254	0.0164649
842.332	0.0165627
842.410	0.0165861
842.488	0.0165539
842.567	0.0164839
842.645	0.0165503
842.723	0.0166344
842.801	0.0166370
842.879	0.0164959
842.957	0.0164654
843.035	0.0167284
843.113	0.0165431
843.192	0.0166338
843.270	0.0166587
843.348	0.0166692
843.426	0.0167225
843.504	0.0168418
843.582	0.0165994
843.660	0.0166489
843.738	0.0168849
843.817	0.0168092
843.895	0.0167878
843.973	0.0167909
844.051	0.0166264
844.129	0.0167735
844.207	0.0166141
844.285	0.0166455
844.363	0.0167162
844.442	0.0167279
844.520	0.0166961
844.598	0.0166293
844.676	0.0167975
844.754	0.0169187
844.832	0.0168512
844.910	0.0167474
844.988	0.0168313
845.067	0.0168587
845.145	0.0168867
845.223	0.0168562
845.301	0.0168040
845.379	0.0168408
845.457	0.0169969
845.535	0.0167710
845.613	0.0168911
845.692	0.0168884
845.770	0.0169004
845.848	0.0170111
845.926	0.0167455
846.004	0.0168165
846.082	0.0169047
846.160	0.0169171
846.238	0.0167348
846.317	0.0167164
846.395	0.0168729
846.473	0.0169006
846.551	0.0169390
846.629	0.0167953
846.707	0.0167975
846.785	0.0167982
846.863	0.0166475
846.942	0.0168204
847.020	0.0168758
847.098	0.0168193
847.176	0.0168307
847.254	0.0169462
847.332	0.0169221
847.410	0.0169067
847.488	0.0170851
847.567	0.0170045
847.645	0.0170180
847.723	0.0170918
847.801	0.0171411
847.879	0.0171964
847.957	0.0172432
848.035	0.0172280
848.113	0.0171987
848.192	0.0171476
848.270	0.0173331
848.348	0.0171554
848.426	0.0173766
848.504	0.0173650
848.582	0.0172972
848.660	0.0172424
848.738	0.0173811
848.817	0.0173656
848.895	0.0173751
848.973	0.0174072
849.051	0.0173424
849.129	0.0174915
849.207	0.0173763
849.285	0.0173649
849.363	0.0173037
849.442	0.0173638
849.520	0.0174555
849.598	0.0173264
849.676	0.0173567
849.754	0.0172781
849.832	0.0173805
849.910	0.0174599
849.988	0.0173307
850.067	0.0173544
850.145	0.0172941
850.223	0.0173419
850.301	0.0173466
850.379	0.0173843
850.457	0.0172859
850.535	0.0171393
850.613	0.0172695
850.692	0.0172371
850.770	0.0170049
850.848	0.0170486
850.926	0.0170650
851.004	0.0169297
851.082	0.0168037
851.160	0.0168732
851.238	0.0169834
851.317	0.0167683
851.395	0.0166989
851.473	0.0166578
851.551	0.0166408
851.629	0.0164809
851.707	0.0165408
851.785	0.0165279
851.863	0.0163741
851.942	0.0163693
852.020	0.0165591
852.098	0.0165066
852.176	0.0163354
852.254	0.0163861
852.332	0.0164057
852.410	0.0164455
852.488	0.0164896
852.567	0.0163752
852.645	0.0163237
852.723	0.0165354
852.801	0.0166103
852.879	0.0166768
852.957	0.0165282
853.035	0.0167018
853.113	0.0167285
853.192	0.0166438
853.270	0.0168049
853.348	0.0167622
853.426	0.0168208
853.504	0.0168639
853.582	0.0168272
853.660	0.0166568
853.738	0.0170141
853.817	0.0168126
853.895	0.0169172
853.973	0.0168836
854.051	0.0168331
854.129	0.0169010
854.207	0.0169012
854.285	0.0168871
854.363	0.0169891
854.442	0.0168033
854.520	0.0167624
854.598	0.0171310
854.676	0.0169299
854.754	0.0168707
854.832	0.0169038
854.910	0.0170230
854.988	0.0169227
855.067	0.0168619
855.145	0.0167908
855.223	0.0167888
855.301	0.0168710
855.379	0.0167799
855.457	0.0167912
855.535	0.0167612
855.613	0.0168983
855.692	0.0167723
855.770	0.0167453
855.848	0.0167400
855.926	0.0167933
856.004	0.0168548
856.082	0.0168390
856.160	0.0168533
856.238	0.0169479
856.317	0.0170153
856.395	0.0169070
856.473	0.0169638
856.551	0.0172466
856.629	0.0172061
856.707	0.0172229
856.785	0.0171684
856.863	0.0170858
856.942	0.0173939
857.020	0.0172483
857.098	0.0173476
857.176	0.0174599
857.254	0.0174859
857.332	0.0173672
857.410	0.0173494
857.488	0.0174927
857.567	0.0175514
857.645	0.0174667
857.723	0.0174686
857.801	0.0173960
857.879	0.0175416
857.957	0.0177470
858.035	0.0175474
858.113	0.0175720
858.192	0.0174557
858.270	0.0176272
858.348	0.0175468
858.426	0.0176589
858.504	0.0175546
858.582	0.0175655
858.660	0.0175990
858.738	0.0175451
858.817	0.0176526
858.895	0.0175072
858.973	0.0175522
859.051	0.0175926
859.129	0.0175511
859.207	0.0175854
859.285	0.0174336
859.363	0.0173463
859.442	0.0175410
859.520	0.0175266
859.598	0.0172896
859.676	0.0172920
859.754	0.0173855
859.832	0.0173131
859.910	0.0172428
859.988	0.0171597
860.067	0.0171407
860.145	0.0171051
860.223	0.0171349
860.301	0.0171011
860.379	0.0170201
860.457	0.0169345
860.535	0.0169012
860.613	0.0168856
860.692	0.0166949
860.770	0.0169164
860.848	0.0167995
860.926	0.0168063
861.004	0.0165862
861.082	0.0166122
861.160	0.0166376
861.238	0.0165295
861.317	0.0165615
861.395	0.0165202
861.473	0.0166722
861.551	0.0165798
861.629	0.0166638
861.707	0.0165925
861.785	0.0165289
861.863	0.0164870
861.942	0.0164579
862.020	0.0165109
862.098	0.0164452
862.176	0.0164912
862.254	0.0165442
862.332	0.0164962
862.410	0.0164128
862.488	0.0164735
862.567	0.0163401
862.645	0.0164969
862.723	0.0165936
862.801	0.0166134
862.879	0.0165163
862.957	0.0165071
863.035	0.0165702
863.113	0.0165683
863.192	0.0166089
863.270	0.0166979
863.348	0.0165372
863.426	0.0165923
863.504	0.0166553
863.582	0.0166058
863.660	0.0165273
863.738	0.0167217
863.817	0.0167053
863.895	0.0166974
863.973	0.0168472
864.051	0.0168629
864.129	0.0168909
864.207	0.0168462
864.285	0.0170379
864.363	0.0169054
864.442	0.0168410
864.520	0.0169924
864.598	0.0169884
864.676	0.0170421
864.754	0.0171058
864.832	0.0171416
864.910	0.0170435
864.988	0.0171152
865.067	0.0169852
865.145	0.0169794
865.223	0.0171079
865.301	0.0171473
865.379	0.0170538
865.457	0.0171421
865.535	0.0171422
865.613	0.0170702
865.692	0.0172050
865.770	0.0171921
865.848	0.0172594
865.926	0.0173206
866.004	0.0172063
866.082	0.0172597
866.160	0.0173118
866.238	0.0173087
866.317	0.0172957
866.395	0.0173254
866.473	0.0172566
866.551	0.0173061
866.629	0.0172012
866.707	0.0173425
866.785	0.0172732
866.863	0.0173177
866.942	0.0174426
867.020	0.0173975
867.098	0.0173292
867.176	0.0172487
867.254	0.0173361
867.332	0.0174362
867.410	0.0173241
867.488	0.0172364
867.567	0.0174280
867.645	0.0174261
867.723	0.0174664
867.801	0.0173051
867.879	0.0172626
867.957	0.0173624
868.035	0.0173942
868.113	0.0172603
868.192	0.0171240
868.270	0.0172989
868.348	0.0172807
868.426	0.0172752
868.504	0.0173262
868.582	0.0171338
868.660	0.0172546
868.738	0.0173309
868.817	0.0172810
868.895	0.0173663
868.973	0.0172033
869.051	0.0173338
869.129	0.0173495
869.207	0.0171690
869.285	0.0171820
869.363	0.0173071
869.442	0.0171689
869.520	0.0173062
869.598	0.0173827
869.676	0.0173640
869.754	0.0173061
869.832	0.0171968
869.910	0.0171156
869.988	0.0172864
870.067	0.0172353
870.145	0.0170630
870.223	0.0171395
870.301	0.0170398
870.379	0.0170425
870.457	0.0168994
870.535	0.0169916
870.613	0.0168109
870.692	0.0168768
870.770	0.0167818
870.848	0.0166546
870.926	0.0168694
871.004	0.0168523
871.082	0.0167599
871.160	0.0167619
871.238	0.0167448
871.317	0.0167571
871.395	0.0168124
871.473	0.0167662
871.551	0.0166585
871.629	0.0169440
871.707	0.0169009
871.785	0.0168070
871.863	0.0168201
871.942	0.0167675
872.020	0.0169003
872.098	0.0168434
872.176	0.0170229
872.254	0.0171382
872.332	0.0170634
872.410	0.0170533
872.488	0.0170616
872.567	0.0170317
872.645	0.0169952
872.723	0.0170815
872.801	0.0171368
872.879	0.0169812
872.957	0.0168221
873.035	0.0170548
873.113	0.0171941
873.192	0.0169603
873.270	0.0169659
873.348	0.0168890
873.426	0.0168779
873.504	0.0168009
873.582	0.0170638
873.660	0.0169613
873.738	0.0169341
873.817	0.0169442
873.895	0.0170482
873.973	0.0170022
874.051	0.0170231
874.129	0.0170316
874.207	0.0169576
874.285	0.0171568
874.363	0.0170693
874.442	0.0169652
874.520	0.0170361
874.598	0.0170598
874.676	0.0170982
874.754	0.0168641
874.832	0.0171259
874.910	0.0169861
874.988	0.0170963
875.067	0.0171204
875.145	0.0168965
875.223	0.0171100
875.301	0.0170847
875.379	0.0172167
875.457	0.0171832
875.535	0.0173426
875.613	0.0172819
875.692	0.0172945
875.770	0.0173202
875.848	0.0172849
875.926	0.0173275
876.004	0.0173606
876.082	0.0173518
876.160	0.0173145
876.238	0.0173552
876.317	0.0173443
876.395	0.0174098
876.473	0.0172910
876.551	0.0172382
876.629	0.0172734
876.707	0.0171079
876.785	0.0172549
876.863	0.0173677
876.942	0.0172239
877.020	0.0173054
877.098	0.0173179
877.176	0.0172634
877.254	0.0172603
877.332	0.0173074
877.410	0.0171941
877.488	0.0171632
877.567	0.0170053
877.645	0.0172240
877.723	0.0172811
877.801	0.0172966
877.879	0.0172506
877.957	0.0172188
878.035	0.0171348
878.113	0.0171353
878.192	0.0171059
878.270	0.0171825
878.348	0.0169877
878.426	0.0171331
878.504	0.0171603
878.582	0.0172576
878.660	0.0171288
878.738	0.0170397
878.817	0.0170598
878.895	0.0170815
878.973	0.0171323
879.051	0.0170690
879.129	0.0171084
879.207	0.0170522
879.285	0.0169611
879.363	0.0170721
879.442	0.0169350
879.520	0.0170181
879.598	0.0169648
879.676	0.0168999
879.754	0.0169597
879.832	0.0169707
879.910	0.0168238
879.988	0.0168492
880.067	0.0170087
880.145	0.0168481
880.223	0.0168718
880.301	0.0169402
880.379	0.0169781
880.457	0.0169656
880.535	0.0170756
880.613	0.0169539
880.692	0.0169323
880.770	0.0171309
880.848	0.0170095
880.926	0.0169576
881.004	0.0170542
881.082	0.0170450
881.160	0.0169818
881.238	0.0169434
881.317	0.0170580
881.395	0.0170998
881.473	0.0170357
881.551	0.0168488
881.629	0.0170052
881.707	0.0168787
881.785	0.0168568
881.863	0.0167555
881.942	0.0169738
882.020	0.0169645
882.098	0.0168107
882.176	0.0167838
882.254	0.0168153
882.332	0.0168530
882.410	0.0170653
882.488	0.0170197
882.567	0.0168578
882.645	0.0169869
882.723	0.0170912
882.801	0.0169440
882.879	0.0169956
882.957	0.0171139
883.035	0.0169784
883.113	0.0170839
883.192	0.0169418
883.270	0.0169647
883.348	0.0171136
883.426	0.0170123
883.504	0.0170145
883.582	0.0170394
883.660	0.0171381
883.738	0.0170978
883.817	0.0173279
883.895	0.0170184
883.973	0.0170364
884.051	0.0171596
884.129	0.0171319
884.207	0.0171334
884.285	0.0170290
884.363	0.0172002
884.442	0.0172308
884.520	0.0172560
884.598	0.0172073
884.676	0.0171900
884.754	0.0172574
884.832	0.0173543
884.910	0.0172298
884.988	0.0173502
885.067	0.0174339
885.145	0.0173346
885.223	0.0174229
885.301	0.0174030
885.379	0.0173537
885.457	0.0175014
885.535	0.0173807
885.613	0.0175284
885.692	0.0175652
885.770	0.0173723
885.848	0.0174439
885.926	0.0174670
886.004	0.0173398
886.082	0.0174207
886.160	0.0173312
886.238	0.0173567
886.317	0.0174483
886.395	0.0174378
886.473	0.0173635
886.551	0.0173438
886.629	0.0174386
886.707	0.0171428
886.785	0.0172895
886.863	0.0174663
886.942	0.0172627
887.020	0.0173112
887.098	0.0172424
887.176	0.0171986
887.254	0.0172130
887.332	0.0170764
887.410	0.0169660
887.488	0.0171433
887.567	0.0172755
887.645	0.0171075
887.723	0.0170536
887.801	0.0171676
887.879	0.0171662
887.957	0.0171568
888.035	0.0170660
888.113	0.0170688
888.192	0.0171972
888.270	0.0170782
888.348	0.0170900
888.426	0.0172319
888.504	0.0173306
888.582	0.0171896
888.660	0.0170573
888.738	0.0171451
888.817	0.0172288
888.895	0.0174344
888.973	0.0171683
889.051	0.0171572
889.129	0.0172073
889.207	0.0171674
889.285	0.0172133
889.363	0.0174126
889.442	0.0173550
889.520	0.0172833
889.598	0.0172985
889.676	0.0173393
889.754	0.0174451
889.832	0.0173672
889.910	0.0174046
889.988	0.0175121
890.067	0.0174183
890.145	0.0172952
890.223	0.0173667
890.301	0.0173714
890.379	0.0173064
890.457	0.0172958
890.535	0.0173161
890.613	0.0173568
890.692	0.0172621
890.770	0.0173146
890.848	0.0174918
890.926	0.0173936
891.004	0.0174971
891.082	0.0175522
891.160	0.0174718
891.238	0.0174860
891.317	0.0176326
891.395	0.0175497
891.473	0.0175285
891.551	0.0174103
891.629	0.0174087
891.707	0.0174052
891.785	0.0173567
891.863	0.0173584
891.942	0.0173730
892.020	0.0173834
892.098	0.0172616
892.176	0.0173559
892.254	0.0173869
892.332	0.0172453
892.410	0.0172788
892.488	0.0172829
892.567	0.0173877
892.645	0.0173161
892.723	0.0172536
892.801	0.0172386
892.879	0.0171239
892.957	0.0172965
893.035	0.0171136
893.113	0.0172097
893.192	0.0172115
893.270	0.0171689
893.348	0.0171641
893.426	0.0170812
893.504	0.0171662
893.582	0.0172152
893.660	0.0171256
893.738	0.0171604
893.817	0.0171114
893.895	0.0172353
893.973	0.0172728
894.051	0.0172223
894.129	0.0171165
894.207	0.0170185
894.285	0.0170968
894.363	0.0169657
894.442	0.0170656
894.520	0.0170049
894.598	0.0170235
894.676	0.0170512
894.754	0.0169017
894.832	0.0168880
894.910	0.0169201
894.988	0.0168432
895.067	0.0170004
895.145	0.0169168
895.223	0.0169241
895.301	0.0168898
895.379	0.0169884
895.457	0.0170361
895.535	0.0169876
895.613	0.0169804
895.692	0.0169512
895.770	0.0169426
895.848	0.0170970
895.926	0.0169951
896.004	0.0170737
896.082	0.0170840
896.160	0.0170866
896.238	0.0171094
896.317	0.0170851
896.395	0.0171816
896.473	0.0171700
896.551	0.0171342
896.629	0.0171234
896.707	0.0171706
896.785	0.0172188
896.863	0.0171384
896.942	0.0170869
897.020	0.0170271
897.098	0.0172682
897.176	0.0171117
897.254	0.0170710
897.332	0.0169720
897.410	0.0172056
897.488	0.0170376
897.567	0.0171246
897.645	0.0171467
897.723	0.0170587
897.801	0.0170300
897.879	0.0169867
897.957	0.0170365
898.035	0.0170722
898.113	0.0168970
898.192	0.0170104
898.270	0.0170829
898.348	0.0169537
898.426	0.0170486
898.504	0.0169652
898.582	0.0170474
898.660	0.0172587
898.738	0.0171323
898.817	0.0171133
898.895	0.0169299
898.973	0.0170677
899.051	0.0170698
899.129	0.0171313
899.207	0.0170572
899.285	0.0169478
899.363	0.0170412
899.442	0.0170551
899.520	0.0170686
899.598	0.0169948
899.676	0.0170516
899.754	0.0167964
899.832	0.0170355
899.910	0.0169975
899.988	0.0170600
900.067	0.0169080
900.145	0.0167667
900.223	0.0167699
900.301	0.0169469
900.379	0.0166564
900.457	0.0165747
900.535	0.0166822
900.613	0.0166854
900.692	0.0165853
900.770	0.0165467
900.848	0.0164964
900.926	0.0164259
901.004	0.0163996
901.082	0.0164835
901.160	0.0164125
901.238	0.0163798
901.317	0.0163977
901.395	0.0163517
901.473	0.0163248
901.551	0.0163841
901.629	0.0163377
901.707	0.0162564
901.785	0.0163484
901.863	0.0163599
901.942	0.0163231
902.020	0.0163358
902.098	0.0164131
902.176	0.0164931
902.254	0.0165835
902.332	0.0165549
902.410	0.0164285
902.488	0.0166682
902.567	0.0166641
902.645	0.0166662
902.723	0.0167375
902.801	0.0167238
902.879	0.0167047
902.957	0.0167368
903.035	0.0166902
903.113	0.0166273
903.192	0.0167009
903.270	0.0167153
903.348	0.0167261
903.426	0.0167227
903.504	0.0168318
903.582	0.0168864
903.660	0.0169540
903.738	0.0170526
903.817	0.0171807
903.895	0.0172410
903.973	0.0172180
904.051	0.0173134
904.129	0.0172508
904.207	0.0173151
904.285	0.0173825
904.363	0.0173972
904.442	0.0173537
904.520	0.0173547
904.598	0.0172974
904.676	0.0172903
904.754	0.0174799
904.832	0.0173892
904.910	0.0173351
904.988	0.0173167
905.067	0.0172844
905.145	0.0174415
905.223	0.0173479
905.301	0.0174200
905.379	0.0173164
905.457	0.0173045
905.535	0.0172221
905.613	0.0171931
905.692	0.0173325
905.770	0.0172881
905.848	0.0172213
905.926	0.0171557
906.004	0.0172527
906.082	0.0173461
906.160	0.0172728
906.238	0.0173109
906.317	0.0174087
906.395	0.0172929
906.473	0.0173946
906.551	0.0172396
906.629	0.0173514
906.707	0.0172486
906.785	0.0174060
906.863	0.0173682
906.942	0.0173243
907.020	0.0173551
907.098	0.0172215
907.176	0.0175384
907.254	0.0172800
907.332	0.0172308
907.410	0.0173225
907.488	0.0172628
907.567	0.0171938
907.645	0.0171444
907.723	0.0171996
907.801	0.0172072
907.879	0.0172388
907.957	0.0171562
908.035	0.0170806
908.113	0.0171329
908.192	0.0172807
908.270	0.0172521
908.348	0.0172812
908.426	0.0172546
908.504	0.0172321
908.582	0.0171744
908.660	0.0171886
908.738	0.0171194
908.817	0.0171059
908.895	0.0170548
908.973	0.0169357
909.051	0.0170052
909.129	0.0170097
909.207	0.0168976
909.285	0.0169361
909.363	0.0168686
909.442	0.0168320
909.520	0.0167989
909.598	0.0167570
909.676	0.0168489
909.754	0.0167092
909.832	0.0168488
909.910	0.0166973
909.988	0.0166805
910.067	0.0167783
910.145	0.0166393
910.223	0.0167255
910.301	0.0166649
910.379	0.0166635
910.457	0.0168108
910.535	0.0167418
910.613	0.0168634
910.692	0.0167421
910.770	0.0166721
910.848	0.0166605
910.926	0.0168643
911.004	0.0167358
911.082	0.0168056
911.160	0.0167482
911.238	0.0166408
911.317	0.0167224
911.395	0.0167907
911.473	0.0168827
911.551	0.0167189
911.629	0.0167354
911.707	0.0168169
911.785	0.0169537
911.863	0.0169662
911.942	0.0170458
912.020	0.0169324
912.098	0.0169511
912.176	0.0168480
912.254	0.0170560
912.332	0.0169733
912.410	0.0169078
912.488	0.0168762
912.567	0.0168102
912.645	0.0166800
912.723	0.0169125
912.801	0.0167567
912.879	0.0168320
912.957	0.0167637
913.035	0.0168288
913.113	0.0167724
913.192	0.0168088
913.270	0.0167536
913.348	0.0168518
913.426	0.0169285
913.504	0.0168259
913.582	0.0167890
913.660	0.0168739
913.738	0.0168179
913.817	0.0168874
913.895	0.0168285
913.973	0.0169093
914.051	0.0169334
914.129	0.0168030
914.207	0.0167056
914.285	0.0168847
914.363	0.0168467
914.442	0.0167649
914.520	0.0168437
914.598	0.0168987
914.676	0.0169430
914.754	0.0168345
914.832	0.0170058
914.910	0.0168810
914.988	0.0168400
915.067	0.0170763
915.145	0.0170995
915.223	0.0169873
915.301	0.0171621
915.379	0.0170619
915.457	0.0170335
915.535	0.0172374
915.613	0.0171010
915.692	0.0171918
915.770	0.0173035
915.848	0.0173341
915.926	0.0171375
916.004	0.0172919
916.082	0.0172702
916.160	0.0171297
916.238	0.0173056
916.317	0.0173228
916.395	0.0172400
916.473	0.0173496
916.551	0.0173273
916.629	0.0174117
916.707	0.0171686
916.785	0.0172782
916.863	0.0172231
916.942	0.0172782
917.020	0.0172712
917.098	0.0172453
917.176	0.0173803
917.254	0.0172448
917.332	0.0171921
917.410	0.0173306
917.488	0.0172371
917.567	0.0173181
917.645	0.0173919
917.723	0.0172664
917.801	0.0173149
917.879	0.0173466
917.957	0.0171671
918.035	0.0171667
918.113	0.0173193
918.192	0.0173385
918.270	0.0172146
918.348	0.0171357
918.426	0.0172873
918.504	0.0172632
918.582	0.0171035
918.660	0.0170700
918.738	0.0171841
918.817	0.0171557
918.895	0.0170383
918.973	0.0170251
919.051	0.0170135
919.129	0.0171449
919.207	0.0170651
919.285	0.0168950
919.363	0.0169794
919.442	0.0170081
919.520	0.0169564
919.598	0.0170890
919.676	0.0169509
919.754	0.0171066
919.832	0.0170119
919.910	0.0171172
