06/01/2022	22:19:09	Ver.	4.1	UNKNOWN
Optical Delay	599.988409	Delta X		0.078125	Sweeps	1	Scan Rate	0/0
Coordinates	Axis 1	NaN	Axis 2	NaN	Axis 3	NaN	Axis 4	NaN	Axis 5	NaN	Axis 6	0.000000
TX Power	0.000000	RX Power	0.000000

599.988	0.0168115
600.067	0.0165565
600.145	0.0166872
600.223	0.0165164
600.301	0.0167342
600.379	0.0165615
600.457	0.0165679
600.535	0.0166290
600.613	0.0166084
600.692	0.0165644
600.770	0.0167165
600.848	0.0165318
600.926	0.0165445
601.004	0.0166841
601.082	0.0166143
601.160	0.0165814
601.238	0.0166006
601.317	0.0166581
601.395	0.0166060
601.473	0.0166534
601.551	0.0168111
601.629	0.0167376
601.707	0.0165929
601.785	0.0168742
601.863	0.0168764
601.942	0.0168378
602.020	0.0167493
602.098	0.0167982
602.176	0.0168393
602.254	0.0167749
602.332	0.0168786
602.410	0.0168212
602.488	0.0168736
602.567	0.0168829
602.645	0.0167998
602.723	0.0168604
602.801	0.0167852
602.879	0.0167242
602.957	0.0167023
603.035	0.0167374
603.113	0.0168027
603.192	0.0167743
603.270	0.0166425
603.348	0.0167200
603.426	0.0165755
603.504	0.0168103
603.582	0.0166811
603.660	0.0166283
603.738	0.0167461
603.817	0.0166515
603.895	0.0166732
603.973	0.0166374
604.051	0.0167247
604.129	0.0168107
604.207	0.0167886
604.285	0.0167049
604.363	0.0167188
604.442	0.0167674
604.520	0.0167043
604.598	0.0167648
604.676	0.0167446
604.754	0.0167207
604.832	0.0168393
604.910	0.0166837
604.988	0.0166138
605.067	0.0166954
605.145	0.0166685
605.223	0.0167616
605.301	0.0167772
605.379	0.0166735
605.457	0.0166795
605.535	0.0167293
605.613	0.0166194
605.692	0.0167474
605.770	0.0166283
605.848	0.0166847
605.926	0.0166499
606.004	0.0165476
606.082	0.0166039
606.160	0.0165455
606.238	0.0166843
606.317	0.0166901
606.395	0.0167461
606.473	0.0166953
606.551	0.0168514
606.629	0.0168590
606.707	0.0167636
606.785	0.0167444
606.863	0.0167528
606.942	0.0168012
607.020	0.0166866
607.098	0.0169197
607.176	0.0168980
607.254	0.0168105
607.332	0.0169665
607.410	0.0168597
607.488	0.0168933
607.567	0.0168903
607.645	0.0168583
607.723	0.0170263
607.801	0.0169881
607.879	0.0169604
607.957	0.0170716
608.035	0.0170435
608.113	0.0170384
608.192	0.0171419
608.270	0.0170356
608.348	0.0170386
608.426	0.0169556
608.504	0.0169068
608.582	0.0170037
608.660	0.0170889
608.738	0.0170627
608.817	0.0169707
608.895	0.0169698
608.973	0.0169879
609.051	0.0170613
609.129	0.0169469
609.207	0.0170300
609.285	0.0170515
609.363	0.0170589
609.442	0.0171578
609.520	0.0169269
609.598	0.0169458
609.676	0.0171239
609.754	0.0171542
609.832	0.0171524
609.910	0.0170480
609.988	0.0171554
610.067	0.0173209
610.145	0.0171381
610.223	0.0172984
610.301	0.0172429
610.379	0.0173467
610.457	0.0172932
610.535	0.0173296
610.613	0.0172970
610.692	0.0173489
610.770	0.0172256
610.848	0.0173556
610.926	0.0174723
611.004	0.0174539
611.082	0.0175646
611.160	0.0174959
611.238	0.0174976
611.317	0.0173102
611.395	0.0174233
611.473	0.0174829
611.551	0.0174624
611.629	0.0174660
611.707	0.0175174
611.785	0.0174536
611.863	0.0175527
611.942	0.0174307
612.020	0.0174078
612.098	0.0174313
612.176	0.0174181
612.254	0.0174686
612.332	0.0173426
612.410	0.0173682
612.488	0.0175389
612.567	0.0174027
612.645	0.0173966
612.723	0.0174369
612.801	0.0174297
612.879	0.0173413
612.957	0.0174828
613.035	0.0175208
613.113	0.0173547
613.192	0.0173378
613.270	0.0174596
613.348	0.0173146
613.426	0.0173392
613.504	0.0174426
613.582	0.0173273
613.660	0.0173971
613.738	0.0174892
613.817	0.0174522
613.895	0.0173115
613.973	0.0172477
614.051	0.0172080
614.129	0.0172706
614.207	0.0172495
614.285	0.0172814
614.363	0.0171809
614.442	0.0170307
614.520	0.0170639
614.598	0.0168679
614.676	0.0170341
614.754	0.0170961
614.832	0.0169993
614.910	0.0168178
614.988	0.0167358
615.067	0.0168033
615.145	0.0166798
615.223	0.0166875
615.301	0.0166567
615.379	0.0165932
615.457	0.0164121
615.535	0.0164278
615.613	0.0164678
615.692	0.0162707
615.770	0.0163476
615.848	0.0161208
615.926	0.0161195
616.004	0.0161237
616.082	0.0161534
616.160	0.0162231
616.238	0.0161486
616.317	0.0161933
616.395	0.0161111
616.473	0.0162557
616.551	0.0162065
616.629	0.0162878
616.707	0.0161385
616.785	0.0161339
616.863	0.0161597
616.942	0.0162508
617.020	0.0162357
617.098	0.0164273
617.176	0.0163894
617.254	0.0163242
617.332	0.0164748
617.410	0.0164615
617.488	0.0165365
617.567	0.0165279
617.645	0.0165829
617.723	0.0167159
617.801	0.0166939
617.879	0.0168581
617.957	0.0167905
618.035	0.0169124
618.113	0.0168895
618.192	0.0168836
618.270	0.0168875
618.348	0.0169386
618.426	0.0170174
618.504	0.0169720
618.582	0.0170164
618.660	0.0169231
618.738	0.0171494
618.817	0.0171432
618.895	0.0170745
618.973	0.0170198
619.051	0.0171582
619.129	0.0170228
619.207	0.0169602
619.285	0.0170708
619.363	0.0170818
619.442	0.0169668
619.520	0.0170503
619.598	0.0169323
619.676	0.0168282
619.754	0.0169684
619.832	0.0167522
619.910	0.0168033
619.988	0.0167847
620.067	0.0169012
620.145	0.0167121
620.223	0.0168199
620.301	0.0168004
620.379	0.0167068
620.457	0.0167928
620.535	0.0168614
620.613	0.0167921
620.692	0.0168864
620.770	0.0166592
620.848	0.0167003
620.926	0.0168606
621.004	0.0170283
621.082	0.0168506
621.160	0.0167326
621.238	0.0169329
621.317	0.0169106
621.395	0.0169730
621.473	0.0169893
621.551	0.0170863
621.629	0.0169909
621.707	0.0171209
621.785	0.0170235
621.863	0.0170018
621.942	0.0170791
622.020	0.0171987
622.098	0.0169379
622.176	0.0170332
622.254	0.0170589
622.332	0.0170883
622.410	0.0171741
622.488	0.0171279
622.567	0.0171307
622.645	0.0171465
622.723	0.0171846
622.801	0.0171941
622.879	0.0173110
622.957	0.0172187
623.035	0.0171491
623.113	0.0171257
623.192	0.0170758
623.270	0.0170383
623.348	0.0171297
623.426	0.0170788
623.504	0.0171116
623.582	0.0171798
623.660	0.0170826
623.738	0.0170425
623.817	0.0170960
623.895	0.0169887
623.973	0.0170319
624.051	0.0171442
624.129	0.0171198
624.207	0.0170015
624.285	0.0171413
624.363	0.0170979
624.442	0.0170400
624.520	0.0172285
624.598	0.0171690
624.676	0.0171246
624.754	0.0172611
624.832	0.0169567
624.910	0.0170365
624.988	0.0170663
625.067	0.0172313
625.145	0.0170708
625.223	0.0169477
625.301	0.0169788
625.379	0.0171269
625.457	0.0170482
625.535	0.0170052
625.613	0.0170666
625.692	0.0169048
625.770	0.0170592
625.848	0.0169600
625.926	0.0167336
626.004	0.0168900
626.082	0.0167688
626.160	0.0168694
626.238	0.0167825
626.317	0.0167873
626.395	0.0166354
626.473	0.0167988
626.551	0.0167860
626.629	0.0167900
626.707	0.0167538
626.785	0.0166134
626.863	0.0169255
626.942	0.0166549
627.020	0.0167338
627.098	0.0167999
627.176	0.0167879
627.254	0.0167350
627.332	0.0167873
627.410	0.0167504
627.488	0.0166817
627.567	0.0167061
627.645	0.0166734
627.723	0.0165821
627.801	0.0166470
627.879	0.0167107
627.957	0.0166687
628.035	0.0166309
628.113	0.0166072
628.192	0.0166170
628.270	0.0166130
628.348	0.0167300
628.426	0.0165869
628.504	0.0166443
628.582	0.0165438
628.660	0.0166160
628.738	0.0166254
628.817	0.0166879
628.895	0.0166810
628.973	0.0166965
629.051	0.0167209
629.129	0.0164767
629.207	0.0167455
629.285	0.0167524
629.363	0.0166313
629.442	0.0168575
629.520	0.0168175
629.598	0.0168398
629.676	0.0169770
629.754	0.0168272
629.832	0.0168916
629.910	0.0169014
629.988	0.0167934
630.067	0.0168895
630.145	0.0170265
630.223	0.0170653
630.301	0.0169293
630.379	0.0169801
630.457	0.0171657
630.535	0.0171220
630.613	0.0170908
630.692	0.0171627
630.770	0.0170475
630.848	0.0172188
630.926	0.0172152
631.004	0.0173209
631.082	0.0171964
631.160	0.0172498
631.238	0.0172343
631.317	0.0172128
631.395	0.0172071
631.473	0.0172316
631.551	0.0171107
631.629	0.0171578
631.707	0.0172118
631.785	0.0171728
631.863	0.0171330
631.942	0.0170436
632.020	0.0171734
632.098	0.0169481
632.176	0.0171925
632.254	0.0170383
632.332	0.0170611
632.410	0.0168839
632.488	0.0169030
632.567	0.0170603
632.645	0.0169749
632.723	0.0168713
632.801	0.0169524
632.879	0.0171004
632.957	0.0169747
633.035	0.0168850
633.113	0.0170438
633.192	0.0170551
633.270	0.0169129
633.348	0.0169478
633.426	0.0170312
633.504	0.0170620
633.582	0.0172404
633.660	0.0169647
633.738	0.0170074
633.817	0.0170640
633.895	0.0171285
633.973	0.0170547
634.051	0.0169858
634.129	0.0170617
634.207	0.0170963
634.285	0.0171304
634.363	0.0171119
634.442	0.0171719
634.520	0.0172711
634.598	0.0172252
634.676	0.0170571
634.754	0.0171005
634.832	0.0169589
634.910	0.0172527
634.988	0.0173687
635.067	0.0171222
635.145	0.0172469
635.223	0.0172961
635.301	0.0172377
635.379	0.0172462
635.457	0.0172561
635.535	0.0173419
635.613	0.0171086
635.692	0.0172876
635.770	0.0171861
635.848	0.0172842
635.926	0.0172610
636.004	0.0171703
636.082	0.0171605
636.160	0.0170902
636.238	0.0171625
636.317	0.0172271
636.395	0.0169946
636.473	0.0170737
636.551	0.0169599
636.629	0.0170928
636.707	0.0172500
636.785	0.0169753
636.863	0.0169701
636.942	0.0169218
637.020	0.0169945
637.098	0.0169930
637.176	0.0170974
637.254	0.0170452
637.332	0.0169408
637.410	0.0170409
637.488	0.0170966
637.567	0.0170539
637.645	0.0170407
637.723	0.0169538
637.801	0.0171548
637.879	0.0169945
637.957	0.0171623
638.035	0.0170999
638.113	0.0169973
638.192	0.0170473
638.270	0.0171072
638.348	0.0169392
638.426	0.0170155
638.504	0.0169955
638.582	0.0169400
638.660	0.0167088
638.738	0.0169506
638.817	0.0168411
638.895	0.0168179
638.973	0.0168693
639.051	0.0167892
639.129	0.0166879
639.207	0.0168680
639.285	0.0167542
639.363	0.0167836
639.442	0.0168437
639.520	0.0168267
639.598	0.0169312
639.676	0.0168676
639.754	0.0166985
639.832	0.0167431
639.910	0.0167385
639.988	0.0167505
640.067	0.0167176
640.145	0.0167928
640.223	0.0169439
640.301	0.0168585
640.379	0.0165521
640.457	0.0168342
640.535	0.0166826
640.613	0.0166261
640.692	0.0167377
640.770	0.0168668
640.848	0.0167314
640.926	0.0165956
641.004	0.0167079
641.082	0.0167377
641.160	0.0167010
641.238	0.0166044
641.317	0.0167031
641.395	0.0166525
641.473	0.0165514
641.551	0.0166599
641.629	0.0166166
641.707	0.0168133
641.785	0.0167343
641.863	0.0165642
641.942	0.0167229
642.020	0.0167230
642.098	0.0168226
642.176	0.0168384
642.254	0.0169007
642.332	0.0168118
642.410	0.0167813
642.488	0.0167757
642.567	0.0168380
642.645	0.0168547
642.723	0.0168248
642.801	0.0168610
642.879	0.0168839
642.957	0.0168772
643.035	0.0169146
643.113	0.0170119
643.192	0.0169099
643.270	0.0169653
643.348	0.0167035
643.426	0.0170126
643.504	0.0170415
643.582	0.0170741
643.660	0.0170895
643.738	0.0169173
643.817	0.0170931
643.895	0.0170284
643.973	0.0171484
644.051	0.0171674
644.129	0.0171347
644.207	0.0170289
644.285	0.0170420
644.363	0.0171016
644.442	0.0171126
644.520	0.0170808
644.598	0.0170172
644.676	0.0169308
644.754	0.0170007
644.832	0.0168960
644.910	0.0169096
644.988	0.0169205
645.067	0.0169086
645.145	0.0168658
645.223	0.0169852
645.301	0.0169240
645.379	0.0168689
645.457	0.0169356
645.535	0.0168713
645.613	0.0168831
645.692	0.0169759
645.770	0.0168368
645.848	0.0168200
645.926	0.0167531
646.004	0.0168612
646.082	0.0168102
646.160	0.0168485
646.238	0.0168906
646.317	0.0168661
646.395	0.0167573
646.473	0.0167817
646.551	0.0169150
646.629	0.0168300
646.707	0.0168693
646.785	0.0169016
646.863	0.0169296
646.942	0.0167717
647.020	0.0168660
647.098	0.0168779
647.176	0.0169293
647.254	0.0169410
647.332	0.0169428
647.410	0.0168981
647.488	0.0172202
647.567	0.0171192
647.645	0.0169501
647.723	0.0169865
647.801	0.0170766
647.879	0.0170290
647.957	0.0169811
648.035	0.0170137
648.113	0.0168591
648.192	0.0169454
648.270	0.0170686
648.348	0.0168954
648.426	0.0170002
648.504	0.0170008
648.582	0.0168857
648.660	0.0169327
648.738	0.0168502
648.817	0.0170425
648.895	0.0170595
648.973	0.0169424
649.051	0.0171177
649.129	0.0170971
649.207	0.0171124
649.285	0.0170971
649.363	0.0171442
649.442	0.0171689
649.520	0.0172119
649.598	0.0170827
649.676	0.0170950
649.754	0.0170233
649.832	0.0170686
649.910	0.0170078
649.988	0.0171156
650.067	0.0171136
650.145	0.0170827
650.223	0.0169150
650.301	0.0170188
650.379	0.0169174
650.457	0.0169633
650.535	0.0169946
650.613	0.0168750
650.692	0.0169021
650.770	0.0170786
650.848	0.0170556
650.926	0.0169614
651.004	0.0168158
651.082	0.0168030
651.160	0.0167491
651.238	0.0168464
651.317	0.0168259
651.395	0.0168390
651.473	0.0168348
651.551	0.0167668
651.629	0.0167789
651.707	0.0167966
651.785	0.0167683
651.863	0.0167011
651.942	0.0168317
652.020	0.0168061
652.098	0.0167383
652.176	0.0166527
652.254	0.0167696
652.332	0.0168563
652.410	0.0167385
652.488	0.0168331
652.567	0.0167809
652.645	0.0166642
652.723	0.0167938
652.801	0.0168341
652.879	0.0169343
652.957	0.0170201
653.035	0.0170584
653.113	0.0169472
653.192	0.0169781
653.270	0.0170103
653.348	0.0170787
653.426	0.0170959
653.504	0.0171387
653.582	0.0172424
653.660	0.0172343
653.738	0.0170712
653.817	0.0171058
653.895	0.0172507
653.973	0.0172524
654.051	0.0172121
654.129	0.0172259
654.207	0.0171164
654.285	0.0170889
654.363	0.0171365
654.442	0.0170753
654.520	0.0171458
654.598	0.0171248
654.676	0.0170547
654.754	0.0169385
654.832	0.0169186
654.910	0.0172397
654.988	0.0170543
655.067	0.0170110
655.145	0.0169450
655.223	0.0168882
655.301	0.0171463
655.379	0.0170290
655.457	0.0171127
655.535	0.0170221
655.613	0.0170441
655.692	0.0170152
655.770	0.0166956
655.848	0.0167542
655.926	0.0168153
656.004	0.0168575
656.082	0.0166608
656.160	0.0167616
656.238	0.0167398
656.317	0.0165871
656.395	0.0164999
656.473	0.0165229
656.551	0.0166065
656.629	0.0165538
656.707	0.0165305
656.785	0.0164332
656.863	0.0166359
656.942	0.0164970
657.020	0.0164556
657.098	0.0164292
657.176	0.0163988
657.254	0.0164966
657.332	0.0164907
657.410	0.0165611
657.488	0.0166185
657.567	0.0165038
657.645	0.0165056
657.723	0.0166913
657.801	0.0167741
657.879	0.0166034
657.957	0.0166565
658.035	0.0165697
658.113	0.0167001
658.192	0.0166715
658.270	0.0166403
658.348	0.0166975
658.426	0.0167994
658.504	0.0166886
658.582	0.0166515
658.660	0.0166064
658.738	0.0166691
658.817	0.0167820
658.895	0.0166594
658.973	0.0167410
659.051	0.0167613
659.129	0.0168127
659.207	0.0169244
659.285	0.0168917
659.363	0.0168282
659.442	0.0168774
659.520	0.0168308
659.598	0.0168829
659.676	0.0169545
659.754	0.0168930
659.832	0.0168666
659.910	0.0169648
659.988	0.0168066
660.067	0.0169000
660.145	0.0167001
660.223	0.0167072
660.301	0.0168567
660.379	0.0169084
660.457	0.0169918
660.535	0.0168695
660.613	0.0167079
660.692	0.0169308
660.770	0.0170362
660.848	0.0168233
660.926	0.0168104
661.004	0.0168546
661.082	0.0166933
661.160	0.0167637
661.238	0.0169529
661.317	0.0168915
661.395	0.0167877
661.473	0.0167646
661.551	0.0167188
661.629	0.0167396
661.707	0.0167049
661.785	0.0168119
661.863	0.0167389
661.942	0.0167569
662.020	0.0169024
662.098	0.0168705
662.176	0.0168046
662.254	0.0168770
662.332	0.0169196
662.410	0.0167919
662.488	0.0168135
662.567	0.0168651
662.645	0.0168750
662.723	0.0168961
662.801	0.0169154
662.879	0.0168427
662.957	0.0169156
663.035	0.0169962
663.113	0.0170134
663.192	0.0169093
663.270	0.0170391
663.348	0.0169690
663.426	0.0169028
663.504	0.0169187
663.582	0.0169621
663.660	0.0169640
663.738	0.0169447
663.817	0.0168475
663.895	0.0168581
663.973	0.0169764
664.051	0.0169488
664.129	0.0168769
664.207	0.0170203
664.285	0.0170515
664.363	0.0170903
664.442	0.0169866
664.520	0.0169732
664.598	0.0171563
664.676	0.0169993
664.754	0.0168493
664.832	0.0170313
664.910	0.0172005
664.988	0.0169349
665.067	0.0167764
665.145	0.0171131
665.223	0.0168785
665.301	0.0169241
665.379	0.0170820
665.457	0.0169930
665.535	0.0167461
665.613	0.0169675
665.692	0.0168396
665.770	0.0169714
665.848	0.0170680
665.926	0.0167973
666.004	0.0169310
666.082	0.0169897
666.160	0.0169331
666.238	0.0169308
666.317	0.0170378
666.395	0.0170009
666.473	0.0170918
666.551	0.0169531
666.629	0.0169849
666.707	0.0169616
666.785	0.0169463
666.863	0.0170552
666.942	0.0168813
667.020	0.0168858
667.098	0.0168808
667.176	0.0168005
667.254	0.0167902
667.332	0.0166898
667.410	0.0167957
667.488	0.0167883
667.567	0.0168527
667.645	0.0168473
667.723	0.0168893
667.801	0.0167685
667.879	0.0167201
667.957	0.0166769
668.035	0.0167563
668.113	0.0168266
668.192	0.0167297
668.270	0.0167794
668.348	0.0168359
668.426	0.0166534
668.504	0.0168179
668.582	0.0167212
668.660	0.0168657
668.738	0.0167773
668.817	0.0167406
668.895	0.0167924
668.973	0.0166684
669.051	0.0167108
669.129	0.0167801
669.207	0.0167431
669.285	0.0168433
669.363	0.0167950
669.442	0.0167952
669.520	0.0168024
669.598	0.0167448
669.676	0.0168250
669.754	0.0166715
669.832	0.0168188
669.910	0.0169474
669.988	0.0168371
670.067	0.0168410
670.145	0.0168246
670.223	0.0169352
670.301	0.0167401
670.379	0.0167047
670.457	0.0168825
670.535	0.0168368
670.613	0.0168491
670.692	0.0167897
670.770	0.0167477
670.848	0.0167599
670.926	0.0167858
671.004	0.0167872
671.082	0.0168231
671.160	0.0168044
671.238	0.0167799
671.317	0.0167999
671.395	0.0168420
671.473	0.0167868
671.551	0.0168250
671.629	0.0168492
671.707	0.0166582
671.785	0.0166959
671.863	0.0166869
671.942	0.0166376
672.020	0.0168182
672.098	0.0166340
672.176	0.0167068
672.254	0.0168069
672.332	0.0166178
672.410	0.0166753
672.488	0.0167464
672.567	0.0168459
672.645	0.0168782
672.723	0.0169139
672.801	0.0168609
672.879	0.0168806
672.957	0.0168558
673.035	0.0169033
673.113	0.0168043
673.192	0.0169348
673.270	0.0169799
673.348	0.0168555
673.426	0.0169048
673.504	0.0169946
673.582	0.0168928
673.660	0.0168797
673.738	0.0170070
673.817	0.0169828
673.895	0.0169672
673.973	0.0168712
674.051	0.0168980
674.129	0.0168983
674.207	0.0168278
674.285	0.0169351
674.363	0.0169921
674.442	0.0169501
674.520	0.0169740
674.598	0.0168486
674.676	0.0168839
674.754	0.0169717
674.832	0.0169341
674.910	0.0168227
674.988	0.0169319
675.067	0.0169638
675.145	0.0169456
675.223	0.0168480
675.301	0.0169883
675.379	0.0168875
675.457	0.0169834
675.535	0.0170309
675.613	0.0169282
675.692	0.0169845
675.770	0.0168314
675.848	0.0169306
675.926	0.0170108
676.004	0.0169714
676.082	0.0169132
676.160	0.0170083
676.238	0.0169429
676.317	0.0170055
676.395	0.0169659
676.473	0.0169046
676.551	0.0169166
676.629	0.0169041
676.707	0.0170068
676.785	0.0168989
676.863	0.0169003
676.942	0.0168594
677.020	0.0167670
677.098	0.0168919
677.176	0.0168967
677.254	0.0168803
677.332	0.0169365
677.410	0.0168586
677.488	0.0168643
677.567	0.0169170
677.645	0.0168834
677.723	0.0168191
677.801	0.0169035
677.879	0.0170336
677.957	0.0169112
678.035	0.0169396
678.113	0.0169067
678.192	0.0169767
678.270	0.0170383
678.348	0.0170228
678.426	0.0169225
678.504	0.0169973
678.582	0.0171178
678.660	0.0170163
678.738	0.0169800
678.817	0.0170208
678.895	0.0170074
678.973	0.0170593
679.051	0.0168436
679.129	0.0168951
679.207	0.0169068
679.285	0.0166847
679.363	0.0167690
679.442	0.0168450
679.520	0.0168443
679.598	0.0167641
679.676	0.0166858
679.754	0.0167715
679.832	0.0166209
679.910	0.0166300
679.988	0.0167763
680.067	0.0167826
680.145	0.0166579
680.223	0.0167444
680.301	0.0168141
680.379	0.0167593
680.457	0.0167021
680.535	0.0168431
680.613	0.0168462
680.692	0.0167495
680.770	0.0167869
680.848	0.0168707
680.926	0.0168195
681.004	0.0167506
681.082	0.0166763
681.160	0.0165643
681.238	0.0167344
681.317	0.0167400
681.395	0.0167065
681.473	0.0167065
681.551	0.0166892
681.629	0.0167847
681.707	0.0167623
681.785	0.0168263
681.863	0.0167978
681.942	0.0167303
682.020	0.0167576
682.098	0.0165780
682.176	0.0168011
682.254	0.0167755
682.332	0.0167191
682.410	0.0167625
682.488	0.0167509
682.567	0.0168161
682.645	0.0166650
682.723	0.0168092
682.801	0.0166737
682.879	0.0166109
682.957	0.0165996
683.035	0.0165032
683.113	0.0167115
683.192	0.0166473
683.270	0.0167358
683.348	0.0168031
683.426	0.0167561
683.504	0.0165543
683.582	0.0168547
683.660	0.0167995
683.738	0.0168161
683.817	0.0169106
683.895	0.0168562
683.973	0.0167572
684.051	0.0169403
684.129	0.0168563
684.207	0.0170113
684.285	0.0169188
684.363	0.0169052
684.442	0.0169017
684.520	0.0168547
684.598	0.0171250
684.676	0.0170435
684.754	0.0170786
684.832	0.0170444
684.910	0.0171841
684.988	0.0171394
685.067	0.0171711
685.145	0.0170293
685.223	0.0170139
685.301	0.0172139
685.379	0.0169225
685.457	0.0170335
685.535	0.0171341
685.613	0.0171101
685.692	0.0171631
685.770	0.0171831
685.848	0.0170977
685.926	0.0169496
686.004	0.0169395
686.082	0.0169476
686.160	0.0169337
686.238	0.0170661
686.317	0.0171412
686.395	0.0171777
686.473	0.0169561
686.551	0.0169788
686.629	0.0169905
686.707	0.0170705
686.785	0.0168016
686.863	0.0168656
686.942	0.0168811
687.020	0.0169196
687.098	0.0168419
687.176	0.0167592
687.254	0.0168330
687.332	0.0167050
687.410	0.0166781
687.488	0.0167568
687.567	0.0167135
687.645	0.0168382
687.723	0.0168424
687.801	0.0167413
687.879	0.0166254
687.957	0.0168324
688.035	0.0167997
688.113	0.0168311
688.192	0.0169270
688.270	0.0168446
688.348	0.0168383
688.426	0.0169197
688.504	0.0170016
688.582	0.0168985
688.660	0.0167949
688.738	0.0168069
688.817	0.0168803
688.895	0.0169314
688.973	0.0169616
689.051	0.0166693
689.129	0.0170123
689.207	0.0168620
689.285	0.0168364
689.363	0.0169374
689.442	0.0168235
689.520	0.0168937
689.598	0.0169241
689.676	0.0169637
689.754	0.0168895
689.832	0.0170282
689.910	0.0169874
689.988	0.0170330
690.067	0.0168738
690.145	0.0171011
690.223	0.0170762
690.301	0.0170882
690.379	0.0171468
690.457	0.0170951
690.535	0.0171740
690.613	0.0171188
690.692	0.0171397
690.770	0.0172363
690.848	0.0173940
690.926	0.0172036
691.004	0.0170271
691.082	0.0171429
691.160	0.0170628
691.238	0.0170518
691.317	0.0170161
691.395	0.0170126
691.473	0.0170726
691.551	0.0171005
691.629	0.0169313
691.707	0.0170470
691.785	0.0171204
691.863	0.0169491
691.942	0.0170093
692.020	0.0172610
692.098	0.0169151
692.176	0.0168131
692.254	0.0171056
692.332	0.0170811
692.410	0.0168103
692.488	0.0170126
692.567	0.0168149
692.645	0.0169311
692.723	0.0170589
692.801	0.0168597
692.879	0.0167989
692.957	0.0168884
693.035	0.0168681
693.113	0.0169160
693.192	0.0169682
693.270	0.0169598
693.348	0.0169624
693.426	0.0170749
693.504	0.0169429
693.582	0.0171574
693.660	0.0170408
693.738	0.0171572
693.817	0.0170567
693.895	0.0171656
693.973	0.0171227
694.051	0.0171889
694.129	0.0170533
694.207	0.0171138
694.285	0.0170799
694.363	0.0172562
694.442	0.0171156
694.520	0.0171641
694.598	0.0170444
694.676	0.0170649
694.754	0.0170193
694.832	0.0170087
694.910	0.0169788
694.988	0.0168838
695.067	0.0169164
695.145	0.0170709
695.223	0.0170300
695.301	0.0169665
695.379	0.0170285
695.457	0.0170963
695.535	0.0170015
695.613	0.0169603
695.692	0.0170782
695.770	0.0172495
695.848	0.0171514
695.926	0.0169946
696.004	0.0170359
696.082	0.0171252
696.160	0.0172757
696.238	0.0171129
696.317	0.0170759
696.395	0.0170689
696.473	0.0169630
696.551	0.0169128
696.629	0.0168155
696.707	0.0169566
696.785	0.0168681
696.863	0.0166909
696.942	0.0168082
697.020	0.0166908
697.098	0.0165548
697.176	0.0164969
697.254	0.0165923
697.332	0.0164727
697.410	0.0165690
697.488	0.0166824
697.567	0.0167937
697.645	0.0166297
697.723	0.0165858
697.801	0.0167448
697.879	0.0167570
697.957	0.0167667
698.035	0.0169920
698.113	0.0170004
698.192	0.0170229
698.270	0.0170440
698.348	0.0169424
698.426	0.0170200
698.504	0.0171365
698.582	0.0170586
698.660	0.0169672
698.738	0.0170219
698.817	0.0170091
698.895	0.0170807
698.973	0.0170666
699.051	0.0170227
699.129	0.0170894
699.207	0.0171821
699.285	0.0170245
699.363	0.0171508
699.442	0.0169286
699.520	0.0169519
699.598	0.0169885
699.676	0.0170854
699.754	0.0170442
699.832	0.0169249
699.910	0.0170434
699.988	0.0169399
700.067	0.0170179
700.145	0.0169362
700.223	0.0169541
700.301	0.0170761
700.379	0.0168916
700.457	0.0169312
700.535	0.0169801
700.613	0.0169720
700.692	0.0168168
700.770	0.0168262
700.848	0.0168442
700.926	0.0168201
701.004	0.0166936
701.082	0.0166196
701.160	0.0165579
701.238	0.0166048
701.317	0.0165647
701.395	0.0166174
701.473	0.0166933
701.551	0.0167112
701.629	0.0166847
701.707	0.0166363
701.785	0.0167380
701.863	0.0167333
701.942	0.0168173
702.020	0.0169406
702.098	0.0168661
702.176	0.0169521
702.254	0.0169866
702.332	0.0170243
702.410	0.0169872
702.488	0.0170298
702.567	0.0172967
702.645	0.0173704
702.723	0.0170649
702.801	0.0169371
702.879	0.0170770
702.957	0.0171224
703.035	0.0170086
703.113	0.0170013
703.192	0.0168316
703.270	0.0170924
703.348	0.0170668
703.426	0.0170152
703.504	0.0169650
703.582	0.0169595
703.660	0.0168479
703.738	0.0168681
703.817	0.0169761
703.895	0.0167937
703.973	0.0168720
704.051	0.0167103
704.129	0.0166020
704.207	0.0169231
704.285	0.0168926
704.363	0.0166685
704.442	0.0167133
704.520	0.0168075
704.598	0.0167800
704.676	0.0165823
704.754	0.0166789
704.832	0.0166989
704.910	0.0166238
704.988	0.0165752
705.067	0.0164723
705.145	0.0165321
705.223	0.0165336
705.301	0.0163334
705.379	0.0164442
705.457	0.0164754
705.535	0.0164318
705.613	0.0164287
705.692	0.0165681
705.770	0.0165672
705.848	0.0164740
705.926	0.0165218
706.004	0.0164452
706.082	0.0166449
706.160	0.0166953
706.238	0.0166529
706.317	0.0167045
706.395	0.0167014
706.473	0.0167949
706.551	0.0169052
706.629	0.0168691
706.707	0.0170024
706.785	0.0169357
706.863	0.0170397
706.942	0.0169727
707.020	0.0169116
707.098	0.0169200
707.176	0.0171579
707.254	0.0170514
707.332	0.0169833
707.410	0.0169363
707.488	0.0170155
707.567	0.0170125
707.645	0.0172031
707.723	0.0171040
707.801	0.0169553
707.879	0.0170049
707.957	0.0170694
708.035	0.0172046
708.113	0.0170880
708.192	0.0169785
708.270	0.0170081
708.348	0.0170248
708.426	0.0170994
708.504	0.0170715
708.582	0.0169952
708.660	0.0170271
708.738	0.0170317
708.817	0.0168501
708.895	0.0169355
708.973	0.0169506
709.051	0.0167863
709.129	0.0169004
709.207	0.0168560
709.285	0.0169302
709.363	0.0169216
709.442	0.0168108
709.520	0.0166668
709.598	0.0166154
709.676	0.0163599
709.754	0.0165842
709.832	0.0164332
709.910	0.0163603
709.988	0.0163190
710.067	0.0163166
710.145	0.0161664
710.223	0.0160305
710.301	0.0160542
710.379	0.0160994
710.457	0.0159956
710.535	0.0160735
710.613	0.0161642
710.692	0.0161961
710.770	0.0162237
710.848	0.0163312
710.926	0.0165420
711.004	0.0165784
711.082	0.0166843
711.160	0.0170018
711.238	0.0169283
711.317	0.0170704
711.395	0.0172014
711.473	0.0172173
711.551	0.0172929
711.629	0.0173793
711.707	0.0175614
711.785	0.0175893
711.863	0.0175790
711.942	0.0174906
712.020	0.0175405
712.098	0.0174755
712.176	0.0174157
712.254	0.0173437
712.332	0.0173734
712.410	0.0172281
712.488	0.0171980
712.567	0.0172546
712.645	0.0172791
712.723	0.0172385
712.801	0.0171640
712.879	0.0171900
712.957	0.0171942
713.035	0.0172660
713.113	0.0173496
713.192	0.0173074
713.270	0.0172305
713.348	0.0171352
713.426	0.0171603
713.504	0.0172028
713.582	0.0172035
713.660	0.0170782
713.738	0.0170528
713.817	0.0170901
713.895	0.0171252
713.973	0.0171056
714.051	0.0169016
714.129	0.0170309
714.207	0.0169085
714.285	0.0169138
714.363	0.0167862
714.442	0.0169386
714.520	0.0166343
714.598	0.0166062
714.676	0.0167038
714.754	0.0167110
714.832	0.0165740
714.910	0.0166434
714.988	0.0166544
715.067	0.0167362
715.145	0.0166440
715.223	0.0167618
715.301	0.0168672
715.379	0.0169301
715.457	0.0169063
715.535	0.0169878
715.613	0.0169795
715.692	0.0170552
715.770	0.0171583
715.848	0.0172739
715.926	0.0173524
716.004	0.0172759
716.082	0.0174539
716.160	0.0174638
716.238	0.0175095
716.317	0.0174724
716.395	0.0175295
716.473	0.0176783
716.551	0.0177304
716.629	0.0176634
716.707	0.0176765
716.785	0.0177209
716.863	0.0177696
716.942	0.0177243
717.020	0.0177537
717.098	0.0178049
717.176	0.0176697
717.254	0.0177604
717.332	0.0176511
717.410	0.0176400
717.488	0.0177821
717.567	0.0175503
717.645	0.0175623
717.723	0.0175952
717.801	0.0176379
717.879	0.0175253
717.957	0.0174377
718.035	0.0173270
718.113	0.0170784
718.192	0.0172450
718.270	0.0174784
718.348	0.0172325
718.426	0.0173051
718.504	0.0171670
718.582	0.0171045
718.660	0.0172305
718.738	0.0170957
718.817	0.0169998
718.895	0.0171960
718.973	0.0171101
719.051	0.0169938
719.129	0.0171597
719.207	0.0169598
719.285	0.0170013
719.363	0.0171024
719.442	0.0169336
719.520	0.0170031
719.598	0.0171609
719.676	0.0170996
719.754	0.0171349
719.832	0.0170541
719.910	0.0170554
719.988	0.0169776
720.067	0.0169415
720.145	0.0169495
720.223	0.0169431
720.301	0.0169852
720.379	0.0167873
720.457	0.0168532
720.535	0.0167717
720.613	0.0167344
720.692	0.0167131
720.770	0.0168391
720.848	0.0166970
720.926	0.0166637
721.004	0.0164867
721.082	0.0165434
721.160	0.0165954
721.238	0.0165837
721.317	0.0166160
721.395	0.0164391
721.473	0.0164522
721.551	0.0165015
721.629	0.0166090
721.707	0.0165739
721.785	0.0165591
721.863	0.0164780
721.942	0.0168244
722.020	0.0165977
722.098	0.0166779
722.176	0.0166978
722.254	0.0167698
722.332	0.0166862
722.410	0.0166294
722.488	0.0166346
722.567	0.0166453
722.645	0.0166193
722.723	0.0166209
722.801	0.0166662
722.879	0.0167415
722.957	0.0166463
723.035	0.0168982
723.113	0.0166628
723.192	0.0167281
723.270	0.0168011
723.348	0.0168124
723.426	0.0169172
723.504	0.0170200
723.582	0.0170898
723.660	0.0170955
723.738	0.0171164
723.817	0.0172115
723.895	0.0171928
723.973	0.0171262
724.051	0.0171436
724.129	0.0171963
724.207	0.0171664
724.285	0.0171325
724.363	0.0171387
724.442	0.0169674
724.520	0.0170013
724.598	0.0170018
724.676	0.0170444
724.754	0.0169784
724.832	0.0167530
724.910	0.0168016
724.988	0.0168709
725.067	0.0168382
725.145	0.0166609
725.223	0.0168490
725.301	0.0169183
725.379	0.0167550
725.457	0.0168671
725.535	0.0167803
725.613	0.0167205
725.692	0.0167025
725.770	0.0166524
725.848	0.0166955
725.926	0.0166685
726.004	0.0167252
726.082	0.0165704
726.160	0.0164639
726.238	0.0165237
726.317	0.0164658
726.395	0.0165558
726.473	0.0164420
726.551	0.0164419
726.629	0.0164854
726.707	0.0163881
726.785	0.0164410
726.863	0.0162775
726.942	0.0163535
727.020	0.0164876
727.098	0.0163885
727.176	0.0163294
727.254	0.0162070
727.332	0.0163220
727.410	0.0164217
727.488	0.0163127
727.567	0.0165164
727.645	0.0164927
727.723	0.0165337
727.801	0.0165022
727.879	0.0166386
727.957	0.0167577
728.035	0.0167990
728.113	0.0167379
728.192	0.0168553
728.270	0.0168099
728.348	0.0168668
728.426	0.0169881
728.504	0.0169872
728.582	0.0170221
728.660	0.0171301
728.738	0.0171041
728.817	0.0169746
728.895	0.0170790
728.973	0.0170955
729.051	0.0168610
729.129	0.0169640
729.207	0.0169227
729.285	0.0168421
729.363	0.0167724
729.442	0.0168966
729.520	0.0167278
729.598	0.0168578
729.676	0.0168700
729.754	0.0167168
729.832	0.0168118
729.910	0.0168218
729.988	0.0166999
730.067	0.0168356
730.145	0.0168635
730.223	0.0168044
730.301	0.0168286
730.379	0.0167041
730.457	0.0166657
730.535	0.0165601
730.613	0.0166253
730.692	0.0164559
730.770	0.0165054
730.848	0.0164434
730.926	0.0164167
731.004	0.0163680
731.082	0.0163773
731.160	0.0163195
731.238	0.0160760
731.317	0.0161488
731.395	0.0162897
731.473	0.0162268
731.551	0.0161666
731.629	0.0162720
731.707	0.0162720
731.785	0.0164040
731.863	0.0164254
731.942	0.0164986
732.020	0.0164457
732.098	0.0167230
732.176	0.0169428
732.254	0.0167833
732.332	0.0166805
732.410	0.0167682
732.488	0.0167881
732.567	0.0168649
732.645	0.0170903
732.723	0.0170319
732.801	0.0170917
732.879	0.0170445
732.957	0.0171291
733.035	0.0172121
733.113	0.0171352
733.192	0.0171545
733.270	0.0172424
733.348	0.0171121
733.426	0.0171905
733.504	0.0170848
733.582	0.0171103
733.660	0.0170137
733.738	0.0171935
733.817	0.0170442
733.895	0.0171851
733.973	0.0171471
734.051	0.0171363
734.129	0.0170221
734.207	0.0170839
734.285	0.0171939
734.363	0.0172382
734.442	0.0171809
734.520	0.0171322
734.598	0.0172150
734.676	0.0172469
734.754	0.0171177
734.832	0.0171104
734.910	0.0171344
734.988	0.0171632
735.067	0.0171110
735.145	0.0169926
735.223	0.0170552
735.301	0.0169929
735.379	0.0169729
735.457	0.0169696
735.535	0.0169096
735.613	0.0168896
735.692	0.0168106
735.770	0.0168961
735.848	0.0168165
735.926	0.0167448
736.004	0.0167746
736.082	0.0168929
736.160	0.0168852
736.238	0.0168233
736.317	0.0167226
736.395	0.0167867
736.473	0.0167748
736.551	0.0168448
736.629	0.0168702
736.707	0.0169139
736.785	0.0168329
736.863	0.0166974
736.942	0.0168642
737.020	0.0167172
737.098	0.0168854
737.176	0.0168915
737.254	0.0170293
737.332	0.0168450
737.410	0.0168600
737.488	0.0168791
737.567	0.0169645
737.645	0.0169270
737.723	0.0168751
737.801	0.0169162
737.879	0.0169082
737.957	0.0167552
738.035	0.0166980
738.113	0.0167477
738.192	0.0166804
738.270	0.0166893
738.348	0.0167664
738.426	0.0166940
738.504	0.0165692
738.582	0.0166006
738.660	0.0164628
738.738	0.0165677
738.817	0.0165820
738.895	0.0165548
738.973	0.0165165
739.051	0.0162862
739.129	0.0165314
739.207	0.0165010
739.285	0.0165698
739.363	0.0164970
739.442	0.0165344
739.520	0.0164953
739.598	0.0166976
739.676	0.0166542
739.754	0.0166244
739.832	0.0166182
739.910	0.0166203
739.988	0.0167799
740.067	0.0168353
740.145	0.0167410
740.223	0.0168002
740.301	0.0167033
740.379	0.0166286
740.457	0.0167365
740.535	0.0166775
740.613	0.0167345
740.692	0.0166574
740.770	0.0166088
740.848	0.0166853
740.926	0.0166776
741.004	0.0168264
741.082	0.0168502
741.160	0.0167770
741.238	0.0168015
741.317	0.0169249
741.395	0.0169811
741.473	0.0170153
741.551	0.0170678
741.629	0.0171379
741.707	0.0170258
741.785	0.0171233
741.863	0.0170804
741.942	0.0170631
742.020	0.0172948
742.098	0.0172372
742.176	0.0170982
742.254	0.0171729
742.332	0.0171948
742.410	0.0171994
742.488	0.0172216
742.567	0.0173049
742.645	0.0173068
742.723	0.0171960
742.801	0.0172494
742.879	0.0171818
742.957	0.0172742
743.035	0.0173881
743.113	0.0173428
743.192	0.0172934
743.270	0.0172878
743.348	0.0171997
743.426	0.0173810
743.504	0.0173588
743.582	0.0172667
743.660	0.0173708
743.738	0.0173499
743.817	0.0173730
743.895	0.0172083
743.973	0.0173616
744.051	0.0172689
744.129	0.0173911
744.207	0.0172958
744.285	0.0171887
744.363	0.0171239
744.442	0.0170735
744.520	0.0172221
744.598	0.0171534
744.676	0.0171178
744.754	0.0169099
744.832	0.0171204
744.910	0.0169306
744.988	0.0168737
745.067	0.0167311
745.145	0.0167229
745.223	0.0167673
745.301	0.0167630
745.379	0.0166979
745.457	0.0167645
745.535	0.0166928
745.613	0.0168007
745.692	0.0166962
745.770	0.0167095
745.848	0.0165672
745.926	0.0164818
746.004	0.0165840
746.082	0.0165314
746.160	0.0164666
746.238	0.0166133
746.317	0.0164931
746.395	0.0165239
746.473	0.0164725
746.551	0.0164738
746.629	0.0164695
746.707	0.0165519
746.785	0.0164040
746.863	0.0164027
746.942	0.0163028
747.020	0.0164120
747.098	0.0163106
747.176	0.0163734
747.254	0.0164615
747.332	0.0164915
747.410	0.0164978
747.488	0.0164855
747.567	0.0165012
747.645	0.0164925
747.723	0.0165800
747.801	0.0164983
747.879	0.0167078
747.957	0.0165674
748.035	0.0168420
748.113	0.0168504
748.192	0.0167731
748.270	0.0169141
748.348	0.0170859
748.426	0.0170789
748.504	0.0171014
748.582	0.0169949
748.660	0.0169038
748.738	0.0171675
748.817	0.0171617
748.895	0.0171220
748.973	0.0171630
749.051	0.0171938
749.129	0.0170605
749.207	0.0170394
749.285	0.0171014
749.363	0.0171346
749.442	0.0171260
749.520	0.0172682
749.598	0.0171896
749.676	0.0172031
749.754	0.0173452
749.832	0.0172671
749.910	0.0172565
749.988	0.0171674
750.067	0.0174255
750.145	0.0172916
750.223	0.0172073
750.301	0.0171049
750.379	0.0171444
750.457	0.0171209
750.535	0.0170049
750.613	0.0170318
750.692	0.0168372
750.770	0.0169362
750.848	0.0169450
750.926	0.0168014
751.004	0.0168363
751.082	0.0165440
751.160	0.0165672
751.238	0.0165855
751.317	0.0166050
751.395	0.0165747
751.473	0.0165135
751.551	0.0163199
751.629	0.0164374
751.707	0.0164285
751.785	0.0165446
751.863	0.0163842
751.942	0.0162813
752.020	0.0163617
752.098	0.0164111
752.176	0.0163346
752.254	0.0163793
752.332	0.0162533
752.410	0.0163758
752.488	0.0163152
752.567	0.0163972
752.645	0.0162550
752.723	0.0164167
752.801	0.0164065
752.879	0.0162970
752.957	0.0164029
753.035	0.0164137
753.113	0.0164882
753.192	0.0165813
753.270	0.0165702
753.348	0.0165648
753.426	0.0165995
753.504	0.0167014
753.582	0.0166683
753.660	0.0168034
753.738	0.0168423
753.817	0.0169013
753.895	0.0168090
753.973	0.0168505
754.051	0.0169796
754.129	0.0169753
754.207	0.0170251
754.285	0.0170658
754.363	0.0170870
754.442	0.0171275
754.520	0.0172280
754.598	0.0171783
754.676	0.0173100
754.754	0.0171165
754.832	0.0171111
754.910	0.0173088
754.988	0.0172778
755.067	0.0173761
755.145	0.0174448
755.223	0.0172734
755.301	0.0171837
755.379	0.0172384
755.457	0.0172884
755.535	0.0172873
755.613	0.0171548
755.692	0.0172674
755.770	0.0172147
755.848	0.0172726
755.926	0.0171420
756.004	0.0171698
756.082	0.0171758
756.160	0.0172359
756.238	0.0171475
756.317	0.0172136
756.395	0.0171202
756.473	0.0172916
756.551	0.0172024
756.629	0.0173277
756.707	0.0172289
756.785	0.0171293
756.863	0.0170493
756.942	0.0171758
757.020	0.0170841
757.098	0.0170728
757.176	0.0171519
757.254	0.0170989
757.332	0.0170313
757.410	0.0171124
757.488	0.0170269
757.567	0.0171290
757.645	0.0169444
757.723	0.0169691
757.801	0.0169209
757.879	0.0169585
757.957	0.0170164
758.035	0.0168494
758.113	0.0169331
758.192	0.0169426
758.270	0.0169405
758.348	0.0168929
758.426	0.0169336
758.504	0.0169793
758.582	0.0169623
758.660	0.0168199
758.738	0.0167609
758.817	0.0167249
758.895	0.0167647
758.973	0.0167930
759.051	0.0167276
759.129	0.0166634
759.207	0.0169199
759.285	0.0166499
759.363	0.0165664
759.442	0.0167073
759.520	0.0166885
759.598	0.0166585
759.676	0.0168242
759.754	0.0167080
759.832	0.0167210
759.910	0.0167702
759.988	0.0167728
760.067	0.0168066
760.145	0.0167566
760.223	0.0167447
760.301	0.0167107
760.379	0.0167505
760.457	0.0167059
760.535	0.0167561
760.613	0.0167019
760.692	0.0166154
760.770	0.0167450
760.848	0.0167257
760.926	0.0165598
761.004	0.0168709
761.082	0.0167384
761.160	0.0166894
761.238	0.0167970
761.317	0.0167370
761.395	0.0167594
761.473	0.0167822
761.551	0.0166848
761.629	0.0168826
761.707	0.0167181
761.785	0.0168250
761.863	0.0168044
761.942	0.0167806
762.020	0.0168809
762.098	0.0168412
762.176	0.0165814
762.254	0.0166911
762.332	0.0164962
762.410	0.0165367
762.488	0.0164587
762.567	0.0163728
762.645	0.0164902
762.723	0.0163512
762.801	0.0162927
762.879	0.0163079
762.957	0.0161801
763.035	0.0161100
763.113	0.0162474
763.192	0.0162377
763.270	0.0162843
763.348	0.0161649
763.426	0.0161728
763.504	0.0162864
763.582	0.0164491
763.660	0.0165124
763.738	0.0165025
763.817	0.0164388
763.895	0.0166696
763.973	0.0165573
764.051	0.0167754
764.129	0.0167553
764.207	0.0167836
764.285	0.0169049
764.363	0.0169797
764.442	0.0169845
764.520	0.0171258
764.598	0.0170750
764.676	0.0169113
764.754	0.0168519
764.832	0.0168732
764.910	0.0170313
764.988	0.0170322
765.067	0.0170931
765.145	0.0170718
765.223	0.0170892
765.301	0.0171029
765.379	0.0171166
765.457	0.0171381
765.535	0.0171764
765.613	0.0170981
765.692	0.0171646
765.770	0.0171963
765.848	0.0170490
765.926	0.0172485
766.004	0.0174148
766.082	0.0174438
766.160	0.0172799
766.238	0.0173178
766.317	0.0173151
766.395	0.0172453
766.473	0.0173519
766.551	0.0173383
766.629	0.0173022
766.707	0.0172880
766.785	0.0172501
766.863	0.0172253
766.942	0.0171863
767.020	0.0172632
767.098	0.0171966
767.176	0.0170829
767.254	0.0170502
767.332	0.0171835
767.410	0.0170244
767.488	0.0170375
767.567	0.0170068
767.645	0.0169376
767.723	0.0169798
767.801	0.0170242
767.879	0.0170997
767.957	0.0169705
768.035	0.0168935
768.113	0.0170218
768.192	0.0170026
768.270	0.0169436
768.348	0.0170583
768.426	0.0169933
768.504	0.0170207
768.582	0.0169282
768.660	0.0169498
768.738	0.0170722
768.817	0.0169941
768.895	0.0170244
768.973	0.0169712
769.051	0.0169715
769.129	0.0170203
769.207	0.0171564
769.285	0.0170909
769.363	0.0169377
769.442	0.0171539
769.520	0.0170746
769.598	0.0170494
769.676	0.0169735
769.754	0.0170577
769.832	0.0170576
769.910	0.0169708
769.988	0.0169456
770.067	0.0170094
770.145	0.0169199
770.223	0.0170493
770.301	0.0169946
770.379	0.0170197
770.457	0.0168366
770.535	0.0169239
770.613	0.0168555
770.692	0.0169173
770.770	0.0171684
770.848	0.0169841
770.926	0.0169843
771.004	0.0170149
771.082	0.0170509
771.160	0.0170178
771.238	0.0172291
771.317	0.0170606
771.395	0.0170017
771.473	0.0170461
771.551	0.0169797
771.629	0.0169894
771.707	0.0169908
771.785	0.0167801
771.863	0.0169487
771.942	0.0169337
772.020	0.0168828
772.098	0.0168576
772.176	0.0166997
772.254	0.0168185
772.332	0.0165955
772.410	0.0166856
772.488	0.0167802
772.567	0.0165762
772.645	0.0166339
772.723	0.0168600
772.801	0.0167722
772.879	0.0168044
772.957	0.0167911
773.035	0.0167451
773.113	0.0168213
773.192	0.0168775
773.270	0.0168211
773.348	0.0167329
773.426	0.0168344
773.504	0.0168196
773.582	0.0169433
773.660	0.0167612
773.738	0.0166360
773.817	0.0166689
773.895	0.0168158
773.973	0.0167697
774.051	0.0166357
774.129	0.0165325
774.207	0.0166951
774.285	0.0166743
774.363	0.0165961
774.442	0.0165532
774.520	0.0165210
774.598	0.0165343
774.676	0.0165603
774.754	0.0165551
774.832	0.0165065
774.910	0.0165692
774.988	0.0166102
775.067	0.0164687
775.145	0.0165829
775.223	0.0166705
775.301	0.0167548
775.379	0.0167854
775.457	0.0166444
775.535	0.0166644
775.613	0.0166643
775.692	0.0167879
775.770	0.0167894
775.848	0.0168444
775.926	0.0168623
776.004	0.0167474
776.082	0.0166908
776.160	0.0167778
776.238	0.0168049
776.317	0.0167574
776.395	0.0167585
776.473	0.0167957
776.551	0.0169891
776.629	0.0167992
776.707	0.0167758
776.785	0.0167740
776.863	0.0168205
776.942	0.0169631
777.020	0.0166920
777.098	0.0168858
777.176	0.0168472
777.254	0.0168697
777.332	0.0167293
777.410	0.0168562
777.488	0.0168772
777.567	0.0169450
777.645	0.0168671
777.723	0.0168571
777.801	0.0168224
777.879	0.0168732
777.957	0.0169882
778.035	0.0170557
778.113	0.0169849
778.192	0.0170103
778.270	0.0168697
778.348	0.0168327
778.426	0.0169946
778.504	0.0171625
778.582	0.0169351
778.660	0.0169904
778.738	0.0169437
778.817	0.0170335
778.895	0.0172055
778.973	0.0171168
779.051	0.0170247
779.129	0.0171338
779.207	0.0171880
779.285	0.0173051
779.363	0.0171925
779.442	0.0170197
779.520	0.0170822
779.598	0.0170679
779.676	0.0171986
779.754	0.0172066
779.832	0.0170800
779.910	0.0171702
779.988	0.0170544
780.067	0.0171664
780.145	0.0170547
780.223	0.0171791
780.301	0.0171503
780.379	0.0170897
780.457	0.0171346
780.535	0.0170001
780.613	0.0172265
780.692	0.0170422
780.770	0.0169682
780.848	0.0170898
780.926	0.0172262
781.004	0.0171933
781.082	0.0172742
781.160	0.0172908
781.238	0.0171937
781.317	0.0172729
781.395	0.0173501
781.473	0.0175175
781.551	0.0174104
781.629	0.0174081
781.707	0.0174433
781.785	0.0174860
781.863	0.0172984
781.942	0.0173645
782.020	0.0174575
782.098	0.0173460
782.176	0.0173344
782.254	0.0173328
782.332	0.0172866
782.410	0.0174416
782.488	0.0173767
782.567	0.0173887
782.645	0.0172639
782.723	0.0171738
782.801	0.0171384
782.879	0.0173534
782.957	0.0172166
783.035	0.0172021
783.113	0.0171961
783.192	0.0170356
783.270	0.0172302
783.348	0.0172639
783.426	0.0172978
783.504	0.0172173
783.582	0.0171235
783.660	0.0171174
783.738	0.0171335
783.817	0.0170718
783.895	0.0169736
783.973	0.0169595
784.051	0.0171152
784.129	0.0169650
784.207	0.0169720
784.285	0.0169666
784.363	0.0167750
784.442	0.0169395
784.520	0.0169023
784.598	0.0168095
784.676	0.0167851
784.754	0.0168546
784.832	0.0168695
784.910	0.0167917
784.988	0.0167303
785.067	0.0166948
785.145	0.0168748
785.223	0.0166830
785.301	0.0168525
785.379	0.0167970
785.457	0.0166998
785.535	0.0167790
785.613	0.0167486
785.692	0.0168195
785.770	0.0168069
785.848	0.0166776
785.926	0.0167260
786.004	0.0166865
786.082	0.0166553
786.160	0.0166735
786.238	0.0167973
786.317	0.0166129
786.395	0.0166458
786.473	0.0166114
786.551	0.0167679
786.629	0.0166088
786.707	0.0167021
786.785	0.0166023
786.863	0.0165899
786.942	0.0168604
787.020	0.0168304
787.098	0.0167377
787.176	0.0165424
787.254	0.0166708
787.332	0.0167558
787.410	0.0167009
787.488	0.0166656
787.567	0.0167776
787.645	0.0168111
787.723	0.0167339
787.801	0.0166862
787.879	0.0167044
787.957	0.0167673
788.035	0.0169358
788.113	0.0168264
788.192	0.0167587
788.270	0.0166748
788.348	0.0167690
788.426	0.0169899
788.504	0.0169306
788.582	0.0168569
788.660	0.0169522
788.738	0.0170183
788.817	0.0169736
788.895	0.0170417
788.973	0.0170492
789.051	0.0170445
789.129	0.0171896
789.207	0.0171231
789.285	0.0172250
789.363	0.0170783
789.442	0.0172050
789.520	0.0171558
789.598	0.0172950
789.676	0.0172076
789.754	0.0172049
789.832	0.0170914
789.910	0.0171217
789.988	0.0170856
790.067	0.0170290
790.145	0.0171749
790.223	0.0171511
790.301	0.0171894
790.379	0.0170756
790.457	0.0172128
790.535	0.0172278
790.613	0.0172388
790.692	0.0171396
790.770	0.0171315
790.848	0.0171955
790.926	0.0172547
791.004	0.0171751
791.082	0.0172108
791.160	0.0171690
791.238	0.0171153
791.317	0.0171677
791.395	0.0170886
791.473	0.0171126
791.551	0.0171462
791.629	0.0171893
791.707	0.0171921
791.785	0.0170097
791.863	0.0170210
791.942	0.0168649
792.020	0.0168906
792.098	0.0168613
792.176	0.0169161
792.254	0.0168317
792.332	0.0168092
792.410	0.0168697
792.488	0.0168197
792.567	0.0168839
792.645	0.0169033
792.723	0.0168193
792.801	0.0167057
792.879	0.0167821
792.957	0.0169511
793.035	0.0168138
793.113	0.0168347
793.192	0.0168435
793.270	0.0168506
793.348	0.0169841
793.426	0.0168994
793.504	0.0168951
793.582	0.0167231
793.660	0.0168821
793.738	0.0167003
793.817	0.0167413
793.895	0.0168669
793.973	0.0168859
794.051	0.0167004
794.129	0.0167546
794.207	0.0166464
794.285	0.0165810
794.363	0.0166811
794.442	0.0168470
794.520	0.0167911
794.598	0.0168379
794.676	0.0169016
794.754	0.0168382
794.832	0.0167654
794.910	0.0168034
794.988	0.0168433
795.067	0.0168987
795.145	0.0169489
795.223	0.0167577
795.301	0.0167741
795.379	0.0169213
795.457	0.0168446
795.535	0.0168882
795.613	0.0168826
795.692	0.0169344
795.770	0.0169440
795.848	0.0169558
795.926	0.0167605
796.004	0.0168603
796.082	0.0169006
796.160	0.0169045
796.238	0.0170017
796.317	0.0170551
796.395	0.0170150
796.473	0.0170193
796.551	0.0169376
796.629	0.0171773
796.707	0.0170313
796.785	0.0170039
796.863	0.0170481
796.942	0.0171684
797.020	0.0170079
797.098	0.0169982
797.176	0.0171510
797.254	0.0170897
797.332	0.0171152
797.410	0.0169847
797.488	0.0169746
797.567	0.0171508
797.645	0.0170322
797.723	0.0170729
797.801	0.0169904
797.879	0.0170168
797.957	0.0169262
798.035	0.0169214
798.113	0.0169624
798.192	0.0167249
798.270	0.0167561
798.348	0.0169400
798.426	0.0168629
798.504	0.0167060
798.582	0.0167043
798.660	0.0167626
798.738	0.0166593
798.817	0.0167386
798.895	0.0167487
798.973	0.0166944
799.051	0.0166510
799.129	0.0167530
799.207	0.0166693
799.285	0.0165820
799.363	0.0165832
799.442	0.0166060
799.520	0.0164746
799.598	0.0165290
799.676	0.0165992
799.754	0.0165627
799.832	0.0164787
799.910	0.0164332
799.988	0.0166401
800.067	0.0166158
800.145	0.0166994
800.223	0.0165630
800.301	0.0166177
800.379	0.0167868
800.457	0.0165633
800.535	0.0168066
800.613	0.0167249
800.692	0.0168221
800.770	0.0168387
800.848	0.0168263
800.926	0.0167902
801.004	0.0166942
801.082	0.0168569
801.160	0.0168320
801.238	0.0168545
801.317	0.0169096
801.395	0.0169427
801.473	0.0168707
801.551	0.0168508
801.629	0.0168687
801.707	0.0167899
801.785	0.0169462
801.863	0.0168656
801.942	0.0168208
802.020	0.0168252
802.098	0.0168198
802.176	0.0167423
802.254	0.0167861
802.332	0.0168233
802.410	0.0168540
802.488	0.0167881
802.567	0.0168739
802.645	0.0167969
802.723	0.0167786
802.801	0.0167604
802.879	0.0168141
802.957	0.0167503
803.035	0.0167911
803.113	0.0167646
803.192	0.0168962
803.270	0.0167410
803.348	0.0168086
803.426	0.0168803
803.504	0.0169191
803.582	0.0167425
803.660	0.0167359
803.738	0.0169469
803.817	0.0169275
803.895	0.0168593
803.973	0.0169875
804.051	0.0170497
804.129	0.0170338
804.207	0.0171429
804.285	0.0171386
804.363	0.0171272
804.442	0.0171362
804.520	0.0171452
804.598	0.0171033
804.676	0.0172080
804.754	0.0172705
804.832	0.0173746
804.910	0.0173068
804.988	0.0173190
805.067	0.0172596
805.145	0.0172493
805.223	0.0172925
805.301	0.0172964
805.379	0.0170889
805.457	0.0173240
805.535	0.0171816
805.613	0.0172275
805.692	0.0171551
805.770	0.0171624
805.848	0.0169982
805.926	0.0171129
806.004	0.0171571
806.082	0.0169256
806.160	0.0170389
806.238	0.0169199
806.317	0.0170135
806.395	0.0169667
806.473	0.0168493
806.551	0.0169830
806.629	0.0168907
806.707	0.0169069
806.785	0.0168491
806.863	0.0168957
806.942	0.0171159
807.020	0.0168291
807.098	0.0169131
807.176	0.0168731
807.254	0.0169703
807.332	0.0169572
807.410	0.0169081
807.488	0.0168809
807.567	0.0170078
807.645	0.0171217
807.723	0.0169633
807.801	0.0171660
807.879	0.0170058
807.957	0.0169695
808.035	0.0173069
808.113	0.0171844
808.192	0.0173332
808.270	0.0172461
808.348	0.0173080
808.426	0.0174358
808.504	0.0172549
808.582	0.0173039
808.660	0.0173836
808.738	0.0173463
808.817	0.0174846
808.895	0.0174690
808.973	0.0174908
809.051	0.0172580
809.129	0.0172905
809.207	0.0174358
809.285	0.0173228
809.363	0.0171465
809.442	0.0171381
809.520	0.0170851
809.598	0.0172019
809.676	0.0171165
809.754	0.0171114
809.832	0.0169545
809.910	0.0171454
809.988	0.0169457
810.067	0.0169169
810.145	0.0167638
810.223	0.0169154
810.301	0.0168027
810.379	0.0166235
810.457	0.0168306
810.535	0.0168113
810.613	0.0168340
810.692	0.0166555
810.770	0.0167294
810.848	0.0168450
810.926	0.0168017
811.004	0.0165170
811.082	0.0167735
811.160	0.0167774
811.238	0.0168811
811.317	0.0169010
811.395	0.0168227
811.473	0.0168384
811.551	0.0168321
811.629	0.0168601
811.707	0.0169424
811.785	0.0167623
811.863	0.0169189
811.942	0.0169170
812.020	0.0170045
812.098	0.0169442
812.176	0.0169100
812.254	0.0171037
812.332	0.0171928
812.410	0.0171017
812.488	0.0170482
812.567	0.0171545
812.645	0.0170320
812.723	0.0170742
812.801	0.0170744
812.879	0.0170842
812.957	0.0170564
813.035	0.0170200
813.113	0.0170284
813.192	0.0170057
813.270	0.0170045
813.348	0.0171593
813.426	0.0169426
813.504	0.0168755
813.582	0.0169749
813.660	0.0168530
813.738	0.0169307
813.817	0.0168205
813.895	0.0168542
813.973	0.0168678
814.051	0.0167984
814.129	0.0166951
814.207	0.0167420
814.285	0.0167020
814.363	0.0165674
814.442	0.0166540
814.520	0.0166148
814.598	0.0165346
814.676	0.0166445
814.754	0.0166588
814.832	0.0166154
814.910	0.0166187
814.988	0.0166847
815.067	0.0167548
815.145	0.0166644
815.223	0.0165662
815.301	0.0166525
815.379	0.0166568
815.457	0.0166150
815.535	0.0166122
815.613	0.0166097
815.692	0.0166378
815.770	0.0165817
815.848	0.0165498
815.926	0.0166084
816.004	0.0165038
816.082	0.0166176
816.160	0.0166074
816.238	0.0165784
816.317	0.0166479
816.395	0.0167162
816.473	0.0166361
816.551	0.0166708
816.629	0.0168068
816.707	0.0168037
816.785	0.0168565
816.863	0.0169758
816.942	0.0168359
817.020	0.0167999
817.098	0.0169139
817.176	0.0169927
817.254	0.0168463
817.332	0.0169595
817.410	0.0170519
817.488	0.0169693
817.567	0.0169558
817.645	0.0169022
817.723	0.0170294
817.801	0.0171883
817.879	0.0170828
817.957	0.0170998
818.035	0.0171712
818.113	0.0169319
818.192	0.0172365
818.270	0.0172019
818.348	0.0172171
818.426	0.0172009
818.504	0.0172395
818.582	0.0170794
818.660	0.0170043
818.738	0.0171809
818.817	0.0171796
818.895	0.0171027
818.973	0.0172140
819.051	0.0171374
819.129	0.0170390
819.207	0.0171567
819.285	0.0171517
819.363	0.0170624
819.442	0.0171803
819.520	0.0171458
819.598	0.0172409
819.676	0.0171168
819.754	0.0172253
819.832	0.0172289
819.910	0.0172232
819.988	0.0172553
820.067	0.0171861
820.145	0.0171908
820.223	0.0172667
820.301	0.0171824
820.379	0.0171283
820.457	0.0172018
820.535	0.0171492
820.613	0.0172095
820.692	0.0172334
820.770	0.0171717
820.848	0.0169790
820.926	0.0171388
821.004	0.0171592
821.082	0.0170780
821.160	0.0171883
821.238	0.0170807
821.317	0.0169254
821.395	0.0169343
821.473	0.0170251
821.551	0.0170296
821.629	0.0169349
821.707	0.0168991
821.785	0.0170065
821.863	0.0169984
821.942	0.0169726
822.020	0.0167494
822.098	0.0168662
822.176	0.0169244
822.254	0.0168323
822.332	0.0168007
822.410	0.0167441
822.488	0.0166858
822.567	0.0168608
822.645	0.0166934
822.723	0.0165984
822.801	0.0166594
822.879	0.0165479
822.957	0.0167200
823.035	0.0165916
823.113	0.0165093
823.192	0.0165787
823.270	0.0166700
823.348	0.0165632
823.426	0.0164502
823.504	0.0164114
823.582	0.0165829
823.660	0.0164796
823.738	0.0165919
823.817	0.0165431
823.895	0.0165182
823.973	0.0165661
824.051	0.0165686
824.129	0.0165860
824.207	0.0166520
824.285	0.0166386
824.363	0.0165531
824.442	0.0165595
824.520	0.0165900
824.598	0.0166084
824.676	0.0165601
824.754	0.0167628
824.832	0.0166639
824.910	0.0168163
824.988	0.0167601
825.067	0.0166565
825.145	0.0167142
825.223	0.0168268
825.301	0.0167191
825.379	0.0168179
825.457	0.0167734
825.535	0.0167760
825.613	0.0166798
825.692	0.0168801
825.770	0.0168736
825.848	0.0167434
825.926	0.0168706
826.004	0.0169166
826.082	0.0169344
826.160	0.0169574
826.238	0.0169289
826.317	0.0169598
826.395	0.0168417
826.473	0.0169547
826.551	0.0169398
826.629	0.0168246
826.707	0.0168922
826.785	0.0167194
826.863	0.0166981
826.942	0.0168279
827.020	0.0167474
827.098	0.0167107
827.176	0.0166559
827.254	0.0168260
827.332	0.0166690
827.410	0.0166428
827.488	0.0166392
827.567	0.0165949
827.645	0.0166158
827.723	0.0165817
827.801	0.0165175
827.879	0.0165211
827.957	0.0165494
828.035	0.0164840
828.113	0.0164061
828.192	0.0164684
828.270	0.0165248
828.348	0.0165241
828.426	0.0164826
828.504	0.0165144
828.582	0.0165553
828.660	0.0165247
828.738	0.0164417
828.817	0.0165297
828.895	0.0165258
828.973	0.0165481
829.051	0.0167985
829.129	0.0166805
829.207	0.0165082
829.285	0.0166932
829.363	0.0167256
829.442	0.0166958
829.520	0.0167200
829.598	0.0167739
829.676	0.0167584
829.754	0.0169532
829.832	0.0167257
829.910	0.0168330
829.988	0.0170126
830.067	0.0170025
830.145	0.0170390
830.223	0.0169232
830.301	0.0170401
830.379	0.0170488
830.457	0.0170790
830.535	0.0170541
830.613	0.0169540
830.692	0.0170898
830.770	0.0171033
830.848	0.0170493
830.926	0.0171658
831.004	0.0171140
831.082	0.0171169
831.160	0.0170386
831.238	0.0170171
831.317	0.0170660
831.395	0.0169968
831.473	0.0170615
831.551	0.0169553
831.629	0.0170608
831.707	0.0169647
831.785	0.0170970
831.863	0.0170249
831.942	0.0169518
832.020	0.0169484
832.098	0.0170379
832.176	0.0170599
832.254	0.0168960
832.332	0.0168721
832.410	0.0170451
832.488	0.0171237
832.567	0.0169260
832.645	0.0170514
832.723	0.0169540
832.801	0.0169028
832.879	0.0169077
832.957	0.0169449
833.035	0.0169017
833.113	0.0169495
833.192	0.0168669
833.270	0.0169055
833.348	0.0168244
833.426	0.0169793
833.504	0.0170257
833.582	0.0171091
833.660	0.0170843
833.738	0.0169494
833.817	0.0171404
833.895	0.0172326
833.973	0.0171681
834.051	0.0170219
834.129	0.0169384
834.207	0.0169925
834.285	0.0170364
834.363	0.0170479
834.442	0.0170828
834.520	0.0170640
834.598	0.0170560
834.676	0.0170905
834.754	0.0171440
834.832	0.0169114
834.910	0.0170141
834.988	0.0170396
835.067	0.0169910
835.145	0.0170548
835.223	0.0169100
835.301	0.0169408
835.379	0.0168620
835.457	0.0167458
835.535	0.0168580
835.613	0.0167947
835.692	0.0168340
835.770	0.0167567
835.848	0.0167929
835.926	0.0167411
836.004	0.0167907
836.082	0.0167928
836.160	0.0168723
836.238	0.0168477
836.317	0.0167083
836.395	0.0166753
836.473	0.0166510
836.551	0.0166671
836.629	0.0166767
836.707	0.0165568
836.785	0.0166257
836.863	0.0165712
836.942	0.0165997
837.020	0.0166611
837.098	0.0166519
837.176	0.0165868
837.254	0.0165584
837.332	0.0166275
837.410	0.0167248
837.488	0.0165688
837.567	0.0167698
837.645	0.0167189
837.723	0.0166532
837.801	0.0166438
837.879	0.0165971
837.957	0.0166654
838.035	0.0166939
838.113	0.0166793
838.192	0.0167732
838.270	0.0165851
838.348	0.0166558
838.426	0.0167124
838.504	0.0166776
838.582	0.0167624
838.660	0.0167719
838.738	0.0167398
838.817	0.0166166
838.895	0.0167589
838.973	0.0167188
839.051	0.0167322
839.129	0.0167262
839.207	0.0166549
839.285	0.0167588
839.363	0.0167688
839.442	0.0167293
839.520	0.0167829
839.598	0.0166927
839.676	0.0168221
839.754	0.0167896
839.832	0.0168833
839.910	0.0166449
839.988	0.0168996
840.067	0.0168354
840.145	0.0168174
840.223	0.0167411
840.301	0.0167690
840.379	0.0167492
840.457	0.0167083
840.535	0.0168719
840.613	0.0167736
840.692	0.0168880
840.770	0.0168554
840.848	0.0167922
840.926	0.0168449
841.004	0.0168591
841.082	0.0167535
841.160	0.0166756
841.238	0.0167204
841.317	0.0167760
841.395	0.0167732
841.473	0.0167551
841.551	0.0165222
841.629	0.0167793
841.707	0.0167445
841.785	0.0165687
841.863	0.0165748
841.942	0.0165632
842.020	0.0165266
842.098	0.0165273
842.176	0.0165430
842.254	0.0165429
842.332	0.0164958
842.410	0.0165166
842.488	0.0165727
842.567	0.0164542
842.645	0.0165820
842.723	0.0165438
842.801	0.0164352
842.879	0.0165871
842.957	0.0166260
843.035	0.0166007
843.113	0.0166108
843.192	0.0166612
843.270	0.0165981
843.348	0.0166190
843.426	0.0166325
843.504	0.0166699
843.582	0.0167592
843.660	0.0165914
843.738	0.0166297
843.817	0.0167076
843.895	0.0166991
843.973	0.0168186
844.051	0.0166958
844.129	0.0167170
844.207	0.0165682
844.285	0.0168150
844.363	0.0168372
844.442	0.0167133
844.520	0.0167722
844.598	0.0168700
844.676	0.0167639
844.754	0.0167907
844.832	0.0169273
844.910	0.0169934
844.988	0.0169585
845.067	0.0169119
845.145	0.0170602
845.223	0.0170447
845.301	0.0170547
845.379	0.0169662
845.457	0.0170332
845.535	0.0170395
845.613	0.0169949
845.692	0.0169299
845.770	0.0169099
845.848	0.0169707
845.926	0.0168597
846.004	0.0170692
846.082	0.0170609
846.160	0.0169132
846.238	0.0169816
846.317	0.0169740
846.395	0.0168909
846.473	0.0169733
846.551	0.0169794
846.629	0.0169771
846.707	0.0171644
846.785	0.0170239
846.863	0.0171679
846.942	0.0172103
847.020	0.0171416
847.098	0.0170724
847.176	0.0170384
847.254	0.0172124
847.332	0.0171317
847.410	0.0171810
847.488	0.0172594
847.567	0.0172044
847.645	0.0171146
847.723	0.0172081
847.801	0.0171948
847.879	0.0172922
847.957	0.0171628
848.035	0.0171799
848.113	0.0172663
848.192	0.0172406
848.270	0.0172341
848.348	0.0172444
848.426	0.0171195
848.504	0.0171400
848.582	0.0170867
848.660	0.0170348
848.738	0.0170724
848.817	0.0170722
848.895	0.0170562
848.973	0.0170235
849.051	0.0171916
849.129	0.0170081
849.207	0.0170856
849.285	0.0170926
849.363	0.0169049
849.442	0.0170143
849.520	0.0170077
849.598	0.0169086
849.676	0.0167110
849.754	0.0167949
849.832	0.0168160
849.910	0.0167865
849.988	0.0167768
850.067	0.0167055
850.145	0.0166431
850.223	0.0167831
850.301	0.0166216
850.379	0.0166708
850.457	0.0167004
850.535	0.0165734
850.613	0.0166911
850.692	0.0165708
850.770	0.0165120
850.848	0.0163696
850.926	0.0164192
851.004	0.0163317
851.082	0.0165201
851.160	0.0164041
851.238	0.0163879
851.317	0.0164350
851.395	0.0162809
851.473	0.0164747
851.551	0.0162507
851.629	0.0163291
851.707	0.0163903
851.785	0.0161750
851.863	0.0162050
851.942	0.0163422
852.020	0.0162986
852.098	0.0163069
852.176	0.0163337
852.254	0.0162268
852.332	0.0164330
852.410	0.0165616
852.488	0.0164752
852.567	0.0164965
852.645	0.0163916
852.723	0.0166377
852.801	0.0166302
852.879	0.0167719
852.957	0.0168134
853.035	0.0166828
853.113	0.0165814
853.192	0.0168031
853.270	0.0167351
853.348	0.0167348
853.426	0.0167735
853.504	0.0167791
853.582	0.0167605
853.660	0.0167261
853.738	0.0165720
853.817	0.0167273
853.895	0.0166796
853.973	0.0167058
854.051	0.0168343
854.129	0.0167475
854.207	0.0167224
854.285	0.0168329
854.363	0.0168229
854.442	0.0168534
854.520	0.0169240
854.598	0.0167678
854.676	0.0167853
854.754	0.0169360
854.832	0.0166789
854.910	0.0167390
854.988	0.0167789
855.067	0.0167458
855.145	0.0167617
855.223	0.0167089
855.301	0.0169077
855.379	0.0168820
855.457	0.0167810
855.535	0.0169536
855.613	0.0169486
855.692	0.0170884
855.770	0.0169327
855.848	0.0169070
855.926	0.0170674
856.004	0.0170690
856.082	0.0170733
856.160	0.0170235
856.238	0.0171178
856.317	0.0170274
856.395	0.0171069
856.473	0.0171900
856.551	0.0172495
856.629	0.0171761
856.707	0.0171146
856.785	0.0172124
856.863	0.0173025
856.942	0.0173296
857.020	0.0171843
857.098	0.0172027
857.176	0.0171831
857.254	0.0172363
857.332	0.0172821
857.410	0.0173719
857.488	0.0171662
857.567	0.0172826
857.645	0.0172674
857.723	0.0172146
857.801	0.0171324
857.879	0.0171667
857.957	0.0173273
858.035	0.0172832
858.113	0.0171918
858.192	0.0171590
858.270	0.0171539
858.348	0.0172948
858.426	0.0170934
858.504	0.0172229
858.582	0.0172010
858.660	0.0170608
858.738	0.0171593
858.817	0.0171884
858.895	0.0170394
858.973	0.0170891
859.051	0.0171407
859.129	0.0170056
859.207	0.0171836
859.285	0.0168237
859.363	0.0168200
859.442	0.0168635
859.520	0.0168328
859.598	0.0169348
859.676	0.0166923
859.754	0.0167096
859.832	0.0166149
859.910	0.0166212
859.988	0.0167422
860.067	0.0168012
860.145	0.0166049
860.223	0.0165817
860.301	0.0165034
860.379	0.0164752
860.457	0.0164790
860.535	0.0165224
860.613	0.0164415
860.692	0.0163859
860.770	0.0164689
860.848	0.0165821
860.926	0.0163295
861.004	0.0164417
861.082	0.0165350
861.160	0.0163773
861.238	0.0164735
861.317	0.0163525
861.395	0.0164413
861.473	0.0165221
861.551	0.0164278
861.629	0.0164677
861.707	0.0164020
861.785	0.0165987
861.863	0.0165294
861.942	0.0165502
862.020	0.0164561
862.098	0.0165108
862.176	0.0164857
862.254	0.0166900
862.332	0.0166879
862.410	0.0166306
862.488	0.0165079
862.567	0.0166988
862.645	0.0165916
862.723	0.0167123
862.801	0.0169040
862.879	0.0168506
862.957	0.0168371
863.035	0.0167346
863.113	0.0169016
863.192	0.0168802
863.270	0.0170175
863.348	0.0170981
863.426	0.0170840
863.504	0.0170748
863.582	0.0170861
863.660	0.0172571
863.738	0.0171177
863.817	0.0168951
863.895	0.0170491
863.973	0.0169769
864.051	0.0170808
864.129	0.0170049
864.207	0.0172183
864.285	0.0171928
864.363	0.0169366
864.442	0.0169853
864.520	0.0171672
864.598	0.0169978
864.676	0.0171310
864.754	0.0170670
864.832	0.0170374
864.910	0.0171941
864.988	0.0171529
865.067	0.0170653
865.145	0.0171425
865.223	0.0171743
865.301	0.0171310
865.379	0.0171105
865.457	0.0170267
865.535	0.0170930
865.613	0.0169441
865.692	0.0171246
865.770	0.0170873
865.848	0.0171310
865.926	0.0170293
866.004	0.0171770
866.082	0.0171358
866.160	0.0171017
866.238	0.0171164
866.317	0.0171906
866.395	0.0171635
866.473	0.0171684
866.551	0.0172285
866.629	0.0170918
866.707	0.0172101
866.785	0.0171101
866.863	0.0170698
866.942	0.0172483
867.020	0.0172050
867.098	0.0171445
867.176	0.0170975
867.254	0.0171222
867.332	0.0170931
867.410	0.0171851
867.488	0.0170528
867.567	0.0170564
867.645	0.0171397
867.723	0.0171035
867.801	0.0169672
867.879	0.0170725
867.957	0.0171759
868.035	0.0170512
868.113	0.0169374
868.192	0.0169202
868.270	0.0168215
868.348	0.0169868
868.426	0.0170840
868.504	0.0169108
868.582	0.0169357
868.660	0.0170170
868.738	0.0170060
868.817	0.0168188
868.895	0.0168246
868.973	0.0170378
869.051	0.0169627
869.129	0.0168071
869.207	0.0169209
869.285	0.0167602
869.363	0.0168855
869.442	0.0169031
869.520	0.0167976
869.598	0.0169219
869.676	0.0169507
869.754	0.0167544
869.832	0.0167735
869.910	0.0168634
869.988	0.0167568
870.067	0.0167285
870.145	0.0167992
870.223	0.0167638
870.301	0.0168915
870.379	0.0168783
870.457	0.0167147
870.535	0.0167901
870.613	0.0169246
870.692	0.0168900
870.770	0.0167955
870.848	0.0167770
870.926	0.0168742
871.004	0.0169106
871.082	0.0168948
871.160	0.0169105
871.238	0.0170477
871.317	0.0169085
871.395	0.0169868
871.473	0.0169606
871.551	0.0168940
871.629	0.0168929
871.707	0.0168979
871.785	0.0168973
871.863	0.0168092
871.942	0.0168481
872.020	0.0168349
872.098	0.0168433
872.176	0.0168855
872.254	0.0167487
872.332	0.0169723
872.410	0.0169573
872.488	0.0168201
872.567	0.0167482
872.645	0.0169128
872.723	0.0168916
872.801	0.0168071
872.879	0.0169681
872.957	0.0168993
873.035	0.0167989
873.113	0.0169497
873.192	0.0167062
873.270	0.0168026
873.348	0.0169651
873.426	0.0168880
873.504	0.0168254
873.582	0.0167309
873.660	0.0170149
873.738	0.0169800
873.817	0.0170129
873.895	0.0169695
873.973	0.0169542
874.051	0.0169469
874.129	0.0168481
874.207	0.0170358
874.285	0.0171196
874.363	0.0170282
874.442	0.0170455
874.520	0.0171419
874.598	0.0171906
874.676	0.0170162
874.754	0.0171074
874.832	0.0172165
874.910	0.0171665
874.988	0.0170914
875.067	0.0170566
875.145	0.0172879
875.223	0.0172245
875.301	0.0170914
875.379	0.0171202
875.457	0.0172314
875.535	0.0171490
875.613	0.0170778
875.692	0.0169350
875.770	0.0172016
875.848	0.0172502
875.926	0.0172191
876.004	0.0172088
876.082	0.0170941
876.160	0.0170692
876.238	0.0172624
876.317	0.0172100
876.395	0.0172120
876.473	0.0171565
876.551	0.0171352
876.629	0.0171636
876.707	0.0170982
876.785	0.0171673
876.863	0.0170467
876.942	0.0169770
877.020	0.0170258
877.098	0.0170549
877.176	0.0169658
877.254	0.0170099
877.332	0.0168956
877.410	0.0168899
877.488	0.0170724
877.567	0.0169518
877.645	0.0169499
877.723	0.0168755
877.801	0.0167572
877.879	0.0169746
877.957	0.0169196
878.035	0.0168672
878.113	0.0168341
878.192	0.0169183
878.270	0.0168851
878.348	0.0168512
878.426	0.0168912
878.504	0.0167826
878.582	0.0168060
878.660	0.0168217
878.738	0.0168932
878.817	0.0168587
878.895	0.0168114
878.973	0.0168813
879.051	0.0169671
879.129	0.0168826
879.207	0.0167548
879.285	0.0168219
879.363	0.0168730
879.442	0.0169775
879.520	0.0170099
879.598	0.0169630
879.676	0.0169052
879.754	0.0169884
879.832	0.0169852
879.910	0.0168629
879.988	0.0168624
880.067	0.0168609
880.145	0.0166633
880.223	0.0168474
880.301	0.0168172
880.379	0.0168797
880.457	0.0168311
880.535	0.0167522
880.613	0.0167641
880.692	0.0169083
880.770	0.0169198
880.848	0.0169376
880.926	0.0167808
881.004	0.0168584
881.082	0.0167596
881.160	0.0170007
881.238	0.0167866
881.317	0.0169341
881.395	0.0168593
881.473	0.0167164
881.551	0.0170010
881.629	0.0168566
881.707	0.0167531
881.785	0.0167888
881.863	0.0167908
881.942	0.0169508
882.020	0.0167754
882.098	0.0168366
882.176	0.0168592
882.254	0.0168188
882.332	0.0169110
882.410	0.0168845
882.488	0.0168571
882.567	0.0168643
882.645	0.0169691
882.723	0.0169196
882.801	0.0169546
882.879	0.0169062
882.957	0.0168892
883.035	0.0168585
883.113	0.0168443
883.192	0.0168805
883.270	0.0168968
883.348	0.0170741
883.426	0.0169998
883.504	0.0169937
883.582	0.0170322
883.660	0.0169869
883.738	0.0170094
883.817	0.0171167
883.895	0.0170571
883.973	0.0170800
884.051	0.0172466
884.129	0.0171551
884.207	0.0171177
884.285	0.0172581
884.363	0.0173234
884.442	0.0171510
884.520	0.0173209
884.598	0.0173383
884.676	0.0173422
884.754	0.0173235
884.832	0.0172902
884.910	0.0173119
884.988	0.0172115
885.067	0.0172612
885.145	0.0174188
885.223	0.0173875
885.301	0.0172842
885.379	0.0172906
885.457	0.0172643
885.535	0.0171693
885.613	0.0172008
885.692	0.0173495
885.770	0.0173852
885.848	0.0172224
885.926	0.0172681
886.004	0.0172223
886.082	0.0171666
886.160	0.0172450
886.238	0.0171204
886.317	0.0172126
886.395	0.0170403
886.473	0.0171068
886.551	0.0170322
886.629	0.0172230
886.707	0.0171966
886.785	0.0170364
886.863	0.0170932
886.942	0.0171908
887.020	0.0168797
887.098	0.0170727
887.176	0.0171383
887.254	0.0170277
887.332	0.0170652
887.410	0.0170000
887.488	0.0169505
887.567	0.0169735
887.645	0.0170955
887.723	0.0171432
887.801	0.0169045
887.879	0.0170113
887.957	0.0170597
888.035	0.0169897
888.113	0.0170119
888.192	0.0171797
888.270	0.0171721
888.348	0.0171791
888.426	0.0171809
888.504	0.0170489
888.582	0.0172180
888.660	0.0171624
888.738	0.0172083
888.817	0.0172149
888.895	0.0172596
888.973	0.0173016
889.051	0.0173976
889.129	0.0174122
889.207	0.0174638
889.285	0.0172762
889.363	0.0174158
889.442	0.0172188
889.520	0.0173402
889.598	0.0174030
889.676	0.0173003
889.754	0.0172255
889.832	0.0173392
889.910	0.0172964
889.988	0.0172986
890.067	0.0171875
890.145	0.0172086
890.223	0.0171339
890.301	0.0172422
890.379	0.0171698
890.457	0.0171854
890.535	0.0172033
890.613	0.0170692
890.692	0.0170179
890.770	0.0171554
890.848	0.0173757
890.926	0.0171191
891.004	0.0171195
891.082	0.0171851
891.160	0.0173579
891.238	0.0171773
891.317	0.0172083
891.395	0.0170993
891.473	0.0171933
891.551	0.0171066
891.629	0.0170061
891.707	0.0170753
891.785	0.0169386
891.863	0.0169498
891.942	0.0169761
892.020	0.0168520
892.098	0.0166593
892.176	0.0167403
892.254	0.0170137
892.332	0.0168919
892.410	0.0166463
892.488	0.0168027
892.567	0.0169038
892.645	0.0167516
892.723	0.0170240
892.801	0.0168504
892.879	0.0168092
892.957	0.0167941
893.035	0.0168648
893.113	0.0169034
893.192	0.0169943
893.270	0.0169916
893.348	0.0169451
893.426	0.0169612
893.504	0.0167912
893.582	0.0169670
893.660	0.0167478
893.738	0.0169637
893.817	0.0168383
893.895	0.0168654
893.973	0.0169656
894.051	0.0169335
894.129	0.0169092
894.207	0.0170079
894.285	0.0168376
894.363	0.0169314
894.442	0.0169962
894.520	0.0170181
894.598	0.0170004
894.676	0.0170353
894.754	0.0168903
894.832	0.0168810
894.910	0.0169527
894.988	0.0170661
895.067	0.0169653
895.145	0.0170082
895.223	0.0168990
895.301	0.0170650
895.379	0.0170341
895.457	0.0169668
895.535	0.0170294
895.613	0.0170049
895.692	0.0169514
895.770	0.0170921
895.848	0.0170483
895.926	0.0171235
896.004	0.0170033
896.082	0.0170810
896.160	0.0169667
896.238	0.0168847
896.317	0.0170088
896.395	0.0170229
896.473	0.0168649
896.551	0.0169488
896.629	0.0169202
896.707	0.0169358
896.785	0.0168956
896.863	0.0169523
896.942	0.0170644
897.020	0.0167627
897.098	0.0166711
897.176	0.0167724
897.254	0.0168258
897.332	0.0168604
897.410	0.0167561
897.488	0.0166437
897.567	0.0168335
897.645	0.0168238
897.723	0.0167985
897.801	0.0167743
897.879	0.0168124
897.957	0.0168010
898.035	0.0167844
898.113	0.0168552
898.192	0.0168845
898.270	0.0168950
898.348	0.0169525
898.426	0.0166930
898.504	0.0168357
898.582	0.0167003
898.660	0.0166757
898.738	0.0168749
898.817	0.0168916
898.895	0.0165990
898.973	0.0167347
899.051	0.0167770
899.129	0.0166611
899.207	0.0165781
899.285	0.0166521
899.363	0.0167059
899.442	0.0166262
899.520	0.0166268
899.598	0.0166435
899.676	0.0167550
899.754	0.0166187
899.832	0.0165590
899.910	0.0166505
899.988	0.0165530
900.067	0.0166428
900.145	0.0165299
900.223	0.0164137
900.301	0.0164650
900.379	0.0164623
900.457	0.0164790
900.535	0.0164687
900.613	0.0163287
900.692	0.0163374
900.770	0.0163108
900.848	0.0163857
900.926	0.0163454
901.004	0.0162135
901.082	0.0163204
901.160	0.0164101
901.238	0.0165656
901.317	0.0166088
901.395	0.0166243
901.473	0.0166011
901.551	0.0166895
901.629	0.0164519
901.707	0.0165700
901.785	0.0165582
901.863	0.0164891
901.942	0.0166056
902.020	0.0164262
902.098	0.0165317
902.176	0.0166338
902.254	0.0167484
902.332	0.0166843
902.410	0.0167570
902.488	0.0169970
902.567	0.0170112
902.645	0.0170297
902.723	0.0171517
902.801	0.0170982
902.879	0.0171789
902.957	0.0172231
903.035	0.0172117
903.113	0.0172005
903.192	0.0172160
903.270	0.0170087
903.348	0.0170522
903.426	0.0171286
903.504	0.0170950
903.582	0.0171126
903.660	0.0170489
903.738	0.0170783
903.817	0.0170745
903.895	0.0172012
903.973	0.0172514
904.051	0.0170030
904.129	0.0171321
904.207	0.0170340
904.285	0.0170583
904.363	0.0169717
904.442	0.0169312
904.520	0.0171024
904.598	0.0171246
904.676	0.0170596
904.754	0.0170159
904.832	0.0170251
904.910	0.0170582
904.988	0.0169610
905.067	0.0169675
905.145	0.0170311
905.223	0.0171175
905.301	0.0169276
905.379	0.0169460
905.457	0.0170107
905.535	0.0169559
905.613	0.0169968
905.692	0.0170204
905.770	0.0169106
905.848	0.0168607
905.926	0.0168726
906.004	0.0169942
906.082	0.0170430
906.160	0.0168999
906.238	0.0170129
906.317	0.0168728
906.395	0.0169200
906.473	0.0169623
906.551	0.0168544
906.629	0.0169556
906.707	0.0170158
906.785	0.0170608
906.863	0.0169601
906.942	0.0170641
907.020	0.0169350
907.098	0.0170370
907.176	0.0169288
907.254	0.0170084
907.332	0.0170214
907.410	0.0170447
907.488	0.0170216
907.567	0.0170421
907.645	0.0169209
907.723	0.0169196
907.801	0.0168288
907.879	0.0168996
907.957	0.0168610
908.035	0.0167296
908.113	0.0167458
908.192	0.0167656
908.270	0.0166777
908.348	0.0167307
908.426	0.0166719
908.504	0.0165815
908.582	0.0168001
908.660	0.0166454
908.738	0.0165330
908.817	0.0165862
908.895	0.0167172
908.973	0.0166468
909.051	0.0166675
909.129	0.0166477
909.207	0.0165019
909.285	0.0165884
909.363	0.0166891
909.442	0.0165661
909.520	0.0166856
909.598	0.0166848
909.676	0.0167265
909.754	0.0167262
909.832	0.0166602
909.910	0.0168079
909.988	0.0167580
910.067	0.0168486
910.145	0.0167036
910.223	0.0167311
910.301	0.0169698
910.379	0.0169173
910.457	0.0168643
910.535	0.0170475
910.613	0.0170037
910.692	0.0169709
910.770	0.0170035
910.848	0.0171663
910.926	0.0171613
911.004	0.0170232
911.082	0.0171233
911.160	0.0170475
911.238	0.0169836
911.317	0.0169677
911.395	0.0170175
911.473	0.0169328
911.551	0.0169574
911.629	0.0169083
911.707	0.0169562
911.785	0.0170055
911.863	0.0169148
911.942	0.0170016
912.020	0.0170069
912.098	0.0170187
912.176	0.0168603
912.254	0.0169855
912.332	0.0168118
912.410	0.0168066
912.488	0.0167918
912.567	0.0167581
912.645	0.0167783
912.723	0.0166331
912.801	0.0166915
912.879	0.0166838
912.957	0.0166165
913.035	0.0165656
913.113	0.0165839
913.192	0.0166687
913.270	0.0167548
913.348	0.0166454
913.426	0.0166653
913.504	0.0167721
913.582	0.0167881
913.660	0.0166080
913.738	0.0166508
913.817	0.0167915
913.895	0.0167757
913.973	0.0167973
914.051	0.0166985
914.129	0.0167625
914.207	0.0166698
914.285	0.0167561
914.363	0.0167669
914.442	0.0168642
914.520	0.0167116
914.598	0.0167654
914.676	0.0167909
914.754	0.0168385
914.832	0.0168288
914.910	0.0169618
914.988	0.0168402
915.067	0.0169126
915.145	0.0170174
915.223	0.0170467
915.301	0.0170207
915.379	0.0168987
915.457	0.0170504
915.535	0.0168879
915.613	0.0169760
915.692	0.0169945
915.770	0.0168188
915.848	0.0168964
915.926	0.0171066
916.004	0.0170011
916.082	0.0169701
916.160	0.0169112
916.238	0.0169619
916.317	0.0168725
916.395	0.0170433
916.473	0.0169570
916.551	0.0168478
916.629	0.0168678
916.707	0.0169413
916.785	0.0169852
916.863	0.0168947
916.942	0.0169110
917.020	0.0169083
917.098	0.0168692
917.176	0.0168667
917.254	0.0168932
917.332	0.0169020
917.410	0.0168009
917.488	0.0169104
917.567	0.0169949
917.645	0.0169076
917.723	0.0168484
917.801	0.0168974
917.879	0.0169276
917.957	0.0169209
918.035	0.0168317
918.113	0.0169109
918.192	0.0169404
918.270	0.0170102
918.348	0.0169563
918.426	0.0169939
918.504	0.0169408
918.582	0.0168629
918.660	0.0168367
918.738	0.0168742
918.817	0.0167873
918.895	0.0168480
918.973	0.0168064
919.051	0.0167898
919.129	0.0166431
919.207	0.0167143
919.285	0.0167163
919.363	0.0166662
919.442	0.0167467
919.520	0.0166979
919.598	0.0165981
919.676	0.0166835
919.754	0.0166066
919.832	0.0166701
919.910	0.0166236
