06/01/2022	22:19:39	Ver.	4.1	UNKNOWN
Optical Delay	599.988409	Delta X		0.078125	Sweeps	1	Scan Rate	0/0
Coordinates	Axis 1	NaN	Axis 2	NaN	Axis 3	NaN	Axis 4	NaN	Axis 5	NaN	Axis 6	0.000000
TX Power	0.000000	RX Power	0.000000

599.988	0.0174950
600.067	0.0173457
600.145	0.0172871
600.223	0.0174397
600.301	0.0173505
600.379	0.0172995
600.457	0.0175117
600.535	0.0174686
600.613	0.0173135
600.692	0.0173498
600.770	0.0174058
600.848	0.0174336
600.926	0.0173420
601.004	0.0174918
601.082	0.0172863
601.160	0.0173390
601.238	0.0171607
601.317	0.0172859
601.395	0.0173805
601.473	0.0174392
601.551	0.0172731
601.629	0.0171951
601.707	0.0173468
601.785	0.0173583
601.863	0.0171957
601.942	0.0172649
602.020	0.0173476
602.098	0.0173763
602.176	0.0172835
602.254	0.0173394
602.332	0.0172716
602.410	0.0173415
602.488	0.0175063
602.567	0.0173969
602.645	0.0173387
602.723	0.0174744
602.801	0.0174976
602.879	0.0174238
602.957	0.0174218
603.035	0.0174657
603.113	0.0173123
603.192	0.0173762
603.270	0.0173283
603.348	0.0173710
603.426	0.0173066
603.504	0.0174092
603.582	0.0173062
603.660	0.0173034
603.738	0.0173074
603.817	0.0173989
603.895	0.0173399
603.973	0.0173666
604.051	0.0173772
604.129	0.0174418
604.207	0.0174371
604.285	0.0173034
604.363	0.0171632
604.442	0.0174135
604.520	0.0173607
604.598	0.0174281
604.676	0.0174825
604.754	0.0173971
604.832	0.0175500
604.910	0.0175382
604.988	0.0174631
605.067	0.0174426
605.145	0.0175987
605.223	0.0175909
605.301	0.0174333
605.379	0.0174474
605.457	0.0173934
605.535	0.0174879
605.613	0.0175227
605.692	0.0174187
605.770	0.0174776
605.848	0.0176182
605.926	0.0175969
606.004	0.0175106
606.082	0.0175761
606.160	0.0176498
606.238	0.0176812
606.317	0.0178255
606.395	0.0178236
606.473	0.0178293
606.551	0.0179129
606.629	0.0179766
606.707	0.0180939
606.785	0.0178818
606.863	0.0180595
606.942	0.0179892
607.020	0.0179160
607.098	0.0179905
607.176	0.0180302
607.254	0.0179520
607.332	0.0179288
607.410	0.0179465
607.488	0.0178784
607.567	0.0179123
607.645	0.0178875
607.723	0.0177802
607.801	0.0177621
607.879	0.0178821
607.957	0.0176992
608.035	0.0177299
608.113	0.0177856
608.192	0.0177399
608.270	0.0176934
608.348	0.0177251
608.426	0.0177808
608.504	0.0176980
608.582	0.0176402
608.660	0.0177641
608.738	0.0178290
608.817	0.0177799
608.895	0.0177721
608.973	0.0179453
609.051	0.0178319
609.129	0.0178600
609.207	0.0180962
609.285	0.0180469
609.363	0.0180738
609.442	0.0180289
609.520	0.0181577
609.598	0.0180805
609.676	0.0180239
609.754	0.0180727
609.832	0.0180725
609.910	0.0179736
609.988	0.0179136
610.067	0.0180482
610.145	0.0180442
610.223	0.0179523
610.301	0.0178162
610.379	0.0179469
610.457	0.0179012
610.535	0.0178529
610.613	0.0179121
610.692	0.0177356
610.770	0.0178340
610.848	0.0178043
610.926	0.0177797
611.004	0.0177817
611.082	0.0178894
611.160	0.0179132
611.238	0.0178771
611.317	0.0178981
611.395	0.0178866
611.473	0.0179721
611.551	0.0179549
611.629	0.0178899
611.707	0.0179877
611.785	0.0179746
611.863	0.0179687
611.942	0.0179913
612.020	0.0178837
612.098	0.0179176
612.176	0.0179116
612.254	0.0178944
612.332	0.0178960
612.410	0.0179374
612.488	0.0179978
612.567	0.0179352
612.645	0.0179149
612.723	0.0178922
612.801	0.0179156
612.879	0.0177792
612.957	0.0178378
613.035	0.0178248
613.113	0.0179161
613.192	0.0178121
613.270	0.0177883
613.348	0.0178046
613.426	0.0177087
613.504	0.0177199
613.582	0.0176710
613.660	0.0177126
613.738	0.0176932
613.817	0.0176288
613.895	0.0174726
613.973	0.0176327
614.051	0.0175729
614.129	0.0173896
614.207	0.0174200
614.285	0.0174533
614.363	0.0174706
614.442	0.0171366
614.520	0.0170800
614.598	0.0172134
614.676	0.0171056
614.754	0.0170231
614.832	0.0169896
614.910	0.0168725
614.988	0.0168719
615.067	0.0167477
615.145	0.0167219
615.223	0.0166737
615.301	0.0167983
615.379	0.0167909
615.457	0.0168934
615.535	0.0168072
615.613	0.0169144
615.692	0.0170144
615.770	0.0171083
615.848	0.0172566
615.926	0.0172614
616.004	0.0173202
616.082	0.0173327
616.160	0.0173873
616.238	0.0176094
616.317	0.0176372
616.395	0.0176326
616.473	0.0177476
616.551	0.0178289
616.629	0.0179715
616.707	0.0179208
616.785	0.0180610
616.863	0.0181277
616.942	0.0181022
617.020	0.0180360
617.098	0.0181379
617.176	0.0181940
617.254	0.0180480
617.332	0.0179304
617.410	0.0180758
617.488	0.0181467
617.567	0.0181064
617.645	0.0181185
617.723	0.0180397
617.801	0.0180630
617.879	0.0180313
617.957	0.0179146
618.035	0.0178682
618.113	0.0178358
618.192	0.0179089
618.270	0.0177235
618.348	0.0176530
618.426	0.0177129
618.504	0.0175616
618.582	0.0174380
618.660	0.0175829
618.738	0.0174731
618.817	0.0175124
618.895	0.0174135
618.973	0.0173616
619.051	0.0173814
619.129	0.0172371
619.207	0.0173277
619.285	0.0173937
619.363	0.0173743
619.442	0.0172649
619.520	0.0173141
619.598	0.0173318
619.676	0.0173697
619.754	0.0173466
619.832	0.0173048
619.910	0.0173745
619.988	0.0175299
620.067	0.0173656
620.145	0.0175282
620.223	0.0175739
620.301	0.0177786
620.379	0.0176767
620.457	0.0175862
620.535	0.0177138
620.613	0.0178642
620.692	0.0177941
620.770	0.0178730
620.848	0.0178305
620.926	0.0180574
621.004	0.0179353
621.082	0.0179076
621.160	0.0178860
621.238	0.0178752
621.317	0.0179066
621.395	0.0179603
621.473	0.0178897
621.551	0.0178667
621.629	0.0177985
621.707	0.0178771
621.785	0.0177338
621.863	0.0179331
621.942	0.0179076
622.020	0.0176694
622.098	0.0177148
622.176	0.0178220
622.254	0.0178892
622.332	0.0179437
622.410	0.0178685
622.488	0.0179032
622.567	0.0178421
622.645	0.0179180
622.723	0.0179127
622.801	0.0178543
622.879	0.0179146
622.957	0.0179079
623.035	0.0178530
623.113	0.0178714
623.192	0.0177486
623.270	0.0177097
623.348	0.0177695
623.426	0.0176672
623.504	0.0177662
623.582	0.0176771
623.660	0.0177081
623.738	0.0175840
623.817	0.0176524
623.895	0.0176447
623.973	0.0177115
624.051	0.0174623
624.129	0.0176177
624.207	0.0175316
624.285	0.0175891
624.363	0.0176139
624.442	0.0176078
624.520	0.0177288
624.598	0.0176965
624.676	0.0177151
624.754	0.0176305
624.832	0.0176242
624.910	0.0176791
624.988	0.0177156
625.067	0.0177486
625.145	0.0177390
625.223	0.0177431
625.301	0.0178522
625.379	0.0177185
625.457	0.0177523
625.535	0.0178350
625.613	0.0177139
625.692	0.0176612
625.770	0.0178484
625.848	0.0178693
625.926	0.0177390
626.004	0.0176659
626.082	0.0175958
626.160	0.0175379
626.238	0.0175909
626.317	0.0177185
626.395	0.0176994
626.473	0.0174743
626.551	0.0176035
626.629	0.0176877
626.707	0.0177276
626.785	0.0175394
626.863	0.0175916
626.942	0.0176413
627.020	0.0175099
627.098	0.0174831
627.176	0.0174453
627.254	0.0174351
627.332	0.0175272
627.410	0.0174714
627.488	0.0174672
627.567	0.0173250
627.645	0.0172983
627.723	0.0172867
627.801	0.0173240
627.879	0.0175520
627.957	0.0174244
628.035	0.0174268
628.113	0.0174030
628.192	0.0175509
628.270	0.0175690
628.348	0.0177385
628.426	0.0176288
628.504	0.0178296
628.582	0.0176643
628.660	0.0177183
628.738	0.0176901
628.817	0.0177035
628.895	0.0177485
628.973	0.0178042
629.051	0.0178162
629.129	0.0177962
629.207	0.0179021
629.285	0.0178787
629.363	0.0178804
629.442	0.0178410
629.520	0.0180471
629.598	0.0180354
629.676	0.0178761
629.754	0.0180122
629.832	0.0179585
629.910	0.0179958
629.988	0.0180038
630.067	0.0178721
630.145	0.0178818
630.223	0.0178813
630.301	0.0179345
630.379	0.0180701
630.457	0.0178783
630.535	0.0180074
630.613	0.0178826
630.692	0.0178250
630.770	0.0179765
630.848	0.0179243
630.926	0.0178992
631.004	0.0178889
631.082	0.0179609
631.160	0.0178208
631.238	0.0177232
631.317	0.0178618
631.395	0.0177525
631.473	0.0177493
631.551	0.0177192
631.629	0.0176556
631.707	0.0176492
631.785	0.0176627
631.863	0.0175235
631.942	0.0175939
632.020	0.0175401
632.098	0.0177174
632.176	0.0175829
632.254	0.0174661
632.332	0.0173962
632.410	0.0176031
632.488	0.0175165
632.567	0.0174845
632.645	0.0174728
632.723	0.0176487
632.801	0.0176572
632.879	0.0175028
632.957	0.0176646
633.035	0.0177316
633.113	0.0176910
633.192	0.0176672
633.270	0.0178080
633.348	0.0176053
633.426	0.0175755
633.504	0.0176344
633.582	0.0176941
633.660	0.0174850
633.738	0.0177837
633.817	0.0176588
633.895	0.0175908
633.973	0.0176242
634.051	0.0175560
634.129	0.0174986
634.207	0.0175986
634.285	0.0175361
634.363	0.0175944
634.442	0.0176314
634.520	0.0176688
634.598	0.0175981
634.676	0.0175231
634.754	0.0176373
634.832	0.0177949
634.910	0.0176900
634.988	0.0176624
635.067	0.0175206
635.145	0.0175339
635.223	0.0175579
635.301	0.0175874
635.379	0.0174672
635.457	0.0174617
635.535	0.0174799
635.613	0.0175588
635.692	0.0175027
635.770	0.0174666
635.848	0.0174056
635.926	0.0173097
636.004	0.0174039
636.082	0.0174496
636.160	0.0174914
636.238	0.0174418
636.317	0.0174716
636.395	0.0175819
636.473	0.0175188
636.551	0.0175043
636.629	0.0176329
636.707	0.0175407
636.785	0.0175641
636.863	0.0177253
636.942	0.0176036
637.020	0.0176821
637.098	0.0177489
637.176	0.0176534
637.254	0.0178113
637.332	0.0176057
637.410	0.0178148
637.488	0.0178405
637.567	0.0176122
637.645	0.0177423
637.723	0.0177914
637.801	0.0177126
637.879	0.0176721
637.957	0.0176405
638.035	0.0177697
638.113	0.0176692
638.192	0.0175464
638.270	0.0174814
638.348	0.0176136
638.426	0.0176517
638.504	0.0175909
638.582	0.0174461
638.660	0.0176065
638.738	0.0178673
638.817	0.0177979
638.895	0.0177594
638.973	0.0178187
639.051	0.0176460
639.129	0.0177235
639.207	0.0179146
639.285	0.0178506
639.363	0.0178595
639.442	0.0177308
639.520	0.0179947
639.598	0.0179739
639.676	0.0178946
639.754	0.0178299
639.832	0.0178461
639.910	0.0178333
639.988	0.0177289
640.067	0.0178789
640.145	0.0178140
640.223	0.0177544
640.301	0.0177308
640.379	0.0176336
640.457	0.0175636
640.535	0.0175048
640.613	0.0176294
640.692	0.0175562
640.770	0.0177784
640.848	0.0176778
640.926	0.0174709
641.004	0.0176112
641.082	0.0176429
641.160	0.0176749
641.238	0.0176296
641.317	0.0175779
641.395	0.0176688
641.473	0.0177330
641.551	0.0177185
641.629	0.0178069
641.707	0.0177132
641.785	0.0178743
641.863	0.0177184
641.942	0.0178616
642.020	0.0177174
642.098	0.0177516
642.176	0.0179408
642.254	0.0178359
642.332	0.0177196
642.410	0.0178489
642.488	0.0177068
642.567	0.0178302
642.645	0.0176884
642.723	0.0176889
642.801	0.0178149
642.879	0.0176514
642.957	0.0176522
643.035	0.0177269
643.113	0.0175986
643.192	0.0176972
643.270	0.0176797
643.348	0.0177433
643.426	0.0175897
643.504	0.0177498
643.582	0.0177512
643.660	0.0175551
643.738	0.0174337
643.817	0.0175507
643.895	0.0173792
643.973	0.0175191
644.051	0.0175648
644.129	0.0173684
644.207	0.0173549
644.285	0.0173829
644.363	0.0172928
644.442	0.0172130
644.520	0.0170702
644.598	0.0172280
644.676	0.0172602
644.754	0.0170917
644.832	0.0169761
644.910	0.0172707
644.988	0.0171436
645.067	0.0170831
645.145	0.0171680
645.223	0.0171001
645.301	0.0172108
645.379	0.0171848
645.457	0.0172852
645.535	0.0173235
645.613	0.0173207
645.692	0.0173648
645.770	0.0173934
645.848	0.0172849
645.926	0.0173148
646.004	0.0174285
646.082	0.0173911
646.160	0.0174758
646.238	0.0174608
646.317	0.0174571
646.395	0.0173885
646.473	0.0173808
646.551	0.0175883
646.629	0.0176978
646.707	0.0175055
646.785	0.0177068
646.863	0.0176062
646.942	0.0174990
647.020	0.0177250
647.098	0.0178012
647.176	0.0177114
647.254	0.0177970
647.332	0.0177583
647.410	0.0177546
647.488	0.0177433
647.567	0.0176971
647.645	0.0176974
647.723	0.0176134
647.801	0.0176901
647.879	0.0176043
647.957	0.0175382
648.035	0.0175828
648.113	0.0177393
648.192	0.0174498
648.270	0.0175641
648.348	0.0176601
648.426	0.0177424
648.504	0.0175372
648.582	0.0175109
648.660	0.0175923
648.738	0.0178152
648.817	0.0178333
648.895	0.0176712
648.973	0.0177623
649.051	0.0177019
649.129	0.0176749
649.207	0.0178513
649.285	0.0177631
649.363	0.0179153
649.442	0.0178551
649.520	0.0177725
649.598	0.0177551
649.676	0.0178400
649.754	0.0178800
649.832	0.0177618
649.910	0.0178003
649.988	0.0178585
650.067	0.0179272
650.145	0.0177716
650.223	0.0177234
650.301	0.0177396
650.379	0.0176614
650.457	0.0176939
650.535	0.0176685
650.613	0.0177345
650.692	0.0174859
650.770	0.0176237
650.848	0.0177164
650.926	0.0175854
651.004	0.0175816
651.082	0.0176563
651.160	0.0176929
651.238	0.0176823
651.317	0.0176958
651.395	0.0177733
651.473	0.0176535
651.551	0.0176726
651.629	0.0176492
651.707	0.0177717
651.785	0.0177661
651.863	0.0177319
651.942	0.0178133
652.020	0.0177020
652.098	0.0176367
652.176	0.0176337
652.254	0.0177985
652.332	0.0178068
652.410	0.0177244
652.488	0.0177462
652.567	0.0179091
652.645	0.0178999
652.723	0.0178257
652.801	0.0176242
652.879	0.0178823
652.957	0.0179884
653.035	0.0179539
653.113	0.0179101
653.192	0.0179870
653.270	0.0178546
653.348	0.0178417
653.426	0.0177924
653.504	0.0177736
653.582	0.0176026
653.660	0.0176994
653.738	0.0178205
653.817	0.0177599
653.895	0.0177940
653.973	0.0176002
654.051	0.0177223
654.129	0.0176337
654.207	0.0174205
654.285	0.0173689
654.363	0.0174722
654.442	0.0174754
654.520	0.0174794
654.598	0.0173151
654.676	0.0172549
654.754	0.0172427
654.832	0.0172488
654.910	0.0171637
654.988	0.0171647
655.067	0.0171107
655.145	0.0170358
655.223	0.0169441
655.301	0.0170472
655.379	0.0169195
655.457	0.0168439
655.535	0.0169050
655.613	0.0168795
655.692	0.0169099
655.770	0.0169832
655.848	0.0169389
655.926	0.0170140
656.004	0.0170351
656.082	0.0169425
656.160	0.0169809
656.238	0.0170098
656.317	0.0172128
656.395	0.0171053
656.473	0.0172430
656.551	0.0172154
656.629	0.0172865
656.707	0.0172040
656.785	0.0173666
656.863	0.0171660
656.942	0.0173820
657.020	0.0173757
657.098	0.0175021
657.176	0.0174366
657.254	0.0174133
657.332	0.0174414
657.410	0.0174591
657.488	0.0174881
657.567	0.0174474
657.645	0.0174686
657.723	0.0175072
657.801	0.0175829
657.879	0.0176937
657.957	0.0175725
658.035	0.0175158
658.113	0.0175687
658.192	0.0174895
658.270	0.0175031
658.348	0.0176390
658.426	0.0177289
658.504	0.0174884
658.582	0.0175856
658.660	0.0175195
658.738	0.0176695
658.817	0.0176139
658.895	0.0176168
658.973	0.0176144
659.051	0.0176221
659.129	0.0176379
659.207	0.0177093
659.285	0.0176897
659.363	0.0176344
659.442	0.0176469
659.520	0.0175253
659.598	0.0178024
659.676	0.0177374
659.754	0.0176051
659.832	0.0176218
659.910	0.0175301
659.988	0.0174082
660.067	0.0174464
660.145	0.0175168
660.223	0.0174987
660.301	0.0175203
660.379	0.0174735
660.457	0.0175723
660.535	0.0173813
660.613	0.0174043
660.692	0.0175700
660.770	0.0175179
660.848	0.0174586
660.926	0.0175304
661.004	0.0174201
661.082	0.0174649
661.160	0.0174657
661.238	0.0175642
661.317	0.0175240
661.395	0.0175158
661.473	0.0176506
661.551	0.0177220
661.629	0.0174722
661.707	0.0174142
661.785	0.0177097
661.863	0.0175490
661.942	0.0174478
662.020	0.0174077
662.098	0.0175335
662.176	0.0175600
662.254	0.0174464
662.332	0.0175166
662.410	0.0174213
662.488	0.0175585
662.567	0.0176269
662.645	0.0176457
662.723	0.0175559
662.801	0.0177642
662.879	0.0176204
662.957	0.0176756
663.035	0.0176502
663.113	0.0177312
663.192	0.0175990
663.270	0.0176987
663.348	0.0175038
663.426	0.0176180
663.504	0.0175536
663.582	0.0174649
663.660	0.0175796
663.738	0.0175809
663.817	0.0175407
663.895	0.0175255
663.973	0.0174590
664.051	0.0174728
664.129	0.0173640
664.207	0.0173714
664.285	0.0176149
664.363	0.0175818
664.442	0.0175532
664.520	0.0176308
664.598	0.0176835
664.676	0.0176949
664.754	0.0177025
664.832	0.0176476
664.910	0.0178332
664.988	0.0178005
665.067	0.0177231
665.145	0.0176292
665.223	0.0177038
665.301	0.0175870
665.379	0.0177155
665.457	0.0174765
665.535	0.0175702
665.613	0.0176415
665.692	0.0176632
665.770	0.0175031
665.848	0.0176539
665.926	0.0176032
666.004	0.0176322
666.082	0.0177310
666.160	0.0176328
666.238	0.0176520
666.317	0.0176408
666.395	0.0177262
666.473	0.0176630
666.551	0.0177908
666.629	0.0176900
666.707	0.0177860
666.785	0.0177296
666.863	0.0175806
666.942	0.0176226
667.020	0.0175578
667.098	0.0176511
667.176	0.0174747
667.254	0.0174796
667.332	0.0175281
667.410	0.0174656
667.488	0.0174632
667.567	0.0174878
667.645	0.0172724
667.723	0.0173106
667.801	0.0173724
667.879	0.0173952
667.957	0.0172933
668.035	0.0173374
668.113	0.0173057
668.192	0.0172635
668.270	0.0173304
668.348	0.0173000
668.426	0.0173473
668.504	0.0172701
668.582	0.0174641
668.660	0.0173898
668.738	0.0171451
668.817	0.0172935
668.895	0.0173803
668.973	0.0172710
669.051	0.0174367
669.129	0.0174512
669.207	0.0174025
669.285	0.0174272
669.363	0.0175003
669.442	0.0176335
669.520	0.0175510
669.598	0.0173782
669.676	0.0173548
669.754	0.0174190
669.832	0.0174760
669.910	0.0175504
669.988	0.0173893
670.067	0.0172221
670.145	0.0174249
670.223	0.0174673
670.301	0.0173866
670.379	0.0173865
670.457	0.0174574
670.535	0.0173861
670.613	0.0174921
670.692	0.0174406
670.770	0.0173183
670.848	0.0175391
670.926	0.0174538
671.004	0.0173828
671.082	0.0173846
671.160	0.0173900
671.238	0.0172999
671.317	0.0174347
671.395	0.0173823
671.473	0.0172818
671.551	0.0172554
671.629	0.0173275
671.707	0.0173335
671.785	0.0172965
671.863	0.0172996
671.942	0.0172411
672.020	0.0171893
672.098	0.0171949
672.176	0.0173450
672.254	0.0171790
672.332	0.0171503
672.410	0.0171309
672.488	0.0171046
672.567	0.0172311
672.645	0.0172081
672.723	0.0171446
672.801	0.0172903
672.879	0.0173332
672.957	0.0173274
673.035	0.0174720
673.113	0.0173478
673.192	0.0173717
673.270	0.0174402
673.348	0.0174157
673.426	0.0175218
673.504	0.0174511
673.582	0.0173275
673.660	0.0173734
673.738	0.0172507
673.817	0.0175150
673.895	0.0173389
673.973	0.0173898
674.051	0.0174376
674.129	0.0174300
674.207	0.0173063
674.285	0.0172573
674.363	0.0172326
674.442	0.0174074
674.520	0.0172848
674.598	0.0174252
674.676	0.0172960
674.754	0.0174210
674.832	0.0175188
674.910	0.0175862
674.988	0.0176283
675.067	0.0176029
675.145	0.0175516
675.223	0.0175825
675.301	0.0176686
675.379	0.0176920
675.457	0.0176737
675.535	0.0177072
675.613	0.0177450
675.692	0.0177744
675.770	0.0178685
675.848	0.0178564
675.926	0.0178641
676.004	0.0177954
676.082	0.0178240
676.160	0.0180102
676.238	0.0179271
676.317	0.0177936
676.395	0.0178310
676.473	0.0178671
676.551	0.0177683
676.629	0.0179417
676.707	0.0177761
676.785	0.0178221
676.863	0.0178263
676.942	0.0180521
677.020	0.0178903
677.098	0.0178860
677.176	0.0178913
677.254	0.0179131
677.332	0.0177936
677.410	0.0178844
677.488	0.0178786
677.567	0.0179062
677.645	0.0179406
677.723	0.0178723
677.801	0.0176748
677.879	0.0176740
677.957	0.0178365
678.035	0.0179088
678.113	0.0178527
678.192	0.0176955
678.270	0.0177311
678.348	0.0177172
678.426	0.0175471
678.504	0.0176488
678.582	0.0175678
678.660	0.0176013
678.738	0.0176511
678.817	0.0177316
678.895	0.0174497
678.973	0.0176488
679.051	0.0175580
679.129	0.0174499
679.207	0.0174474
679.285	0.0175292
679.363	0.0175714
679.442	0.0176034
679.520	0.0174382
679.598	0.0173856
679.676	0.0173792
679.754	0.0173913
679.832	0.0174828
679.910	0.0174187
679.988	0.0174263
680.067	0.0174857
680.145	0.0174326
680.223	0.0175578
680.301	0.0174597
680.379	0.0173965
680.457	0.0175396
680.535	0.0175621
680.613	0.0174976
680.692	0.0176102
680.770	0.0174755
680.848	0.0175909
680.926	0.0173792
681.004	0.0174045
681.082	0.0174625
681.160	0.0174045
681.238	0.0174545
681.317	0.0173861
681.395	0.0175394
681.473	0.0173871
681.551	0.0172686
681.629	0.0173603
681.707	0.0174243
681.785	0.0173383
681.863	0.0173048
681.942	0.0172998
682.020	0.0174013
682.098	0.0174813
682.176	0.0173235
682.254	0.0173608
682.332	0.0174734
682.410	0.0174371
682.488	0.0174756
682.567	0.0174401
682.645	0.0175605
682.723	0.0175797
682.801	0.0176483
682.879	0.0177011
682.957	0.0176807
683.035	0.0175638
683.113	0.0176655
683.192	0.0177646
683.270	0.0177482
683.348	0.0178925
683.426	0.0177580
683.504	0.0177275
683.582	0.0177721
683.660	0.0177815
683.738	0.0176217
683.817	0.0176719
683.895	0.0177280
683.973	0.0177216
684.051	0.0177686
684.129	0.0177657
684.207	0.0178831
684.285	0.0178638
684.363	0.0178194
684.442	0.0178918
684.520	0.0179552
684.598	0.0177908
684.676	0.0179964
684.754	0.0178487
684.832	0.0176566
684.910	0.0178131
684.988	0.0179063
685.067	0.0178086
685.145	0.0179155
685.223	0.0177106
685.301	0.0177358
685.379	0.0177178
685.457	0.0176879
685.535	0.0177486
685.613	0.0176280
685.692	0.0177370
685.770	0.0176310
685.848	0.0177091
685.926	0.0175153
686.004	0.0174950
686.082	0.0175728
686.160	0.0175242
686.238	0.0173550
686.317	0.0172982
686.395	0.0175169
686.473	0.0175326
686.551	0.0174142
686.629	0.0174150
686.707	0.0174365
686.785	0.0173180
686.863	0.0173722
686.942	0.0171722
687.020	0.0172483
687.098	0.0172876
687.176	0.0172832
687.254	0.0173638
687.332	0.0174099
687.410	0.0173077
687.488	0.0172985
687.567	0.0174475
687.645	0.0174206
687.723	0.0175472
687.801	0.0174886
687.879	0.0174584
687.957	0.0175368
688.035	0.0176664
688.113	0.0176204
688.192	0.0175849
688.270	0.0175163
688.348	0.0176140
688.426	0.0177942
688.504	0.0177378
688.582	0.0176066
688.660	0.0177492
688.738	0.0177665
688.817	0.0177878
688.895	0.0179394
688.973	0.0178992
689.051	0.0178199
689.129	0.0177052
689.207	0.0178583
689.285	0.0177606
689.363	0.0178052
689.442	0.0178448
689.520	0.0178715
689.598	0.0177523
689.676	0.0175463
689.754	0.0174952
689.832	0.0176762
689.910	0.0176438
689.988	0.0175552
690.067	0.0175043
690.145	0.0175407
690.223	0.0175188
690.301	0.0174170
690.379	0.0175560
690.457	0.0176004
690.535	0.0175925
690.613	0.0176107
690.692	0.0176357
690.770	0.0176027
690.848	0.0177557
690.926	0.0177547
691.004	0.0176904
691.082	0.0177660
691.160	0.0176590
691.238	0.0177504
691.317	0.0177263
691.395	0.0176218
691.473	0.0175103
691.551	0.0177209
691.629	0.0176077
691.707	0.0175848
691.785	0.0177286
691.863	0.0176477
691.942	0.0174863
692.020	0.0175751
692.098	0.0175716
692.176	0.0177155
692.254	0.0176808
692.332	0.0177189
692.410	0.0178007
692.488	0.0179035
692.567	0.0178258
692.645	0.0179103
692.723	0.0177460
692.801	0.0178525
692.879	0.0179177
692.957	0.0179338
693.035	0.0178667
693.113	0.0179495
693.192	0.0177375
693.270	0.0178627
693.348	0.0178929
693.426	0.0178594
693.504	0.0176744
693.582	0.0177186
693.660	0.0177460
693.738	0.0177517
693.817	0.0178304
693.895	0.0175593
693.973	0.0175694
694.051	0.0176584
694.129	0.0176318
694.207	0.0175671
694.285	0.0176845
694.363	0.0176491
694.442	0.0178423
694.520	0.0177089
694.598	0.0177956
694.676	0.0178412
694.754	0.0177119
694.832	0.0176231
694.910	0.0177561
694.988	0.0177859
695.067	0.0176962
695.145	0.0176439
695.223	0.0175439
695.301	0.0175108
695.379	0.0175548
695.457	0.0175004
695.535	0.0174033
695.613	0.0175554
695.692	0.0174065
695.770	0.0172700
695.848	0.0174037
695.926	0.0174191
696.004	0.0172600
696.082	0.0173304
696.160	0.0174403
696.238	0.0174946
696.317	0.0174229
696.395	0.0174077
696.473	0.0176643
696.551	0.0178902
696.629	0.0177171
696.707	0.0176694
696.785	0.0178373
696.863	0.0179448
696.942	0.0179479
697.020	0.0179703
697.098	0.0179231
697.176	0.0178725
697.254	0.0179277
697.332	0.0177663
697.410	0.0177202
697.488	0.0177559
697.567	0.0175693
697.645	0.0175635
697.723	0.0176974
697.801	0.0175538
697.879	0.0173909
697.957	0.0177017
698.035	0.0177371
698.113	0.0175720
698.192	0.0176065
698.270	0.0176135
698.348	0.0176295
698.426	0.0176099
698.504	0.0175272
698.582	0.0175864
698.660	0.0175956
698.738	0.0176559
698.817	0.0175014
698.895	0.0176984
698.973	0.0175793
699.051	0.0174566
699.129	0.0174354
699.207	0.0174844
699.285	0.0173713
699.363	0.0174097
699.442	0.0173869
699.520	0.0174204
699.598	0.0173163
699.676	0.0173542
699.754	0.0173878
699.832	0.0173079
699.910	0.0173277
699.988	0.0173209
700.067	0.0173541
700.145	0.0173385
700.223	0.0173326
700.301	0.0175762
700.379	0.0175536
700.457	0.0174773
700.535	0.0173531
700.613	0.0174557
700.692	0.0175531
700.770	0.0174879
700.848	0.0174724
700.926	0.0175275
701.004	0.0175160
701.082	0.0175982
701.160	0.0174093
701.238	0.0175226
701.317	0.0173582
701.395	0.0172672
701.473	0.0174994
701.551	0.0175125
701.629	0.0173969
701.707	0.0171863
701.785	0.0172175
701.863	0.0172462
701.942	0.0172776
702.020	0.0172277
702.098	0.0173613
702.176	0.0173253
702.254	0.0172121
702.332	0.0173689
702.410	0.0173248
702.488	0.0174338
702.567	0.0175214
702.645	0.0175670
702.723	0.0176032
702.801	0.0176656
702.879	0.0177784
702.957	0.0176185
703.035	0.0176799
703.113	0.0177832
703.192	0.0177056
703.270	0.0175906
703.348	0.0175122
703.426	0.0174965
703.504	0.0175227
703.582	0.0174776
703.660	0.0175180
703.738	0.0174477
703.817	0.0174403
703.895	0.0173119
703.973	0.0175602
704.051	0.0176064
704.129	0.0176263
704.207	0.0176364
704.285	0.0177859
704.363	0.0178323
704.442	0.0177433
704.520	0.0179446
704.598	0.0178597
704.676	0.0179903
704.754	0.0180087
704.832	0.0178885
704.910	0.0178059
704.988	0.0179221
705.067	0.0178458
705.145	0.0178091
705.223	0.0178123
705.301	0.0175945
705.379	0.0175138
705.457	0.0174509
705.535	0.0173254
705.613	0.0174132
705.692	0.0172055
705.770	0.0172155
705.848	0.0172141
705.926	0.0170586
706.004	0.0170902
706.082	0.0172441
706.160	0.0170757
706.238	0.0171702
706.317	0.0173067
706.395	0.0171774
706.473	0.0173009
706.551	0.0172821
706.629	0.0172009
706.707	0.0173316
706.785	0.0174190
706.863	0.0174948
706.942	0.0173671
707.020	0.0176733
707.098	0.0177308
707.176	0.0176845
707.254	0.0176003
707.332	0.0178052
707.410	0.0178097
707.488	0.0178854
707.567	0.0177477
707.645	0.0177423
707.723	0.0178053
707.801	0.0178841
707.879	0.0178524
707.957	0.0178600
708.035	0.0176925
708.113	0.0176839
708.192	0.0177256
708.270	0.0175870
708.348	0.0174628
708.426	0.0175255
708.504	0.0174137
708.582	0.0173239
708.660	0.0172234
708.738	0.0170434
708.817	0.0170448
708.895	0.0169746
708.973	0.0170296
709.051	0.0170356
709.129	0.0170111
709.207	0.0173096
709.285	0.0172770
709.363	0.0175239
709.442	0.0173978
709.520	0.0175903
709.598	0.0179227
709.676	0.0178894
709.754	0.0180425
709.832	0.0180437
709.910	0.0181839
709.988	0.0180997
710.067	0.0180290
710.145	0.0179677
710.223	0.0180596
710.301	0.0178918
710.379	0.0177863
710.457	0.0175909
710.535	0.0175136
710.613	0.0172958
710.692	0.0172454
710.770	0.0172856
710.848	0.0173328
710.926	0.0174324
711.004	0.0174414
711.082	0.0174709
711.160	0.0175315
711.238	0.0174261
711.317	0.0176611
711.395	0.0177496
711.473	0.0178767
711.551	0.0179826
711.629	0.0180284
711.707	0.0179754
711.785	0.0178732
711.863	0.0180547
711.942	0.0179370
712.020	0.0179113
712.098	0.0179314
712.176	0.0179841
712.254	0.0180048
712.332	0.0179043
712.410	0.0179608
712.488	0.0179611
712.567	0.0178514
712.645	0.0178300
712.723	0.0178237
712.801	0.0179633
712.879	0.0180053
712.957	0.0179946
713.035	0.0179585
713.113	0.0178539
713.192	0.0179373
713.270	0.0179123
713.348	0.0179789
713.426	0.0180196
713.504	0.0180393
713.582	0.0178606
713.660	0.0179855
713.738	0.0179892
713.817	0.0182096
713.895	0.0181443
713.973	0.0180352
714.051	0.0180479
714.129	0.0179887
714.207	0.0180538
714.285	0.0181837
714.363	0.0182072
714.442	0.0181918
714.520	0.0181512
714.598	0.0181475
714.676	0.0180985
714.754	0.0179953
714.832	0.0180866
714.910	0.0179370
714.988	0.0178993
715.067	0.0179570
715.145	0.0178581
715.223	0.0179198
715.301	0.0178899
715.379	0.0178745
715.457	0.0178082
715.535	0.0177164
715.613	0.0178179
715.692	0.0176807
715.770	0.0178034
715.848	0.0178520
715.926	0.0178539
716.004	0.0179778
716.082	0.0177963
716.160	0.0177782
716.238	0.0178339
716.317	0.0177441
716.395	0.0177363
716.473	0.0178222
716.551	0.0178208
716.629	0.0177179
716.707	0.0176945
716.785	0.0178134
716.863	0.0178192
716.942	0.0178757
717.020	0.0179163
717.098	0.0179593
717.176	0.0180130
717.254	0.0179854
717.332	0.0182568
717.410	0.0181906
717.488	0.0181297
717.567	0.0181464
717.645	0.0181863
717.723	0.0182719
717.801	0.0181208
717.879	0.0180701
717.957	0.0180102
718.035	0.0179010
718.113	0.0176801
718.192	0.0176305
718.270	0.0176343
718.348	0.0177171
718.426	0.0175926
718.504	0.0174393
718.582	0.0174126
718.660	0.0173105
718.738	0.0174084
718.817	0.0174131
718.895	0.0174851
718.973	0.0173518
719.051	0.0173598
719.129	0.0171922
719.207	0.0171725
719.285	0.0171762
719.363	0.0172183
719.442	0.0172596
719.520	0.0171530
719.598	0.0170808
719.676	0.0170216
719.754	0.0170010
719.832	0.0169777
719.910	0.0169820
719.988	0.0170649
720.067	0.0169747
720.145	0.0170668
720.223	0.0171157
720.301	0.0171955
720.379	0.0172250
720.457	0.0173548
720.535	0.0175108
720.613	0.0176202
720.692	0.0174771
720.770	0.0175861
720.848	0.0174906
720.926	0.0175999
721.004	0.0175970
721.082	0.0175208
721.160	0.0176930
721.238	0.0175648
721.317	0.0176379
721.395	0.0176272
721.473	0.0176084
721.551	0.0175327
721.629	0.0173721
721.707	0.0174989
721.785	0.0174511
721.863	0.0173791
721.942	0.0174525
722.020	0.0173638
722.098	0.0173334
722.176	0.0174568
722.254	0.0174547
722.332	0.0172061
722.410	0.0172996
722.488	0.0174406
722.567	0.0174313
722.645	0.0173741
722.723	0.0173947
722.801	0.0175809
722.879	0.0174692
722.957	0.0175459
723.035	0.0174475
723.113	0.0175102
723.192	0.0175709
723.270	0.0174483
723.348	0.0176510
723.426	0.0175519
723.504	0.0175252
723.582	0.0176971
723.660	0.0175688
723.738	0.0175557
723.817	0.0176344
723.895	0.0175459
723.973	0.0176308
724.051	0.0175841
724.129	0.0176363
724.207	0.0177069
724.285	0.0178369
724.363	0.0177320
724.442	0.0175682
724.520	0.0175820
724.598	0.0177390
724.676	0.0176731
724.754	0.0176683
724.832	0.0176109
724.910	0.0175089
724.988	0.0174824
725.067	0.0175321
725.145	0.0174668
725.223	0.0173951
725.301	0.0173463
725.379	0.0172613
725.457	0.0173898
725.535	0.0172105
725.613	0.0172539
725.692	0.0171561
725.770	0.0171496
725.848	0.0171409
725.926	0.0171297
726.004	0.0169904
726.082	0.0171387
726.160	0.0171428
726.238	0.0170951
726.317	0.0171452
726.395	0.0171800
726.473	0.0171425
726.551	0.0170497
726.629	0.0171802
726.707	0.0170984
726.785	0.0171024
726.863	0.0171975
726.942	0.0173183
727.020	0.0172181
727.098	0.0172673
727.176	0.0173479
727.254	0.0173309
727.332	0.0174512
727.410	0.0173663
727.488	0.0173365
727.567	0.0173626
727.645	0.0175422
727.723	0.0173650
727.801	0.0173328
727.879	0.0174848
727.957	0.0174326
728.035	0.0176534
728.113	0.0175112
728.192	0.0175142
728.270	0.0176018
728.348	0.0174541
728.426	0.0173014
728.504	0.0175536
728.582	0.0175492
728.660	0.0174388
728.738	0.0175221
728.817	0.0175131
728.895	0.0174698
728.973	0.0175782
729.051	0.0173775
729.129	0.0173787
729.207	0.0175257
729.285	0.0173840
729.363	0.0174254
729.442	0.0175555
729.520	0.0174184
729.598	0.0175241
729.676	0.0174990
729.754	0.0175530
729.832	0.0175604
729.910	0.0176339
729.988	0.0175421
730.067	0.0177220
730.145	0.0175397
730.223	0.0175402
730.301	0.0177809
730.379	0.0175748
730.457	0.0176237
730.535	0.0176478
730.613	0.0176670
730.692	0.0176646
730.770	0.0176511
730.848	0.0175796
730.926	0.0176908
731.004	0.0176277
731.082	0.0177027
731.160	0.0175711
731.238	0.0177579
731.317	0.0178046
731.395	0.0178017
731.473	0.0177987
731.551	0.0177260
731.629	0.0179341
731.707	0.0179134
731.785	0.0179531
731.863	0.0179831
731.942	0.0180349
732.020	0.0179855
732.098	0.0181586
732.176	0.0180385
732.254	0.0181118
732.332	0.0180786
732.410	0.0180391
732.488	0.0182339
732.567	0.0182510
732.645	0.0181721
732.723	0.0182631
732.801	0.0182172
732.879	0.0182690
732.957	0.0182323
733.035	0.0182984
733.113	0.0182980
733.192	0.0182724
733.270	0.0181768
733.348	0.0182956
733.426	0.0180901
733.504	0.0181626
733.582	0.0181185
733.660	0.0180106
733.738	0.0178859
733.817	0.0178461
733.895	0.0177049
733.973	0.0175809
734.051	0.0176929
734.129	0.0174990
734.207	0.0174632
734.285	0.0173416
734.363	0.0171915
734.442	0.0171012
734.520	0.0171599
734.598	0.0171120
734.676	0.0171316
734.754	0.0170312
734.832	0.0170153
734.910	0.0168945
734.988	0.0168752
735.067	0.0168917
735.145	0.0170065
735.223	0.0168258
735.301	0.0168819
735.379	0.0169360
735.457	0.0170604
735.535	0.0168197
735.613	0.0168639
735.692	0.0168674
735.770	0.0169836
735.848	0.0170719
735.926	0.0169685
736.004	0.0170021
736.082	0.0170496
736.160	0.0169302
736.238	0.0170553
736.317	0.0171201
736.395	0.0168932
736.473	0.0169965
736.551	0.0170062
736.629	0.0170726
736.707	0.0168907
736.785	0.0169923
736.863	0.0169605
736.942	0.0170953
737.020	0.0170454
737.098	0.0170543
737.176	0.0171382
737.254	0.0171311
737.332	0.0170221
737.410	0.0171195
737.488	0.0172675
737.567	0.0172512
737.645	0.0172258
737.723	0.0173531
737.801	0.0172850
737.879	0.0173355
737.957	0.0172408
738.035	0.0173549
738.113	0.0173821
738.192	0.0174896
738.270	0.0174758
738.348	0.0176064
738.426	0.0175599
738.504	0.0176270
738.582	0.0175815
738.660	0.0176031
738.738	0.0176750
738.817	0.0175867
738.895	0.0175969
738.973	0.0176505
739.051	0.0177137
739.129	0.0177197
739.207	0.0175713
739.285	0.0177532
739.363	0.0176799
739.442	0.0176100
739.520	0.0176526
739.598	0.0174851
739.676	0.0177105
739.754	0.0177126
739.832	0.0177309
739.910	0.0175876
739.988	0.0176791
740.067	0.0177209
740.145	0.0178014
740.223	0.0178036
740.301	0.0177850
740.379	0.0178245
740.457	0.0179987
740.535	0.0180746
740.613	0.0179626
740.692	0.0180441
740.770	0.0180111
740.848	0.0180515
740.926	0.0181637
741.004	0.0180437
741.082	0.0180195
741.160	0.0181564
741.238	0.0179946
741.317	0.0179095
741.395	0.0181674
741.473	0.0180098
741.551	0.0179513
741.629	0.0180432
741.707	0.0179539
741.785	0.0178119
741.863	0.0179305
741.942	0.0177800
742.020	0.0175608
742.098	0.0176913
742.176	0.0176740
742.254	0.0176394
742.332	0.0176793
742.410	0.0175720
742.488	0.0173867
742.567	0.0174959
742.645	0.0174699
742.723	0.0174829
742.801	0.0173714
742.879	0.0174509
742.957	0.0174687
743.035	0.0174304
743.113	0.0175596
743.192	0.0175100
743.270	0.0175078
743.348	0.0176524
743.426	0.0177781
743.504	0.0177732
743.582	0.0177549
743.660	0.0176826
743.738	0.0175386
743.817	0.0176442
743.895	0.0176205
743.973	0.0177827
744.051	0.0176888
744.129	0.0175304
744.207	0.0175237
744.285	0.0176579
744.363	0.0176426
744.442	0.0177271
744.520	0.0176352
744.598	0.0176919
744.676	0.0175994
744.754	0.0178395
744.832	0.0178513
744.910	0.0178234
744.988	0.0177140
745.067	0.0177769
745.145	0.0177615
745.223	0.0178391
745.301	0.0176509
745.379	0.0177219
745.457	0.0175224
745.535	0.0175867
745.613	0.0176868
745.692	0.0175665
745.770	0.0175103
745.848	0.0175074
745.926	0.0175046
746.004	0.0176194
746.082	0.0174339
746.160	0.0174609
746.238	0.0174908
746.317	0.0173170
746.395	0.0173312
746.473	0.0173745
746.551	0.0172766
746.629	0.0174319
746.707	0.0172641
746.785	0.0172111
746.863	0.0171801
746.942	0.0172531
747.020	0.0171839
747.098	0.0172100
747.176	0.0171233
747.254	0.0170659
747.332	0.0171030
747.410	0.0169260
747.488	0.0170155
747.567	0.0169173
747.645	0.0170016
747.723	0.0169076
747.801	0.0167963
747.879	0.0167049
747.957	0.0168991
748.035	0.0168782
748.113	0.0167806
748.192	0.0168458
748.270	0.0169228
748.348	0.0168716
748.426	0.0167963
748.504	0.0169875
748.582	0.0169993
748.660	0.0170677
748.738	0.0170687
748.817	0.0172776
748.895	0.0172075
748.973	0.0172816
749.051	0.0173438
749.129	0.0173495
749.207	0.0176008
749.285	0.0174588
749.363	0.0175481
749.442	0.0174509
749.520	0.0175349
749.598	0.0176524
749.676	0.0176414
749.754	0.0177376
749.832	0.0176637
749.910	0.0177745
749.988	0.0177115
750.067	0.0177520
750.145	0.0176955
750.223	0.0176579
750.301	0.0176733
750.379	0.0178104
750.457	0.0178371
750.535	0.0178967
750.613	0.0178248
750.692	0.0177264
750.770	0.0178503
750.848	0.0177545
750.926	0.0177502
751.004	0.0178700
751.082	0.0178554
751.160	0.0178316
751.238	0.0178289
751.317	0.0179034
751.395	0.0178180
751.473	0.0177126
751.551	0.0177030
751.629	0.0178573
751.707	0.0176270
751.785	0.0178120
751.863	0.0177193
751.942	0.0175736
752.020	0.0176978
752.098	0.0174924
752.176	0.0175492
752.254	0.0176240
752.332	0.0176202
752.410	0.0176879
752.488	0.0175182
752.567	0.0175137
752.645	0.0176914
752.723	0.0176276
752.801	0.0176999
752.879	0.0177502
752.957	0.0176996
753.035	0.0177077
753.113	0.0175659
753.192	0.0176955
753.270	0.0176975
753.348	0.0176364
753.426	0.0176156
753.504	0.0175839
753.582	0.0177360
753.660	0.0176656
753.738	0.0178621
753.817	0.0177912
753.895	0.0178291
753.973	0.0177473
754.051	0.0178272
754.129	0.0178055
754.207	0.0178309
754.285	0.0179392
754.363	0.0179577
754.442	0.0179175
754.520	0.0180962
754.598	0.0180492
754.676	0.0180718
754.754	0.0181315
754.832	0.0180696
754.910	0.0180497
754.988	0.0181829
755.067	0.0180708
755.145	0.0181281
755.223	0.0181245
755.301	0.0180898
755.379	0.0180936
755.457	0.0182805
755.535	0.0181822
755.613	0.0180746
755.692	0.0181223
755.770	0.0180762
755.848	0.0178992
755.926	0.0179652
756.004	0.0181069
756.082	0.0178879
756.160	0.0177771
756.238	0.0178610
756.317	0.0176489
756.395	0.0177010
756.473	0.0175991
756.551	0.0176740
756.629	0.0176723
756.707	0.0174915
756.785	0.0176145
756.863	0.0174768
756.942	0.0175834
757.020	0.0175113
757.098	0.0173739
757.176	0.0175560
757.254	0.0174162
757.332	0.0172902
757.410	0.0174253
757.488	0.0174588
757.567	0.0173656
757.645	0.0173209
757.723	0.0172541
757.801	0.0173588
757.879	0.0172655
757.957	0.0172110
758.035	0.0172241
758.113	0.0172530
758.192	0.0171688
758.270	0.0172321
758.348	0.0172385
758.426	0.0171920
758.504	0.0171873
758.582	0.0171643
758.660	0.0170431
758.738	0.0171317
758.817	0.0172374
758.895	0.0170850
758.973	0.0170403
759.051	0.0171742
759.129	0.0170908
759.207	0.0170998
759.285	0.0171996
759.363	0.0171136
759.442	0.0172228
759.520	0.0172610
759.598	0.0172391
759.676	0.0172210
759.754	0.0173193
759.832	0.0172869
759.910	0.0172310
759.988	0.0171540
760.067	0.0172120
760.145	0.0173907
760.223	0.0173617
760.301	0.0173095
760.379	0.0171510
760.457	0.0171846
760.535	0.0172964
760.613	0.0173563
760.692	0.0174702
760.770	0.0173734
760.848	0.0174113
760.926	0.0172864
761.004	0.0172334
761.082	0.0173269
761.160	0.0172614
761.238	0.0173291
761.317	0.0173079
761.395	0.0170954
761.473	0.0171803
761.551	0.0172005
761.629	0.0173879
761.707	0.0172466
761.785	0.0171645
761.863	0.0173107
761.942	0.0172690
762.020	0.0172275
762.098	0.0173682
762.176	0.0173010
762.254	0.0173064
762.332	0.0173347
762.410	0.0174863
762.488	0.0175039
762.567	0.0175680
762.645	0.0175377
762.723	0.0174724
762.801	0.0174795
762.879	0.0175732
762.957	0.0174301
763.035	0.0175243
763.113	0.0174939
763.192	0.0175494
763.270	0.0175638
763.348	0.0174890
763.426	0.0173820
763.504	0.0176394
763.582	0.0175536
763.660	0.0175779
763.738	0.0174550
763.817	0.0176132
763.895	0.0176099
763.973	0.0175944
764.051	0.0176065
764.129	0.0176250
764.207	0.0175736
764.285	0.0177574
764.363	0.0178464
764.442	0.0178332
764.520	0.0178004
764.598	0.0178511
764.676	0.0178397
764.754	0.0180325
764.832	0.0178983
764.910	0.0180098
764.988	0.0180056
765.067	0.0179616
765.145	0.0179583
765.223	0.0179364
765.301	0.0179867
765.379	0.0180847
765.457	0.0180801
765.535	0.0179455
765.613	0.0179994
765.692	0.0180638
765.770	0.0179713
765.848	0.0178571
765.926	0.0179935
766.004	0.0178756
766.082	0.0178864
766.160	0.0179318
766.238	0.0179684
766.317	0.0178474
766.395	0.0178713
766.473	0.0179158
766.551	0.0180206
766.629	0.0178307
766.707	0.0179386
766.785	0.0178989
766.863	0.0178084
766.942	0.0178387
767.020	0.0178642
767.098	0.0178185
767.176	0.0176903
767.254	0.0177467
767.332	0.0177463
767.410	0.0176121
767.488	0.0176934
767.567	0.0176824
767.645	0.0176284
767.723	0.0176582
767.801	0.0176456
767.879	0.0176749
767.957	0.0176991
768.035	0.0176705
768.113	0.0175757
768.192	0.0174712
768.270	0.0175140
768.348	0.0176073
768.426	0.0174405
768.504	0.0174547
768.582	0.0174931
768.660	0.0175487
768.738	0.0172980
768.817	0.0174798
768.895	0.0174920
768.973	0.0174915
769.051	0.0174213
769.129	0.0173597
769.207	0.0173360
769.285	0.0172939
769.363	0.0174053
769.442	0.0173526
769.520	0.0174040
769.598	0.0174519
769.676	0.0173276
769.754	0.0173717
769.832	0.0173466
769.910	0.0173563
769.988	0.0174251
770.067	0.0173258
770.145	0.0175293
770.223	0.0173318
770.301	0.0173876
770.379	0.0175074
770.457	0.0174862
770.535	0.0176126
770.613	0.0174831
770.692	0.0175289
770.770	0.0176299
770.848	0.0174950
770.926	0.0174892
771.004	0.0177380
771.082	0.0176874
771.160	0.0178299
771.238	0.0176689
771.317	0.0176985
771.395	0.0177242
771.473	0.0178693
771.551	0.0178069
771.629	0.0178129
771.707	0.0177822
771.785	0.0177568
771.863	0.0178403
771.942	0.0178389
772.020	0.0177662
772.098	0.0177717
772.176	0.0179370
772.254	0.0179282
772.332	0.0178812
772.410	0.0178006
772.488	0.0178993
772.567	0.0176363
772.645	0.0177158
772.723	0.0176868
772.801	0.0176077
772.879	0.0176890
772.957	0.0176273
773.035	0.0176129
773.113	0.0178164
773.192	0.0178165
773.270	0.0177464
773.348	0.0177501
773.426	0.0175742
773.504	0.0177675
773.582	0.0175748
773.660	0.0176219
773.738	0.0176728
773.817	0.0177552
773.895	0.0175767
773.973	0.0177245
774.051	0.0176028
774.129	0.0175360
774.207	0.0175545
774.285	0.0173714
774.363	0.0174812
774.442	0.0175378
774.520	0.0173531
774.598	0.0172929
774.676	0.0172652
774.754	0.0174006
774.832	0.0172098
774.910	0.0171071
774.988	0.0172092
775.067	0.0170872
775.145	0.0171339
775.223	0.0171507
775.301	0.0172634
775.379	0.0171972
775.457	0.0172739
775.535	0.0170754
775.613	0.0171605
775.692	0.0171936
775.770	0.0173734
775.848	0.0172836
775.926	0.0172785
776.004	0.0172444
776.082	0.0172005
776.160	0.0173631
776.238	0.0174717
776.317	0.0175029
776.395	0.0173779
776.473	0.0174995
776.551	0.0175419
776.629	0.0176926
776.707	0.0176768
776.785	0.0176842
776.863	0.0177554
776.942	0.0176693
777.020	0.0176733
777.098	0.0177017
777.176	0.0178915
777.254	0.0176403
777.332	0.0178124
777.410	0.0177023
777.488	0.0178831
777.567	0.0178473
777.645	0.0176842
777.723	0.0177720
777.801	0.0178419
777.879	0.0178083
777.957	0.0177619
778.035	0.0178947
778.113	0.0178091
778.192	0.0178483
778.270	0.0178374
778.348	0.0179076
778.426	0.0178510
778.504	0.0180333
778.582	0.0178990
778.660	0.0179604
778.738	0.0179373
778.817	0.0180667
778.895	0.0180419
778.973	0.0181297
779.051	0.0180637
779.129	0.0179839
779.207	0.0180923
779.285	0.0181654
779.363	0.0179593
779.442	0.0178616
779.520	0.0181329
779.598	0.0180777
779.676	0.0178770
779.754	0.0178635
779.832	0.0180128
779.910	0.0181012
779.988	0.0179770
780.067	0.0178704
780.145	0.0178263
780.223	0.0179302
780.301	0.0180500
780.379	0.0177980
780.457	0.0178876
780.535	0.0177777
780.613	0.0179665
780.692	0.0178050
780.770	0.0177092
780.848	0.0176600
780.926	0.0177655
781.004	0.0176488
781.082	0.0176938
781.160	0.0177165
781.238	0.0177542
781.317	0.0176190
781.395	0.0177070
781.473	0.0177779
781.551	0.0178275
781.629	0.0177207
781.707	0.0176971
781.785	0.0177733
781.863	0.0176620
781.942	0.0177514
782.020	0.0177734
782.098	0.0177496
782.176	0.0176794
782.254	0.0176654
782.332	0.0176743
782.410	0.0177067
782.488	0.0176630
782.567	0.0176009
782.645	0.0177106
782.723	0.0175935
782.801	0.0175053
782.879	0.0174626
782.957	0.0175070
783.035	0.0175468
783.113	0.0176225
783.192	0.0174778
783.270	0.0175125
783.348	0.0175467
783.426	0.0175579
783.504	0.0175617
783.582	0.0175631
783.660	0.0174915
783.738	0.0176698
783.817	0.0176228
783.895	0.0175651
783.973	0.0175443
784.051	0.0175435
784.129	0.0175824
784.207	0.0177473
784.285	0.0175366
784.363	0.0175431
784.442	0.0177581
784.520	0.0175597
784.598	0.0175984
784.676	0.0177304
784.754	0.0177726
784.832	0.0178516
784.910	0.0176530
784.988	0.0178410
785.067	0.0177351
785.145	0.0176581
785.223	0.0176469
785.301	0.0176501
785.379	0.0177399
785.457	0.0176928
785.535	0.0178336
785.613	0.0178861
785.692	0.0179488
785.770	0.0178454
785.848	0.0179891
785.926	0.0178270
786.004	0.0178049
786.082	0.0178607
786.160	0.0178132
786.238	0.0178363
786.317	0.0177828
786.395	0.0178491
786.473	0.0176369
786.551	0.0176933
786.629	0.0176571
786.707	0.0176829
786.785	0.0175654
786.863	0.0175330
786.942	0.0174919
787.020	0.0175072
787.098	0.0174249
787.176	0.0174065
787.254	0.0173048
787.332	0.0174117
787.410	0.0175729
787.488	0.0174574
787.567	0.0174265
787.645	0.0174757
787.723	0.0175571
787.801	0.0175609
787.879	0.0173674
787.957	0.0173357
788.035	0.0173296
788.113	0.0172701
788.192	0.0173224
788.270	0.0170895
788.348	0.0170802
788.426	0.0173135
788.504	0.0171559
788.582	0.0170428
788.660	0.0171379
788.738	0.0171917
788.817	0.0170462
788.895	0.0171401
788.973	0.0171848
789.051	0.0171036
789.129	0.0172433
789.207	0.0172619
789.285	0.0172732
789.363	0.0171169
789.442	0.0172771
789.520	0.0171912
789.598	0.0173813
789.676	0.0173737
789.754	0.0173595
789.832	0.0173647
789.910	0.0174405
789.988	0.0174397
790.067	0.0173750
790.145	0.0173996
790.223	0.0173154
790.301	0.0174117
790.379	0.0173398
790.457	0.0173717
790.535	0.0172918
790.613	0.0174023
790.692	0.0174350
790.770	0.0174101
790.848	0.0174969
790.926	0.0173237
791.004	0.0175011
791.082	0.0176888
791.160	0.0176564
791.238	0.0175216
791.317	0.0176273
791.395	0.0176204
791.473	0.0175813
791.551	0.0176464
791.629	0.0176637
791.707	0.0177621
791.785	0.0177184
791.863	0.0177598
791.942	0.0176920
792.020	0.0178497
792.098	0.0179140
792.176	0.0178215
792.254	0.0178374
792.332	0.0177850
792.410	0.0178726
792.488	0.0178603
792.567	0.0178391
792.645	0.0178341
792.723	0.0177650
792.801	0.0178542
792.879	0.0178078
792.957	0.0178799
793.035	0.0177716
793.113	0.0178840
793.192	0.0178190
793.270	0.0179270
793.348	0.0177391
793.426	0.0177345
793.504	0.0177007
793.582	0.0177982
793.660	0.0176954
793.738	0.0177632
793.817	0.0179033
793.895	0.0177719
793.973	0.0177625
794.051	0.0178204
794.129	0.0179510
794.207	0.0180108
794.285	0.0179875
794.363	0.0179081
794.442	0.0178931
794.520	0.0179836
794.598	0.0178319
794.676	0.0179015
794.754	0.0178680
794.832	0.0178571
794.910	0.0178181
794.988	0.0178403
795.067	0.0178233
795.145	0.0177696
795.223	0.0176871
795.301	0.0176891
795.379	0.0177847
795.457	0.0177779
795.535	0.0178355
795.613	0.0177629
795.692	0.0178271
795.770	0.0177180
795.848	0.0176862
795.926	0.0175697
796.004	0.0176360
796.082	0.0176418
796.160	0.0176427
796.238	0.0176161
796.317	0.0176019
796.395	0.0175037
796.473	0.0174992
796.551	0.0174690
796.629	0.0175456
796.707	0.0174846
796.785	0.0174949
796.863	0.0175778
796.942	0.0176067
797.020	0.0175430
797.098	0.0176483
797.176	0.0175556
797.254	0.0174662
797.332	0.0176559
797.410	0.0174587
797.488	0.0174351
797.567	0.0175504
797.645	0.0175182
797.723	0.0173967
797.801	0.0175549
797.879	0.0175790
797.957	0.0173627
798.035	0.0173914
798.113	0.0174751
798.192	0.0174015
798.270	0.0175115
798.348	0.0174974
798.426	0.0173445
798.504	0.0174779
798.582	0.0173436
798.660	0.0173097
798.738	0.0173354
798.817	0.0174373
798.895	0.0173978
798.973	0.0173341
799.051	0.0175642
799.129	0.0172948
799.207	0.0173903
799.285	0.0174876
799.363	0.0173592
799.442	0.0174359
799.520	0.0174129
799.598	0.0172948
799.676	0.0175420
799.754	0.0175320
799.832	0.0175890
799.910	0.0175972
799.988	0.0174706
800.067	0.0174110
800.145	0.0175037
800.223	0.0172813
800.301	0.0175526
800.379	0.0175540
800.457	0.0174229
800.535	0.0174338
800.613	0.0174619
800.692	0.0175001
800.770	0.0175619
800.848	0.0176186
800.926	0.0175190
801.004	0.0176674
801.082	0.0177266
801.160	0.0177474
801.238	0.0176643
801.317	0.0177708
801.395	0.0177893
801.473	0.0179465
801.551	0.0177342
801.629	0.0177329
801.707	0.0175756
801.785	0.0176488
801.863	0.0176920
801.942	0.0177543
802.020	0.0178444
802.098	0.0176716
802.176	0.0176887
802.254	0.0176775
802.332	0.0175974
802.410	0.0175182
802.488	0.0176778
802.567	0.0174123
802.645	0.0175142
802.723	0.0176864
802.801	0.0176517
802.879	0.0176881
802.957	0.0176771
803.035	0.0176463
803.113	0.0176705
803.192	0.0177436
803.270	0.0177629
803.348	0.0178968
803.426	0.0179558
803.504	0.0178362
803.582	0.0179755
803.660	0.0178666
803.738	0.0178940
803.817	0.0177457
803.895	0.0178727
803.973	0.0178745
804.051	0.0179916
804.129	0.0178957
804.207	0.0178392
804.285	0.0179605
804.363	0.0179645
804.442	0.0178873
804.520	0.0178919
804.598	0.0179857
804.676	0.0181317
804.754	0.0180429
804.832	0.0181503
804.910	0.0181302
804.988	0.0179882
805.067	0.0181078
805.145	0.0181859
805.223	0.0180927
805.301	0.0181476
805.379	0.0182109
805.457	0.0179832
805.535	0.0181661
805.613	0.0179483
805.692	0.0180379
805.770	0.0179539
805.848	0.0179944
805.926	0.0179440
806.004	0.0180309
806.082	0.0179606
806.160	0.0179543
806.238	0.0179823
806.317	0.0178831
806.395	0.0178131
806.473	0.0178880
806.551	0.0177795
806.629	0.0179343
806.707	0.0178652
806.785	0.0178732
806.863	0.0178701
806.942	0.0178180
807.020	0.0177042
807.098	0.0178013
807.176	0.0179319
807.254	0.0180125
807.332	0.0177810
807.410	0.0177375
807.488	0.0178589
807.567	0.0179389
807.645	0.0178495
807.723	0.0178439
807.801	0.0175582
807.879	0.0177902
807.957	0.0178860
808.035	0.0177277
808.113	0.0176820
808.192	0.0177344
808.270	0.0177366
808.348	0.0176174
808.426	0.0177453
808.504	0.0176903
808.582	0.0176546
808.660	0.0174981
808.738	0.0175230
808.817	0.0176803
808.895	0.0175155
808.973	0.0175225
809.051	0.0175447
809.129	0.0174300
809.207	0.0175482
809.285	0.0174567
809.363	0.0174062
809.442	0.0174329
809.520	0.0173421
809.598	0.0172299
809.676	0.0172637
809.754	0.0172515
809.832	0.0172086
809.910	0.0171557
809.988	0.0171231
810.067	0.0170902
810.145	0.0170773
810.223	0.0171867
810.301	0.0170424
810.379	0.0170679
810.457	0.0171162
810.535	0.0171140
810.613	0.0171145
810.692	0.0171733
810.770	0.0172745
810.848	0.0172595
810.926	0.0172414
811.004	0.0173225
811.082	0.0173933
811.160	0.0172533
811.238	0.0176041
811.317	0.0173808
811.395	0.0173813
811.473	0.0173795
811.551	0.0174638
811.629	0.0175189
811.707	0.0174165
811.785	0.0175179
811.863	0.0173939
811.942	0.0173869
812.020	0.0174575
812.098	0.0173942
812.176	0.0172894
812.254	0.0173948
812.332	0.0174265
812.410	0.0172229
812.488	0.0173940
812.567	0.0172293
812.645	0.0171859
812.723	0.0172697
812.801	0.0173409
812.879	0.0173115
812.957	0.0172506
813.035	0.0173219
813.113	0.0173222
813.192	0.0173172
813.270	0.0173759
813.348	0.0173464
813.426	0.0171099
813.504	0.0172484
813.582	0.0174022
813.660	0.0171622
813.738	0.0171983
813.817	0.0171780
813.895	0.0171561
813.973	0.0170348
814.051	0.0171205
814.129	0.0170963
814.207	0.0170120
814.285	0.0170860
814.363	0.0171021
814.442	0.0170593
814.520	0.0170390
814.598	0.0171046
814.676	0.0171629
814.754	0.0172018
814.832	0.0171375
814.910	0.0171343
814.988	0.0171680
815.067	0.0172739
815.145	0.0174078
815.223	0.0172818
815.301	0.0174388
815.379	0.0175653
815.457	0.0176474
815.535	0.0177191
815.613	0.0176237
815.692	0.0176045
815.770	0.0177738
815.848	0.0178259
815.926	0.0179160
816.004	0.0177851
816.082	0.0179383
816.160	0.0178809
816.238	0.0180092
816.317	0.0180670
816.395	0.0178961
816.473	0.0180676
816.551	0.0179803
816.629	0.0179350
816.707	0.0181497
816.785	0.0180891
816.863	0.0180132
816.942	0.0180200
817.020	0.0179630
817.098	0.0179513
817.176	0.0179646
817.254	0.0178831
817.332	0.0179932
817.410	0.0179572
817.488	0.0179393
817.567	0.0179166
817.645	0.0178571
817.723	0.0179498
817.801	0.0179650
817.879	0.0179174
817.957	0.0178283
818.035	0.0178738
818.113	0.0177953
818.192	0.0179067
818.270	0.0179273
818.348	0.0178661
818.426	0.0178918
818.504	0.0178416
818.582	0.0177843
818.660	0.0178074
818.738	0.0178532
818.817	0.0177911
818.895	0.0177811
818.973	0.0176967
819.051	0.0177295
819.129	0.0176240
819.207	0.0176571
819.285	0.0177586
819.363	0.0176998
819.442	0.0175831
819.520	0.0175348
819.598	0.0175565
819.676	0.0175508
819.754	0.0175089
819.832	0.0175893
819.910	0.0174057
819.988	0.0174838
820.067	0.0174687
820.145	0.0174075
820.223	0.0175136
820.301	0.0175895
820.379	0.0175051
820.457	0.0175878
820.535	0.0173792
820.613	0.0174347
820.692	0.0175491
820.770	0.0175511
820.848	0.0174441
820.926	0.0174612
821.004	0.0175249
821.082	0.0175275
821.160	0.0173598
821.238	0.0174868
821.317	0.0174931
821.395	0.0174442
821.473	0.0174149
821.551	0.0174194
821.629	0.0175941
821.707	0.0173509
821.785	0.0173630
821.863	0.0173046
821.942	0.0175628
822.020	0.0174258
822.098	0.0175031
822.176	0.0173799
822.254	0.0175060
822.332	0.0174673
822.410	0.0173947
822.488	0.0174345
822.567	0.0174142
822.645	0.0174447
822.723	0.0172910
822.801	0.0173630
822.879	0.0173141
822.957	0.0171760
823.035	0.0172198
823.113	0.0174724
823.192	0.0172481
823.270	0.0172710
823.348	0.0173058
823.426	0.0173074
823.504	0.0172793
823.582	0.0172404
823.660	0.0171359
823.738	0.0171841
823.817	0.0173096
823.895	0.0171946
823.973	0.0171116
824.051	0.0170842
824.129	0.0171875
824.207	0.0171027
824.285	0.0171065
824.363	0.0171524
824.442	0.0173164
824.520	0.0171890
824.598	0.0172173
824.676	0.0173418
824.754	0.0172318
824.832	0.0172917
824.910	0.0172038
824.988	0.0171542
825.067	0.0173440
825.145	0.0172881
825.223	0.0173506
825.301	0.0172230
825.379	0.0173332
825.457	0.0172731
825.535	0.0172720
825.613	0.0174364
825.692	0.0173498
825.770	0.0173788
825.848	0.0173365
825.926	0.0173895
826.004	0.0172815
826.082	0.0171967
826.160	0.0173047
826.238	0.0173976
826.317	0.0174471
826.395	0.0172432
826.473	0.0173253
826.551	0.0174831
826.629	0.0174347
826.707	0.0173139
826.785	0.0174833
826.863	0.0174779
826.942	0.0174329
827.020	0.0174379
827.098	0.0176035
827.176	0.0175327
827.254	0.0176806
827.332	0.0178255
827.410	0.0176419
827.488	0.0174902
827.567	0.0175781
827.645	0.0175970
827.723	0.0176313
827.801	0.0175095
827.879	0.0174966
827.957	0.0175729
828.035	0.0175677
828.113	0.0174577
828.192	0.0176915
828.270	0.0173834
828.348	0.0176042
828.426	0.0176637
828.504	0.0176670
828.582	0.0177169
828.660	0.0176753
828.738	0.0175146
828.817	0.0177155
828.895	0.0177950
828.973	0.0176417
829.051	0.0176166
829.129	0.0177845
829.207	0.0177516
829.285	0.0176162
829.363	0.0175834
829.442	0.0177526
829.520	0.0177925
829.598	0.0177869
829.676	0.0177393
829.754	0.0178229
829.832	0.0177953
829.910	0.0177483
829.988	0.0177901
830.067	0.0177575
830.145	0.0177171
830.223	0.0177239
830.301	0.0177148
830.379	0.0176563
830.457	0.0177206
830.535	0.0178816
830.613	0.0179296
830.692	0.0179454
830.770	0.0177959
830.848	0.0178532
830.926	0.0179654
831.004	0.0178187
831.082	0.0177007
831.160	0.0178033
831.238	0.0178391
831.317	0.0177386
831.395	0.0176939
831.473	0.0176869
831.551	0.0176658
831.629	0.0176645
831.707	0.0175297
831.785	0.0175544
831.863	0.0176102
831.942	0.0174996
832.020	0.0175237
832.098	0.0176276
832.176	0.0175986
832.254	0.0174278
832.332	0.0174437
832.410	0.0174284
832.488	0.0174952
832.567	0.0174227
832.645	0.0175270
832.723	0.0173493
832.801	0.0174709
832.879	0.0174054
832.957	0.0173859
833.035	0.0172938
833.113	0.0173489
833.192	0.0172427
833.270	0.0174480
833.348	0.0173802
833.426	0.0174104
833.504	0.0173643
833.582	0.0174210
833.660	0.0173412
833.738	0.0174457
833.817	0.0174715
833.895	0.0175011
833.973	0.0174702
834.051	0.0174538
834.129	0.0174892
834.207	0.0175070
834.285	0.0175478
834.363	0.0174216
834.442	0.0174706
834.520	0.0175322
834.598	0.0173879
834.676	0.0172288
834.754	0.0173970
834.832	0.0173498
834.910	0.0172758
834.988	0.0171716
835.067	0.0172619
835.145	0.0171876
835.223	0.0171822
835.301	0.0171832
835.379	0.0172563
835.457	0.0171377
835.535	0.0171709
835.613	0.0172259
835.692	0.0173039
835.770	0.0172959
835.848	0.0173085
835.926	0.0173726
836.004	0.0173548
836.082	0.0173901
836.160	0.0173691
836.238	0.0174150
836.317	0.0174287
836.395	0.0173741
836.473	0.0172894
836.551	0.0173710
836.629	0.0172388
836.707	0.0173657
836.785	0.0172375
836.863	0.0172411
836.942	0.0172237
837.020	0.0173329
837.098	0.0171106
837.176	0.0171632
837.254	0.0172434
837.332	0.0171935
837.410	0.0171609
837.488	0.0172163
837.567	0.0172710
837.645	0.0172944
837.723	0.0173787
837.801	0.0173160
837.879	0.0174804
837.957	0.0174655
838.035	0.0173650
838.113	0.0174793
838.192	0.0174055
838.270	0.0174578
838.348	0.0173383
838.426	0.0173124
838.504	0.0173856
838.582	0.0175275
838.660	0.0176068
838.738	0.0174618
838.817	0.0174329
838.895	0.0173302
838.973	0.0175890
839.051	0.0175456
839.129	0.0175763
839.207	0.0177060
839.285	0.0177077
839.363	0.0175769
839.442	0.0175764
839.520	0.0176202
839.598	0.0175795
839.676	0.0177454
839.754	0.0177682
839.832	0.0178008
839.910	0.0176971
839.988	0.0178484
840.067	0.0176485
840.145	0.0176820
840.223	0.0177552
840.301	0.0176257
840.379	0.0176678
840.457	0.0176408
840.535	0.0174445
840.613	0.0176108
840.692	0.0174533
840.770	0.0174786
840.848	0.0173434
840.926	0.0174685
841.004	0.0174525
841.082	0.0174888
841.160	0.0175089
841.238	0.0173773
841.317	0.0173500
841.395	0.0174523
841.473	0.0175095
841.551	0.0173070
841.629	0.0174339
841.707	0.0175472
841.785	0.0174500
841.863	0.0176245
841.942	0.0176063
842.020	0.0174857
842.098	0.0174122
842.176	0.0176315
842.254	0.0175156
842.332	0.0174505
842.410	0.0173958
842.488	0.0175793
842.567	0.0174067
842.645	0.0173759
842.723	0.0173642
842.801	0.0173723
842.879	0.0173655
842.957	0.0174633
843.035	0.0174498
843.113	0.0173911
843.192	0.0174871
843.270	0.0175025
843.348	0.0174493
843.426	0.0174302
843.504	0.0175179
843.582	0.0175709
843.660	0.0174806
843.738	0.0176498
843.817	0.0176469
843.895	0.0176220
843.973	0.0175654
844.051	0.0175632
844.129	0.0176620
844.207	0.0176548
844.285	0.0175362
844.363	0.0175983
844.442	0.0175591
844.520	0.0176089
844.598	0.0176325
844.676	0.0176760
844.754	0.0176526
844.832	0.0176560
844.910	0.0176865
844.988	0.0176587
845.067	0.0175688
845.145	0.0175689
845.223	0.0175695
845.301	0.0176051
845.379	0.0175450
845.457	0.0175645
845.535	0.0175838
845.613	0.0174915
845.692	0.0174600
845.770	0.0176835
845.848	0.0175659
845.926	0.0176754
846.004	0.0176472
846.082	0.0177223
846.160	0.0177428
846.238	0.0177122
846.317	0.0177977
846.395	0.0177644
846.473	0.0179530
846.551	0.0179459
846.629	0.0180548
846.707	0.0178316
846.785	0.0178816
846.863	0.0179759
846.942	0.0179653
847.020	0.0179758
847.098	0.0179739
847.176	0.0177445
847.254	0.0178048
847.332	0.0176965
847.410	0.0176854
847.488	0.0175845
847.567	0.0176025
847.645	0.0175909
847.723	0.0175816
847.801	0.0174898
847.879	0.0175120
847.957	0.0175667
848.035	0.0174802
848.113	0.0176067
848.192	0.0177403
848.270	0.0175945
848.348	0.0177283
848.426	0.0177561
848.504	0.0176348
848.582	0.0177454
848.660	0.0175785
848.738	0.0177360
848.817	0.0176235
848.895	0.0176507
848.973	0.0175670
849.051	0.0176284
849.129	0.0175685
849.207	0.0176511
849.285	0.0175625
849.363	0.0174049
849.442	0.0176761
849.520	0.0175018
849.598	0.0173749
849.676	0.0173183
849.754	0.0173397
849.832	0.0171897
849.910	0.0173435
849.988	0.0172289
850.067	0.0171352
850.145	0.0172538
850.223	0.0170418
850.301	0.0171844
850.379	0.0171400
850.457	0.0170287
850.535	0.0170632
850.613	0.0170313
850.692	0.0170843
850.770	0.0169473
850.848	0.0169351
850.926	0.0170244
851.004	0.0170379
851.082	0.0171303
851.160	0.0172058
851.238	0.0170930
851.317	0.0170528
851.395	0.0172054
851.473	0.0172363
851.551	0.0172627
851.629	0.0173122
851.707	0.0173456
851.785	0.0173215
851.863	0.0174242
851.942	0.0174552
852.020	0.0173042
852.098	0.0174244
852.176	0.0173466
852.254	0.0174870
852.332	0.0174278
852.410	0.0174456
852.488	0.0173846
852.567	0.0173636
852.645	0.0173611
852.723	0.0173638
852.801	0.0173840
852.879	0.0173165
852.957	0.0173798
853.035	0.0172450
853.113	0.0174605
853.192	0.0174506
853.270	0.0175910
853.348	0.0174205
853.426	0.0173640
853.504	0.0175099
853.582	0.0176070
853.660	0.0174732
853.738	0.0174738
853.817	0.0174897
853.895	0.0174706
853.973	0.0174552
854.051	0.0174428
854.129	0.0174836
854.207	0.0175473
854.285	0.0175765
854.363	0.0175398
854.442	0.0175747
854.520	0.0175911
854.598	0.0175662
854.676	0.0175929
854.754	0.0177147
854.832	0.0177042
854.910	0.0177570
854.988	0.0178156
855.067	0.0178802
855.145	0.0177954
855.223	0.0177855
855.301	0.0178654
855.379	0.0178480
855.457	0.0179638
855.535	0.0178218
855.613	0.0176665
855.692	0.0177367
855.770	0.0179349
855.848	0.0178002
855.926	0.0178412
856.004	0.0177385
856.082	0.0177888
856.160	0.0177982
856.238	0.0177918
856.317	0.0177684
856.395	0.0177806
856.473	0.0177737
856.551	0.0177735
856.629	0.0178589
856.707	0.0177596
856.785	0.0176656
856.863	0.0178020
856.942	0.0177864
857.020	0.0176991
857.098	0.0176895
857.176	0.0175751
857.254	0.0176372
857.332	0.0176756
857.410	0.0175766
857.488	0.0177180
857.567	0.0177491
857.645	0.0176012
857.723	0.0176314
857.801	0.0177545
857.879	0.0175900
857.957	0.0175715
858.035	0.0178019
858.113	0.0175997
858.192	0.0175537
858.270	0.0176447
858.348	0.0176218
858.426	0.0176399
858.504	0.0175587
858.582	0.0173958
858.660	0.0175108
858.738	0.0173960
858.817	0.0173692
858.895	0.0175011
858.973	0.0173675
859.051	0.0173949
859.129	0.0172998
859.207	0.0173585
859.285	0.0175586
859.363	0.0173293
859.442	0.0173636
859.520	0.0174546
859.598	0.0173545
859.676	0.0174636
859.754	0.0175249
859.832	0.0175971
859.910	0.0174841
859.988	0.0175968
860.067	0.0176001
860.145	0.0176960
860.223	0.0175533
860.301	0.0176581
860.379	0.0176579
860.457	0.0177611
860.535	0.0177248
860.613	0.0177785
860.692	0.0177625
860.770	0.0178834
860.848	0.0178790
860.926	0.0177608
861.004	0.0178829
861.082	0.0179658
861.160	0.0178567
861.238	0.0180552
861.317	0.0182228
861.395	0.0181463
861.473	0.0180072
861.551	0.0181224
861.629	0.0180610
861.707	0.0179704
861.785	0.0180380
861.863	0.0180363
861.942	0.0179231
862.020	0.0179556
862.098	0.0177505
862.176	0.0179343
862.254	0.0178946
862.332	0.0178946
862.410	0.0177354
862.488	0.0177854
862.567	0.0177644
862.645	0.0177103
862.723	0.0176574
862.801	0.0178175
862.879	0.0176516
862.957	0.0177120
863.035	0.0176584
863.113	0.0177837
863.192	0.0177549
863.270	0.0177495
863.348	0.0176996
863.426	0.0178211
863.504	0.0178033
863.582	0.0176844
863.660	0.0177619
863.738	0.0177035
863.817	0.0177379
863.895	0.0177187
863.973	0.0177512
864.051	0.0177008
864.129	0.0176510
864.207	0.0174956
864.285	0.0176268
864.363	0.0175811
864.442	0.0175391
864.520	0.0175689
864.598	0.0174989
864.676	0.0175538
864.754	0.0174993
864.832	0.0175649
864.910	0.0174931
864.988	0.0175487
865.067	0.0177392
865.145	0.0175775
865.223	0.0175874
865.301	0.0176447
865.379	0.0176700
865.457	0.0176068
865.535	0.0176930
865.613	0.0176647
865.692	0.0177103
865.770	0.0177365
865.848	0.0178076
865.926	0.0176418
866.004	0.0176810
866.082	0.0176582
866.160	0.0177804
866.238	0.0176573
866.317	0.0177417
866.395	0.0177028
866.473	0.0176121
866.551	0.0175972
866.629	0.0175996
866.707	0.0177066
866.785	0.0177314
866.863	0.0176231
866.942	0.0176484
867.020	0.0177153
867.098	0.0175600
867.176	0.0177271
867.254	0.0176933
867.332	0.0176480
867.410	0.0175896
867.488	0.0175462
867.567	0.0176698
867.645	0.0176738
867.723	0.0176652
867.801	0.0175339
867.879	0.0176859
867.957	0.0177957
868.035	0.0176724
868.113	0.0174922
868.192	0.0177915
868.270	0.0177630
868.348	0.0176729
868.426	0.0177247
868.504	0.0176770
868.582	0.0176794
868.660	0.0176927
868.738	0.0178500
868.817	0.0177612
868.895	0.0177631
868.973	0.0177656
869.051	0.0177215
869.129	0.0177548
869.207	0.0178010
869.285	0.0177581
869.363	0.0177796
869.442	0.0176832
869.520	0.0176797
869.598	0.0176808
869.676	0.0177599
869.754	0.0176487
869.832	0.0175629
869.910	0.0175285
869.988	0.0177522
870.067	0.0176126
870.145	0.0176064
870.223	0.0176501
870.301	0.0176395
870.379	0.0176127
870.457	0.0175097
870.535	0.0176967
870.613	0.0176043
870.692	0.0176340
870.770	0.0176792
870.848	0.0177658
870.926	0.0176588
871.004	0.0177071
871.082	0.0176219
871.160	0.0175821
871.238	0.0176130
871.317	0.0175526
871.395	0.0176109
871.473	0.0176848
871.551	0.0174773
871.629	0.0175295
871.707	0.0174607
871.785	0.0174464
871.863	0.0176554
871.942	0.0175609
872.020	0.0176273
872.098	0.0175745
872.176	0.0175761
872.254	0.0176274
872.332	0.0178262
872.410	0.0177683
872.488	0.0177864
872.567	0.0179562
872.645	0.0177737
872.723	0.0177730
872.801	0.0179118
872.879	0.0179751
872.957	0.0179141
873.035	0.0178514
873.113	0.0178888
873.192	0.0180006
873.270	0.0179402
873.348	0.0178152
873.426	0.0177776
873.504	0.0179636
873.582	0.0180286
873.660	0.0180314
873.738	0.0178806
873.817	0.0179139
873.895	0.0180184
873.973	0.0179241
874.051	0.0180000
874.129	0.0180262
874.207	0.0180241
874.285	0.0180426
874.363	0.0180254
874.442	0.0179326
874.520	0.0180310
874.598	0.0179226
874.676	0.0180695
874.754	0.0180263
874.832	0.0179878
874.910	0.0178990
874.988	0.0178192
875.067	0.0179974
875.145	0.0179137
875.223	0.0178004
875.301	0.0177826
875.379	0.0177412
875.457	0.0175570
875.535	0.0176536
875.613	0.0176060
875.692	0.0175902
875.770	0.0174297
875.848	0.0173666
875.926	0.0173915
876.004	0.0174686
876.082	0.0174131
876.160	0.0173431
876.238	0.0171973
876.317	0.0172414
876.395	0.0172754
876.473	0.0172253
876.551	0.0173166
876.629	0.0169422
876.707	0.0172522
876.785	0.0173207
876.863	0.0171755
876.942	0.0171189
877.020	0.0173310
877.098	0.0172562
877.176	0.0173326
877.254	0.0173434
877.332	0.0173919
877.410	0.0173969
877.488	0.0174583
877.567	0.0173858
877.645	0.0175390
877.723	0.0176986
877.801	0.0176797
877.879	0.0177162
877.957	0.0177435
878.035	0.0175090
878.113	0.0175854
878.192	0.0176774
878.270	0.0176004
878.348	0.0176314
878.426	0.0176550
878.504	0.0176228
878.582	0.0176466
878.660	0.0176898
878.738	0.0177435
878.817	0.0175994
878.895	0.0176668
878.973	0.0175758
879.051	0.0176962
879.129	0.0177099
879.207	0.0177352
879.285	0.0177413
879.363	0.0175835
879.442	0.0176592
879.520	0.0176746
879.598	0.0176199
879.676	0.0175964
879.754	0.0175200
879.832	0.0176469
879.910	0.0174635
879.988	0.0174046
880.067	0.0174335
880.145	0.0172962
880.223	0.0172916
880.301	0.0172020
880.379	0.0174274
880.457	0.0173569
880.535	0.0173983
880.613	0.0174417
880.692	0.0175231
880.770	0.0175891
880.848	0.0175027
880.926	0.0175427
881.004	0.0174109
881.082	0.0175241
881.160	0.0175048
881.238	0.0176376
881.317	0.0175426
881.395	0.0176771
881.473	0.0176415
881.551	0.0176040
881.629	0.0176926
881.707	0.0177629
881.785	0.0177351
881.863	0.0177544
881.942	0.0178297
882.020	0.0179283
882.098	0.0179987
882.176	0.0180092
882.254	0.0179045
882.332	0.0179081
882.410	0.0180439
882.488	0.0178957
882.567	0.0179579
882.645	0.0179536
882.723	0.0179606
882.801	0.0180070
882.879	0.0180417
882.957	0.0181416
883.035	0.0181262
883.113	0.0182417
883.192	0.0181342
883.270	0.0181248
883.348	0.0182951
883.426	0.0182404
883.504	0.0181006
883.582	0.0181744
883.660	0.0182249
883.738	0.0181772
883.817	0.0181556
883.895	0.0180283
883.973	0.0178934
884.051	0.0178927
884.129	0.0179398
884.207	0.0178212
884.285	0.0177209
884.363	0.0178655
884.442	0.0178941
884.520	0.0178370
884.598	0.0178344
884.676	0.0178226
884.754	0.0179125
884.832	0.0178934
884.910	0.0178738
884.988	0.0178752
885.067	0.0179170
885.145	0.0179331
885.223	0.0179294
885.301	0.0178380
885.379	0.0178811
885.457	0.0178779
885.535	0.0178022
885.613	0.0176862
885.692	0.0177402
885.770	0.0177074
885.848	0.0176601
885.926	0.0175143
886.004	0.0176221
886.082	0.0176174
886.160	0.0175433
886.238	0.0176543
886.317	0.0176141
886.395	0.0176076
886.473	0.0176170
886.551	0.0175612
886.629	0.0175385
886.707	0.0176998
886.785	0.0176321
886.863	0.0176784
886.942	0.0175713
887.020	0.0176461
887.098	0.0176335
887.176	0.0177590
887.254	0.0176675
887.332	0.0178812
887.410	0.0177374
887.488	0.0178076
887.567	0.0178600
887.645	0.0177879
887.723	0.0177086
887.801	0.0176894
887.879	0.0177635
887.957	0.0177672
888.035	0.0177435
888.113	0.0177741
888.192	0.0177226
888.270	0.0178012
888.348	0.0178260
888.426	0.0179146
888.504	0.0177430
888.582	0.0177983
888.660	0.0177656
888.738	0.0178654
888.817	0.0178433
888.895	0.0178296
888.973	0.0178286
889.051	0.0178204
889.129	0.0178458
889.207	0.0178927
889.285	0.0178318
889.363	0.0179435
889.442	0.0177666
889.520	0.0177535
889.598	0.0178526
889.676	0.0176981
889.754	0.0177519
889.832	0.0176363
889.910	0.0176892
889.988	0.0175697
890.067	0.0175780
890.145	0.0174190
890.223	0.0175608
890.301	0.0175507
890.379	0.0176012
890.457	0.0176197
890.535	0.0175221
890.613	0.0173875
890.692	0.0174779
890.770	0.0176263
890.848	0.0176595
890.926	0.0174166
891.004	0.0175622
891.082	0.0176691
891.160	0.0177389
891.238	0.0176653
891.317	0.0176923
891.395	0.0177422
891.473	0.0176892
891.551	0.0177437
891.629	0.0176510
891.707	0.0175961
891.785	0.0177529
891.863	0.0176730
891.942	0.0177194
892.020	0.0176836
892.098	0.0177496
892.176	0.0177645
892.254	0.0176797
892.332	0.0176822
892.410	0.0178326
892.488	0.0177753
892.567	0.0176206
892.645	0.0178876
892.723	0.0178372
892.801	0.0178087
892.879	0.0177248
892.957	0.0177525
893.035	0.0177048
893.113	0.0176131
893.192	0.0176208
893.270	0.0176746
893.348	0.0176917
893.426	0.0176978
893.504	0.0176678
893.582	0.0175296
893.660	0.0175909
893.738	0.0177061
893.817	0.0176004
893.895	0.0176991
893.973	0.0177382
894.051	0.0176112
894.129	0.0175473
894.207	0.0176337
894.285	0.0176511
894.363	0.0176520
894.442	0.0177013
894.520	0.0177037
894.598	0.0176373
894.676	0.0175786
894.754	0.0176538
894.832	0.0176604
894.910	0.0176620
894.988	0.0176569
895.067	0.0176233
895.145	0.0176986
895.223	0.0175586
895.301	0.0174325
895.379	0.0175248
895.457	0.0176374
895.535	0.0175510
895.613	0.0175471
895.692	0.0176265
895.770	0.0176536
895.848	0.0176082
895.926	0.0175355
896.004	0.0175076
896.082	0.0174194
896.160	0.0175503
896.238	0.0175363
896.317	0.0174178
896.395	0.0174104
896.473	0.0171351
896.551	0.0172501
896.629	0.0172102
896.707	0.0172567
896.785	0.0173036
896.863	0.0172453
896.942	0.0172636
897.020	0.0172522
897.098	0.0172946
897.176	0.0171922
897.254	0.0172826
897.332	0.0173138
897.410	0.0173359
897.488	0.0173259
897.567	0.0172790
897.645	0.0174914
897.723	0.0175652
897.801	0.0174485
897.879	0.0174722
897.957	0.0173181
898.035	0.0173022
898.113	0.0173420
898.192	0.0174066
898.270	0.0173882
898.348	0.0173360
898.426	0.0172883
898.504	0.0172182
898.582	0.0172590
898.660	0.0171796
898.738	0.0172723
898.817	0.0172543
898.895	0.0173357
898.973	0.0173760
899.051	0.0174683
899.129	0.0174008
899.207	0.0175907
899.285	0.0176717
899.363	0.0176403
899.442	0.0174430
899.520	0.0176285
899.598	0.0176435
899.676	0.0175415
899.754	0.0175546
899.832	0.0173283
899.910	0.0173972
899.988	0.0172029
900.067	0.0171702
900.145	0.0173335
900.223	0.0173399
900.301	0.0173827
900.379	0.0173260
900.457	0.0173065
900.535	0.0173966
900.613	0.0173319
900.692	0.0174652
900.770	0.0176038
900.848	0.0174518
900.926	0.0175348
901.004	0.0175948
901.082	0.0176303
901.160	0.0175488
901.238	0.0175789
901.317	0.0175946
901.395	0.0175716
901.473	0.0175741
901.551	0.0175656
901.629	0.0175105
901.707	0.0175466
901.785	0.0174892
901.863	0.0176497
901.942	0.0176847
902.020	0.0176745
902.098	0.0176996
902.176	0.0175775
902.254	0.0176435
902.332	0.0175394
902.410	0.0176059
902.488	0.0175362
902.567	0.0174635
902.645	0.0174191
902.723	0.0174273
902.801	0.0173849
902.879	0.0172476
902.957	0.0172569
903.035	0.0172263
903.113	0.0173121
903.192	0.0172928
903.270	0.0173585
903.348	0.0173228
903.426	0.0174621
903.504	0.0172246
903.582	0.0173773
903.660	0.0174944
903.738	0.0175069
903.817	0.0173129
903.895	0.0176949
903.973	0.0175155
904.051	0.0174143
904.129	0.0174023
904.207	0.0175919
904.285	0.0175299
904.363	0.0176526
904.442	0.0176291
904.520	0.0175114
904.598	0.0175843
904.676	0.0175136
904.754	0.0175250
904.832	0.0176455
904.910	0.0176975
904.988	0.0176154
905.067	0.0176167
905.145	0.0177335
905.223	0.0176801
905.301	0.0176796
905.379	0.0177850
905.457	0.0178864
905.535	0.0179076
905.613	0.0177096
905.692	0.0177575
905.770	0.0178496
905.848	0.0178833
905.926	0.0178215
906.004	0.0177606
906.082	0.0176680
906.160	0.0177046
906.238	0.0175997
906.317	0.0176645
906.395	0.0176827
906.473	0.0175634
906.551	0.0175053
906.629	0.0175986
906.707	0.0175211
906.785	0.0173072
906.863	0.0174706
906.942	0.0174805
907.020	0.0175596
907.098	0.0174295
907.176	0.0173552
907.254	0.0173208
907.332	0.0174098
907.410	0.0172672
907.488	0.0174940
907.567	0.0173125
907.645	0.0173234
907.723	0.0173292
907.801	0.0173361
907.879	0.0173997
907.957	0.0172740
908.035	0.0172582
908.113	0.0172638
908.192	0.0172328
908.270	0.0174084
908.348	0.0172797
908.426	0.0172761
908.504	0.0173228
908.582	0.0173800
908.660	0.0174719
908.738	0.0174587
908.817	0.0174060
908.895	0.0175256
908.973	0.0173872
909.051	0.0176106
909.129	0.0176931
909.207	0.0175048
909.285	0.0174399
909.363	0.0176244
909.442	0.0176063
909.520	0.0175558
909.598	0.0174631
909.676	0.0175820
909.754	0.0176426
909.832	0.0176178
909.910	0.0176096
909.988	0.0175572
910.067	0.0176711
910.145	0.0174963
910.223	0.0174825
910.301	0.0177251
910.379	0.0176251
910.457	0.0174475
910.535	0.0174871
910.613	0.0176182
910.692	0.0174507
910.770	0.0172859
910.848	0.0175285
910.926	0.0174348
911.004	0.0174555
911.082	0.0173770
911.160	0.0172704
911.238	0.0172879
911.317	0.0173686
911.395	0.0173122
911.473	0.0172475
911.551	0.0172372
911.629	0.0172421
911.707	0.0173362
911.785	0.0173769
911.863	0.0174993
911.942	0.0173605
912.020	0.0173779
912.098	0.0174736
912.176	0.0174690
912.254	0.0174172
912.332	0.0174553
912.410	0.0176015
912.488	0.0176054
912.567	0.0174811
912.645	0.0175168
912.723	0.0176051
912.801	0.0176022
912.879	0.0176607
912.957	0.0174717
913.035	0.0175263
913.113	0.0176138
913.192	0.0176665
913.270	0.0174519
913.348	0.0174816
913.426	0.0174526
913.504	0.0174966
913.582	0.0173849
913.660	0.0174394
913.738	0.0174178
913.817	0.0174406
913.895	0.0173724
913.973	0.0174545
914.051	0.0174582
914.129	0.0174471
914.207	0.0176201
914.285	0.0174593
914.363	0.0175296
914.442	0.0176050
914.520	0.0175201
914.598	0.0173040
914.676	0.0173946
914.754	0.0175243
914.832	0.0174936
914.910	0.0174743
914.988	0.0174245
915.067	0.0173540
915.145	0.0173342
915.223	0.0173868
915.301	0.0174613
915.379	0.0174310
915.457	0.0173112
915.535	0.0173228
915.613	0.0174020
915.692	0.0172891
915.770	0.0173823
915.848	0.0171998
915.926	0.0173014
916.004	0.0173965
916.082	0.0173640
916.160	0.0173789
916.238	0.0174017
916.317	0.0173732
916.395	0.0173927
916.473	0.0174639
916.551	0.0174005
916.629	0.0174862
916.707	0.0175349
916.785	0.0176625
916.863	0.0175436
916.942	0.0175455
917.020	0.0175356
917.098	0.0175632
917.176	0.0175937
917.254	0.0174889
917.332	0.0175156
917.410	0.0174019
917.488	0.0173669
917.567	0.0172502
917.645	0.0173828
917.723	0.0173299
917.801	0.0171723
917.879	0.0173383
917.957	0.0171964
918.035	0.0171967
918.113	0.0173840
918.192	0.0171224
918.270	0.0171304
918.348	0.0172945
918.426	0.0171251
918.504	0.0172227
918.582	0.0172070
918.660	0.0171979
918.738	0.0172174
918.817	0.0172943
918.895	0.0173894
918.973	0.0173789
919.051	0.0172961
919.129	0.0172733
919.207	0.0172230
919.285	0.0172880
919.363	0.0173584
919.442	0.0174195
919.520	0.0172070
919.598	0.0171575
919.676	0.0172230
919.754	0.0173622
919.832	0.0173364
919.910	0.0172089
