06/01/2022	21:33:57	Ver.	4.1	UNKNOWN
Optical Delay	599.988409	Delta X		0.078125	Sweeps	1	Scan Rate	0/0
Coordinates	Axis 1	NaN	Axis 2	NaN	Axis 3	NaN	Axis 4	NaN	Axis 5	NaN	Axis 6	0.000000
TX Power	0.000000	RX Power	0.000000

599.988	0.0180463
600.067	0.0180011
600.145	0.0178747
600.223	0.0180557
600.301	0.0180000
600.379	0.0180697
600.457	0.0180476
600.535	0.0178873
600.613	0.0178951
600.692	0.0180761
600.770	0.0179976
600.848	0.0180721
600.926	0.0180577
601.004	0.0180293
601.082	0.0179149
601.160	0.0179955
601.238	0.0181027
601.317	0.0181586
601.395	0.0180938
601.473	0.0180155
601.551	0.0180492
601.629	0.0181010
601.707	0.0178609
601.785	0.0179773
601.863	0.0180859
601.942	0.0181907
602.020	0.0179621
602.098	0.0178937
602.176	0.0180109
602.254	0.0180788
602.332	0.0178777
602.410	0.0180293
602.488	0.0180192
602.567	0.0179427
602.645	0.0179525
602.723	0.0178883
602.801	0.0180806
602.879	0.0180129
602.957	0.0179397
603.035	0.0179741
603.113	0.0179315
603.192	0.0180927
603.270	0.0179113
603.348	0.0180036
603.426	0.0180242
603.504	0.0178799
603.582	0.0179655
603.660	0.0180671
603.738	0.0180700
603.817	0.0180533
603.895	0.0180353
603.973	0.0179858
604.051	0.0181248
604.129	0.0178453
604.207	0.0179263
604.285	0.0179940
604.363	0.0179183
604.442	0.0181268
604.520	0.0180405
604.598	0.0179649
604.676	0.0179959
604.754	0.0180184
604.832	0.0180763
604.910	0.0180650
604.988	0.0179786
605.067	0.0179804
605.145	0.0180566
605.223	0.0180672
605.301	0.0179996
605.379	0.0179658
605.457	0.0180367
605.535	0.0178854
605.613	0.0180178
605.692	0.0180493
605.770	0.0180591
605.848	0.0181348
605.926	0.0180232
606.004	0.0180003
606.082	0.0178836
606.160	0.0179333
606.238	0.0179477
606.317	0.0180442
606.395	0.0181248
606.473	0.0180681
606.551	0.0180792
606.629	0.0180293
606.707	0.0179060
606.785	0.0180081
606.863	0.0179991
606.942	0.0180314
607.020	0.0180493
607.098	0.0178838
607.176	0.0179006
607.254	0.0180444
607.332	0.0180212
607.410	0.0180594
607.488	0.0181051
607.567	0.0180794
607.645	0.0179528
607.723	0.0179797
607.801	0.0180241
607.879	0.0180454
607.957	0.0180826
608.035	0.0179917
608.113	0.0180538
608.192	0.0180752
608.270	0.0180585
608.348	0.0180866
608.426	0.0181713
608.504	0.0180919
608.582	0.0179256
608.660	0.0180163
608.738	0.0180419
608.817	0.0179919
608.895	0.0179987
608.973	0.0179579
609.051	0.0181672
609.129	0.0181057
609.207	0.0180187
609.285	0.0180442
609.363	0.0180527
609.442	0.0179618
609.520	0.0180335
609.598	0.0180488
609.676	0.0180979
609.754	0.0181070
609.832	0.0178975
609.910	0.0180975
609.988	0.0180315
610.067	0.0180793
610.145	0.0180388
610.223	0.0179434
610.301	0.0179951
610.379	0.0180024
610.457	0.0180325
610.535	0.0179829
610.613	0.0179464
610.692	0.0180971
610.770	0.0180617
610.848	0.0179330
610.926	0.0181519
611.004	0.0179336
611.082	0.0179041
611.160	0.0179745
611.238	0.0179221
611.317	0.0181389
611.395	0.0180528
611.473	0.0179398
611.551	0.0179925
611.629	0.0180484
611.707	0.0178449
611.785	0.0179799
611.863	0.0179615
611.942	0.0180801
612.020	0.0178854
612.098	0.0179691
612.176	0.0181718
612.254	0.0179541
612.332	0.0180391
612.410	0.0181248
612.488	0.0180009
612.567	0.0180173
612.645	0.0181082
612.723	0.0180522
612.801	0.0180987
612.879	0.0181002
612.957	0.0181550
613.035	0.0180875
613.113	0.0180518
613.192	0.0181510
613.270	0.0180059
613.348	0.0179556
613.426	0.0178914
613.504	0.0181618
613.582	0.0179337
613.660	0.0179368
613.738	0.0179604
613.817	0.0180676
613.895	0.0178268
613.973	0.0177766
614.051	0.0178645
614.129	0.0179903
614.207	0.0179895
614.285	0.0179809
614.363	0.0179820
614.442	0.0178871
614.520	0.0179407
614.598	0.0179237
614.676	0.0179391
614.754	0.0180139
614.832	0.0181575
614.910	0.0180127
614.988	0.0180788
615.067	0.0180634
615.145	0.0179700
615.223	0.0181075
615.301	0.0180094
615.379	0.0181449
615.457	0.0180093
615.535	0.0180122
615.613	0.0181596
615.692	0.0182153
615.770	0.0182017
615.848	0.0180275
615.926	0.0178864
616.004	0.0179247
616.082	0.0179004
616.160	0.0180966
616.238	0.0181541
616.317	0.0180572
616.395	0.0178510
616.473	0.0178323
616.551	0.0178879
616.629	0.0179592
616.707	0.0179409
616.785	0.0179515
616.863	0.0178144
616.942	0.0178706
617.020	0.0180593
617.098	0.0180955
617.176	0.0179955
617.254	0.0180036
617.332	0.0179499
617.410	0.0180885
617.488	0.0180215
617.567	0.0179665
617.645	0.0181151
617.723	0.0181326
617.801	0.0180016
617.879	0.0179790
617.957	0.0179606
618.035	0.0179787
618.113	0.0182616
618.192	0.0180594
618.270	0.0180080
618.348	0.0180325
618.426	0.0180412
618.504	0.0180021
618.582	0.0179954
618.660	0.0180479
618.738	0.0179920
618.817	0.0178711
618.895	0.0179507
618.973	0.0180473
619.051	0.0180276
619.129	0.0178662
619.207	0.0179834
619.285	0.0180223
619.363	0.0180903
619.442	0.0179785
619.520	0.0180054
619.598	0.0179221
619.676	0.0180466
619.754	0.0179507
619.832	0.0180024
619.910	0.0179655
619.988	0.0179868
620.067	0.0178855
620.145	0.0181107
620.223	0.0180327
620.301	0.0180402
620.379	0.0179649
620.457	0.0179504
620.535	0.0180314
620.613	0.0179876
620.692	0.0179797
620.770	0.0178946
620.848	0.0179414
620.926	0.0179380
621.004	0.0180615
621.082	0.0179208
621.160	0.0178628
621.238	0.0179838
621.317	0.0179967
621.395	0.0180641
621.473	0.0179188
621.551	0.0179694
621.629	0.0179469
621.707	0.0181367
621.785	0.0179756
621.863	0.0180051
621.942	0.0180944
622.020	0.0179525
622.098	0.0179782
622.176	0.0180809
622.254	0.0179815
622.332	0.0180679
622.410	0.0180709
622.488	0.0181043
622.567	0.0181065
622.645	0.0180875
622.723	0.0178732
622.801	0.0178419
622.879	0.0179702
622.957	0.0180798
623.035	0.0180434
623.113	0.0179661
623.192	0.0179215
623.270	0.0178944
623.348	0.0180700
623.426	0.0178651
623.504	0.0180172
623.582	0.0180309
623.660	0.0180762
623.738	0.0179950
623.817	0.0179025
623.895	0.0180614
623.973	0.0179748
624.051	0.0179597
624.129	0.0178537
624.207	0.0179337
624.285	0.0179959
624.363	0.0179443
624.442	0.0179805
624.520	0.0179337
624.598	0.0179704
624.676	0.0180879
624.754	0.0180199
624.832	0.0178808
624.910	0.0180196
624.988	0.0179926
625.067	0.0180035
625.145	0.0180865
625.223	0.0179902
625.301	0.0181219
625.379	0.0180431
625.457	0.0179787
625.535	0.0181476
625.613	0.0179361
625.692	0.0180853
625.770	0.0180291
625.848	0.0179379
625.926	0.0181732
626.004	0.0180790
626.082	0.0179272
626.160	0.0178774
626.238	0.0179204
626.317	0.0180376
626.395	0.0180991
626.473	0.0179630
626.551	0.0180679
626.629	0.0180415
626.707	0.0180031
626.785	0.0180562
626.863	0.0180022
626.942	0.0179015
627.020	0.0178960
627.098	0.0180231
627.176	0.0180426
627.254	0.0179986
627.332	0.0179472
627.410	0.0180607
627.488	0.0179897
627.567	0.0180395
627.645	0.0181450
627.723	0.0179139
627.801	0.0178030
627.879	0.0180779
627.957	0.0181422
628.035	0.0180176
628.113	0.0180434
628.192	0.0181097
628.270	0.0180343
628.348	0.0179511
628.426	0.0180948
628.504	0.0180280
628.582	0.0180692
628.660	0.0180711
628.738	0.0180296
628.817	0.0180679
628.895	0.0179602
628.973	0.0179188
629.051	0.0181001
629.129	0.0180506
629.207	0.0180226
629.285	0.0180498
629.363	0.0180952
629.442	0.0180531
629.520	0.0179935
629.598	0.0179863
629.676	0.0178945
629.754	0.0180886
629.832	0.0181291
629.910	0.0180664
629.988	0.0181108
630.067	0.0179906
630.145	0.0181341
630.223	0.0180343
630.301	0.0178772
630.379	0.0178923
630.457	0.0179970
630.535	0.0180028
630.613	0.0180400
630.692	0.0179954
630.770	0.0178703
630.848	0.0179973
630.926	0.0181354
631.004	0.0180734
631.082	0.0179489
631.160	0.0180952
631.238	0.0180672
631.317	0.0179639
631.395	0.0179331
631.473	0.0181156
631.551	0.0180505
631.629	0.0181354
631.707	0.0180097
631.785	0.0180048
631.863	0.0180568
631.942	0.0179332
632.020	0.0178942
632.098	0.0180445
632.176	0.0180028
632.254	0.0180445
632.332	0.0180328
632.410	0.0179032
632.488	0.0178845
632.567	0.0181484
632.645	0.0180280
632.723	0.0180775
632.801	0.0178527
632.879	0.0180193
632.957	0.0181406
633.035	0.0180061
633.113	0.0180531
633.192	0.0181165
633.270	0.0179924
633.348	0.0179384
633.426	0.0180782
633.504	0.0180817
633.582	0.0180582
633.660	0.0180439
633.738	0.0179575
633.817	0.0180115
633.895	0.0181191
633.973	0.0179095
634.051	0.0180099
634.129	0.0180157
634.207	0.0180164
634.285	0.0179745
634.363	0.0180264
634.442	0.0181728
634.520	0.0180293
634.598	0.0179779
634.676	0.0180452
634.754	0.0180490
634.832	0.0180087
634.910	0.0180412
634.988	0.0180624
635.067	0.0179335
635.145	0.0180415
635.223	0.0180781
635.301	0.0180122
635.379	0.0179488
635.457	0.0179652
635.535	0.0179711
635.613	0.0178989
635.692	0.0180437
635.770	0.0179794
635.848	0.0179247
635.926	0.0179322
636.004	0.0180314
636.082	0.0180399
636.160	0.0181730
636.238	0.0179786
636.317	0.0180268
636.395	0.0179037
636.473	0.0178460
636.551	0.0180350
636.629	0.0180734
636.707	0.0179645
636.785	0.0179483
636.863	0.0181622
636.942	0.0179745
637.020	0.0180962
637.098	0.0179812
637.176	0.0179785
637.254	0.0180308
637.332	0.0180975
637.410	0.0179441
637.488	0.0179849
637.567	0.0180608
637.645	0.0181050
637.723	0.0178551
637.801	0.0180821
637.879	0.0180464
637.957	0.0180072
638.035	0.0180136
638.113	0.0180383
638.192	0.0180999
638.270	0.0180594
638.348	0.0180986
638.426	0.0178909
638.504	0.0179231
638.582	0.0179733
638.660	0.0179031
638.738	0.0181026
638.817	0.0180280
638.895	0.0180083
638.973	0.0180382
639.051	0.0178608
639.129	0.0179414
639.207	0.0180071
639.285	0.0180133
639.363	0.0179807
639.442	0.0180676
639.520	0.0179864
639.598	0.0179969
639.676	0.0180376
639.754	0.0180540
639.832	0.0179884
639.910	0.0179485
639.988	0.0179920
640.067	0.0179922
640.145	0.0180115
640.223	0.0181142
640.301	0.0180927
640.379	0.0180440
640.457	0.0179913
640.535	0.0180662
640.613	0.0178891
640.692	0.0179535
640.770	0.0180434
640.848	0.0179568
640.926	0.0179689
641.004	0.0179974
641.082	0.0179685
641.160	0.0179892
641.238	0.0179542
641.317	0.0180531
641.395	0.0179053
641.473	0.0180807
641.551	0.0180734
641.629	0.0180565
641.707	0.0179793
641.785	0.0181460
641.863	0.0180688
641.942	0.0179530
642.020	0.0180460
642.098	0.0180815
642.176	0.0179520
642.254	0.0181345
642.332	0.0180695
642.410	0.0179037
642.488	0.0179903
642.567	0.0180075
642.645	0.0179266
642.723	0.0180298
642.801	0.0180120
642.879	0.0179980
642.957	0.0180594
643.035	0.0180143
643.113	0.0181659
643.192	0.0179494
643.270	0.0180883
643.348	0.0179427
643.426	0.0180894
643.504	0.0180036
643.582	0.0179930
643.660	0.0180155
643.738	0.0181630
643.817	0.0180063
643.895	0.0180722
643.973	0.0179523
644.051	0.0181084
644.129	0.0179972
644.207	0.0180257
644.285	0.0180550
644.363	0.0180633
644.442	0.0180799
644.520	0.0180566
644.598	0.0179212
644.676	0.0181205
644.754	0.0179623
644.832	0.0180688
644.910	0.0178947
644.988	0.0180203
645.067	0.0180622
645.145	0.0180592
645.223	0.0179191
645.301	0.0178972
645.379	0.0180597
645.457	0.0179663
645.535	0.0179599
645.613	0.0178844
645.692	0.0181071
645.770	0.0179009
645.848	0.0179359
645.926	0.0180347
646.004	0.0179560
646.082	0.0181747
646.160	0.0179574
646.238	0.0180573
646.317	0.0180008
646.395	0.0179893
646.473	0.0179741
646.551	0.0179053
646.629	0.0180320
646.707	0.0179971
646.785	0.0179591
646.863	0.0180536
646.942	0.0180209
647.020	0.0180405
647.098	0.0181303
647.176	0.0179835
647.254	0.0180415
647.332	0.0180170
647.410	0.0180844
647.488	0.0179599
647.567	0.0179599
647.645	0.0180347
647.723	0.0180779
647.801	0.0181252
647.879	0.0180473
647.957	0.0180899
648.035	0.0180393
648.113	0.0179963
648.192	0.0179833
648.270	0.0179502
648.348	0.0180159
648.426	0.0180628
648.504	0.0179413
648.582	0.0179776
648.660	0.0180073
648.738	0.0180125
648.817	0.0180382
648.895	0.0179748
648.973	0.0180093
649.051	0.0180635
649.129	0.0180589
649.207	0.0180669
649.285	0.0180513
649.363	0.0180085
649.442	0.0180510
649.520	0.0180334
649.598	0.0180316
649.676	0.0180070
649.754	0.0180354
649.832	0.0179643
649.910	0.0180382
649.988	0.0180727
650.067	0.0179253
650.145	0.0179750
650.223	0.0180511
650.301	0.0181002
650.379	0.0179763
650.457	0.0181693
650.535	0.0181256
650.613	0.0180486
650.692	0.0179039
650.770	0.0181160
650.848	0.0179366
650.926	0.0180312
651.004	0.0180531
651.082	0.0180118
651.160	0.0181007
651.238	0.0180551
651.317	0.0180910
651.395	0.0181373
651.473	0.0180745
651.551	0.0180083
651.629	0.0180596
651.707	0.0180837
651.785	0.0180321
651.863	0.0179828
651.942	0.0180051
652.020	0.0179603
652.098	0.0180026
652.176	0.0180029
652.254	0.0180206
652.332	0.0180470
652.410	0.0179742
652.488	0.0180622
652.567	0.0179568
652.645	0.0179738
652.723	0.0179533
652.801	0.0181106
652.879	0.0181321
652.957	0.0181075
653.035	0.0179479
653.113	0.0181108
653.192	0.0182742
653.270	0.0182039
653.348	0.0180704
653.426	0.0180074
653.504	0.0180017
653.582	0.0179292
653.660	0.0179182
653.738	0.0181387
653.817	0.0181519
653.895	0.0179692
653.973	0.0180661
654.051	0.0179935
654.129	0.0180943
654.207	0.0181615
654.285	0.0181581
654.363	0.0180686
654.442	0.0180012
654.520	0.0180960
654.598	0.0180147
654.676	0.0179977
654.754	0.0181101
654.832	0.0179935
654.910	0.0179950
654.988	0.0179524
655.067	0.0179077
655.145	0.0179165
655.223	0.0180145
655.301	0.0180471
655.379	0.0178242
655.457	0.0179281
655.535	0.0180547
655.613	0.0180102
655.692	0.0180253
655.770	0.0180714
655.848	0.0180617
655.926	0.0179830
656.004	0.0181075
656.082	0.0180051
656.160	0.0179827
656.238	0.0179684
656.317	0.0178886
656.395	0.0180707
656.473	0.0180509
656.551	0.0178950
656.629	0.0179069
656.707	0.0180426
656.785	0.0181068
656.863	0.0180845
656.942	0.0180320
657.020	0.0179721
657.098	0.0181535
657.176	0.0179599
657.254	0.0181113
657.332	0.0180311
657.410	0.0179271
657.488	0.0180368
657.567	0.0179703
657.645	0.0179550
657.723	0.0180790
657.801	0.0180723
657.879	0.0179804
657.957	0.0180403
658.035	0.0179997
658.113	0.0180112
658.192	0.0181474
658.270	0.0179366
658.348	0.0179807
658.426	0.0180742
658.504	0.0181190
658.582	0.0180410
658.660	0.0179868
658.738	0.0179929
658.817	0.0179155
658.895	0.0180073
658.973	0.0180839
659.051	0.0179845
659.129	0.0179542
659.207	0.0179303
659.285	0.0179308
659.363	0.0180567
659.442	0.0179673
659.520	0.0180353
659.598	0.0179850
659.676	0.0180582
659.754	0.0180305
659.832	0.0180054
659.910	0.0179619
659.988	0.0181033
660.067	0.0179086
660.145	0.0179127
660.223	0.0180888
660.301	0.0180110
660.379	0.0179383
660.457	0.0179414
660.535	0.0179866
660.613	0.0180246
660.692	0.0180185
660.770	0.0180559
660.848	0.0179094
660.926	0.0179402
661.004	0.0180595
661.082	0.0180458
661.160	0.0180896
661.238	0.0179905
661.317	0.0181277
661.395	0.0180140
661.473	0.0180656
661.551	0.0181309
661.629	0.0180711
661.707	0.0181240
661.785	0.0181300
661.863	0.0180618
661.942	0.0179900
662.020	0.0180154
662.098	0.0180189
662.176	0.0181620
662.254	0.0180645
662.332	0.0180151
662.410	0.0180191
662.488	0.0180212
662.567	0.0181377
662.645	0.0179335
662.723	0.0180764
662.801	0.0181418
662.879	0.0180398
662.957	0.0181545
663.035	0.0179754
663.113	0.0179536
663.192	0.0180217
663.270	0.0179391
663.348	0.0179675
663.426	0.0181390
663.504	0.0180985
663.582	0.0179991
663.660	0.0179556
663.738	0.0180927
663.817	0.0179153
663.895	0.0179017
663.973	0.0180489
664.051	0.0180820
664.129	0.0179633
664.207	0.0180522
664.285	0.0180271
664.363	0.0179009
664.442	0.0181223
664.520	0.0180148
664.598	0.0179384
664.676	0.0179616
664.754	0.0180087
664.832	0.0180320
664.910	0.0180737
664.988	0.0180110
665.067	0.0180649
665.145	0.0180544
665.223	0.0179667
665.301	0.0180218
665.379	0.0179851
665.457	0.0182552
665.535	0.0180472
665.613	0.0180328
665.692	0.0180028
665.770	0.0178967
665.848	0.0179106
665.926	0.0179465
666.004	0.0180202
666.082	0.0180877
666.160	0.0179816
666.238	0.0180138
666.317	0.0179205
666.395	0.0178526
666.473	0.0179140
666.551	0.0177525
666.629	0.0179041
666.707	0.0181246
666.785	0.0180137
666.863	0.0179290
666.942	0.0179415
667.020	0.0179984
667.098	0.0179382
667.176	0.0179284
667.254	0.0179552
667.332	0.0178916
667.410	0.0180083
667.488	0.0179276
667.567	0.0180829
667.645	0.0180116
667.723	0.0179522
667.801	0.0178526
667.879	0.0178485
667.957	0.0178470
668.035	0.0178380
668.113	0.0179180
668.192	0.0179482
668.270	0.0180405
668.348	0.0178694
668.426	0.0180537
668.504	0.0178734
668.582	0.0179295
668.660	0.0179224
668.738	0.0179388
668.817	0.0180409
668.895	0.0178729
668.973	0.0178656
669.051	0.0180061
669.129	0.0180164
669.207	0.0179108
669.285	0.0180226
669.363	0.0180276
669.442	0.0179447
669.520	0.0180407
669.598	0.0179797
669.676	0.0181738
669.754	0.0179613
669.832	0.0178493
669.910	0.0179991
669.988	0.0179519
670.067	0.0179716
670.145	0.0180054
670.223	0.0179608
670.301	0.0179156
670.379	0.0178476
670.457	0.0178864
670.535	0.0179365
670.613	0.0180439
670.692	0.0181085
670.770	0.0179401
670.848	0.0181207
670.926	0.0179479
671.004	0.0179721
671.082	0.0179618
671.160	0.0181632
671.238	0.0180260
671.317	0.0180614
671.395	0.0179816
671.473	0.0179694
671.551	0.0181759
671.629	0.0180935
671.707	0.0180499
671.785	0.0180518
671.863	0.0180083
671.942	0.0181567
672.020	0.0179659
672.098	0.0180400
672.176	0.0181257
672.254	0.0180379
672.332	0.0180558
672.410	0.0179876
672.488	0.0181655
672.567	0.0180864
672.645	0.0181165
672.723	0.0180529
672.801	0.0181857
672.879	0.0181064
672.957	0.0179975
673.035	0.0180306
673.113	0.0179881
673.192	0.0182294
673.270	0.0181245
673.348	0.0179987
673.426	0.0179980
673.504	0.0181759
673.582	0.0180219
673.660	0.0180193
673.738	0.0181966
673.817	0.0181002
673.895	0.0181804
673.973	0.0183153
674.051	0.0180817
674.129	0.0180064
674.207	0.0181820
674.285	0.0181027
674.363	0.0179785
674.442	0.0181985
674.520	0.0181532
674.598	0.0181773
674.676	0.0181366
674.754	0.0181206
674.832	0.0181055
674.910	0.0181943
674.988	0.0182204
675.067	0.0180672
675.145	0.0181376
675.223	0.0180801
675.301	0.0181563
675.379	0.0180623
675.457	0.0182043
675.535	0.0181029
675.613	0.0181441
675.692	0.0182383
675.770	0.0180663
675.848	0.0180789
675.926	0.0180066
676.004	0.0180648
676.082	0.0180057
676.160	0.0181232
676.238	0.0179649
676.317	0.0181673
676.395	0.0179761
676.473	0.0180717
676.551	0.0181218
676.629	0.0181194
676.707	0.0180528
676.785	0.0181290
676.863	0.0181144
676.942	0.0180914
677.020	0.0180772
677.098	0.0179761
677.176	0.0179684
677.254	0.0179100
677.332	0.0180463
677.410	0.0179337
677.488	0.0181317
677.567	0.0180759
677.645	0.0180551
677.723	0.0181377
677.801	0.0180790
677.879	0.0179203
677.957	0.0180532
678.035	0.0180879
678.113	0.0179776
678.192	0.0180424
678.270	0.0181658
678.348	0.0179687
678.426	0.0180861
678.504	0.0180813
678.582	0.0180043
678.660	0.0179228
678.738	0.0180329
678.817	0.0180658
678.895	0.0179684
678.973	0.0180016
679.051	0.0180495
679.129	0.0179310
679.207	0.0179682
679.285	0.0180149
679.363	0.0180316
679.442	0.0179180
679.520	0.0179698
679.598	0.0179210
679.676	0.0178944
679.754	0.0178976
679.832	0.0180275
679.910	0.0178854
679.988	0.0180162
680.067	0.0180130
680.145	0.0179653
680.223	0.0179150
680.301	0.0180269
680.379	0.0181208
680.457	0.0179583
680.535	0.0179948
680.613	0.0179927
680.692	0.0181031
680.770	0.0180303
680.848	0.0179385
680.926	0.0179205
681.004	0.0179684
681.082	0.0179811
681.160	0.0179777
681.238	0.0179069
681.317	0.0179514
681.395	0.0179330
681.473	0.0179409
681.551	0.0178441
681.629	0.0180321
681.707	0.0180703
681.785	0.0180447
681.863	0.0180016
681.942	0.0179901
682.020	0.0180529
682.098	0.0180058
682.176	0.0178396
682.254	0.0179971
682.332	0.0180376
682.410	0.0181008
682.488	0.0179617
682.567	0.0180112
682.645	0.0180068
682.723	0.0180694
682.801	0.0181110
682.879	0.0180049
682.957	0.0179042
683.035	0.0180503
683.113	0.0180773
683.192	0.0180848
683.270	0.0179648
683.348	0.0180122
683.426	0.0180310
683.504	0.0179539
683.582	0.0180676
683.660	0.0179899
683.738	0.0179622
683.817	0.0179442
683.895	0.0179955
683.973	0.0180808
684.051	0.0180698
684.129	0.0180876
684.207	0.0178166
684.285	0.0178422
684.363	0.0180019
684.442	0.0180450
684.520	0.0179955
684.598	0.0180968
684.676	0.0180749
684.754	0.0179977
684.832	0.0180356
684.910	0.0180151
684.988	0.0178582
685.067	0.0178857
685.145	0.0179681
685.223	0.0180456
685.301	0.0180684
685.379	0.0178755
685.457	0.0181242
685.535	0.0182232
685.613	0.0180602
685.692	0.0180745
685.770	0.0181110
685.848	0.0180463
685.926	0.0181081
686.004	0.0180634
686.082	0.0181442
686.160	0.0180373
686.238	0.0179285
686.317	0.0179613
686.395	0.0180798
686.473	0.0181661
686.551	0.0180035
686.629	0.0181600
686.707	0.0180977
686.785	0.0179462
686.863	0.0179613
686.942	0.0179552
687.020	0.0181483
687.098	0.0181196
687.176	0.0180561
687.254	0.0179575
687.332	0.0180669
687.410	0.0181632
687.488	0.0180714
687.567	0.0181227
687.645	0.0180756
687.723	0.0181156
687.801	0.0180814
687.879	0.0181347
687.957	0.0181927
688.035	0.0182433
688.113	0.0181504
688.192	0.0182258
688.270	0.0182792
688.348	0.0182778
688.426	0.0181328
688.504	0.0181374
688.582	0.0179788
688.660	0.0179047
688.738	0.0178164
688.817	0.0175304
688.895	0.0173270
688.973	0.0171813
689.051	0.0170176
689.129	0.0167850
689.207	0.0168251
689.285	0.0167740
689.363	0.0169672
689.442	0.0171283
689.520	0.0173500
689.598	0.0178903
689.676	0.0184843
689.754	0.0191521
689.832	0.0198039
689.910	0.0204366
689.988	0.0210602
690.067	0.0213969
690.145	0.0216571
690.223	0.0215264
690.301	0.0214365
690.379	0.0207964
690.457	0.0200735
690.535	0.0191289
690.613	0.0179778
690.692	0.0167831
690.770	0.0155023
690.848	0.0142220
690.926	0.0129515
691.004	0.0121745
691.082	0.0112366
691.160	0.0106970
691.238	0.0105297
691.317	0.0107817
691.395	0.0113803
691.473	0.0122520
691.551	0.0137677
691.629	0.0156737
691.707	0.0177013
691.785	0.0197791
691.863	0.0222624
691.942	0.0247572
692.020	0.0269518
692.098	0.0291055
692.176	0.0304417
692.254	0.0317763
692.332	0.0320779
692.410	0.0318218
692.488	0.0306950
692.567	0.0286707
692.645	0.0261187
692.723	0.0229600
692.801	0.0193790
692.879	0.0157357
692.957	0.0118212
693.035	0.00825645
693.113	0.00510422
693.192	0.00230545
693.270	0.000605621
693.348	-0.000580826
693.426	-0.00106850
693.504	-0.000637207
693.582	0.000843506
693.660	0.00311913
693.738	0.00582153
693.817	0.00910408
693.895	0.0127990
693.973	0.0169680
694.051	0.0208742
694.129	0.0247050
694.207	0.0282423
694.285	0.0316379
694.363	0.0341354
694.442	0.0362851
694.520	0.0377319
694.598	0.0382872
694.676	0.0378691
694.754	0.0370403
694.832	0.0353545
694.910	0.0329403
694.988	0.0300343
695.067	0.0267027
695.145	0.0230508
695.223	0.0192732
695.301	0.0155285
695.379	0.0119815
695.457	0.00869186
695.535	0.00592361
695.613	0.00322861
695.692	0.00156281
695.770	0.000261765
695.848	-0.000427704
695.926	-0.000339813
696.004	0.000384903
696.082	0.00167923
696.160	0.00351578
696.238	0.00573296
696.317	0.00837364
696.395	0.0113515
696.473	0.0143430
696.551	0.0172847
696.629	0.0203261
696.707	0.0229372
696.785	0.0254563
696.863	0.0275388
696.942	0.0290678
697.020	0.0299415
697.098	0.0305825
697.176	0.0305606
697.254	0.0301166
697.332	0.0291904
697.410	0.0280206
697.488	0.0267155
697.567	0.0249619
697.645	0.0233719
697.723	0.0216505
697.801	0.0202914
697.879	0.0189028
697.957	0.0176160
698.035	0.0164960
698.113	0.0156823
698.192	0.0150755
698.270	0.0147175
698.348	0.0144629
698.426	0.0144138
698.504	0.0145406
698.582	0.0147508
698.660	0.0151196
698.738	0.0156342
698.817	0.0161926
698.895	0.0166264
698.973	0.0170097
699.051	0.0175895
699.129	0.0177044
699.207	0.0177381
699.285	0.0177897
699.363	0.0175506
699.442	0.0172093
699.520	0.0167127
699.598	0.0160349
699.676	0.0155713
699.754	0.0151315
699.832	0.0146448
699.910	0.0142381
699.988	0.0140578
700.067	0.0140893
700.145	0.0142300
700.223	0.0146006
700.301	0.0147901
700.379	0.0152137
700.457	0.0159062
700.535	0.0164935
700.613	0.0170434
700.692	0.0177541
700.770	0.0183829
700.848	0.0192150
700.926	0.0197849
701.004	0.0204565
701.082	0.0209972
701.160	0.0216397
701.238	0.0222348
701.317	0.0225638
701.395	0.0228950
701.473	0.0231960
701.551	0.0232704
701.629	0.0233601
701.707	0.0231346
701.785	0.0228028
701.863	0.0225941
701.942	0.0220709
702.020	0.0215714
702.098	0.0212033
702.176	0.0206786
702.254	0.0201751
702.332	0.0195165
702.410	0.0192144
702.488	0.0187684
702.567	0.0182345
702.645	0.0177009
702.723	0.0172243
702.801	0.0165177
702.879	0.0160679
702.957	0.0155312
703.035	0.0151752
703.113	0.0144228
703.192	0.0141532
703.270	0.0138737
703.348	0.0133217
703.426	0.0133389
703.504	0.0133183
703.582	0.0134232
703.660	0.0135789
703.738	0.0137904
703.817	0.0141323
703.895	0.0145987
703.973	0.0149936
704.051	0.0154091
704.129	0.0161806
704.207	0.0165768
704.285	0.0170868
704.363	0.0176535
704.442	0.0180817
704.520	0.0186546
704.598	0.0188647
704.676	0.0192212
704.754	0.0196223
704.832	0.0199496
704.910	0.0202328
704.988	0.0206226
705.067	0.0206754
705.145	0.0207864
705.223	0.0210996
705.301	0.0209988
705.379	0.0207640
705.457	0.0207232
705.535	0.0205633
705.613	0.0203549
705.692	0.0200555
705.770	0.0197226
705.848	0.0192977
705.926	0.0188474
706.004	0.0185352
706.082	0.0184027
706.160	0.0179640
706.238	0.0176073
706.317	0.0175226
706.395	0.0173463
706.473	0.0172536
706.551	0.0174092
706.629	0.0173359
706.707	0.0175490
706.785	0.0177568
706.863	0.0181628
706.942	0.0182957
707.020	0.0186518
707.098	0.0188817
707.176	0.0191000
707.254	0.0192615
707.332	0.0192480
707.410	0.0190417
707.488	0.0190418
707.567	0.0186539
707.645	0.0183984
707.723	0.0179577
707.801	0.0173647
707.879	0.0169785
707.957	0.0165144
708.035	0.0160279
708.113	0.0156435
708.192	0.0154344
708.270	0.0150519
708.348	0.0147342
708.426	0.0147066
708.504	0.0145393
708.582	0.0147002
708.660	0.0149097
708.738	0.0151701
708.817	0.0155609
708.895	0.0158708
708.973	0.0164591
709.051	0.0169402
709.129	0.0173389
709.207	0.0178539
709.285	0.0184630
709.363	0.0189543
709.442	0.0193169
709.520	0.0198513
709.598	0.0198219
709.676	0.0199699
709.754	0.0202279
709.832	0.0200765
709.910	0.0201756
709.988	0.0200196
710.067	0.0197572
710.145	0.0196075
710.223	0.0191829
710.301	0.0191022
710.379	0.0188799
710.457	0.0186187
710.535	0.0184679
710.613	0.0185789
710.692	0.0186128
710.770	0.0186080
710.848	0.0186877
710.926	0.0186848
711.004	0.0188289
711.082	0.0188634
711.160	0.0188809
711.238	0.0191283
711.317	0.0191120
711.395	0.0191435
711.473	0.0188892
711.551	0.0188624
711.629	0.0189034
711.707	0.0186522
711.785	0.0185221
711.863	0.0183549
711.942	0.0183865
712.020	0.0183479
712.098	0.0181594
712.176	0.0180943
712.254	0.0181010
712.332	0.0179152
712.410	0.0177521
712.488	0.0176785
712.567	0.0175436
712.645	0.0173000
712.723	0.0172189
712.801	0.0171053
712.879	0.0167787
712.957	0.0165710
713.035	0.0164895
713.113	0.0164037
713.192	0.0162804
713.270	0.0161643
713.348	0.0160284
713.426	0.0160157
713.504	0.0160663
713.582	0.0159580
713.660	0.0162262
713.738	0.0164985
713.817	0.0164714
713.895	0.0166756
713.973	0.0170384
714.051	0.0173837
714.129	0.0176434
714.207	0.0180447
714.285	0.0183781
714.363	0.0187193
714.442	0.0189114
714.520	0.0191334
714.598	0.0193716
714.676	0.0195511
714.754	0.0194836
714.832	0.0197307
714.910	0.0195947
714.988	0.0196291
715.067	0.0195518
715.145	0.0193410
715.223	0.0192608
715.301	0.0190975
715.379	0.0188348
715.457	0.0186735
715.535	0.0184157
715.613	0.0183636
715.692	0.0181812
715.770	0.0179990
715.848	0.0179159
715.926	0.0177178
716.004	0.0177615
716.082	0.0178315
716.160	0.0176759
716.238	0.0176971
716.317	0.0178948
716.395	0.0180309
716.473	0.0183047
716.551	0.0184119
716.629	0.0184543
716.707	0.0187740
716.785	0.0186447
716.863	0.0187679
716.942	0.0188963
717.020	0.0188596
717.098	0.0188047
717.176	0.0187466
717.254	0.0188573
717.332	0.0187239
717.410	0.0185201
717.488	0.0184130
717.567	0.0183057
717.645	0.0179763
717.723	0.0179623
717.801	0.0177818
717.879	0.0175780
717.957	0.0175289
718.035	0.0174059
718.113	0.0171062
718.192	0.0168701
718.270	0.0170097
718.348	0.0168829
718.426	0.0167626
718.504	0.0167628
718.582	0.0165278
718.660	0.0165244
718.738	0.0164777
718.817	0.0163747
718.895	0.0163585
718.973	0.0163000
719.051	0.0165402
719.129	0.0166927
719.207	0.0166231
719.285	0.0167673
719.363	0.0169061
719.442	0.0172532
719.520	0.0174971
719.598	0.0175654
719.676	0.0179475
719.754	0.0181846
719.832	0.0182561
719.910	0.0187197
719.988	0.0189332
720.067	0.0190425
720.145	0.0193526
720.223	0.0194743
720.301	0.0195424
720.379	0.0196576
720.457	0.0196500
720.535	0.0196294
720.613	0.0194688
720.692	0.0195016
720.770	0.0192711
720.848	0.0191180
720.926	0.0189545
721.004	0.0188626
721.082	0.0185274
721.160	0.0183467
721.238	0.0179655
721.317	0.0177786
721.395	0.0176605
721.473	0.0174823
721.551	0.0173277
721.629	0.0172495
721.707	0.0172390
721.785	0.0172040
721.863	0.0171833
721.942	0.0174049
722.020	0.0174967
722.098	0.0175465
722.176	0.0178550
722.254	0.0179648
722.332	0.0181153
722.410	0.0183103
722.488	0.0185335
722.567	0.0184200
722.645	0.0184896
722.723	0.0185405
722.801	0.0186787
722.879	0.0186759
722.957	0.0186252
723.035	0.0185546
723.113	0.0183467
723.192	0.0182421
723.270	0.0182245
723.348	0.0180148
723.426	0.0177672
723.504	0.0175943
723.582	0.0174508
723.660	0.0173130
723.738	0.0172318
723.817	0.0171292
723.895	0.0169875
723.973	0.0168987
724.051	0.0169022
724.129	0.0170662
724.207	0.0170107
724.285	0.0171133
724.363	0.0173954
724.442	0.0175857
724.520	0.0174916
724.598	0.0178577
724.676	0.0179485
724.754	0.0180051
724.832	0.0181323
724.910	0.0183059
724.988	0.0185966
725.067	0.0186176
725.145	0.0186493
725.223	0.0187832
725.301	0.0188319
725.379	0.0189205
725.457	0.0187177
725.535	0.0188291
725.613	0.0185606
725.692	0.0184292
725.770	0.0182885
725.848	0.0180170
725.926	0.0177990
726.004	0.0178268
726.082	0.0178154
726.160	0.0177116
726.238	0.0174802
726.317	0.0174794
726.395	0.0176599
726.473	0.0176521
726.551	0.0177441
726.629	0.0179524
726.707	0.0178539
726.785	0.0179424
726.863	0.0180455
726.942	0.0184278
727.020	0.0185126
727.098	0.0185839
727.176	0.0187062
727.254	0.0188441
727.332	0.0188595
727.410	0.0188040
727.488	0.0189419
727.567	0.0188270
727.645	0.0187260
727.723	0.0186523
727.801	0.0186549
727.879	0.0184647
727.957	0.0182144
728.035	0.0179934
728.113	0.0178235
728.192	0.0176997
728.270	0.0176752
728.348	0.0176182
728.426	0.0175059
728.504	0.0174940
728.582	0.0174778
728.660	0.0174397
728.738	0.0175634
728.817	0.0173971
728.895	0.0176765
728.973	0.0175743
729.051	0.0175537
729.129	0.0175303
729.207	0.0173531
729.285	0.0173797
729.363	0.0174430
729.442	0.0174039
729.520	0.0174678
729.598	0.0174287
729.676	0.0175663
729.754	0.0176827
729.832	0.0177090
729.910	0.0177566
729.988	0.0180147
730.067	0.0179951
730.145	0.0181991
730.223	0.0183416
730.301	0.0183975
730.379	0.0185748
730.457	0.0185463
730.535	0.0186976
730.613	0.0186802
730.692	0.0185161
730.770	0.0186094
730.848	0.0186915
730.926	0.0184766
731.004	0.0184303
731.082	0.0183502
731.160	0.0180909
731.238	0.0179755
731.317	0.0180412
731.395	0.0178963
731.473	0.0177838
731.551	0.0177122
731.629	0.0176548
731.707	0.0176630
731.785	0.0176650
731.863	0.0174653
731.942	0.0175290
732.020	0.0175710
732.098	0.0176145
732.176	0.0176093
732.254	0.0174171
732.332	0.0176568
732.410	0.0177422
732.488	0.0178195
732.567	0.0178930
732.645	0.0181062
732.723	0.0180653
732.801	0.0179737
732.879	0.0182121
732.957	0.0181104
733.035	0.0182724
733.113	0.0181844
733.192	0.0179898
733.270	0.0181008
733.348	0.0179243
733.426	0.0177974
733.504	0.0177612
733.582	0.0177444
733.660	0.0176545
733.738	0.0175823
733.817	0.0174120
733.895	0.0174783
733.973	0.0175156
734.051	0.0174049
734.129	0.0175986
734.207	0.0178103
734.285	0.0176981
734.363	0.0177182
734.442	0.0179632
734.520	0.0179852
734.598	0.0180043
734.676	0.0180030
734.754	0.0178954
734.832	0.0180818
734.910	0.0179764
734.988	0.0177416
735.067	0.0178425
735.145	0.0180636
735.223	0.0179120
735.301	0.0179102
735.379	0.0178073
735.457	0.0180550
735.535	0.0181680
735.613	0.0181942
735.692	0.0182005
735.770	0.0182650
735.848	0.0184087
735.926	0.0185528
736.004	0.0185430
736.082	0.0184706
736.160	0.0185409
736.238	0.0185258
736.317	0.0184389
736.395	0.0183400
736.473	0.0183532
736.551	0.0183118
736.629	0.0182574
736.707	0.0182475
736.785	0.0182874
736.863	0.0180997
736.942	0.0181260
737.020	0.0180372
737.098	0.0180731
737.176	0.0180087
737.254	0.0179947
737.332	0.0177709
737.410	0.0178145
737.488	0.0179509
737.567	0.0178184
737.645	0.0176318
737.723	0.0175786
737.801	0.0174979
737.879	0.0177372
737.957	0.0177252
738.035	0.0176702
738.113	0.0177092
738.192	0.0177274
738.270	0.0177911
738.348	0.0177441
738.426	0.0178813
738.504	0.0179671
738.582	0.0179909
738.660	0.0180685
738.738	0.0179901
738.817	0.0182644
738.895	0.0182972
738.973	0.0182141
739.051	0.0184429
739.129	0.0182860
739.207	0.0183685
739.285	0.0184930
739.363	0.0184646
739.442	0.0181917
739.520	0.0182367
739.598	0.0182083
739.676	0.0180901
739.754	0.0179660
739.832	0.0178602
739.910	0.0177930
739.988	0.0176353
740.067	0.0175220
740.145	0.0175120
740.223	0.0174972
740.301	0.0174635
740.379	0.0172975
740.457	0.0174114
740.535	0.0174138
740.613	0.0175180
740.692	0.0173385
740.770	0.0174464
740.848	0.0176232
740.926	0.0176486
741.004	0.0177407
741.082	0.0178198
741.160	0.0179694
741.238	0.0180699
741.317	0.0180457
741.395	0.0182439
741.473	0.0183104
741.551	0.0183945
741.629	0.0185255
741.707	0.0185741
741.785	0.0185778
741.863	0.0187213
741.942	0.0185509
742.020	0.0186801
742.098	0.0185240
742.176	0.0184078
742.254	0.0183569
742.332	0.0182403
742.410	0.0182320
742.488	0.0180302
742.567	0.0181409
742.645	0.0179043
742.723	0.0176852
742.801	0.0177016
742.879	0.0177768
742.957	0.0176537
743.035	0.0177222
743.113	0.0176206
743.192	0.0176180
743.270	0.0176704
743.348	0.0179949
743.426	0.0180075
743.504	0.0179884
743.582	0.0180608
743.660	0.0182581
743.738	0.0182315
743.817	0.0182547
743.895	0.0185481
743.973	0.0184634
744.051	0.0184053
744.129	0.0184893
744.207	0.0184721
744.285	0.0183873
744.363	0.0185343
744.442	0.0184491
744.520	0.0183340
744.598	0.0182686
744.676	0.0181201
744.754	0.0178296
744.832	0.0180481
744.910	0.0179079
744.988	0.0177482
745.067	0.0176022
745.145	0.0175756
745.223	0.0175299
745.301	0.0175109
745.379	0.0173759
745.457	0.0171889
745.535	0.0173028
745.613	0.0172343
745.692	0.0171885
745.770	0.0173717
745.848	0.0172652
745.926	0.0173859
746.004	0.0173942
746.082	0.0175654
746.160	0.0176738
746.238	0.0177785
746.317	0.0179736
746.395	0.0179485
746.473	0.0181139
746.551	0.0181699
746.629	0.0181589
746.707	0.0181615
746.785	0.0183218
746.863	0.0183088
746.942	0.0183418
747.020	0.0182787
747.098	0.0182418
747.176	0.0183110
747.254	0.0183590
747.332	0.0181834
747.410	0.0181214
747.488	0.0181509
747.567	0.0180023
747.645	0.0181314
747.723	0.0179501
747.801	0.0180738
747.879	0.0180168
747.957	0.0179233
748.035	0.0177610
748.113	0.0178953
748.192	0.0180007
748.270	0.0177980
748.348	0.0178313
748.426	0.0180463
748.504	0.0179780
748.582	0.0180534
748.660	0.0178645
748.738	0.0179879
748.817	0.0180421
748.895	0.0181718
748.973	0.0180640
749.051	0.0179327
749.129	0.0179352
749.207	0.0179527
749.285	0.0179638
749.363	0.0179519
749.442	0.0180109
749.520	0.0181861
749.598	0.0182079
749.676	0.0180309
749.754	0.0180678
749.832	0.0181744
749.910	0.0183046
749.988	0.0182839
750.067	0.0184205
750.145	0.0183763
750.223	0.0184397
750.301	0.0184149
750.379	0.0185261
750.457	0.0184491
750.535	0.0184263
750.613	0.0184015
750.692	0.0185280
750.770	0.0182288
750.848	0.0181120
750.926	0.0182739
751.004	0.0180977
751.082	0.0181542
751.160	0.0179665
751.238	0.0178255
751.317	0.0178318
751.395	0.0180123
751.473	0.0178886
751.551	0.0177767
751.629	0.0177921
751.707	0.0178331
751.785	0.0178868
751.863	0.0177621
751.942	0.0179625
752.020	0.0180274
752.098	0.0178304
752.176	0.0179762
752.254	0.0180543
752.332	0.0180534
752.410	0.0180486
752.488	0.0180515
752.567	0.0181923
752.645	0.0180888
752.723	0.0181930
752.801	0.0181045
752.879	0.0182353
752.957	0.0181583
753.035	0.0181102
753.113	0.0180834
753.192	0.0181490
753.270	0.0179401
753.348	0.0179563
753.426	0.0179344
753.504	0.0178146
753.582	0.0178199
753.660	0.0178062
753.738	0.0177801
753.817	0.0176208
753.895	0.0176824
753.973	0.0177129
754.051	0.0177722
754.129	0.0177640
754.207	0.0177225
754.285	0.0178329
754.363	0.0179784
754.442	0.0179152
754.520	0.0179974
754.598	0.0181924
754.676	0.0181812
754.754	0.0182358
754.832	0.0182836
754.910	0.0182795
754.988	0.0183420
755.067	0.0181907
755.145	0.0183030
755.223	0.0182290
755.301	0.0180804
755.379	0.0181525
755.457	0.0182772
755.535	0.0181170
755.613	0.0179528
755.692	0.0180545
755.770	0.0180670
755.848	0.0180177
755.926	0.0178185
756.004	0.0179794
756.082	0.0178042
756.160	0.0178548
756.238	0.0178045
756.317	0.0177504
756.395	0.0178394
756.473	0.0177744
756.551	0.0177917
756.629	0.0178332
756.707	0.0177814
756.785	0.0178306
756.863	0.0178715
756.942	0.0179060
757.020	0.0179756
757.098	0.0180411
757.176	0.0180524
757.254	0.0181194
757.332	0.0180733
757.410	0.0181347
757.488	0.0183237
757.567	0.0183224
757.645	0.0182378
757.723	0.0183234
757.801	0.0183735
757.879	0.0183601
757.957	0.0182800
758.035	0.0181495
758.113	0.0183375
758.192	0.0182317
758.270	0.0181966
758.348	0.0182201
758.426	0.0181346
758.504	0.0180087
758.582	0.0179756
758.660	0.0178864
758.738	0.0178580
758.817	0.0179382
758.895	0.0178094
758.973	0.0177406
759.051	0.0177316
759.129	0.0176482
759.207	0.0177950
759.285	0.0177464
759.363	0.0176878
759.442	0.0176992
759.520	0.0178242
759.598	0.0179157
759.676	0.0178813
759.754	0.0179195
759.832	0.0178996
759.910	0.0178611
759.988	0.0179730
760.067	0.0180704
760.145	0.0180846
760.223	0.0179995
760.301	0.0180779
760.379	0.0179777
760.457	0.0179295
760.535	0.0180811
760.613	0.0181107
760.692	0.0180750
760.770	0.0181873
760.848	0.0180318
760.926	0.0180243
761.004	0.0179683
761.082	0.0180904
761.160	0.0181031
761.238	0.0181444
761.317	0.0179793
761.395	0.0180281
761.473	0.0180070
761.551	0.0178480
761.629	0.0178280
761.707	0.0178857
761.785	0.0178175
761.863	0.0176988
761.942	0.0177491
762.020	0.0176738
762.098	0.0177791
762.176	0.0176871
762.254	0.0177405
762.332	0.0175854
762.410	0.0180009
762.488	0.0178590
762.567	0.0179612
762.645	0.0180531
762.723	0.0179883
762.801	0.0182379
762.879	0.0183076
762.957	0.0182847
763.035	0.0184850
763.113	0.0184005
763.192	0.0183754
763.270	0.0184744
763.348	0.0183704
763.426	0.0184509
763.504	0.0184615
763.582	0.0185502
763.660	0.0183105
763.738	0.0184299
763.817	0.0183002
763.895	0.0182904
763.973	0.0179684
764.051	0.0180392
764.129	0.0180367
764.207	0.0178812
764.285	0.0178138
764.363	0.0179212
764.442	0.0177215
764.520	0.0178165
764.598	0.0176633
764.676	0.0177336
764.754	0.0179750
764.832	0.0179222
764.910	0.0178465
764.988	0.0181155
765.067	0.0179939
765.145	0.0180090
765.223	0.0179377
765.301	0.0181123
765.379	0.0181486
765.457	0.0180109
765.535	0.0179076
765.613	0.0181052
765.692	0.0179036
765.770	0.0179636
765.848	0.0181158
765.926	0.0179759
766.004	0.0178181
766.082	0.0178380
766.160	0.0178572
766.238	0.0177049
766.317	0.0178117
766.395	0.0179626
766.473	0.0177757
766.551	0.0177494
766.629	0.0178706
766.707	0.0178750
766.785	0.0179777
766.863	0.0180737
766.942	0.0179569
767.020	0.0180170
767.098	0.0181033
767.176	0.0180444
767.254	0.0180969
767.332	0.0180157
767.410	0.0181362
767.488	0.0181286
767.567	0.0180827
767.645	0.0179999
767.723	0.0180502
767.801	0.0180177
767.879	0.0178573
767.957	0.0180457
768.035	0.0177662
768.113	0.0178561
768.192	0.0178065
768.270	0.0179665
768.348	0.0180216
768.426	0.0179365
768.504	0.0179467
768.582	0.0180052
768.660	0.0180532
768.738	0.0179767
768.817	0.0181081
768.895	0.0179523
768.973	0.0180435
769.051	0.0180627
769.129	0.0179785
769.207	0.0180386
769.285	0.0180070
769.363	0.0180593
769.442	0.0179928
769.520	0.0179806
769.598	0.0180048
769.676	0.0179926
769.754	0.0179205
769.832	0.0179375
769.910	0.0177624
769.988	0.0179283
770.067	0.0178091
770.145	0.0178484
770.223	0.0180005
770.301	0.0177719
770.379	0.0179182
770.457	0.0179310
770.535	0.0180025
770.613	0.0179903
770.692	0.0179523
770.770	0.0182493
770.848	0.0180412
770.926	0.0180266
771.004	0.0180609
771.082	0.0181803
771.160	0.0181239
771.238	0.0182423
771.317	0.0182812
771.395	0.0182508
771.473	0.0182486
771.551	0.0182516
771.629	0.0183315
771.707	0.0183652
771.785	0.0184496
771.863	0.0184308
771.942	0.0182771
772.020	0.0182895
772.098	0.0182583
772.176	0.0183106
772.254	0.0183411
772.332	0.0181361
772.410	0.0180501
772.488	0.0181063
772.567	0.0180569
772.645	0.0179817
772.723	0.0180233
772.801	0.0180006
772.879	0.0179842
772.957	0.0180415
773.035	0.0178014
773.113	0.0178788
773.192	0.0178078
773.270	0.0177974
773.348	0.0177692
773.426	0.0178725
773.504	0.0178233
773.582	0.0179623
773.660	0.0178771
773.738	0.0178778
773.817	0.0179863
773.895	0.0179568
773.973	0.0180982
774.051	0.0182165
774.129	0.0180716
774.207	0.0180684
774.285	0.0181259
774.363	0.0181611
774.442	0.0181909
774.520	0.0179700
774.598	0.0180219
774.676	0.0180595
774.754	0.0178439
774.832	0.0180383
774.910	0.0179966
774.988	0.0179130
775.067	0.0178738
775.145	0.0178085
775.223	0.0179253
775.301	0.0179192
775.379	0.0177548
775.457	0.0179145
775.535	0.0180447
775.613	0.0180815
775.692	0.0180892
775.770	0.0181941
775.848	0.0181640
775.926	0.0181247
776.004	0.0182257
776.082	0.0181923
776.160	0.0182449
776.238	0.0182375
776.317	0.0182514
776.395	0.0182578
776.473	0.0181512
776.551	0.0181965
776.629	0.0181514
776.707	0.0180220
776.785	0.0182082
776.863	0.0181873
776.942	0.0181658
777.020	0.0180869
777.098	0.0179684
777.176	0.0179640
777.254	0.0181807
777.332	0.0179709
777.410	0.0180553
777.488	0.0180353
777.567	0.0179733
777.645	0.0180178
777.723	0.0177565
777.801	0.0180402
777.879	0.0179916
777.957	0.0181397
778.035	0.0180453
778.113	0.0178891
778.192	0.0179941
778.270	0.0180952
778.348	0.0180438
778.426	0.0179675
778.504	0.0179183
778.582	0.0180013
778.660	0.0180995
778.738	0.0180260
778.817	0.0181646
778.895	0.0180486
778.973	0.0181309
779.051	0.0181612
779.129	0.0182533
779.207	0.0181156
779.285	0.0182331
779.363	0.0183223
779.442	0.0182551
779.520	0.0182470
779.598	0.0182005
779.676	0.0182926
779.754	0.0183564
779.832	0.0181754
779.910	0.0181112
779.988	0.0181948
780.067	0.0181557
780.145	0.0181586
780.223	0.0180860
780.301	0.0180756
780.379	0.0180421
780.457	0.0182893
780.535	0.0181874
780.613	0.0180658
780.692	0.0179430
780.770	0.0179403
780.848	0.0179967
780.926	0.0180310
781.004	0.0179774
781.082	0.0180612
781.160	0.0180872
781.238	0.0180370
781.317	0.0181856
781.395	0.0180151
781.473	0.0182407
781.551	0.0180392
781.629	0.0180872
781.707	0.0181192
781.785	0.0180952
781.863	0.0181614
781.942	0.0181199
782.020	0.0180408
782.098	0.0181977
782.176	0.0181259
782.254	0.0181300
782.332	0.0179800
782.410	0.0179241
782.488	0.0179910
782.567	0.0179537
782.645	0.0178788
782.723	0.0180274
782.801	0.0177816
782.879	0.0177083
782.957	0.0177630
783.035	0.0177706
783.113	0.0177556
783.192	0.0178107
783.270	0.0177599
783.348	0.0178175
783.426	0.0177095
783.504	0.0177715
783.582	0.0179021
783.660	0.0178998
783.738	0.0179589
783.817	0.0179385
783.895	0.0179014
783.973	0.0179576
784.051	0.0181001
784.129	0.0178873
784.207	0.0179521
784.285	0.0179739
784.363	0.0180338
784.442	0.0180280
784.520	0.0180120
784.598	0.0181116
784.676	0.0181110
784.754	0.0182671
784.832	0.0181368
784.910	0.0181824
784.988	0.0182639
785.067	0.0181582
785.145	0.0183260
785.223	0.0182703
785.301	0.0181635
785.379	0.0182522
785.457	0.0182487
785.535	0.0183350
785.613	0.0183573
785.692	0.0183807
785.770	0.0183941
785.848	0.0183483
785.926	0.0184380
786.004	0.0182625
786.082	0.0182652
786.160	0.0182838
786.238	0.0182905
786.317	0.0182419
786.395	0.0181718
786.473	0.0181272
786.551	0.0181161
786.629	0.0178823
786.707	0.0180670
786.785	0.0179697
786.863	0.0177344
786.942	0.0179143
787.020	0.0179073
787.098	0.0178409
787.176	0.0175891
787.254	0.0176445
787.332	0.0175359
787.410	0.0175158
787.488	0.0175138
787.567	0.0175506
787.645	0.0174897
787.723	0.0174045
787.801	0.0174113
787.879	0.0175995
787.957	0.0176685
788.035	0.0176163
788.113	0.0178269
788.192	0.0181494
788.270	0.0180063
788.348	0.0183300
788.426	0.0184541
788.504	0.0185136
788.582	0.0186590
788.660	0.0188652
788.738	0.0187991
788.817	0.0188403
788.895	0.0188396
788.973	0.0188059
789.051	0.0187450
789.129	0.0187621
789.207	0.0186266
789.285	0.0185034
789.363	0.0180846
789.442	0.0179813
789.520	0.0177900
789.598	0.0174515
789.676	0.0174844
789.754	0.0172853
789.832	0.0170114
789.910	0.0168738
789.988	0.0168774
790.067	0.0167637
790.145	0.0167999
790.223	0.0168388
790.301	0.0168904
790.379	0.0169241
790.457	0.0172173
790.535	0.0173570
790.613	0.0176868
790.692	0.0180054
790.770	0.0180885
790.848	0.0184153
790.926	0.0187291
791.004	0.0189104
791.082	0.0190691
791.160	0.0193898
791.238	0.0194049
791.317	0.0193433
791.395	0.0194179
791.473	0.0191553
791.551	0.0189507
791.629	0.0188438
791.707	0.0186747
791.785	0.0184414
791.863	0.0180675
791.942	0.0177018
792.020	0.0175582
792.098	0.0172189
792.176	0.0170541
792.254	0.0168385
792.332	0.0166775
792.410	0.0165089
792.488	0.0164262
792.567	0.0164687
792.645	0.0165435
792.723	0.0166203
792.801	0.0167264
792.879	0.0169064
792.957	0.0171737
793.035	0.0173838
793.113	0.0176377
793.192	0.0176858
793.270	0.0181567
793.348	0.0184797
793.426	0.0186638
793.504	0.0186942
793.582	0.0189307
793.660	0.0190918
793.738	0.0192998
793.817	0.0191225
793.895	0.0191972
793.973	0.0191025
794.051	0.0191273
794.129	0.0190704
794.207	0.0190553
794.285	0.0188032
794.363	0.0187989
794.442	0.0186398
794.520	0.0185495
794.598	0.0184469
794.676	0.0182638
794.754	0.0183038
794.832	0.0180659
794.910	0.0179967
794.988	0.0180098
795.067	0.0179282
795.145	0.0178509
795.223	0.0179332
795.301	0.0177682
795.379	0.0178479
795.457	0.0178445
795.535	0.0178788
795.613	0.0178924
795.692	0.0178584
795.770	0.0176673
795.848	0.0175277
795.926	0.0177511
796.004	0.0176642
796.082	0.0176514
796.160	0.0174574
796.238	0.0174540
796.317	0.0173942
796.395	0.0172752
796.473	0.0171675
796.551	0.0173055
796.629	0.0173988
796.707	0.0174906
796.785	0.0174599
796.863	0.0176652
796.942	0.0179167
797.020	0.0178249
797.098	0.0179140
797.176	0.0180701
797.254	0.0182413
797.332	0.0181701
797.410	0.0183213
797.488	0.0185729
797.567	0.0186255
797.645	0.0185703
797.723	0.0186983
797.801	0.0186615
797.879	0.0185825
797.957	0.0187435
798.035	0.0185555
798.113	0.0184771
798.192	0.0184858
798.270	0.0182462
798.348	0.0182112
798.426	0.0180558
798.504	0.0180542
798.582	0.0179196
798.660	0.0178910
798.738	0.0178689
798.817	0.0178529
798.895	0.0179066
798.973	0.0176257
799.051	0.0176961
799.129	0.0177260
799.207	0.0178421
799.285	0.0178500
799.363	0.0179053
799.442	0.0178576
799.520	0.0178393
799.598	0.0178863
799.676	0.0179439
799.754	0.0178448
799.832	0.0179739
799.910	0.0180406
799.988	0.0179232
800.067	0.0179516
800.145	0.0180949
800.223	0.0179972
800.301	0.0179565
800.379	0.0178275
800.457	0.0178046
800.535	0.0177244
800.613	0.0177525
800.692	0.0177859
800.770	0.0178062
800.848	0.0176931
800.926	0.0178463
801.004	0.0179520
801.082	0.0179619
801.160	0.0180802
801.238	0.0180715
801.317	0.0179965
801.395	0.0181799
801.473	0.0180660
801.551	0.0182397
801.629	0.0182038
801.707	0.0183239
801.785	0.0183334
801.863	0.0182761
801.942	0.0183401
802.020	0.0182120
802.098	0.0183426
802.176	0.0184863
802.254	0.0182868
802.332	0.0183285
802.410	0.0182994
802.488	0.0184916
802.567	0.0182122
802.645	0.0182104
802.723	0.0183474
802.801	0.0183465
802.879	0.0183315
802.957	0.0182644
803.035	0.0183299
803.113	0.0182905
803.192	0.0183290
803.270	0.0182124
803.348	0.0180960
803.426	0.0182447
803.504	0.0183511
803.582	0.0181773
803.660	0.0182571
803.738	0.0180199
803.817	0.0181832
803.895	0.0180420
803.973	0.0179433
804.051	0.0180555
804.129	0.0178613
804.207	0.0177786
804.285	0.0178812
804.363	0.0179431
804.442	0.0178066
804.520	0.0176594
804.598	0.0176176
804.676	0.0176525
804.754	0.0177220
804.832	0.0176493
804.910	0.0176343
804.988	0.0176312
805.067	0.0174869
805.145	0.0173857
805.223	0.0175023
805.301	0.0173788
805.379	0.0175284
805.457	0.0175539
805.535	0.0176090
805.613	0.0175741
805.692	0.0177300
805.770	0.0177080
805.848	0.0176162
805.926	0.0177391
806.004	0.0178635
806.082	0.0180976
806.160	0.0180157
806.238	0.0180682
806.317	0.0182779
806.395	0.0183179
806.473	0.0183250
806.551	0.0184431
806.629	0.0185777
806.707	0.0184785
806.785	0.0185498
806.863	0.0186146
806.942	0.0184473
807.020	0.0184933
807.098	0.0184621
807.176	0.0183035
807.254	0.0182404
807.332	0.0183366
807.410	0.0182112
807.488	0.0181368
807.567	0.0181861
807.645	0.0180952
807.723	0.0181203
807.801	0.0180855
807.879	0.0179695
807.957	0.0180183
808.035	0.0181472
808.113	0.0181609
808.192	0.0181844
808.270	0.0181670
808.348	0.0182217
808.426	0.0182058
808.504	0.0183208
808.582	0.0182613
808.660	0.0183243
808.738	0.0183325
808.817	0.0183079
808.895	0.0182314
808.973	0.0182397
809.051	0.0183224
809.129	0.0181941
809.207	0.0181448
809.285	0.0180165
809.363	0.0179810
809.442	0.0179707
809.520	0.0178117
809.598	0.0177525
809.676	0.0177787
809.754	0.0176440
809.832	0.0176685
809.910	0.0177462
809.988	0.0176727
810.067	0.0175214
810.145	0.0176166
810.223	0.0177625
810.301	0.0177554
810.379	0.0178677
810.457	0.0178507
810.535	0.0178873
810.613	0.0181369
810.692	0.0180757
810.770	0.0181254
810.848	0.0180900
810.926	0.0182179
811.004	0.0182890
811.082	0.0182491
811.160	0.0182503
811.238	0.0182060
811.317	0.0183193
811.395	0.0183884
811.473	0.0184133
811.551	0.0181783
811.629	0.0184737
811.707	0.0182954
811.785	0.0182235
811.863	0.0181639
811.942	0.0180909
812.020	0.0181578
812.098	0.0181213
812.176	0.0181090
812.254	0.0179462
812.332	0.0180160
812.410	0.0180611
812.488	0.0179829
812.567	0.0181123
812.645	0.0180828
812.723	0.0180125
812.801	0.0179506
812.879	0.0179807
812.957	0.0180089
813.035	0.0179346
813.113	0.0179816
813.192	0.0179624
813.270	0.0179747
813.348	0.0179409
813.426	0.0179362
813.504	0.0179723
813.582	0.0180746
813.660	0.0179619
813.738	0.0178800
813.817	0.0179224
813.895	0.0179971
813.973	0.0179690
814.051	0.0179150
814.129	0.0178568
814.207	0.0178997
814.285	0.0179819
814.363	0.0179414
814.442	0.0178480
814.520	0.0180561
814.598	0.0179700
814.676	0.0178488
814.754	0.0179333
814.832	0.0178755
814.910	0.0179290
814.988	0.0179022
815.067	0.0178690
815.145	0.0179484
815.223	0.0178750
815.301	0.0178609
815.379	0.0179026
815.457	0.0178793
815.535	0.0179382
815.613	0.0177393
815.692	0.0177627
815.770	0.0180052
815.848	0.0178286
815.926	0.0178490
816.004	0.0178924
816.082	0.0178992
816.160	0.0179568
816.238	0.0180000
816.317	0.0180009
816.395	0.0182404
816.473	0.0181876
816.551	0.0181774
816.629	0.0181960
816.707	0.0184451
816.785	0.0184326
816.863	0.0184558
816.942	0.0185062
817.020	0.0184149
817.098	0.0184741
817.176	0.0185595
817.254	0.0184480
817.332	0.0181937
817.410	0.0182771
817.488	0.0183133
817.567	0.0182876
817.645	0.0181790
817.723	0.0179354
817.801	0.0179223
817.879	0.0179953
817.957	0.0178568
818.035	0.0178677
818.113	0.0178757
818.192	0.0179158
818.270	0.0179652
818.348	0.0179942
818.426	0.0178731
818.504	0.0179738
818.582	0.0181508
818.660	0.0182243
818.738	0.0182653
818.817	0.0183329
818.895	0.0185298
818.973	0.0183734
819.051	0.0182900
819.129	0.0185200
819.207	0.0184576
819.285	0.0183324
819.363	0.0183495
819.442	0.0181818
819.520	0.0181831
819.598	0.0180668
819.676	0.0181083
819.754	0.0179561
819.832	0.0178204
819.910	0.0176796
819.988	0.0176756
820.067	0.0173692
820.145	0.0173117
820.223	0.0173190
820.301	0.0171371
820.379	0.0173274
820.457	0.0171947
820.535	0.0172651
820.613	0.0172881
820.692	0.0173327
820.770	0.0174078
820.848	0.0175460
820.926	0.0176053
821.004	0.0175459
821.082	0.0178195
821.160	0.0179659
821.238	0.0178745
821.317	0.0178962
821.395	0.0180338
821.473	0.0181721
821.551	0.0181937
821.629	0.0181826
821.707	0.0182836
821.785	0.0182703
821.863	0.0183084
821.942	0.0182653
822.020	0.0182092
822.098	0.0180558
822.176	0.0182472
822.254	0.0181796
822.332	0.0182047
822.410	0.0182429
822.488	0.0181218
822.567	0.0179787
822.645	0.0179692
822.723	0.0181810
822.801	0.0179516
822.879	0.0181364
822.957	0.0180397
823.035	0.0178843
823.113	0.0181470
823.192	0.0181648
823.270	0.0181674
823.348	0.0182295
823.426	0.0182302
823.504	0.0183696
823.582	0.0182050
823.660	0.0184196
823.738	0.0182952
823.817	0.0183281
823.895	0.0183959
823.973	0.0183479
824.051	0.0185970
824.129	0.0183977
824.207	0.0183597
824.285	0.0183839
824.363	0.0184561
824.442	0.0183968
824.520	0.0183937
824.598	0.0182665
824.676	0.0182607
824.754	0.0181592
824.832	0.0182278
824.910	0.0180479
824.988	0.0180310
825.067	0.0179877
825.145	0.0178999
825.223	0.0178285
825.301	0.0177958
825.379	0.0178001
825.457	0.0177458
825.535	0.0177207
825.613	0.0178357
825.692	0.0177489
825.770	0.0177708
825.848	0.0176614
825.926	0.0177019
826.004	0.0177106
826.082	0.0177285
826.160	0.0179070
826.238	0.0177692
826.317	0.0178741
826.395	0.0177241
826.473	0.0177734
826.551	0.0179129
826.629	0.0180183
826.707	0.0180939
826.785	0.0179224
826.863	0.0180402
826.942	0.0180917
827.020	0.0182912
827.098	0.0183009
827.176	0.0182475
827.254	0.0183671
827.332	0.0182558
827.410	0.0183156
827.488	0.0185246
827.567	0.0182914
827.645	0.0184059
827.723	0.0183562
827.801	0.0183582
827.879	0.0182661
827.957	0.0182803
828.035	0.0181278
828.113	0.0180945
828.192	0.0179789
828.270	0.0179853
828.348	0.0178755
828.426	0.0179649
828.504	0.0179689
828.582	0.0178555
828.660	0.0175657
828.738	0.0176560
828.817	0.0177573
828.895	0.0175928
828.973	0.0179099
829.051	0.0177422
829.129	0.0178194
829.207	0.0177958
829.285	0.0178337
829.363	0.0179929
829.442	0.0179167
829.520	0.0180907
829.598	0.0181372
829.676	0.0180610
829.754	0.0181471
829.832	0.0182316
829.910	0.0182426
829.988	0.0181653
830.067	0.0181905
830.145	0.0181206
830.223	0.0181925
830.301	0.0182082
830.379	0.0179720
830.457	0.0180727
830.535	0.0180981
830.613	0.0179254
830.692	0.0177783
830.770	0.0179227
830.848	0.0178171
830.926	0.0177157
831.004	0.0179426
831.082	0.0177040
831.160	0.0178091
831.238	0.0177269
831.317	0.0179167
831.395	0.0178390
831.473	0.0179176
831.551	0.0177984
831.629	0.0179615
831.707	0.0179167
831.785	0.0180398
831.863	0.0180377
831.942	0.0180374
832.020	0.0181836
832.098	0.0180859
832.176	0.0181765
832.254	0.0183447
832.332	0.0182292
832.410	0.0181865
832.488	0.0181711
832.567	0.0182607
832.645	0.0182426
832.723	0.0183257
832.801	0.0182029
832.879	0.0182563
832.957	0.0180975
833.035	0.0182487
833.113	0.0182046
833.192	0.0181573
833.270	0.0182658
833.348	0.0181750
833.426	0.0183521
833.504	0.0181129
833.582	0.0180423
833.660	0.0182029
833.738	0.0182143
833.817	0.0181106
833.895	0.0183113
833.973	0.0180312
834.051	0.0181403
834.129	0.0179301
834.207	0.0180694
834.285	0.0181477
834.363	0.0180958
834.442	0.0178469
834.520	0.0179230
834.598	0.0181007
834.676	0.0178345
834.754	0.0179402
834.832	0.0179466
834.910	0.0179387
834.988	0.0179650
835.067	0.0179063
835.145	0.0180066
835.223	0.0178546
835.301	0.0179237
835.379	0.0178302
835.457	0.0178867
835.535	0.0179949
835.613	0.0179069
835.692	0.0179477
835.770	0.0180101
835.848	0.0179911
835.926	0.0180578
836.004	0.0180457
836.082	0.0180101
836.160	0.0178960
836.238	0.0179800
836.317	0.0180336
836.395	0.0180029
836.473	0.0180439
836.551	0.0181387
836.629	0.0181107
836.707	0.0180303
836.785	0.0180186
836.863	0.0180526
836.942	0.0180280
837.020	0.0179250
837.098	0.0178544
837.176	0.0179959
837.254	0.0179130
837.332	0.0178071
837.410	0.0178417
837.488	0.0178750
837.567	0.0177367
837.645	0.0178150
837.723	0.0178689
837.801	0.0177597
837.879	0.0178935
837.957	0.0177081
838.035	0.0179012
838.113	0.0178961
838.192	0.0178085
838.270	0.0178806
838.348	0.0181159
838.426	0.0180647
838.504	0.0181007
838.582	0.0180717
838.660	0.0182317
838.738	0.0181719
838.817	0.0182314
838.895	0.0182369
838.973	0.0182877
839.051	0.0185096
839.129	0.0183384
839.207	0.0183536
839.285	0.0184408
839.363	0.0184219
839.442	0.0183313
839.520	0.0184928
839.598	0.0183669
839.676	0.0182990
839.754	0.0183302
839.832	0.0184415
839.910	0.0182672
839.988	0.0183937
840.067	0.0182054
840.145	0.0181245
840.223	0.0181799
840.301	0.0180132
840.379	0.0180016
840.457	0.0180170
840.535	0.0180189
840.613	0.0180122
840.692	0.0179340
840.770	0.0179237
840.848	0.0179420
840.926	0.0178361
841.004	0.0178918
841.082	0.0178780
841.160	0.0178662
841.238	0.0177502
841.317	0.0178025
841.395	0.0177119
841.473	0.0177751
841.551	0.0178843
841.629	0.0179018
841.707	0.0177619
841.785	0.0176803
841.863	0.0178693
841.942	0.0177345
842.020	0.0177487
842.098	0.0176730
842.176	0.0177727
842.254	0.0179079
842.332	0.0178803
842.410	0.0177192
842.488	0.0178042
842.567	0.0177781
842.645	0.0179368
842.723	0.0180313
842.801	0.0180124
842.879	0.0180235
842.957	0.0180969
843.035	0.0181042
843.113	0.0181061
843.192	0.0181268
843.270	0.0182147
843.348	0.0182870
843.426	0.0183353
843.504	0.0182824
843.582	0.0182371
843.660	0.0181197
843.738	0.0182310
843.817	0.0180810
843.895	0.0181068
843.973	0.0181608
844.051	0.0180601
844.129	0.0181010
844.207	0.0179978
844.285	0.0179158
844.363	0.0177040
844.442	0.0178473
844.520	0.0179748
844.598	0.0177505
844.676	0.0177305
844.754	0.0177454
844.832	0.0178810
844.910	0.0180167
844.988	0.0178489
845.067	0.0179779
845.145	0.0180375
845.223	0.0179823
845.301	0.0180510
845.379	0.0181552
845.457	0.0181853
845.535	0.0180431
845.613	0.0179903
845.692	0.0179113
845.770	0.0181782
845.848	0.0181462
845.926	0.0179905
846.004	0.0181642
846.082	0.0181324
846.160	0.0180692
846.238	0.0179568
846.317	0.0180594
846.395	0.0179587
846.473	0.0180273
846.551	0.0180750
846.629	0.0180178
846.707	0.0179401
846.785	0.0180937
846.863	0.0180424
846.942	0.0180907
847.020	0.0180435
847.098	0.0180342
847.176	0.0181193
847.254	0.0182014
847.332	0.0179993
847.410	0.0179353
847.488	0.0180648
847.567	0.0181532
847.645	0.0181306
847.723	0.0182137
847.801	0.0182434
847.879	0.0181382
847.957	0.0181139
848.035	0.0181966
848.113	0.0181157
848.192	0.0181357
848.270	0.0182011
848.348	0.0180534
848.426	0.0180616
848.504	0.0180698
848.582	0.0181667
848.660	0.0180787
848.738	0.0180006
848.817	0.0181610
848.895	0.0181514
848.973	0.0181024
849.051	0.0180545
849.129	0.0182806
849.207	0.0181041
849.285	0.0181429
849.363	0.0181229
849.442	0.0181629
849.520	0.0181476
849.598	0.0182536
849.676	0.0181012
849.754	0.0180669
849.832	0.0180318
849.910	0.0179705
849.988	0.0179372
850.067	0.0178614
850.145	0.0178464
850.223	0.0178529
850.301	0.0177614
850.379	0.0178350
850.457	0.0177521
850.535	0.0177598
850.613	0.0179375
850.692	0.0179551
850.770	0.0180422
850.848	0.0177408
850.926	0.0180124
851.004	0.0179311
851.082	0.0179838
851.160	0.0182080
851.238	0.0180747
851.317	0.0182176
851.395	0.0179511
851.473	0.0183245
851.551	0.0181611
851.629	0.0179808
851.707	0.0181247
851.785	0.0180573
851.863	0.0180415
851.942	0.0178793
852.020	0.0180090
852.098	0.0179968
852.176	0.0178309
852.254	0.0177671
852.332	0.0177130
852.410	0.0179155
852.488	0.0177055
852.567	0.0178015
852.645	0.0177744
852.723	0.0177389
852.801	0.0180441
852.879	0.0180428
852.957	0.0179137
853.035	0.0179529
853.113	0.0180270
853.192	0.0181178
853.270	0.0182125
853.348	0.0182563
853.426	0.0180856
853.504	0.0182935
853.582	0.0182311
853.660	0.0182761
853.738	0.0183366
853.817	0.0181898
853.895	0.0182454
853.973	0.0182195
854.051	0.0181593
854.129	0.0183357
854.207	0.0181511
854.285	0.0181566
854.363	0.0181566
854.442	0.0182117
854.520	0.0182831
854.598	0.0180332
854.676	0.0181248
854.754	0.0181531
854.832	0.0181274
854.910	0.0181330
854.988	0.0182616
855.067	0.0180495
855.145	0.0181300
855.223	0.0181886
855.301	0.0180980
855.379	0.0182268
855.457	0.0181497
855.535	0.0181938
855.613	0.0181028
855.692	0.0181036
855.770	0.0180484
855.848	0.0179710
855.926	0.0179309
856.004	0.0179105
856.082	0.0179607
856.160	0.0177066
856.238	0.0178008
856.317	0.0179322
856.395	0.0178268
856.473	0.0177650
856.551	0.0178360
856.629	0.0179691
856.707	0.0178158
856.785	0.0178307
856.863	0.0178582
856.942	0.0178494
857.020	0.0180100
857.098	0.0177768
857.176	0.0179764
857.254	0.0179607
857.332	0.0180580
857.410	0.0179788
857.488	0.0180621
857.567	0.0179775
857.645	0.0180502
857.723	0.0180892
857.801	0.0180751
857.879	0.0181425
857.957	0.0180107
858.035	0.0182549
858.113	0.0181370
858.192	0.0181476
858.270	0.0181359
858.348	0.0181238
858.426	0.0180298
858.504	0.0178651
858.582	0.0179510
858.660	0.0178736
858.738	0.0179353
858.817	0.0178907
858.895	0.0177648
858.973	0.0177399
859.051	0.0179607
859.129	0.0178609
859.207	0.0176938
859.285	0.0178683
859.363	0.0178434
859.442	0.0178840
859.520	0.0179725
859.598	0.0180011
859.676	0.0179819
859.754	0.0180981
859.832	0.0180386
859.910	0.0180938
859.988	0.0182262
860.067	0.0182163
860.145	0.0182570
860.223	0.0182178
860.301	0.0183484
860.379	0.0182889
860.457	0.0181684
860.535	0.0181358
860.613	0.0181956
860.692	0.0182211
860.770	0.0182285
860.848	0.0181179
860.926	0.0179140
861.004	0.0180120
861.082	0.0179293
861.160	0.0178566
861.238	0.0178609
861.317	0.0177055
861.395	0.0178104
861.473	0.0178363
861.551	0.0178753
861.629	0.0179710
861.707	0.0178735
861.785	0.0179312
861.863	0.0179902
861.942	0.0181225
862.020	0.0180971
862.098	0.0181131
862.176	0.0181842
862.254	0.0180914
862.332	0.0181612
862.410	0.0181701
862.488	0.0182882
862.567	0.0181178
862.645	0.0182421
862.723	0.0181885
862.801	0.0180059
862.879	0.0181244
862.957	0.0182326
863.035	0.0181764
863.113	0.0180037
863.192	0.0180016
863.270	0.0179919
863.348	0.0179414
863.426	0.0179751
863.504	0.0178847
863.582	0.0179550
863.660	0.0178466
863.738	0.0178336
863.817	0.0179176
863.895	0.0179317
863.973	0.0179410
864.051	0.0177789
864.129	0.0178963
864.207	0.0178294
864.285	0.0178312
864.363	0.0180200
864.442	0.0179386
864.520	0.0181629
864.598	0.0180781
864.676	0.0183005
864.754	0.0182438
864.832	0.0181514
864.910	0.0182943
864.988	0.0183492
865.067	0.0183646
865.145	0.0182314
865.223	0.0182560
865.301	0.0183681
865.379	0.0181964
865.457	0.0181591
865.535	0.0181226
865.613	0.0182220
865.692	0.0182043
865.770	0.0179585
865.848	0.0180243
865.926	0.0178944
866.004	0.0178802
866.082	0.0176237
866.160	0.0177264
866.238	0.0177847
866.317	0.0177943
866.395	0.0177271
866.473	0.0177471
866.551	0.0177216
866.629	0.0176910
866.707	0.0178230
866.785	0.0178611
866.863	0.0177736
866.942	0.0178164
867.020	0.0178139
867.098	0.0179436
867.176	0.0177662
867.254	0.0178672
867.332	0.0179161
867.410	0.0180797
867.488	0.0179785
867.567	0.0180560
867.645	0.0180680
867.723	0.0179208
867.801	0.0181606
867.879	0.0180282
867.957	0.0181049
868.035	0.0181187
868.113	0.0180010
868.192	0.0180830
868.270	0.0179160
868.348	0.0180233
868.426	0.0180157
868.504	0.0179711
868.582	0.0179311
868.660	0.0178949
868.738	0.0179562
868.817	0.0178727
868.895	0.0180556
868.973	0.0181121
869.051	0.0180507
869.129	0.0182473
869.207	0.0181639
869.285	0.0181721
869.363	0.0182035
869.442	0.0180982
869.520	0.0183121
869.598	0.0182925
869.676	0.0181824
869.754	0.0182547
869.832	0.0183565
869.910	0.0183141
869.988	0.0182561
870.067	0.0181850
870.145	0.0180793
870.223	0.0180941
870.301	0.0181264
870.379	0.0181334
870.457	0.0180663
870.535	0.0181249
870.613	0.0181020
870.692	0.0179366
870.770	0.0179539
870.848	0.0178570
870.926	0.0179370
871.004	0.0178703
871.082	0.0179151
871.160	0.0179104
871.238	0.0178064
871.317	0.0179376
871.395	0.0178926
871.473	0.0179984
871.551	0.0179670
871.629	0.0180917
871.707	0.0181429
871.785	0.0180677
871.863	0.0183288
871.942	0.0182234
872.020	0.0183391
872.098	0.0182617
872.176	0.0182527
872.254	0.0182573
872.332	0.0181384
872.410	0.0181859
872.488	0.0182152
872.567	0.0181455
872.645	0.0182151
872.723	0.0181083
872.801	0.0179646
872.879	0.0180466
872.957	0.0178518
873.035	0.0179681
873.113	0.0179184
873.192	0.0179046
873.270	0.0179504
873.348	0.0179195
873.426	0.0179198
873.504	0.0180296
873.582	0.0179901
873.660	0.0179044
873.738	0.0179141
873.817	0.0179228
873.895	0.0180681
873.973	0.0180429
874.051	0.0178313
874.129	0.0179895
874.207	0.0179475
874.285	0.0179914
874.363	0.0177649
874.442	0.0178670
874.520	0.0178907
874.598	0.0179382
874.676	0.0177525
874.754	0.0177877
874.832	0.0179056
874.910	0.0178385
874.988	0.0179071
875.067	0.0179499
875.145	0.0178982
875.223	0.0179189
875.301	0.0179053
875.379	0.0179218
875.457	0.0179272
875.535	0.0180003
875.613	0.0180216
875.692	0.0179774
875.770	0.0180733
875.848	0.0180930
875.926	0.0181388
876.004	0.0181203
876.082	0.0181154
876.160	0.0181695
876.238	0.0181342
876.317	0.0181922
876.395	0.0182661
876.473	0.0181280
876.551	0.0181454
876.629	0.0182137
876.707	0.0181956
876.785	0.0181954
876.863	0.0182964
876.942	0.0183678
877.020	0.0182668
877.098	0.0182462
877.176	0.0181432
877.254	0.0181135
877.332	0.0183215
877.410	0.0181588
877.488	0.0182896
877.567	0.0181345
877.645	0.0179780
877.723	0.0181339
877.801	0.0180722
877.879	0.0180469
877.957	0.0179836
878.035	0.0179959
878.113	0.0178308
878.192	0.0178526
878.270	0.0178177
878.348	0.0178327
878.426	0.0179255
878.504	0.0177591
878.582	0.0178229
878.660	0.0177351
878.738	0.0176672
878.817	0.0178477
878.895	0.0177644
878.973	0.0177813
879.051	0.0177110
879.129	0.0177191
879.207	0.0177897
879.285	0.0179183
879.363	0.0179254
879.442	0.0180096
879.520	0.0179478
879.598	0.0178966
879.676	0.0180256
879.754	0.0178675
879.832	0.0179905
879.910	0.0180114
879.988	0.0181219
880.067	0.0179720
880.145	0.0180923
880.223	0.0179037
880.301	0.0179061
880.379	0.0178529
880.457	0.0180029
880.535	0.0178878
880.613	0.0179063
880.692	0.0180023
880.770	0.0179259
880.848	0.0178198
880.926	0.0179496
881.004	0.0179581
881.082	0.0179640
881.160	0.0180007
881.238	0.0180373
881.317	0.0180497
881.395	0.0182978
881.473	0.0183596
881.551	0.0183300
881.629	0.0184698
881.707	0.0184488
881.785	0.0184080
881.863	0.0184710
881.942	0.0184290
882.020	0.0183207
882.098	0.0181572
882.176	0.0180491
882.254	0.0180126
882.332	0.0179227
882.410	0.0179375
882.488	0.0177489
882.567	0.0174601
882.645	0.0174506
882.723	0.0175537
882.801	0.0174493
882.879	0.0173583
882.957	0.0173607
883.035	0.0174789
883.113	0.0175230
883.192	0.0173887
883.270	0.0176186
883.348	0.0177253
883.426	0.0179561
883.504	0.0181441
883.582	0.0184241
883.660	0.0184668
883.738	0.0186635
883.817	0.0188857
883.895	0.0188368
883.973	0.0189530
884.051	0.0188918
884.129	0.0188278
884.207	0.0186898
884.285	0.0183800
884.363	0.0182684
884.442	0.0179678
884.520	0.0177032
884.598	0.0173061
884.676	0.0170531
884.754	0.0167558
884.832	0.0164765
884.910	0.0165418
884.988	0.0164526
885.067	0.0166233
885.145	0.0166242
885.223	0.0169385
885.301	0.0171143
885.379	0.0173859
885.457	0.0177763
885.535	0.0181514
885.613	0.0184624
885.692	0.0190171
885.770	0.0193085
885.848	0.0194822
885.926	0.0199321
886.004	0.0201199
886.082	0.0202013
886.160	0.0202098
886.238	0.0202360
886.317	0.0198802
886.395	0.0195733
886.473	0.0192387
886.551	0.0189615
886.629	0.0185958
886.707	0.0180695
886.785	0.0175491
886.863	0.0172749
886.942	0.0168858
887.020	0.0164275
887.098	0.0162693
887.176	0.0159389
887.254	0.0158511
887.332	0.0160333
887.410	0.0161380
887.488	0.0163730
887.567	0.0165969
887.645	0.0167594
887.723	0.0168645
887.801	0.0172161
887.879	0.0176071
887.957	0.0179425
888.035	0.0182176
888.113	0.0185978
888.192	0.0188649
888.270	0.0191730
888.348	0.0192728
888.426	0.0194567
888.504	0.0192762
888.582	0.0192742
888.660	0.0192561
888.738	0.0190696
888.817	0.0189925
888.895	0.0187176
888.973	0.0184755
889.051	0.0182762
889.129	0.0181019
889.207	0.0179593
889.285	0.0177497
889.363	0.0175822
889.442	0.0173940
889.520	0.0172768
889.598	0.0173292
889.676	0.0174958
889.754	0.0172704
889.832	0.0173225
889.910	0.0174510
889.988	0.0175249
890.067	0.0176318
890.145	0.0177249
890.223	0.0177180
890.301	0.0178919
890.379	0.0178830
890.457	0.0181126
890.535	0.0180569
890.613	0.0181123
890.692	0.0183559
890.770	0.0184162
890.848	0.0184486
890.926	0.0183928
891.004	0.0185076
891.082	0.0183377
891.160	0.0184067
891.238	0.0180634
891.317	0.0181087
891.395	0.0179212
891.473	0.0178385
891.551	0.0177543
891.629	0.0177979
891.707	0.0176318
891.785	0.0175720
891.863	0.0175152
891.942	0.0175382
892.020	0.0175382
892.098	0.0177287
892.176	0.0176508
892.254	0.0177268
892.332	0.0178003
892.410	0.0179594
892.488	0.0180853
892.567	0.0182700
892.645	0.0183879
892.723	0.0184727
892.801	0.0184379
892.879	0.0184690
892.957	0.0185660
893.035	0.0186118
893.113	0.0186630
893.192	0.0185489
893.270	0.0185967
893.348	0.0184932
893.426	0.0184954
893.504	0.0184108
893.582	0.0183423
893.660	0.0184330
893.738	0.0183039
893.817	0.0181612
893.895	0.0177891
893.973	0.0179079
894.051	0.0177646
894.129	0.0175882
894.207	0.0175815
894.285	0.0175219
894.363	0.0174380
894.442	0.0172381
894.520	0.0172443
894.598	0.0170840
894.676	0.0170602
894.754	0.0171734
894.832	0.0171396
894.910	0.0172079
894.988	0.0173205
895.067	0.0174632
895.145	0.0175064
895.223	0.0176566
895.301	0.0177763
895.379	0.0178548
895.457	0.0180820
895.535	0.0183226
895.613	0.0184558
895.692	0.0184798
895.770	0.0184496
895.848	0.0185411
895.926	0.0187680
896.004	0.0187783
896.082	0.0185914
896.160	0.0187374
896.238	0.0186062
896.317	0.0186461
896.395	0.0187492
896.473	0.0185822
896.551	0.0184506
896.629	0.0185290
896.707	0.0183572
896.785	0.0182926
896.863	0.0180886
896.942	0.0180400
897.020	0.0179183
897.098	0.0177085
897.176	0.0177692
897.254	0.0176217
897.332	0.0176013
897.410	0.0174691
897.488	0.0174740
897.567	0.0176341
897.645	0.0174822
897.723	0.0174596
897.801	0.0175417
897.879	0.0175797
897.957	0.0177487
898.035	0.0179172
898.113	0.0178969
898.192	0.0179701
898.270	0.0180907
898.348	0.0180905
898.426	0.0183223
898.504	0.0182962
898.582	0.0183810
898.660	0.0184827
898.738	0.0185303
898.817	0.0185152
898.895	0.0185836
898.973	0.0184641
899.051	0.0185601
899.129	0.0184045
899.207	0.0183352
899.285	0.0182601
899.363	0.0182516
899.442	0.0181536
899.520	0.0178973
899.598	0.0177842
899.676	0.0176882
899.754	0.0175626
899.832	0.0174164
899.910	0.0173199
899.988	0.0174095
900.067	0.0172129
900.145	0.0172549
900.223	0.0172338
900.301	0.0174171
900.379	0.0173218
900.457	0.0174638
900.535	0.0176443
900.613	0.0179217
900.692	0.0177336
900.770	0.0178780
900.848	0.0180609
900.926	0.0180871
901.004	0.0181633
901.082	0.0183232
901.160	0.0183635
901.238	0.0182046
901.317	0.0183907
901.395	0.0183470
901.473	0.0182623
901.551	0.0183898
901.629	0.0182517
901.707	0.0182771
901.785	0.0183817
901.863	0.0181779
901.942	0.0182655
902.020	0.0180685
902.098	0.0181342
902.176	0.0182785
902.254	0.0181492
902.332	0.0179670
902.410	0.0179151
902.488	0.0179690
902.567	0.0179907
902.645	0.0179456
902.723	0.0178775
902.801	0.0179326
902.879	0.0180177
902.957	0.0178790
903.035	0.0178604
903.113	0.0178842
903.192	0.0178569
903.270	0.0178557
903.348	0.0178186
903.426	0.0178813
903.504	0.0178259
903.582	0.0179204
903.660	0.0178331
903.738	0.0180687
903.817	0.0180025
903.895	0.0179775
903.973	0.0178971
904.051	0.0177930
904.129	0.0180085
904.207	0.0180270
904.285	0.0182013
904.363	0.0180946
904.442	0.0180061
904.520	0.0180625
904.598	0.0180916
904.676	0.0181966
904.754	0.0180546
904.832	0.0181863
904.910	0.0182825
904.988	0.0181096
905.067	0.0183022
905.145	0.0183105
905.223	0.0181618
905.301	0.0180798
905.379	0.0183101
905.457	0.0182654
905.535	0.0182244
905.613	0.0180666
905.692	0.0181124
905.770	0.0180789
905.848	0.0182178
905.926	0.0181111
906.004	0.0179922
906.082	0.0178966
906.160	0.0180840
906.238	0.0180559
906.317	0.0179492
906.395	0.0179613
906.473	0.0180023
906.551	0.0178277
906.629	0.0178326
906.707	0.0178357
906.785	0.0178938
906.863	0.0177942
906.942	0.0178989
907.020	0.0179178
907.098	0.0179214
907.176	0.0177338
907.254	0.0177553
907.332	0.0177299
907.410	0.0177406
907.488	0.0178570
907.567	0.0178073
907.645	0.0176733
907.723	0.0178060
907.801	0.0177773
907.879	0.0177953
907.957	0.0179886
908.035	0.0179949
908.113	0.0179590
908.192	0.0181062
908.270	0.0181030
908.348	0.0183902
908.426	0.0184521
908.504	0.0183553
908.582	0.0184482
908.660	0.0184718
908.738	0.0184770
908.817	0.0184842
908.895	0.0185831
908.973	0.0184247
909.051	0.0184299
909.129	0.0182927
909.207	0.0183663
909.285	0.0184229
909.363	0.0182201
909.442	0.0181559
909.520	0.0181927
909.598	0.0181563
909.676	0.0180390
909.754	0.0180241
909.832	0.0178715
909.910	0.0178306
909.988	0.0178918
910.067	0.0178783
910.145	0.0176695
910.223	0.0176277
910.301	0.0176858
910.379	0.0176121
910.457	0.0176826
910.535	0.0177984
910.613	0.0177609
910.692	0.0177115
910.770	0.0179124
910.848	0.0178204
910.926	0.0178745
911.004	0.0178206
911.082	0.0179484
911.160	0.0179723
911.238	0.0180858
911.317	0.0182093
911.395	0.0181125
911.473	0.0182777
911.551	0.0183710
911.629	0.0182696
911.707	0.0183152
911.785	0.0183151
911.863	0.0183306
911.942	0.0184156
912.020	0.0183826
912.098	0.0182561
912.176	0.0182410
912.254	0.0182133
912.332	0.0183349
912.410	0.0184023
912.488	0.0182182
912.567	0.0180732
912.645	0.0183732
912.723	0.0184383
912.801	0.0182684
912.879	0.0181365
912.957	0.0181151
913.035	0.0180370
913.113	0.0180155
913.192	0.0180474
913.270	0.0180157
913.348	0.0178526
913.426	0.0178950
913.504	0.0178245
913.582	0.0178320
913.660	0.0177796
913.738	0.0177705
913.817	0.0176545
913.895	0.0176487
913.973	0.0175795
914.051	0.0177313
914.129	0.0176772
914.207	0.0176472
914.285	0.0177565
914.363	0.0176677
914.442	0.0178082
914.520	0.0178810
914.598	0.0178643
914.676	0.0179118
914.754	0.0178514
914.832	0.0180084
914.910	0.0179334
914.988	0.0178967
915.067	0.0179671
915.145	0.0179394
915.223	0.0181064
915.301	0.0180695
915.379	0.0180876
915.457	0.0181476
915.535	0.0181706
915.613	0.0181931
915.692	0.0181297
915.770	0.0180932
915.848	0.0180337
915.926	0.0179611
916.004	0.0180081
916.082	0.0180474
916.160	0.0180916
916.238	0.0181722
916.317	0.0179957
916.395	0.0178815
916.473	0.0178793
916.551	0.0178835
916.629	0.0178985
916.707	0.0179363
916.785	0.0180432
916.863	0.0179475
916.942	0.0180200
917.020	0.0178834
917.098	0.0179411
917.176	0.0178802
917.254	0.0179020
917.332	0.0181065
917.410	0.0180608
917.488	0.0182043
917.567	0.0181998
917.645	0.0181090
917.723	0.0182681
917.801	0.0181577
917.879	0.0183318
917.957	0.0182465
918.035	0.0181384
918.113	0.0181852
918.192	0.0181361
918.270	0.0182558
918.348	0.0183323
918.426	0.0182332
918.504	0.0180920
918.582	0.0180870
918.660	0.0182146
918.738	0.0181358
918.817	0.0180507
918.895	0.0180518
918.973	0.0179865
919.051	0.0180772
919.129	0.0179494
919.207	0.0180141
919.285	0.0180247
919.363	0.0178757
919.442	0.0180861
919.520	0.0180114
919.598	0.0179334
919.676	0.0177449
919.754	0.0179099
919.832	0.0178949
919.910	0.0177340
