06/01/2022	21:36:12	Ver.	4.1	UNKNOWN
Optical Delay	599.988409	Delta X		0.078125	Sweeps	1	Scan Rate	0/0
Coordinates	Axis 1	NaN	Axis 2	NaN	Axis 3	NaN	Axis 4	NaN	Axis 5	NaN	Axis 6	0.000000
TX Power	0.000000	RX Power	0.000000

599.988	0.0178738
600.067	0.0178253
600.145	0.0178647
600.223	0.0178606
600.301	0.0179533
600.379	0.0180132
600.457	0.0179239
600.535	0.0178074
600.613	0.0179946
600.692	0.0177622
600.770	0.0179227
600.848	0.0179021
600.926	0.0178822
601.004	0.0179169
601.082	0.0178352
601.160	0.0178765
601.238	0.0180096
601.317	0.0177778
601.395	0.0178262
601.473	0.0179513
601.551	0.0178754
601.629	0.0177923
601.707	0.0179089
601.785	0.0179654
601.863	0.0178591
601.942	0.0179253
602.020	0.0178166
602.098	0.0178864
602.176	0.0180048
602.254	0.0180167
602.332	0.0179069
602.410	0.0178515
602.488	0.0179061
602.567	0.0178226
602.645	0.0178430
602.723	0.0179053
602.801	0.0179066
602.879	0.0178135
602.957	0.0178120
603.035	0.0178874
603.113	0.0178307
603.192	0.0178180
603.270	0.0179494
603.348	0.0178838
603.426	0.0178185
603.504	0.0176990
603.582	0.0178124
603.660	0.0177850
603.738	0.0177493
603.817	0.0178701
603.895	0.0178569
603.973	0.0178890
604.051	0.0178682
604.129	0.0177825
604.207	0.0177489
604.285	0.0178846
604.363	0.0177762
604.442	0.0176969
604.520	0.0179208
604.598	0.0179524
604.676	0.0178587
604.754	0.0176823
604.832	0.0178528
604.910	0.0179129
604.988	0.0179821
605.067	0.0176974
605.145	0.0179021
605.223	0.0178438
605.301	0.0178008
605.379	0.0178699
605.457	0.0179179
605.535	0.0177256
605.613	0.0178835
605.692	0.0178275
605.770	0.0179171
605.848	0.0177898
605.926	0.0178827
606.004	0.0178444
606.082	0.0178760
606.160	0.0178610
606.238	0.0179002
606.317	0.0179984
606.395	0.0178202
606.473	0.0178818
606.551	0.0179260
606.629	0.0179797
606.707	0.0178427
606.785	0.0179755
606.863	0.0178178
606.942	0.0178571
607.020	0.0179232
607.098	0.0179597
607.176	0.0178516
607.254	0.0178774
607.332	0.0179290
607.410	0.0180408
607.488	0.0178811
607.567	0.0179539
607.645	0.0178941
607.723	0.0179144
607.801	0.0179121
607.879	0.0179819
607.957	0.0179366
608.035	0.0179219
608.113	0.0179360
608.192	0.0179153
608.270	0.0178481
608.348	0.0179733
608.426	0.0178976
608.504	0.0179088
608.582	0.0178302
608.660	0.0178874
608.738	0.0179723
608.817	0.0179346
608.895	0.0178302
608.973	0.0178458
609.051	0.0179030
609.129	0.0177852
609.207	0.0179339
609.285	0.0178736
609.363	0.0179469
609.442	0.0179034
609.520	0.0178574
609.598	0.0178364
609.676	0.0179307
609.754	0.0178473
609.832	0.0179421
609.910	0.0178935
609.988	0.0178661
610.067	0.0179309
610.145	0.0178571
610.223	0.0177888
610.301	0.0178069
610.379	0.0179050
610.457	0.0179130
610.535	0.0179230
610.613	0.0178345
610.692	0.0176678
610.770	0.0178440
610.848	0.0178401
610.926	0.0178771
611.004	0.0178173
611.082	0.0178385
611.160	0.0178510
611.238	0.0178745
611.317	0.0178606
611.395	0.0180294
611.473	0.0180166
611.551	0.0178326
611.629	0.0178519
611.707	0.0179105
611.785	0.0179050
611.863	0.0178181
611.942	0.0180463
612.020	0.0178913
612.098	0.0178107
612.176	0.0178555
612.254	0.0177924
612.332	0.0178223
612.410	0.0179303
612.488	0.0179514
612.567	0.0179244
612.645	0.0178872
612.723	0.0178712
612.801	0.0179295
612.879	0.0179503
612.957	0.0178275
613.035	0.0178034
613.113	0.0179704
613.192	0.0178406
613.270	0.0177947
613.348	0.0178284
613.426	0.0178754
613.504	0.0179041
613.582	0.0178819
613.660	0.0179690
613.738	0.0179805
613.817	0.0179015
613.895	0.0180784
613.973	0.0179846
614.051	0.0179378
614.129	0.0179751
614.207	0.0182095
614.285	0.0180320
614.363	0.0179540
614.442	0.0178923
614.520	0.0180451
614.598	0.0179764
614.676	0.0180075
614.754	0.0180527
614.832	0.0180219
614.910	0.0180276
614.988	0.0179836
615.067	0.0179860
615.145	0.0178654
615.223	0.0179753
615.301	0.0180721
615.379	0.0178689
615.457	0.0178107
615.535	0.0177523
615.613	0.0178616
615.692	0.0178532
615.770	0.0177869
615.848	0.0177800
615.926	0.0177872
616.004	0.0178133
616.082	0.0179206
616.160	0.0178705
616.238	0.0178394
616.317	0.0177233
616.395	0.0179264
616.473	0.0179847
616.551	0.0179000
616.629	0.0179735
616.707	0.0179153
616.785	0.0179397
616.863	0.0181085
616.942	0.0180470
617.020	0.0179835
617.098	0.0181036
617.176	0.0180477
617.254	0.0179823
617.332	0.0180453
617.410	0.0180728
617.488	0.0181046
617.567	0.0180383
617.645	0.0178983
617.723	0.0180350
617.801	0.0180209
617.879	0.0180170
617.957	0.0180383
618.035	0.0178876
618.113	0.0179443
618.192	0.0178783
618.270	0.0176925
618.348	0.0178517
618.426	0.0178034
618.504	0.0178102
618.582	0.0178014
618.660	0.0177421
618.738	0.0177790
618.817	0.0177451
618.895	0.0177682
618.973	0.0177512
619.051	0.0177449
619.129	0.0178498
619.207	0.0178278
619.285	0.0178988
619.363	0.0178654
619.442	0.0179905
619.520	0.0178656
619.598	0.0178008
619.676	0.0179404
619.754	0.0180915
619.832	0.0178130
619.910	0.0179679
619.988	0.0179098
620.067	0.0178897
620.145	0.0180426
620.223	0.0180437
620.301	0.0179897
620.379	0.0179677
620.457	0.0179599
620.535	0.0179659
620.613	0.0180589
620.692	0.0179597
620.770	0.0178992
620.848	0.0178923
620.926	0.0178363
621.004	0.0177727
621.082	0.0179161
621.160	0.0178963
621.238	0.0178535
621.317	0.0177658
621.395	0.0177776
621.473	0.0178345
621.551	0.0178236
621.629	0.0177316
621.707	0.0178638
621.785	0.0179514
621.863	0.0177191
621.942	0.0177290
622.020	0.0179010
622.098	0.0179282
622.176	0.0178527
622.254	0.0178620
622.332	0.0178661
622.410	0.0178602
622.488	0.0177941
622.567	0.0177119
622.645	0.0179584
622.723	0.0179046
622.801	0.0179049
622.879	0.0179404
622.957	0.0178563
623.035	0.0179186
623.113	0.0178754
623.192	0.0179064
623.270	0.0180150
623.348	0.0178110
623.426	0.0179070
623.504	0.0179203
623.582	0.0178329
623.660	0.0180674
623.738	0.0178315
623.817	0.0179295
623.895	0.0180180
623.973	0.0178135
624.051	0.0178960
624.129	0.0179138
624.207	0.0178239
624.285	0.0178241
624.363	0.0179442
624.442	0.0178467
624.520	0.0178787
624.598	0.0179069
624.676	0.0181519
624.754	0.0178242
624.832	0.0178237
624.910	0.0178471
624.988	0.0179276
625.067	0.0178030
625.145	0.0179517
625.223	0.0178847
625.301	0.0178439
625.379	0.0178607
625.457	0.0178924
625.535	0.0179066
625.613	0.0178085
625.692	0.0179302
625.770	0.0179778
625.848	0.0179444
625.926	0.0179307
626.004	0.0179583
626.082	0.0179185
626.160	0.0179129
626.238	0.0179309
626.317	0.0178476
626.395	0.0179157
626.473	0.0178539
626.551	0.0178495
626.629	0.0177865
626.707	0.0178445
626.785	0.0179858
626.863	0.0179623
626.942	0.0179433
627.020	0.0179895
627.098	0.0178596
627.176	0.0179430
627.254	0.0178636
627.332	0.0178955
627.410	0.0178056
627.488	0.0178136
627.567	0.0178154
627.645	0.0178920
627.723	0.0178580
627.801	0.0179214
627.879	0.0179542
627.957	0.0178607
628.035	0.0178223
628.113	0.0178846
628.192	0.0180202
628.270	0.0178762
628.348	0.0178904
628.426	0.0178284
628.504	0.0179791
628.582	0.0179144
628.660	0.0179997
628.738	0.0179382
628.817	0.0179916
628.895	0.0178811
628.973	0.0178971
629.051	0.0179365
629.129	0.0176381
629.207	0.0178156
629.285	0.0179070
629.363	0.0179910
629.442	0.0178976
629.520	0.0178792
629.598	0.0178915
629.676	0.0178206
629.754	0.0179495
629.832	0.0179433
629.910	0.0178494
629.988	0.0178275
630.067	0.0178765
630.145	0.0179314
630.223	0.0178962
630.301	0.0179707
630.379	0.0179819
630.457	0.0178098
630.535	0.0177903
630.613	0.0178613
630.692	0.0179683
630.770	0.0179769
630.848	0.0180058
630.926	0.0178263
631.004	0.0178018
631.082	0.0179393
631.160	0.0178885
631.238	0.0179077
631.317	0.0178606
631.395	0.0179879
631.473	0.0178690
631.551	0.0179169
631.629	0.0178905
631.707	0.0179421
631.785	0.0178880
631.863	0.0177991
631.942	0.0179044
632.020	0.0177314
632.098	0.0178773
632.176	0.0178804
632.254	0.0178397
632.332	0.0177693
632.410	0.0176498
632.488	0.0179259
632.567	0.0178951
632.645	0.0178053
632.723	0.0179389
632.801	0.0179179
632.879	0.0179585
632.957	0.0179812
633.035	0.0177900
633.113	0.0177831
633.192	0.0177815
633.270	0.0179711
633.348	0.0179010
633.426	0.0179905
633.504	0.0178154
633.582	0.0177743
633.660	0.0179036
633.738	0.0178622
633.817	0.0178520
633.895	0.0178813
633.973	0.0179301
634.051	0.0179668
634.129	0.0178599
634.207	0.0179240
634.285	0.0179240
634.363	0.0180066
634.442	0.0178885
634.520	0.0178915
634.598	0.0179573
634.676	0.0179604
634.754	0.0178954
634.832	0.0178313
634.910	0.0177867
634.988	0.0178894
635.067	0.0178094
635.145	0.0178486
635.223	0.0179665
635.301	0.0179912
635.379	0.0179276
635.457	0.0178317
635.535	0.0179833
635.613	0.0179868
635.692	0.0179409
635.770	0.0178796
635.848	0.0178167
635.926	0.0178503
636.004	0.0178345
636.082	0.0179087
636.160	0.0179710
636.238	0.0179062
636.317	0.0179089
636.395	0.0179770
636.473	0.0178154
636.551	0.0177483
636.629	0.0178506
636.707	0.0178974
636.785	0.0178961
636.863	0.0179586
636.942	0.0179757
637.020	0.0179192
637.098	0.0178027
637.176	0.0178835
637.254	0.0179150
637.332	0.0178788
637.410	0.0178192
637.488	0.0178049
637.567	0.0179257
637.645	0.0178658
637.723	0.0178251
637.801	0.0179683
637.879	0.0179463
637.957	0.0179215
638.035	0.0178268
638.113	0.0178772
638.192	0.0178941
638.270	0.0178746
638.348	0.0179689
638.426	0.0180098
638.504	0.0177617
638.582	0.0179021
638.660	0.0179682
638.738	0.0178849
638.817	0.0178620
638.895	0.0179721
638.973	0.0178988
639.051	0.0177757
639.129	0.0179008
639.207	0.0178185
639.285	0.0177835
639.363	0.0178254
639.442	0.0178178
639.520	0.0179375
639.598	0.0179858
639.676	0.0178895
639.754	0.0178268
639.832	0.0180309
639.910	0.0180660
639.988	0.0178275
640.067	0.0179229
640.145	0.0179515
640.223	0.0179698
640.301	0.0180656
640.379	0.0178835
640.457	0.0178858
640.535	0.0179168
640.613	0.0177911
640.692	0.0178584
640.770	0.0179411
640.848	0.0179527
640.926	0.0178194
641.004	0.0179118
641.082	0.0179435
641.160	0.0179589
641.238	0.0178690
641.317	0.0179267
641.395	0.0179264
641.473	0.0179389
641.551	0.0180486
641.629	0.0180038
641.707	0.0178230
641.785	0.0177609
641.863	0.0180210
641.942	0.0179076
642.020	0.0178120
642.098	0.0179811
642.176	0.0180183
642.254	0.0179543
642.332	0.0178961
642.410	0.0178567
642.488	0.0179759
642.567	0.0180154
642.645	0.0178970
642.723	0.0179514
642.801	0.0179610
642.879	0.0179691
642.957	0.0179942
643.035	0.0179223
643.113	0.0178967
643.192	0.0178352
643.270	0.0179208
643.348	0.0178004
643.426	0.0178889
643.504	0.0179594
643.582	0.0179449
643.660	0.0178918
643.738	0.0178232
643.817	0.0178683
643.895	0.0178529
643.973	0.0180114
644.051	0.0179686
644.129	0.0180155
644.207	0.0179106
644.285	0.0178876
644.363	0.0178416
644.442	0.0180106
644.520	0.0178519
644.598	0.0178942
644.676	0.0179762
644.754	0.0177859
644.832	0.0178281
644.910	0.0178139
644.988	0.0178735
645.067	0.0179620
645.145	0.0179508
645.223	0.0179259
645.301	0.0180283
645.379	0.0180067
645.457	0.0179529
645.535	0.0180085
645.613	0.0178769
645.692	0.0179563
645.770	0.0178776
645.848	0.0178961
645.926	0.0178329
646.004	0.0178865
646.082	0.0179301
646.160	0.0179664
646.238	0.0179774
646.317	0.0179274
646.395	0.0179633
646.473	0.0178589
646.551	0.0178000
646.629	0.0177863
646.707	0.0179640
646.785	0.0179459
646.863	0.0179129
646.942	0.0179294
647.020	0.0179119
647.098	0.0177551
647.176	0.0178957
647.254	0.0180556
647.332	0.0179477
647.410	0.0179016
647.488	0.0178843
647.567	0.0179990
647.645	0.0179433
647.723	0.0179539
647.801	0.0178137
647.879	0.0178616
647.957	0.0179265
648.035	0.0178969
648.113	0.0180263
648.192	0.0177821
648.270	0.0178233
648.348	0.0180241
648.426	0.0180844
648.504	0.0178659
648.582	0.0178753
648.660	0.0178308
648.738	0.0179316
648.817	0.0178996
648.895	0.0179420
648.973	0.0179009
649.051	0.0178839
649.129	0.0179004
649.207	0.0178781
649.285	0.0179138
649.363	0.0179850
649.442	0.0179078
649.520	0.0179545
649.598	0.0178612
649.676	0.0178441
649.754	0.0178764
649.832	0.0179507
649.910	0.0179086
649.988	0.0179791
650.067	0.0178395
650.145	0.0179897
650.223	0.0179422
650.301	0.0178078
650.379	0.0179092
650.457	0.0179384
650.535	0.0178680
650.613	0.0178981
650.692	0.0178133
650.770	0.0178819
650.848	0.0178065
650.926	0.0179404
651.004	0.0180355
651.082	0.0179728
651.160	0.0178664
651.238	0.0179705
651.317	0.0179478
651.395	0.0179777
651.473	0.0178636
651.551	0.0179656
651.629	0.0178618
651.707	0.0178376
651.785	0.0179169
651.863	0.0180061
651.942	0.0179527
652.020	0.0179244
652.098	0.0179820
652.176	0.0179717
652.254	0.0177787
652.332	0.0178366
652.410	0.0178909
652.488	0.0178409
652.567	0.0178858
652.645	0.0178311
652.723	0.0180257
652.801	0.0178812
652.879	0.0179010
652.957	0.0177423
653.035	0.0177673
653.113	0.0179000
653.192	0.0178411
653.270	0.0180018
653.348	0.0179651
653.426	0.0179213
653.504	0.0178741
653.582	0.0179107
653.660	0.0179166
653.738	0.0179405
653.817	0.0178039
653.895	0.0178971
653.973	0.0178777
654.051	0.0179040
654.129	0.0179302
654.207	0.0179119
654.285	0.0178479
654.363	0.0178133
654.442	0.0178851
654.520	0.0179822
654.598	0.0179160
654.676	0.0178552
654.754	0.0178138
654.832	0.0179753
654.910	0.0179248
654.988	0.0179518
655.067	0.0178477
655.145	0.0179535
655.223	0.0177687
655.301	0.0179830
655.379	0.0178859
655.457	0.0178545
655.535	0.0177913
655.613	0.0179147
655.692	0.0178766
655.770	0.0178685
655.848	0.0179075
655.926	0.0178487
656.004	0.0179253
656.082	0.0181281
656.160	0.0179446
656.238	0.0178562
656.317	0.0177489
656.395	0.0179692
656.473	0.0179037
656.551	0.0178683
656.629	0.0178313
656.707	0.0178893
656.785	0.0179282
656.863	0.0179613
656.942	0.0178931
657.020	0.0179423
657.098	0.0178188
657.176	0.0179923
657.254	0.0178304
657.332	0.0178326
657.410	0.0177680
657.488	0.0178649
657.567	0.0179933
657.645	0.0179176
657.723	0.0178663
657.801	0.0179753
657.879	0.0179672
657.957	0.0180379
658.035	0.0177923
658.113	0.0178880
658.192	0.0179917
658.270	0.0180483
658.348	0.0178114
658.426	0.0179198
658.504	0.0178622
658.582	0.0178181
658.660	0.0178674
658.738	0.0178203
658.817	0.0179007
658.895	0.0179385
658.973	0.0178702
659.051	0.0178515
659.129	0.0180206
659.207	0.0178931
659.285	0.0178044
659.363	0.0177407
659.442	0.0179121
659.520	0.0179239
659.598	0.0179021
659.676	0.0178327
659.754	0.0178155
659.832	0.0179718
659.910	0.0179466
659.988	0.0178493
660.067	0.0178957
660.145	0.0179035
660.223	0.0178142
660.301	0.0178567
660.379	0.0178408
660.457	0.0178263
660.535	0.0178772
660.613	0.0180434
660.692	0.0179668
660.770	0.0177972
660.848	0.0178042
660.926	0.0178340
661.004	0.0178234
661.082	0.0180239
661.160	0.0178903
661.238	0.0180003
661.317	0.0178445
661.395	0.0179004
661.473	0.0177909
661.551	0.0180503
661.629	0.0179083
661.707	0.0178130
661.785	0.0177436
661.863	0.0178263
661.942	0.0180212
662.020	0.0179749
662.098	0.0178688
662.176	0.0178351
662.254	0.0178543
662.332	0.0178896
662.410	0.0178752
662.488	0.0178625
662.567	0.0178731
662.645	0.0179943
662.723	0.0179004
662.801	0.0177435
662.879	0.0179895
662.957	0.0178964
663.035	0.0179082
663.113	0.0179051
663.192	0.0178663
663.270	0.0178545
663.348	0.0179456
663.426	0.0178321
663.504	0.0178221
663.582	0.0178775
663.660	0.0178182
663.738	0.0177902
663.817	0.0178170
663.895	0.0178944
663.973	0.0180264
664.051	0.0178301
664.129	0.0178763
664.207	0.0178910
664.285	0.0178966
664.363	0.0178469
664.442	0.0179668
664.520	0.0179558
664.598	0.0179672
664.676	0.0179021
664.754	0.0178947
664.832	0.0178593
664.910	0.0179412
664.988	0.0178322
665.067	0.0179177
665.145	0.0179068
665.223	0.0179336
665.301	0.0179388
665.379	0.0179403
665.457	0.0179209
665.535	0.0179337
665.613	0.0177237
665.692	0.0177297
665.770	0.0179034
665.848	0.0179037
665.926	0.0179881
666.004	0.0179480
666.082	0.0177509
666.160	0.0177322
666.238	0.0178022
666.317	0.0179443
666.395	0.0178954
666.473	0.0178833
666.551	0.0179259
666.629	0.0179483
666.707	0.0179687
666.785	0.0178545
666.863	0.0178294
666.942	0.0178111
667.020	0.0179155
667.098	0.0179790
667.176	0.0179007
667.254	0.0179968
667.332	0.0179891
667.410	0.0180681
667.488	0.0177782
667.567	0.0179082
667.645	0.0180196
667.723	0.0180595
667.801	0.0179731
667.879	0.0179418
667.957	0.0179424
668.035	0.0178834
668.113	0.0179797
668.192	0.0180108
668.270	0.0179140
668.348	0.0178771
668.426	0.0179139
668.504	0.0179923
668.582	0.0180089
668.660	0.0180081
668.738	0.0180260
668.817	0.0180038
668.895	0.0179050
668.973	0.0179179
669.051	0.0179198
669.129	0.0179469
669.207	0.0179658
669.285	0.0179115
669.363	0.0179374
669.442	0.0180856
669.520	0.0179681
669.598	0.0179317
669.676	0.0178420
669.754	0.0179830
669.832	0.0180460
669.910	0.0181339
669.988	0.0178793
670.067	0.0180261
670.145	0.0179182
670.223	0.0178955
670.301	0.0179038
670.379	0.0179182
670.457	0.0179607
670.535	0.0178702
670.613	0.0179473
670.692	0.0179248
670.770	0.0180658
670.848	0.0178683
670.926	0.0179575
671.004	0.0180160
671.082	0.0179015
671.160	0.0178970
671.238	0.0180303
671.317	0.0179404
671.395	0.0180048
671.473	0.0179879
671.551	0.0179436
671.629	0.0179466
671.707	0.0178973
671.785	0.0179934
671.863	0.0179652
671.942	0.0178449
672.020	0.0178770
672.098	0.0180311
672.176	0.0179245
672.254	0.0178870
672.332	0.0179568
672.410	0.0179683
672.488	0.0178624
672.567	0.0179280
672.645	0.0179105
672.723	0.0179053
672.801	0.0177036
672.879	0.0179753
672.957	0.0179728
673.035	0.0177304
673.113	0.0179478
673.192	0.0177769
673.270	0.0178506
673.348	0.0179448
673.426	0.0180154
673.504	0.0178949
673.582	0.0178363
673.660	0.0177539
673.738	0.0179361
673.817	0.0179622
673.895	0.0178937
673.973	0.0178820
674.051	0.0179413
674.129	0.0179956
674.207	0.0179610
674.285	0.0179365
674.363	0.0178714
674.442	0.0178084
674.520	0.0178180
674.598	0.0180414
674.676	0.0177952
674.754	0.0177017
674.832	0.0179427
674.910	0.0178526
674.988	0.0178083
675.067	0.0178324
675.145	0.0180176
675.223	0.0179378
675.301	0.0178194
675.379	0.0179919
675.457	0.0179051
675.535	0.0179500
675.613	0.0178870
675.692	0.0178471
675.770	0.0178834
675.848	0.0178740
675.926	0.0178558
676.004	0.0178814
676.082	0.0179435
676.160	0.0179427
676.238	0.0180007
676.317	0.0178197
676.395	0.0177168
676.473	0.0178284
676.551	0.0180810
676.629	0.0178906
676.707	0.0178214
676.785	0.0179189
676.863	0.0177760
676.942	0.0178532
677.020	0.0178220
677.098	0.0178648
677.176	0.0178872
677.254	0.0179575
677.332	0.0178050
677.410	0.0179105
677.488	0.0179201
677.567	0.0178572
677.645	0.0178007
677.723	0.0178348
677.801	0.0177802
677.879	0.0178925
677.957	0.0179024
678.035	0.0179256
678.113	0.0178405
678.192	0.0177441
678.270	0.0178648
678.348	0.0178250
678.426	0.0176313
678.504	0.0178992
678.582	0.0179019
678.660	0.0177614
678.738	0.0178646
678.817	0.0178809
678.895	0.0178323
678.973	0.0178484
679.051	0.0177985
679.129	0.0178728
679.207	0.0178779
679.285	0.0179218
679.363	0.0178870
679.442	0.0179402
679.520	0.0179214
679.598	0.0179583
679.676	0.0179501
679.754	0.0178374
679.832	0.0178604
679.910	0.0179063
679.988	0.0179286
680.067	0.0178857
680.145	0.0178838
680.223	0.0178232
680.301	0.0178721
680.379	0.0178496
680.457	0.0178329
680.535	0.0178609
680.613	0.0178639
680.692	0.0179414
680.770	0.0179561
680.848	0.0177676
680.926	0.0178391
681.004	0.0179684
681.082	0.0177536
681.160	0.0177763
681.238	0.0179688
681.317	0.0179266
681.395	0.0178024
681.473	0.0178050
681.551	0.0180106
681.629	0.0179411
681.707	0.0178632
681.785	0.0178890
681.863	0.0180101
681.942	0.0179402
682.020	0.0179832
682.098	0.0180279
682.176	0.0178675
682.254	0.0178738
682.332	0.0178875
682.410	0.0179136
682.488	0.0179202
682.567	0.0179175
682.645	0.0178822
682.723	0.0179885
682.801	0.0179938
682.879	0.0178451
682.957	0.0177972
683.035	0.0178837
683.113	0.0178749
683.192	0.0179247
683.270	0.0177597
683.348	0.0176904
683.426	0.0178164
683.504	0.0177164
683.582	0.0178806
683.660	0.0177873
683.738	0.0177119
683.817	0.0178240
683.895	0.0178324
683.973	0.0178178
684.051	0.0179469
684.129	0.0180009
684.207	0.0179156
684.285	0.0179823
684.363	0.0178219
684.442	0.0179640
684.520	0.0178745
684.598	0.0179669
684.676	0.0179364
684.754	0.0180089
684.832	0.0180197
684.910	0.0180090
684.988	0.0178968
685.067	0.0177903
685.145	0.0180138
685.223	0.0179182
685.301	0.0179936
685.379	0.0179484
685.457	0.0179027
685.535	0.0177120
685.613	0.0178971
685.692	0.0178623
685.770	0.0177962
685.848	0.0177543
685.926	0.0179104
686.004	0.0178404
686.082	0.0178836
686.160	0.0178320
686.238	0.0179388
686.317	0.0178944
686.395	0.0178553
686.473	0.0180396
686.551	0.0179095
686.629	0.0180576
686.707	0.0179478
686.785	0.0179139
686.863	0.0178522
686.942	0.0178851
687.020	0.0179897
687.098	0.0179080
687.176	0.0178656
687.254	0.0179372
687.332	0.0179549
687.410	0.0178568
687.488	0.0178458
687.567	0.0177063
687.645	0.0176793
687.723	0.0176554
687.801	0.0177060
687.879	0.0177740
687.957	0.0176613
688.035	0.0178408
688.113	0.0180111
688.192	0.0179955
688.270	0.0181566
688.348	0.0183518
688.426	0.0186050
688.504	0.0186608
688.582	0.0186269
688.660	0.0186725
688.738	0.0185719
688.817	0.0184496
688.895	0.0184292
688.973	0.0182803
689.051	0.0180029
689.129	0.0179010
689.207	0.0176361
689.285	0.0173820
689.363	0.0170236
689.442	0.0167513
689.520	0.0163030
689.598	0.0160938
689.676	0.0158192
689.754	0.0156811
689.832	0.0154897
689.910	0.0154082
689.988	0.0153683
690.067	0.0154399
690.145	0.0157785
690.223	0.0163641
690.301	0.0167850
690.379	0.0175195
690.457	0.0182858
690.535	0.0193429
690.613	0.0204052
690.692	0.0215420
690.770	0.0226099
690.848	0.0234264
690.926	0.0241059
691.004	0.0246718
691.082	0.0248438
691.160	0.0248677
691.238	0.0243056
691.317	0.0236182
691.395	0.0227708
691.473	0.0214466
691.551	0.0198446
691.629	0.0182089
691.707	0.0162814
691.785	0.0143729
691.863	0.0126208
691.942	0.0107956
692.020	0.00921112
692.098	0.00799309
692.176	0.00709732
692.254	0.00672028
692.332	0.00648659
692.410	0.00657326
692.488	0.00716217
692.567	0.00805588
692.645	0.00894028
692.723	0.0104746
692.801	0.0119678
692.879	0.0135859
692.957	0.0155422
693.035	0.0176611
693.113	0.0200102
693.192	0.0222952
693.270	0.0247699
693.348	0.0273297
693.426	0.0296979
693.504	0.0319752
693.582	0.0342013
693.660	0.0359605
693.738	0.0374213
693.817	0.0384164
693.895	0.0386484
693.973	0.0379132
694.051	0.0368110
694.129	0.0346930
694.207	0.0318407
694.285	0.0281113
694.363	0.0238686
694.442	0.0193684
694.520	0.0145732
694.598	0.00974449
694.676	0.00491257
694.754	0.000470734
694.832	-0.00343307
694.910	-0.00700966
694.988	-0.00963631
695.067	-0.0115079
695.145	-0.0123164
695.223	-0.0122108
695.301	-0.0110283
695.379	-0.00899864
695.457	-0.00597916
695.535	-0.00232124
695.613	0.00205475
695.692	0.00697601
695.770	0.0119058
695.848	0.0171068
695.926	0.0225285
696.004	0.0276352
696.082	0.0323093
696.160	0.0367425
696.238	0.0406595
696.317	0.0440327
696.395	0.0466770
696.473	0.0485974
696.551	0.0498511
696.629	0.0502793
696.707	0.0499213
696.785	0.0486440
696.863	0.0467497
696.942	0.0437717
697.020	0.0400301
697.098	0.0356007
697.176	0.0307307
697.254	0.0254375
697.332	0.0198358
697.410	0.0140208
697.488	0.00843178
697.567	0.00325706
697.645	-0.00150734
697.723	-0.00575684
697.801	-0.00903336
697.879	-0.0116043
697.957	-0.0134853
698.035	-0.0142714
698.113	-0.0139711
698.192	-0.0129180
698.270	-0.0109819
698.348	-0.00855812
698.426	-0.00540260
698.504	-0.00150047
698.582	0.00260391
698.660	0.00718643
698.738	0.0114526
698.817	0.0159595
698.895	0.0201971
698.973	0.0242639
699.051	0.0280811
699.129	0.0312814
699.207	0.0341396
699.285	0.0365348
699.363	0.0383820
699.442	0.0396272
699.520	0.0400918
699.598	0.0406889
699.676	0.0401701
699.754	0.0391900
699.832	0.0379276
699.910	0.0360098
699.988	0.0338895
700.067	0.0308923
700.145	0.0282812
700.223	0.0253094
700.301	0.0223254
700.379	0.0193486
700.457	0.0166319
700.535	0.0140598
700.613	0.0120269
700.692	0.0102446
700.770	0.00905533
700.848	0.00800362
700.926	0.00755493
701.004	0.00740227
701.082	0.00736748
701.160	0.00771553
701.238	0.00820541
701.317	0.00884010
701.395	0.00964073
701.473	0.0103032
701.551	0.0111741
701.629	0.0119989
701.707	0.0128269
701.785	0.0136473
701.863	0.0145361
701.942	0.0152142
702.020	0.0160397
702.098	0.0167329
702.176	0.0174272
702.254	0.0179710
702.332	0.0185565
702.410	0.0188908
702.488	0.0193087
702.567	0.0195052
702.645	0.0193755
702.723	0.0194295
702.801	0.0190853
702.879	0.0188158
702.957	0.0185690
703.035	0.0181023
703.113	0.0177866
703.192	0.0175499
703.270	0.0173371
703.348	0.0174313
703.426	0.0173666
703.504	0.0174769
703.582	0.0177816
703.660	0.0180671
703.738	0.0186171
703.817	0.0192175
703.895	0.0198889
703.973	0.0202966
704.051	0.0208222
704.129	0.0213374
704.207	0.0216370
704.285	0.0220463
704.363	0.0222757
704.442	0.0223313
704.520	0.0223407
704.598	0.0220890
704.676	0.0219299
704.754	0.0216060
704.832	0.0210585
704.910	0.0205277
704.988	0.0200590
705.067	0.0193493
705.145	0.0187906
705.223	0.0182001
705.301	0.0177499
705.379	0.0172546
705.457	0.0169868
705.535	0.0168552
705.613	0.0164429
705.692	0.0163430
705.770	0.0162424
705.848	0.0162171
705.926	0.0160696
706.004	0.0160692
706.082	0.0159525
706.160	0.0160721
706.238	0.0159231
706.317	0.0158617
706.395	0.0158405
706.473	0.0157473
706.551	0.0157175
706.629	0.0157192
706.707	0.0156505
706.785	0.0158809
706.863	0.0159541
706.942	0.0159727
707.020	0.0160095
707.098	0.0160352
707.176	0.0163596
707.254	0.0162665
707.332	0.0165523
707.410	0.0167972
707.488	0.0169025
707.567	0.0168667
707.645	0.0169679
707.723	0.0171016
707.801	0.0171886
707.879	0.0172822
707.957	0.0172292
708.035	0.0173159
708.113	0.0174944
708.192	0.0176584
708.270	0.0178381
708.348	0.0181288
708.426	0.0183734
708.504	0.0185096
708.582	0.0189246
708.660	0.0192107
708.738	0.0196250
708.817	0.0199807
708.895	0.0203309
708.973	0.0205465
709.051	0.0207620
709.129	0.0208189
709.207	0.0210590
709.285	0.0208668
709.363	0.0207072
709.442	0.0206676
709.520	0.0205199
709.598	0.0199925
709.676	0.0197932
709.754	0.0194658
709.832	0.0190284
709.910	0.0188783
709.988	0.0185799
710.067	0.0182809
710.145	0.0181126
710.223	0.0179975
710.301	0.0178931
710.379	0.0179135
710.457	0.0178945
710.535	0.0179052
710.613	0.0178754
710.692	0.0179113
710.770	0.0179762
710.848	0.0179029
710.926	0.0177744
711.004	0.0177336
711.082	0.0176313
711.160	0.0175378
711.238	0.0175089
711.317	0.0171118
711.395	0.0168365
711.473	0.0167842
711.551	0.0166750
711.629	0.0165707
711.707	0.0161281
711.785	0.0160846
711.863	0.0159599
711.942	0.0158739
712.020	0.0158315
712.098	0.0157272
712.176	0.0155708
712.254	0.0156241
712.332	0.0155898
712.410	0.0155433
712.488	0.0156129
712.567	0.0156092
712.645	0.0155977
712.723	0.0158585
712.801	0.0160674
712.879	0.0159946
712.957	0.0162003
713.035	0.0166956
713.113	0.0170836
713.192	0.0175495
713.270	0.0179407
713.348	0.0185337
713.426	0.0188953
713.504	0.0192915
713.582	0.0195364
713.660	0.0198854
713.738	0.0199425
713.817	0.0201929
713.895	0.0202189
713.973	0.0203136
714.051	0.0203058
714.129	0.0201215
714.207	0.0200286
714.285	0.0198677
714.363	0.0197763
714.442	0.0194026
714.520	0.0191818
714.598	0.0190458
714.676	0.0188978
714.754	0.0187878
714.832	0.0185349
714.910	0.0184261
714.988	0.0183437
715.067	0.0183316
715.145	0.0181354
715.223	0.0180085
715.301	0.0180852
715.379	0.0180867
715.457	0.0182678
715.535	0.0182798
715.613	0.0182240
715.692	0.0182574
715.770	0.0183656
715.848	0.0185212
715.926	0.0184232
716.004	0.0184032
716.082	0.0182819
716.160	0.0182609
716.238	0.0181352
716.317	0.0180030
716.395	0.0178327
716.473	0.0174773
716.551	0.0171128
716.629	0.0169676
716.707	0.0165784
716.785	0.0162672
716.863	0.0159839
716.942	0.0158568
717.020	0.0157188
717.098	0.0156538
717.176	0.0158279
717.254	0.0159249
717.332	0.0160958
717.410	0.0161564
717.488	0.0163421
717.567	0.0166529
717.645	0.0166029
717.723	0.0168150
717.801	0.0170024
717.879	0.0171001
717.957	0.0169656
718.035	0.0169861
718.113	0.0170464
718.192	0.0170901
718.270	0.0172965
718.348	0.0174142
718.426	0.0174869
718.504	0.0178416
718.582	0.0179784
718.660	0.0183636
718.738	0.0184677
718.817	0.0185618
718.895	0.0188683
718.973	0.0192042
719.051	0.0193334
719.129	0.0194238
719.207	0.0195980
719.285	0.0196951
719.363	0.0198093
719.442	0.0199125
719.520	0.0195673
719.598	0.0197289
719.676	0.0196607
719.754	0.0194662
719.832	0.0194174
719.910	0.0192488
719.988	0.0190419
720.067	0.0186886
720.145	0.0184258
720.223	0.0180433
720.301	0.0179352
720.379	0.0176709
720.457	0.0174725
720.535	0.0172337
720.613	0.0171993
720.692	0.0173405
720.770	0.0171988
720.848	0.0172043
720.926	0.0172675
721.004	0.0173780
721.082	0.0174189
721.160	0.0177174
721.238	0.0176599
721.317	0.0179403
721.395	0.0180833
721.473	0.0180876
721.551	0.0180981
721.629	0.0182700
721.707	0.0182142
721.785	0.0183756
721.863	0.0185531
721.942	0.0184129
722.020	0.0182684
722.098	0.0183839
722.176	0.0183415
722.254	0.0182825
722.332	0.0181915
722.410	0.0180363
722.488	0.0179102
722.567	0.0175307
722.645	0.0173249
722.723	0.0171457
722.801	0.0169375
722.879	0.0167169
722.957	0.0166477
723.035	0.0165143
723.113	0.0163262
723.192	0.0162339
723.270	0.0162661
723.348	0.0161685
723.426	0.0163638
723.504	0.0164746
723.582	0.0168232
723.660	0.0169414
723.738	0.0173235
723.817	0.0174989
723.895	0.0177684
723.973	0.0180943
724.051	0.0184147
724.129	0.0185488
724.207	0.0186123
724.285	0.0188873
724.363	0.0191267
724.442	0.0189970
724.520	0.0189812
724.598	0.0189711
724.676	0.0188142
724.754	0.0187370
724.832	0.0186116
724.910	0.0184995
724.988	0.0184218
725.067	0.0182764
725.145	0.0181266
725.223	0.0181444
725.301	0.0178980
725.379	0.0179907
725.457	0.0180241
725.535	0.0177561
725.613	0.0176524
725.692	0.0178224
725.770	0.0178594
725.848	0.0178533
725.926	0.0176557
726.004	0.0176949
726.082	0.0175934
726.160	0.0177149
726.238	0.0178174
726.317	0.0179182
726.395	0.0178928
726.473	0.0179520
726.551	0.0180584
726.629	0.0182368
726.707	0.0184370
726.785	0.0186335
726.863	0.0187528
726.942	0.0189310
727.020	0.0189568
727.098	0.0189112
727.176	0.0190612
727.254	0.0188895
727.332	0.0188614
727.410	0.0187848
727.488	0.0185862
727.567	0.0184207
727.645	0.0181640
727.723	0.0178580
727.801	0.0176363
727.879	0.0173104
727.957	0.0170954
728.035	0.0168858
728.113	0.0165302
728.192	0.0164391
728.270	0.0162543
728.348	0.0163906
728.426	0.0161929
728.504	0.0161132
728.582	0.0162661
728.660	0.0165665
728.738	0.0166994
728.817	0.0168681
728.895	0.0170516
728.973	0.0175061
729.051	0.0177444
729.129	0.0179958
729.207	0.0182080
729.285	0.0184518
729.363	0.0187534
729.442	0.0189745
729.520	0.0189906
729.598	0.0191264
729.676	0.0191065
729.754	0.0192304
729.832	0.0190773
729.910	0.0190802
729.988	0.0190937
730.067	0.0187794
730.145	0.0187036
730.223	0.0186868
730.301	0.0185617
730.379	0.0183067
730.457	0.0182229
730.535	0.0180508
730.613	0.0180713
730.692	0.0178288
730.770	0.0176295
730.848	0.0176305
730.926	0.0174615
731.004	0.0172112
731.082	0.0171470
731.160	0.0169848
731.238	0.0168506
731.317	0.0167120
731.395	0.0167390
731.473	0.0167554
731.551	0.0167107
731.629	0.0167142
731.707	0.0170043
731.785	0.0171733
731.863	0.0174546
731.942	0.0175417
732.020	0.0178078
732.098	0.0181030
732.176	0.0183887
732.254	0.0186050
732.332	0.0187430
732.410	0.0189528
732.488	0.0192387
732.567	0.0192292
732.645	0.0192704
732.723	0.0193495
732.801	0.0192190
732.879	0.0191311
732.957	0.0187936
733.035	0.0188410
733.113	0.0185175
733.192	0.0183543
733.270	0.0183026
733.348	0.0179687
733.426	0.0177187
733.504	0.0173646
733.582	0.0173212
733.660	0.0171972
733.738	0.0169462
733.817	0.0169103
733.895	0.0169653
733.973	0.0169454
734.051	0.0169640
734.129	0.0169168
734.207	0.0169872
734.285	0.0171117
734.363	0.0173617
734.442	0.0175275
734.520	0.0175671
734.598	0.0179766
734.676	0.0181421
734.754	0.0181602
734.832	0.0184284
734.910	0.0184689
734.988	0.0185716
735.067	0.0185993
735.145	0.0186668
735.223	0.0185989
735.301	0.0187607
735.379	0.0187102
735.457	0.0186365
735.535	0.0187022
735.613	0.0185073
735.692	0.0184358
735.770	0.0184364
735.848	0.0183910
735.926	0.0179911
736.004	0.0179906
736.082	0.0179984
736.160	0.0176191
736.238	0.0174390
736.317	0.0175732
736.395	0.0172212
736.473	0.0170016
736.551	0.0168414
736.629	0.0168166
736.707	0.0168186
736.785	0.0166462
736.863	0.0166247
736.942	0.0165093
737.020	0.0166972
737.098	0.0168794
737.176	0.0169601
737.254	0.0172772
737.332	0.0174016
737.410	0.0178662
737.488	0.0179686
737.567	0.0181883
737.645	0.0185549
737.723	0.0188042
737.801	0.0190327
737.879	0.0191629
737.957	0.0193841
738.035	0.0194489
738.113	0.0193568
738.192	0.0193754
738.270	0.0193591
738.348	0.0191683
738.426	0.0190512
738.504	0.0188820
738.582	0.0184442
738.660	0.0184125
738.738	0.0181486
738.817	0.0178053
738.895	0.0177275
738.973	0.0174335
739.051	0.0172469
739.129	0.0169566
739.207	0.0168354
739.285	0.0168257
739.363	0.0166747
739.442	0.0163839
739.520	0.0163963
739.598	0.0165108
739.676	0.0164417
739.754	0.0166710
739.832	0.0166823
739.910	0.0168139
739.988	0.0170170
740.067	0.0172121
740.145	0.0174846
740.223	0.0176890
740.301	0.0179314
740.379	0.0182212
740.457	0.0184173
740.535	0.0187214
740.613	0.0188263
740.692	0.0189751
740.770	0.0190549
740.848	0.0190443
740.926	0.0190781
741.004	0.0191447
741.082	0.0191588
741.160	0.0188297
741.238	0.0187580
741.317	0.0185339
741.395	0.0185770
741.473	0.0184029
741.551	0.0181295
741.629	0.0181376
741.707	0.0179140
741.785	0.0178616
741.863	0.0176747
741.942	0.0175411
742.020	0.0175169
742.098	0.0175677
742.176	0.0174007
742.254	0.0174559
742.332	0.0173586
742.410	0.0174554
742.488	0.0174355
742.567	0.0176309
742.645	0.0177682
742.723	0.0179037
742.801	0.0179791
742.879	0.0179865
742.957	0.0180864
743.035	0.0182114
743.113	0.0183595
743.192	0.0183781
743.270	0.0184107
743.348	0.0185384
743.426	0.0183634
743.504	0.0184779
743.582	0.0185172
743.660	0.0186015
743.738	0.0184579
743.817	0.0183742
743.895	0.0182899
743.973	0.0183189
744.051	0.0182947
744.129	0.0180335
744.207	0.0177551
744.285	0.0176186
744.363	0.0177223
744.442	0.0174570
744.520	0.0173563
744.598	0.0172765
744.676	0.0170730
744.754	0.0169796
744.832	0.0168539
744.910	0.0168721
744.988	0.0168234
745.067	0.0168880
745.145	0.0170014
745.223	0.0169044
745.301	0.0171275
745.379	0.0170639
745.457	0.0172713
745.535	0.0173853
745.613	0.0175273
745.692	0.0176678
745.770	0.0179660
745.848	0.0181658
745.926	0.0181531
746.004	0.0185100
746.082	0.0184883
746.160	0.0187307
746.238	0.0188421
746.317	0.0188401
746.395	0.0190273
746.473	0.0190205
746.551	0.0191170
746.629	0.0189722
746.707	0.0190501
746.785	0.0189185
746.863	0.0187770
746.942	0.0187673
747.020	0.0186107
747.098	0.0183483
747.176	0.0181578
747.254	0.0180756
747.332	0.0178159
747.410	0.0176090
747.488	0.0175793
747.567	0.0174416
747.645	0.0171228
747.723	0.0168702
747.801	0.0168383
747.879	0.0168214
747.957	0.0168764
748.035	0.0169574
748.113	0.0170234
748.192	0.0171335
748.270	0.0173470
748.348	0.0176031
748.426	0.0178107
748.504	0.0180698
748.582	0.0182068
748.660	0.0183968
748.738	0.0187928
748.817	0.0188478
748.895	0.0191737
748.973	0.0193030
749.051	0.0192244
749.129	0.0193175
749.207	0.0190779
749.285	0.0189825
749.363	0.0189710
749.442	0.0188283
749.520	0.0186801
749.598	0.0185648
749.676	0.0182615
749.754	0.0181795
749.832	0.0179388
749.910	0.0176772
749.988	0.0175853
750.067	0.0172771
750.145	0.0173499
750.223	0.0172800
750.301	0.0170356
750.379	0.0171339
750.457	0.0169957
750.535	0.0169654
750.613	0.0169634
750.692	0.0169747
750.770	0.0169846
750.848	0.0170392
750.926	0.0170999
751.004	0.0171581
751.082	0.0172681
751.160	0.0175817
751.238	0.0176605
751.317	0.0178914
751.395	0.0178926
751.473	0.0179914
751.551	0.0180492
751.629	0.0181067
751.707	0.0183424
751.785	0.0184003
751.863	0.0183958
751.942	0.0182490
752.020	0.0183923
752.098	0.0182075
752.176	0.0182152
752.254	0.0181892
752.332	0.0180741
752.410	0.0179002
752.488	0.0179342
752.567	0.0177332
752.645	0.0177309
752.723	0.0176817
752.801	0.0177135
752.879	0.0176995
752.957	0.0176266
753.035	0.0177892
753.113	0.0177938
753.192	0.0178087
753.270	0.0179487
753.348	0.0180661
753.426	0.0181413
753.504	0.0181258
753.582	0.0182710
753.660	0.0183618
753.738	0.0182305
753.817	0.0184743
753.895	0.0182051
753.973	0.0183157
754.051	0.0183252
754.129	0.0182651
754.207	0.0181788
754.285	0.0180911
754.363	0.0180682
754.442	0.0178754
754.520	0.0179146
754.598	0.0178697
754.676	0.0178486
754.754	0.0177528
754.832	0.0177650
754.910	0.0177335
754.988	0.0176832
755.067	0.0176616
755.145	0.0176462
755.223	0.0175584
755.301	0.0177448
755.379	0.0176192
755.457	0.0177412
755.535	0.0177580
755.613	0.0177208
755.692	0.0178057
755.770	0.0178574
755.848	0.0178943
755.926	0.0180420
756.004	0.0180730
756.082	0.0180828
756.160	0.0180758
756.238	0.0181867
756.317	0.0182545
756.395	0.0181657
756.473	0.0183171
756.551	0.0182878
756.629	0.0183108
756.707	0.0183811
756.785	0.0182426
756.863	0.0182320
756.942	0.0183406
757.020	0.0182460
757.098	0.0181077
757.176	0.0180437
757.254	0.0179676
757.332	0.0178836
757.410	0.0176827
757.488	0.0177840
757.567	0.0178407
757.645	0.0176499
757.723	0.0177231
757.801	0.0175953
757.879	0.0175887
757.957	0.0175161
758.035	0.0174234
758.113	0.0174669
758.192	0.0174825
758.270	0.0175797
758.348	0.0175503
758.426	0.0175682
758.504	0.0175275
758.582	0.0175348
758.660	0.0174538
758.738	0.0173082
758.817	0.0174766
758.895	0.0175620
758.973	0.0173979
759.051	0.0177166
759.129	0.0177870
759.207	0.0177245
759.285	0.0177900
759.363	0.0179633
759.442	0.0179489
759.520	0.0180131
759.598	0.0178851
759.676	0.0180698
759.754	0.0182578
759.832	0.0182116
759.910	0.0181915
759.988	0.0183202
760.067	0.0182610
760.145	0.0182028
760.223	0.0181837
760.301	0.0181305
760.379	0.0180473
760.457	0.0180863
760.535	0.0181485
760.613	0.0180222
760.692	0.0179736
760.770	0.0179163
760.848	0.0177048
760.926	0.0175963
761.004	0.0177533
761.082	0.0176463
761.160	0.0177039
761.238	0.0176432
761.317	0.0176242
761.395	0.0176590
761.473	0.0175674
761.551	0.0176745
761.629	0.0176747
761.707	0.0176546
761.785	0.0179124
761.863	0.0179077
761.942	0.0178096
762.020	0.0181244
762.098	0.0180159
762.176	0.0182108
762.254	0.0183439
762.332	0.0183686
762.410	0.0185716
762.488	0.0185217
762.567	0.0186482
762.645	0.0185658
762.723	0.0186655
762.801	0.0185947
762.879	0.0186549
762.957	0.0184719
763.035	0.0184863
763.113	0.0183582
763.192	0.0183486
763.270	0.0182359
763.348	0.0181349
763.426	0.0178712
763.504	0.0177795
763.582	0.0177721
763.660	0.0175423
763.738	0.0174124
763.817	0.0173870
763.895	0.0171647
763.973	0.0171120
764.051	0.0172979
764.129	0.0172392
764.207	0.0172768
764.285	0.0172338
764.363	0.0172242
764.442	0.0173634
764.520	0.0174085
764.598	0.0174625
764.676	0.0175642
764.754	0.0177825
764.832	0.0177302
764.910	0.0178959
764.988	0.0180151
765.067	0.0182101
765.145	0.0182085
765.223	0.0184819
765.301	0.0184917
765.379	0.0185544
765.457	0.0184800
765.535	0.0186638
765.613	0.0185918
765.692	0.0185805
765.770	0.0184270
765.848	0.0182691
765.926	0.0183495
766.004	0.0181418
766.082	0.0179385
766.160	0.0178394
766.238	0.0177465
766.317	0.0175659
766.395	0.0176249
766.473	0.0175050
766.551	0.0173639
766.629	0.0174123
766.707	0.0173856
766.785	0.0173376
766.863	0.0172556
766.942	0.0174924
767.020	0.0174165
767.098	0.0174614
767.176	0.0175915
767.254	0.0176823
767.332	0.0177555
767.410	0.0177707
767.488	0.0178613
767.567	0.0178326
767.645	0.0180895
767.723	0.0180941
767.801	0.0181419
767.879	0.0182291
767.957	0.0182854
768.035	0.0183069
768.113	0.0183782
768.192	0.0183351
768.270	0.0182609
768.348	0.0183087
768.426	0.0183480
768.504	0.0183099
768.582	0.0181734
768.660	0.0181274
768.738	0.0181658
768.817	0.0180428
768.895	0.0180762
768.973	0.0179356
769.051	0.0178918
769.129	0.0179598
769.207	0.0180177
769.285	0.0178625
769.363	0.0179311
769.442	0.0179525
769.520	0.0180196
769.598	0.0179525
769.676	0.0178937
769.754	0.0180300
769.832	0.0179944
769.910	0.0181174
769.988	0.0180116
770.067	0.0180087
770.145	0.0181371
770.223	0.0183173
770.301	0.0180977
770.379	0.0181478
770.457	0.0182335
770.535	0.0181397
770.613	0.0181870
770.692	0.0180374
770.770	0.0181664
770.848	0.0181140
770.926	0.0180463
771.004	0.0179233
771.082	0.0178163
771.160	0.0177431
771.238	0.0176481
771.317	0.0176414
771.395	0.0175330
771.473	0.0175665
771.551	0.0176388
771.629	0.0175180
771.707	0.0175903
771.785	0.0175634
771.863	0.0176765
771.942	0.0177021
772.020	0.0177088
772.098	0.0177199
772.176	0.0179310
772.254	0.0181168
772.332	0.0180873
772.410	0.0180919
772.488	0.0182319
772.567	0.0181989
772.645	0.0183575
772.723	0.0183739
772.801	0.0183491
772.879	0.0183681
772.957	0.0181976
773.035	0.0180688
773.113	0.0180748
773.192	0.0181472
773.270	0.0179070
773.348	0.0178797
773.426	0.0177618
773.504	0.0175436
773.582	0.0175645
773.660	0.0176422
773.738	0.0173568
773.817	0.0173400
773.895	0.0174329
773.973	0.0174126
774.051	0.0174877
774.129	0.0174075
774.207	0.0174866
774.285	0.0174366
774.363	0.0175311
774.442	0.0176727
774.520	0.0177930
774.598	0.0179483
774.676	0.0178432
774.754	0.0179848
774.832	0.0180739
774.910	0.0181087
774.988	0.0182701
775.067	0.0183212
775.145	0.0182481
775.223	0.0183920
775.301	0.0183179
775.379	0.0183843
775.457	0.0184096
775.535	0.0183936
775.613	0.0183540
775.692	0.0183573
775.770	0.0183482
775.848	0.0183627
775.926	0.0182684
776.004	0.0183418
776.082	0.0182663
776.160	0.0180398
776.238	0.0181227
776.317	0.0181889
776.395	0.0180261
776.473	0.0178585
776.551	0.0178175
776.629	0.0178957
776.707	0.0177999
776.785	0.0177065
776.863	0.0176546
776.942	0.0176568
777.020	0.0176189
777.098	0.0176939
777.176	0.0176710
777.254	0.0177353
777.332	0.0176122
777.410	0.0175627
777.488	0.0177670
777.567	0.0178535
777.645	0.0178383
777.723	0.0178320
777.801	0.0180276
777.879	0.0179234
777.957	0.0177721
778.035	0.0180134
778.113	0.0179229
778.192	0.0178879
778.270	0.0180726
778.348	0.0180617
778.426	0.0180219
778.504	0.0181318
778.582	0.0180368
778.660	0.0181686
778.738	0.0180181
778.817	0.0179315
778.895	0.0179362
778.973	0.0179552
779.051	0.0181015
779.129	0.0179176
779.207	0.0178506
779.285	0.0178996
779.363	0.0177022
779.442	0.0177538
779.520	0.0176327
779.598	0.0176105
779.676	0.0176644
779.754	0.0175543
779.832	0.0176975
779.910	0.0176485
779.988	0.0176451
780.067	0.0177462
780.145	0.0177561
780.223	0.0178368
780.301	0.0176646
780.379	0.0177546
780.457	0.0178407
780.535	0.0180163
780.613	0.0179869
780.692	0.0179167
780.770	0.0180096
780.848	0.0180093
780.926	0.0180492
781.004	0.0179649
781.082	0.0179550
781.160	0.0178935
781.238	0.0179198
781.317	0.0179708
781.395	0.0179613
781.473	0.0179442
781.551	0.0179235
781.629	0.0178568
781.707	0.0177533
781.785	0.0177658
781.863	0.0178613
781.942	0.0178691
782.020	0.0177953
782.098	0.0178459
782.176	0.0177187
782.254	0.0177208
782.332	0.0179120
782.410	0.0177417
782.488	0.0178027
782.567	0.0177766
782.645	0.0178435
782.723	0.0178697
782.801	0.0178891
782.879	0.0179597
782.957	0.0179173
783.035	0.0181225
783.113	0.0180534
783.192	0.0179482
783.270	0.0180653
783.348	0.0180843
783.426	0.0181860
783.504	0.0182007
783.582	0.0182237
783.660	0.0182655
783.738	0.0181341
783.817	0.0180931
783.895	0.0182813
783.973	0.0181630
784.051	0.0183143
784.129	0.0183182
784.207	0.0184381
784.285	0.0181829
784.363	0.0181439
784.442	0.0182980
784.520	0.0182301
784.598	0.0180579
784.676	0.0180229
784.754	0.0179921
784.832	0.0180686
784.910	0.0177834
784.988	0.0177504
785.067	0.0176885
785.145	0.0174658
785.223	0.0173560
785.301	0.0173808
785.379	0.0173225
785.457	0.0172459
785.535	0.0172067
785.613	0.0172858
785.692	0.0172292
785.770	0.0171019
785.848	0.0172158
785.926	0.0172021
786.004	0.0172218
786.082	0.0174871
786.160	0.0175872
786.238	0.0176286
786.317	0.0176064
786.395	0.0176879
786.473	0.0177892
786.551	0.0178574
786.629	0.0179409
786.707	0.0179916
786.785	0.0180568
786.863	0.0181925
786.942	0.0183526
787.020	0.0184929
787.098	0.0184370
787.176	0.0185231
787.254	0.0185656
787.332	0.0186890
787.410	0.0187274
787.488	0.0187798
787.567	0.0186910
787.645	0.0186018
787.723	0.0186911
787.801	0.0187099
787.879	0.0183999
787.957	0.0183221
788.035	0.0181303
788.113	0.0180791
788.192	0.0178927
788.270	0.0177401
788.348	0.0175899
788.426	0.0174413
788.504	0.0172671
788.582	0.0171513
788.660	0.0169718
788.738	0.0168431
788.817	0.0168945
788.895	0.0166981
788.973	0.0165116
789.051	0.0165733
789.129	0.0166071
789.207	0.0167122
789.285	0.0170155
789.363	0.0169826
789.442	0.0172491
789.520	0.0176310
789.598	0.0178253
789.676	0.0181303
789.754	0.0184478
789.832	0.0187889
789.910	0.0189420
789.988	0.0193119
790.067	0.0195409
790.145	0.0196030
790.223	0.0197341
790.301	0.0196276
790.379	0.0197290
790.457	0.0197198
790.535	0.0195074
790.613	0.0193256
790.692	0.0189633
790.770	0.0186369
790.848	0.0183778
790.926	0.0179961
791.004	0.0176431
791.082	0.0173060
791.160	0.0169524
791.238	0.0166496
791.317	0.0163702
791.395	0.0161958
791.473	0.0159418
791.551	0.0156918
791.629	0.0155919
791.707	0.0156297
791.785	0.0156255
791.863	0.0156638
791.942	0.0157491
792.020	0.0159023
792.098	0.0161482
792.176	0.0164105
792.254	0.0167046
792.332	0.0169910
792.410	0.0175710
792.488	0.0179255
792.567	0.0184286
792.645	0.0187749
792.723	0.0191683
792.801	0.0195714
792.879	0.0200375
792.957	0.0203503
793.035	0.0205236
793.113	0.0208469
793.192	0.0207494
793.270	0.0208430
793.348	0.0208880
793.426	0.0208332
793.504	0.0204656
793.582	0.0201080
793.660	0.0199522
793.738	0.0195440
793.817	0.0191283
793.895	0.0186305
793.973	0.0180623
794.051	0.0177071
794.129	0.0173466
794.207	0.0169032
794.285	0.0164904
794.363	0.0161681
794.442	0.0159163
794.520	0.0155245
794.598	0.0155428
794.676	0.0153565
794.754	0.0151385
794.832	0.0151801
794.910	0.0151887
794.988	0.0152869
795.067	0.0155555
795.145	0.0157092
795.223	0.0159110
795.301	0.0162164
795.379	0.0164971
795.457	0.0168404
795.535	0.0172845
795.613	0.0177633
795.692	0.0181496
795.770	0.0185449
795.848	0.0189262
795.926	0.0190170
796.004	0.0193839
796.082	0.0197503
796.160	0.0197859
796.238	0.0198618
796.317	0.0199705
796.395	0.0200425
796.473	0.0198122
796.551	0.0199419
796.629	0.0197160
796.707	0.0195920
796.785	0.0193483
796.863	0.0191066
796.942	0.0189922
797.020	0.0186773
797.098	0.0185165
797.176	0.0182707
797.254	0.0180579
797.332	0.0178159
797.410	0.0177778
797.488	0.0175208
797.567	0.0172395
797.645	0.0171598
797.723	0.0170990
797.801	0.0168565
797.879	0.0167555
797.957	0.0167276
798.035	0.0167634
798.113	0.0166670
798.192	0.0167822
798.270	0.0167017
798.348	0.0166615
798.426	0.0168349
798.504	0.0168150
798.582	0.0170911
798.660	0.0171888
798.738	0.0172923
798.817	0.0171998
798.895	0.0174530
798.973	0.0176321
799.051	0.0178039
799.129	0.0180265
799.207	0.0180918
799.285	0.0182391
799.363	0.0182544
799.442	0.0182452
799.520	0.0182803
799.598	0.0183984
799.676	0.0183553
799.754	0.0184918
799.832	0.0184083
799.910	0.0185777
799.988	0.0185839
800.067	0.0185204
800.145	0.0185321
800.223	0.0185343
800.301	0.0186204
800.379	0.0185735
800.457	0.0184303
800.535	0.0184238
800.613	0.0184135
800.692	0.0183872
800.770	0.0182492
800.848	0.0181758
800.926	0.0181751
801.004	0.0181494
801.082	0.0180220
801.160	0.0178648
801.238	0.0179349
801.317	0.0178896
801.395	0.0178728
801.473	0.0179251
801.551	0.0177885
801.629	0.0177812
801.707	0.0178876
801.785	0.0177847
801.863	0.0179118
801.942	0.0178942
802.020	0.0178309
802.098	0.0178703
802.176	0.0178538
802.254	0.0179230
802.332	0.0179066
802.410	0.0178781
802.488	0.0178519
802.567	0.0177588
802.645	0.0178926
802.723	0.0178831
802.801	0.0178567
802.879	0.0177869
802.957	0.0177706
803.035	0.0178129
803.113	0.0177296
803.192	0.0179193
803.270	0.0178064
803.348	0.0178873
803.426	0.0178217
803.504	0.0176881
803.582	0.0177417
803.660	0.0176875
803.738	0.0175846
803.817	0.0175552
803.895	0.0174073
803.973	0.0175200
804.051	0.0173734
804.129	0.0173921
804.207	0.0173241
804.285	0.0172012
804.363	0.0173166
804.442	0.0173268
804.520	0.0174032
804.598	0.0172804
804.676	0.0173000
804.754	0.0174495
804.832	0.0175042
804.910	0.0176046
804.988	0.0176801
805.067	0.0176518
805.145	0.0178410
805.223	0.0179907
805.301	0.0181364
805.379	0.0181470
805.457	0.0181254
805.535	0.0182146
805.613	0.0183762
805.692	0.0185296
805.770	0.0185938
805.848	0.0185828
805.926	0.0185340
806.004	0.0185134
806.082	0.0187090
806.160	0.0186378
806.238	0.0185606
806.317	0.0185931
806.395	0.0184451
806.473	0.0184658
806.551	0.0184698
806.629	0.0182561
806.707	0.0183064
806.785	0.0181664
806.863	0.0181264
806.942	0.0181313
807.020	0.0179504
807.098	0.0180461
807.176	0.0180618
807.254	0.0180508
807.332	0.0177989
807.410	0.0177995
807.488	0.0177660
807.567	0.0176582
807.645	0.0175608
807.723	0.0175539
807.801	0.0175726
807.879	0.0174842
807.957	0.0175709
808.035	0.0174071
808.113	0.0175011
808.192	0.0173707
808.270	0.0173676
808.348	0.0174321
808.426	0.0173089
808.504	0.0173222
808.582	0.0174018
808.660	0.0175805
808.738	0.0173560
808.817	0.0174519
808.895	0.0174760
808.973	0.0176297
809.051	0.0175813
809.129	0.0176549
809.207	0.0176449
809.285	0.0177805
809.363	0.0178739
809.442	0.0178992
809.520	0.0180997
809.598	0.0179787
809.676	0.0181636
809.754	0.0179902
809.832	0.0181663
809.910	0.0181853
809.988	0.0181450
810.067	0.0182965
810.145	0.0181239
810.223	0.0181617
810.301	0.0180150
810.379	0.0182417
810.457	0.0183290
810.535	0.0182791
810.613	0.0181239
810.692	0.0181130
810.770	0.0182217
810.848	0.0182040
810.926	0.0179993
811.004	0.0180743
811.082	0.0180158
811.160	0.0180955
811.238	0.0179917
811.317	0.0177312
811.395	0.0178166
811.473	0.0177431
811.551	0.0178379
811.629	0.0178569
811.707	0.0177168
811.785	0.0176288
811.863	0.0178651
811.942	0.0178253
812.020	0.0179410
812.098	0.0178606
812.176	0.0178622
812.254	0.0179582
812.332	0.0178289
812.410	0.0178905
812.488	0.0179759
812.567	0.0178402
812.645	0.0180094
812.723	0.0179430
812.801	0.0178538
812.879	0.0179984
812.957	0.0178722
813.035	0.0178866
813.113	0.0176992
813.192	0.0178221
813.270	0.0175770
813.348	0.0176514
813.426	0.0175933
813.504	0.0175526
813.582	0.0176286
813.660	0.0175674
813.738	0.0175232
813.817	0.0174922
813.895	0.0175906
813.973	0.0175145
814.051	0.0173080
814.129	0.0175191
814.207	0.0174192
814.285	0.0174117
814.363	0.0175027
814.442	0.0174951
814.520	0.0174749
814.598	0.0175554
814.676	0.0177392
814.754	0.0177327
814.832	0.0177796
814.910	0.0176714
814.988	0.0178785
815.067	0.0179241
815.145	0.0179452
815.223	0.0180141
815.301	0.0180829
815.379	0.0179943
815.457	0.0182817
815.535	0.0183894
815.613	0.0181519
815.692	0.0183300
815.770	0.0183912
815.848	0.0183714
815.926	0.0181405
816.004	0.0180538
816.082	0.0182904
816.160	0.0181174
816.238	0.0180710
816.317	0.0179894
816.395	0.0179982
816.473	0.0177560
816.551	0.0178353
816.629	0.0177663
816.707	0.0177313
816.785	0.0175858
816.863	0.0176482
816.942	0.0178611
817.020	0.0178387
817.098	0.0178735
817.176	0.0180215
817.254	0.0181143
817.332	0.0180614
817.410	0.0181197
817.488	0.0182868
817.567	0.0183032
817.645	0.0183395
817.723	0.0185517
817.801	0.0185423
817.879	0.0186422
817.957	0.0187193
818.035	0.0186912
818.113	0.0186629
818.192	0.0186211
818.270	0.0185644
818.348	0.0183504
818.426	0.0182505
818.504	0.0182672
818.582	0.0180298
818.660	0.0178590
818.738	0.0176526
818.817	0.0175648
818.895	0.0171854
818.973	0.0170448
819.051	0.0170768
819.129	0.0168362
819.207	0.0166395
819.285	0.0167114
819.363	0.0165495
819.442	0.0165698
819.520	0.0164981
819.598	0.0167616
819.676	0.0168733
819.754	0.0167033
819.832	0.0168854
819.910	0.0170868
819.988	0.0172809
820.067	0.0174696
820.145	0.0175083
820.223	0.0176617
820.301	0.0179395
820.379	0.0182755
820.457	0.0181609
820.535	0.0180918
820.613	0.0183010
820.692	0.0185515
820.770	0.0186685
820.848	0.0184563
820.926	0.0185598
821.004	0.0187837
821.082	0.0185425
821.160	0.0185789
821.238	0.0184844
821.317	0.0183591
821.395	0.0182658
821.473	0.0181615
821.551	0.0182047
821.629	0.0180774
821.707	0.0179908
821.785	0.0180013
821.863	0.0179066
821.942	0.0179713
822.020	0.0179348
822.098	0.0178622
822.176	0.0177049
822.254	0.0179218
822.332	0.0178414
822.410	0.0179508
822.488	0.0178730
822.567	0.0178226
822.645	0.0179586
822.723	0.0180492
822.801	0.0180807
822.879	0.0179932
822.957	0.0181793
823.035	0.0182240
823.113	0.0182642
823.192	0.0183533
823.270	0.0182178
823.348	0.0182232
823.426	0.0181931
823.504	0.0181013
823.582	0.0182091
823.660	0.0182313
823.738	0.0181747
823.817	0.0180407
823.895	0.0180787
823.973	0.0180506
824.051	0.0178893
824.129	0.0179255
824.207	0.0179047
824.285	0.0178419
824.363	0.0177390
824.442	0.0176083
824.520	0.0174669
824.598	0.0175837
824.676	0.0173672
824.754	0.0173460
824.832	0.0171504
824.910	0.0173038
824.988	0.0172162
825.067	0.0171965
825.145	0.0171729
825.223	0.0171843
825.301	0.0172496
825.379	0.0174036
825.457	0.0175828
825.535	0.0176043
825.613	0.0177414
825.692	0.0178442
825.770	0.0178999
825.848	0.0180774
825.926	0.0182904
826.004	0.0183930
826.082	0.0184499
826.160	0.0186979
826.238	0.0186414
826.317	0.0185961
826.395	0.0188467
826.473	0.0187404
826.551	0.0187409
826.629	0.0186968
826.707	0.0186380
826.785	0.0185625
826.863	0.0184481
826.942	0.0184521
827.020	0.0184472
827.098	0.0181628
827.176	0.0180076
827.254	0.0179486
827.332	0.0178974
827.410	0.0176832
827.488	0.0174873
827.567	0.0173354
827.645	0.0172816
827.723	0.0171290
827.801	0.0171744
827.879	0.0170656
827.957	0.0170411
828.035	0.0171604
828.113	0.0170522
828.192	0.0169844
828.270	0.0171095
828.348	0.0172060
828.426	0.0173045
828.504	0.0173936
828.582	0.0176006
828.660	0.0176578
828.738	0.0177227
828.817	0.0180211
828.895	0.0180886
828.973	0.0181354
829.051	0.0183407
829.129	0.0183788
829.207	0.0187236
829.285	0.0186183
829.363	0.0185603
829.442	0.0188596
829.520	0.0188646
829.598	0.0187196
829.676	0.0187599
829.754	0.0186149
829.832	0.0185126
829.910	0.0183731
829.988	0.0183222
830.067	0.0180930
830.145	0.0180989
830.223	0.0178773
830.301	0.0177246
830.379	0.0174895
830.457	0.0174854
830.535	0.0174828
830.613	0.0172771
830.692	0.0173285
830.770	0.0171445
830.848	0.0172517
830.926	0.0170688
831.004	0.0170721
831.082	0.0172675
831.160	0.0171415
831.238	0.0173483
831.317	0.0175517
831.395	0.0177139
831.473	0.0177057
831.551	0.0178874
831.629	0.0180894
831.707	0.0181797
831.785	0.0182607
831.863	0.0183733
831.942	0.0184761
832.020	0.0183627
832.098	0.0184925
832.176	0.0185690
832.254	0.0185239
832.332	0.0186343
832.410	0.0185754
832.488	0.0184824
832.567	0.0184173
832.645	0.0184785
832.723	0.0185285
832.801	0.0182353
832.879	0.0181814
832.957	0.0181428
833.035	0.0179790
833.113	0.0180032
833.192	0.0179171
833.270	0.0177357
833.348	0.0176991
833.426	0.0177789
833.504	0.0175874
833.582	0.0175321
833.660	0.0175279
833.738	0.0173830
833.817	0.0174696
833.895	0.0175063
833.973	0.0174976
834.051	0.0175561
834.129	0.0175333
834.207	0.0173479
834.285	0.0174921
834.363	0.0175414
834.442	0.0176103
834.520	0.0176958
834.598	0.0177816
834.676	0.0179021
834.754	0.0179493
834.832	0.0178410
834.910	0.0179971
834.988	0.0181668
835.067	0.0181158
835.145	0.0181831
835.223	0.0182059
835.301	0.0181619
835.379	0.0181665
835.457	0.0181066
835.535	0.0181590
835.613	0.0182397
835.692	0.0182014
835.770	0.0179288
835.848	0.0179289
835.926	0.0179047
836.004	0.0176850
836.082	0.0177906
836.160	0.0175796
836.238	0.0175592
836.317	0.0174250
836.395	0.0172530
836.473	0.0172619
836.551	0.0173318
836.629	0.0172386
836.707	0.0171072
836.785	0.0171739
836.863	0.0171461
836.942	0.0171325
837.020	0.0173370
837.098	0.0173183
837.176	0.0176183
837.254	0.0177100
837.332	0.0177279
837.410	0.0179143
837.488	0.0181098
837.567	0.0182555
837.645	0.0182841
837.723	0.0183113
837.801	0.0183698
837.879	0.0186460
837.957	0.0186535
838.035	0.0186981
838.113	0.0187250
838.192	0.0186723
838.270	0.0188640
838.348	0.0187668
838.426	0.0186228
838.504	0.0186858
838.582	0.0186226
838.660	0.0184636
838.738	0.0183900
838.817	0.0185488
838.895	0.0183241
838.973	0.0183438
839.051	0.0181436
839.129	0.0180966
839.207	0.0180692
839.285	0.0180176
839.363	0.0179799
839.442	0.0177386
839.520	0.0177435
839.598	0.0177386
839.676	0.0176509
839.754	0.0175705
839.832	0.0175036
839.910	0.0173919
839.988	0.0173454
840.067	0.0173873
840.145	0.0172636
840.223	0.0172102
840.301	0.0172206
840.379	0.0173704
840.457	0.0172892
840.535	0.0173455
840.613	0.0172279
840.692	0.0173040
840.770	0.0173736
840.848	0.0175101
840.926	0.0174179
841.004	0.0176917
841.082	0.0177029
841.160	0.0176895
841.238	0.0177120
841.317	0.0177834
841.395	0.0178703
841.473	0.0179661
841.551	0.0179142
841.629	0.0181629
841.707	0.0181059
841.785	0.0181297
841.863	0.0180837
841.942	0.0182408
842.020	0.0182944
842.098	0.0182954
842.176	0.0183062
842.254	0.0183028
842.332	0.0182879
842.410	0.0182626
842.488	0.0182867
842.567	0.0182626
842.645	0.0183401
842.723	0.0182150
842.801	0.0181997
842.879	0.0181560
842.957	0.0180846
843.035	0.0180485
843.113	0.0181006
843.192	0.0179690
843.270	0.0178748
843.348	0.0179084
843.426	0.0177676
843.504	0.0178149
843.582	0.0178391
843.660	0.0177332
843.738	0.0176640
843.817	0.0177101
843.895	0.0175369
843.973	0.0175354
844.051	0.0175330
844.129	0.0173470
844.207	0.0175390
844.285	0.0176750
844.363	0.0175922
844.442	0.0176397
844.520	0.0177122
844.598	0.0177357
844.676	0.0176305
844.754	0.0177685
844.832	0.0178886
844.910	0.0179082
844.988	0.0180071
845.067	0.0181535
845.145	0.0179482
845.223	0.0180892
845.301	0.0181384
845.379	0.0181453
845.457	0.0181946
845.535	0.0181108
845.613	0.0181635
845.692	0.0180622
845.770	0.0180596
845.848	0.0180942
845.926	0.0180602
846.004	0.0179743
846.082	0.0179561
846.160	0.0179622
846.238	0.0178734
846.317	0.0179272
846.395	0.0178460
846.473	0.0179816
846.551	0.0179351
846.629	0.0178601
846.707	0.0179276
846.785	0.0179460
846.863	0.0179305
846.942	0.0180810
847.020	0.0181911
847.098	0.0181003
847.176	0.0181416
847.254	0.0182635
847.332	0.0182256
847.410	0.0183372
847.488	0.0183420
847.567	0.0181841
847.645	0.0182703
847.723	0.0182072
847.801	0.0182653
847.879	0.0182383
847.957	0.0182348
848.035	0.0181923
848.113	0.0181503
848.192	0.0180817
848.270	0.0180700
848.348	0.0180101
848.426	0.0180212
848.504	0.0178879
848.582	0.0178121
848.660	0.0177413
848.738	0.0177195
848.817	0.0176785
848.895	0.0176416
848.973	0.0175678
849.051	0.0174066
849.129	0.0175201
849.207	0.0175031
849.285	0.0174970
849.363	0.0175548
849.442	0.0176321
849.520	0.0176703
849.598	0.0176730
849.676	0.0178411
849.754	0.0178779
849.832	0.0178497
849.910	0.0180676
849.988	0.0179922
850.067	0.0180549
850.145	0.0180081
850.223	0.0180537
850.301	0.0181378
850.379	0.0182250
850.457	0.0182320
850.535	0.0181418
850.613	0.0180808
850.692	0.0182441
850.770	0.0182107
850.848	0.0179935
850.926	0.0179414
851.004	0.0180389
851.082	0.0178469
851.160	0.0177891
851.238	0.0178086
851.317	0.0176545
851.395	0.0174915
851.473	0.0176345
851.551	0.0176223
851.629	0.0176091
851.707	0.0175625
851.785	0.0175938
851.863	0.0175877
851.942	0.0174242
852.020	0.0176329
852.098	0.0177455
852.176	0.0176891
852.254	0.0175928
852.332	0.0178504
852.410	0.0178648
852.488	0.0179279
852.567	0.0180077
852.645	0.0178114
852.723	0.0179292
852.801	0.0180489
852.879	0.0180822
852.957	0.0180535
853.035	0.0180624
853.113	0.0180817
853.192	0.0182361
853.270	0.0182995
853.348	0.0182228
853.426	0.0184107
853.504	0.0185864
853.582	0.0182994
853.660	0.0183720
853.738	0.0185145
853.817	0.0185402
853.895	0.0185321
853.973	0.0184969
854.051	0.0184125
854.129	0.0185162
854.207	0.0184152
854.285	0.0182603
854.363	0.0181084
854.442	0.0182189
854.520	0.0182038
854.598	0.0179700
854.676	0.0179136
854.754	0.0178457
854.832	0.0175604
854.910	0.0177195
854.988	0.0177258
855.067	0.0173533
855.145	0.0174419
855.223	0.0173528
855.301	0.0174739
855.379	0.0174694
855.457	0.0174536
855.535	0.0174060
855.613	0.0174016
855.692	0.0175789
855.770	0.0175682
855.848	0.0176444
855.926	0.0177251
856.004	0.0177875
856.082	0.0178720
856.160	0.0179623
856.238	0.0179392
856.317	0.0181670
856.395	0.0180472
856.473	0.0181080
856.551	0.0181296
856.629	0.0181911
856.707	0.0182024
856.785	0.0181381
856.863	0.0180934
856.942	0.0180161
857.020	0.0181407
857.098	0.0181005
857.176	0.0179845
857.254	0.0179048
857.332	0.0178788
857.410	0.0178389
857.488	0.0177538
857.567	0.0177773
857.645	0.0176717
857.723	0.0175121
857.801	0.0175111
857.879	0.0175908
857.957	0.0174610
858.035	0.0174471
858.113	0.0174436
858.192	0.0174825
858.270	0.0175854
858.348	0.0176808
858.426	0.0176888
858.504	0.0175894
858.582	0.0178763
858.660	0.0178549
858.738	0.0178637
858.817	0.0179707
858.895	0.0181446
858.973	0.0182123
859.051	0.0182432
859.129	0.0185719
859.207	0.0183233
859.285	0.0184883
859.363	0.0186665
859.442	0.0184828
859.520	0.0184779
859.598	0.0183937
859.676	0.0185607
859.754	0.0184916
859.832	0.0182684
859.910	0.0182919
859.988	0.0180235
860.067	0.0181339
860.145	0.0180798
860.223	0.0178797
860.301	0.0178374
860.379	0.0178997
860.457	0.0176640
860.535	0.0176581
860.613	0.0175683
860.692	0.0175878
860.770	0.0175239
860.848	0.0174483
860.926	0.0174523
861.004	0.0174160
861.082	0.0174911
861.160	0.0174707
861.238	0.0175649
861.317	0.0175442
861.395	0.0175956
861.473	0.0176897
861.551	0.0176819
861.629	0.0177554
861.707	0.0178408
861.785	0.0179028
861.863	0.0177509
861.942	0.0179818
862.020	0.0179095
862.098	0.0179050
862.176	0.0180054
862.254	0.0180862
862.332	0.0180177
862.410	0.0179414
862.488	0.0178869
862.567	0.0179770
862.645	0.0180786
862.723	0.0177712
862.801	0.0181092
862.879	0.0179145
862.957	0.0179054
863.035	0.0179728
863.113	0.0179674
863.192	0.0179423
863.270	0.0178869
863.348	0.0180260
863.426	0.0181261
863.504	0.0178722
863.582	0.0180657
863.660	0.0180116
863.738	0.0180881
863.817	0.0180421
863.895	0.0181117
863.973	0.0181609
864.051	0.0181509
864.129	0.0181192
864.207	0.0182002
864.285	0.0183307
864.363	0.0180492
864.442	0.0180311
864.520	0.0181264
864.598	0.0179423
864.676	0.0181552
864.754	0.0180622
864.832	0.0179814
864.910	0.0179068
864.988	0.0177438
865.067	0.0179917
865.145	0.0178986
865.223	0.0178709
865.301	0.0178835
865.379	0.0177859
865.457	0.0177409
865.535	0.0176920
865.613	0.0176310
865.692	0.0177334
865.770	0.0176767
865.848	0.0176454
865.926	0.0176203
866.004	0.0175733
866.082	0.0176552
866.160	0.0174616
866.238	0.0173985
866.317	0.0176572
866.395	0.0177417
866.473	0.0176100
866.551	0.0176276
866.629	0.0176010
866.707	0.0176605
866.785	0.0178419
866.863	0.0175970
866.942	0.0177801
867.020	0.0179411
867.098	0.0178077
867.176	0.0178928
867.254	0.0178855
867.332	0.0178734
867.410	0.0180395
867.488	0.0179318
867.567	0.0179955
867.645	0.0178893
867.723	0.0179681
867.801	0.0179317
867.879	0.0179618
867.957	0.0179900
868.035	0.0179001
868.113	0.0179729
868.192	0.0178710
868.270	0.0178592
868.348	0.0178221
868.426	0.0178709
868.504	0.0178474
868.582	0.0178141
868.660	0.0177998
868.738	0.0178121
868.817	0.0178224
868.895	0.0178601
868.973	0.0178376
869.051	0.0178461
869.129	0.0178381
869.207	0.0180332
869.285	0.0180219
869.363	0.0180462
869.442	0.0179946
869.520	0.0179992
869.598	0.0180924
869.676	0.0180984
869.754	0.0179871
869.832	0.0179555
869.910	0.0179253
869.988	0.0181322
870.067	0.0179116
870.145	0.0178959
870.223	0.0180704
870.301	0.0179588
870.379	0.0181810
870.457	0.0179862
870.535	0.0178699
870.613	0.0179697
870.692	0.0180517
870.770	0.0181491
870.848	0.0179490
870.926	0.0180788
871.004	0.0180786
871.082	0.0181693
871.160	0.0180096
871.238	0.0180270
871.317	0.0180717
871.395	0.0179897
871.473	0.0180392
871.551	0.0180779
871.629	0.0180496
871.707	0.0180447
871.785	0.0179857
871.863	0.0179790
871.942	0.0179889
872.020	0.0179832
872.098	0.0178304
872.176	0.0177080
872.254	0.0178830
872.332	0.0176735
872.410	0.0177016
872.488	0.0176376
872.567	0.0176268
872.645	0.0175078
872.723	0.0175759
872.801	0.0176341
872.879	0.0173739
872.957	0.0174394
873.035	0.0175029
873.113	0.0174303
873.192	0.0173483
873.270	0.0173463
873.348	0.0173528
873.426	0.0174398
873.504	0.0175828
873.582	0.0176880
873.660	0.0174964
873.738	0.0175700
873.817	0.0177193
873.895	0.0177112
873.973	0.0177808
874.051	0.0177338
874.129	0.0178255
874.207	0.0179463
874.285	0.0180055
874.363	0.0179060
874.442	0.0180079
874.520	0.0180168
874.598	0.0179922
874.676	0.0180267
874.754	0.0180241
874.832	0.0180567
874.910	0.0181287
874.988	0.0178030
875.067	0.0179838
875.145	0.0181116
875.223	0.0180657
875.301	0.0179607
875.379	0.0182012
875.457	0.0181069
875.535	0.0182051
875.613	0.0182219
875.692	0.0181455
875.770	0.0182836
875.848	0.0182919
875.926	0.0182166
876.004	0.0181721
876.082	0.0181921
876.160	0.0181738
876.238	0.0179852
876.317	0.0180541
876.395	0.0180663
876.473	0.0180270
876.551	0.0180035
876.629	0.0179501
876.707	0.0178571
876.785	0.0178108
876.863	0.0178945
876.942	0.0179164
877.020	0.0178477
877.098	0.0178363
877.176	0.0178378
877.254	0.0177023
877.332	0.0177625
877.410	0.0175806
877.488	0.0176834
877.567	0.0177210
877.645	0.0176176
877.723	0.0176237
877.801	0.0176587
877.879	0.0175930
877.957	0.0175645
878.035	0.0176119
878.113	0.0175021
878.192	0.0175977
878.270	0.0175684
878.348	0.0176337
878.426	0.0175448
878.504	0.0175494
878.582	0.0176495
878.660	0.0175822
878.738	0.0175863
878.817	0.0176714
878.895	0.0177821
878.973	0.0178452
879.051	0.0176456
879.129	0.0178165
879.207	0.0177281
879.285	0.0180621
879.363	0.0179342
879.442	0.0179410
879.520	0.0180585
879.598	0.0179955
879.676	0.0180051
879.754	0.0181116
879.832	0.0181627
879.910	0.0180590
879.988	0.0182468
880.067	0.0180977
880.145	0.0181773
880.223	0.0182153
880.301	0.0181881
880.379	0.0182094
880.457	0.0181898
880.535	0.0181341
880.613	0.0180726
880.692	0.0180064
880.770	0.0179401
880.848	0.0179704
880.926	0.0180090
881.004	0.0178658
881.082	0.0177529
881.160	0.0178488
881.238	0.0176952
881.317	0.0176873
881.395	0.0177001
881.473	0.0177337
881.551	0.0174599
881.629	0.0175389
881.707	0.0174449
881.785	0.0175057
881.863	0.0174850
881.942	0.0175124
882.020	0.0175900
882.098	0.0176141
882.176	0.0177310
882.254	0.0176900
882.332	0.0178169
882.410	0.0178390
882.488	0.0180104
882.567	0.0181422
882.645	0.0181918
882.723	0.0182449
882.801	0.0180710
882.879	0.0181480
882.957	0.0182764
883.035	0.0181697
883.113	0.0179764
883.192	0.0178437
883.270	0.0178017
883.348	0.0177008
883.426	0.0176159
883.504	0.0176172
883.582	0.0173914
883.660	0.0172819
883.738	0.0172530
883.817	0.0173130
883.895	0.0173271
883.973	0.0173116
884.051	0.0171988
884.129	0.0174828
884.207	0.0175388
884.285	0.0175806
884.363	0.0176926
884.442	0.0179065
884.520	0.0180292
884.598	0.0182365
884.676	0.0183754
884.754	0.0187039
884.832	0.0188589
884.910	0.0188414
884.988	0.0190198
885.067	0.0191998
885.145	0.0191139
885.223	0.0192722
885.301	0.0192114
885.379	0.0191311
885.457	0.0190339
885.535	0.0191306
885.613	0.0188980
885.692	0.0186091
885.770	0.0181815
885.848	0.0178921
885.926	0.0176117
886.004	0.0173900
886.082	0.0169269
886.160	0.0167576
886.238	0.0162781
886.317	0.0159908
886.395	0.0156994
886.473	0.0156204
886.551	0.0155064
886.629	0.0153350
886.707	0.0155519
886.785	0.0155234
886.863	0.0157886
886.942	0.0160719
887.020	0.0162788
887.098	0.0167117
887.176	0.0170565
887.254	0.0176376
887.332	0.0179382
887.410	0.0185522
887.488	0.0189512
887.567	0.0192902
887.645	0.0198622
887.723	0.0201064
887.801	0.0202774
887.879	0.0204771
887.957	0.0205933
888.035	0.0205174
888.113	0.0206461
888.192	0.0204672
888.270	0.0202085
888.348	0.0199947
888.426	0.0197398
888.504	0.0193871
888.582	0.0189148
888.660	0.0182454
888.738	0.0177908
888.817	0.0174583
888.895	0.0169437
888.973	0.0164994
889.051	0.0161182
889.129	0.0157204
889.207	0.0153992
889.285	0.0152653
889.363	0.0151350
889.442	0.0151091
889.520	0.0151640
889.598	0.0151659
889.676	0.0155221
889.754	0.0157858
889.832	0.0161567
889.910	0.0165136
889.988	0.0168645
890.067	0.0174127
890.145	0.0177710
890.223	0.0180865
890.301	0.0184946
890.379	0.0187436
890.457	0.0192064
890.535	0.0195210
890.613	0.0194833
890.692	0.0196378
890.770	0.0200439
890.848	0.0197488
890.926	0.0197503
891.004	0.0198920
891.082	0.0196434
891.160	0.0194988
891.238	0.0195026
891.317	0.0190911
891.395	0.0189161
891.473	0.0185571
891.551	0.0183571
891.629	0.0179597
891.707	0.0177394
891.785	0.0174373
891.863	0.0172382
891.942	0.0169633
892.020	0.0168830
892.098	0.0167993
892.176	0.0167164
892.254	0.0166231
892.332	0.0167329
892.410	0.0166486
892.488	0.0169769
892.567	0.0169204
892.645	0.0170718
892.723	0.0172791
892.801	0.0174037
892.879	0.0174046
892.957	0.0176579
893.035	0.0176689
893.113	0.0177164
893.192	0.0178623
893.270	0.0177782
893.348	0.0178067
893.426	0.0178700
893.504	0.0178637
893.582	0.0178687
893.660	0.0177962
893.738	0.0179746
893.817	0.0178112
893.895	0.0177750
893.973	0.0178200
894.051	0.0178222
894.129	0.0178412
894.207	0.0177754
894.285	0.0178780
894.363	0.0178522
894.442	0.0178376
894.520	0.0178541
894.598	0.0178881
894.676	0.0178401
894.754	0.0179946
894.832	0.0179286
894.910	0.0180405
894.988	0.0179099
895.067	0.0180974
895.145	0.0180440
895.223	0.0182204
895.301	0.0181760
895.379	0.0181516
895.457	0.0183694
895.535	0.0184711
895.613	0.0181687
895.692	0.0183362
895.770	0.0184897
895.848	0.0184899
895.926	0.0183374
896.004	0.0182865
896.082	0.0182405
896.160	0.0181998
896.238	0.0182062
896.317	0.0181567
896.395	0.0180093
896.473	0.0180023
896.551	0.0178104
896.629	0.0177170
896.707	0.0176333
896.785	0.0175786
896.863	0.0176307
896.942	0.0176159
897.020	0.0174968
897.098	0.0175091
897.176	0.0175042
897.254	0.0175188
897.332	0.0175206
897.410	0.0173978
897.488	0.0174625
897.567	0.0175256
897.645	0.0176759
897.723	0.0176284
897.801	0.0176694
897.879	0.0177577
897.957	0.0178239
898.035	0.0179402
898.113	0.0180304
898.192	0.0179617
898.270	0.0179955
898.348	0.0180294
898.426	0.0180551
898.504	0.0182024
898.582	0.0180532
898.660	0.0179810
898.738	0.0180280
898.817	0.0179213
898.895	0.0178831
898.973	0.0178897
899.051	0.0178366
899.129	0.0177271
899.207	0.0176681
899.285	0.0175259
899.363	0.0175248
899.442	0.0175412
899.520	0.0174504
899.598	0.0174279
899.676	0.0175719
899.754	0.0175651
899.832	0.0175150
899.910	0.0176678
899.988	0.0178265
900.067	0.0177832
900.145	0.0177232
900.223	0.0178574
900.301	0.0178796
900.379	0.0179246
900.457	0.0181650
900.535	0.0182304
900.613	0.0183092
900.692	0.0182986
900.770	0.0183487
900.848	0.0185172
900.926	0.0186329
901.004	0.0183920
901.082	0.0184700
901.160	0.0184593
901.238	0.0184285
901.317	0.0184306
901.395	0.0183509
901.473	0.0182454
901.551	0.0182092
901.629	0.0181003
901.707	0.0180612
901.785	0.0178179
901.863	0.0177493
901.942	0.0178516
902.020	0.0177685
902.098	0.0177215
902.176	0.0177278
902.254	0.0176369
902.332	0.0177660
902.410	0.0178645
902.488	0.0178499
902.567	0.0179720
902.645	0.0179925
902.723	0.0180281
902.801	0.0180809
902.879	0.0180345
902.957	0.0180876
903.035	0.0181711
903.113	0.0178687
903.192	0.0179665
903.270	0.0181242
903.348	0.0179602
903.426	0.0178879
903.504	0.0180399
903.582	0.0178606
903.660	0.0179025
903.738	0.0179819
903.817	0.0177767
903.895	0.0178378
903.973	0.0177714
904.051	0.0179028
904.129	0.0179253
904.207	0.0178368
904.285	0.0178164
904.363	0.0178085
904.442	0.0177696
904.520	0.0177766
904.598	0.0178303
904.676	0.0177174
904.754	0.0176193
904.832	0.0177542
904.910	0.0177406
904.988	0.0175777
905.067	0.0175450
905.145	0.0176260
905.223	0.0174944
905.301	0.0175475
905.379	0.0175362
905.457	0.0175740
905.535	0.0176031
905.613	0.0177451
905.692	0.0177258
905.770	0.0177402
905.848	0.0176785
905.926	0.0177389
906.004	0.0178629
906.082	0.0178860
906.160	0.0178253
906.238	0.0179742
906.317	0.0179545
906.395	0.0179809
906.473	0.0178039
906.551	0.0178682
906.629	0.0179206
906.707	0.0179486
906.785	0.0181220
906.863	0.0180450
906.942	0.0179209
907.020	0.0180975
907.098	0.0182018
907.176	0.0182668
907.254	0.0180656
907.332	0.0183107
907.410	0.0182792
907.488	0.0183168
907.567	0.0181491
907.645	0.0181594
907.723	0.0183131
907.801	0.0181871
907.879	0.0180925
907.957	0.0180324
908.035	0.0180964
908.113	0.0180721
908.192	0.0178811
908.270	0.0178692
908.348	0.0178593
908.426	0.0177245
908.504	0.0177454
908.582	0.0175744
908.660	0.0177713
908.738	0.0178388
908.817	0.0176329
908.895	0.0177888
908.973	0.0177554
909.051	0.0178205
909.129	0.0176876
909.207	0.0177794
909.285	0.0177283
909.363	0.0176675
909.442	0.0179179
909.520	0.0177849
909.598	0.0177820
909.676	0.0177482
909.754	0.0176931
909.832	0.0177380
909.910	0.0175936
909.988	0.0177036
910.067	0.0176221
910.145	0.0177610
910.223	0.0177010
910.301	0.0177094
910.379	0.0177394
910.457	0.0177928
910.535	0.0176695
910.613	0.0177985
910.692	0.0179105
910.770	0.0176418
910.848	0.0177689
910.926	0.0177997
911.004	0.0178696
911.082	0.0179353
911.160	0.0179988
911.238	0.0179885
911.317	0.0179949
911.395	0.0181855
911.473	0.0181000
911.551	0.0182654
911.629	0.0181996
911.707	0.0183414
911.785	0.0183342
911.863	0.0182763
911.942	0.0183615
912.020	0.0182077
912.098	0.0181853
912.176	0.0181548
912.254	0.0179696
912.332	0.0179774
912.410	0.0180490
912.488	0.0179675
912.567	0.0178652
912.645	0.0178092
912.723	0.0177514
912.801	0.0177702
912.879	0.0178165
912.957	0.0176344
913.035	0.0176586
913.113	0.0176201
913.192	0.0176750
913.270	0.0175613
913.348	0.0177074
913.426	0.0176299
913.504	0.0174840
913.582	0.0176316
913.660	0.0175346
913.738	0.0176560
913.817	0.0176860
913.895	0.0175946
913.973	0.0177023
914.051	0.0178123
914.129	0.0177530
914.207	0.0178618
914.285	0.0178914
914.363	0.0178445
914.442	0.0178370
914.520	0.0178863
914.598	0.0179651
914.676	0.0179840
914.754	0.0178585
914.832	0.0178539
914.910	0.0178797
914.988	0.0179465
915.067	0.0179247
915.145	0.0177982
915.223	0.0179262
915.301	0.0178665
915.379	0.0179398
915.457	0.0179429
915.535	0.0179224
915.613	0.0180624
915.692	0.0181350
915.770	0.0180658
915.848	0.0181026
915.926	0.0179942
916.004	0.0181676
916.082	0.0183076
916.160	0.0182137
916.238	0.0181580
916.317	0.0182243
916.395	0.0181385
916.473	0.0181860
916.551	0.0180962
916.629	0.0179776
916.707	0.0178474
916.785	0.0180674
916.863	0.0178600
916.942	0.0176849
917.020	0.0178217
917.098	0.0176920
917.176	0.0176708
917.254	0.0177655
917.332	0.0177553
917.410	0.0176192
917.488	0.0176655
917.567	0.0176960
917.645	0.0176315
917.723	0.0176001
917.801	0.0175247
917.879	0.0176057
917.957	0.0175415
918.035	0.0176223
918.113	0.0175430
918.192	0.0176714
918.270	0.0175943
918.348	0.0176477
918.426	0.0176598
918.504	0.0177670
918.582	0.0176229
918.660	0.0177146
918.738	0.0176591
918.817	0.0176538
918.895	0.0178355
918.973	0.0178706
919.051	0.0177910
919.129	0.0178373
919.207	0.0177791
919.285	0.0179371
919.363	0.0178960
919.442	0.0178043
919.520	0.0177853
919.598	0.0180653
919.676	0.0179580
919.754	0.0179946
919.832	0.0179787
919.910	0.0179867
