06/01/2022	21:38:27	Ver.	4.1	UNKNOWN
Optical Delay	599.988409	Delta X		0.078125	Sweeps	1	Scan Rate	0/0
Coordinates	Axis 1	NaN	Axis 2	NaN	Axis 3	NaN	Axis 4	NaN	Axis 5	NaN	Axis 6	0.000000
TX Power	0.000000	RX Power	0.000000

599.988	0.0173460
600.067	0.0173717
600.145	0.0172501
600.223	0.0172789
600.301	0.0172371
600.379	0.0174233
600.457	0.0173376
600.535	0.0171881
600.613	0.0172962
600.692	0.0173168
600.770	0.0172343
600.848	0.0172701
600.926	0.0172984
601.004	0.0173880
601.082	0.0173688
601.160	0.0172357
601.238	0.0173486
601.317	0.0173658
601.395	0.0174401
601.473	0.0173022
601.551	0.0173817
601.629	0.0172247
601.707	0.0173171
601.785	0.0171327
601.863	0.0174055
601.942	0.0173025
602.020	0.0173957
602.098	0.0172858
602.176	0.0172317
602.254	0.0174290
602.332	0.0172201
602.410	0.0173138
602.488	0.0173292
602.567	0.0174044
602.645	0.0173138
602.723	0.0172762
602.801	0.0171949
602.879	0.0172710
602.957	0.0172217
603.035	0.0173723
603.113	0.0173122
603.192	0.0173892
603.270	0.0173000
603.348	0.0173065
603.426	0.0172809
603.504	0.0173989
603.582	0.0172773
603.660	0.0172205
603.738	0.0172865
603.817	0.0173360
603.895	0.0172511
603.973	0.0172466
604.051	0.0173789
604.129	0.0173826
604.207	0.0173856
604.285	0.0174064
604.363	0.0173001
604.442	0.0172095
604.520	0.0174053
604.598	0.0173055
604.676	0.0172897
604.754	0.0173925
604.832	0.0172454
604.910	0.0173659
604.988	0.0172476
605.067	0.0172383
605.145	0.0172778
605.223	0.0172375
605.301	0.0173614
605.379	0.0172201
605.457	0.0174390
605.535	0.0174339
605.613	0.0174520
605.692	0.0173558
605.770	0.0173720
605.848	0.0173873
605.926	0.0173123
606.004	0.0173002
606.082	0.0173035
606.160	0.0172772
606.238	0.0173035
606.317	0.0174238
606.395	0.0173526
606.473	0.0172134
606.551	0.0173091
606.629	0.0173054
606.707	0.0174481
606.785	0.0172999
606.863	0.0171999
606.942	0.0173163
607.020	0.0174316
607.098	0.0173466
607.176	0.0173855
607.254	0.0173170
607.332	0.0172910
607.410	0.0174354
607.488	0.0173455
607.567	0.0173936
607.645	0.0173236
607.723	0.0173613
607.801	0.0173915
607.879	0.0174512
607.957	0.0173904
608.035	0.0173235
608.113	0.0173646
608.192	0.0172265
608.270	0.0172993
608.348	0.0173915
608.426	0.0173256
608.504	0.0172906
608.582	0.0175011
608.660	0.0174279
608.738	0.0172834
608.817	0.0173981
608.895	0.0173775
608.973	0.0173122
609.051	0.0172842
609.129	0.0174931
609.207	0.0173637
609.285	0.0174838
609.363	0.0172198
609.442	0.0172192
609.520	0.0174027
609.598	0.0172936
609.676	0.0174706
609.754	0.0172713
609.832	0.0172495
609.910	0.0172562
609.988	0.0171720
610.067	0.0173121
610.145	0.0174038
610.223	0.0171346
610.301	0.0172760
610.379	0.0173334
610.457	0.0174031
610.535	0.0173972
610.613	0.0172858
610.692	0.0172413
610.770	0.0172998
610.848	0.0173247
610.926	0.0173710
611.004	0.0174651
611.082	0.0174244
611.160	0.0173442
611.238	0.0173825
611.317	0.0172619
611.395	0.0174768
611.473	0.0173792
611.551	0.0174513
611.629	0.0172929
611.707	0.0172590
611.785	0.0173505
611.863	0.0174268
611.942	0.0174194
612.020	0.0174337
612.098	0.0172807
612.176	0.0172053
612.254	0.0174895
612.332	0.0173238
612.410	0.0172632
612.488	0.0175002
612.567	0.0174350
612.645	0.0175471
612.723	0.0173038
612.801	0.0172269
612.879	0.0173676
612.957	0.0172661
613.035	0.0173074
613.113	0.0173025
613.192	0.0172533
613.270	0.0173512
613.348	0.0174012
613.426	0.0173354
613.504	0.0172296
613.582	0.0172449
613.660	0.0173330
613.738	0.0172182
613.817	0.0172813
613.895	0.0171377
613.973	0.0172191
614.051	0.0172266
614.129	0.0172790
614.207	0.0172481
614.285	0.0173786
614.363	0.0174149
614.442	0.0173322
614.520	0.0173692
614.598	0.0174442
614.676	0.0174211
614.754	0.0173069
614.832	0.0173632
614.910	0.0173582
614.988	0.0174660
615.067	0.0173621
615.145	0.0172223
615.223	0.0174100
615.301	0.0174847
615.379	0.0173827
615.457	0.0173867
615.535	0.0172889
615.613	0.0173496
615.692	0.0174130
615.770	0.0172886
615.848	0.0172810
615.926	0.0173879
616.004	0.0172476
616.082	0.0172730
616.160	0.0172031
616.238	0.0172955
616.317	0.0173598
616.395	0.0172193
616.473	0.0173728
616.551	0.0173189
616.629	0.0172489
616.707	0.0171848
616.785	0.0172223
616.863	0.0172759
616.942	0.0172360
617.020	0.0171395
617.098	0.0172564
617.176	0.0171841
617.254	0.0172758
617.332	0.0172764
617.410	0.0172795
617.488	0.0172280
617.567	0.0172771
617.645	0.0172366
617.723	0.0173270
617.801	0.0172819
617.879	0.0172876
617.957	0.0173528
618.035	0.0173814
618.113	0.0172977
618.192	0.0173311
618.270	0.0173478
618.348	0.0173548
618.426	0.0174767
618.504	0.0174337
618.582	0.0173843
618.660	0.0174168
618.738	0.0174536
618.817	0.0174053
618.895	0.0174216
618.973	0.0173529
619.051	0.0173450
619.129	0.0175561
619.207	0.0174278
619.285	0.0173231
619.363	0.0174280
619.442	0.0174005
619.520	0.0174462
619.598	0.0174790
619.676	0.0174439
619.754	0.0173495
619.832	0.0173873
619.910	0.0173287
619.988	0.0173756
620.067	0.0173040
620.145	0.0172295
620.223	0.0171626
620.301	0.0172427
620.379	0.0172823
620.457	0.0172231
620.535	0.0172876
620.613	0.0171233
620.692	0.0171597
620.770	0.0172649
620.848	0.0171788
620.926	0.0169604
621.004	0.0172112
621.082	0.0172501
621.160	0.0171877
621.238	0.0172357
621.317	0.0173383
621.395	0.0172684
621.473	0.0172536
621.551	0.0172746
621.629	0.0173160
621.707	0.0173654
621.785	0.0173907
621.863	0.0173835
621.942	0.0174076
622.020	0.0175195
622.098	0.0174480
622.176	0.0174307
622.254	0.0175404
622.332	0.0173619
622.410	0.0174868
622.488	0.0174213
622.567	0.0176253
622.645	0.0174403
622.723	0.0174600
622.801	0.0174601
622.879	0.0175658
622.957	0.0174783
623.035	0.0174586
623.113	0.0174715
623.192	0.0175519
623.270	0.0173333
623.348	0.0173030
623.426	0.0174017
623.504	0.0173285
623.582	0.0174006
623.660	0.0173127
623.738	0.0174940
623.817	0.0174165
623.895	0.0173401
623.973	0.0173394
624.051	0.0173014
624.129	0.0172385
624.207	0.0172105
624.285	0.0172417
624.363	0.0171017
624.442	0.0173064
624.520	0.0172578
624.598	0.0171680
624.676	0.0174226
624.754	0.0172603
624.832	0.0173413
624.910	0.0173672
624.988	0.0173652
625.067	0.0172542
625.145	0.0172697
625.223	0.0173338
625.301	0.0172606
625.379	0.0173441
625.457	0.0174577
625.535	0.0172289
625.613	0.0173840
625.692	0.0173942
625.770	0.0173243
625.848	0.0174062
625.926	0.0174192
626.004	0.0174184
626.082	0.0174335
626.160	0.0174106
626.238	0.0172416
626.317	0.0173827
626.395	0.0173418
626.473	0.0173740
626.551	0.0173812
626.629	0.0174277
626.707	0.0173843
626.785	0.0173560
626.863	0.0173304
626.942	0.0172807
627.020	0.0174073
627.098	0.0174447
627.176	0.0173463
627.254	0.0172970
627.332	0.0173768
627.410	0.0173978
627.488	0.0173548
627.567	0.0173170
627.645	0.0173469
627.723	0.0172546
627.801	0.0174232
627.879	0.0173482
627.957	0.0173465
628.035	0.0173633
628.113	0.0172974
628.192	0.0173499
628.270	0.0173475
628.348	0.0171437
628.426	0.0171558
628.504	0.0173421
628.582	0.0173099
628.660	0.0172561
628.738	0.0173111
628.817	0.0174101
628.895	0.0174804
628.973	0.0173042
629.051	0.0173291
629.129	0.0173761
629.207	0.0173032
629.285	0.0172672
629.363	0.0173552
629.442	0.0173586
629.520	0.0174470
629.598	0.0173166
629.676	0.0173325
629.754	0.0171848
629.832	0.0171660
629.910	0.0174049
629.988	0.0175262
630.067	0.0174183
630.145	0.0173096
630.223	0.0174017
630.301	0.0171828
630.379	0.0173300
630.457	0.0172987
630.535	0.0174009
630.613	0.0174732
630.692	0.0174100
630.770	0.0174717
630.848	0.0172938
630.926	0.0173031
631.004	0.0173029
631.082	0.0172890
631.160	0.0172456
631.238	0.0172991
631.317	0.0173117
631.395	0.0173333
631.473	0.0173772
631.551	0.0172885
631.629	0.0173233
631.707	0.0173181
631.785	0.0174606
631.863	0.0173160
631.942	0.0173910
632.020	0.0172562
632.098	0.0172966
632.176	0.0175167
632.254	0.0173871
632.332	0.0172984
632.410	0.0175298
632.488	0.0173483
632.567	0.0172249
632.645	0.0173299
632.723	0.0173615
632.801	0.0173189
632.879	0.0173269
632.957	0.0173254
633.035	0.0172843
633.113	0.0173270
633.192	0.0173506
633.270	0.0173918
633.348	0.0174120
633.426	0.0174058
633.504	0.0172672
633.582	0.0173679
633.660	0.0173447
633.738	0.0173599
633.817	0.0172349
633.895	0.0173738
633.973	0.0173840
634.051	0.0172771
634.129	0.0172775
634.207	0.0173980
634.285	0.0172842
634.363	0.0173165
634.442	0.0173067
634.520	0.0173676
634.598	0.0173133
634.676	0.0173368
634.754	0.0173714
634.832	0.0173225
634.910	0.0171914
634.988	0.0171703
635.067	0.0172909
635.145	0.0173392
635.223	0.0172198
635.301	0.0172995
635.379	0.0172648
635.457	0.0174484
635.535	0.0174338
635.613	0.0172328
635.692	0.0171104
635.770	0.0173469
635.848	0.0173486
635.926	0.0174072
636.004	0.0172548
636.082	0.0172791
636.160	0.0173303
636.238	0.0172713
636.317	0.0174393
636.395	0.0172452
636.473	0.0172242
636.551	0.0173179
636.629	0.0173575
636.707	0.0171986
636.785	0.0173393
636.863	0.0174701
636.942	0.0173456
637.020	0.0172044
637.098	0.0173569
637.176	0.0174749
637.254	0.0173436
637.332	0.0173814
637.410	0.0173717
637.488	0.0173827
637.567	0.0173841
637.645	0.0173810
637.723	0.0173456
637.801	0.0174521
637.879	0.0172858
637.957	0.0173773
638.035	0.0173184
638.113	0.0174288
638.192	0.0173068
638.270	0.0173012
638.348	0.0172776
638.426	0.0174101
638.504	0.0174559
638.582	0.0173225
638.660	0.0173651
638.738	0.0174085
638.817	0.0173113
638.895	0.0174144
638.973	0.0174873
639.051	0.0172986
639.129	0.0173303
639.207	0.0172733
639.285	0.0173100
639.363	0.0172298
639.442	0.0173739
639.520	0.0174336
639.598	0.0172023
639.676	0.0173277
639.754	0.0173566
639.832	0.0174298
639.910	0.0173251
639.988	0.0173724
640.067	0.0174053
640.145	0.0172997
640.223	0.0172396
640.301	0.0173564
640.379	0.0173317
640.457	0.0173270
640.535	0.0173679
640.613	0.0173190
640.692	0.0174212
640.770	0.0171549
640.848	0.0173960
640.926	0.0174753
641.004	0.0172811
641.082	0.0173432
641.160	0.0171906
641.238	0.0173026
641.317	0.0173108
641.395	0.0172181
641.473	0.0173383
641.551	0.0171972
641.629	0.0173004
641.707	0.0173673
641.785	0.0172707
641.863	0.0172865
641.942	0.0172736
642.020	0.0172696
642.098	0.0173666
642.176	0.0172861
642.254	0.0174979
642.332	0.0173435
642.410	0.0172805
642.488	0.0172740
642.567	0.0171776
642.645	0.0174155
642.723	0.0173569
642.801	0.0173826
642.879	0.0173483
642.957	0.0172797
643.035	0.0174419
643.113	0.0173501
643.192	0.0173843
643.270	0.0172353
643.348	0.0172423
643.426	0.0173355
643.504	0.0173270
643.582	0.0173566
643.660	0.0173724
643.738	0.0172540
643.817	0.0173116
643.895	0.0173710
643.973	0.0175128
644.051	0.0173220
644.129	0.0173827
644.207	0.0173225
644.285	0.0173267
644.363	0.0174310
644.442	0.0173166
644.520	0.0173849
644.598	0.0172707
644.676	0.0172944
644.754	0.0173212
644.832	0.0173825
644.910	0.0173467
644.988	0.0174500
645.067	0.0173627
645.145	0.0172372
645.223	0.0173153
645.301	0.0174282
645.379	0.0173842
645.457	0.0173498
645.535	0.0173110
645.613	0.0173376
645.692	0.0173367
645.770	0.0172881
645.848	0.0173083
645.926	0.0173671
646.004	0.0172330
646.082	0.0173680
646.160	0.0173845
646.238	0.0174584
646.317	0.0173603
646.395	0.0173850
646.473	0.0172487
646.551	0.0173163
646.629	0.0172638
646.707	0.0174092
646.785	0.0172337
646.863	0.0173318
646.942	0.0174010
647.020	0.0173149
647.098	0.0172222
647.176	0.0172371
647.254	0.0171699
647.332	0.0173833
647.410	0.0173835
647.488	0.0172697
647.567	0.0173569
647.645	0.0173787
647.723	0.0172910
647.801	0.0173450
647.879	0.0172938
647.957	0.0173980
648.035	0.0173273
648.113	0.0172176
648.192	0.0172925
648.270	0.0175505
648.348	0.0173555
648.426	0.0173153
648.504	0.0172674
648.582	0.0172819
648.660	0.0172517
648.738	0.0173907
648.817	0.0173701
648.895	0.0173901
648.973	0.0172086
649.051	0.0171825
649.129	0.0173099
649.207	0.0174171
649.285	0.0173606
649.363	0.0173368
649.442	0.0172924
649.520	0.0172783
649.598	0.0174565
649.676	0.0172785
649.754	0.0174731
649.832	0.0172045
649.910	0.0173512
649.988	0.0173314
650.067	0.0173866
650.145	0.0173331
650.223	0.0172620
650.301	0.0173858
650.379	0.0173846
650.457	0.0171696
650.535	0.0172660
650.613	0.0173145
650.692	0.0172675
650.770	0.0173370
650.848	0.0174760
650.926	0.0173182
651.004	0.0172985
651.082	0.0173716
651.160	0.0172446
651.238	0.0172958
651.317	0.0173056
651.395	0.0173828
651.473	0.0172793
651.551	0.0173087
651.629	0.0172724
651.707	0.0173910
651.785	0.0173544
651.863	0.0172872
651.942	0.0171986
652.020	0.0172710
652.098	0.0172413
652.176	0.0172870
652.254	0.0173399
652.332	0.0174805
652.410	0.0171982
652.488	0.0171601
652.567	0.0172900
652.645	0.0173019
652.723	0.0174451
652.801	0.0172987
652.879	0.0172409
652.957	0.0172576
653.035	0.0174354
653.113	0.0172879
653.192	0.0173087
653.270	0.0173318
653.348	0.0172598
653.426	0.0173556
653.504	0.0173097
653.582	0.0171993
653.660	0.0172851
653.738	0.0173409
653.817	0.0173324
653.895	0.0172553
653.973	0.0172798
654.051	0.0173962
654.129	0.0173458
654.207	0.0173950
654.285	0.0173802
654.363	0.0173884
654.442	0.0172811
654.520	0.0172312
654.598	0.0173492
654.676	0.0174214
654.754	0.0171964
654.832	0.0172647
654.910	0.0171223
654.988	0.0171690
655.067	0.0173593
655.145	0.0172318
655.223	0.0172830
655.301	0.0173404
655.379	0.0172117
655.457	0.0173974
655.535	0.0172776
655.613	0.0171987
655.692	0.0174351
655.770	0.0174132
655.848	0.0172552
655.926	0.0173194
656.004	0.0172818
656.082	0.0172628
656.160	0.0172636
656.238	0.0173108
656.317	0.0171241
656.395	0.0174573
656.473	0.0172150
656.551	0.0171786
656.629	0.0172389
656.707	0.0173261
656.785	0.0173175
656.863	0.0173129
656.942	0.0171773
657.020	0.0173023
657.098	0.0173385
657.176	0.0174043
657.254	0.0172427
657.332	0.0173077
657.410	0.0171411
657.488	0.0171483
657.567	0.0173451
657.645	0.0174258
657.723	0.0173069
657.801	0.0173133
657.879	0.0173569
657.957	0.0170940
658.035	0.0172211
658.113	0.0172915
658.192	0.0173133
658.270	0.0174333
658.348	0.0173787
658.426	0.0173732
658.504	0.0173647
658.582	0.0172992
658.660	0.0172057
658.738	0.0172278
658.817	0.0172806
658.895	0.0172961
658.973	0.0173994
659.051	0.0174190
659.129	0.0173694
659.207	0.0173260
659.285	0.0172956
659.363	0.0173568
659.442	0.0172339
659.520	0.0172857
659.598	0.0174049
659.676	0.0172517
659.754	0.0172057
659.832	0.0174004
659.910	0.0174996
659.988	0.0173743
660.067	0.0174139
660.145	0.0172784
660.223	0.0175030
660.301	0.0174284
660.379	0.0173636
660.457	0.0173181
660.535	0.0172390
660.613	0.0173927
660.692	0.0174722
660.770	0.0173112
660.848	0.0172874
660.926	0.0173880
661.004	0.0173721
661.082	0.0173719
661.160	0.0172784
661.238	0.0174696
661.317	0.0174012
661.395	0.0172372
661.473	0.0173955
661.551	0.0172144
661.629	0.0174207
661.707	0.0173994
661.785	0.0174706
661.863	0.0174210
661.942	0.0172604
662.020	0.0173669
662.098	0.0173843
662.176	0.0173595
662.254	0.0174045
662.332	0.0174245
662.410	0.0173625
662.488	0.0173601
662.567	0.0173460
662.645	0.0173089
662.723	0.0174659
662.801	0.0174072
662.879	0.0173177
662.957	0.0173093
663.035	0.0174909
663.113	0.0173621
663.192	0.0173117
663.270	0.0172843
663.348	0.0174264
663.426	0.0173050
663.504	0.0173086
663.582	0.0173349
663.660	0.0173448
663.738	0.0172887
663.817	0.0173339
663.895	0.0174433
663.973	0.0174414
664.051	0.0172916
664.129	0.0173946
664.207	0.0172682
664.285	0.0174715
664.363	0.0174815
664.442	0.0173202
664.520	0.0173498
664.598	0.0173941
664.676	0.0174203
664.754	0.0173871
664.832	0.0172787
664.910	0.0173650
664.988	0.0173559
665.067	0.0174192
665.145	0.0174200
665.223	0.0172601
665.301	0.0173762
665.379	0.0174078
665.457	0.0173849
665.535	0.0172887
665.613	0.0172983
665.692	0.0173331
665.770	0.0173902
665.848	0.0173835
665.926	0.0173183
666.004	0.0172903
666.082	0.0172968
666.160	0.0174043
666.238	0.0173940
666.317	0.0172695
666.395	0.0173569
666.473	0.0172092
666.551	0.0173828
666.629	0.0172743
666.707	0.0174734
666.785	0.0173184
666.863	0.0173441
666.942	0.0174014
667.020	0.0173601
667.098	0.0172958
667.176	0.0172956
667.254	0.0174209
667.332	0.0174710
667.410	0.0173691
667.488	0.0172539
667.567	0.0173318
667.645	0.0173963
667.723	0.0173121
667.801	0.0171645
667.879	0.0172342
667.957	0.0171600
668.035	0.0171629
668.113	0.0172548
668.192	0.0172160
668.270	0.0173454
668.348	0.0172561
668.426	0.0174121
668.504	0.0173096
668.582	0.0171234
668.660	0.0173212
668.738	0.0174941
668.817	0.0172015
668.895	0.0173096
668.973	0.0173416
669.051	0.0173203
669.129	0.0173848
669.207	0.0173851
669.285	0.0173539
669.363	0.0172305
669.442	0.0174152
669.520	0.0173534
669.598	0.0173406
669.676	0.0172691
669.754	0.0173622
669.832	0.0174638
669.910	0.0172221
669.988	0.0172898
670.067	0.0174207
670.145	0.0173167
670.223	0.0174365
670.301	0.0173328
670.379	0.0174566
670.457	0.0174202
670.535	0.0172939
670.613	0.0172757
670.692	0.0173957
670.770	0.0173474
670.848	0.0173730
670.926	0.0173789
671.004	0.0172459
671.082	0.0172745
671.160	0.0172264
671.238	0.0174341
671.317	0.0172132
671.395	0.0173377
671.473	0.0173677
671.551	0.0174487
671.629	0.0172279
671.707	0.0172910
671.785	0.0173500
671.863	0.0173455
671.942	0.0173103
672.020	0.0174048
672.098	0.0173918
672.176	0.0173863
672.254	0.0173830
672.332	0.0173705
672.410	0.0173452
672.488	0.0172739
672.567	0.0173544
672.645	0.0172907
672.723	0.0173792
672.801	0.0173691
672.879	0.0173743
672.957	0.0173370
673.035	0.0174059
673.113	0.0172904
673.192	0.0173499
673.270	0.0173067
673.348	0.0173828
673.426	0.0173940
673.504	0.0173736
673.582	0.0173495
673.660	0.0173215
673.738	0.0173363
673.817	0.0172087
673.895	0.0173322
673.973	0.0172591
674.051	0.0174226
674.129	0.0173272
674.207	0.0173126
674.285	0.0174844
674.363	0.0172980
674.442	0.0172158
674.520	0.0173528
674.598	0.0173130
674.676	0.0172401
674.754	0.0173783
674.832	0.0173734
674.910	0.0173201
674.988	0.0173355
675.067	0.0172286
675.145	0.0172838
675.223	0.0172401
675.301	0.0172772
675.379	0.0173334
675.457	0.0173225
675.535	0.0173495
675.613	0.0173361
675.692	0.0173366
675.770	0.0173763
675.848	0.0173892
675.926	0.0173447
676.004	0.0172929
676.082	0.0173512
676.160	0.0173252
676.238	0.0172759
676.317	0.0174215
676.395	0.0173757
676.473	0.0174282
676.551	0.0172191
676.629	0.0172421
676.707	0.0172485
676.785	0.0172968
676.863	0.0172629
676.942	0.0174130
677.020	0.0172083
677.098	0.0172449
677.176	0.0172926
677.254	0.0174267
677.332	0.0173050
677.410	0.0172810
677.488	0.0172826
677.567	0.0173198
677.645	0.0172594
677.723	0.0172541
677.801	0.0173695
677.879	0.0173380
677.957	0.0172697
678.035	0.0172412
678.113	0.0173564
678.192	0.0173219
678.270	0.0171636
678.348	0.0174117
678.426	0.0173983
678.504	0.0172806
678.582	0.0172258
678.660	0.0173743
678.738	0.0173586
678.817	0.0173135
678.895	0.0172881
678.973	0.0171991
679.051	0.0172494
679.129	0.0171592
679.207	0.0172041
679.285	0.0171959
679.363	0.0172922
679.442	0.0171762
679.520	0.0172663
679.598	0.0173382
679.676	0.0173410
679.754	0.0173132
679.832	0.0173289
679.910	0.0174101
679.988	0.0174570
680.067	0.0174744
680.145	0.0175732
680.223	0.0175607
680.301	0.0173913
680.379	0.0175158
680.457	0.0175708
680.535	0.0173763
680.613	0.0173630
680.692	0.0171743
680.770	0.0172683
680.848	0.0170606
680.926	0.0170590
681.004	0.0171336
681.082	0.0170405
681.160	0.0170383
681.238	0.0170045
681.317	0.0170520
681.395	0.0170560
681.473	0.0170434
681.551	0.0171623
681.629	0.0172690
681.707	0.0172715
681.785	0.0172522
681.863	0.0174409
681.942	0.0173461
682.020	0.0174128
682.098	0.0175269
682.176	0.0175673
682.254	0.0173940
682.332	0.0174984
682.410	0.0175331
682.488	0.0173808
682.567	0.0173603
682.645	0.0173063
682.723	0.0174207
682.801	0.0174000
682.879	0.0173716
682.957	0.0174818
683.035	0.0173981
683.113	0.0171403
683.192	0.0173908
683.270	0.0175176
683.348	0.0173791
683.426	0.0173388
683.504	0.0174291
683.582	0.0175111
683.660	0.0174989
683.738	0.0175235
683.817	0.0172918
683.895	0.0173715
683.973	0.0172990
684.051	0.0173234
684.129	0.0173021
684.207	0.0171453
684.285	0.0170360
684.363	0.0170238
684.442	0.0170296
684.520	0.0169312
684.598	0.0169000
684.676	0.0169624
684.754	0.0170628
684.832	0.0172114
684.910	0.0170821
684.988	0.0173531
685.067	0.0174370
685.145	0.0174812
685.223	0.0175042
685.301	0.0175452
685.379	0.0175358
685.457	0.0176283
685.535	0.0176281
685.613	0.0175613
685.692	0.0174132
685.770	0.0174678
685.848	0.0174757
685.926	0.0174841
686.004	0.0175536
686.082	0.0175180
686.160	0.0175938
686.238	0.0176115
686.317	0.0176401
686.395	0.0176332
686.473	0.0175499
686.551	0.0174940
686.629	0.0174187
686.707	0.0173289
686.785	0.0170747
686.863	0.0168791
686.942	0.0168902
687.020	0.0167633
687.098	0.0168639
687.176	0.0167761
687.254	0.0168873
687.332	0.0168468
687.410	0.0170774
687.488	0.0173217
687.567	0.0174882
687.645	0.0175919
687.723	0.0177659
687.801	0.0177023
687.879	0.0177392
687.957	0.0178130
688.035	0.0177534
688.113	0.0178886
688.192	0.0179251
688.270	0.0179133
688.348	0.0177993
688.426	0.0179089
688.504	0.0180311
688.582	0.0181238
688.660	0.0181696
688.738	0.0182013
688.817	0.0182151
688.895	0.0181786
688.973	0.0180159
689.051	0.0177753
689.129	0.0175493
689.207	0.0170810
689.285	0.0168146
689.363	0.0164852
689.442	0.0161810
689.520	0.0159453
689.598	0.0155633
689.676	0.0153317
689.754	0.0151122
689.832	0.0151115
689.910	0.0150364
689.988	0.0148625
690.067	0.0148955
690.145	0.0148606
690.223	0.0151050
690.301	0.0150989
690.379	0.0154709
690.457	0.0156944
690.535	0.0162180
690.613	0.0166883
690.692	0.0171427
690.770	0.0177523
690.848	0.0185100
690.926	0.0194861
691.004	0.0202076
691.082	0.0211160
691.160	0.0221284
691.238	0.0230060
691.317	0.0238044
691.395	0.0246738
691.473	0.0250042
691.551	0.0251403
691.629	0.0252202
691.707	0.0248589
691.785	0.0243058
691.863	0.0232365
691.942	0.0219499
692.020	0.0204735
692.098	0.0188258
692.176	0.0171336
692.254	0.0153801
692.332	0.0134887
692.410	0.0116784
692.488	0.0102547
692.567	0.00885094
692.645	0.00761215
692.723	0.00670258
692.801	0.00600510
692.879	0.00554008
692.957	0.00544678
693.035	0.00557983
693.113	0.00573456
693.192	0.00641029
693.270	0.00714943
693.348	0.00821129
693.426	0.00955345
693.504	0.0111753
693.582	0.0130984
693.660	0.0150925
693.738	0.0170425
693.817	0.0191344
693.895	0.0211749
693.973	0.0231194
694.051	0.0248909
694.129	0.0264703
694.207	0.0278375
694.285	0.0288705
694.363	0.0296306
694.442	0.0305212
694.520	0.0307833
694.598	0.0310066
694.676	0.0311378
694.754	0.0308347
694.832	0.0306444
694.910	0.0302276
694.988	0.0297023
695.067	0.0290227
695.145	0.0281615
695.223	0.0271774
695.301	0.0258320
695.379	0.0243929
695.457	0.0223728
695.535	0.0200741
695.613	0.0176303
695.692	0.0147756
695.770	0.0120844
695.848	0.00929787
695.926	0.00643471
696.004	0.00383789
696.082	0.00141068
696.160	-0.000628967
696.238	-0.00216469
696.317	-0.00352486
696.395	-0.00424133
696.473	-0.00448219
696.551	-0.00436424
696.629	-0.00377327
696.707	-0.00279037
696.785	-0.00148384
696.863	0.000124741
696.942	0.00230881
697.020	0.00469482
697.098	0.00719589
697.176	0.0100623
697.254	0.0131538
697.332	0.0163984
697.410	0.0196576
697.488	0.0231876
697.567	0.0265366
697.645	0.0294924
697.723	0.0325322
697.801	0.0349474
697.879	0.0368914
697.957	0.0385871
698.035	0.0398649
698.113	0.0405576
698.192	0.0408926
698.270	0.0407036
698.348	0.0404557
698.426	0.0398992
698.504	0.0389164
698.582	0.0378535
698.660	0.0365926
698.738	0.0349836
698.817	0.0332773
698.895	0.0313541
698.973	0.0290000
699.051	0.0263821
699.129	0.0235652
699.207	0.0203436
699.285	0.0170561
699.363	0.0133459
699.442	0.00951561
699.520	0.00583183
699.598	0.00201866
699.676	-0.00138794
699.754	-0.00466515
699.832	-0.00745529
699.910	-0.00984169
699.988	-0.0117182
700.067	-0.0129137
700.145	-0.0135034
700.223	-0.0136327
700.301	-0.0130610
700.379	-0.0116173
700.457	-0.00975143
700.535	-0.00726471
700.613	-0.00429466
700.692	-0.000929031
700.770	0.00307930
700.848	0.00716309
700.926	0.0114989
701.004	0.0161662
701.082	0.0205814
701.160	0.0250893
701.238	0.0290028
701.317	0.0327886
701.395	0.0360670
701.473	0.0388932
701.551	0.0410299
701.629	0.0425060
701.707	0.0436507
701.785	0.0441781
701.863	0.0442310
701.942	0.0434340
702.020	0.0425554
702.098	0.0413457
702.176	0.0397784
702.254	0.0378395
702.332	0.0357652
702.410	0.0335168
702.488	0.0310278
702.567	0.0285480
702.645	0.0257117
702.723	0.0230217
702.801	0.0203858
702.879	0.0177245
702.957	0.0150887
703.035	0.0126916
703.113	0.0103772
703.192	0.00829544
703.270	0.00633621
703.348	0.00475365
703.426	0.00341469
703.504	0.00221886
703.582	0.00126343
703.660	0.000571747
703.738	-0.0000207520
703.817	-0.000394058
703.895	-0.000294342
703.973	-0.000251312
704.051	0.0000922394
704.129	0.000899734
704.207	0.00184380
704.285	0.00305550
704.363	0.00443733
704.442	0.00617859
704.520	0.00806404
704.598	0.00997383
704.676	0.0119236
704.754	0.0141703
704.832	0.0161710
704.910	0.0178175
704.988	0.0197395
705.067	0.0212634
705.145	0.0226685
705.223	0.0237175
705.301	0.0246393
705.379	0.0253417
705.457	0.0258892
705.535	0.0263425
705.613	0.0264205
705.692	0.0264114
705.770	0.0265527
705.848	0.0264264
705.926	0.0262825
706.004	0.0261530
706.082	0.0258354
706.160	0.0256902
706.238	0.0253278
706.317	0.0248032
706.395	0.0243404
706.473	0.0239855
706.551	0.0232955
706.629	0.0223137
706.707	0.0215961
706.785	0.0207757
706.863	0.0199660
706.942	0.0188398
707.020	0.0176989
707.098	0.0168085
707.176	0.0157789
707.254	0.0148927
707.332	0.0140338
707.410	0.0131323
707.488	0.0127898
707.567	0.0121231
707.645	0.0117043
707.723	0.0114774
707.801	0.0113458
707.879	0.0116646
707.957	0.0118005
708.035	0.0122343
708.113	0.0129277
708.192	0.0135986
708.270	0.0143889
708.348	0.0153684
708.426	0.0162194
708.504	0.0169855
708.582	0.0177444
708.660	0.0184068
708.738	0.0188652
708.817	0.0193056
708.895	0.0194297
708.973	0.0194492
709.051	0.0193070
709.129	0.0190452
709.207	0.0186812
709.285	0.0183414
709.363	0.0178654
709.442	0.0174149
709.520	0.0167775
709.598	0.0160216
709.676	0.0154884
709.754	0.0150917
709.832	0.0145886
709.910	0.0141849
709.988	0.0138929
710.067	0.0138866
710.145	0.0138046
710.223	0.0138462
710.301	0.0141020
710.379	0.0144006
710.457	0.0148051
710.535	0.0151203
710.613	0.0154398
710.692	0.0159064
710.770	0.0161755
710.848	0.0166912
710.926	0.0169966
711.004	0.0171856
711.082	0.0173774
711.160	0.0176131
711.238	0.0176894
711.317	0.0178548
711.395	0.0180345
711.473	0.0181336
711.551	0.0184028
711.629	0.0185662
711.707	0.0189252
711.785	0.0190472
711.863	0.0195335
711.942	0.0199294
712.020	0.0203860
712.098	0.0206682
712.176	0.0209859
712.254	0.0211988
712.332	0.0215820
712.410	0.0217817
712.488	0.0218680
712.567	0.0219392
712.645	0.0220028
712.723	0.0219021
712.801	0.0217722
712.879	0.0214124
712.957	0.0210176
713.035	0.0205069
713.113	0.0200784
713.192	0.0193860
713.270	0.0188733
713.348	0.0181693
713.426	0.0176107
713.504	0.0170724
713.582	0.0164268
713.660	0.0159416
713.738	0.0155240
713.817	0.0151751
713.895	0.0150177
713.973	0.0145962
714.051	0.0143407
714.129	0.0142049
714.207	0.0139909
714.285	0.0140052
714.363	0.0139007
714.442	0.0136759
714.520	0.0136210
714.598	0.0135693
714.676	0.0137036
714.754	0.0136286
714.832	0.0136502
714.910	0.0137029
714.988	0.0136858
715.067	0.0139243
715.145	0.0140784
715.223	0.0143842
715.301	0.0147034
715.379	0.0152012
715.457	0.0154848
715.535	0.0160153
715.613	0.0163979
715.692	0.0167200
715.770	0.0171860
715.848	0.0174490
715.926	0.0178954
716.004	0.0181932
716.082	0.0185017
716.160	0.0187388
716.238	0.0188955
716.317	0.0190197
716.395	0.0191415
716.473	0.0192218
716.551	0.0192113
716.629	0.0193631
716.707	0.0193573
716.785	0.0194240
716.863	0.0194181
716.942	0.0194807
717.020	0.0193892
717.098	0.0193636
717.176	0.0193613
717.254	0.0194357
717.332	0.0194345
717.410	0.0193938
717.488	0.0192757
717.567	0.0194514
717.645	0.0192033
717.723	0.0191003
717.801	0.0190723
717.879	0.0188692
717.957	0.0185297
718.035	0.0182539
718.113	0.0181383
718.192	0.0177610
718.270	0.0173569
718.348	0.0170132
718.426	0.0168183
718.504	0.0165995
718.582	0.0162840
718.660	0.0160844
718.738	0.0161517
718.817	0.0161787
718.895	0.0162215
718.973	0.0164539
719.051	0.0165533
719.129	0.0167607
719.207	0.0170665
719.285	0.0173074
719.363	0.0175365
719.442	0.0176588
719.520	0.0177880
719.598	0.0179480
719.676	0.0180149
719.754	0.0180331
719.832	0.0179017
719.910	0.0175552
719.988	0.0173540
720.067	0.0172418
720.145	0.0166372
720.223	0.0162361
720.301	0.0160403
720.379	0.0155895
720.457	0.0152544
720.535	0.0150595
720.613	0.0150244
720.692	0.0148891
720.770	0.0149516
720.848	0.0151435
720.926	0.0152200
721.004	0.0155286
721.082	0.0157474
721.160	0.0161845
721.238	0.0165908
721.317	0.0168091
721.395	0.0170005
721.473	0.0171038
721.551	0.0171929
721.629	0.0172441
721.707	0.0174593
721.785	0.0172253
721.863	0.0171230
721.942	0.0171894
722.020	0.0172191
722.098	0.0170510
722.176	0.0169100
722.254	0.0171459
722.332	0.0171523
722.410	0.0172511
722.488	0.0173255
722.567	0.0174793
722.645	0.0177460
722.723	0.0179461
722.801	0.0179926
722.879	0.0183282
722.957	0.0185542
723.035	0.0187108
723.113	0.0186769
723.192	0.0189214
723.270	0.0191492
723.348	0.0190662
723.426	0.0191232
723.504	0.0191184
723.582	0.0190852
723.660	0.0189861
723.738	0.0189115
723.817	0.0186850
723.895	0.0185657
723.973	0.0183436
724.051	0.0179947
724.129	0.0179038
724.207	0.0177777
724.285	0.0175489
724.363	0.0174601
724.442	0.0174554
724.520	0.0173180
724.598	0.0172343
724.676	0.0174876
724.754	0.0173601
724.832	0.0173833
724.910	0.0173641
724.988	0.0174818
725.067	0.0175703
725.145	0.0175037
725.223	0.0174048
725.301	0.0173833
725.379	0.0173509
725.457	0.0172999
725.535	0.0170108
725.613	0.0168356
725.692	0.0166840
725.770	0.0165611
725.848	0.0165056
725.926	0.0164046
726.004	0.0161370
726.082	0.0159722
726.160	0.0159921
726.238	0.0158145
726.317	0.0157813
726.395	0.0158170
726.473	0.0157987
726.551	0.0157849
726.629	0.0158592
726.707	0.0160246
726.785	0.0162082
726.863	0.0162854
726.942	0.0164367
727.020	0.0165577
727.098	0.0167844
727.176	0.0170290
727.254	0.0172099
727.332	0.0174512
727.410	0.0175858
727.488	0.0177067
727.567	0.0179801
727.645	0.0180077
727.723	0.0179915
727.801	0.0181844
727.879	0.0180769
727.957	0.0180241
728.035	0.0180608
728.113	0.0180198
728.192	0.0178792
728.270	0.0179099
728.348	0.0178091
728.426	0.0177824
728.504	0.0176450
728.582	0.0176765
728.660	0.0177233
728.738	0.0176404
728.817	0.0176821
728.895	0.0177016
728.973	0.0177791
729.051	0.0178474
729.129	0.0177528
729.207	0.0176977
729.285	0.0176360
729.363	0.0174866
729.442	0.0176849
729.520	0.0174625
729.598	0.0171918
729.676	0.0171170
729.754	0.0170107
729.832	0.0169760
729.910	0.0168649
729.988	0.0166775
730.067	0.0166536
730.145	0.0165604
730.223	0.0165939
730.301	0.0165408
730.379	0.0167319
730.457	0.0167065
730.535	0.0166602
730.613	0.0169564
730.692	0.0170584
730.770	0.0172318
730.848	0.0175272
730.926	0.0175262
731.004	0.0177576
731.082	0.0180485
731.160	0.0182103
731.238	0.0182705
731.317	0.0183281
731.395	0.0182745
731.473	0.0182491
731.551	0.0181914
731.629	0.0183200
731.707	0.0183305
731.785	0.0180702
731.863	0.0179174
731.942	0.0177189
732.020	0.0176651
732.098	0.0174030
732.176	0.0173188
732.254	0.0170413
732.332	0.0170366
732.410	0.0167628
732.488	0.0167892
732.567	0.0165811
732.645	0.0164140
732.723	0.0165051
732.801	0.0165825
732.879	0.0165600
732.957	0.0166541
733.035	0.0167222
733.113	0.0167882
733.192	0.0167791
733.270	0.0169455
733.348	0.0170303
733.426	0.0170961
733.504	0.0171455
733.582	0.0169971
733.660	0.0168470
733.738	0.0167958
733.817	0.0168582
733.895	0.0168465
733.973	0.0168148
734.051	0.0167142
734.129	0.0165872
734.207	0.0166628
734.285	0.0167331
734.363	0.0167664
734.442	0.0169022
734.520	0.0169612
734.598	0.0167743
734.676	0.0170341
734.754	0.0170640
734.832	0.0170773
734.910	0.0169960
734.988	0.0173293
735.067	0.0172845
735.145	0.0172488
735.223	0.0175475
735.301	0.0177168
735.379	0.0177847
735.457	0.0178902
735.535	0.0180543
735.613	0.0181232
735.692	0.0180457
735.770	0.0181430
735.848	0.0182962
735.926	0.0181181
736.004	0.0182342
736.082	0.0182288
736.160	0.0180257
736.238	0.0180099
736.317	0.0177928
736.395	0.0175220
736.473	0.0175820
736.551	0.0176107
736.629	0.0173593
736.707	0.0172570
736.785	0.0170541
736.863	0.0170311
736.942	0.0170828
737.020	0.0169975
737.098	0.0170397
737.176	0.0171296
737.254	0.0171027
737.332	0.0172568
737.410	0.0171193
737.488	0.0172240
737.567	0.0173132
737.645	0.0172927
737.723	0.0174941
737.801	0.0175146
737.879	0.0173994
737.957	0.0175026
738.035	0.0174559
738.113	0.0173363
738.192	0.0173844
738.270	0.0173003
738.348	0.0172588
738.426	0.0170866
738.504	0.0169259
738.582	0.0169157
738.660	0.0167413
738.738	0.0166306
738.817	0.0165752
738.895	0.0163982
738.973	0.0162488
739.051	0.0163412
739.129	0.0163116
739.207	0.0165730
739.285	0.0166063
739.363	0.0166825
739.442	0.0168894
739.520	0.0171410
739.598	0.0173949
739.676	0.0175941
739.754	0.0179461
739.832	0.0180257
739.910	0.0182149
739.988	0.0183546
740.067	0.0185527
740.145	0.0185416
740.223	0.0183989
740.301	0.0183674
740.379	0.0183800
740.457	0.0180890
740.535	0.0179501
740.613	0.0176994
740.692	0.0174490
740.770	0.0173327
740.848	0.0171073
740.926	0.0168629
741.004	0.0166728
741.082	0.0165803
741.160	0.0166695
741.238	0.0165668
741.317	0.0166261
741.395	0.0166753
741.473	0.0168575
741.551	0.0166391
741.629	0.0169592
741.707	0.0170602
741.785	0.0171107
741.863	0.0171338
741.942	0.0171538
742.020	0.0172739
742.098	0.0173177
742.176	0.0174168
742.254	0.0173273
742.332	0.0172339
742.410	0.0172837
742.488	0.0171879
742.567	0.0170803
742.645	0.0169412
742.723	0.0169306
742.801	0.0168155
742.879	0.0168327
742.957	0.0168476
743.035	0.0167858
743.113	0.0167846
743.192	0.0168193
743.270	0.0168552
743.348	0.0169805
743.426	0.0173243
743.504	0.0173204
743.582	0.0175534
743.660	0.0176366
743.738	0.0179132
743.817	0.0181106
743.895	0.0181339
743.973	0.0181092
744.051	0.0182063
744.129	0.0181192
744.207	0.0183820
744.285	0.0181940
744.363	0.0181703
744.442	0.0180080
744.520	0.0179721
744.598	0.0180038
744.676	0.0177760
744.754	0.0177553
744.832	0.0176002
744.910	0.0173361
744.988	0.0173414
745.067	0.0173497
745.145	0.0171494
745.223	0.0170206
745.301	0.0169804
745.379	0.0170041
745.457	0.0168586
745.535	0.0168665
745.613	0.0167039
745.692	0.0167024
745.770	0.0167976
745.848	0.0166974
745.926	0.0166563
746.004	0.0167838
746.082	0.0168797
746.160	0.0168745
746.238	0.0169084
746.317	0.0170068
746.395	0.0170042
746.473	0.0171069
746.551	0.0172715
746.629	0.0171638
746.707	0.0173344
746.785	0.0174903
746.863	0.0174865
746.942	0.0175518
747.020	0.0175046
747.098	0.0175888
747.176	0.0176545
747.254	0.0175356
747.332	0.0177464
747.410	0.0177533
747.488	0.0176240
747.567	0.0174426
747.645	0.0176209
747.723	0.0175945
747.801	0.0174189
747.879	0.0172878
747.957	0.0173048
748.035	0.0171846
748.113	0.0172034
748.192	0.0171648
748.270	0.0173749
748.348	0.0172243
748.426	0.0172751
748.504	0.0172073
748.582	0.0172495
748.660	0.0173357
748.738	0.0172857
748.817	0.0172334
748.895	0.0172845
748.973	0.0172493
749.051	0.0172872
749.129	0.0171322
749.207	0.0171510
749.285	0.0170266
749.363	0.0169146
749.442	0.0169549
749.520	0.0166963
749.598	0.0167422
749.676	0.0167292
749.754	0.0166898
749.832	0.0165768
749.910	0.0166933
749.988	0.0168011
750.067	0.0167780
750.145	0.0168078
750.223	0.0170341
750.301	0.0172726
750.379	0.0174501
750.457	0.0175906
750.535	0.0178642
750.613	0.0180657
750.692	0.0181532
750.770	0.0183286
750.848	0.0185080
750.926	0.0185328
751.004	0.0184891
751.082	0.0184420
751.160	0.0182396
751.238	0.0180929
751.317	0.0180540
751.395	0.0178981
751.473	0.0178921
751.551	0.0175838
751.629	0.0174536
751.707	0.0173415
751.785	0.0171309
751.863	0.0172560
751.942	0.0171368
752.020	0.0170451
752.098	0.0169154
752.176	0.0170111
752.254	0.0170999
752.332	0.0170306
752.410	0.0171399
752.488	0.0170979
752.567	0.0173133
752.645	0.0172472
752.723	0.0172001
752.801	0.0172969
752.879	0.0172194
752.957	0.0172015
753.035	0.0171869
753.113	0.0170397
753.192	0.0172034
753.270	0.0171290
753.348	0.0173451
753.426	0.0171988
753.504	0.0173556
753.582	0.0173366
753.660	0.0174056
753.738	0.0174710
753.817	0.0175336
753.895	0.0175610
753.973	0.0176203
754.051	0.0177635
754.129	0.0177794
754.207	0.0178335
754.285	0.0178052
754.363	0.0176833
754.442	0.0177156
754.520	0.0176233
754.598	0.0176130
754.676	0.0175079
754.754	0.0175681
754.832	0.0174635
754.910	0.0172523
754.988	0.0171883
755.067	0.0173206
755.145	0.0171667
755.223	0.0170619
755.301	0.0171156
755.379	0.0170621
755.457	0.0170338
755.535	0.0169566
755.613	0.0170523
755.692	0.0170187
755.770	0.0169305
755.848	0.0169997
755.926	0.0169267
756.004	0.0170084
756.082	0.0168721
756.160	0.0166114
756.238	0.0166895
756.317	0.0166024
756.395	0.0166455
756.473	0.0166685
756.551	0.0166428
756.629	0.0164118
756.707	0.0166072
756.785	0.0166352
756.863	0.0167815
756.942	0.0168906
757.020	0.0169065
757.098	0.0170942
757.176	0.0171609
757.254	0.0171613
757.332	0.0173701
757.410	0.0173636
757.488	0.0175368
757.567	0.0177382
757.645	0.0176793
757.723	0.0178142
757.801	0.0178494
757.879	0.0176936
757.957	0.0177551
758.035	0.0178655
758.113	0.0178687
758.192	0.0177405
758.270	0.0176909
758.348	0.0178416
758.426	0.0178875
758.504	0.0177364
758.582	0.0176742
758.660	0.0177515
758.738	0.0176855
758.817	0.0177908
758.895	0.0176955
758.973	0.0179430
759.051	0.0177729
759.129	0.0176900
759.207	0.0178519
759.285	0.0177831
759.363	0.0176585
759.442	0.0175536
759.520	0.0173327
759.598	0.0173977
759.676	0.0172905
759.754	0.0172369
759.832	0.0171194
759.910	0.0170163
759.988	0.0169214
760.067	0.0168074
760.145	0.0167513
760.223	0.0167873
760.301	0.0168330
760.379	0.0169324
760.457	0.0168455
760.535	0.0169350
760.613	0.0170686
760.692	0.0170746
760.770	0.0172106
760.848	0.0172105
760.926	0.0171840
761.004	0.0172126
761.082	0.0174081
761.160	0.0172851
761.238	0.0173080
761.317	0.0173348
761.395	0.0174056
761.473	0.0171478
761.551	0.0170383
761.629	0.0171696
761.707	0.0171094
761.785	0.0171011
761.863	0.0169965
761.942	0.0167856
762.020	0.0168118
762.098	0.0168690
762.176	0.0169028
762.254	0.0169483
762.332	0.0170609
762.410	0.0169343
762.488	0.0170383
762.567	0.0169605
762.645	0.0172551
762.723	0.0172524
762.801	0.0173291
762.879	0.0174058
762.957	0.0174092
763.035	0.0174709
763.113	0.0175966
763.192	0.0174041
763.270	0.0174937
763.348	0.0175325
763.426	0.0174422
763.504	0.0174615
763.582	0.0174227
763.660	0.0172633
763.738	0.0174302
763.817	0.0171940
763.895	0.0171402
763.973	0.0171532
764.051	0.0172556
764.129	0.0171879
764.207	0.0169662
764.285	0.0169142
764.363	0.0168212
764.442	0.0168221
764.520	0.0168884
764.598	0.0169353
764.676	0.0169810
764.754	0.0170115
764.832	0.0168781
764.910	0.0170349
764.988	0.0169639
765.067	0.0171874
765.145	0.0171367
765.223	0.0172569
765.301	0.0174509
765.379	0.0175782
765.457	0.0175558
765.535	0.0176309
765.613	0.0176656
765.692	0.0178594
765.770	0.0176960
765.848	0.0178455
765.926	0.0177466
766.004	0.0176060
766.082	0.0176818
766.160	0.0176619
766.238	0.0176221
766.317	0.0176124
766.395	0.0175556
766.473	0.0173808
766.551	0.0174157
766.629	0.0174743
766.707	0.0174019
766.785	0.0173933
766.863	0.0174623
766.942	0.0173280
767.020	0.0173515
767.098	0.0174284
767.176	0.0174708
767.254	0.0174297
767.332	0.0175018
767.410	0.0174905
767.488	0.0175620
767.567	0.0176511
767.645	0.0177071
767.723	0.0175410
767.801	0.0176404
767.879	0.0177106
767.957	0.0176553
768.035	0.0176607
768.113	0.0175159
768.192	0.0174870
768.270	0.0175036
768.348	0.0174090
768.426	0.0170671
768.504	0.0171563
768.582	0.0169884
768.660	0.0168720
768.738	0.0170102
768.817	0.0167579
768.895	0.0167254
768.973	0.0167577
769.051	0.0168323
769.129	0.0167453
769.207	0.0167984
769.285	0.0169439
769.363	0.0168902
769.442	0.0170186
769.520	0.0169225
769.598	0.0171323
769.676	0.0173015
769.754	0.0170863
769.832	0.0171184
769.910	0.0172657
769.988	0.0171174
770.067	0.0171793
770.145	0.0172241
770.223	0.0172919
770.301	0.0173822
770.379	0.0170934
770.457	0.0171811
770.535	0.0173358
770.613	0.0172012
770.692	0.0173445
770.770	0.0172864
770.848	0.0172090
770.926	0.0172617
771.004	0.0172360
771.082	0.0171618
771.160	0.0171159
771.238	0.0173152
771.317	0.0171912
771.395	0.0170804
771.473	0.0173034
771.551	0.0172044
771.629	0.0172807
771.707	0.0173262
771.785	0.0172508
771.863	0.0172686
771.942	0.0172990
772.020	0.0174615
772.098	0.0175286
772.176	0.0175489
772.254	0.0173784
772.332	0.0174403
772.410	0.0173717
772.488	0.0172623
772.567	0.0174475
772.645	0.0174403
772.723	0.0174953
772.801	0.0173988
772.879	0.0174821
772.957	0.0172978
773.035	0.0173187
773.113	0.0173748
773.192	0.0173092
773.270	0.0173997
773.348	0.0175642
773.426	0.0175417
773.504	0.0173814
773.582	0.0175283
773.660	0.0175655
773.738	0.0175440
773.817	0.0173975
773.895	0.0174014
773.973	0.0174384
774.051	0.0174665
774.129	0.0175255
774.207	0.0173882
774.285	0.0175040
774.363	0.0174757
774.442	0.0174825
774.520	0.0174274
774.598	0.0175030
774.676	0.0173589
774.754	0.0173840
774.832	0.0173624
774.910	0.0172326
774.988	0.0172411
775.067	0.0171715
775.145	0.0172289
775.223	0.0172955
775.301	0.0172132
775.379	0.0172447
775.457	0.0170531
775.535	0.0171576
775.613	0.0173474
775.692	0.0174016
775.770	0.0172882
775.848	0.0173367
775.926	0.0172874
776.004	0.0173347
776.082	0.0172006
776.160	0.0171429
776.238	0.0171568
776.317	0.0171337
776.395	0.0171825
776.473	0.0172497
776.551	0.0171400
776.629	0.0170452
776.707	0.0171673
776.785	0.0171026
776.863	0.0171102
776.942	0.0172610
777.020	0.0173857
777.098	0.0173286
777.176	0.0173631
777.254	0.0174578
777.332	0.0174078
777.410	0.0175018
777.488	0.0174416
777.567	0.0174853
777.645	0.0175134
777.723	0.0176209
777.801	0.0176150
777.879	0.0173946
777.957	0.0173799
778.035	0.0174207
778.113	0.0174424
778.192	0.0173326
778.270	0.0172578
778.348	0.0170591
778.426	0.0167919
778.504	0.0167889
778.582	0.0168610
778.660	0.0168302
778.738	0.0166335
778.817	0.0167003
778.895	0.0165753
778.973	0.0166553
779.051	0.0166618
779.129	0.0167388
779.207	0.0169229
779.285	0.0169374
779.363	0.0170000
779.442	0.0170473
779.520	0.0170973
779.598	0.0171611
779.676	0.0171928
779.754	0.0171994
779.832	0.0175115
779.910	0.0175243
779.988	0.0174659
780.067	0.0175227
780.145	0.0176702
780.223	0.0175929
780.301	0.0175404
780.379	0.0177608
780.457	0.0177358
780.535	0.0176640
780.613	0.0177748
780.692	0.0175651
780.770	0.0177746
780.848	0.0178289
780.926	0.0178214
781.004	0.0176854
781.082	0.0178991
781.160	0.0178680
781.238	0.0179015
781.317	0.0179729
781.395	0.0179041
781.473	0.0178133
781.551	0.0179842
781.629	0.0177999
781.707	0.0177393
781.785	0.0178993
781.863	0.0177757
781.942	0.0174465
782.020	0.0173921
782.098	0.0175413
782.176	0.0174498
782.254	0.0173003
782.332	0.0172463
782.410	0.0175247
782.488	0.0172021
782.567	0.0171763
782.645	0.0171996
782.723	0.0170014
782.801	0.0170741
782.879	0.0171208
782.957	0.0168792
783.035	0.0168239
783.113	0.0169824
783.192	0.0170270
783.270	0.0169967
783.348	0.0167930
783.426	0.0167750
783.504	0.0167603
783.582	0.0167636
783.660	0.0167400
783.738	0.0168185
783.817	0.0167839
783.895	0.0166610
783.973	0.0168153
784.051	0.0168619
784.129	0.0169536
784.207	0.0168777
784.285	0.0169972
784.363	0.0170555
784.442	0.0171716
784.520	0.0172350
784.598	0.0172519
784.676	0.0173495
784.754	0.0174228
784.832	0.0174132
784.910	0.0174951
784.988	0.0175346
785.067	0.0176193
785.145	0.0177716
785.223	0.0176305
785.301	0.0176032
785.379	0.0178439
785.457	0.0177158
785.535	0.0176958
785.613	0.0175565
785.692	0.0174586
785.770	0.0174619
785.848	0.0172880
785.926	0.0172626
786.004	0.0171603
786.082	0.0173029
786.160	0.0169563
786.238	0.0169978
786.317	0.0169395
786.395	0.0168847
786.473	0.0169766
786.551	0.0168957
786.629	0.0169606
786.707	0.0169662
786.785	0.0168301
786.863	0.0167998
786.942	0.0169530
787.020	0.0169212
787.098	0.0170658
787.176	0.0169772
787.254	0.0171997
787.332	0.0173058
787.410	0.0173479
787.488	0.0174680
787.567	0.0174763
787.645	0.0178652
787.723	0.0178093
787.801	0.0178667
787.879	0.0180817
787.957	0.0179190
788.035	0.0179436
788.113	0.0180195
788.192	0.0179002
788.270	0.0180160
788.348	0.0179112
788.426	0.0178391
788.504	0.0176445
788.582	0.0175545
788.660	0.0173919
788.738	0.0172433
788.817	0.0170241
788.895	0.0169176
788.973	0.0166862
789.051	0.0168217
789.129	0.0166338
789.207	0.0165706
789.285	0.0164710
789.363	0.0166188
789.442	0.0166154
789.520	0.0166181
789.598	0.0165080
789.676	0.0165610
789.754	0.0167193
789.832	0.0166061
789.910	0.0166638
789.988	0.0167366
790.067	0.0167753
790.145	0.0168784
790.223	0.0169943
790.301	0.0171270
790.379	0.0171841
790.457	0.0173284
790.535	0.0174005
790.613	0.0174619
790.692	0.0177591
790.770	0.0177383
790.848	0.0179634
790.926	0.0181866
791.004	0.0183718
791.082	0.0185825
791.160	0.0187412
791.238	0.0187878
791.317	0.0188364
791.395	0.0190558
791.473	0.0192228
791.551	0.0191817
791.629	0.0190068
791.707	0.0189642
791.785	0.0187470
791.863	0.0185220
791.942	0.0182314
792.020	0.0179299
792.098	0.0176902
792.176	0.0173050
792.254	0.0168178
792.332	0.0166997
792.410	0.0162582
792.488	0.0158485
792.567	0.0155679
792.645	0.0151838
792.723	0.0151292
792.801	0.0147900
792.879	0.0146872
792.957	0.0146532
793.035	0.0145492
793.113	0.0147112
793.192	0.0146121
793.270	0.0148746
793.348	0.0150298
793.426	0.0153362
793.504	0.0154324
793.582	0.0157503
793.660	0.0160239
793.738	0.0162107
793.817	0.0167612
793.895	0.0172058
793.973	0.0174947
794.051	0.0178373
794.129	0.0182429
794.207	0.0185139
794.285	0.0188876
794.363	0.0192025
794.442	0.0194246
794.520	0.0196477
794.598	0.0198579
794.676	0.0198364
794.754	0.0202413
794.832	0.0202651
794.910	0.0202204
794.988	0.0204233
795.067	0.0201810
795.145	0.0200266
795.223	0.0198847
795.301	0.0197202
795.379	0.0193926
795.457	0.0190714
795.535	0.0188875
795.613	0.0183646
795.692	0.0179384
795.770	0.0174609
795.848	0.0172285
795.926	0.0166376
796.004	0.0162621
796.082	0.0160549
796.160	0.0155737
796.238	0.0153646
796.317	0.0149586
796.395	0.0148055
796.473	0.0146709
796.551	0.0145238
796.629	0.0145104
796.707	0.0143867
796.785	0.0144775
796.863	0.0144831
796.942	0.0146855
797.020	0.0148114
797.098	0.0150353
797.176	0.0153887
797.254	0.0155186
797.332	0.0158447
797.410	0.0160899
797.488	0.0164777
797.567	0.0168135
797.645	0.0170892
797.723	0.0175192
797.801	0.0177695
797.879	0.0180759
797.957	0.0184113
798.035	0.0185780
798.113	0.0189953
798.192	0.0191723
798.270	0.0194696
798.348	0.0194242
798.426	0.0196383
798.504	0.0199061
798.582	0.0198603
798.660	0.0198190
798.738	0.0197009
798.817	0.0196664
798.895	0.0195854
798.973	0.0195013
799.051	0.0191640
799.129	0.0189659
799.207	0.0186861
799.285	0.0182668
799.363	0.0180356
799.442	0.0178561
799.520	0.0174346
799.598	0.0170972
799.676	0.0167117
799.754	0.0164798
799.832	0.0163061
799.910	0.0161446
799.988	0.0159602
800.067	0.0157546
800.145	0.0157944
800.223	0.0156038
800.301	0.0153870
800.379	0.0155515
800.457	0.0155734
800.535	0.0156067
800.613	0.0156451
800.692	0.0155856
800.770	0.0157343
800.848	0.0157623
800.926	0.0160315
801.004	0.0160640
801.082	0.0160260
801.160	0.0161704
801.238	0.0163808
801.317	0.0163020
801.395	0.0165021
801.473	0.0168098
801.551	0.0167625
801.629	0.0168173
801.707	0.0171569
801.785	0.0172540
801.863	0.0175482
801.942	0.0176801
802.020	0.0178014
802.098	0.0178793
802.176	0.0180076
802.254	0.0182104
802.332	0.0183146
802.410	0.0184159
802.488	0.0185526
802.567	0.0184956
802.645	0.0187140
802.723	0.0185492
802.801	0.0186113
802.879	0.0186187
802.957	0.0185578
803.035	0.0185964
803.113	0.0184396
803.192	0.0183084
803.270	0.0183893
803.348	0.0182415
803.426	0.0179935
803.504	0.0179552
803.582	0.0177845
803.660	0.0177943
803.738	0.0175574
803.817	0.0175653
803.895	0.0175598
803.973	0.0173754
804.051	0.0173575
804.129	0.0172845
804.207	0.0172372
804.285	0.0171979
804.363	0.0170638
804.442	0.0171005
804.520	0.0171824
804.598	0.0169630
804.676	0.0170051
804.754	0.0169256
804.832	0.0169552
804.910	0.0170215
804.988	0.0168365
805.067	0.0166589
805.145	0.0167238
805.223	0.0168928
805.301	0.0167104
805.379	0.0167010
805.457	0.0165305
805.535	0.0165108
805.613	0.0165461
805.692	0.0166494
805.770	0.0165186
805.848	0.0165145
805.926	0.0166070
806.004	0.0165794
806.082	0.0167045
806.160	0.0168272
806.238	0.0168996
806.317	0.0169635
806.395	0.0169882
806.473	0.0170483
806.551	0.0170534
806.629	0.0173444
806.707	0.0174321
806.785	0.0173608
806.863	0.0173403
806.942	0.0174792
807.020	0.0175143
807.098	0.0176315
807.176	0.0175446
807.254	0.0172754
807.332	0.0174197
807.410	0.0176196
807.488	0.0175114
807.567	0.0175037
807.645	0.0173473
807.723	0.0174921
807.801	0.0175164
807.879	0.0174615
807.957	0.0175350
808.035	0.0172388
808.113	0.0173717
808.192	0.0175478
808.270	0.0174319
808.348	0.0173520
808.426	0.0175376
808.504	0.0175968
808.582	0.0175714
808.660	0.0176492
808.738	0.0176182
808.817	0.0174677
808.895	0.0177715
808.973	0.0176507
809.051	0.0175362
809.129	0.0176217
809.207	0.0175602
809.285	0.0175499
809.363	0.0175246
809.442	0.0176053
809.520	0.0174255
809.598	0.0174625
809.676	0.0175641
809.754	0.0173803
809.832	0.0173437
809.910	0.0175366
809.988	0.0173824
810.067	0.0173075
810.145	0.0175283
810.223	0.0175861
810.301	0.0176048
810.379	0.0174763
810.457	0.0173042
810.535	0.0174210
810.613	0.0175216
810.692	0.0174027
810.770	0.0173786
810.848	0.0174325
810.926	0.0172889
811.004	0.0174953
811.082	0.0173624
811.160	0.0172591
811.238	0.0171993
811.317	0.0171660
811.395	0.0170538
811.473	0.0170618
811.551	0.0169875
811.629	0.0168775
811.707	0.0168621
811.785	0.0167116
811.863	0.0166861
811.942	0.0165853
812.020	0.0165156
812.098	0.0163811
812.176	0.0163668
812.254	0.0163571
812.332	0.0164301
812.410	0.0164468
812.488	0.0165124
812.567	0.0164949
812.645	0.0164288
812.723	0.0164899
812.801	0.0166153
812.879	0.0167832
812.957	0.0170152
813.035	0.0170283
813.113	0.0170355
813.192	0.0174326
813.270	0.0174168
813.348	0.0174666
813.426	0.0175523
813.504	0.0178227
813.582	0.0179381
813.660	0.0178848
813.738	0.0179816
813.817	0.0180096
813.895	0.0181561
813.973	0.0180429
814.051	0.0181548
814.129	0.0181878
814.207	0.0180909
814.285	0.0181418
814.363	0.0179556
814.442	0.0181202
814.520	0.0181133
814.598	0.0179213
814.676	0.0179015
814.754	0.0177911
814.832	0.0179057
814.910	0.0178354
814.988	0.0178149
815.067	0.0177437
815.145	0.0177852
815.223	0.0177659
815.301	0.0176714
815.379	0.0176786
815.457	0.0175820
815.535	0.0177212
815.613	0.0178676
815.692	0.0175236
815.770	0.0174934
815.848	0.0176830
815.926	0.0176510
816.004	0.0174574
816.082	0.0172952
816.160	0.0174627
816.238	0.0172240
816.317	0.0170628
816.395	0.0170923
816.473	0.0169585
816.551	0.0169608
816.629	0.0168566
816.707	0.0166837
816.785	0.0168311
816.863	0.0166818
816.942	0.0164607
817.020	0.0164809
817.098	0.0163919
817.176	0.0163775
817.254	0.0163917
817.332	0.0164861
817.410	0.0164149
817.488	0.0162705
817.567	0.0164291
817.645	0.0164809
817.723	0.0165003
817.801	0.0165692
817.879	0.0165844
817.957	0.0167242
818.035	0.0167544
818.113	0.0170405
818.192	0.0170592
818.270	0.0170695
818.348	0.0172939
818.426	0.0174519
818.504	0.0174182
818.582	0.0174559
818.660	0.0176944
818.738	0.0177299
818.817	0.0177213
818.895	0.0179008
818.973	0.0179518
819.051	0.0181689
819.129	0.0180553
819.207	0.0181342
819.285	0.0181258
819.363	0.0181509
819.442	0.0182055
819.520	0.0183458
819.598	0.0181108
819.676	0.0181469
819.754	0.0182916
819.832	0.0182786
819.910	0.0180910
819.988	0.0178910
820.067	0.0180107
820.145	0.0178672
820.223	0.0178049
820.301	0.0177859
820.379	0.0177457
820.457	0.0175851
820.535	0.0174821
820.613	0.0174368
820.692	0.0173193
820.770	0.0173920
820.848	0.0172929
820.926	0.0172199
821.004	0.0171993
821.082	0.0171274
821.160	0.0170290
821.238	0.0170877
821.317	0.0171478
821.395	0.0170371
821.473	0.0170202
821.551	0.0172156
821.629	0.0171053
821.707	0.0170135
821.785	0.0172105
821.863	0.0172334
821.942	0.0172227
822.020	0.0171766
822.098	0.0169765
822.176	0.0170883
822.254	0.0172692
822.332	0.0172308
822.410	0.0172070
822.488	0.0172488
822.567	0.0169496
822.645	0.0171767
822.723	0.0172016
822.801	0.0171078
822.879	0.0170551
822.957	0.0170487
823.035	0.0171186
823.113	0.0169860
823.192	0.0169475
823.270	0.0169966
823.348	0.0170783
823.426	0.0170077
823.504	0.0171240
823.582	0.0171181
823.660	0.0170327
823.738	0.0172067
823.817	0.0172021
823.895	0.0172771
823.973	0.0174266
824.051	0.0174350
824.129	0.0175143
824.207	0.0175938
824.285	0.0175843
824.363	0.0175521
824.442	0.0176701
824.520	0.0175260
824.598	0.0177083
824.676	0.0176869
824.754	0.0177106
824.832	0.0176646
824.910	0.0176227
824.988	0.0176230
825.067	0.0175971
825.145	0.0177070
825.223	0.0176306
825.301	0.0175509
825.379	0.0175076
825.457	0.0174227
825.535	0.0175407
825.613	0.0175723
825.692	0.0173705
825.770	0.0172282
825.848	0.0172012
825.926	0.0172351
826.004	0.0171133
826.082	0.0172223
826.160	0.0171561
826.238	0.0169985
826.317	0.0169408
826.395	0.0170731
826.473	0.0170010
826.551	0.0170702
826.629	0.0170642
826.707	0.0170581
826.785	0.0172398
826.863	0.0172231
826.942	0.0173187
827.020	0.0173701
827.098	0.0173739
827.176	0.0173412
827.254	0.0173402
827.332	0.0174346
827.410	0.0174213
827.488	0.0175900
827.567	0.0174463
827.645	0.0176941
827.723	0.0176453
827.801	0.0177972
827.879	0.0177304
827.957	0.0177634
828.035	0.0176572
828.113	0.0176402
828.192	0.0177627
828.270	0.0176773
828.348	0.0176040
828.426	0.0175634
828.504	0.0174980
828.582	0.0173751
828.660	0.0174423
828.738	0.0174207
828.817	0.0171961
828.895	0.0172618
828.973	0.0171624
829.051	0.0172366
829.129	0.0171471
829.207	0.0171476
829.285	0.0170762
829.363	0.0169759
829.442	0.0171197
829.520	0.0170036
829.598	0.0169102
829.676	0.0170745
829.754	0.0171954
829.832	0.0170020
829.910	0.0170284
829.988	0.0171085
830.067	0.0172312
830.145	0.0170708
830.223	0.0171355
830.301	0.0170844
830.379	0.0172483
830.457	0.0172495
830.535	0.0172937
830.613	0.0171755
830.692	0.0173228
830.770	0.0173846
830.848	0.0172684
830.926	0.0173753
831.004	0.0175208
831.082	0.0175112
831.160	0.0175082
831.238	0.0173634
831.317	0.0174946
831.395	0.0174833
831.473	0.0176301
831.551	0.0175249
831.629	0.0173176
831.707	0.0174218
831.785	0.0172945
831.863	0.0173084
831.942	0.0172765
832.020	0.0172343
832.098	0.0172101
832.176	0.0172347
832.254	0.0171349
832.332	0.0171368
832.410	0.0173290
832.488	0.0173310
832.567	0.0172031
832.645	0.0172734
832.723	0.0172956
832.801	0.0173429
832.879	0.0172687
832.957	0.0173407
833.035	0.0173875
833.113	0.0174393
833.192	0.0172202
833.270	0.0172540
833.348	0.0173160
833.426	0.0172174
833.504	0.0173416
833.582	0.0173671
833.660	0.0173438
833.738	0.0173059
833.817	0.0173782
833.895	0.0172008
833.973	0.0171484
834.051	0.0171754
834.129	0.0172028
834.207	0.0171597
834.285	0.0171890
834.363	0.0170905
834.442	0.0172005
834.520	0.0170563
834.598	0.0171672
834.676	0.0171180
834.754	0.0171850
834.832	0.0171867
834.910	0.0171886
834.988	0.0172353
835.067	0.0172723
835.145	0.0173637
835.223	0.0174007
835.301	0.0174299
835.379	0.0174863
835.457	0.0174421
835.535	0.0175600
835.613	0.0176122
835.692	0.0176227
835.770	0.0176900
835.848	0.0177998
835.926	0.0177797
836.004	0.0177634
836.082	0.0177489
836.160	0.0177061
836.238	0.0177957
836.317	0.0177901
836.395	0.0178594
836.473	0.0178576
836.551	0.0178875
836.629	0.0178571
836.707	0.0177683
836.785	0.0177747
836.863	0.0178049
836.942	0.0176833
837.020	0.0176151
837.098	0.0175195
837.176	0.0175407
837.254	0.0175640
837.332	0.0174075
837.410	0.0172846
837.488	0.0171282
837.567	0.0173284
837.645	0.0171492
837.723	0.0169078
837.801	0.0170086
837.879	0.0169231
837.957	0.0168229
838.035	0.0168499
838.113	0.0167695
838.192	0.0167655
838.270	0.0167484
838.348	0.0167870
838.426	0.0166822
838.504	0.0168620
838.582	0.0166238
838.660	0.0167305
838.738	0.0166901
838.817	0.0167434
838.895	0.0168509
838.973	0.0167724
839.051	0.0169525
839.129	0.0170046
839.207	0.0170715
839.285	0.0171387
839.363	0.0172821
839.442	0.0172462
839.520	0.0173301
839.598	0.0174725
839.676	0.0176178
839.754	0.0176309
839.832	0.0178732
839.910	0.0178275
839.988	0.0179450
840.067	0.0179292
840.145	0.0180819
840.223	0.0179145
840.301	0.0180707
840.379	0.0181084
840.457	0.0181918
840.535	0.0181158
840.613	0.0180985
840.692	0.0181316
840.770	0.0179906
840.848	0.0179340
840.926	0.0180303
841.004	0.0177289
841.082	0.0175774
841.160	0.0175986
841.238	0.0175249
841.317	0.0174230
841.395	0.0173318
841.473	0.0172224
841.551	0.0172294
841.629	0.0171172
841.707	0.0169850
841.785	0.0169798
841.863	0.0170069
841.942	0.0168369
842.020	0.0168728
842.098	0.0169972
842.176	0.0168067
842.254	0.0169117
842.332	0.0168413
842.410	0.0169473
842.488	0.0169171
842.567	0.0170267
842.645	0.0170619
842.723	0.0169720
842.801	0.0170290
842.879	0.0170581
842.957	0.0171793
843.035	0.0172818
843.113	0.0171844
843.192	0.0171717
843.270	0.0174306
843.348	0.0173163
843.426	0.0173254
843.504	0.0174196
843.582	0.0173211
843.660	0.0175544
843.738	0.0175464
843.817	0.0175076
843.895	0.0176836
843.973	0.0176225
844.051	0.0176557
844.129	0.0176659
844.207	0.0178290
844.285	0.0177769
844.363	0.0177812
844.442	0.0177400
844.520	0.0178474
844.598	0.0178144
844.676	0.0178688
844.754	0.0178519
844.832	0.0178246
844.910	0.0178412
844.988	0.0178949
845.067	0.0179630
845.145	0.0179496
845.223	0.0177975
845.301	0.0178398
845.379	0.0176416
845.457	0.0176055
845.535	0.0175510
845.613	0.0176403
845.692	0.0175076
845.770	0.0174902
845.848	0.0173927
845.926	0.0172840
846.004	0.0172992
846.082	0.0172145
846.160	0.0173267
846.238	0.0170953
846.317	0.0171348
846.395	0.0173810
846.473	0.0171096
846.551	0.0170621
846.629	0.0171450
846.707	0.0170203
846.785	0.0171393
846.863	0.0170769
846.942	0.0170249
847.020	0.0170452
847.098	0.0171011
847.176	0.0172398
847.254	0.0171864
847.332	0.0171703
847.410	0.0170386
847.488	0.0170699
847.567	0.0170780
847.645	0.0172717
847.723	0.0170940
847.801	0.0172015
847.879	0.0172280
847.957	0.0172791
848.035	0.0170972
848.113	0.0171970
848.192	0.0171830
848.270	0.0171178
848.348	0.0170831
848.426	0.0172079
848.504	0.0172506
848.582	0.0171339
848.660	0.0172269
848.738	0.0172258
848.817	0.0173244
848.895	0.0172948
848.973	0.0174624
849.051	0.0174067
849.129	0.0172258
849.207	0.0174869
849.285	0.0174514
849.363	0.0174368
849.442	0.0175969
849.520	0.0175150
849.598	0.0176840
849.676	0.0176872
849.754	0.0175786
849.832	0.0177464
849.910	0.0176762
849.988	0.0176675
850.067	0.0177321
850.145	0.0177660
850.223	0.0177805
850.301	0.0178291
850.379	0.0175644
850.457	0.0176722
850.535	0.0177239
850.613	0.0176153
850.692	0.0176266
850.770	0.0176929
850.848	0.0175671
850.926	0.0176504
851.004	0.0175466
851.082	0.0174983
851.160	0.0175529
851.238	0.0175466
851.317	0.0176270
851.395	0.0175795
851.473	0.0172669
851.551	0.0174854
851.629	0.0175648
851.707	0.0175669
851.785	0.0174561
851.863	0.0175556
851.942	0.0174982
852.020	0.0172771
852.098	0.0173720
852.176	0.0173878
852.254	0.0173461
852.332	0.0172546
852.410	0.0172261
852.488	0.0172144
852.567	0.0171451
852.645	0.0170902
852.723	0.0170691
852.801	0.0171045
852.879	0.0170709
852.957	0.0168557
853.035	0.0169360
853.113	0.0170101
853.192	0.0169305
853.270	0.0169763
853.348	0.0170761
853.426	0.0170702
853.504	0.0171027
853.582	0.0170996
853.660	0.0172693
853.738	0.0171400
853.817	0.0171889
853.895	0.0172231
853.973	0.0172340
854.051	0.0174123
854.129	0.0174633
854.207	0.0173792
854.285	0.0173325
854.363	0.0174672
854.442	0.0175009
854.520	0.0176343
854.598	0.0172337
854.676	0.0175700
854.754	0.0176246
854.832	0.0174377
854.910	0.0176326
854.988	0.0175906
855.067	0.0174934
855.145	0.0174962
855.223	0.0176475
855.301	0.0174228
855.379	0.0175645
855.457	0.0174319
855.535	0.0174824
855.613	0.0174821
855.692	0.0174794
855.770	0.0173806
855.848	0.0173745
855.926	0.0173631
856.004	0.0174274
856.082	0.0171703
856.160	0.0172640
856.238	0.0172823
856.317	0.0173730
856.395	0.0173306
856.473	0.0172260
856.551	0.0171853
856.629	0.0172179
856.707	0.0171843
856.785	0.0171863
856.863	0.0172179
856.942	0.0171904
857.020	0.0172014
857.098	0.0171439
857.176	0.0171702
857.254	0.0171570
857.332	0.0171178
857.410	0.0171704
857.488	0.0171640
857.567	0.0171645
857.645	0.0173732
857.723	0.0173082
857.801	0.0173534
857.879	0.0174474
857.957	0.0174395
858.035	0.0172797
858.113	0.0174175
858.192	0.0174796
858.270	0.0175077
858.348	0.0173997
858.426	0.0173381
858.504	0.0175386
858.582	0.0175166
858.660	0.0173016
858.738	0.0174557
858.817	0.0173830
858.895	0.0173606
858.973	0.0172988
859.051	0.0172406
859.129	0.0170950
859.207	0.0172357
859.285	0.0170428
859.363	0.0171251
859.442	0.0172656
859.520	0.0171225
859.598	0.0171362
859.676	0.0170725
859.754	0.0171652
859.832	0.0171526
859.910	0.0173436
859.988	0.0172443
860.067	0.0172148
860.145	0.0173282
860.223	0.0174447
860.301	0.0173042
860.379	0.0174735
860.457	0.0175283
860.535	0.0176040
860.613	0.0174675
860.692	0.0175830
860.770	0.0176060
860.848	0.0176453
860.926	0.0175195
861.004	0.0174397
861.082	0.0174760
861.160	0.0174196
861.238	0.0173853
861.317	0.0173438
861.395	0.0173997
861.473	0.0172958
861.551	0.0172777
861.629	0.0173289
861.707	0.0172047
861.785	0.0173084
861.863	0.0173635
861.942	0.0173180
862.020	0.0172283
862.098	0.0174449
862.176	0.0172942
862.254	0.0171195
862.332	0.0171909
862.410	0.0172784
862.488	0.0171613
862.567	0.0171869
862.645	0.0171967
862.723	0.0173931
862.801	0.0172721
862.879	0.0172312
862.957	0.0172649
863.035	0.0171958
863.113	0.0172050
863.192	0.0172694
863.270	0.0172260
863.348	0.0171840
863.426	0.0171559
863.504	0.0171064
863.582	0.0170033
863.660	0.0170354
863.738	0.0170673
863.817	0.0169929
863.895	0.0170451
863.973	0.0170864
864.051	0.0170525
864.129	0.0171820
864.207	0.0173137
864.285	0.0173133
864.363	0.0173199
864.442	0.0172895
864.520	0.0172813
864.598	0.0172796
864.676	0.0173414
864.754	0.0175723
864.832	0.0174787
864.910	0.0175014
864.988	0.0175671
865.067	0.0174184
865.145	0.0175553
865.223	0.0174741
865.301	0.0173522
865.379	0.0174574
865.457	0.0175537
865.535	0.0175019
865.613	0.0172674
865.692	0.0173094
865.770	0.0172334
865.848	0.0173616
865.926	0.0172298
866.004	0.0172339
866.082	0.0171950
866.160	0.0171237
866.238	0.0172546
866.317	0.0172298
866.395	0.0172260
866.473	0.0174535
866.551	0.0175150
866.629	0.0173146
866.707	0.0176080
866.785	0.0175443
866.863	0.0175349
866.942	0.0176027
867.020	0.0175997
867.098	0.0176625
867.176	0.0175444
867.254	0.0176701
867.332	0.0175693
867.410	0.0175793
867.488	0.0176090
867.567	0.0173972
867.645	0.0174986
867.723	0.0173818
867.801	0.0174938
867.879	0.0173738
867.957	0.0171835
868.035	0.0172378
868.113	0.0172976
868.192	0.0172960
868.270	0.0173274
868.348	0.0172250
868.426	0.0172350
868.504	0.0172621
868.582	0.0172864
868.660	0.0172288
868.738	0.0174273
868.817	0.0173241
868.895	0.0172767
868.973	0.0173298
869.051	0.0172771
869.129	0.0173987
869.207	0.0175074
869.285	0.0174786
869.363	0.0174512
869.442	0.0172622
869.520	0.0174640
869.598	0.0173080
869.676	0.0173370
869.754	0.0172608
869.832	0.0172556
869.910	0.0173558
869.988	0.0172875
870.067	0.0171856
870.145	0.0171628
870.223	0.0172684
870.301	0.0171918
870.379	0.0172133
870.457	0.0169575
870.535	0.0171583
870.613	0.0172388
870.692	0.0170990
870.770	0.0170822
870.848	0.0171725
870.926	0.0171796
871.004	0.0170820
871.082	0.0171696
871.160	0.0171650
871.238	0.0171881
871.317	0.0171912
871.395	0.0171667
871.473	0.0172765
871.551	0.0171827
871.629	0.0171467
871.707	0.0172264
871.785	0.0172657
871.863	0.0172153
871.942	0.0172347
872.020	0.0171050
872.098	0.0172020
872.176	0.0171524
872.254	0.0172013
872.332	0.0172618
872.410	0.0172587
872.488	0.0173592
872.567	0.0173337
872.645	0.0173386
872.723	0.0173856
872.801	0.0173081
872.879	0.0175124
872.957	0.0174139
873.035	0.0175615
873.113	0.0176894
873.192	0.0177917
873.270	0.0177548
873.348	0.0177488
873.426	0.0177751
873.504	0.0177872
873.582	0.0178242
873.660	0.0176953
873.738	0.0179165
873.817	0.0178004
873.895	0.0176334
873.973	0.0176278
874.051	0.0176073
874.129	0.0175529
874.207	0.0175829
874.285	0.0175039
874.363	0.0173686
874.442	0.0174210
874.520	0.0173579
874.598	0.0172620
874.676	0.0171800
874.754	0.0171692
874.832	0.0171474
874.910	0.0170947
874.988	0.0170835
875.067	0.0169851
875.145	0.0170222
875.223	0.0169964
875.301	0.0170004
875.379	0.0168422
875.457	0.0168771
875.535	0.0168410
875.613	0.0168520
875.692	0.0169415
875.770	0.0170788
875.848	0.0168736
875.926	0.0169470
876.004	0.0169241
876.082	0.0170045
876.160	0.0171446
876.238	0.0171201
876.317	0.0172326
876.395	0.0171720
876.473	0.0172813
876.551	0.0173695
876.629	0.0173239
876.707	0.0173981
876.785	0.0175159
876.863	0.0176620
876.942	0.0175597
877.020	0.0175479
877.098	0.0176481
877.176	0.0177116
877.254	0.0176900
877.332	0.0177087
877.410	0.0176804
877.488	0.0177577
877.567	0.0176694
877.645	0.0176987
877.723	0.0177396
877.801	0.0177704
877.879	0.0176468
877.957	0.0176363
878.035	0.0177013
878.113	0.0175743
878.192	0.0177077
878.270	0.0175365
878.348	0.0173707
878.426	0.0173550
878.504	0.0173019
878.582	0.0171101
878.660	0.0172295
878.738	0.0170634
878.817	0.0171651
878.895	0.0169084
878.973	0.0168977
879.051	0.0169884
879.129	0.0168904
879.207	0.0168900
879.285	0.0168857
879.363	0.0169368
879.442	0.0168415
879.520	0.0167769
879.598	0.0167103
879.676	0.0167618
879.754	0.0168475
879.832	0.0170493
879.910	0.0167752
879.988	0.0168106
880.067	0.0169920
880.145	0.0171797
880.223	0.0171131
880.301	0.0171522
880.379	0.0171644
880.457	0.0171944
880.535	0.0174162
880.613	0.0174722
880.692	0.0174263
880.770	0.0174789
880.848	0.0174100
880.926	0.0175309
881.004	0.0174692
881.082	0.0173759
881.160	0.0174957
881.238	0.0175404
881.317	0.0175343
881.395	0.0174469
881.473	0.0176554
881.551	0.0175002
881.629	0.0175446
881.707	0.0175858
881.785	0.0176992
881.863	0.0176939
881.942	0.0175971
882.020	0.0175732
882.098	0.0175648
882.176	0.0177579
882.254	0.0176671
882.332	0.0177063
882.410	0.0177037
882.488	0.0175638
882.567	0.0176446
882.645	0.0177733
882.723	0.0177204
882.801	0.0176090
882.879	0.0175520
882.957	0.0175858
883.035	0.0176136
883.113	0.0175636
883.192	0.0174682
883.270	0.0174163
883.348	0.0174766
883.426	0.0172877
883.504	0.0170946
883.582	0.0170845
883.660	0.0169926
883.738	0.0169706
883.817	0.0168874
883.895	0.0165593
883.973	0.0167152
884.051	0.0167110
884.129	0.0165372
884.207	0.0166022
884.285	0.0164630
884.363	0.0163519
884.442	0.0164767
884.520	0.0164923
884.598	0.0164406
884.676	0.0164861
884.754	0.0165603
884.832	0.0166917
884.910	0.0167413
884.988	0.0167700
885.067	0.0170531
885.145	0.0171146
885.223	0.0173718
885.301	0.0174532
885.379	0.0177055
885.457	0.0178486
885.535	0.0180804
885.613	0.0181787
885.692	0.0183209
885.770	0.0184048
885.848	0.0184702
885.926	0.0185495
886.004	0.0187149
886.082	0.0187218
886.160	0.0186024
886.238	0.0183970
886.317	0.0184142
886.395	0.0183037
886.473	0.0181224
886.551	0.0180128
886.629	0.0178204
886.707	0.0176465
886.785	0.0174448
886.863	0.0172150
886.942	0.0170126
887.020	0.0169144
887.098	0.0166649
887.176	0.0164590
887.254	0.0163062
887.332	0.0162534
887.410	0.0161645
887.488	0.0160117
887.567	0.0158344
887.645	0.0157241
887.723	0.0157124
887.801	0.0157251
887.879	0.0156614
887.957	0.0157546
888.035	0.0158498
888.113	0.0160531
888.192	0.0161333
888.270	0.0162887
888.348	0.0165285
888.426	0.0167213
888.504	0.0169027
888.582	0.0171419
888.660	0.0173291
888.738	0.0176947
888.817	0.0177525
888.895	0.0180096
888.973	0.0183128
889.051	0.0185495
889.129	0.0187537
889.207	0.0188406
889.285	0.0190477
889.363	0.0191196
889.442	0.0192518
889.520	0.0193790
889.598	0.0194107
889.676	0.0190772
889.754	0.0190179
889.832	0.0190376
889.910	0.0188431
889.988	0.0186909
890.067	0.0184570
890.145	0.0182769
890.223	0.0179078
890.301	0.0177560
890.379	0.0175553
890.457	0.0172632
890.535	0.0169448
890.613	0.0167809
890.692	0.0166551
890.770	0.0161678
890.848	0.0161504
890.926	0.0158939
891.004	0.0156556
891.082	0.0155251
891.160	0.0155112
891.238	0.0152381
891.317	0.0151990
891.395	0.0151628
891.473	0.0152347
891.551	0.0153877
891.629	0.0154684
891.707	0.0155468
891.785	0.0159410
891.863	0.0160501
891.942	0.0163333
892.020	0.0166171
892.098	0.0170013
892.176	0.0170067
892.254	0.0174449
892.332	0.0178953
892.410	0.0181303
892.488	0.0183171
892.567	0.0184489
892.645	0.0188715
892.723	0.0189685
892.801	0.0190600
892.879	0.0192103
892.957	0.0192041
893.035	0.0194165
893.113	0.0192330
893.192	0.0191335
893.270	0.0190774
893.348	0.0190597
893.426	0.0188593
893.504	0.0185551
893.582	0.0183181
893.660	0.0180971
893.738	0.0179988
893.817	0.0176816
893.895	0.0174487
893.973	0.0174965
894.051	0.0172755
894.129	0.0169432
894.207	0.0168589
894.285	0.0168487
894.363	0.0166557
894.442	0.0164722
894.520	0.0165566
894.598	0.0164894
894.676	0.0163292
894.754	0.0162267
894.832	0.0162315
894.910	0.0161014
894.988	0.0161614
895.067	0.0160808
895.145	0.0161800
895.223	0.0161971
895.301	0.0163429
895.379	0.0163972
895.457	0.0166474
895.535	0.0167646
895.613	0.0167621
895.692	0.0169946
895.770	0.0170361
895.848	0.0171268
895.926	0.0171371
896.004	0.0174537
896.082	0.0177028
896.160	0.0176410
896.238	0.0177269
896.317	0.0177671
896.395	0.0177190
896.473	0.0179401
896.551	0.0181026
896.629	0.0181062
896.707	0.0181380
896.785	0.0180330
896.863	0.0178932
896.942	0.0180011
897.020	0.0179870
897.098	0.0179817
897.176	0.0176924
897.254	0.0177558
897.332	0.0177622
897.410	0.0176130
897.488	0.0177242
897.567	0.0176826
897.645	0.0174995
897.723	0.0175663
897.801	0.0176151
897.879	0.0175842
897.957	0.0174593
898.035	0.0175396
898.113	0.0175395
898.192	0.0175887
898.270	0.0176199
898.348	0.0176715
898.426	0.0174599
898.504	0.0173941
898.582	0.0175196
898.660	0.0172616
898.738	0.0172919
898.817	0.0171932
898.895	0.0171239
898.973	0.0169746
899.051	0.0169103
899.129	0.0169484
899.207	0.0167861
899.285	0.0168168
899.363	0.0167462
899.442	0.0165604
899.520	0.0166954
899.598	0.0167424
899.676	0.0166708
899.754	0.0167569
899.832	0.0168276
899.910	0.0169990
899.988	0.0171133
900.067	0.0174095
900.145	0.0174961
900.223	0.0176006
900.301	0.0177496
900.379	0.0176964
900.457	0.0177319
900.535	0.0178319
900.613	0.0179688
900.692	0.0177925
900.770	0.0178230
900.848	0.0178133
900.926	0.0178519
901.004	0.0177183
901.082	0.0177333
901.160	0.0175449
901.238	0.0174557
901.317	0.0174494
901.395	0.0174994
901.473	0.0174304
901.551	0.0172679
901.629	0.0172720
901.707	0.0171564
901.785	0.0172759
901.863	0.0171553
901.942	0.0170189
902.020	0.0170493
902.098	0.0171616
902.176	0.0172157
902.254	0.0172485
902.332	0.0171566
902.410	0.0171455
902.488	0.0171097
902.567	0.0172641
902.645	0.0172566
902.723	0.0171474
902.801	0.0169635
902.879	0.0170617
902.957	0.0170172
903.035	0.0169804
903.113	0.0169904
903.192	0.0168804
903.270	0.0167920
903.348	0.0169923
903.426	0.0171862
903.504	0.0170189
903.582	0.0171404
903.660	0.0171028
903.738	0.0172977
903.817	0.0175958
903.895	0.0175792
903.973	0.0176528
904.051	0.0177898
904.129	0.0177544
904.207	0.0179111
904.285	0.0179962
904.363	0.0181184
904.442	0.0180084
904.520	0.0178815
904.598	0.0180221
904.676	0.0179165
904.754	0.0177942
904.832	0.0178422
904.910	0.0177606
904.988	0.0176244
905.067	0.0175001
905.145	0.0173438
905.223	0.0174137
905.301	0.0173375
905.379	0.0173105
905.457	0.0173024
905.535	0.0171030
905.613	0.0171765
905.692	0.0172700
905.770	0.0171035
905.848	0.0171545
905.926	0.0172522
906.004	0.0172388
906.082	0.0172243
906.160	0.0171654
906.238	0.0172527
906.317	0.0172321
906.395	0.0170712
906.473	0.0171114
906.551	0.0172775
906.629	0.0170448
906.707	0.0170650
906.785	0.0170570
906.863	0.0170850
906.942	0.0170592
907.020	0.0171651
907.098	0.0172279
907.176	0.0172259
907.254	0.0171911
907.332	0.0172601
907.410	0.0173338
907.488	0.0173720
907.567	0.0174352
907.645	0.0174830
907.723	0.0175735
907.801	0.0175509
907.879	0.0174650
907.957	0.0175210
908.035	0.0175294
908.113	0.0175391
908.192	0.0173820
908.270	0.0175104
908.348	0.0175680
908.426	0.0173767
908.504	0.0174967
908.582	0.0175285
908.660	0.0175410
908.738	0.0175422
908.817	0.0173568
908.895	0.0175034
908.973	0.0174641
909.051	0.0176082
909.129	0.0174519
909.207	0.0174668
909.285	0.0174426
909.363	0.0174097
909.442	0.0175268
909.520	0.0174146
909.598	0.0174701
909.676	0.0173991
909.754	0.0172777
909.832	0.0174232
909.910	0.0173600
909.988	0.0172165
910.067	0.0173351
910.145	0.0172637
910.223	0.0172180
910.301	0.0172325
910.379	0.0171407
910.457	0.0173211
910.535	0.0172329
910.613	0.0171075
910.692	0.0172316
910.770	0.0172521
910.848	0.0173340
910.926	0.0173891
911.004	0.0174212
911.082	0.0173712
911.160	0.0173859
911.238	0.0174084
911.317	0.0174467
911.395	0.0173617
911.473	0.0174401
911.551	0.0173829
911.629	0.0174992
911.707	0.0173051
911.785	0.0172393
911.863	0.0172640
911.942	0.0171401
912.020	0.0172566
912.098	0.0170558
912.176	0.0171546
912.254	0.0171261
912.332	0.0171668
912.410	0.0170179
912.488	0.0170969
912.567	0.0171736
912.645	0.0172453
912.723	0.0173235
912.801	0.0174226
912.879	0.0173239
912.957	0.0175209
913.035	0.0174932
913.113	0.0175439
913.192	0.0175756
913.270	0.0175091
913.348	0.0175232
913.426	0.0176211
913.504	0.0175948
913.582	0.0174944
913.660	0.0174918
913.738	0.0173955
913.817	0.0175736
913.895	0.0175683
913.973	0.0173595
914.051	0.0174728
914.129	0.0173846
914.207	0.0174451
914.285	0.0173905
914.363	0.0173159
914.442	0.0174311
914.520	0.0173972
914.598	0.0173179
914.676	0.0172464
914.754	0.0175404
914.832	0.0174641
914.910	0.0172363
914.988	0.0173671
915.067	0.0173639
915.145	0.0173703
915.223	0.0174295
915.301	0.0174675
915.379	0.0173241
915.457	0.0173924
915.535	0.0173075
915.613	0.0172697
915.692	0.0175240
915.770	0.0173477
915.848	0.0170836
915.926	0.0171772
916.004	0.0172643
916.082	0.0170908
916.160	0.0171838
916.238	0.0171770
916.317	0.0170879
916.395	0.0170320
916.473	0.0171315
916.551	0.0171342
916.629	0.0171690
916.707	0.0170086
916.785	0.0171070
916.863	0.0170481
916.942	0.0171268
917.020	0.0171815
917.098	0.0171507
917.176	0.0171368
917.254	0.0172080
917.332	0.0172897
917.410	0.0174246
917.488	0.0173090
917.567	0.0173064
917.645	0.0174276
917.723	0.0173807
917.801	0.0174485
917.879	0.0174010
917.957	0.0174331
918.035	0.0173981
918.113	0.0173866
918.192	0.0174756
918.270	0.0174556
918.348	0.0173680
918.426	0.0175204
918.504	0.0175948
918.582	0.0175664
918.660	0.0174268
918.738	0.0174861
918.817	0.0176694
918.895	0.0174878
918.973	0.0175479
919.051	0.0175666
919.129	0.0176706
919.207	0.0176234
919.285	0.0177577
919.363	0.0175739
919.442	0.0173551
919.520	0.0175541
919.598	0.0176472
919.676	0.0174224
919.754	0.0175318
919.832	0.0174886
919.910	0.0173806
