06/01/2022	21:40:47	Ver.	4.1	UNKNOWN
Optical Delay	599.988409	Delta X		0.078125	Sweeps	1	Scan Rate	0/0
Coordinates	Axis 1	NaN	Axis 2	NaN	Axis 3	NaN	Axis 4	NaN	Axis 5	NaN	Axis 6	0.000000
TX Power	0.000000	RX Power	0.000000

599.988	0.0179884
600.067	0.0179802
600.145	0.0179947
600.223	0.0180719
600.301	0.0180045
600.379	0.0180738
600.457	0.0179919
600.535	0.0181100
600.613	0.0181236
600.692	0.0180698
600.770	0.0179923
600.848	0.0180039
600.926	0.0179234
601.004	0.0180686
601.082	0.0179799
601.160	0.0179285
601.238	0.0181739
601.317	0.0181491
601.395	0.0180483
601.473	0.0179647
601.551	0.0178827
601.629	0.0180935
601.707	0.0179749
601.785	0.0180743
601.863	0.0179221
601.942	0.0181342
602.020	0.0179266
602.098	0.0180701
602.176	0.0179959
602.254	0.0180650
602.332	0.0180470
602.410	0.0180589
602.488	0.0179488
602.567	0.0180299
602.645	0.0179769
602.723	0.0182393
602.801	0.0179630
602.879	0.0179850
602.957	0.0180802
603.035	0.0179652
603.113	0.0180311
603.192	0.0179217
603.270	0.0180283
603.348	0.0180057
603.426	0.0180016
603.504	0.0179599
603.582	0.0179568
603.660	0.0180515
603.738	0.0179278
603.817	0.0179858
603.895	0.0179929
603.973	0.0178854
604.051	0.0181218
604.129	0.0179961
604.207	0.0179018
604.285	0.0179459
604.363	0.0179959
604.442	0.0181071
604.520	0.0180054
604.598	0.0179515
604.676	0.0179391
604.754	0.0179111
604.832	0.0180447
604.910	0.0181392
604.988	0.0180505
605.067	0.0179521
605.145	0.0178304
605.223	0.0179962
605.301	0.0180274
605.379	0.0181007
605.457	0.0180451
605.535	0.0180031
605.613	0.0180170
605.692	0.0180147
605.770	0.0180605
605.848	0.0179060
605.926	0.0179565
606.004	0.0179407
606.082	0.0180072
606.160	0.0180852
606.238	0.0179728
606.317	0.0179956
606.395	0.0181201
606.473	0.0179680
606.551	0.0179777
606.629	0.0179405
606.707	0.0179046
606.785	0.0179431
606.863	0.0179836
606.942	0.0179698
607.020	0.0179498
607.098	0.0179673
607.176	0.0179697
607.254	0.0180370
607.332	0.0179414
607.410	0.0179961
607.488	0.0180635
607.567	0.0180237
607.645	0.0180116
607.723	0.0178966
607.801	0.0179446
607.879	0.0180128
607.957	0.0180563
608.035	0.0180145
608.113	0.0180323
608.192	0.0179710
608.270	0.0180070
608.348	0.0181556
608.426	0.0180531
608.504	0.0179841
608.582	0.0181499
608.660	0.0179858
608.738	0.0179415
608.817	0.0180072
608.895	0.0180507
608.973	0.0180200
609.051	0.0179206
609.129	0.0179433
609.207	0.0181739
609.285	0.0180348
609.363	0.0181727
609.442	0.0179980
609.520	0.0179438
609.598	0.0178535
609.676	0.0180756
609.754	0.0179122
609.832	0.0180044
609.910	0.0180562
609.988	0.0180503
610.067	0.0178564
610.145	0.0180380
610.223	0.0179029
610.301	0.0179755
610.379	0.0179366
610.457	0.0179942
610.535	0.0179309
610.613	0.0179688
610.692	0.0179477
610.770	0.0179353
610.848	0.0179681
610.926	0.0180866
611.004	0.0181193
611.082	0.0179407
611.160	0.0178880
611.238	0.0179732
611.317	0.0180585
611.395	0.0180064
611.473	0.0179251
611.551	0.0179276
611.629	0.0179768
611.707	0.0181078
611.785	0.0182110
611.863	0.0180023
611.942	0.0179881
612.020	0.0181389
612.098	0.0179360
612.176	0.0178508
612.254	0.0180397
612.332	0.0180000
612.410	0.0179725
612.488	0.0179646
612.567	0.0179893
612.645	0.0179801
612.723	0.0180144
612.801	0.0180286
612.879	0.0178693
612.957	0.0179323
613.035	0.0178008
613.113	0.0180881
613.192	0.0180635
613.270	0.0180253
613.348	0.0180132
613.426	0.0179516
613.504	0.0180363
613.582	0.0180482
613.660	0.0180135
613.738	0.0180441
613.817	0.0179960
613.895	0.0179395
613.973	0.0179632
614.051	0.0180551
614.129	0.0181509
614.207	0.0180436
614.285	0.0178853
614.363	0.0180894
614.442	0.0180261
614.520	0.0180666
614.598	0.0180682
614.676	0.0181113
614.754	0.0182449
614.832	0.0180063
614.910	0.0180031
614.988	0.0181770
615.067	0.0178947
615.145	0.0180545
615.223	0.0180254
615.301	0.0180392
615.379	0.0179991
615.457	0.0179661
615.535	0.0180225
615.613	0.0179592
615.692	0.0180229
615.770	0.0179873
615.848	0.0179040
615.926	0.0180951
616.004	0.0179984
616.082	0.0179536
616.160	0.0179196
616.238	0.0179229
616.317	0.0179534
616.395	0.0179247
616.473	0.0178859
616.551	0.0178583
616.629	0.0179485
616.707	0.0179980
616.785	0.0179370
616.863	0.0178855
616.942	0.0180876
617.020	0.0180090
617.098	0.0180337
617.176	0.0179624
617.254	0.0179208
617.332	0.0180363
617.410	0.0179916
617.488	0.0181665
617.567	0.0179263
617.645	0.0179457
617.723	0.0181419
617.801	0.0179552
617.879	0.0181614
617.957	0.0181966
618.035	0.0181016
618.113	0.0180249
618.192	0.0180264
618.270	0.0180550
618.348	0.0181689
618.426	0.0180610
618.504	0.0181344
618.582	0.0180967
618.660	0.0179446
618.738	0.0180663
618.817	0.0180936
618.895	0.0180263
618.973	0.0181617
619.051	0.0179256
619.129	0.0178926
619.207	0.0180376
619.285	0.0180589
619.363	0.0180728
619.442	0.0180312
619.520	0.0179356
619.598	0.0180785
619.676	0.0180387
619.754	0.0181339
619.832	0.0179613
619.910	0.0178446
619.988	0.0179565
620.067	0.0179936
620.145	0.0178751
620.223	0.0179506
620.301	0.0179169
620.379	0.0178670
620.457	0.0178738
620.535	0.0178527
620.613	0.0179758
620.692	0.0179005
620.770	0.0178627
620.848	0.0177543
620.926	0.0177127
621.004	0.0180062
621.082	0.0180874
621.160	0.0179740
621.238	0.0179469
621.317	0.0179840
621.395	0.0179198
621.473	0.0180958
621.551	0.0180182
621.629	0.0181998
621.707	0.0181271
621.785	0.0179651
621.863	0.0179954
621.942	0.0181685
622.020	0.0181319
622.098	0.0181433
622.176	0.0180692
622.254	0.0180975
622.332	0.0180813
622.410	0.0180991
622.488	0.0180584
622.567	0.0180302
622.645	0.0181412
622.723	0.0181039
622.801	0.0181722
622.879	0.0181322
622.957	0.0179869
623.035	0.0181238
623.113	0.0180862
623.192	0.0179837
623.270	0.0180972
623.348	0.0179532
623.426	0.0181019
623.504	0.0179444
623.582	0.0179554
623.660	0.0179697
623.738	0.0179823
623.817	0.0178986
623.895	0.0179539
623.973	0.0179684
624.051	0.0179594
624.129	0.0179480
624.207	0.0179066
624.285	0.0177798
624.363	0.0178030
624.442	0.0177617
624.520	0.0179324
624.598	0.0180110
624.676	0.0179762
624.754	0.0178783
624.832	0.0177094
624.910	0.0178201
624.988	0.0178222
625.067	0.0178494
625.145	0.0179545
625.223	0.0180243
625.301	0.0180878
625.379	0.0180357
625.457	0.0179713
625.535	0.0179452
625.613	0.0179737
625.692	0.0179864
625.770	0.0180366
625.848	0.0180499
625.926	0.0180806
626.004	0.0181973
626.082	0.0179615
626.160	0.0180304
626.238	0.0180495
626.317	0.0180403
626.395	0.0181441
626.473	0.0181636
626.551	0.0181768
626.629	0.0180825
626.707	0.0179399
626.785	0.0180757
626.863	0.0179872
626.942	0.0181084
627.020	0.0181152
627.098	0.0180356
627.176	0.0180795
627.254	0.0181121
627.332	0.0180486
627.410	0.0179456
627.488	0.0180179
627.567	0.0179583
627.645	0.0179271
627.723	0.0178980
627.801	0.0180656
627.879	0.0180228
627.957	0.0178651
628.035	0.0179191
628.113	0.0179726
628.192	0.0179807
628.270	0.0179771
628.348	0.0179346
628.426	0.0179150
628.504	0.0178046
628.582	0.0179859
628.660	0.0179930
628.738	0.0178791
628.817	0.0178615
628.895	0.0179282
628.973	0.0180116
629.051	0.0179250
629.129	0.0179263
629.207	0.0179160
629.285	0.0179891
629.363	0.0179478
629.442	0.0180637
629.520	0.0180332
629.598	0.0179842
629.676	0.0179132
629.754	0.0178545
629.832	0.0179509
629.910	0.0178792
629.988	0.0178921
630.067	0.0180745
630.145	0.0179995
630.223	0.0178818
630.301	0.0180535
630.379	0.0180229
630.457	0.0180093
630.535	0.0179616
630.613	0.0180287
630.692	0.0181541
630.770	0.0180477
630.848	0.0181126
630.926	0.0180440
631.004	0.0179766
631.082	0.0180617
631.160	0.0179484
631.238	0.0179678
631.317	0.0180936
631.395	0.0180891
631.473	0.0179935
631.551	0.0180923
631.629	0.0180727
631.707	0.0180083
631.785	0.0180303
631.863	0.0179579
631.942	0.0179621
632.020	0.0181205
632.098	0.0180914
632.176	0.0180247
632.254	0.0180000
632.332	0.0179471
632.410	0.0180697
632.488	0.0180958
632.567	0.0179549
632.645	0.0179051
632.723	0.0179675
632.801	0.0179924
632.879	0.0178988
632.957	0.0180864
633.035	0.0179597
633.113	0.0178200
633.192	0.0180026
633.270	0.0180602
633.348	0.0179958
633.426	0.0179360
633.504	0.0179378
633.582	0.0179642
633.660	0.0179653
633.738	0.0178893
633.817	0.0180507
633.895	0.0180177
633.973	0.0179699
634.051	0.0178873
634.129	0.0179364
634.207	0.0179929
634.285	0.0178976
634.363	0.0178371
634.442	0.0180067
634.520	0.0178682
634.598	0.0179671
634.676	0.0179458
634.754	0.0179697
634.832	0.0180345
634.910	0.0179676
634.988	0.0181174
635.067	0.0179807
635.145	0.0179238
635.223	0.0179423
635.301	0.0178931
635.379	0.0179358
635.457	0.0180585
635.535	0.0179674
635.613	0.0180025
635.692	0.0179221
635.770	0.0180016
635.848	0.0179478
635.926	0.0179758
636.004	0.0180405
636.082	0.0179337
636.160	0.0178621
636.238	0.0180465
636.317	0.0179092
636.395	0.0180178
636.473	0.0180429
636.551	0.0179673
636.629	0.0180927
636.707	0.0179268
636.785	0.0179057
636.863	0.0179604
636.942	0.0180731
637.020	0.0180965
637.098	0.0180009
637.176	0.0179948
637.254	0.0180147
637.332	0.0180462
637.410	0.0179765
637.488	0.0180772
637.567	0.0182359
637.645	0.0179076
637.723	0.0180459
637.801	0.0180666
637.879	0.0180533
637.957	0.0180405
638.035	0.0178827
638.113	0.0180317
638.192	0.0180505
638.270	0.0180318
638.348	0.0180493
638.426	0.0179773
638.504	0.0180740
638.582	0.0180631
638.660	0.0179854
638.738	0.0179096
638.817	0.0179930
638.895	0.0179886
638.973	0.0179272
639.051	0.0179958
639.129	0.0180066
639.207	0.0179868
639.285	0.0179997
639.363	0.0179733
639.442	0.0179169
639.520	0.0180208
639.598	0.0180495
639.676	0.0179592
639.754	0.0179665
639.832	0.0179758
639.910	0.0179314
639.988	0.0179889
640.067	0.0181142
640.145	0.0180478
640.223	0.0178655
640.301	0.0179629
640.379	0.0179663
640.457	0.0180785
640.535	0.0179832
640.613	0.0180059
640.692	0.0181409
640.770	0.0179028
640.848	0.0179250
640.926	0.0179227
641.004	0.0179482
641.082	0.0179801
641.160	0.0178333
641.238	0.0179020
641.317	0.0181115
641.395	0.0179747
641.473	0.0178673
641.551	0.0180324
641.629	0.0179677
641.707	0.0178809
641.785	0.0179343
641.863	0.0179850
641.942	0.0179320
642.020	0.0179203
642.098	0.0180532
642.176	0.0180628
642.254	0.0179846
642.332	0.0180829
642.410	0.0181047
642.488	0.0179630
642.567	0.0179821
642.645	0.0181519
642.723	0.0181115
642.801	0.0179881
642.879	0.0181307
642.957	0.0179998
643.035	0.0179467
643.113	0.0178224
643.192	0.0179335
643.270	0.0180452
643.348	0.0180377
643.426	0.0181036
643.504	0.0180643
643.582	0.0180127
643.660	0.0180184
643.738	0.0180513
643.817	0.0180297
643.895	0.0181049
643.973	0.0178957
644.051	0.0179301
644.129	0.0180240
644.207	0.0180855
644.285	0.0180594
644.363	0.0181492
644.442	0.0179923
644.520	0.0178722
644.598	0.0179018
644.676	0.0180663
644.754	0.0181165
644.832	0.0180025
644.910	0.0180376
644.988	0.0180063
645.067	0.0179421
645.145	0.0180886
645.223	0.0180997
645.301	0.0180030
645.379	0.0180196
645.457	0.0179007
645.535	0.0180241
645.613	0.0179723
645.692	0.0180161
645.770	0.0180186
645.848	0.0180017
645.926	0.0180544
646.004	0.0180589
646.082	0.0179167
646.160	0.0180367
646.238	0.0179703
646.317	0.0179539
646.395	0.0180332
646.473	0.0180549
646.551	0.0180676
646.629	0.0179150
646.707	0.0179519
646.785	0.0179665
646.863	0.0182037
646.942	0.0179287
647.020	0.0179956
647.098	0.0181041
647.176	0.0180449
647.254	0.0180962
647.332	0.0179588
647.410	0.0179027
647.488	0.0180613
647.567	0.0179858
647.645	0.0180788
647.723	0.0179989
647.801	0.0179417
647.879	0.0180820
647.957	0.0180436
648.035	0.0180141
648.113	0.0180293
648.192	0.0180112
648.270	0.0179790
648.348	0.0180016
648.426	0.0180549
648.504	0.0180904
648.582	0.0180156
648.660	0.0180148
648.738	0.0180547
648.817	0.0179799
648.895	0.0180225
648.973	0.0180733
649.051	0.0180749
649.129	0.0180218
649.207	0.0180120
649.285	0.0180584
649.363	0.0179294
649.442	0.0180093
649.520	0.0180909
649.598	0.0180700
649.676	0.0180656
649.754	0.0179540
649.832	0.0181085
649.910	0.0179600
649.988	0.0180729
650.067	0.0179031
650.145	0.0179577
650.223	0.0178852
650.301	0.0180531
650.379	0.0179718
650.457	0.0180093
650.535	0.0180492
650.613	0.0180067
650.692	0.0180074
650.770	0.0180121
650.848	0.0179227
650.926	0.0180128
651.004	0.0180896
651.082	0.0180791
651.160	0.0179018
651.238	0.0180635
651.317	0.0179576
651.395	0.0181470
651.473	0.0180493
651.551	0.0179220
651.629	0.0179337
651.707	0.0180792
651.785	0.0181493
651.863	0.0180171
651.942	0.0180757
652.020	0.0180324
652.098	0.0181126
652.176	0.0179047
652.254	0.0178799
652.332	0.0179381
652.410	0.0180094
652.488	0.0180144
652.567	0.0180312
652.645	0.0179693
652.723	0.0180920
652.801	0.0178908
652.879	0.0180242
652.957	0.0180862
653.035	0.0178609
653.113	0.0178909
653.192	0.0179974
653.270	0.0179800
653.348	0.0181038
653.426	0.0180171
653.504	0.0179753
653.582	0.0179287
653.660	0.0178674
653.738	0.0180170
653.817	0.0179824
653.895	0.0180772
653.973	0.0180615
654.051	0.0180259
654.129	0.0178866
654.207	0.0179025
654.285	0.0179679
654.363	0.0179808
654.442	0.0178976
654.520	0.0179361
654.598	0.0180321
654.676	0.0180522
654.754	0.0178810
654.832	0.0178465
654.910	0.0179726
654.988	0.0180991
655.067	0.0181041
655.145	0.0180163
655.223	0.0178775
655.301	0.0180318
655.379	0.0179530
655.457	0.0180189
655.535	0.0179955
655.613	0.0179878
655.692	0.0179294
655.770	0.0179191
655.848	0.0179762
655.926	0.0180403
656.004	0.0180064
656.082	0.0179528
656.160	0.0180357
656.238	0.0179999
656.317	0.0179671
656.395	0.0179082
656.473	0.0180595
656.551	0.0179552
656.629	0.0179548
656.707	0.0179626
656.785	0.0179975
656.863	0.0179742
656.942	0.0180943
657.020	0.0180013
657.098	0.0181335
657.176	0.0180079
657.254	0.0180795
657.332	0.0181403
657.410	0.0179435
657.488	0.0180376
657.567	0.0179974
657.645	0.0180666
657.723	0.0180598
657.801	0.0180268
657.879	0.0181314
657.957	0.0179767
658.035	0.0179982
658.113	0.0180334
658.192	0.0181573
658.270	0.0180313
658.348	0.0180911
658.426	0.0180093
658.504	0.0179799
658.582	0.0180838
658.660	0.0180428
658.738	0.0180152
658.817	0.0180671
658.895	0.0180506
658.973	0.0179954
659.051	0.0179779
659.129	0.0180195
659.207	0.0179242
659.285	0.0180717
659.363	0.0181061
659.442	0.0178978
659.520	0.0180472
659.598	0.0178962
659.676	0.0180656
659.754	0.0181409
659.832	0.0181229
659.910	0.0180767
659.988	0.0180876
660.067	0.0181165
660.145	0.0180386
660.223	0.0180868
660.301	0.0180358
660.379	0.0181104
660.457	0.0180000
660.535	0.0180009
660.613	0.0181180
660.692	0.0180138
660.770	0.0180264
660.848	0.0179579
660.926	0.0179601
661.004	0.0179986
661.082	0.0181907
661.160	0.0180156
661.238	0.0179665
661.317	0.0181449
661.395	0.0179716
661.473	0.0179269
661.551	0.0180775
661.629	0.0180090
661.707	0.0179931
661.785	0.0180637
661.863	0.0180836
661.942	0.0181526
662.020	0.0180965
662.098	0.0179843
662.176	0.0179562
662.254	0.0180959
662.332	0.0180699
662.410	0.0179926
662.488	0.0179096
662.567	0.0179434
662.645	0.0179350
662.723	0.0180698
662.801	0.0180167
662.879	0.0180292
662.957	0.0180229
663.035	0.0179286
663.113	0.0180331
663.192	0.0180028
663.270	0.0179465
663.348	0.0180353
663.426	0.0180525
663.504	0.0181662
663.582	0.0180099
663.660	0.0179781
663.738	0.0179273
663.817	0.0180101
663.895	0.0179949
663.973	0.0180628
664.051	0.0179368
664.129	0.0179754
664.207	0.0179916
664.285	0.0179707
664.363	0.0180856
664.442	0.0179989
664.520	0.0180398
664.598	0.0180448
664.676	0.0180601
664.754	0.0178928
664.832	0.0180907
664.910	0.0180332
664.988	0.0181164
665.067	0.0180539
665.145	0.0180737
665.223	0.0179498
665.301	0.0178742
665.379	0.0181014
665.457	0.0179195
665.535	0.0180360
665.613	0.0180544
665.692	0.0180059
665.770	0.0179420
665.848	0.0180403
665.926	0.0179677
666.004	0.0180181
666.082	0.0181081
666.160	0.0179089
666.238	0.0180249
666.317	0.0180486
666.395	0.0179803
666.473	0.0180145
666.551	0.0180843
666.629	0.0180111
666.707	0.0178960
666.785	0.0179881
666.863	0.0181416
666.942	0.0179009
667.020	0.0179214
667.098	0.0179672
667.176	0.0179389
667.254	0.0179147
667.332	0.0179877
667.410	0.0179984
667.488	0.0180576
667.567	0.0179764
667.645	0.0180249
667.723	0.0179842
667.801	0.0179612
667.879	0.0180261
667.957	0.0179623
668.035	0.0178893
668.113	0.0180297
668.192	0.0180102
668.270	0.0180560
668.348	0.0180492
668.426	0.0180777
668.504	0.0179822
668.582	0.0180219
668.660	0.0179670
668.738	0.0180628
668.817	0.0180296
668.895	0.0180393
668.973	0.0181238
669.051	0.0181209
669.129	0.0180482
669.207	0.0180824
669.285	0.0179182
669.363	0.0180392
669.442	0.0181182
669.520	0.0179886
669.598	0.0178400
669.676	0.0181046
669.754	0.0180643
669.832	0.0180644
669.910	0.0179845
669.988	0.0180044
670.067	0.0179617
670.145	0.0179792
670.223	0.0180825
670.301	0.0180930
670.379	0.0180178
670.457	0.0180662
670.535	0.0180365
670.613	0.0179218
670.692	0.0179461
670.770	0.0180714
670.848	0.0180901
670.926	0.0179671
671.004	0.0180094
671.082	0.0181079
671.160	0.0180917
671.238	0.0180348
671.317	0.0180486
671.395	0.0180767
671.473	0.0180095
671.551	0.0180302
671.629	0.0179396
671.707	0.0179465
671.785	0.0179541
671.863	0.0180618
671.942	0.0179991
672.020	0.0178490
672.098	0.0179906
672.176	0.0179574
672.254	0.0180490
672.332	0.0180334
672.410	0.0181126
672.488	0.0180681
672.567	0.0180195
672.645	0.0179747
672.723	0.0180841
672.801	0.0180740
672.879	0.0179452
672.957	0.0179739
673.035	0.0180138
673.113	0.0180965
673.192	0.0180330
673.270	0.0180544
673.348	0.0179876
673.426	0.0179851
673.504	0.0181463
673.582	0.0179299
673.660	0.0179089
673.738	0.0178995
673.817	0.0179433
673.895	0.0180750
673.973	0.0179681
674.051	0.0179855
674.129	0.0180437
674.207	0.0180040
674.285	0.0178853
674.363	0.0179124
674.442	0.0180685
674.520	0.0177972
674.598	0.0179530
674.676	0.0180262
674.754	0.0179227
674.832	0.0180227
674.910	0.0180355
674.988	0.0180247
675.067	0.0180389
675.145	0.0180343
675.223	0.0178951
675.301	0.0181377
675.379	0.0180482
675.457	0.0180543
675.535	0.0180347
675.613	0.0181296
675.692	0.0180350
675.770	0.0180586
675.848	0.0179740
675.926	0.0179794
676.004	0.0179610
676.082	0.0178785
676.160	0.0178941
676.238	0.0179236
676.317	0.0179458
676.395	0.0179259
676.473	0.0180487
676.551	0.0181160
676.629	0.0180647
676.707	0.0180041
676.785	0.0179204
676.863	0.0180616
676.942	0.0180139
677.020	0.0181684
677.098	0.0180357
677.176	0.0179540
677.254	0.0181285
677.332	0.0180523
677.410	0.0180794
677.488	0.0179786
677.567	0.0179614
677.645	0.0181144
677.723	0.0180364
677.801	0.0180444
677.879	0.0178513
677.957	0.0177838
678.035	0.0178717
678.113	0.0178100
678.192	0.0178609
678.270	0.0178628
678.348	0.0178914
678.426	0.0178920
678.504	0.0179803
678.582	0.0180190
678.660	0.0181225
678.738	0.0181251
678.817	0.0181166
678.895	0.0181297
678.973	0.0181210
679.051	0.0180653
679.129	0.0181243
679.207	0.0181218
679.285	0.0180280
679.363	0.0180289
679.442	0.0179655
679.520	0.0177991
679.598	0.0178191
679.676	0.0179042
679.754	0.0178285
679.832	0.0177759
679.910	0.0178648
679.988	0.0177034
680.067	0.0176245
680.145	0.0177316
680.223	0.0178284
680.301	0.0178775
680.379	0.0180118
680.457	0.0179739
680.535	0.0179047
680.613	0.0180641
680.692	0.0180745
680.770	0.0181221
680.848	0.0180185
680.926	0.0180790
681.004	0.0181627
681.082	0.0180498
681.160	0.0180693
681.238	0.0181011
681.317	0.0180149
681.395	0.0180121
681.473	0.0180090
681.551	0.0178887
681.629	0.0181177
681.707	0.0179898
681.785	0.0180095
681.863	0.0179012
681.942	0.0181067
682.020	0.0180206
682.098	0.0179739
682.176	0.0179078
682.254	0.0179946
682.332	0.0181968
682.410	0.0180234
682.488	0.0179011
682.567	0.0179811
682.645	0.0180623
682.723	0.0179047
682.801	0.0179952
682.879	0.0180193
682.957	0.0178927
683.035	0.0180163
683.113	0.0181528
683.192	0.0181432
683.270	0.0180287
683.348	0.0180331
683.426	0.0180624
683.504	0.0180008
683.582	0.0179115
683.660	0.0180320
683.738	0.0178410
683.817	0.0178705
683.895	0.0178588
683.973	0.0177760
684.051	0.0180454
684.129	0.0180729
684.207	0.0181713
684.285	0.0183193
684.363	0.0181990
684.442	0.0183639
684.520	0.0184140
684.598	0.0184741
684.676	0.0183056
684.754	0.0181972
684.832	0.0181630
684.910	0.0180883
684.988	0.0180695
685.067	0.0179962
685.145	0.0176876
685.223	0.0175175
685.301	0.0176190
685.379	0.0174540
685.457	0.0175386
685.535	0.0175602
685.613	0.0176473
685.692	0.0176791
685.770	0.0177267
685.848	0.0177163
685.926	0.0177825
686.004	0.0181120
686.082	0.0179164
686.160	0.0178052
686.238	0.0179565
686.317	0.0179069
686.395	0.0179724
686.473	0.0181281
686.551	0.0179708
686.629	0.0180654
686.707	0.0182572
686.785	0.0184095
686.863	0.0184942
686.942	0.0186069
687.020	0.0186519
687.098	0.0186333
687.176	0.0187215
687.254	0.0186947
687.332	0.0186542
687.410	0.0186804
687.488	0.0183867
687.567	0.0183811
687.645	0.0181757
687.723	0.0178104
687.801	0.0177094
687.879	0.0175101
687.957	0.0174989
688.035	0.0175471
688.113	0.0175978
688.192	0.0176999
688.270	0.0176892
688.348	0.0178837
688.426	0.0179416
688.504	0.0180731
688.582	0.0180753
688.660	0.0179796
688.738	0.0177901
688.817	0.0175919
688.895	0.0173763
688.973	0.0172139
689.051	0.0170657
689.129	0.0171165
689.207	0.0168527
689.285	0.0166954
689.363	0.0166281
689.442	0.0168880
689.520	0.0170221
689.598	0.0170898
689.676	0.0173544
689.754	0.0178259
689.832	0.0180535
689.910	0.0183051
689.988	0.0188464
690.067	0.0191776
690.145	0.0192634
690.223	0.0196655
690.301	0.0200430
690.379	0.0202916
690.457	0.0204774
690.535	0.0209134
690.613	0.0210342
690.692	0.0211092
690.770	0.0211696
690.848	0.0211520
690.926	0.0211269
691.004	0.0208078
691.082	0.0207270
691.160	0.0202918
691.238	0.0196536
691.317	0.0191428
691.395	0.0182007
691.473	0.0174318
691.551	0.0166271
691.629	0.0155833
691.707	0.0147730
691.785	0.0138619
691.863	0.0129870
691.942	0.0122951
692.020	0.0116869
692.098	0.0112130
692.176	0.0110883
692.254	0.0109992
692.332	0.0111840
692.410	0.0112895
692.488	0.0117464
692.567	0.0122745
692.645	0.0129736
692.723	0.0139327
692.801	0.0148048
692.879	0.0158878
692.957	0.0170518
693.035	0.0181254
693.113	0.0193185
693.192	0.0204635
693.270	0.0216676
693.348	0.0227317
693.426	0.0239648
693.504	0.0247968
693.582	0.0256218
693.660	0.0263921
693.738	0.0269309
693.817	0.0276196
693.895	0.0277999
693.973	0.0280209
694.051	0.0279646
694.129	0.0278251
694.207	0.0274726
694.285	0.0269489
694.363	0.0263015
694.442	0.0253727
694.520	0.0242844
694.598	0.0232956
694.676	0.0217466
694.754	0.0204515
694.832	0.0187511
694.910	0.0173434
694.988	0.0153951
695.067	0.0135028
695.145	0.0117764
695.223	0.00995857
695.301	0.00800201
695.379	0.00647629
695.457	0.00494713
695.535	0.00388359
695.613	0.00307503
695.692	0.00255867
695.770	0.00253517
695.848	0.00283005
695.926	0.00321289
696.004	0.00425194
696.082	0.00516899
696.160	0.00641975
696.238	0.00798378
696.317	0.00949127
696.395	0.0113384
696.473	0.0130737
696.551	0.0150166
696.629	0.0171145
696.707	0.0189945
696.785	0.0208531
696.863	0.0229301
696.942	0.0247530
697.020	0.0264391
697.098	0.0280164
697.176	0.0293839
697.254	0.0305875
697.332	0.0314198
697.410	0.0321532
697.488	0.0325172
697.567	0.0326865
697.645	0.0328957
697.723	0.0329251
697.801	0.0327475
697.879	0.0326424
697.957	0.0323074
698.035	0.0320029
698.113	0.0315912
698.192	0.0309417
698.270	0.0301858
698.348	0.0293076
698.426	0.0280932
698.504	0.0266096
698.582	0.0247954
698.660	0.0227858
698.738	0.0206679
698.817	0.0180717
698.895	0.0153738
698.973	0.0124117
699.051	0.00938896
699.129	0.00665504
699.207	0.00384544
699.285	0.00132439
699.363	-0.00113068
699.442	-0.00321175
699.520	-0.00494072
699.598	-0.00627205
699.676	-0.00698158
699.754	-0.00757629
699.832	-0.00724678
699.910	-0.00666573
699.988	-0.00561249
700.067	-0.00404884
700.145	-0.00183380
700.223	0.000243683
700.301	0.00309822
700.379	0.00637383
700.457	0.00967300
700.535	0.0131539
700.613	0.0167651
700.692	0.0204808
700.770	0.0238863
700.848	0.0274943
700.926	0.0306640
701.004	0.0335770
701.082	0.0360199
701.160	0.0382485
701.238	0.0400664
701.317	0.0411816
701.395	0.0417903
701.473	0.0421599
701.551	0.0419162
701.629	0.0414219
701.707	0.0403488
701.785	0.0389933
701.863	0.0375540
701.942	0.0359850
702.020	0.0340874
702.098	0.0322044
702.176	0.0302225
702.254	0.0286032
702.332	0.0269296
702.410	0.0251836
702.488	0.0236169
702.567	0.0222472
702.645	0.0204654
702.723	0.0184965
702.801	0.0168196
702.879	0.0147560
702.957	0.0124689
703.035	0.0101661
703.113	0.00773277
703.192	0.00562141
703.270	0.00327553
703.348	0.00101013
703.426	-0.000902710
703.504	-0.00246170
703.582	-0.00403419
703.660	-0.00509041
703.738	-0.00584045
703.817	-0.00602119
703.895	-0.00573891
703.973	-0.00512711
704.051	-0.00407394
704.129	-0.00243591
704.207	-0.000658264
704.285	0.00147614
704.363	0.00389008
704.442	0.00643112
704.520	0.00935539
704.598	0.0121820
704.676	0.0151395
704.754	0.0182693
704.832	0.0214152
704.910	0.0239997
704.988	0.0267017
705.067	0.0290797
705.145	0.0312815
705.223	0.0331562
705.301	0.0345586
705.379	0.0357610
705.457	0.0366039
705.535	0.0370467
705.613	0.0373788
705.692	0.0373444
705.770	0.0368571
705.848	0.0361941
705.926	0.0354404
706.004	0.0342192
706.082	0.0327811
706.160	0.0314136
706.238	0.0297337
706.317	0.0282504
706.395	0.0266836
706.473	0.0249557
706.551	0.0235159
706.629	0.0218754
706.707	0.0202477
706.785	0.0188272
706.863	0.0172004
706.942	0.0158112
707.020	0.0144556
707.098	0.0130154
707.176	0.0117289
707.254	0.0106550
707.332	0.00950233
707.410	0.00849541
707.488	0.00779663
707.567	0.00711983
707.645	0.00666260
707.723	0.00641335
707.801	0.00642105
707.879	0.00662422
707.957	0.00703743
708.035	0.00752052
708.113	0.00834412
708.192	0.00913132
708.270	0.00992538
708.348	0.0106938
708.426	0.0116932
708.504	0.0124150
708.582	0.0132385
708.660	0.0139771
708.738	0.0147498
708.817	0.0153983
708.895	0.0160199
708.973	0.0164523
709.051	0.0170371
709.129	0.0174997
709.207	0.0178484
709.285	0.0182072
709.363	0.0186510
709.442	0.0192784
709.520	0.0198082
709.598	0.0202424
709.676	0.0209623
709.754	0.0213808
709.832	0.0219384
709.910	0.0223415
709.988	0.0227879
710.067	0.0231528
710.145	0.0234423
710.223	0.0236713
710.301	0.0236942
710.379	0.0235712
710.457	0.0235418
710.535	0.0231699
710.613	0.0229172
710.692	0.0225159
710.770	0.0221861
710.848	0.0216501
710.926	0.0211304
711.004	0.0208819
711.082	0.0203551
711.160	0.0200256
711.238	0.0195776
711.317	0.0191920
711.395	0.0187621
711.473	0.0184407
711.551	0.0181325
711.629	0.0178824
711.707	0.0175788
711.785	0.0175469
711.863	0.0175256
711.942	0.0175387
712.020	0.0176926
712.098	0.0176742
712.176	0.0177152
712.254	0.0178684
712.332	0.0180844
712.410	0.0181828
712.488	0.0182769
712.567	0.0181937
712.645	0.0182545
712.723	0.0180754
712.801	0.0178899
712.879	0.0176364
712.957	0.0173422
713.035	0.0169792
713.113	0.0168012
713.192	0.0164584
713.270	0.0160178
713.348	0.0157847
713.426	0.0156128
713.504	0.0154382
713.582	0.0154829
713.660	0.0152964
713.738	0.0153961
713.817	0.0154360
713.895	0.0156474
713.973	0.0156683
714.051	0.0161789
714.129	0.0162411
714.207	0.0164004
714.285	0.0163568
714.363	0.0165450
714.442	0.0163577
714.520	0.0163432
714.598	0.0162420
714.676	0.0161694
714.754	0.0159527
714.832	0.0157599
714.910	0.0157790
714.988	0.0156842
715.067	0.0157437
715.145	0.0157435
715.223	0.0158337
715.301	0.0162435
715.379	0.0164985
715.457	0.0168408
715.535	0.0173566
715.613	0.0179004
715.692	0.0183817
715.770	0.0188097
715.848	0.0194746
715.926	0.0200716
716.004	0.0203616
716.082	0.0208639
716.160	0.0213114
716.238	0.0215228
716.317	0.0217093
716.395	0.0217632
716.473	0.0218468
716.551	0.0219137
716.629	0.0219566
716.707	0.0216732
716.785	0.0213506
716.863	0.0211469
716.942	0.0207928
717.020	0.0206311
717.098	0.0200862
717.176	0.0195754
717.254	0.0193982
717.332	0.0191034
717.410	0.0189281
717.488	0.0186262
717.567	0.0186420
717.645	0.0184433
717.723	0.0182411
717.801	0.0183666
717.879	0.0183817
717.957	0.0182375
718.035	0.0183249
718.113	0.0182829
718.192	0.0182736
718.270	0.0183755
718.348	0.0182107
718.426	0.0180215
718.504	0.0176971
718.582	0.0176029
718.660	0.0172462
718.738	0.0170377
718.817	0.0166963
718.895	0.0164159
718.973	0.0160322
719.051	0.0159252
719.129	0.0156731
719.207	0.0154588
719.285	0.0153616
719.363	0.0153210
719.442	0.0153995
719.520	0.0155305
719.598	0.0155762
719.676	0.0156875
719.754	0.0159184
719.832	0.0160310
719.910	0.0161742
719.988	0.0164784
720.067	0.0165384
720.145	0.0166594
720.223	0.0169922
720.301	0.0169781
720.379	0.0171674
720.457	0.0172859
720.535	0.0174331
720.613	0.0174770
720.692	0.0174578
720.770	0.0177959
720.848	0.0179105
720.926	0.0180305
721.004	0.0181994
721.082	0.0183280
721.160	0.0184390
721.238	0.0186689
721.317	0.0187038
721.395	0.0187310
721.473	0.0187838
721.551	0.0189408
721.629	0.0188884
721.707	0.0188342
721.785	0.0189530
721.863	0.0192164
721.942	0.0191953
722.020	0.0192233
722.098	0.0192228
722.176	0.0191781
722.254	0.0192323
722.332	0.0191884
722.410	0.0191457
722.488	0.0191052
722.567	0.0189688
722.645	0.0189479
722.723	0.0189963
722.801	0.0188508
722.879	0.0189927
722.957	0.0189342
723.035	0.0189639
723.113	0.0189380
723.192	0.0190607
723.270	0.0190935
723.348	0.0188289
723.426	0.0189087
723.504	0.0188341
723.582	0.0189111
723.660	0.0186448
723.738	0.0185411
723.817	0.0184798
723.895	0.0181950
723.973	0.0182024
724.051	0.0180627
724.129	0.0178773
724.207	0.0179238
724.285	0.0178326
724.363	0.0179120
724.442	0.0178577
724.520	0.0175580
724.598	0.0175798
724.676	0.0174744
724.754	0.0174799
724.832	0.0174289
724.910	0.0173885
724.988	0.0174641
725.067	0.0173923
725.145	0.0172601
725.223	0.0173492
725.301	0.0172322
725.379	0.0172262
725.457	0.0171197
725.535	0.0172134
725.613	0.0171461
725.692	0.0170015
725.770	0.0168196
725.848	0.0168198
725.926	0.0166293
726.004	0.0166362
726.082	0.0166932
726.160	0.0165572
726.238	0.0165501
726.317	0.0166805
726.395	0.0166984
726.473	0.0168853
726.551	0.0172127
726.629	0.0171995
726.707	0.0174464
726.785	0.0177726
726.863	0.0179995
726.942	0.0182039
727.020	0.0183128
727.098	0.0186099
727.176	0.0186974
727.254	0.0187503
727.332	0.0188240
727.410	0.0189246
727.488	0.0188802
727.567	0.0188769
727.645	0.0188056
727.723	0.0186021
727.801	0.0185783
727.879	0.0185099
727.957	0.0183608
728.035	0.0182265
728.113	0.0181399
728.192	0.0182902
728.270	0.0180900
728.348	0.0180651
728.426	0.0180412
728.504	0.0181580
728.582	0.0183236
728.660	0.0182916
728.738	0.0184014
728.817	0.0183593
728.895	0.0183374
728.973	0.0185634
729.051	0.0185209
729.129	0.0184797
729.207	0.0186047
729.285	0.0185574
729.363	0.0183724
729.442	0.0182754
729.520	0.0182321
729.598	0.0181068
729.676	0.0178054
729.754	0.0177613
729.832	0.0176959
729.910	0.0175892
729.988	0.0176204
730.067	0.0175428
730.145	0.0174046
730.223	0.0175140
730.301	0.0178699
730.379	0.0179134
730.457	0.0180699
730.535	0.0183551
730.613	0.0185558
730.692	0.0187349
730.770	0.0189404
730.848	0.0189207
730.926	0.0190959
731.004	0.0191797
731.082	0.0192284
731.160	0.0191084
731.238	0.0189777
731.317	0.0189059
731.395	0.0189103
731.473	0.0184622
731.551	0.0183013
731.629	0.0180222
731.707	0.0176527
731.785	0.0173055
731.863	0.0171269
731.942	0.0168596
732.020	0.0167108
732.098	0.0167168
732.176	0.0167061
732.254	0.0166150
732.332	0.0167804
732.410	0.0168952
732.488	0.0168642
732.567	0.0172288
732.645	0.0172778
732.723	0.0174019
732.801	0.0175713
732.879	0.0175130
732.957	0.0176669
733.035	0.0176067
733.113	0.0175181
733.192	0.0174776
733.270	0.0174429
733.348	0.0172659
733.426	0.0171987
733.504	0.0169946
733.582	0.0168797
733.660	0.0169163
733.738	0.0170000
733.817	0.0168800
733.895	0.0169872
733.973	0.0170342
734.051	0.0171381
734.129	0.0172394
734.207	0.0175065
734.285	0.0177868
734.363	0.0179858
734.442	0.0181693
734.520	0.0184969
734.598	0.0185661
734.676	0.0189331
734.754	0.0191318
734.832	0.0194794
734.910	0.0196128
734.988	0.0197959
735.067	0.0199081
735.145	0.0197874
735.223	0.0197043
735.301	0.0197050
735.379	0.0195296
735.457	0.0193836
735.535	0.0192320
735.613	0.0189543
735.692	0.0187714
735.770	0.0185365
735.848	0.0183477
735.926	0.0181053
736.004	0.0179477
736.082	0.0178189
736.160	0.0177329
736.238	0.0178563
736.317	0.0177732
736.395	0.0176933
736.473	0.0177431
736.551	0.0178751
736.629	0.0179356
736.707	0.0179083
736.785	0.0179510
736.863	0.0181564
736.942	0.0180030
737.020	0.0179679
737.098	0.0181216
737.176	0.0180704
737.254	0.0179543
737.332	0.0178871
737.410	0.0176301
737.488	0.0175925
737.567	0.0175523
737.645	0.0173170
737.723	0.0171467
737.801	0.0170035
737.879	0.0169505
737.957	0.0167937
738.035	0.0166265
738.113	0.0166693
738.192	0.0164990
738.270	0.0165838
738.348	0.0167664
738.426	0.0167726
738.504	0.0170731
738.582	0.0172642
738.660	0.0175984
738.738	0.0177048
738.817	0.0180532
738.895	0.0184018
738.973	0.0186203
739.051	0.0189732
739.129	0.0191988
739.207	0.0195039
739.285	0.0194664
739.363	0.0195705
739.442	0.0197098
739.520	0.0194933
739.598	0.0193536
739.676	0.0192126
739.754	0.0191184
739.832	0.0186950
739.910	0.0183922
739.988	0.0182869
740.067	0.0179562
740.145	0.0177007
740.223	0.0176267
740.301	0.0172939
740.379	0.0171996
740.457	0.0172958
740.535	0.0171158
740.613	0.0170692
740.692	0.0172701
740.770	0.0173214
740.848	0.0175818
740.926	0.0176823
741.004	0.0178297
741.082	0.0180956
741.160	0.0180133
741.238	0.0181430
741.317	0.0182061
741.395	0.0182000
741.473	0.0182443
741.551	0.0181738
741.629	0.0181620
741.707	0.0181195
741.785	0.0180152
741.863	0.0176447
741.942	0.0173605
742.020	0.0174474
742.098	0.0172806
742.176	0.0173548
742.254	0.0171791
742.332	0.0168954
742.410	0.0168910
742.488	0.0170808
742.567	0.0171025
742.645	0.0172878
742.723	0.0176186
742.801	0.0176876
742.879	0.0178133
742.957	0.0182046
743.035	0.0184365
743.113	0.0187770
743.192	0.0190319
743.270	0.0193993
743.348	0.0194577
743.426	0.0196551
743.504	0.0198129
743.582	0.0198986
743.660	0.0197301
743.738	0.0195772
743.817	0.0194415
743.895	0.0191647
743.973	0.0190066
744.051	0.0188438
744.129	0.0186439
744.207	0.0182918
744.285	0.0180392
744.363	0.0179803
744.442	0.0176306
744.520	0.0175039
744.598	0.0173985
744.676	0.0172397
744.754	0.0172076
744.832	0.0173869
744.910	0.0172996
744.988	0.0172114
745.067	0.0171772
745.145	0.0173180
745.223	0.0174654
745.301	0.0175056
745.379	0.0175625
745.457	0.0176202
745.535	0.0175656
745.613	0.0178083
745.692	0.0178400
745.770	0.0178071
745.848	0.0179249
745.926	0.0178458
746.004	0.0177798
746.082	0.0179045
746.160	0.0179312
746.238	0.0178773
746.317	0.0180147
746.395	0.0179267
746.473	0.0179960
746.551	0.0177268
746.629	0.0179034
746.707	0.0177810
746.785	0.0178620
746.863	0.0179364
746.942	0.0179454
747.020	0.0179581
747.098	0.0180345
747.176	0.0180666
747.254	0.0180841
747.332	0.0179842
747.410	0.0182333
747.488	0.0181982
747.567	0.0181493
747.645	0.0181837
747.723	0.0183524
747.801	0.0181884
747.879	0.0181943
747.957	0.0180300
748.035	0.0181386
748.113	0.0180105
748.192	0.0178725
748.270	0.0177913
748.348	0.0177682
748.426	0.0177641
748.504	0.0177810
748.582	0.0175908
748.660	0.0175506
748.738	0.0174394
748.817	0.0175060
748.895	0.0175140
748.973	0.0174798
749.051	0.0175459
749.129	0.0176251
749.207	0.0177622
749.285	0.0179388
749.363	0.0180824
749.442	0.0181284
749.520	0.0183237
749.598	0.0185022
749.676	0.0186845
749.754	0.0189105
749.832	0.0189766
749.910	0.0190233
749.988	0.0189716
750.067	0.0189311
750.145	0.0188694
750.223	0.0189962
750.301	0.0188126
750.379	0.0185652
750.457	0.0184422
750.535	0.0184089
750.613	0.0184199
750.692	0.0182053
750.770	0.0179260
750.848	0.0178409
750.926	0.0176250
751.004	0.0177039
751.082	0.0176145
751.160	0.0174963
751.238	0.0175323
751.317	0.0176736
751.395	0.0176707
751.473	0.0177387
751.551	0.0178555
751.629	0.0178120
751.707	0.0179557
751.785	0.0181780
751.863	0.0182581
751.942	0.0182439
752.020	0.0183911
752.098	0.0183515
752.176	0.0182675
752.254	0.0181477
752.332	0.0181193
752.410	0.0180219
752.488	0.0179967
752.567	0.0180045
752.645	0.0179026
752.723	0.0177567
752.801	0.0176004
752.879	0.0177676
752.957	0.0176035
753.035	0.0176332
753.113	0.0175630
753.192	0.0176331
753.270	0.0176668
753.348	0.0176730
753.426	0.0177246
753.504	0.0178294
753.582	0.0179042
753.660	0.0179195
753.738	0.0179685
753.817	0.0181268
753.895	0.0183234
753.973	0.0182887
754.051	0.0182365
754.129	0.0183091
754.207	0.0184985
754.285	0.0185464
754.363	0.0183905
754.442	0.0183565
754.520	0.0181176
754.598	0.0182234
754.676	0.0181089
754.754	0.0181200
754.832	0.0179555
754.910	0.0177807
754.988	0.0176315
755.067	0.0175048
755.145	0.0175307
755.223	0.0175549
755.301	0.0174739
755.379	0.0173002
755.457	0.0171122
755.535	0.0170715
755.613	0.0171559
755.692	0.0171039
755.770	0.0172137
755.848	0.0173695
755.926	0.0174532
756.004	0.0174586
756.082	0.0174330
756.160	0.0176363
756.238	0.0178284
756.317	0.0178104
756.395	0.0179272
756.473	0.0180577
756.551	0.0181786
756.629	0.0182447
756.707	0.0182302
756.785	0.0182922
756.863	0.0182286
756.942	0.0182468
757.020	0.0182402
757.098	0.0181680
757.176	0.0181084
757.254	0.0181755
757.332	0.0181446
757.410	0.0180316
757.488	0.0181807
757.567	0.0183177
757.645	0.0181855
757.723	0.0182964
757.801	0.0183614
757.879	0.0184669
757.957	0.0184750
758.035	0.0185971
758.113	0.0186821
758.192	0.0186539
758.270	0.0187704
758.348	0.0186679
758.426	0.0186283
758.504	0.0185627
758.582	0.0185556
758.660	0.0184737
758.738	0.0183553
758.817	0.0182233
758.895	0.0182749
758.973	0.0179935
759.051	0.0177975
759.129	0.0178044
759.207	0.0178010
759.285	0.0175866
759.363	0.0175209
759.442	0.0175483
759.520	0.0175496
759.598	0.0176005
759.676	0.0174590
759.754	0.0175269
759.832	0.0176925
759.910	0.0176038
759.988	0.0176589
760.067	0.0178521
760.145	0.0180357
760.223	0.0178619
760.301	0.0178678
760.379	0.0179259
760.457	0.0179111
760.535	0.0178717
760.613	0.0178398
760.692	0.0177754
760.770	0.0178719
760.848	0.0178441
760.926	0.0175611
761.004	0.0175040
761.082	0.0174757
761.160	0.0174569
761.238	0.0173221
761.317	0.0173326
761.395	0.0174850
761.473	0.0174789
761.551	0.0173755
761.629	0.0174728
761.707	0.0176928
761.785	0.0177084
761.863	0.0178740
761.942	0.0178874
762.020	0.0180315
762.098	0.0181455
762.176	0.0181751
762.254	0.0180872
762.332	0.0182371
762.410	0.0182905
762.488	0.0184203
762.567	0.0185255
762.645	0.0185464
762.723	0.0185525
762.801	0.0184444
762.879	0.0183092
762.957	0.0182355
763.035	0.0181715
763.113	0.0182571
763.192	0.0181631
763.270	0.0179787
763.348	0.0177637
763.426	0.0178011
763.504	0.0177277
763.582	0.0176180
763.660	0.0176428
763.738	0.0175231
763.817	0.0173793
763.895	0.0173722
763.973	0.0175366
764.051	0.0174355
764.129	0.0174497
764.207	0.0175105
764.285	0.0176280
764.363	0.0177196
764.442	0.0177605
764.520	0.0180688
764.598	0.0180741
764.676	0.0181193
764.754	0.0182800
764.832	0.0183053
764.910	0.0183294
764.988	0.0183475
765.067	0.0183562
765.145	0.0185303
765.223	0.0185368
765.301	0.0184993
765.379	0.0185188
765.457	0.0182782
765.535	0.0183243
765.613	0.0183302
765.692	0.0182384
765.770	0.0181513
765.848	0.0182825
765.926	0.0181885
766.004	0.0181461
766.082	0.0182180
766.160	0.0181927
766.238	0.0180919
766.317	0.0182414
766.395	0.0182761
766.473	0.0181693
766.551	0.0181566
766.629	0.0181955
766.707	0.0183249
766.785	0.0182903
766.863	0.0184214
766.942	0.0185049
767.020	0.0183854
767.098	0.0184106
767.176	0.0185255
767.254	0.0185468
767.332	0.0183753
767.410	0.0181590
767.488	0.0182249
767.567	0.0181369
767.645	0.0179320
767.723	0.0177934
767.801	0.0177304
767.879	0.0178074
767.957	0.0176277
768.035	0.0176863
768.113	0.0175556
768.192	0.0173678
768.270	0.0173469
768.348	0.0174286
768.426	0.0174181
768.504	0.0173923
768.582	0.0174251
768.660	0.0174287
768.738	0.0175533
768.817	0.0175910
768.895	0.0175854
768.973	0.0177549
769.051	0.0178185
769.129	0.0176088
769.207	0.0177894
769.285	0.0179214
769.363	0.0178283
769.442	0.0178620
769.520	0.0178802
769.598	0.0178961
769.676	0.0179476
769.754	0.0179213
769.832	0.0178760
769.910	0.0177757
769.988	0.0177647
770.067	0.0179332
770.145	0.0177705
770.223	0.0176942
770.301	0.0178506
770.379	0.0178796
770.457	0.0177651
770.535	0.0178923
770.613	0.0181560
770.692	0.0180520
770.770	0.0181940
770.848	0.0183400
770.926	0.0182431
771.004	0.0184088
771.082	0.0185999
771.160	0.0186175
771.238	0.0185822
771.317	0.0185641
771.395	0.0187194
771.473	0.0185802
771.551	0.0185458
771.629	0.0185743
771.707	0.0185902
771.785	0.0184549
771.863	0.0185070
771.942	0.0183860
772.020	0.0183056
772.098	0.0181993
772.176	0.0182392
772.254	0.0179593
772.332	0.0180608
772.410	0.0180051
772.488	0.0178989
772.567	0.0178530
772.645	0.0179816
772.723	0.0178635
772.801	0.0179044
772.879	0.0179008
772.957	0.0178975
773.035	0.0179734
773.113	0.0178654
773.192	0.0179800
773.270	0.0179109
773.348	0.0179060
773.426	0.0179336
773.504	0.0179395
773.582	0.0180523
773.660	0.0180260
773.738	0.0180035
773.817	0.0180058
773.895	0.0180618
773.973	0.0179964
774.051	0.0180287
774.129	0.0180263
774.207	0.0179887
774.285	0.0181067
774.363	0.0179990
774.442	0.0179887
774.520	0.0180487
774.598	0.0180122
774.676	0.0181641
774.754	0.0181371
774.832	0.0181996
774.910	0.0180643
774.988	0.0182506
775.067	0.0180705
775.145	0.0180620
775.223	0.0181144
775.301	0.0179369
775.379	0.0180191
775.457	0.0178649
775.535	0.0177970
775.613	0.0177967
775.692	0.0176666
775.770	0.0176822
775.848	0.0177779
775.926	0.0177905
776.004	0.0177108
776.082	0.0178963
776.160	0.0177445
776.238	0.0178423
776.317	0.0178441
776.395	0.0179077
776.473	0.0180943
776.551	0.0181091
776.629	0.0181760
776.707	0.0180602
776.785	0.0181120
776.863	0.0180809
776.942	0.0179836
777.020	0.0179191
777.098	0.0180012
777.176	0.0180510
777.254	0.0179743
777.332	0.0177592
777.410	0.0178274
777.488	0.0178288
777.567	0.0176120
777.645	0.0175372
777.723	0.0174339
777.801	0.0175132
777.879	0.0175025
777.957	0.0174620
778.035	0.0173962
778.113	0.0176038
778.192	0.0174445
778.270	0.0176267
778.348	0.0176453
778.426	0.0177272
778.504	0.0177610
778.582	0.0176514
778.660	0.0176870
778.738	0.0178558
778.817	0.0178030
778.895	0.0178498
778.973	0.0178798
779.051	0.0179896
779.129	0.0181004
779.207	0.0180630
779.285	0.0181982
779.363	0.0182102
779.442	0.0182028
779.520	0.0182156
779.598	0.0184818
779.676	0.0183522
779.754	0.0184532
779.832	0.0183960
779.910	0.0183549
779.988	0.0184928
780.067	0.0184150
780.145	0.0184252
780.223	0.0184774
780.301	0.0184061
780.379	0.0186163
780.457	0.0185515
780.535	0.0185344
780.613	0.0186028
780.692	0.0186439
780.770	0.0185990
780.848	0.0185313
780.926	0.0185031
781.004	0.0184097
781.082	0.0183049
781.160	0.0181771
781.238	0.0182352
781.317	0.0181027
781.395	0.0180830
781.473	0.0180963
781.551	0.0179914
781.629	0.0179880
781.707	0.0179418
781.785	0.0177520
781.863	0.0177593
781.942	0.0178260
782.020	0.0177617
782.098	0.0176782
782.176	0.0177659
782.254	0.0176468
782.332	0.0176817
782.410	0.0176109
782.488	0.0175506
782.567	0.0175536
782.645	0.0174649
782.723	0.0174078
782.801	0.0173931
782.879	0.0173363
782.957	0.0173403
783.035	0.0173554
783.113	0.0174232
783.192	0.0174212
783.270	0.0173833
783.348	0.0174877
783.426	0.0175912
783.504	0.0174970
783.582	0.0175672
783.660	0.0177066
783.738	0.0177171
783.817	0.0178566
783.895	0.0177961
783.973	0.0178007
784.051	0.0179582
784.129	0.0179585
784.207	0.0181158
784.285	0.0182250
784.363	0.0182117
784.442	0.0183076
784.520	0.0184095
784.598	0.0185196
784.676	0.0186030
784.754	0.0184721
784.832	0.0185452
784.910	0.0185271
784.988	0.0184468
785.067	0.0184396
785.145	0.0184566
785.223	0.0185116
785.301	0.0181723
785.379	0.0182481
785.457	0.0179528
785.535	0.0180669
785.613	0.0179358
785.692	0.0178072
785.770	0.0177943
785.848	0.0177006
785.926	0.0178599
786.004	0.0177085
786.082	0.0175930
786.160	0.0177055
786.238	0.0176933
786.317	0.0179699
786.395	0.0179365
786.473	0.0179181
786.551	0.0179414
786.629	0.0180135
786.707	0.0180375
786.785	0.0181561
786.863	0.0182597
786.942	0.0183228
787.020	0.0183022
787.098	0.0182586
787.176	0.0181564
787.254	0.0182758
787.332	0.0182503
787.410	0.0181954
787.488	0.0180571
787.567	0.0181093
787.645	0.0180148
787.723	0.0178619
787.801	0.0180254
787.879	0.0178763
787.957	0.0177995
788.035	0.0177592
788.113	0.0178252
788.192	0.0177395
788.270	0.0176009
788.348	0.0177396
788.426	0.0176825
788.504	0.0176243
788.582	0.0177373
788.660	0.0177424
788.738	0.0176382
788.817	0.0177524
788.895	0.0179084
788.973	0.0179543
789.051	0.0177156
789.129	0.0178802
789.207	0.0179153
789.285	0.0180006
789.363	0.0178838
789.442	0.0179332
789.520	0.0180901
789.598	0.0180444
789.676	0.0179824
789.754	0.0180440
789.832	0.0182061
789.910	0.0183154
789.988	0.0183851
790.067	0.0184830
790.145	0.0184676
790.223	0.0186750
790.301	0.0186411
790.379	0.0188979
790.457	0.0188951
790.535	0.0188685
790.613	0.0190063
790.692	0.0190724
790.770	0.0189526
790.848	0.0191265
790.926	0.0189970
791.004	0.0187947
791.082	0.0187095
791.160	0.0186047
791.238	0.0183830
791.317	0.0183155
791.395	0.0180907
791.473	0.0178381
791.551	0.0175520
791.629	0.0173877
791.707	0.0172061
791.785	0.0169855
791.863	0.0168435
791.942	0.0166484
792.020	0.0164345
792.098	0.0162888
792.176	0.0161665
792.254	0.0160361
792.332	0.0160619
792.410	0.0158385
792.488	0.0159706
792.567	0.0158666
792.645	0.0160658
792.723	0.0162074
792.801	0.0165195
792.879	0.0166313
792.957	0.0169456
793.035	0.0170956
793.113	0.0174433
793.192	0.0177974
793.270	0.0181219
793.348	0.0183612
793.426	0.0185468
793.504	0.0189112
793.582	0.0192094
793.660	0.0192785
793.738	0.0195234
793.817	0.0198178
793.895	0.0198923
793.973	0.0199736
794.051	0.0200349
794.129	0.0200497
794.207	0.0201379
794.285	0.0202039
794.363	0.0200996
794.442	0.0201187
794.520	0.0200657
794.598	0.0199345
794.676	0.0198602
794.754	0.0196775
794.832	0.0196873
794.910	0.0194559
794.988	0.0191750
795.067	0.0189561
795.145	0.0188921
795.223	0.0184924
795.301	0.0182005
795.379	0.0178737
795.457	0.0175798
795.535	0.0172607
795.613	0.0169919
795.692	0.0166899
795.770	0.0163411
795.848	0.0162247
795.926	0.0157267
796.004	0.0156033
796.082	0.0153906
796.160	0.0153861
796.238	0.0152872
796.317	0.0151630
796.395	0.0151324
796.473	0.0150954
796.551	0.0153445
796.629	0.0155956
796.707	0.0157787
796.785	0.0159251
796.863	0.0160485
796.942	0.0166556
797.020	0.0170516
797.098	0.0174668
797.176	0.0178693
797.254	0.0182861
797.332	0.0184574
797.410	0.0188586
797.488	0.0193376
797.567	0.0195010
797.645	0.0196577
797.723	0.0200014
797.801	0.0200476
797.879	0.0201792
797.957	0.0203786
798.035	0.0202667
798.113	0.0203649
798.192	0.0203803
798.270	0.0203192
798.348	0.0201901
798.426	0.0200713
798.504	0.0200423
798.582	0.0199304
798.660	0.0196852
798.738	0.0195229
798.817	0.0192920
798.895	0.0192146
798.973	0.0188548
799.051	0.0186021
799.129	0.0184337
799.207	0.0182010
799.285	0.0179992
799.363	0.0177494
799.442	0.0175119
799.520	0.0172792
799.598	0.0170397
799.676	0.0170276
799.754	0.0165750
799.832	0.0162757
799.910	0.0161263
799.988	0.0158524
800.067	0.0156013
800.145	0.0155395
800.223	0.0154163
800.301	0.0151640
800.379	0.0153054
800.457	0.0153764
800.535	0.0153380
800.613	0.0154664
800.692	0.0156675
800.770	0.0157449
800.848	0.0159877
800.926	0.0162874
801.004	0.0165244
801.082	0.0168927
801.160	0.0171908
801.238	0.0175413
801.317	0.0179015
801.395	0.0181435
801.473	0.0183783
801.551	0.0187596
801.629	0.0189221
801.707	0.0192138
801.785	0.0194647
801.863	0.0197610
801.942	0.0198843
802.020	0.0199302
802.098	0.0199995
802.176	0.0201176
802.254	0.0202742
802.332	0.0202948
802.410	0.0202379
802.488	0.0201984
802.567	0.0201016
802.645	0.0199838
802.723	0.0199383
802.801	0.0197998
802.879	0.0196497
802.957	0.0195914
803.035	0.0194120
803.113	0.0191586
803.192	0.0189617
803.270	0.0187691
803.348	0.0186596
803.426	0.0186167
803.504	0.0181859
803.582	0.0181039
803.660	0.0179980
803.738	0.0177077
803.817	0.0175968
803.895	0.0174422
803.973	0.0172194
804.051	0.0170907
804.129	0.0169096
804.207	0.0169473
804.285	0.0167016
804.363	0.0166228
804.442	0.0164575
804.520	0.0164617
804.598	0.0166261
804.676	0.0163582
804.754	0.0164128
804.832	0.0165479
804.910	0.0164653
804.988	0.0164169
805.067	0.0164552
805.145	0.0165816
805.223	0.0167454
805.301	0.0167876
805.379	0.0168222
805.457	0.0170245
805.535	0.0172392
805.613	0.0173498
805.692	0.0174655
805.770	0.0175366
805.848	0.0177187
805.926	0.0178231
806.004	0.0181335
806.082	0.0181087
806.160	0.0182162
806.238	0.0182575
806.317	0.0185134
806.395	0.0186659
806.473	0.0185635
806.551	0.0187806
806.629	0.0187485
806.707	0.0187132
806.785	0.0186901
806.863	0.0187440
806.942	0.0187232
807.020	0.0188365
807.098	0.0187505
807.176	0.0186109
807.254	0.0186927
807.332	0.0186493
807.410	0.0185905
807.488	0.0186363
807.567	0.0186804
807.645	0.0185651
807.723	0.0184882
807.801	0.0184354
807.879	0.0184209
807.957	0.0183041
808.035	0.0181618
808.113	0.0184185
808.192	0.0184096
808.270	0.0181773
808.348	0.0182716
808.426	0.0184191
808.504	0.0181550
808.582	0.0179931
808.660	0.0179403
808.738	0.0179556
808.817	0.0179926
808.895	0.0179564
808.973	0.0180036
809.051	0.0178159
809.129	0.0179211
809.207	0.0178333
809.285	0.0177309
809.363	0.0177586
809.442	0.0177337
809.520	0.0178571
809.598	0.0176743
809.676	0.0177431
809.754	0.0179881
809.832	0.0180367
809.910	0.0179167
809.988	0.0178802
810.067	0.0179941
810.145	0.0181380
810.223	0.0181271
810.301	0.0180309
810.379	0.0181171
810.457	0.0181065
810.535	0.0181075
810.613	0.0181514
810.692	0.0181770
810.770	0.0179067
810.848	0.0178241
810.926	0.0180630
811.004	0.0178482
811.082	0.0176794
811.160	0.0176231
811.238	0.0176891
811.317	0.0176284
811.395	0.0174532
811.473	0.0173054
811.551	0.0174817
811.629	0.0172110
811.707	0.0171774
811.785	0.0173392
811.863	0.0173930
811.942	0.0173083
812.020	0.0174072
812.098	0.0175671
812.176	0.0175492
812.254	0.0174800
812.332	0.0175809
812.410	0.0176488
812.488	0.0177134
812.567	0.0178783
812.645	0.0179533
812.723	0.0179856
812.801	0.0181406
812.879	0.0180762
812.957	0.0183338
813.035	0.0184763
813.113	0.0184127
813.192	0.0186038
813.270	0.0186176
813.348	0.0185817
813.426	0.0188927
813.504	0.0187728
813.582	0.0186712
813.660	0.0186940
813.738	0.0186861
813.817	0.0186969
813.895	0.0186707
813.973	0.0187672
814.051	0.0187957
814.129	0.0188594
814.207	0.0187289
814.285	0.0188310
814.363	0.0186931
814.442	0.0186614
814.520	0.0187724
814.598	0.0187824
814.676	0.0187486
814.754	0.0185683
814.832	0.0186726
814.910	0.0185087
814.988	0.0184978
815.067	0.0183782
815.145	0.0183540
815.223	0.0182281
815.301	0.0181339
815.379	0.0181841
815.457	0.0179875
815.535	0.0177802
815.613	0.0178620
815.692	0.0176894
815.770	0.0175346
815.848	0.0173680
815.926	0.0173839
816.004	0.0171834
816.082	0.0172057
816.160	0.0170665
816.238	0.0170014
816.317	0.0169775
816.395	0.0169588
816.473	0.0168404
816.551	0.0168535
816.629	0.0168351
816.707	0.0168788
816.785	0.0168080
816.863	0.0170081
816.942	0.0169498
817.020	0.0170782
817.098	0.0170537
817.176	0.0172231
817.254	0.0172918
817.332	0.0173383
817.410	0.0174616
817.488	0.0175198
817.567	0.0178161
817.645	0.0178015
817.723	0.0180399
817.801	0.0181920
817.879	0.0180965
817.957	0.0184981
818.035	0.0184682
818.113	0.0186018
818.192	0.0188068
818.270	0.0187950
818.348	0.0189426
818.426	0.0188362
818.504	0.0189545
818.582	0.0190181
818.660	0.0189736
818.738	0.0190895
818.817	0.0190643
818.895	0.0190738
818.973	0.0190232
819.051	0.0189733
819.129	0.0188692
819.207	0.0190632
819.285	0.0188793
819.363	0.0187391
819.442	0.0187222
819.520	0.0187785
819.598	0.0185727
819.676	0.0187631
819.754	0.0184940
819.832	0.0184361
819.910	0.0183345
819.988	0.0183224
820.067	0.0183005
820.145	0.0181132
820.223	0.0182022
820.301	0.0180595
820.379	0.0178508
820.457	0.0177370
820.535	0.0178515
820.613	0.0177487
820.692	0.0176003
820.770	0.0176566
820.848	0.0175372
820.926	0.0174989
821.004	0.0173911
821.082	0.0173569
821.160	0.0173605
821.238	0.0174004
821.317	0.0173602
821.395	0.0174438
821.473	0.0172813
821.551	0.0173389
821.629	0.0172281
821.707	0.0174566
821.785	0.0174011
821.863	0.0174186
821.942	0.0174777
822.020	0.0175211
822.098	0.0175005
822.176	0.0176214
822.254	0.0174905
822.332	0.0176711
822.410	0.0176997
822.488	0.0177934
822.567	0.0176962
822.645	0.0177958
822.723	0.0180011
822.801	0.0178827
822.879	0.0179331
822.957	0.0180699
823.035	0.0182686
823.113	0.0183133
823.192	0.0183496
823.270	0.0184135
823.348	0.0185575
823.426	0.0183375
823.504	0.0184544
823.582	0.0185212
823.660	0.0185532
823.738	0.0182610
823.817	0.0183266
823.895	0.0183215
823.973	0.0183069
824.051	0.0182175
824.129	0.0181508
824.207	0.0181632
824.285	0.0180764
824.363	0.0180719
824.442	0.0181759
824.520	0.0181255
824.598	0.0180477
824.676	0.0181442
824.754	0.0181987
824.832	0.0181648
824.910	0.0181796
824.988	0.0183155
825.067	0.0183528
825.145	0.0182277
825.223	0.0182691
825.301	0.0182021
825.379	0.0180893
825.457	0.0182775
825.535	0.0180616
825.613	0.0179866
825.692	0.0180371
825.770	0.0179407
825.848	0.0178365
825.926	0.0177134
826.004	0.0177353
826.082	0.0177286
826.160	0.0176177
826.238	0.0177937
826.317	0.0178411
826.395	0.0177964
826.473	0.0178408
826.551	0.0178364
826.629	0.0180003
826.707	0.0178986
826.785	0.0179954
826.863	0.0181252
826.942	0.0183246
827.020	0.0181650
827.098	0.0182361
827.176	0.0183463
827.254	0.0182573
827.332	0.0182197
827.410	0.0181911
827.488	0.0181362
827.567	0.0182236
827.645	0.0181042
827.723	0.0181244
827.801	0.0179849
827.879	0.0178253
827.957	0.0179860
828.035	0.0178101
828.113	0.0176825
828.192	0.0179159
828.270	0.0176450
828.348	0.0177071
828.426	0.0176875
828.504	0.0176622
828.582	0.0177475
828.660	0.0177925
828.738	0.0177967
828.817	0.0176337
828.895	0.0178545
828.973	0.0178629
829.051	0.0179225
829.129	0.0179324
829.207	0.0178895
829.285	0.0180112
829.363	0.0178675
829.442	0.0180412
829.520	0.0179456
829.598	0.0178656
829.676	0.0178864
829.754	0.0178693
829.832	0.0178828
829.910	0.0179366
829.988	0.0178278
830.067	0.0179052
830.145	0.0178522
830.223	0.0178732
830.301	0.0180322
830.379	0.0179128
830.457	0.0179859
830.535	0.0181864
830.613	0.0180484
830.692	0.0181401
830.770	0.0181402
830.848	0.0182363
830.926	0.0183492
831.004	0.0184029
831.082	0.0183126
831.160	0.0182724
831.238	0.0183826
831.317	0.0183498
831.395	0.0184652
831.473	0.0184576
831.551	0.0183440
831.629	0.0182439
831.707	0.0181487
831.785	0.0182978
831.863	0.0181474
831.942	0.0180719
832.020	0.0181431
832.098	0.0180730
832.176	0.0179429
832.254	0.0179903
832.332	0.0178595
832.410	0.0177920
832.488	0.0178310
832.567	0.0177416
832.645	0.0176412
832.723	0.0176966
832.801	0.0176488
832.879	0.0176220
832.957	0.0178267
833.035	0.0176661
833.113	0.0175575
833.192	0.0176076
833.270	0.0177934
833.348	0.0176946
833.426	0.0174973
833.504	0.0175693
833.582	0.0178255
833.660	0.0177291
833.738	0.0176233
833.817	0.0177203
833.895	0.0178146
833.973	0.0177590
834.051	0.0177714
834.129	0.0179884
834.207	0.0180110
834.285	0.0179153
834.363	0.0179819
834.442	0.0182148
834.520	0.0182332
834.598	0.0182378
834.676	0.0183460
834.754	0.0183211
834.832	0.0184101
834.910	0.0184973
834.988	0.0185572
835.067	0.0185715
835.145	0.0185220
835.223	0.0185654
835.301	0.0186369
835.379	0.0184680
835.457	0.0187100
835.535	0.0186396
835.613	0.0185561
835.692	0.0184811
835.770	0.0184046
835.848	0.0183572
835.926	0.0184618
836.004	0.0183810
836.082	0.0183020
836.160	0.0182479
836.238	0.0182196
836.317	0.0181377
836.395	0.0180262
836.473	0.0180471
836.551	0.0179060
836.629	0.0179322
836.707	0.0179282
836.785	0.0179458
836.863	0.0177872
836.942	0.0176191
837.020	0.0178159
837.098	0.0177541
837.176	0.0176232
837.254	0.0176010
837.332	0.0175139
837.410	0.0176283
837.488	0.0175445
837.567	0.0175275
837.645	0.0175151
837.723	0.0176094
837.801	0.0176054
837.879	0.0176353
837.957	0.0174091
838.035	0.0175546
838.113	0.0176646
838.192	0.0175669
838.270	0.0175894
838.348	0.0176157
838.426	0.0178074
838.504	0.0179139
838.582	0.0178364
838.660	0.0179227
838.738	0.0178598
838.817	0.0179772
838.895	0.0180537
838.973	0.0181190
839.051	0.0183218
839.129	0.0183120
839.207	0.0182877
839.285	0.0183511
839.363	0.0183878
839.442	0.0183495
839.520	0.0183669
839.598	0.0185737
839.676	0.0185456
839.754	0.0187132
839.832	0.0186118
839.910	0.0185912
839.988	0.0187002
840.067	0.0186003
840.145	0.0187022
840.223	0.0187112
840.301	0.0187593
840.379	0.0183751
840.457	0.0184046
840.535	0.0184631
840.613	0.0182665
840.692	0.0183177
840.770	0.0180943
840.848	0.0181405
840.926	0.0181168
841.004	0.0179688
841.082	0.0176754
841.160	0.0175883
841.238	0.0175661
841.317	0.0177611
841.395	0.0174282
841.473	0.0174501
841.551	0.0173890
841.629	0.0174892
841.707	0.0174215
841.785	0.0174337
841.863	0.0173582
841.942	0.0172588
842.020	0.0173391
842.098	0.0173681
842.176	0.0173889
842.254	0.0174865
842.332	0.0176147
842.410	0.0175717
842.488	0.0176621
842.567	0.0175947
842.645	0.0177352
842.723	0.0177868
842.801	0.0178446
842.879	0.0178474
842.957	0.0179697
843.035	0.0179717
843.113	0.0181921
843.192	0.0182453
843.270	0.0183398
843.348	0.0182941
843.426	0.0184362
843.504	0.0185890
843.582	0.0185469
843.660	0.0185912
843.738	0.0186440
843.817	0.0185972
843.895	0.0186682
843.973	0.0187597
844.051	0.0186579
844.129	0.0186831
844.207	0.0187199
844.285	0.0186589
844.363	0.0186311
844.442	0.0184844
844.520	0.0186659
844.598	0.0184492
844.676	0.0184235
844.754	0.0184698
844.832	0.0183542
844.910	0.0181232
844.988	0.0181662
845.067	0.0180659
845.145	0.0180762
845.223	0.0179911
845.301	0.0178493
845.379	0.0179470
845.457	0.0177139
845.535	0.0177921
845.613	0.0176781
845.692	0.0176987
845.770	0.0175608
845.848	0.0176337
845.926	0.0175091
846.004	0.0175361
846.082	0.0174946
846.160	0.0175166
846.238	0.0174121
846.317	0.0175375
846.395	0.0176303
846.473	0.0174680
846.551	0.0174566
846.629	0.0174607
846.707	0.0174636
846.785	0.0176315
846.863	0.0175723
846.942	0.0176222
847.020	0.0174692
847.098	0.0176623
847.176	0.0175106
847.254	0.0175608
847.332	0.0177760
847.410	0.0178367
847.488	0.0177198
847.567	0.0178182
847.645	0.0176520
847.723	0.0178852
847.801	0.0178371
847.879	0.0179419
847.957	0.0180563
848.035	0.0181190
848.113	0.0180778
848.192	0.0182021
848.270	0.0182771
848.348	0.0183538
848.426	0.0184074
848.504	0.0185274
848.582	0.0183937
848.660	0.0183368
848.738	0.0184459
848.817	0.0184391
848.895	0.0183327
848.973	0.0185114
849.051	0.0183253
849.129	0.0182693
849.207	0.0184519
849.285	0.0183326
849.363	0.0182626
849.442	0.0182508
849.520	0.0180081
849.598	0.0180865
849.676	0.0181903
849.754	0.0180412
849.832	0.0179875
849.910	0.0179834
849.988	0.0179922
850.067	0.0179559
850.145	0.0180096
850.223	0.0178798
850.301	0.0177908
850.379	0.0178656
850.457	0.0178993
850.535	0.0177795
850.613	0.0177387
850.692	0.0180296
850.770	0.0180067
850.848	0.0178255
850.926	0.0177962
851.004	0.0179361
851.082	0.0179777
851.160	0.0180322
851.238	0.0179118
851.317	0.0178944
851.395	0.0179474
851.473	0.0179617
851.551	0.0178773
851.629	0.0180610
851.707	0.0177938
851.785	0.0177860
851.863	0.0178340
851.942	0.0178935
852.020	0.0178050
852.098	0.0176302
852.176	0.0177828
852.254	0.0177116
852.332	0.0175587
852.410	0.0176727
852.488	0.0177644
852.567	0.0176048
852.645	0.0175493
852.723	0.0177077
852.801	0.0177808
852.879	0.0178635
852.957	0.0177672
853.035	0.0177985
853.113	0.0179995
853.192	0.0178427
853.270	0.0179557
853.348	0.0180302
853.426	0.0179716
853.504	0.0179691
853.582	0.0179553
853.660	0.0180428
853.738	0.0181937
853.817	0.0180527
853.895	0.0179892
853.973	0.0181059
854.051	0.0179485
854.129	0.0181203
854.207	0.0180219
854.285	0.0180740
854.363	0.0181005
854.442	0.0180071
854.520	0.0180838
854.598	0.0179984
854.676	0.0179231
854.754	0.0179710
854.832	0.0180344
854.910	0.0180054
854.988	0.0180933
855.067	0.0180590
855.145	0.0181879
855.223	0.0181069
855.301	0.0181862
855.379	0.0181502
855.457	0.0181270
855.535	0.0181224
855.613	0.0180482
855.692	0.0181281
855.770	0.0181169
855.848	0.0178679
855.926	0.0178654
856.004	0.0178795
856.082	0.0178838
856.160	0.0178519
856.238	0.0177375
856.317	0.0177458
856.395	0.0176699
856.473	0.0175692
856.551	0.0175256
856.629	0.0176492
856.707	0.0177296
856.785	0.0176471
856.863	0.0176933
856.942	0.0176517
857.020	0.0177402
857.098	0.0178343
857.176	0.0179450
857.254	0.0178239
857.332	0.0179967
857.410	0.0180867
857.488	0.0181094
857.567	0.0181944
857.645	0.0182003
857.723	0.0180309
857.801	0.0181088
857.879	0.0180396
857.957	0.0181153
858.035	0.0179532
858.113	0.0180840
858.192	0.0180259
858.270	0.0178819
858.348	0.0178951
858.426	0.0177936
858.504	0.0179459
858.582	0.0178896
858.660	0.0178297
858.738	0.0177892
858.817	0.0178340
858.895	0.0178636
858.973	0.0179086
859.051	0.0178586
859.129	0.0179723
859.207	0.0177057
859.285	0.0178263
859.363	0.0181010
859.442	0.0181606
859.520	0.0180956
859.598	0.0181236
859.676	0.0181907
859.754	0.0181653
859.832	0.0181934
859.910	0.0181342
859.988	0.0181664
860.067	0.0181561
860.145	0.0181117
860.223	0.0180760
860.301	0.0180426
860.379	0.0180599
860.457	0.0180993
860.535	0.0177832
860.613	0.0178388
860.692	0.0179470
860.770	0.0177563
860.848	0.0177886
860.926	0.0177761
861.004	0.0179739
861.082	0.0178576
861.160	0.0178105
861.238	0.0178722
861.317	0.0179797
861.395	0.0181467
861.473	0.0179706
861.551	0.0181000
861.629	0.0180793
861.707	0.0181043
861.785	0.0181966
861.863	0.0181437
861.942	0.0182874
862.020	0.0182555
862.098	0.0183127
862.176	0.0181707
862.254	0.0181781
862.332	0.0181126
862.410	0.0181977
862.488	0.0180602
862.567	0.0180593
862.645	0.0180375
862.723	0.0180562
862.801	0.0178832
862.879	0.0178199
862.957	0.0177357
863.035	0.0176996
863.113	0.0177048
863.192	0.0176640
863.270	0.0177244
863.348	0.0177140
863.426	0.0175277
863.504	0.0175915
863.582	0.0175518
863.660	0.0176368
863.738	0.0176340
863.817	0.0178615
863.895	0.0179614
863.973	0.0177591
864.051	0.0178831
864.129	0.0179909
864.207	0.0179990
864.285	0.0178845
864.363	0.0180313
864.442	0.0180548
864.520	0.0180698
864.598	0.0181450
864.676	0.0180264
864.754	0.0179515
864.832	0.0179007
864.910	0.0180172
864.988	0.0178219
865.067	0.0179516
865.145	0.0177854
865.223	0.0177660
865.301	0.0179675
865.379	0.0178604
865.457	0.0179893
865.535	0.0177905
865.613	0.0179109
865.692	0.0178392
865.770	0.0178841
865.848	0.0180280
865.926	0.0181410
866.004	0.0180784
866.082	0.0180126
866.160	0.0179710
866.238	0.0180470
866.317	0.0181061
866.395	0.0179819
866.473	0.0181003
866.551	0.0181059
866.629	0.0182281
866.707	0.0180845
866.785	0.0181455
866.863	0.0181451
866.942	0.0180355
867.020	0.0179607
867.098	0.0179773
867.176	0.0179627
867.254	0.0180972
867.332	0.0179984
867.410	0.0179465
867.488	0.0178086
867.567	0.0178225
867.645	0.0180357
867.723	0.0177988
867.801	0.0179691
867.879	0.0180416
867.957	0.0179290
868.035	0.0179607
868.113	0.0180617
868.192	0.0180179
868.270	0.0180447
868.348	0.0181658
868.426	0.0181191
868.504	0.0180497
868.582	0.0182855
868.660	0.0181788
868.738	0.0181910
868.817	0.0183340
868.895	0.0182832
868.973	0.0182377
869.051	0.0181027
869.129	0.0180905
869.207	0.0180813
869.285	0.0180254
869.363	0.0179895
869.442	0.0178027
869.520	0.0178220
869.598	0.0178070
869.676	0.0176881
869.754	0.0176646
869.832	0.0177037
869.910	0.0175262
869.988	0.0175634
870.067	0.0175452
870.145	0.0176169
870.223	0.0176748
870.301	0.0175685
870.379	0.0174862
870.457	0.0176396
870.535	0.0176593
870.613	0.0176279
870.692	0.0176643
870.770	0.0175159
870.848	0.0176000
870.926	0.0177718
871.004	0.0177953
871.082	0.0177721
871.160	0.0177634
871.238	0.0177346
871.317	0.0177859
871.395	0.0177743
871.473	0.0177509
871.551	0.0178146
871.629	0.0179168
871.707	0.0178347
871.785	0.0179083
871.863	0.0178381
871.942	0.0177967
872.020	0.0179780
872.098	0.0180588
872.176	0.0180234
872.254	0.0180685
872.332	0.0181303
872.410	0.0179790
872.488	0.0182076
872.567	0.0183503
872.645	0.0182387
872.723	0.0182912
872.801	0.0183749
872.879	0.0183290
872.957	0.0181870
873.035	0.0182423
873.113	0.0183147
873.192	0.0184263
873.270	0.0184072
873.348	0.0182723
873.426	0.0182809
873.504	0.0182840
873.582	0.0182768
873.660	0.0182131
873.738	0.0182889
873.817	0.0181617
873.895	0.0181039
873.973	0.0180214
874.051	0.0180733
874.129	0.0181234
874.207	0.0178815
874.285	0.0178625
874.363	0.0178600
874.442	0.0177075
874.520	0.0177575
874.598	0.0177161
874.676	0.0176451
874.754	0.0176105
874.832	0.0175605
874.910	0.0176042
874.988	0.0175272
875.067	0.0175216
875.145	0.0175661
875.223	0.0175205
875.301	0.0174215
875.379	0.0175675
875.457	0.0176173
875.535	0.0176200
875.613	0.0177290
875.692	0.0177169
875.770	0.0177621
875.848	0.0177104
875.926	0.0178693
876.004	0.0178798
876.082	0.0180896
876.160	0.0181166
876.238	0.0180347
876.317	0.0181136
876.395	0.0180851
876.473	0.0180785
876.551	0.0181675
876.629	0.0181719
876.707	0.0182227
876.785	0.0182345
876.863	0.0182337
876.942	0.0181572
877.020	0.0182316
877.098	0.0182921
877.176	0.0181884
877.254	0.0182517
877.332	0.0181486
877.410	0.0181709
877.488	0.0182552
877.567	0.0182490
877.645	0.0181860
877.723	0.0181796
877.801	0.0181908
877.879	0.0179871
877.957	0.0180395
878.035	0.0179949
878.113	0.0178034
878.192	0.0180225
878.270	0.0179112
878.348	0.0177068
878.426	0.0178339
878.504	0.0178877
878.582	0.0177744
878.660	0.0177315
878.738	0.0176643
878.817	0.0176017
878.895	0.0176311
878.973	0.0174413
879.051	0.0173625
879.129	0.0173933
879.207	0.0175328
879.285	0.0174900
879.363	0.0174454
879.442	0.0175877
879.520	0.0176185
879.598	0.0175938
879.676	0.0177057
879.754	0.0177267
879.832	0.0177242
879.910	0.0178552
879.988	0.0178692
880.067	0.0179287
880.145	0.0178319
880.223	0.0181823
880.301	0.0180961
880.379	0.0180083
880.457	0.0180763
880.535	0.0180092
880.613	0.0179439
880.692	0.0181184
880.770	0.0181668
880.848	0.0181960
880.926	0.0181867
881.004	0.0181387
881.082	0.0182932
881.160	0.0182943
881.238	0.0181424
881.317	0.0183433
881.395	0.0183102
881.473	0.0183963
881.551	0.0184443
881.629	0.0183710
881.707	0.0183095
881.785	0.0184016
881.863	0.0182236
881.942	0.0183871
882.020	0.0182635
882.098	0.0184045
882.176	0.0182677
882.254	0.0182455
882.332	0.0181168
882.410	0.0181081
882.488	0.0181025
882.567	0.0180816
882.645	0.0178719
882.723	0.0177587
882.801	0.0179482
882.879	0.0177407
882.957	0.0176962
883.035	0.0176984
883.113	0.0175582
883.192	0.0174622
883.270	0.0174416
883.348	0.0175121
883.426	0.0173550
883.504	0.0173112
883.582	0.0171883
883.660	0.0172012
883.738	0.0174129
883.817	0.0174126
883.895	0.0173626
883.973	0.0173692
884.051	0.0175923
884.129	0.0176421
884.207	0.0177365
884.285	0.0177975
884.363	0.0180003
884.442	0.0181225
884.520	0.0180824
884.598	0.0182957
884.676	0.0183382
884.754	0.0184610
884.832	0.0184026
884.910	0.0187169
884.988	0.0188741
885.067	0.0188747
885.145	0.0188419
885.223	0.0189735
885.301	0.0189860
885.379	0.0190673
885.457	0.0189674
885.535	0.0190511
885.613	0.0190834
885.692	0.0190243
885.770	0.0189675
885.848	0.0185998
885.926	0.0184536
886.004	0.0184575
886.082	0.0182039
886.160	0.0178905
886.238	0.0177058
886.317	0.0175356
886.395	0.0175331
886.473	0.0173220
886.551	0.0170068
886.629	0.0170452
886.707	0.0168877
886.785	0.0168477
886.863	0.0167457
886.942	0.0168042
887.020	0.0168245
887.098	0.0167245
887.176	0.0167355
887.254	0.0167716
887.332	0.0167932
887.410	0.0167938
887.488	0.0170607
887.567	0.0171183
887.645	0.0171936
887.723	0.0173930
887.801	0.0175523
887.879	0.0175539
887.957	0.0176517
888.035	0.0179098
888.113	0.0181624
888.192	0.0183897
888.270	0.0184911
888.348	0.0185332
888.426	0.0187309
888.504	0.0190135
888.582	0.0189182
888.660	0.0189960
888.738	0.0191620
888.817	0.0192321
888.895	0.0192741
888.973	0.0192023
889.051	0.0192670
889.129	0.0191451
889.207	0.0190857
889.285	0.0189538
889.363	0.0189518
889.442	0.0190065
889.520	0.0188939
889.598	0.0187057
889.676	0.0185797
889.754	0.0186472
889.832	0.0184934
889.910	0.0182095
889.988	0.0181803
890.067	0.0178876
890.145	0.0177237
890.223	0.0176113
890.301	0.0175330
890.379	0.0172859
890.457	0.0171613
890.535	0.0169498
890.613	0.0168442
890.692	0.0166142
890.770	0.0165165
890.848	0.0166145
890.926	0.0166065
891.004	0.0165321
891.082	0.0164774
891.160	0.0167031
891.238	0.0167474
891.317	0.0168684
891.395	0.0170094
891.473	0.0171926
891.551	0.0173394
891.629	0.0175411
891.707	0.0177925
891.785	0.0180563
891.863	0.0183591
891.942	0.0184484
892.020	0.0185522
892.098	0.0190769
892.176	0.0190795
892.254	0.0191053
892.332	0.0193388
892.410	0.0194164
892.488	0.0194641
892.567	0.0194271
892.645	0.0196498
892.723	0.0195356
892.801	0.0192038
892.879	0.0193197
892.957	0.0191617
893.035	0.0191296
893.113	0.0190774
893.192	0.0187716
893.270	0.0187708
893.348	0.0185927
893.426	0.0184965
893.504	0.0183331
893.582	0.0181903
893.660	0.0181113
893.738	0.0178036
893.817	0.0177077
893.895	0.0176569
893.973	0.0175247
894.051	0.0173474
894.129	0.0172938
894.207	0.0172094
894.285	0.0171384
894.363	0.0169862
894.442	0.0169100
894.520	0.0169371
894.598	0.0168197
894.676	0.0169083
894.754	0.0168430
894.832	0.0168046
894.910	0.0167271
894.988	0.0168501
895.067	0.0167563
895.145	0.0170276
895.223	0.0170701
895.301	0.0170980
895.379	0.0173609
895.457	0.0173261
895.535	0.0175218
895.613	0.0178074
895.692	0.0177026
895.770	0.0181065
895.848	0.0182092
895.926	0.0183070
896.004	0.0183837
896.082	0.0185120
896.160	0.0186637
896.238	0.0186478
896.317	0.0187099
896.395	0.0188492
896.473	0.0189119
896.551	0.0188996
896.629	0.0189559
896.707	0.0189282
896.785	0.0189325
896.863	0.0188866
896.942	0.0188819
897.020	0.0189630
897.098	0.0188492
897.176	0.0188636
897.254	0.0186749
897.332	0.0187840
897.410	0.0187505
897.488	0.0187740
897.567	0.0186085
897.645	0.0186989
897.723	0.0185297
897.801	0.0185211
897.879	0.0185851
897.957	0.0184980
898.035	0.0181978
898.113	0.0180688
898.192	0.0180275
898.270	0.0177528
898.348	0.0175458
898.426	0.0174838
898.504	0.0172711
898.582	0.0171876
898.660	0.0170510
898.738	0.0170253
898.817	0.0169556
898.895	0.0170065
898.973	0.0170008
899.051	0.0170424
899.129	0.0171062
899.207	0.0170953
899.285	0.0171761
899.363	0.0175174
899.442	0.0175542
899.520	0.0177391
899.598	0.0178235
899.676	0.0180795
899.754	0.0180383
899.832	0.0183242
899.910	0.0184191
899.988	0.0186868
900.067	0.0185812
900.145	0.0184868
900.223	0.0184705
900.301	0.0185315
900.379	0.0185285
900.457	0.0184470
900.535	0.0183733
900.613	0.0183082
900.692	0.0183083
900.770	0.0183424
900.848	0.0181496
900.926	0.0180520
901.004	0.0181192
901.082	0.0179939
901.160	0.0179903
901.238	0.0180057
901.317	0.0180061
901.395	0.0180913
901.473	0.0179796
901.551	0.0179122
901.629	0.0180400
901.707	0.0181221
901.785	0.0181787
901.863	0.0181235
901.942	0.0180179
902.020	0.0179732
902.098	0.0179161
902.176	0.0178510
902.254	0.0176637
902.332	0.0176626
902.410	0.0177401
902.488	0.0175453
902.567	0.0173393
902.645	0.0173685
902.723	0.0174208
902.801	0.0173143
902.879	0.0174091
902.957	0.0175599
903.035	0.0176124
903.113	0.0177892
903.192	0.0178382
903.270	0.0180300
903.348	0.0180972
903.426	0.0183564
903.504	0.0183769
903.582	0.0185168
903.660	0.0185876
903.738	0.0186589
903.817	0.0188507
903.895	0.0187463
903.973	0.0188057
904.051	0.0186876
904.129	0.0188052
904.207	0.0186589
904.285	0.0185267
904.363	0.0183617
904.442	0.0183805
904.520	0.0181597
904.598	0.0180842
904.676	0.0179062
904.754	0.0178275
904.832	0.0178738
904.910	0.0177724
904.988	0.0176792
905.067	0.0177367
905.145	0.0177663
905.223	0.0177916
905.301	0.0178426
905.379	0.0178641
905.457	0.0179193
905.535	0.0179057
905.613	0.0179807
905.692	0.0179983
905.770	0.0181359
905.848	0.0183074
905.926	0.0181159
906.004	0.0182059
906.082	0.0181091
906.160	0.0180717
906.238	0.0180856
906.317	0.0181680
906.395	0.0181236
906.473	0.0180364
906.551	0.0179595
906.629	0.0178252
906.707	0.0177338
906.785	0.0177695
906.863	0.0179553
906.942	0.0180491
907.020	0.0178025
907.098	0.0177766
907.176	0.0181017
907.254	0.0179681
907.332	0.0179693
907.410	0.0181413
907.488	0.0182023
907.567	0.0180052
907.645	0.0182925
907.723	0.0180924
907.801	0.0180808
907.879	0.0181750
907.957	0.0181501
908.035	0.0180307
908.113	0.0181348
908.192	0.0179623
908.270	0.0179893
908.348	0.0179406
908.426	0.0178380
908.504	0.0177583
908.582	0.0178249
908.660	0.0178428
908.738	0.0177375
908.817	0.0178088
908.895	0.0178906
908.973	0.0177187
909.051	0.0179125
909.129	0.0179066
909.207	0.0180028
909.285	0.0179691
909.363	0.0180135
909.442	0.0181036
909.520	0.0182439
909.598	0.0181802
909.676	0.0181523
909.754	0.0182639
909.832	0.0181854
909.910	0.0183007
909.988	0.0183301
910.067	0.0182032
910.145	0.0182915
910.223	0.0182526
910.301	0.0182899
910.379	0.0180175
910.457	0.0179977
910.535	0.0181250
910.613	0.0180112
910.692	0.0179232
910.770	0.0179285
910.848	0.0178759
910.926	0.0179898
911.004	0.0177926
911.082	0.0178813
911.160	0.0179135
911.238	0.0178915
911.317	0.0177724
911.395	0.0178761
911.473	0.0177321
911.551	0.0178500
911.629	0.0180238
911.707	0.0178707
911.785	0.0179176
911.863	0.0179712
911.942	0.0178885
912.020	0.0179444
912.098	0.0180957
912.176	0.0180299
912.254	0.0179881
912.332	0.0180423
912.410	0.0182541
912.488	0.0182702
912.567	0.0181545
912.645	0.0182404
912.723	0.0182137
912.801	0.0180859
912.879	0.0182260
912.957	0.0182248
913.035	0.0182490
913.113	0.0182078
913.192	0.0181763
913.270	0.0180654
913.348	0.0181264
913.426	0.0181636
913.504	0.0181535
913.582	0.0180056
913.660	0.0180043
913.738	0.0181313
913.817	0.0180908
913.895	0.0180161
913.973	0.0178782
914.051	0.0180116
914.129	0.0182006
914.207	0.0181187
914.285	0.0179229
914.363	0.0179319
914.442	0.0179282
914.520	0.0180923
914.598	0.0179965
914.676	0.0179137
914.754	0.0179156
914.832	0.0178970
914.910	0.0180489
914.988	0.0180321
915.067	0.0180228
915.145	0.0179523
915.223	0.0177862
915.301	0.0179758
915.379	0.0180103
915.457	0.0178976
915.535	0.0178651
915.613	0.0178564
915.692	0.0178259
915.770	0.0178881
915.848	0.0177396
915.926	0.0177419
916.004	0.0178108
916.082	0.0179082
916.160	0.0178004
916.238	0.0178828
916.317	0.0179226
916.395	0.0179507
916.473	0.0179384
916.551	0.0179348
916.629	0.0181027
916.707	0.0179352
916.785	0.0180865
916.863	0.0182400
916.942	0.0182092
917.020	0.0181583
917.098	0.0181861
917.176	0.0181342
917.254	0.0181218
917.332	0.0180988
917.410	0.0180801
917.488	0.0179706
917.567	0.0178547
917.645	0.0180386
917.723	0.0178979
917.801	0.0179373
917.879	0.0178121
917.957	0.0178183
918.035	0.0178758
918.113	0.0180716
918.192	0.0178947
918.270	0.0181419
918.348	0.0181837
918.426	0.0180610
918.504	0.0180061
918.582	0.0181630
918.660	0.0182384
918.738	0.0182127
918.817	0.0182343
918.895	0.0182626
918.973	0.0183000
919.051	0.0182162
919.129	0.0181801
919.207	0.0182439
919.285	0.0181475
919.363	0.0180516
919.442	0.0180222
919.520	0.0180090
919.598	0.0179362
919.676	0.0179578
919.754	0.0179263
919.832	0.0178268
919.910	0.0177466
