06/01/2022	21:41:27	Ver.	4.1	UNKNOWN
Optical Delay	599.988409	Delta X		0.078125	Sweeps	1	Scan Rate	0/0
Coordinates	Axis 1	NaN	Axis 2	NaN	Axis 3	NaN	Axis 4	NaN	Axis 5	NaN	Axis 6	0.000000
TX Power	0.000000	RX Power	0.000000

599.988	0.0169374
600.067	0.0169492
600.145	0.0169553
600.223	0.0169046
600.301	0.0169605
600.379	0.0170463
600.457	0.0168922
600.535	0.0169505
600.613	0.0170361
600.692	0.0168089
600.770	0.0169218
600.848	0.0169768
600.926	0.0168737
601.004	0.0168945
601.082	0.0169347
601.160	0.0170395
601.238	0.0169841
601.317	0.0168876
601.395	0.0171204
601.473	0.0170813
601.551	0.0169052
601.629	0.0169588
601.707	0.0170249
601.785	0.0169334
601.863	0.0169395
601.942	0.0169315
602.020	0.0169584
602.098	0.0168434
602.176	0.0168900
602.254	0.0168954
602.332	0.0170840
602.410	0.0169799
602.488	0.0170013
602.567	0.0170647
602.645	0.0168375
602.723	0.0169739
602.801	0.0169180
602.879	0.0168547
602.957	0.0169262
603.035	0.0168501
603.113	0.0169520
603.192	0.0170364
603.270	0.0169639
603.348	0.0168557
603.426	0.0170351
603.504	0.0170162
603.582	0.0168546
603.660	0.0169468
603.738	0.0169398
603.817	0.0169313
603.895	0.0168922
603.973	0.0168237
604.051	0.0169238
604.129	0.0169571
604.207	0.0167901
604.285	0.0169726
604.363	0.0169682
604.442	0.0169205
604.520	0.0168511
604.598	0.0169832
604.676	0.0169691
604.754	0.0168713
604.832	0.0168884
604.910	0.0169789
604.988	0.0170187
605.067	0.0169469
605.145	0.0169097
605.223	0.0167915
605.301	0.0169662
605.379	0.0169859
605.457	0.0168736
605.535	0.0171199
605.613	0.0169534
605.692	0.0169219
605.770	0.0168227
605.848	0.0169320
605.926	0.0168859
606.004	0.0169678
606.082	0.0169919
606.160	0.0170007
606.238	0.0168867
606.317	0.0168296
606.395	0.0169069
606.473	0.0168702
606.551	0.0167948
606.629	0.0169689
606.707	0.0170856
606.785	0.0168636
606.863	0.0169035
606.942	0.0170737
607.020	0.0169894
607.098	0.0169371
607.176	0.0170393
607.254	0.0169502
607.332	0.0169055
607.410	0.0169563
607.488	0.0168729
607.567	0.0169109
607.645	0.0169888
607.723	0.0170769
607.801	0.0170470
607.879	0.0169584
607.957	0.0168232
608.035	0.0169090
608.113	0.0170344
608.192	0.0168434
608.270	0.0169295
608.348	0.0171369
608.426	0.0169206
608.504	0.0169206
608.582	0.0169624
608.660	0.0170385
608.738	0.0168941
608.817	0.0169637
608.895	0.0170429
608.973	0.0168037
609.051	0.0169087
609.129	0.0169418
609.207	0.0170433
609.285	0.0169453
609.363	0.0169621
609.442	0.0169688
609.520	0.0168671
609.598	0.0169079
609.676	0.0169514
609.754	0.0170039
609.832	0.0169716
609.910	0.0169590
609.988	0.0169308
610.067	0.0169466
610.145	0.0169439
610.223	0.0169939
610.301	0.0170604
610.379	0.0169883
610.457	0.0167229
610.535	0.0170435
610.613	0.0169605
610.692	0.0169348
610.770	0.0169111
610.848	0.0167809
610.926	0.0169656
611.004	0.0169766
611.082	0.0170786
611.160	0.0169949
611.238	0.0169082
611.317	0.0168882
611.395	0.0169548
611.473	0.0168803
611.551	0.0168430
611.629	0.0169328
611.707	0.0169540
611.785	0.0169180
611.863	0.0167722
611.942	0.0170071
612.020	0.0168778
612.098	0.0169848
612.176	0.0169713
612.254	0.0167314
612.332	0.0169466
612.410	0.0168887
612.488	0.0169191
612.567	0.0169440
612.645	0.0170403
612.723	0.0169730
612.801	0.0170502
612.879	0.0169848
612.957	0.0167545
613.035	0.0169373
613.113	0.0168810
613.192	0.0169737
613.270	0.0170729
613.348	0.0170554
613.426	0.0169204
613.504	0.0170077
613.582	0.0170267
613.660	0.0168142
613.738	0.0168426
613.817	0.0169685
613.895	0.0169001
613.973	0.0169353
614.051	0.0170316
614.129	0.0168983
614.207	0.0170868
614.285	0.0170201
614.363	0.0167755
614.442	0.0169972
614.520	0.0170578
614.598	0.0169144
614.676	0.0168517
614.754	0.0169134
614.832	0.0169210
614.910	0.0171270
614.988	0.0169998
615.067	0.0169627
615.145	0.0169136
615.223	0.0169403
615.301	0.0169825
615.379	0.0169801
615.457	0.0168349
615.535	0.0168959
615.613	0.0167986
615.692	0.0167404
615.770	0.0168603
615.848	0.0168738
615.926	0.0169450
616.004	0.0167188
616.082	0.0168951
616.160	0.0170367
616.238	0.0168964
616.317	0.0167807
616.395	0.0169427
616.473	0.0168442
616.551	0.0168622
616.629	0.0168649
616.707	0.0169762
616.785	0.0169623
616.863	0.0169574
616.942	0.0169633
617.020	0.0169054
617.098	0.0169430
617.176	0.0169988
617.254	0.0169453
617.332	0.0170009
617.410	0.0170423
617.488	0.0170558
617.567	0.0169328
617.645	0.0170140
617.723	0.0169936
617.801	0.0168267
617.879	0.0169307
617.957	0.0170484
618.035	0.0170475
618.113	0.0169337
618.192	0.0169300
618.270	0.0169804
618.348	0.0170569
618.426	0.0169992
618.504	0.0170161
618.582	0.0169447
618.660	0.0168320
618.738	0.0169564
618.817	0.0169012
618.895	0.0170313
618.973	0.0170720
619.051	0.0167756
619.129	0.0168788
619.207	0.0168636
619.285	0.0168317
619.363	0.0167303
619.442	0.0168900
619.520	0.0169000
619.598	0.0167627
619.676	0.0167926
619.754	0.0168658
619.832	0.0169390
619.910	0.0168639
619.988	0.0168296
620.067	0.0168649
620.145	0.0168628
620.223	0.0167635
620.301	0.0169526
620.379	0.0167835
620.457	0.0167709
620.535	0.0168894
620.613	0.0168802
620.692	0.0169465
620.770	0.0168930
620.848	0.0168979
620.926	0.0169725
621.004	0.0169536
621.082	0.0169831
621.160	0.0168315
621.238	0.0168778
621.317	0.0170084
621.395	0.0169735
621.473	0.0169939
621.551	0.0169666
621.629	0.0169047
621.707	0.0169169
621.785	0.0170074
621.863	0.0168193
621.942	0.0170510
622.020	0.0168307
622.098	0.0170655
622.176	0.0171163
622.254	0.0169182
622.332	0.0169659
622.410	0.0170476
622.488	0.0169951
622.567	0.0168894
622.645	0.0170058
622.723	0.0169952
622.801	0.0169647
622.879	0.0170187
622.957	0.0169482
623.035	0.0170480
623.113	0.0170358
623.192	0.0169572
623.270	0.0169260
623.348	0.0170870
623.426	0.0169489
623.504	0.0169310
623.582	0.0167781
623.660	0.0168863
623.738	0.0169071
623.817	0.0168033
623.895	0.0168587
623.973	0.0169207
624.051	0.0169543
624.129	0.0168832
624.207	0.0169302
624.285	0.0167354
624.363	0.0168044
624.442	0.0168266
624.520	0.0168319
624.598	0.0167616
624.676	0.0168231
624.754	0.0168108
624.832	0.0168044
624.910	0.0167802
624.988	0.0167622
625.067	0.0170008
625.145	0.0169630
625.223	0.0168459
625.301	0.0170585
625.379	0.0169096
625.457	0.0169443
625.535	0.0168823
625.613	0.0169851
625.692	0.0169689
625.770	0.0169621
625.848	0.0171165
625.926	0.0170249
626.004	0.0170145
626.082	0.0170731
626.160	0.0169646
626.238	0.0169672
626.317	0.0170586
626.395	0.0169935
626.473	0.0170878
626.551	0.0170656
626.629	0.0170119
626.707	0.0169479
626.785	0.0169953
626.863	0.0169665
626.942	0.0169324
627.020	0.0169429
627.098	0.0168733
627.176	0.0169992
627.254	0.0168639
627.332	0.0169289
627.410	0.0169815
627.488	0.0169577
627.567	0.0169839
627.645	0.0169870
627.723	0.0168793
627.801	0.0170291
627.879	0.0168794
627.957	0.0167745
628.035	0.0169242
628.113	0.0169645
628.192	0.0168719
628.270	0.0167815
628.348	0.0169734
628.426	0.0167538
628.504	0.0169891
628.582	0.0167699
628.660	0.0168542
628.738	0.0169203
628.817	0.0168681
628.895	0.0168844
628.973	0.0169006
629.051	0.0169284
629.129	0.0167679
629.207	0.0169276
629.285	0.0169245
629.363	0.0168806
629.442	0.0168420
629.520	0.0170341
629.598	0.0167681
629.676	0.0169785
629.754	0.0169766
629.832	0.0170020
629.910	0.0169945
629.988	0.0169078
630.067	0.0168990
630.145	0.0169784
630.223	0.0169296
630.301	0.0168640
630.379	0.0169220
630.457	0.0168730
630.535	0.0169959
630.613	0.0170585
630.692	0.0170437
630.770	0.0167968
630.848	0.0170383
630.926	0.0168882
631.004	0.0169555
631.082	0.0170373
631.160	0.0168507
631.238	0.0170625
631.317	0.0168793
631.395	0.0168593
631.473	0.0169776
631.551	0.0171452
631.629	0.0170643
631.707	0.0169740
631.785	0.0169357
631.863	0.0168993
631.942	0.0168402
632.020	0.0168543
632.098	0.0168958
632.176	0.0169109
632.254	0.0168906
632.332	0.0168211
632.410	0.0169009
632.488	0.0170132
632.567	0.0170161
632.645	0.0168543
632.723	0.0169635
632.801	0.0169366
632.879	0.0168253
632.957	0.0170886
633.035	0.0169168
633.113	0.0169260
633.192	0.0168526
633.270	0.0170261
633.348	0.0168212
633.426	0.0168822
633.504	0.0169553
633.582	0.0169635
633.660	0.0169761
633.738	0.0168868
633.817	0.0168452
633.895	0.0169315
633.973	0.0170477
634.051	0.0169946
634.129	0.0169261
634.207	0.0169595
634.285	0.0169755
634.363	0.0169939
634.442	0.0169769
634.520	0.0169862
634.598	0.0168420
634.676	0.0168954
634.754	0.0170054
634.832	0.0169730
634.910	0.0169631
634.988	0.0170332
635.067	0.0167603
635.145	0.0169424
635.223	0.0169865
635.301	0.0168967
635.379	0.0170018
635.457	0.0168658
635.535	0.0168147
635.613	0.0169684
635.692	0.0170509
635.770	0.0170387
635.848	0.0169375
635.926	0.0169873
636.004	0.0170145
636.082	0.0169591
636.160	0.0170123
636.238	0.0170045
636.317	0.0169955
636.395	0.0169958
636.473	0.0169954
636.551	0.0169855
636.629	0.0169949
636.707	0.0171218
636.785	0.0169556
636.863	0.0169389
636.942	0.0169536
637.020	0.0169496
637.098	0.0169166
637.176	0.0169595
637.254	0.0169511
637.332	0.0170013
637.410	0.0168898
637.488	0.0170300
637.567	0.0170486
637.645	0.0169263
637.723	0.0169899
637.801	0.0168190
637.879	0.0169066
637.957	0.0169585
638.035	0.0169294
638.113	0.0167703
638.192	0.0170123
638.270	0.0169883
638.348	0.0169779
638.426	0.0168259
638.504	0.0168425
638.582	0.0169170
638.660	0.0169822
638.738	0.0169439
638.817	0.0170561
638.895	0.0169449
638.973	0.0169106
639.051	0.0169049
639.129	0.0168594
639.207	0.0168916
639.285	0.0170014
639.363	0.0169756
639.442	0.0169318
639.520	0.0168453
639.598	0.0169676
639.676	0.0169140
639.754	0.0168913
639.832	0.0168819
639.910	0.0169836
639.988	0.0169330
640.067	0.0168771
640.145	0.0168737
640.223	0.0169699
640.301	0.0168971
640.379	0.0168576
640.457	0.0168673
640.535	0.0169625
640.613	0.0169667
640.692	0.0169738
640.770	0.0169354
640.848	0.0167070
640.926	0.0170829
641.004	0.0169497
641.082	0.0170751
641.160	0.0169884
641.238	0.0169310
641.317	0.0169458
641.395	0.0170322
641.473	0.0168851
641.551	0.0169485
641.629	0.0170223
641.707	0.0169768
641.785	0.0169926
641.863	0.0169073
641.942	0.0170545
642.020	0.0170058
642.098	0.0170105
642.176	0.0169165
642.254	0.0169414
642.332	0.0169185
642.410	0.0170036
642.488	0.0168814
642.567	0.0168850
642.645	0.0168447
642.723	0.0168427
642.801	0.0168790
642.879	0.0170864
642.957	0.0169632
643.035	0.0168655
643.113	0.0168547
643.192	0.0170267
643.270	0.0169621
643.348	0.0170691
643.426	0.0168224
643.504	0.0169027
643.582	0.0170569
643.660	0.0169437
643.738	0.0169594
643.817	0.0168518
643.895	0.0169038
643.973	0.0170507
644.051	0.0169751
644.129	0.0168690
644.207	0.0169964
644.285	0.0169729
644.363	0.0169160
644.442	0.0170193
644.520	0.0169503
644.598	0.0169923
644.676	0.0169743
644.754	0.0168668
644.832	0.0170295
644.910	0.0169904
644.988	0.0168820
645.067	0.0169284
645.145	0.0169222
645.223	0.0168928
645.301	0.0169077
645.379	0.0170403
645.457	0.0170060
645.535	0.0168057
645.613	0.0169164
645.692	0.0170023
645.770	0.0168394
645.848	0.0170091
645.926	0.0168528
646.004	0.0170650
646.082	0.0169852
646.160	0.0168850
646.238	0.0169194
646.317	0.0167252
646.395	0.0168892
646.473	0.0170493
646.551	0.0168871
646.629	0.0170792
646.707	0.0169665
646.785	0.0169941
646.863	0.0169584
646.942	0.0168491
647.020	0.0169340
647.098	0.0169912
647.176	0.0170115
647.254	0.0169936
647.332	0.0169926
647.410	0.0170609
647.488	0.0169411
647.567	0.0169490
647.645	0.0169074
647.723	0.0169005
647.801	0.0168938
647.879	0.0169714
647.957	0.0169974
648.035	0.0168541
648.113	0.0169971
648.192	0.0169571
648.270	0.0169159
648.348	0.0170280
648.426	0.0169118
648.504	0.0169627
648.582	0.0171712
648.660	0.0169931
648.738	0.0168719
648.817	0.0169411
648.895	0.0168935
648.973	0.0169039
649.051	0.0169073
649.129	0.0169057
649.207	0.0169481
649.285	0.0169859
649.363	0.0169239
649.442	0.0168383
649.520	0.0168136
649.598	0.0169022
649.676	0.0169822
649.754	0.0170045
649.832	0.0168610
649.910	0.0169628
649.988	0.0169366
650.067	0.0168706
650.145	0.0168139
650.223	0.0169398
650.301	0.0170129
650.379	0.0168643
650.457	0.0170274
650.535	0.0170319
650.613	0.0167864
650.692	0.0169257
650.770	0.0169093
650.848	0.0169890
650.926	0.0167864
651.004	0.0171183
651.082	0.0169432
651.160	0.0169386
651.238	0.0170168
651.317	0.0169010
651.395	0.0169978
651.473	0.0169328
651.551	0.0170138
651.629	0.0169089
651.707	0.0169197
651.785	0.0168961
651.863	0.0169170
651.942	0.0169056
652.020	0.0170024
652.098	0.0169405
652.176	0.0169744
652.254	0.0169136
652.332	0.0169354
652.410	0.0170117
652.488	0.0169234
652.567	0.0168385
652.645	0.0169583
652.723	0.0169706
652.801	0.0169872
652.879	0.0168385
652.957	0.0169294
653.035	0.0168900
653.113	0.0169275
653.192	0.0169645
653.270	0.0170592
653.348	0.0168605
653.426	0.0169572
653.504	0.0170417
653.582	0.0170738
653.660	0.0169092
653.738	0.0168169
653.817	0.0169682
653.895	0.0170676
653.973	0.0170222
654.051	0.0169707
654.129	0.0170461
654.207	0.0168446
654.285	0.0169494
654.363	0.0171584
654.442	0.0169545
654.520	0.0169012
654.598	0.0171083
654.676	0.0169733
654.754	0.0168961
654.832	0.0168958
654.910	0.0169494
654.988	0.0169964
655.067	0.0168752
655.145	0.0168704
655.223	0.0168076
655.301	0.0168665
655.379	0.0168887
655.457	0.0169122
655.535	0.0169781
655.613	0.0170545
655.692	0.0169780
655.770	0.0169849
655.848	0.0169180
655.926	0.0169845
656.004	0.0169345
656.082	0.0169191
656.160	0.0170254
656.238	0.0169469
656.317	0.0169099
656.395	0.0170473
656.473	0.0169547
656.551	0.0172171
656.629	0.0169952
656.707	0.0167575
656.785	0.0168600
656.863	0.0170026
656.942	0.0169393
657.020	0.0169836
657.098	0.0170010
657.176	0.0170113
657.254	0.0170630
657.332	0.0169790
657.410	0.0169016
657.488	0.0170483
657.567	0.0170126
657.645	0.0170171
657.723	0.0170620
657.801	0.0169750
657.879	0.0170006
657.957	0.0169070
658.035	0.0169601
658.113	0.0170003
658.192	0.0170726
658.270	0.0170638
658.348	0.0169672
658.426	0.0169447
658.504	0.0169165
658.582	0.0169891
658.660	0.0169389
658.738	0.0170513
658.817	0.0170479
658.895	0.0169121
658.973	0.0170209
659.051	0.0167227
659.129	0.0171224
659.207	0.0168655
659.285	0.0168638
659.363	0.0169864
659.442	0.0168830
659.520	0.0169413
659.598	0.0168201
659.676	0.0169630
659.754	0.0170599
659.832	0.0170463
659.910	0.0170578
659.988	0.0169756
660.067	0.0168987
660.145	0.0168452
660.223	0.0170329
660.301	0.0169225
660.379	0.0169660
660.457	0.0169281
660.535	0.0169624
660.613	0.0170455
660.692	0.0169685
660.770	0.0168777
660.848	0.0169955
660.926	0.0168445
661.004	0.0168221
661.082	0.0169839
661.160	0.0168738
661.238	0.0170612
661.317	0.0169359
661.395	0.0169437
661.473	0.0169604
661.551	0.0169923
661.629	0.0168808
661.707	0.0168614
661.785	0.0168226
661.863	0.0169758
661.942	0.0169509
662.020	0.0169464
662.098	0.0170353
662.176	0.0170922
662.254	0.0169527
662.332	0.0169735
662.410	0.0169734
662.488	0.0170194
662.567	0.0169694
662.645	0.0169246
662.723	0.0169549
662.801	0.0168986
662.879	0.0169215
662.957	0.0170045
663.035	0.0169142
663.113	0.0168999
663.192	0.0170409
663.270	0.0169744
663.348	0.0169117
663.426	0.0169928
663.504	0.0169880
663.582	0.0168351
663.660	0.0170128
663.738	0.0169765
663.817	0.0169440
663.895	0.0170148
663.973	0.0170243
664.051	0.0169334
664.129	0.0169365
664.207	0.0170109
664.285	0.0170215
664.363	0.0169765
664.442	0.0169333
664.520	0.0168446
664.598	0.0169830
664.676	0.0169636
664.754	0.0169255
664.832	0.0168793
664.910	0.0169669
664.988	0.0171295
665.067	0.0168961
665.145	0.0169411
665.223	0.0169344
665.301	0.0169555
665.379	0.0168971
665.457	0.0168982
665.535	0.0169495
665.613	0.0168866
665.692	0.0169804
665.770	0.0169372
665.848	0.0168414
665.926	0.0168980
666.004	0.0169299
666.082	0.0169042
666.160	0.0169677
666.238	0.0170842
666.317	0.0169752
666.395	0.0168802
666.473	0.0168802
666.551	0.0169050
666.629	0.0168901
666.707	0.0168792
666.785	0.0170166
666.863	0.0169628
666.942	0.0169555
667.020	0.0169341
667.098	0.0168668
667.176	0.0169274
667.254	0.0169657
667.332	0.0169048
667.410	0.0170535
667.488	0.0169576
667.567	0.0170408
667.645	0.0170417
667.723	0.0169530
667.801	0.0169028
667.879	0.0170525
667.957	0.0168323
668.035	0.0169236
668.113	0.0169788
668.192	0.0169981
668.270	0.0168260
668.348	0.0169129
668.426	0.0169099
668.504	0.0168954
668.582	0.0169285
668.660	0.0169328
668.738	0.0169430
668.817	0.0170313
668.895	0.0169547
668.973	0.0168729
669.051	0.0167567
669.129	0.0169915
669.207	0.0169740
669.285	0.0168707
669.363	0.0168365
669.442	0.0168602
669.520	0.0169092
669.598	0.0169090
669.676	0.0169241
669.754	0.0169814
669.832	0.0169289
669.910	0.0169294
669.988	0.0169162
670.067	0.0169816
670.145	0.0169486
670.223	0.0168140
670.301	0.0167660
670.379	0.0168848
670.457	0.0169001
670.535	0.0169971
670.613	0.0169494
670.692	0.0169913
670.770	0.0168604
670.848	0.0169192
670.926	0.0168968
671.004	0.0169124
671.082	0.0168353
671.160	0.0170146
671.238	0.0170007
671.317	0.0169748
671.395	0.0169629
671.473	0.0169349
671.551	0.0169102
671.629	0.0169511
671.707	0.0168648
671.785	0.0169817
671.863	0.0168748
671.942	0.0167764
672.020	0.0169353
672.098	0.0171047
672.176	0.0170388
672.254	0.0169447
672.332	0.0168589
672.410	0.0169558
672.488	0.0169562
672.567	0.0168802
672.645	0.0169595
672.723	0.0169353
672.801	0.0168196
672.879	0.0168915
672.957	0.0168678
673.035	0.0170036
673.113	0.0169030
673.192	0.0169221
673.270	0.0170081
673.348	0.0170210
673.426	0.0170605
673.504	0.0170331
673.582	0.0169393
673.660	0.0169991
673.738	0.0169569
673.817	0.0171101
673.895	0.0169816
673.973	0.0169711
674.051	0.0168573
674.129	0.0168170
674.207	0.0169463
674.285	0.0169260
674.363	0.0168610
674.442	0.0170012
674.520	0.0170100
674.598	0.0169407
674.676	0.0170280
674.754	0.0170802
674.832	0.0170225
674.910	0.0169453
674.988	0.0171561
675.067	0.0172009
675.145	0.0171249
675.223	0.0171191
675.301	0.0171884
675.379	0.0171679
675.457	0.0170074
675.535	0.0170543
675.613	0.0170840
675.692	0.0169820
675.770	0.0169942
675.848	0.0168993
675.926	0.0167592
676.004	0.0167837
676.082	0.0168092
676.160	0.0168874
676.238	0.0168220
676.317	0.0168449
676.395	0.0167513
676.473	0.0168483
676.551	0.0170119
676.629	0.0169729
676.707	0.0169688
676.785	0.0171146
676.863	0.0170509
676.942	0.0170823
677.020	0.0171545
677.098	0.0171550
677.176	0.0170001
677.254	0.0168771
677.332	0.0170162
677.410	0.0170351
677.488	0.0169154
677.567	0.0169718
677.645	0.0167918
677.723	0.0168607
677.801	0.0167608
677.879	0.0166454
677.957	0.0168112
678.035	0.0168307
678.113	0.0167414
678.192	0.0167300
678.270	0.0166377
678.348	0.0168071
678.426	0.0168605
678.504	0.0169624
678.582	0.0169904
678.660	0.0168821
678.738	0.0170197
678.817	0.0170650
678.895	0.0169398
678.973	0.0170527
679.051	0.0170464
679.129	0.0171774
679.207	0.0169532
679.285	0.0171010
679.363	0.0169234
679.442	0.0168604
679.520	0.0168578
679.598	0.0167993
679.676	0.0169592
679.754	0.0167606
679.832	0.0169507
679.910	0.0169674
679.988	0.0171015
680.067	0.0168455
680.145	0.0169168
680.223	0.0169568
680.301	0.0170910
680.379	0.0169318
680.457	0.0169484
680.535	0.0169703
680.613	0.0170218
680.692	0.0169868
680.770	0.0170956
680.848	0.0171277
680.926	0.0170193
681.004	0.0170295
681.082	0.0171121
681.160	0.0171465
681.238	0.0170668
681.317	0.0171885
681.395	0.0171019
681.473	0.0170149
681.551	0.0170943
681.629	0.0170612
681.707	0.0169168
681.785	0.0168815
681.863	0.0168821
681.942	0.0168620
682.020	0.0168013
682.098	0.0166873
682.176	0.0167487
682.254	0.0166769
682.332	0.0167242
682.410	0.0169028
682.488	0.0170111
682.567	0.0172626
682.645	0.0172215
682.723	0.0170966
682.801	0.0173880
682.879	0.0172906
682.957	0.0173060
683.035	0.0172478
683.113	0.0171362
683.192	0.0170992
683.270	0.0171965
683.348	0.0171656
683.426	0.0170719
683.504	0.0170552
683.582	0.0170682
683.660	0.0171558
683.738	0.0170138
683.817	0.0170549
683.895	0.0169724
683.973	0.0169727
684.051	0.0169170
684.129	0.0167772
684.207	0.0168719
684.285	0.0167599
684.363	0.0166692
684.442	0.0166396
684.520	0.0163831
684.598	0.0164240
684.676	0.0162733
684.754	0.0162428
684.832	0.0163048
684.910	0.0162871
684.988	0.0163986
685.067	0.0165588
685.145	0.0167841
685.223	0.0169642
685.301	0.0169781
685.379	0.0171469
685.457	0.0174047
685.535	0.0176048
685.613	0.0175344
685.692	0.0177125
685.770	0.0176030
685.848	0.0175459
685.926	0.0173906
686.004	0.0171970
686.082	0.0171877
686.160	0.0170199
686.238	0.0169867
686.317	0.0169317
686.395	0.0169068
686.473	0.0169933
686.551	0.0169675
686.629	0.0170322
686.707	0.0170835
686.785	0.0171165
686.863	0.0172243
686.942	0.0170481
687.020	0.0171854
687.098	0.0173145
687.176	0.0170521
687.254	0.0171261
687.332	0.0168787
687.410	0.0168535
687.488	0.0168684
687.567	0.0166904
687.645	0.0166604
687.723	0.0166019
687.801	0.0165289
687.879	0.0164691
687.957	0.0165664
688.035	0.0165228
688.113	0.0165165
688.192	0.0165040
688.270	0.0166186
688.348	0.0167408
688.426	0.0168118
688.504	0.0168614
688.582	0.0167782
688.660	0.0167759
688.738	0.0168336
688.817	0.0168556
688.895	0.0168422
688.973	0.0167258
689.051	0.0166993
689.129	0.0166598
689.207	0.0166177
689.285	0.0167351
689.363	0.0168285
689.442	0.0168724
689.520	0.0171156
689.598	0.0171762
689.676	0.0175343
689.754	0.0177875
689.832	0.0180182
689.910	0.0183665
689.988	0.0187033
690.067	0.0190697
690.145	0.0191496
690.223	0.0192896
690.301	0.0191615
690.379	0.0190561
690.457	0.0187970
690.535	0.0184606
690.613	0.0181157
690.692	0.0174991
690.770	0.0170611
690.848	0.0164989
690.926	0.0160931
691.004	0.0156664
691.082	0.0153380
691.160	0.0148502
691.238	0.0144636
691.317	0.0142744
691.395	0.0140910
691.473	0.0137950
691.551	0.0135026
691.629	0.0133491
691.707	0.0132532
691.785	0.0129405
691.863	0.0128522
691.942	0.0126889
692.020	0.0129321
692.098	0.0129856
692.176	0.0133475
692.254	0.0138462
692.332	0.0144043
692.410	0.0148551
692.488	0.0158290
692.567	0.0168124
692.645	0.0177518
692.723	0.0189925
692.801	0.0199429
692.879	0.0209338
692.957	0.0219332
693.035	0.0228671
693.113	0.0233743
693.192	0.0239316
693.270	0.0241830
693.348	0.0244572
693.426	0.0245075
693.504	0.0243392
693.582	0.0242661
693.660	0.0239352
693.738	0.0233505
693.817	0.0229070
693.895	0.0224863
693.973	0.0217354
694.051	0.0209698
694.129	0.0200440
694.207	0.0190324
694.285	0.0180440
694.363	0.0169648
694.442	0.0159078
694.520	0.0145424
694.598	0.0132172
694.676	0.0118927
694.754	0.0105731
694.832	0.00930824
694.910	0.00817024
694.988	0.00716789
695.067	0.00624367
695.145	0.00551979
695.223	0.00513664
695.301	0.00498734
695.379	0.00504021
695.457	0.00542870
695.535	0.00588173
695.613	0.00658058
695.692	0.00760353
695.770	0.00864815
695.848	0.00993690
695.926	0.0113764
696.004	0.0129456
696.082	0.0144063
696.160	0.0160650
696.238	0.0179178
696.317	0.0195160
696.395	0.0211614
696.473	0.0229335
696.551	0.0242879
696.629	0.0257186
696.707	0.0268880
696.785	0.0279927
696.863	0.0287341
696.942	0.0290286
697.020	0.0293135
697.098	0.0295896
697.176	0.0296815
697.254	0.0295747
697.332	0.0295968
697.410	0.0293303
697.488	0.0288428
697.567	0.0286419
697.645	0.0280854
697.723	0.0274009
697.801	0.0265190
697.879	0.0254772
697.957	0.0240913
698.035	0.0229752
698.113	0.0215187
698.192	0.0199603
698.270	0.0182059
698.348	0.0163893
698.426	0.0142980
698.504	0.0124177
698.582	0.0102908
698.660	0.00818886
698.738	0.00599785
698.817	0.00420479
698.895	0.00262550
698.973	0.000893860
699.051	-0.000598297
699.129	-0.00147064
699.207	-0.00241409
699.285	-0.00291870
699.363	-0.00293480
699.442	-0.00258759
699.520	-0.00175995
699.598	-0.000832520
699.676	0.000645447
699.754	0.00239891
699.832	0.00431587
699.910	0.00647034
699.988	0.00875374
700.067	0.0113578
700.145	0.0139827
700.223	0.0165501
700.301	0.0190398
700.379	0.0214210
700.457	0.0237370
700.535	0.0260328
700.613	0.0280676
700.692	0.0297552
700.770	0.0313321
700.848	0.0326409
700.926	0.0335518
701.004	0.0341170
701.082	0.0347025
701.160	0.0348679
701.238	0.0345795
701.317	0.0343523
701.395	0.0337880
701.473	0.0329565
701.551	0.0322511
701.629	0.0312395
701.707	0.0302065
701.785	0.0293843
701.863	0.0284527
701.942	0.0275459
702.020	0.0266608
702.098	0.0258112
702.176	0.0249957
702.254	0.0238628
702.332	0.0226253
702.410	0.0212432
702.488	0.0195249
702.567	0.0177274
702.645	0.0156934
702.723	0.0133837
702.801	0.0110133
702.879	0.00833214
702.957	0.00584236
703.035	0.00335442
703.113	0.000760193
703.192	-0.00168587
703.270	-0.00367691
703.348	-0.00543831
703.426	-0.00669846
703.504	-0.00776039
703.582	-0.00837440
703.660	-0.00837952
703.738	-0.00812721
703.817	-0.00733414
703.895	-0.00609467
703.973	-0.00449005
704.051	-0.00254829
704.129	-0.000140533
704.207	0.00277649
704.285	0.00589119
704.363	0.00931511
704.442	0.0127712
704.520	0.0163397
704.598	0.0198763
704.676	0.0234930
704.754	0.0268659
704.832	0.0298454
704.910	0.0325832
704.988	0.0350541
705.067	0.0372105
705.145	0.0387942
705.223	0.0399780
705.301	0.0406852
705.379	0.0408823
705.457	0.0404052
705.535	0.0396016
705.613	0.0383851
705.692	0.0367616
705.770	0.0348923
705.848	0.0329294
705.926	0.0308270
706.004	0.0289234
706.082	0.0269120
706.160	0.0249148
706.238	0.0232926
706.317	0.0216099
706.395	0.0202198
706.473	0.0187828
706.551	0.0176973
706.629	0.0163966
706.707	0.0152439
706.785	0.0141374
706.863	0.0129672
706.942	0.0117617
707.020	0.0105527
707.098	0.00962883
707.176	0.00856056
707.254	0.00739845
707.332	0.00627708
707.410	0.00555084
707.488	0.00471527
707.567	0.00416420
707.645	0.00371254
707.723	0.00340347
707.801	0.00336090
707.879	0.00350082
707.957	0.00368813
708.035	0.00408638
708.113	0.00447968
708.192	0.00502281
708.270	0.00571083
708.348	0.00659424
708.426	0.00742950
708.504	0.00828140
708.582	0.00926025
708.660	0.0103374
708.738	0.0115754
708.817	0.0127532
708.895	0.0139456
708.973	0.0152529
709.051	0.0168340
709.129	0.0181274
709.207	0.0195602
709.285	0.0210207
709.363	0.0223544
709.442	0.0236340
709.520	0.0246489
709.598	0.0255945
709.676	0.0262416
709.754	0.0267146
709.832	0.0272027
709.910	0.0273627
709.988	0.0272022
710.067	0.0270811
710.145	0.0267389
710.223	0.0265302
710.301	0.0262177
710.379	0.0258882
710.457	0.0253995
710.535	0.0249835
710.613	0.0245404
710.692	0.0240894
710.770	0.0235921
710.848	0.0228925
710.926	0.0221712
711.004	0.0212593
711.082	0.0202755
711.160	0.0194002
711.238	0.0184893
711.317	0.0174336
711.395	0.0166087
711.473	0.0156801
711.551	0.0149939
711.629	0.0142188
711.707	0.0136233
711.785	0.0130421
711.863	0.0126351
711.942	0.0122620
712.020	0.0120278
712.098	0.0120564
712.176	0.0122252
712.254	0.0121251
712.332	0.0122121
712.410	0.0123949
712.488	0.0127047
712.567	0.0128070
712.645	0.0130653
712.723	0.0132167
712.801	0.0133885
712.879	0.0135129
712.957	0.0134744
713.035	0.0134948
713.113	0.0134532
713.192	0.0135542
713.270	0.0137163
713.348	0.0137333
713.426	0.0140070
713.504	0.0142945
713.582	0.0144451
713.660	0.0147166
713.738	0.0150549
713.817	0.0154650
713.895	0.0155378
713.973	0.0158714
714.051	0.0161254
714.129	0.0162771
714.207	0.0163915
714.285	0.0166698
714.363	0.0167177
714.442	0.0168649
714.520	0.0169934
714.598	0.0170789
714.676	0.0171185
714.754	0.0173890
714.832	0.0176793
714.910	0.0179063
714.988	0.0180968
715.067	0.0184674
715.145	0.0185783
715.223	0.0191198
715.301	0.0194057
715.379	0.0194796
715.457	0.0198218
715.535	0.0200182
715.613	0.0200030
715.692	0.0201528
715.770	0.0201929
715.848	0.0200103
715.926	0.0201218
716.004	0.0200468
716.082	0.0198164
716.160	0.0198518
716.238	0.0197116
716.317	0.0194445
716.395	0.0193359
716.473	0.0190263
716.551	0.0189275
716.629	0.0185171
716.707	0.0183266
716.785	0.0179042
716.863	0.0175323
716.942	0.0171999
717.020	0.0169729
717.098	0.0166903
717.176	0.0162634
717.254	0.0163028
717.332	0.0161461
717.410	0.0159718
717.488	0.0161682
717.567	0.0164194
717.645	0.0165754
717.723	0.0167551
717.801	0.0169742
717.879	0.0172726
717.957	0.0174110
718.035	0.0176242
718.113	0.0175391
718.192	0.0173645
718.270	0.0173389
718.348	0.0171427
718.426	0.0166243
718.504	0.0163102
718.582	0.0158334
718.660	0.0154820
718.738	0.0149658
718.817	0.0144944
718.895	0.0141180
718.973	0.0138584
719.051	0.0134268
719.129	0.0132450
719.207	0.0132585
719.285	0.0133471
719.363	0.0133571
719.442	0.0136885
719.520	0.0141258
719.598	0.0143359
719.676	0.0146571
719.754	0.0149897
719.832	0.0153782
719.910	0.0157417
719.988	0.0162170
720.067	0.0163920
720.145	0.0168016
720.223	0.0170060
720.301	0.0172193
720.379	0.0175096
720.457	0.0177499
720.535	0.0178857
720.613	0.0181049
720.692	0.0183204
720.770	0.0182773
720.848	0.0183045
720.926	0.0183134
721.004	0.0183550
721.082	0.0181962
721.160	0.0182031
721.238	0.0180747
721.317	0.0179247
721.395	0.0178870
721.473	0.0178218
721.551	0.0178304
721.629	0.0177710
721.707	0.0177773
721.785	0.0178190
721.863	0.0178535
721.942	0.0179953
722.020	0.0180793
722.098	0.0181103
722.176	0.0183274
722.254	0.0184843
722.332	0.0185825
722.410	0.0188446
722.488	0.0188672
722.567	0.0188296
722.645	0.0188410
722.723	0.0188616
722.801	0.0188155
722.879	0.0185790
722.957	0.0185182
723.035	0.0184064
723.113	0.0180855
723.192	0.0178555
723.270	0.0175626
723.348	0.0173558
723.426	0.0171027
723.504	0.0167261
723.582	0.0165324
723.660	0.0162920
723.738	0.0161874
723.817	0.0159531
723.895	0.0158299
723.973	0.0156540
724.051	0.0156598
724.129	0.0156364
724.207	0.0155522
724.285	0.0157330
724.363	0.0159364
724.442	0.0157432
724.520	0.0158519
724.598	0.0159267
724.676	0.0159808
724.754	0.0160909
724.832	0.0161839
724.910	0.0161642
724.988	0.0161492
725.067	0.0161990
725.145	0.0161780
725.223	0.0161154
725.301	0.0161259
725.379	0.0159412
725.457	0.0159245
725.535	0.0160046
725.613	0.0157152
725.692	0.0157731
725.770	0.0158386
725.848	0.0158041
725.926	0.0156678
726.004	0.0158408
726.082	0.0157462
726.160	0.0160548
726.238	0.0160470
726.317	0.0163309
726.395	0.0166113
726.473	0.0166955
726.551	0.0168250
726.629	0.0169051
726.707	0.0171320
726.785	0.0172423
726.863	0.0175568
726.942	0.0175527
727.020	0.0177383
727.098	0.0177959
727.176	0.0177740
727.254	0.0178082
727.332	0.0178017
727.410	0.0178328
727.488	0.0176376
727.567	0.0176798
727.645	0.0175306
727.723	0.0173997
727.801	0.0175385
727.879	0.0174045
727.957	0.0172491
728.035	0.0171999
728.113	0.0173129
728.192	0.0171767
728.270	0.0172868
728.348	0.0173257
728.426	0.0174006
728.504	0.0174192
728.582	0.0173672
728.660	0.0174476
728.738	0.0173343
728.817	0.0173714
728.895	0.0173917
728.973	0.0173920
729.051	0.0174092
729.129	0.0172446
729.207	0.0171141
729.285	0.0171795
729.363	0.0172085
729.442	0.0172293
729.520	0.0169783
729.598	0.0168169
729.676	0.0168063
729.754	0.0168665
729.832	0.0167902
729.910	0.0167831
729.988	0.0168185
730.067	0.0168177
730.145	0.0168083
730.223	0.0167974
730.301	0.0167755
730.379	0.0169842
730.457	0.0170749
730.535	0.0171810
730.613	0.0172652
730.692	0.0174088
730.770	0.0173681
730.848	0.0174506
730.926	0.0175483
731.004	0.0176060
731.082	0.0174760
731.160	0.0174264
731.238	0.0171597
731.317	0.0170118
731.395	0.0168157
731.473	0.0168862
731.551	0.0164761
731.629	0.0162281
731.707	0.0161088
731.785	0.0158839
731.863	0.0158060
731.942	0.0158368
732.020	0.0157436
732.098	0.0158356
732.176	0.0157413
732.254	0.0157062
732.332	0.0156480
732.410	0.0158927
732.488	0.0159146
732.567	0.0159618
732.645	0.0160513
732.723	0.0159212
732.801	0.0160725
732.879	0.0160585
732.957	0.0160088
733.035	0.0162296
733.113	0.0162497
733.192	0.0163732
733.270	0.0163392
733.348	0.0165761
733.426	0.0165305
733.504	0.0166357
733.582	0.0167300
733.660	0.0167044
733.738	0.0167661
733.817	0.0168382
733.895	0.0170016
733.973	0.0169847
734.051	0.0169545
734.129	0.0172108
734.207	0.0172536
734.285	0.0172417
734.363	0.0174204
734.442	0.0176183
734.520	0.0176832
734.598	0.0178872
734.676	0.0179346
734.754	0.0179876
734.832	0.0182268
734.910	0.0183391
734.988	0.0185782
735.067	0.0186372
735.145	0.0186246
735.223	0.0185858
735.301	0.0185781
735.379	0.0184857
735.457	0.0185254
735.535	0.0182298
735.613	0.0181285
735.692	0.0178384
735.770	0.0176624
735.848	0.0175709
735.926	0.0172732
736.004	0.0170580
736.082	0.0170357
736.160	0.0169093
736.238	0.0169285
736.317	0.0167098
736.395	0.0167802
736.473	0.0166400
736.551	0.0166644
736.629	0.0167809
736.707	0.0166882
736.785	0.0167519
736.863	0.0165685
736.942	0.0165347
737.020	0.0164480
737.098	0.0160777
737.176	0.0162003
737.254	0.0162015
737.332	0.0158914
737.410	0.0157871
737.488	0.0156979
737.567	0.0154826
737.645	0.0152412
737.723	0.0153997
737.801	0.0152919
737.879	0.0151893
737.957	0.0154662
738.035	0.0156879
738.113	0.0157397
738.192	0.0160008
738.270	0.0162192
738.348	0.0164842
738.426	0.0170827
738.504	0.0170621
738.582	0.0174232
738.660	0.0176630
738.738	0.0179345
738.817	0.0182256
738.895	0.0184292
738.973	0.0183693
739.051	0.0184479
739.129	0.0184901
739.207	0.0184245
739.285	0.0181008
739.363	0.0180396
739.442	0.0177363
739.520	0.0174706
739.598	0.0171632
739.676	0.0167849
739.754	0.0165578
739.832	0.0162713
739.910	0.0161328
739.988	0.0158929
740.067	0.0159326
740.145	0.0161279
740.223	0.0161131
740.301	0.0160710
740.379	0.0163928
740.457	0.0168359
740.535	0.0169327
740.613	0.0171770
740.692	0.0172829
740.770	0.0174837
740.848	0.0175251
740.926	0.0177027
741.004	0.0177120
741.082	0.0177222
741.160	0.0176537
741.238	0.0175323
741.317	0.0173264
741.395	0.0169268
741.473	0.0167198
741.551	0.0167532
741.629	0.0164394
741.707	0.0160429
741.785	0.0159923
741.863	0.0158241
741.942	0.0157434
742.020	0.0157139
742.098	0.0157898
742.176	0.0160645
742.254	0.0159936
742.332	0.0163183
742.410	0.0165416
742.488	0.0167339
742.567	0.0168976
742.645	0.0173905
742.723	0.0177948
742.801	0.0178237
742.879	0.0182298
742.957	0.0183887
743.035	0.0186475
743.113	0.0186028
743.192	0.0187609
743.270	0.0186498
743.348	0.0187941
743.426	0.0185367
743.504	0.0183591
743.582	0.0182131
743.660	0.0180721
743.738	0.0177589
743.817	0.0175114
743.895	0.0171848
743.973	0.0169020
744.051	0.0167845
744.129	0.0165774
744.207	0.0163878
744.285	0.0160820
744.363	0.0160908
744.442	0.0160118
744.520	0.0159924
744.598	0.0160139
744.676	0.0161115
744.754	0.0161059
744.832	0.0161111
744.910	0.0163290
744.988	0.0165108
745.067	0.0166520
745.145	0.0167040
745.223	0.0167072
745.301	0.0168039
745.379	0.0168761
745.457	0.0170125
745.535	0.0170255
745.613	0.0170143
745.692	0.0169553
745.770	0.0170569
745.848	0.0169762
745.926	0.0168880
746.004	0.0167120
746.082	0.0167263
746.160	0.0165624
746.238	0.0164809
746.317	0.0164894
746.395	0.0164206
746.473	0.0164610
746.551	0.0164691
746.629	0.0164524
746.707	0.0164834
746.785	0.0166148
746.863	0.0168182
746.942	0.0168877
747.020	0.0170226
747.098	0.0170161
747.176	0.0174505
747.254	0.0174791
747.332	0.0175368
747.410	0.0174499
747.488	0.0174799
747.567	0.0175376
747.645	0.0175164
747.723	0.0172773
747.801	0.0172183
747.879	0.0170470
747.957	0.0169157
748.035	0.0167415
748.113	0.0165794
748.192	0.0164521
748.270	0.0162678
748.348	0.0163064
748.426	0.0163406
748.504	0.0163531
748.582	0.0163754
748.660	0.0165802
748.738	0.0167897
748.817	0.0169720
748.895	0.0170270
748.973	0.0173810
749.051	0.0175922
749.129	0.0178553
749.207	0.0180895
749.285	0.0181788
749.363	0.0182013
749.442	0.0183478
749.520	0.0181434
749.598	0.0180824
749.676	0.0179793
749.754	0.0180445
749.832	0.0176278
749.910	0.0175196
749.988	0.0173224
750.067	0.0170288
750.145	0.0166885
750.223	0.0164111
750.301	0.0163205
750.379	0.0161895
750.457	0.0162774
750.535	0.0160560
750.613	0.0159433
750.692	0.0161497
750.770	0.0160019
750.848	0.0163271
750.926	0.0166125
751.004	0.0164672
751.082	0.0168642
751.160	0.0171425
751.238	0.0171597
751.317	0.0173634
751.395	0.0175671
751.473	0.0175169
751.551	0.0175043
751.629	0.0176474
751.707	0.0175658
751.785	0.0174619
751.863	0.0174514
751.942	0.0172296
752.020	0.0170994
752.098	0.0170894
752.176	0.0167503
752.254	0.0166121
752.332	0.0164148
752.410	0.0165461
752.488	0.0164417
752.567	0.0162180
752.645	0.0163474
752.723	0.0161662
752.801	0.0163583
752.879	0.0163427
752.957	0.0164496
753.035	0.0164754
753.113	0.0166034
753.192	0.0168107
753.270	0.0168752
753.348	0.0170557
753.426	0.0170303
753.504	0.0172716
753.582	0.0172850
753.660	0.0172752
753.738	0.0174535
753.817	0.0174740
753.895	0.0174310
753.973	0.0172708
754.051	0.0173609
754.129	0.0174374
754.207	0.0171419
754.285	0.0169890
754.363	0.0169743
754.442	0.0167924
754.520	0.0167677
754.598	0.0164783
754.676	0.0163348
754.754	0.0162385
754.832	0.0161205
754.910	0.0159794
754.988	0.0159792
755.067	0.0158411
755.145	0.0159389
755.223	0.0158562
755.301	0.0160478
755.379	0.0161098
755.457	0.0163149
755.535	0.0163570
755.613	0.0165397
755.692	0.0165812
755.770	0.0169062
755.848	0.0171755
755.926	0.0171920
756.004	0.0173345
756.082	0.0173439
756.160	0.0173810
756.238	0.0176150
756.317	0.0176550
756.395	0.0175938
756.473	0.0173062
756.551	0.0171526
756.629	0.0173857
756.707	0.0171933
756.785	0.0170629
756.863	0.0170743
756.942	0.0169846
757.020	0.0168993
757.098	0.0170304
757.176	0.0171308
757.254	0.0170658
757.332	0.0170818
757.410	0.0172439
757.488	0.0172256
757.567	0.0172908
757.645	0.0172341
757.723	0.0176241
757.801	0.0174274
757.879	0.0174673
757.957	0.0175887
758.035	0.0175372
758.113	0.0175552
758.192	0.0175346
758.270	0.0173363
758.348	0.0172188
758.426	0.0171653
758.504	0.0170074
758.582	0.0170702
758.660	0.0167931
758.738	0.0166450
758.817	0.0164151
758.895	0.0164021
758.973	0.0164340
759.051	0.0162845
759.129	0.0163156
759.207	0.0162166
759.285	0.0163201
759.363	0.0163210
759.442	0.0163612
759.520	0.0164779
759.598	0.0166119
759.676	0.0166554
759.754	0.0166965
759.832	0.0168228
759.910	0.0168600
759.988	0.0168291
760.067	0.0167781
760.145	0.0168456
760.223	0.0167239
760.301	0.0169185
760.379	0.0169176
760.457	0.0168256
760.535	0.0166951
760.613	0.0165491
760.692	0.0166205
760.770	0.0166353
760.848	0.0164612
760.926	0.0164319
761.004	0.0164144
761.082	0.0162814
761.160	0.0163818
761.238	0.0163616
761.317	0.0164628
761.395	0.0165413
761.473	0.0165897
761.551	0.0166320
761.629	0.0168734
761.707	0.0170223
761.785	0.0171354
761.863	0.0171336
761.942	0.0173029
762.020	0.0175487
762.098	0.0174793
762.176	0.0175823
762.254	0.0176351
762.332	0.0175589
762.410	0.0174391
762.488	0.0174271
762.567	0.0174477
762.645	0.0176118
762.723	0.0173345
762.801	0.0173719
762.879	0.0170927
762.957	0.0170703
763.035	0.0168886
763.113	0.0167825
763.192	0.0166882
763.270	0.0166245
763.348	0.0165654
763.426	0.0163113
763.504	0.0164144
763.582	0.0163657
763.660	0.0162170
763.738	0.0162604
763.817	0.0163299
763.895	0.0165371
763.973	0.0165582
764.051	0.0166708
764.129	0.0166953
764.207	0.0169573
764.285	0.0170518
764.363	0.0170504
764.442	0.0174052
764.520	0.0173440
764.598	0.0173869
764.676	0.0175257
764.754	0.0175196
764.832	0.0175063
764.910	0.0174119
764.988	0.0172421
765.067	0.0173759
765.145	0.0172790
765.223	0.0171964
765.301	0.0170960
765.379	0.0170738
765.457	0.0169475
765.535	0.0169360
765.613	0.0169182
765.692	0.0167306
765.770	0.0168249
765.848	0.0168230
765.926	0.0168265
766.004	0.0169821
766.082	0.0170018
766.160	0.0169843
766.238	0.0172273
766.317	0.0171696
766.395	0.0172304
766.473	0.0172857
766.551	0.0173186
766.629	0.0173548
766.707	0.0174187
766.785	0.0173138
766.863	0.0173807
766.942	0.0173938
767.020	0.0172546
767.098	0.0172572
767.176	0.0171619
767.254	0.0170311
767.332	0.0169437
767.410	0.0166870
767.488	0.0165990
767.567	0.0165438
767.645	0.0165678
767.723	0.0164830
767.801	0.0163598
767.879	0.0162225
767.957	0.0163402
768.035	0.0163319
768.113	0.0161273
768.192	0.0163996
768.270	0.0163158
768.348	0.0162854
768.426	0.0161744
768.504	0.0163123
768.582	0.0164314
768.660	0.0165262
768.738	0.0164465
768.817	0.0163853
768.895	0.0166708
768.973	0.0166261
769.051	0.0167497
769.129	0.0167132
769.207	0.0166718
769.285	0.0167648
769.363	0.0167829
769.442	0.0166751
769.520	0.0167637
769.598	0.0168486
769.676	0.0168091
769.754	0.0168520
769.832	0.0167928
769.910	0.0169312
769.988	0.0168403
770.067	0.0168638
770.145	0.0169390
770.223	0.0168539
770.301	0.0168184
770.379	0.0171246
770.457	0.0171267
770.535	0.0172268
770.613	0.0174493
770.692	0.0173800
770.770	0.0174176
770.848	0.0174738
770.926	0.0177112
771.004	0.0176628
771.082	0.0174787
771.160	0.0178144
771.238	0.0176995
771.317	0.0177563
771.395	0.0175704
771.473	0.0175590
771.551	0.0174790
771.629	0.0174771
771.707	0.0173377
771.785	0.0172882
771.863	0.0172054
771.942	0.0172077
772.020	0.0170673
772.098	0.0169698
772.176	0.0168134
772.254	0.0168456
772.332	0.0168604
772.410	0.0166717
772.488	0.0167527
772.567	0.0166022
772.645	0.0167775
772.723	0.0169198
772.801	0.0167551
772.879	0.0167934
772.957	0.0169269
773.035	0.0168388
773.113	0.0168969
773.192	0.0169205
773.270	0.0169005
773.348	0.0168245
773.426	0.0170181
773.504	0.0169410
773.582	0.0169218
773.660	0.0167550
773.738	0.0168925
773.817	0.0168716
773.895	0.0168665
773.973	0.0170351
774.051	0.0169198
774.129	0.0168320
774.207	0.0170071
774.285	0.0169904
774.363	0.0169915
774.442	0.0170781
774.520	0.0168915
774.598	0.0169366
774.676	0.0167696
774.754	0.0167844
774.832	0.0168147
774.910	0.0167493
774.988	0.0167513
775.067	0.0166800
775.145	0.0165670
775.223	0.0167276
775.301	0.0167150
775.379	0.0166328
775.457	0.0166697
775.535	0.0166879
775.613	0.0168307
775.692	0.0167518
775.770	0.0168252
775.848	0.0170708
775.926	0.0171261
776.004	0.0171453
776.082	0.0169441
776.160	0.0170299
776.238	0.0169331
776.317	0.0170238
776.395	0.0170036
776.473	0.0168575
776.551	0.0168568
776.629	0.0168828
776.707	0.0167580
776.785	0.0165769
776.863	0.0165226
776.942	0.0165157
777.020	0.0163549
777.098	0.0165075
777.176	0.0164165
777.254	0.0165084
777.332	0.0162688
777.410	0.0163484
777.488	0.0163536
777.567	0.0164905
777.645	0.0163415
777.723	0.0163755
777.801	0.0165967
777.879	0.0165704
777.957	0.0166428
778.035	0.0167284
778.113	0.0167757
778.192	0.0167486
778.270	0.0168789
778.348	0.0169345
778.426	0.0169754
778.504	0.0171689
778.582	0.0171808
778.660	0.0171259
778.738	0.0173362
778.817	0.0172508
778.895	0.0173135
778.973	0.0174452
779.051	0.0173032
779.129	0.0175625
779.207	0.0173898
779.285	0.0174783
779.363	0.0176228
779.442	0.0174494
779.520	0.0175742
779.598	0.0175460
779.676	0.0172702
779.754	0.0175036
779.832	0.0174303
779.910	0.0174575
779.988	0.0175790
780.067	0.0174084
780.145	0.0174052
780.223	0.0174403
780.301	0.0173601
780.379	0.0174138
780.457	0.0173481
780.535	0.0172665
780.613	0.0171571
780.692	0.0170663
780.770	0.0172314
780.848	0.0170905
780.926	0.0170034
781.004	0.0170275
781.082	0.0170596
781.160	0.0169968
781.238	0.0169963
781.317	0.0167471
781.395	0.0169085
781.473	0.0167973
781.551	0.0168779
781.629	0.0167961
781.707	0.0166385
781.785	0.0166405
781.863	0.0166286
781.942	0.0164263
782.020	0.0162985
782.098	0.0161687
782.176	0.0162719
782.254	0.0163107
782.332	0.0160379
782.410	0.0161362
782.488	0.0159827
782.567	0.0161025
782.645	0.0161837
782.723	0.0162045
782.801	0.0161890
782.879	0.0163796
782.957	0.0163671
783.035	0.0164549
783.113	0.0165105
783.192	0.0166449
783.270	0.0166803
783.348	0.0167926
783.426	0.0167516
783.504	0.0168987
783.582	0.0169902
783.660	0.0169760
783.738	0.0169714
783.817	0.0171374
783.895	0.0171059
783.973	0.0173215
784.051	0.0173792
784.129	0.0174151
784.207	0.0174044
784.285	0.0174826
784.363	0.0175735
784.442	0.0175966
784.520	0.0175391
784.598	0.0175292
784.676	0.0174716
784.754	0.0173468
784.832	0.0174884
784.910	0.0175064
784.988	0.0172652
785.067	0.0171583
785.145	0.0170391
785.223	0.0171424
785.301	0.0169456
785.379	0.0168024
785.457	0.0167813
785.535	0.0167737
785.613	0.0167149
785.692	0.0167764
785.770	0.0167431
785.848	0.0167604
785.926	0.0167551
786.004	0.0168427
786.082	0.0169363
786.160	0.0168718
786.238	0.0169775
786.317	0.0168799
786.395	0.0169479
786.473	0.0171581
786.551	0.0170605
786.629	0.0170068
786.707	0.0170338
786.785	0.0169431
786.863	0.0168483
786.942	0.0169019
787.020	0.0169052
787.098	0.0168158
787.176	0.0167766
787.254	0.0167937
787.332	0.0167364
787.410	0.0168107
787.488	0.0168213
787.567	0.0167583
787.645	0.0167087
787.723	0.0167360
787.801	0.0168229
787.879	0.0168130
787.957	0.0167180
788.035	0.0167106
788.113	0.0167625
788.192	0.0168282
788.270	0.0169569
788.348	0.0168462
788.426	0.0169417
788.504	0.0168567
788.582	0.0168423
788.660	0.0169336
788.738	0.0169424
788.817	0.0171571
788.895	0.0171088
788.973	0.0172107
789.051	0.0172452
789.129	0.0171207
789.207	0.0171716
789.285	0.0172117
789.363	0.0173022
789.442	0.0172791
789.520	0.0173345
789.598	0.0173653
789.676	0.0174652
789.754	0.0174772
789.832	0.0175327
789.910	0.0175402
789.988	0.0176149
790.067	0.0177975
790.145	0.0176583
790.223	0.0177101
790.301	0.0177165
790.379	0.0177106
790.457	0.0176584
790.535	0.0176441
790.613	0.0175326
790.692	0.0174299
790.770	0.0170252
790.848	0.0168765
790.926	0.0167033
791.004	0.0165430
791.082	0.0164117
791.160	0.0161188
791.238	0.0160963
791.317	0.0158894
791.395	0.0155685
791.473	0.0156351
791.551	0.0153001
791.629	0.0152474
791.707	0.0151802
791.785	0.0151431
791.863	0.0151860
791.942	0.0151446
792.020	0.0150671
792.098	0.0151603
792.176	0.0152768
792.254	0.0153885
792.332	0.0154998
792.410	0.0158978
792.488	0.0161568
792.567	0.0163068
792.645	0.0165185
792.723	0.0168623
792.801	0.0172041
792.879	0.0173758
792.957	0.0175362
793.035	0.0178346
793.113	0.0180045
793.192	0.0183575
793.270	0.0184401
793.348	0.0185577
793.426	0.0186405
793.504	0.0187383
793.582	0.0188179
793.660	0.0187581
793.738	0.0188081
793.817	0.0188210
793.895	0.0188410
793.973	0.0187901
794.051	0.0187444
794.129	0.0185992
794.207	0.0185909
794.285	0.0184760
794.363	0.0181628
794.442	0.0180296
794.520	0.0179086
794.598	0.0178568
794.676	0.0176473
794.754	0.0173193
794.832	0.0170596
794.910	0.0169540
794.988	0.0166299
795.067	0.0162798
795.145	0.0161553
795.223	0.0159220
795.301	0.0156399
795.379	0.0154169
795.457	0.0153452
795.535	0.0150128
795.613	0.0147657
795.692	0.0147274
795.770	0.0147051
795.848	0.0145481
795.926	0.0145074
796.004	0.0144402
796.082	0.0145503
796.160	0.0145861
796.238	0.0147501
796.317	0.0150718
796.395	0.0151510
796.473	0.0153811
796.551	0.0156657
796.629	0.0161280
796.707	0.0163986
796.785	0.0166731
796.863	0.0170337
796.942	0.0173586
797.020	0.0175805
797.098	0.0179922
797.176	0.0182181
797.254	0.0184318
797.332	0.0186390
797.410	0.0188930
797.488	0.0188073
797.567	0.0189874
797.645	0.0190180
797.723	0.0188644
797.801	0.0189720
797.879	0.0189205
797.957	0.0190725
798.035	0.0189354
798.113	0.0188132
798.192	0.0187664
798.270	0.0186282
798.348	0.0187296
798.426	0.0184991
798.504	0.0183028
798.582	0.0182941
798.660	0.0180985
798.738	0.0180014
798.817	0.0177230
798.895	0.0173829
798.973	0.0173855
799.051	0.0169390
799.129	0.0166177
799.207	0.0164521
799.285	0.0160869
799.363	0.0158144
799.442	0.0154668
799.520	0.0150233
799.598	0.0148159
799.676	0.0145881
799.754	0.0141621
799.832	0.0142375
799.910	0.0141205
799.988	0.0138863
800.067	0.0137932
800.145	0.0137488
800.223	0.0139265
800.301	0.0139842
800.379	0.0141479
800.457	0.0143890
800.535	0.0145210
800.613	0.0149575
800.692	0.0153530
800.770	0.0156278
800.848	0.0161141
800.926	0.0164508
801.004	0.0167522
801.082	0.0172469
801.160	0.0174720
801.238	0.0179233
801.317	0.0181879
801.395	0.0185852
801.473	0.0186792
801.551	0.0188879
801.629	0.0190619
801.707	0.0192171
801.785	0.0192486
801.863	0.0193575
801.942	0.0194234
802.020	0.0194485
802.098	0.0194275
802.176	0.0192493
802.254	0.0192882
802.332	0.0192377
802.410	0.0191902
802.488	0.0189793
802.567	0.0189337
802.645	0.0187902
802.723	0.0185379
802.801	0.0185854
802.879	0.0184427
802.957	0.0181502
803.035	0.0180137
803.113	0.0179567
803.192	0.0174591
803.270	0.0172911
803.348	0.0169301
803.426	0.0168250
803.504	0.0164063
803.582	0.0162482
803.660	0.0160317
803.738	0.0155994
803.817	0.0154427
803.895	0.0153374
803.973	0.0151673
804.051	0.0150321
804.129	0.0148652
804.207	0.0148363
804.285	0.0148116
804.363	0.0147272
804.442	0.0147441
804.520	0.0146329
804.598	0.0147241
804.676	0.0149127
804.754	0.0150954
804.832	0.0151508
804.910	0.0152764
804.988	0.0155938
805.067	0.0157915
805.145	0.0158147
805.223	0.0159682
805.301	0.0162232
805.379	0.0163852
805.457	0.0164090
805.535	0.0167358
805.613	0.0167770
805.692	0.0169353
805.770	0.0171496
805.848	0.0173257
805.926	0.0173937
806.004	0.0175478
806.082	0.0175248
806.160	0.0176501
806.238	0.0175787
806.317	0.0178494
806.395	0.0180516
806.473	0.0181330
806.551	0.0180588
806.629	0.0180981
806.707	0.0183128
806.785	0.0183810
806.863	0.0183343
806.942	0.0183738
807.020	0.0182686
807.098	0.0181489
807.176	0.0182315
807.254	0.0181016
807.332	0.0180824
807.410	0.0179530
807.488	0.0179073
807.567	0.0178336
807.645	0.0176129
807.723	0.0174648
807.801	0.0173244
807.879	0.0173167
807.957	0.0171530
808.035	0.0170303
808.113	0.0170134
808.192	0.0168812
808.270	0.0168081
808.348	0.0166265
808.426	0.0166446
808.504	0.0164118
808.582	0.0165099
808.660	0.0165694
808.738	0.0165441
808.817	0.0165972
808.895	0.0165313
808.973	0.0165398
809.051	0.0165305
809.129	0.0165476
809.207	0.0165823
809.285	0.0165437
809.363	0.0166037
809.442	0.0165884
809.520	0.0165334
809.598	0.0164670
809.676	0.0164827
809.754	0.0166158
809.832	0.0166165
809.910	0.0165394
809.988	0.0165250
810.067	0.0165926
810.145	0.0166174
810.223	0.0166057
810.301	0.0168485
810.379	0.0170210
810.457	0.0167608
810.535	0.0168578
810.613	0.0169038
810.692	0.0168378
810.770	0.0169525
810.848	0.0169646
810.926	0.0169231
811.004	0.0167351
811.082	0.0168481
811.160	0.0167169
811.238	0.0166457
811.317	0.0166222
811.395	0.0167252
811.473	0.0165712
811.551	0.0165045
811.629	0.0165192
811.707	0.0166794
811.785	0.0167735
811.863	0.0165343
811.942	0.0166624
812.020	0.0167110
812.098	0.0168682
812.176	0.0169268
812.254	0.0170728
812.332	0.0171334
812.410	0.0172829
812.488	0.0174190
812.567	0.0174529
812.645	0.0174957
812.723	0.0175643
812.801	0.0175336
812.879	0.0176617
812.957	0.0176484
813.035	0.0178143
813.113	0.0177840
813.192	0.0178168
813.270	0.0177473
813.348	0.0175882
813.426	0.0176392
813.504	0.0176168
813.582	0.0175140
813.660	0.0175029
813.738	0.0174913
813.817	0.0174794
813.895	0.0174953
813.973	0.0175831
814.051	0.0173274
814.129	0.0173441
814.207	0.0174944
814.285	0.0173315
814.363	0.0172540
814.442	0.0172231
814.520	0.0172027
814.598	0.0171627
814.676	0.0172321
814.754	0.0170446
814.832	0.0170586
814.910	0.0169582
814.988	0.0168286
815.067	0.0166753
815.145	0.0167043
815.223	0.0165458
815.301	0.0163682
815.379	0.0162290
815.457	0.0162363
815.535	0.0161597
815.613	0.0160925
815.692	0.0158990
815.770	0.0160897
815.848	0.0161311
815.926	0.0160915
816.004	0.0158681
816.082	0.0159674
816.160	0.0160815
816.238	0.0160344
816.317	0.0160728
816.395	0.0160917
816.473	0.0160173
816.551	0.0160455
816.629	0.0162032
816.707	0.0161301
816.785	0.0164130
816.863	0.0163025
816.942	0.0163957
817.020	0.0166702
817.098	0.0167178
817.176	0.0168114
817.254	0.0169817
817.332	0.0171755
817.410	0.0173215
817.488	0.0173040
817.567	0.0174098
817.645	0.0174834
817.723	0.0178013
817.801	0.0177682
817.879	0.0178008
817.957	0.0178008
818.035	0.0179713
818.113	0.0179454
818.192	0.0179771
818.270	0.0179803
818.348	0.0178994
818.426	0.0180600
818.504	0.0179391
818.582	0.0179398
818.660	0.0179412
818.738	0.0176336
818.817	0.0177119
818.895	0.0177230
818.973	0.0176841
819.051	0.0174326
819.129	0.0175295
819.207	0.0173894
819.285	0.0174498
819.363	0.0173754
819.442	0.0172613
819.520	0.0171912
819.598	0.0171864
819.676	0.0170719
819.754	0.0170004
819.832	0.0170470
819.910	0.0169952
819.988	0.0169902
820.067	0.0169050
820.145	0.0168371
820.223	0.0167735
820.301	0.0166871
820.379	0.0166568
820.457	0.0165622
820.535	0.0165837
820.613	0.0163551
820.692	0.0163940
820.770	0.0163484
820.848	0.0163911
820.926	0.0161673
821.004	0.0162123
821.082	0.0160598
821.160	0.0161502
821.238	0.0160716
821.317	0.0161261
821.395	0.0161755
821.473	0.0161673
821.551	0.0161127
821.629	0.0161961
821.707	0.0162349
821.785	0.0164007
821.863	0.0166274
821.942	0.0163974
822.020	0.0164735
822.098	0.0165417
822.176	0.0166811
822.254	0.0166973
822.332	0.0169161
822.410	0.0170556
822.488	0.0170508
822.567	0.0172038
822.645	0.0171848
822.723	0.0171339
822.801	0.0173840
822.879	0.0173602
822.957	0.0174540
823.035	0.0173328
823.113	0.0174865
823.192	0.0174413
823.270	0.0174422
823.348	0.0173812
823.426	0.0173540
823.504	0.0172995
823.582	0.0172755
823.660	0.0171538
823.738	0.0172984
823.817	0.0172509
823.895	0.0171375
823.973	0.0171964
824.051	0.0171475
824.129	0.0172409
824.207	0.0173771
824.285	0.0172942
824.363	0.0172142
824.442	0.0172977
824.520	0.0172813
824.598	0.0173563
824.676	0.0175793
824.754	0.0173594
824.832	0.0173321
824.910	0.0173093
824.988	0.0172545
825.067	0.0172092
825.145	0.0171091
825.223	0.0170134
825.301	0.0169082
825.379	0.0168719
825.457	0.0168118
825.535	0.0165818
825.613	0.0165667
825.692	0.0164799
825.770	0.0164405
825.848	0.0166150
825.926	0.0166762
826.004	0.0166561
826.082	0.0165775
826.160	0.0167843
826.238	0.0166973
826.317	0.0168214
826.395	0.0169350
826.473	0.0171040
826.551	0.0170055
826.629	0.0170758
826.707	0.0172004
826.785	0.0171148
826.863	0.0171819
826.942	0.0171555
827.020	0.0172010
827.098	0.0172276
827.176	0.0171701
827.254	0.0171437
827.332	0.0170216
827.410	0.0169843
827.488	0.0167089
827.567	0.0167939
827.645	0.0168626
827.723	0.0166026
827.801	0.0167384
827.879	0.0166763
827.957	0.0165695
828.035	0.0165793
828.113	0.0166852
828.192	0.0166091
828.270	0.0166769
828.348	0.0167026
828.426	0.0167039
828.504	0.0168274
828.582	0.0168495
828.660	0.0168716
828.738	0.0168616
828.817	0.0169149
828.895	0.0170131
828.973	0.0170344
829.051	0.0169722
829.129	0.0169709
829.207	0.0170043
829.285	0.0170754
829.363	0.0170233
829.442	0.0168903
829.520	0.0170036
829.598	0.0167766
829.676	0.0167755
829.754	0.0167680
829.832	0.0167107
829.910	0.0167456
829.988	0.0167773
830.067	0.0168079
830.145	0.0170288
830.223	0.0169174
830.301	0.0169339
830.379	0.0170202
830.457	0.0170339
830.535	0.0172372
830.613	0.0171297
830.692	0.0171182
830.770	0.0171649
830.848	0.0172328
830.926	0.0171539
831.004	0.0173882
831.082	0.0172993
831.160	0.0174125
831.238	0.0172931
831.317	0.0172967
831.395	0.0172292
831.473	0.0173215
831.551	0.0173098
831.629	0.0173357
831.707	0.0172442
831.785	0.0171147
831.863	0.0172081
831.942	0.0171353
832.020	0.0169764
832.098	0.0170010
832.176	0.0168311
832.254	0.0169945
832.332	0.0169231
832.410	0.0168575
832.488	0.0169229
832.567	0.0168275
832.645	0.0166505
832.723	0.0166322
832.801	0.0166494
832.879	0.0167271
832.957	0.0167354
833.035	0.0167447
833.113	0.0166242
833.192	0.0167764
833.270	0.0166194
833.348	0.0166702
833.426	0.0167459
833.504	0.0167279
833.582	0.0167176
833.660	0.0165665
833.738	0.0166752
833.817	0.0166542
833.895	0.0168153
833.973	0.0166970
834.051	0.0168711
834.129	0.0169180
834.207	0.0169247
834.285	0.0169382
834.363	0.0168646
834.442	0.0170042
834.520	0.0170985
834.598	0.0171696
834.676	0.0173488
834.754	0.0174728
834.832	0.0174211
834.910	0.0174584
834.988	0.0174921
835.067	0.0176579
835.145	0.0176669
835.223	0.0176554
835.301	0.0176147
835.379	0.0175916
835.457	0.0176264
835.535	0.0175886
835.613	0.0175175
835.692	0.0173798
835.770	0.0173310
835.848	0.0172195
835.926	0.0171307
836.004	0.0169814
836.082	0.0170006
836.160	0.0168954
836.238	0.0167646
836.317	0.0166548
836.395	0.0166376
836.473	0.0166477
836.551	0.0167216
836.629	0.0166171
836.707	0.0165047
836.785	0.0164306
836.863	0.0165276
836.942	0.0163300
837.020	0.0164786
837.098	0.0165201
837.176	0.0163912
837.254	0.0165424
837.332	0.0165246
837.410	0.0164906
837.488	0.0165108
837.567	0.0165376
837.645	0.0165100
837.723	0.0165332
837.801	0.0166605
837.879	0.0165728
837.957	0.0167960
838.035	0.0168147
838.113	0.0167609
838.192	0.0168919
838.270	0.0168655
838.348	0.0167903
838.426	0.0170200
838.504	0.0170496
838.582	0.0170313
838.660	0.0170454
838.738	0.0172330
838.817	0.0172982
838.895	0.0173287
838.973	0.0173727
839.051	0.0174538
839.129	0.0174461
839.207	0.0174451
839.285	0.0174738
839.363	0.0176372
839.442	0.0176664
839.520	0.0176314
839.598	0.0176582
839.676	0.0175702
839.754	0.0176888
839.832	0.0176407
839.910	0.0176466
839.988	0.0177920
840.067	0.0176382
840.145	0.0174313
840.223	0.0173244
840.301	0.0173604
840.379	0.0172399
840.457	0.0171037
840.535	0.0171027
840.613	0.0170166
840.692	0.0169457
840.770	0.0167517
840.848	0.0167178
840.926	0.0163944
841.004	0.0165402
841.082	0.0163830
841.160	0.0164002
841.238	0.0164600
841.317	0.0161654
841.395	0.0161739
841.473	0.0161069
841.551	0.0162158
841.629	0.0161601
841.707	0.0161340
841.785	0.0163258
841.863	0.0162268
841.942	0.0163105
842.020	0.0164823
842.098	0.0165352
842.176	0.0164856
842.254	0.0165562
842.332	0.0165771
842.410	0.0166634
842.488	0.0167938
842.567	0.0167905
842.645	0.0170670
842.723	0.0169015
842.801	0.0169697
842.879	0.0171070
842.957	0.0171388
843.035	0.0172162
843.113	0.0172954
843.192	0.0172881
843.270	0.0174148
843.348	0.0174311
843.426	0.0174498
843.504	0.0175143
843.582	0.0175597
843.660	0.0176054
843.738	0.0174748
843.817	0.0175903
843.895	0.0176025
843.973	0.0175289
844.051	0.0177225
844.129	0.0176379
844.207	0.0175818
844.285	0.0175460
844.363	0.0175124
844.442	0.0173473
844.520	0.0173410
844.598	0.0174280
844.676	0.0173140
844.754	0.0171671
844.832	0.0170643
844.910	0.0170862
844.988	0.0168353
845.067	0.0167793
845.145	0.0167130
845.223	0.0166643
845.301	0.0165728
845.379	0.0166148
845.457	0.0165503
845.535	0.0165152
845.613	0.0165022
845.692	0.0165223
845.770	0.0165567
845.848	0.0165501
845.926	0.0164501
846.004	0.0164240
846.082	0.0165641
846.160	0.0164644
846.238	0.0164791
846.317	0.0164336
846.395	0.0166018
846.473	0.0165162
846.551	0.0165553
846.629	0.0165556
846.707	0.0165059
846.785	0.0165508
846.863	0.0165547
846.942	0.0165392
847.020	0.0167785
847.098	0.0166653
847.176	0.0166924
847.254	0.0168305
847.332	0.0168102
847.410	0.0169881
847.488	0.0169775
847.567	0.0170523
847.645	0.0170860
847.723	0.0170560
847.801	0.0170913
847.879	0.0171939
847.957	0.0172585
848.035	0.0173079
848.113	0.0172672
848.192	0.0173306
848.270	0.0174253
848.348	0.0174179
848.426	0.0174588
848.504	0.0174507
848.582	0.0174639
848.660	0.0173340
848.738	0.0173753
848.817	0.0172204
848.895	0.0173155
848.973	0.0171629
849.051	0.0171334
849.129	0.0170512
849.207	0.0171059
849.285	0.0170042
849.363	0.0170613
849.442	0.0169170
849.520	0.0170043
849.598	0.0166982
849.676	0.0168322
849.754	0.0168590
849.832	0.0167245
849.910	0.0168001
849.988	0.0169129
850.067	0.0168948
850.145	0.0168183
850.223	0.0167879
850.301	0.0169111
850.379	0.0169183
850.457	0.0167545
850.535	0.0167513
850.613	0.0166862
850.692	0.0168266
850.770	0.0168143
850.848	0.0169106
850.926	0.0167989
851.004	0.0167421
851.082	0.0167181
851.160	0.0166699
851.238	0.0167764
851.317	0.0167635
851.395	0.0167277
851.473	0.0167274
851.551	0.0167615
851.629	0.0167368
851.707	0.0167335
851.785	0.0167358
851.863	0.0167624
851.942	0.0167577
852.020	0.0166708
852.098	0.0167765
852.176	0.0168726
852.254	0.0168355
852.332	0.0169134
852.410	0.0169927
852.488	0.0169373
852.567	0.0170078
852.645	0.0169955
852.723	0.0168966
852.801	0.0170087
852.879	0.0169102
852.957	0.0170557
853.035	0.0170409
853.113	0.0172253
853.192	0.0171343
853.270	0.0171774
853.348	0.0170969
853.426	0.0172139
853.504	0.0170531
853.582	0.0170483
853.660	0.0170372
853.738	0.0170348
853.817	0.0170088
853.895	0.0170419
853.973	0.0169927
854.051	0.0168321
854.129	0.0169614
854.207	0.0169593
854.285	0.0167938
854.363	0.0169108
854.442	0.0168496
854.520	0.0168131
854.598	0.0168958
854.676	0.0168787
854.754	0.0168676
854.832	0.0168771
854.910	0.0168382
854.988	0.0168095
855.067	0.0168124
855.145	0.0167281
855.223	0.0167273
855.301	0.0169244
855.379	0.0168320
855.457	0.0168760
855.535	0.0166821
855.613	0.0167942
855.692	0.0167328
855.770	0.0167486
855.848	0.0166416
855.926	0.0167072
856.004	0.0166276
856.082	0.0165975
856.160	0.0167487
856.238	0.0167318
856.317	0.0167018
856.395	0.0167110
856.473	0.0166318
856.551	0.0166667
856.629	0.0166838
856.707	0.0168246
856.785	0.0167921
856.863	0.0169096
856.942	0.0169632
857.020	0.0169421
857.098	0.0168721
857.176	0.0170046
857.254	0.0170851
857.332	0.0171814
857.410	0.0171368
857.488	0.0171091
857.567	0.0171289
857.645	0.0171603
857.723	0.0171329
857.801	0.0170367
857.879	0.0169756
857.957	0.0168315
858.035	0.0168380
858.113	0.0168002
858.192	0.0168136
858.270	0.0169383
858.348	0.0169320
858.426	0.0167380
858.504	0.0168472
858.582	0.0169187
858.660	0.0167776
858.738	0.0168256
858.817	0.0168707
858.895	0.0169252
858.973	0.0170583
859.051	0.0169228
859.129	0.0170700
859.207	0.0169277
859.285	0.0170848
859.363	0.0170892
859.442	0.0170616
859.520	0.0170805
859.598	0.0170787
859.676	0.0172463
859.754	0.0170766
859.832	0.0170023
859.910	0.0169252
859.988	0.0169376
860.067	0.0168651
860.145	0.0169112
860.223	0.0167947
860.301	0.0167760
860.379	0.0167188
860.457	0.0165697
860.535	0.0166656
860.613	0.0166258
860.692	0.0167239
860.770	0.0167993
860.848	0.0166757
860.926	0.0167031
861.004	0.0168112
861.082	0.0167871
861.160	0.0169242
861.238	0.0169089
861.317	0.0170361
861.395	0.0170683
861.473	0.0171738
861.551	0.0171508
861.629	0.0172157
861.707	0.0172366
861.785	0.0171987
861.863	0.0169693
861.942	0.0169959
862.020	0.0171922
862.098	0.0171087
862.176	0.0169157
862.254	0.0168896
862.332	0.0169688
862.410	0.0167941
862.488	0.0167439
862.567	0.0166638
862.645	0.0165009
862.723	0.0164302
862.801	0.0165565
862.879	0.0164874
862.957	0.0164506
863.035	0.0164242
863.113	0.0164833
863.192	0.0164806
863.270	0.0165948
863.348	0.0165406
863.426	0.0167033
863.504	0.0166779
863.582	0.0167920
863.660	0.0167880
863.738	0.0167365
863.817	0.0168751
863.895	0.0170006
863.973	0.0169668
864.051	0.0170088
864.129	0.0169388
864.207	0.0171622
864.285	0.0169810
864.363	0.0170468
864.442	0.0169256
864.520	0.0170377
864.598	0.0170345
864.676	0.0169870
864.754	0.0168157
864.832	0.0168617
864.910	0.0168652
864.988	0.0169240
865.067	0.0169370
865.145	0.0167238
865.223	0.0167030
865.301	0.0166649
865.379	0.0168190
865.457	0.0168697
865.535	0.0168372
865.613	0.0168266
865.692	0.0169966
865.770	0.0168951
865.848	0.0169717
865.926	0.0172202
866.004	0.0170204
866.082	0.0171882
866.160	0.0172300
866.238	0.0172262
866.317	0.0173081
866.395	0.0171912
866.473	0.0172089
866.551	0.0171442
866.629	0.0172113
866.707	0.0169770
866.785	0.0171193
866.863	0.0170313
866.942	0.0170068
867.020	0.0169922
867.098	0.0168414
867.176	0.0167440
867.254	0.0169016
867.332	0.0168504
867.410	0.0169035
867.488	0.0167847
867.567	0.0168031
867.645	0.0168870
867.723	0.0168832
867.801	0.0169039
867.879	0.0170324
867.957	0.0169752
868.035	0.0171195
868.113	0.0170831
868.192	0.0171307
868.270	0.0172450
868.348	0.0171885
868.426	0.0171960
868.504	0.0172443
868.582	0.0171464
868.660	0.0170934
868.738	0.0170834
868.817	0.0169682
868.895	0.0169995
868.973	0.0169167
869.051	0.0168284
869.129	0.0166682
869.207	0.0166579
869.285	0.0166357
869.363	0.0165071
869.442	0.0164411
869.520	0.0164052
869.598	0.0163517
869.676	0.0163733
869.754	0.0164928
869.832	0.0164166
869.910	0.0165259
869.988	0.0164043
870.067	0.0164204
870.145	0.0165819
870.223	0.0166460
870.301	0.0165768
870.379	0.0169008
870.457	0.0168619
870.535	0.0167506
870.613	0.0167780
870.692	0.0167799
870.770	0.0168423
870.848	0.0167872
870.926	0.0169171
871.004	0.0168194
871.082	0.0169447
871.160	0.0168977
871.238	0.0168922
871.317	0.0168774
871.395	0.0169555
871.473	0.0168607
871.551	0.0169410
871.629	0.0170932
871.707	0.0169757
871.785	0.0169734
871.863	0.0170857
871.942	0.0170487
872.020	0.0170896
872.098	0.0170052
872.176	0.0171848
872.254	0.0172038
872.332	0.0172744
872.410	0.0172011
872.488	0.0173743
872.567	0.0174244
872.645	0.0174290
872.723	0.0175255
872.801	0.0173547
872.879	0.0174020
872.957	0.0175109
873.035	0.0173654
873.113	0.0173321
873.192	0.0174843
873.270	0.0173763
873.348	0.0172292
873.426	0.0171762
873.504	0.0170209
873.582	0.0171140
873.660	0.0169786
873.738	0.0168393
873.817	0.0168143
873.895	0.0167684
873.973	0.0167834
874.051	0.0167056
874.129	0.0165677
874.207	0.0166080
874.285	0.0165966
874.363	0.0165332
874.442	0.0166144
874.520	0.0165710
874.598	0.0164732
874.676	0.0164830
874.754	0.0165302
874.832	0.0164831
874.910	0.0166508
874.988	0.0165257
875.067	0.0166271
875.145	0.0165355
875.223	0.0166774
875.301	0.0167975
875.379	0.0168295
875.457	0.0167864
875.535	0.0168832
875.613	0.0169855
875.692	0.0169934
875.770	0.0169028
875.848	0.0169823
875.926	0.0171016
876.004	0.0172464
876.082	0.0171744
876.160	0.0170709
876.238	0.0170209
876.317	0.0171800
876.395	0.0170359
876.473	0.0171217
876.551	0.0171644
876.629	0.0170922
876.707	0.0171184
876.785	0.0171004
876.863	0.0171983
876.942	0.0170593
877.020	0.0171890
877.098	0.0171558
877.176	0.0170978
877.254	0.0171133
877.332	0.0171624
877.410	0.0171767
877.488	0.0171346
877.567	0.0171799
877.645	0.0171282
877.723	0.0169736
877.801	0.0170483
877.879	0.0168576
877.957	0.0168761
878.035	0.0168153
878.113	0.0168533
878.192	0.0168661
878.270	0.0166485
878.348	0.0165750
878.426	0.0166645
878.504	0.0165724
878.582	0.0164452
878.660	0.0164864
878.738	0.0165085
878.817	0.0164124
878.895	0.0164223
878.973	0.0165094
879.051	0.0166503
879.129	0.0165771
879.207	0.0166135
879.285	0.0168328
879.363	0.0167136
879.442	0.0167549
879.520	0.0168388
879.598	0.0167703
879.676	0.0168345
879.754	0.0169161
879.832	0.0168661
879.910	0.0169395
879.988	0.0169939
880.067	0.0168940
880.145	0.0168847
880.223	0.0169791
880.301	0.0170773
880.379	0.0169434
880.457	0.0172234
880.535	0.0172921
880.613	0.0171577
880.692	0.0171691
880.770	0.0170726
880.848	0.0171120
880.926	0.0172467
881.004	0.0172461
881.082	0.0171951
881.160	0.0173156
881.238	0.0171456
881.317	0.0171725
881.395	0.0170569
881.473	0.0172671
881.551	0.0172915
881.629	0.0173182
881.707	0.0173402
881.785	0.0172530
881.863	0.0171636
881.942	0.0171407
882.020	0.0170751
882.098	0.0168177
882.176	0.0169552
882.254	0.0167623
882.332	0.0167604
882.410	0.0166546
882.488	0.0164664
882.567	0.0164909
882.645	0.0163790
882.723	0.0164870
882.801	0.0164325
882.879	0.0164722
882.957	0.0164478
883.035	0.0163924
883.113	0.0163682
883.192	0.0164178
883.270	0.0164532
883.348	0.0164905
883.426	0.0165927
883.504	0.0163639
883.582	0.0165019
883.660	0.0165476
883.738	0.0165793
883.817	0.0166794
883.895	0.0168581
883.973	0.0169259
884.051	0.0170345
884.129	0.0172282
884.207	0.0172495
884.285	0.0172955
884.363	0.0174380
884.442	0.0177352
884.520	0.0176040
884.598	0.0176437
884.676	0.0178164
884.754	0.0177585
884.832	0.0177216
884.910	0.0178079
884.988	0.0178217
885.067	0.0175842
885.145	0.0177097
885.223	0.0176540
885.301	0.0174257
885.379	0.0174574
885.457	0.0171716
885.535	0.0172045
885.613	0.0170595
885.692	0.0169695
885.770	0.0170296
885.848	0.0167027
885.926	0.0165915
886.004	0.0166647
886.082	0.0162668
886.160	0.0162327
886.238	0.0162592
886.317	0.0160979
886.395	0.0160236
886.473	0.0158263
886.551	0.0158370
886.629	0.0158871
886.707	0.0158363
886.785	0.0157835
886.863	0.0158151
886.942	0.0157624
887.020	0.0161095
887.098	0.0161061
887.176	0.0161844
887.254	0.0161742
887.332	0.0162963
887.410	0.0164875
887.488	0.0166122
887.567	0.0168368
887.645	0.0169941
887.723	0.0172253
887.801	0.0172144
887.879	0.0174007
887.957	0.0175780
888.035	0.0177206
888.113	0.0178266
888.192	0.0177172
888.270	0.0179498
888.348	0.0179345
888.426	0.0180067
888.504	0.0180241
888.582	0.0180129
888.660	0.0179230
888.738	0.0178937
888.817	0.0178438
888.895	0.0178197
888.973	0.0178024
889.051	0.0177076
889.129	0.0177094
889.207	0.0173993
889.285	0.0174237
889.363	0.0173270
889.442	0.0173510
889.520	0.0171447
889.598	0.0168984
889.676	0.0167953
889.754	0.0166891
889.832	0.0166346
889.910	0.0164498
889.988	0.0162470
890.067	0.0161405
890.145	0.0159811
890.223	0.0160073
890.301	0.0161526
890.379	0.0159972
890.457	0.0158485
890.535	0.0159732
890.613	0.0159384
890.692	0.0159879
890.770	0.0159518
890.848	0.0159776
890.926	0.0161345
891.004	0.0161909
891.082	0.0162977
891.160	0.0162382
891.238	0.0165471
891.317	0.0166149
891.395	0.0167650
891.473	0.0170675
891.551	0.0172031
891.629	0.0172939
891.707	0.0174948
891.785	0.0176804
891.863	0.0177675
891.942	0.0178902
892.020	0.0178356
892.098	0.0178924
892.176	0.0180128
892.254	0.0179357
892.332	0.0180173
892.410	0.0180076
892.488	0.0179005
892.567	0.0179401
892.645	0.0178771
892.723	0.0177866
892.801	0.0175669
892.879	0.0175762
892.957	0.0174555
893.035	0.0172272
893.113	0.0171405
893.192	0.0171139
893.270	0.0170085
893.348	0.0167731
893.426	0.0167578
893.504	0.0166117
893.582	0.0166151
893.660	0.0166202
893.738	0.0164926
893.817	0.0164551
893.895	0.0162640
893.973	0.0164014
894.051	0.0163811
894.129	0.0162021
894.207	0.0162025
894.285	0.0161389
894.363	0.0162276
894.442	0.0162136
894.520	0.0160337
894.598	0.0159391
894.676	0.0160115
894.754	0.0161503
894.832	0.0161427
894.910	0.0160778
894.988	0.0161839
895.067	0.0160271
895.145	0.0162940
895.223	0.0162257
895.301	0.0163250
895.379	0.0164610
895.457	0.0165160
895.535	0.0166459
895.613	0.0168501
895.692	0.0169033
895.770	0.0172050
895.848	0.0173713
895.926	0.0173979
896.004	0.0175666
896.082	0.0176437
896.160	0.0177541
896.238	0.0179203
896.317	0.0179555
896.395	0.0180647
896.473	0.0180131
896.551	0.0181720
896.629	0.0180786
896.707	0.0179787
896.785	0.0180614
896.863	0.0179497
896.942	0.0176994
897.020	0.0178027
897.098	0.0177850
897.176	0.0177499
897.254	0.0176908
897.332	0.0175896
897.410	0.0174976
897.488	0.0174460
897.567	0.0172138
897.645	0.0172378
897.723	0.0170793
897.801	0.0168600
897.879	0.0167593
897.957	0.0167906
898.035	0.0165646
898.113	0.0163615
898.192	0.0162511
898.270	0.0162672
898.348	0.0162335
898.426	0.0160947
898.504	0.0160576
898.582	0.0160742
898.660	0.0160951
898.738	0.0161638
898.817	0.0161366
898.895	0.0162450
898.973	0.0161538
899.051	0.0163896
899.129	0.0164555
899.207	0.0165887
899.285	0.0165884
899.363	0.0168193
899.442	0.0169064
899.520	0.0169708
899.598	0.0171340
899.676	0.0170332
899.754	0.0170656
899.832	0.0171387
899.910	0.0172032
899.988	0.0172885
900.067	0.0172079
900.145	0.0171229
900.223	0.0172900
900.301	0.0172353
900.379	0.0172426
900.457	0.0172126
900.535	0.0170925
900.613	0.0171740
900.692	0.0170412
900.770	0.0171095
900.848	0.0169777
900.926	0.0169513
901.004	0.0169224
901.082	0.0170898
901.160	0.0170132
901.238	0.0171245
901.317	0.0171349
901.395	0.0170653
901.473	0.0171243
901.551	0.0172268
901.629	0.0171948
901.707	0.0171183
901.785	0.0170644
901.863	0.0170072
901.942	0.0170199
902.020	0.0169589
902.098	0.0167329
902.176	0.0167098
902.254	0.0168012
902.332	0.0165871
902.410	0.0163549
902.488	0.0164932
902.567	0.0164769
902.645	0.0163914
902.723	0.0166408
902.801	0.0164373
902.879	0.0166483
902.957	0.0166540
903.035	0.0168244
903.113	0.0168232
903.192	0.0169515
903.270	0.0170961
903.348	0.0174312
903.426	0.0174788
903.504	0.0174642
903.582	0.0175254
903.660	0.0175941
903.738	0.0174058
903.817	0.0175284
903.895	0.0176220
903.973	0.0175855
904.051	0.0173576
904.129	0.0174232
904.207	0.0171988
904.285	0.0170409
904.363	0.0170425
904.442	0.0169959
904.520	0.0167055
904.598	0.0167871
904.676	0.0167212
904.754	0.0166718
904.832	0.0165514
904.910	0.0165673
904.988	0.0164981
905.067	0.0165453
905.145	0.0165142
905.223	0.0165884
905.301	0.0166264
905.379	0.0168504
905.457	0.0169061
905.535	0.0168440
905.613	0.0171287
905.692	0.0171571
905.770	0.0171114
905.848	0.0172748
905.926	0.0173481
906.004	0.0174577
906.082	0.0173351
906.160	0.0172462
906.238	0.0172594
906.317	0.0173119
906.395	0.0171158
906.473	0.0171474
906.551	0.0170761
906.629	0.0169318
906.707	0.0169360
906.785	0.0170413
906.863	0.0168476
906.942	0.0168044
907.020	0.0169276
907.098	0.0168354
907.176	0.0168560
907.254	0.0168936
907.332	0.0168822
907.410	0.0169875
907.488	0.0170232
907.567	0.0169469
907.645	0.0169586
907.723	0.0171405
907.801	0.0170731
907.879	0.0168902
907.957	0.0168929
908.035	0.0170622
908.113	0.0169779
908.192	0.0168913
908.270	0.0166685
908.348	0.0167577
908.426	0.0166179
908.504	0.0165522
908.582	0.0165916
908.660	0.0167103
908.738	0.0167383
908.817	0.0165952
908.895	0.0166419
908.973	0.0166743
909.051	0.0166824
909.129	0.0167192
909.207	0.0169339
909.285	0.0170087
909.363	0.0170719
909.442	0.0169595
909.520	0.0171085
909.598	0.0171945
909.676	0.0173489
909.754	0.0173620
909.832	0.0173412
909.910	0.0172470
909.988	0.0172620
910.067	0.0172942
910.145	0.0173016
910.223	0.0171225
910.301	0.0170356
910.379	0.0170631
910.457	0.0169482
910.535	0.0169099
910.613	0.0168580
910.692	0.0167558
910.770	0.0168472
910.848	0.0167587
910.926	0.0166698
911.004	0.0167312
911.082	0.0168379
911.160	0.0169173
911.238	0.0169469
911.317	0.0169746
911.395	0.0169241
911.473	0.0169489
911.551	0.0170548
911.629	0.0173758
911.707	0.0172135
911.785	0.0171366
911.863	0.0171914
911.942	0.0171652
912.020	0.0172414
912.098	0.0170987
912.176	0.0171677
912.254	0.0171689
912.332	0.0169849
912.410	0.0170338
912.488	0.0170021
912.567	0.0168841
912.645	0.0168808
912.723	0.0168993
912.801	0.0167806
912.879	0.0167634
912.957	0.0168881
913.035	0.0168448
913.113	0.0167465
913.192	0.0170193
913.270	0.0169659
913.348	0.0169766
913.426	0.0169913
913.504	0.0170483
913.582	0.0170589
913.660	0.0171758
913.738	0.0171287
913.817	0.0171468
913.895	0.0171674
913.973	0.0172598
914.051	0.0172813
914.129	0.0173734
914.207	0.0172720
914.285	0.0170750
914.363	0.0171109
914.442	0.0171737
914.520	0.0170049
914.598	0.0169459
914.676	0.0168081
914.754	0.0168133
914.832	0.0168259
914.910	0.0167236
914.988	0.0166737
915.067	0.0166690
915.145	0.0166167
915.223	0.0166282
915.301	0.0166814
915.379	0.0167812
915.457	0.0165844
915.535	0.0167829
915.613	0.0167632
915.692	0.0166647
915.770	0.0168548
915.848	0.0167937
915.926	0.0167866
916.004	0.0170192
916.082	0.0169685
916.160	0.0171709
916.238	0.0171174
916.317	0.0169846
916.395	0.0171340
916.473	0.0172753
916.551	0.0173069
916.629	0.0172407
916.707	0.0171636
916.785	0.0173032
916.863	0.0171227
916.942	0.0170259
917.020	0.0171165
917.098	0.0170452
917.176	0.0169907
917.254	0.0170103
917.332	0.0169219
917.410	0.0170313
917.488	0.0168934
917.567	0.0168354
917.645	0.0169010
917.723	0.0168066
917.801	0.0168893
917.879	0.0168913
917.957	0.0169311
918.035	0.0169411
918.113	0.0170330
918.192	0.0169447
918.270	0.0171356
918.348	0.0171079
918.426	0.0171086
918.504	0.0171016
918.582	0.0172518
918.660	0.0170763
918.738	0.0171026
918.817	0.0172449
918.895	0.0171540
918.973	0.0171959
919.051	0.0172618
919.129	0.0170825
919.207	0.0170281
919.285	0.0169926
919.363	0.0169572
919.442	0.0169199
919.520	0.0165762
919.598	0.0169411
919.676	0.0169112
919.754	0.0166386
919.832	0.0168862
919.910	0.0167776
