06/01/2022	21:41:42	Ver.	4.1	UNKNOWN
Optical Delay	599.988409	Delta X		0.078125	Sweeps	1	Scan Rate	0/0
Coordinates	Axis 1	NaN	Axis 2	NaN	Axis 3	NaN	Axis 4	NaN	Axis 5	NaN	Axis 6	0.000000
TX Power	0.000000	RX Power	0.000000

599.988	0.0171540
600.067	0.0171350
600.145	0.0171749
600.223	0.0172222
600.301	0.0172322
600.379	0.0171494
600.457	0.0172229
600.535	0.0172141
600.613	0.0171507
600.692	0.0170618
600.770	0.0171868
600.848	0.0172872
600.926	0.0172328
601.004	0.0171992
601.082	0.0170757
601.160	0.0171715
601.238	0.0172205
601.317	0.0171696
601.395	0.0172041
601.473	0.0171489
601.551	0.0171971
601.629	0.0173161
601.707	0.0172711
601.785	0.0171492
601.863	0.0170805
601.942	0.0171429
602.020	0.0171304
602.098	0.0173225
602.176	0.0172009
602.254	0.0171857
602.332	0.0171269
602.410	0.0172515
602.488	0.0172356
602.567	0.0172626
602.645	0.0170968
602.723	0.0171275
602.801	0.0173023
602.879	0.0169203
602.957	0.0169824
603.035	0.0172679
603.113	0.0172217
603.192	0.0171852
603.270	0.0170773
603.348	0.0171197
603.426	0.0170450
603.504	0.0171890
603.582	0.0171032
603.660	0.0171072
603.738	0.0172266
603.817	0.0171690
603.895	0.0172584
603.973	0.0171955
604.051	0.0170983
604.129	0.0169941
604.207	0.0171718
604.285	0.0172365
604.363	0.0171400
604.442	0.0172470
604.520	0.0171574
604.598	0.0171729
604.676	0.0172533
604.754	0.0173259
604.832	0.0171626
604.910	0.0171418
604.988	0.0172268
605.067	0.0172906
605.145	0.0171055
605.223	0.0170982
605.301	0.0170322
605.379	0.0171178
605.457	0.0171511
605.535	0.0171266
605.613	0.0172915
605.692	0.0171869
605.770	0.0171862
605.848	0.0171273
605.926	0.0171577
606.004	0.0171603
606.082	0.0171538
606.160	0.0170200
606.238	0.0171661
606.317	0.0172018
606.395	0.0172787
606.473	0.0172433
606.551	0.0172748
606.629	0.0169830
606.707	0.0170821
606.785	0.0170567
606.863	0.0172915
606.942	0.0172324
607.020	0.0172241
607.098	0.0171781
607.176	0.0172021
607.254	0.0170734
607.332	0.0171545
607.410	0.0171333
607.488	0.0170744
607.567	0.0171172
607.645	0.0171666
607.723	0.0170441
607.801	0.0171057
607.879	0.0172101
607.957	0.0172785
608.035	0.0173041
608.113	0.0171629
608.192	0.0169823
608.270	0.0171744
608.348	0.0171917
608.426	0.0170722
608.504	0.0172534
608.582	0.0170364
608.660	0.0170946
608.738	0.0171588
608.817	0.0172234
608.895	0.0171024
608.973	0.0171551
609.051	0.0170990
609.129	0.0171551
609.207	0.0172249
609.285	0.0171951
609.363	0.0171124
609.442	0.0171809
609.520	0.0172761
609.598	0.0172681
609.676	0.0170040
609.754	0.0171075
609.832	0.0172021
609.910	0.0172628
609.988	0.0170647
610.067	0.0172549
610.145	0.0172542
610.223	0.0171991
610.301	0.0171452
610.379	0.0170654
610.457	0.0170353
610.535	0.0171851
610.613	0.0171076
610.692	0.0172292
610.770	0.0171792
610.848	0.0172530
610.926	0.0171507
611.004	0.0172095
611.082	0.0171769
611.160	0.0172486
611.238	0.0170881
611.317	0.0171938
611.395	0.0171507
611.473	0.0171244
611.551	0.0171401
611.629	0.0172359
611.707	0.0171111
611.785	0.0171183
611.863	0.0171118
611.942	0.0171819
612.020	0.0171147
612.098	0.0172021
612.176	0.0171032
612.254	0.0170592
612.332	0.0170510
612.410	0.0169923
612.488	0.0170510
612.567	0.0171802
612.645	0.0170838
612.723	0.0171391
612.801	0.0170359
612.879	0.0172086
612.957	0.0171981
613.035	0.0172174
613.113	0.0172204
613.192	0.0170975
613.270	0.0171243
613.348	0.0171923
613.426	0.0171828
613.504	0.0171584
613.582	0.0172128
613.660	0.0172355
613.738	0.0172897
613.817	0.0172218
613.895	0.0171894
613.973	0.0170932
614.051	0.0171055
614.129	0.0171581
614.207	0.0171563
614.285	0.0172131
614.363	0.0171904
614.442	0.0170904
614.520	0.0171258
614.598	0.0171050
614.676	0.0171706
614.754	0.0170785
614.832	0.0172684
614.910	0.0170927
614.988	0.0172084
615.067	0.0170691
615.145	0.0171783
615.223	0.0172144
615.301	0.0171117
615.379	0.0170670
615.457	0.0171489
615.535	0.0170730
615.613	0.0170125
615.692	0.0172379
615.770	0.0171038
615.848	0.0171173
615.926	0.0171051
616.004	0.0171866
616.082	0.0171920
616.160	0.0170889
616.238	0.0172614
616.317	0.0171770
616.395	0.0172665
616.473	0.0171626
616.551	0.0171915
616.629	0.0172434
616.707	0.0172359
616.785	0.0170776
616.863	0.0172738
616.942	0.0170966
617.020	0.0171854
617.098	0.0172046
617.176	0.0172198
617.254	0.0171895
617.332	0.0172350
617.410	0.0171345
617.488	0.0172691
617.567	0.0172060
617.645	0.0171804
617.723	0.0172272
617.801	0.0172684
617.879	0.0172710
617.957	0.0172483
618.035	0.0170390
618.113	0.0170914
618.192	0.0171878
618.270	0.0173121
618.348	0.0172405
618.426	0.0172292
618.504	0.0171996
618.582	0.0171516
618.660	0.0170749
618.738	0.0171951
618.817	0.0170348
618.895	0.0170844
618.973	0.0171030
619.051	0.0170557
619.129	0.0170196
619.207	0.0170885
619.285	0.0171722
619.363	0.0170071
619.442	0.0171298
619.520	0.0171442
619.598	0.0171265
619.676	0.0170230
619.754	0.0170557
619.832	0.0169910
619.910	0.0170808
619.988	0.0170154
620.067	0.0171303
620.145	0.0170620
620.223	0.0170055
620.301	0.0171109
620.379	0.0170966
620.457	0.0169933
620.535	0.0171355
620.613	0.0173164
620.692	0.0170666
620.770	0.0171509
620.848	0.0171964
620.926	0.0171770
621.004	0.0171694
621.082	0.0171669
621.160	0.0172285
621.238	0.0173129
621.317	0.0172009
621.395	0.0172768
621.473	0.0172777
621.551	0.0172186
621.629	0.0173304
621.707	0.0171558
621.785	0.0172875
621.863	0.0171479
621.942	0.0171077
622.020	0.0172883
622.098	0.0172147
622.176	0.0171867
622.254	0.0172327
622.332	0.0171735
622.410	0.0172591
622.488	0.0172409
622.567	0.0171959
622.645	0.0173275
622.723	0.0171703
622.801	0.0170873
622.879	0.0171892
622.957	0.0172345
623.035	0.0171617
623.113	0.0171613
623.192	0.0172392
623.270	0.0173000
623.348	0.0172466
623.426	0.0170564
623.504	0.0172280
623.582	0.0170901
623.660	0.0170438
623.738	0.0171065
623.817	0.0171674
623.895	0.0170820
623.973	0.0171297
624.051	0.0171444
624.129	0.0170443
624.207	0.0170699
624.285	0.0170495
624.363	0.0170409
624.442	0.0169778
624.520	0.0170837
624.598	0.0170094
624.676	0.0169668
624.754	0.0171542
624.832	0.0170476
624.910	0.0172689
624.988	0.0171426
625.067	0.0170246
625.145	0.0172116
625.223	0.0171260
625.301	0.0173273
625.379	0.0172791
625.457	0.0172217
625.535	0.0172876
625.613	0.0173379
625.692	0.0172549
625.770	0.0173141
625.848	0.0172982
625.926	0.0173145
626.004	0.0171439
626.082	0.0172249
626.160	0.0172726
626.238	0.0172807
626.317	0.0172768
626.395	0.0172118
626.473	0.0173344
626.551	0.0172480
626.629	0.0171513
626.707	0.0172588
626.785	0.0170963
626.863	0.0172661
626.942	0.0171620
627.020	0.0171667
627.098	0.0171859
627.176	0.0173020
627.254	0.0172917
627.332	0.0171984
627.410	0.0171027
627.488	0.0171858
627.567	0.0171229
627.645	0.0170856
627.723	0.0172190
627.801	0.0172107
627.879	0.0171440
627.957	0.0170782
628.035	0.0170781
628.113	0.0171704
628.192	0.0170754
628.270	0.0171550
628.348	0.0169699
628.426	0.0170452
628.504	0.0170295
628.582	0.0170640
628.660	0.0169228
628.738	0.0171551
628.817	0.0171901
628.895	0.0171222
628.973	0.0170508
629.051	0.0170082
629.129	0.0172646
629.207	0.0171837
629.285	0.0170552
629.363	0.0170934
629.442	0.0170930
629.520	0.0171304
629.598	0.0172021
629.676	0.0172266
629.754	0.0171156
629.832	0.0172148
629.910	0.0172417
629.988	0.0170880
630.067	0.0172733
630.145	0.0171833
630.223	0.0172555
630.301	0.0171798
630.379	0.0171342
630.457	0.0172396
630.535	0.0173450
630.613	0.0171531
630.692	0.0172157
630.770	0.0171789
630.848	0.0173041
630.926	0.0172227
631.004	0.0171497
631.082	0.0172431
631.160	0.0171813
631.238	0.0173482
631.317	0.0172525
631.395	0.0171890
631.473	0.0172747
631.551	0.0171490
631.629	0.0170871
631.707	0.0172433
631.785	0.0172691
631.863	0.0173690
631.942	0.0171577
632.020	0.0171562
632.098	0.0172136
632.176	0.0172044
632.254	0.0170351
632.332	0.0171062
632.410	0.0171517
632.488	0.0172760
632.567	0.0171468
632.645	0.0171369
632.723	0.0170420
632.801	0.0172506
632.879	0.0171351
632.957	0.0171362
633.035	0.0170966
633.113	0.0171430
633.192	0.0171196
633.270	0.0171994
633.348	0.0171519
633.426	0.0171062
633.504	0.0169889
633.582	0.0172498
633.660	0.0170347
633.738	0.0171593
633.817	0.0172247
633.895	0.0172398
633.973	0.0170353
634.051	0.0171968
634.129	0.0171907
634.207	0.0170995
634.285	0.0172125
634.363	0.0172035
634.442	0.0171530
634.520	0.0172340
634.598	0.0172303
634.676	0.0172634
634.754	0.0171775
634.832	0.0171851
634.910	0.0171735
634.988	0.0171199
635.067	0.0173837
635.145	0.0173335
635.223	0.0171111
635.301	0.0171111
635.379	0.0172673
635.457	0.0171014
635.535	0.0171358
635.613	0.0172732
635.692	0.0173560
635.770	0.0171384
635.848	0.0171259
635.926	0.0172219
636.004	0.0171681
636.082	0.0172429
636.160	0.0172707
636.238	0.0172002
636.317	0.0172772
636.395	0.0171147
636.473	0.0171774
636.551	0.0172664
636.629	0.0172079
636.707	0.0170953
636.785	0.0171117
636.863	0.0172769
636.942	0.0171663
637.020	0.0172073
637.098	0.0172094
637.176	0.0171452
637.254	0.0171756
637.332	0.0171014
637.410	0.0171870
637.488	0.0173123
637.567	0.0170956
637.645	0.0172153
637.723	0.0172582
637.801	0.0171161
637.879	0.0172058
637.957	0.0171728
638.035	0.0171551
638.113	0.0171548
638.192	0.0172753
638.270	0.0171526
638.348	0.0171148
638.426	0.0171900
638.504	0.0172041
638.582	0.0171375
638.660	0.0172446
638.738	0.0171394
638.817	0.0172893
638.895	0.0171331
638.973	0.0172362
639.051	0.0170155
639.129	0.0171343
639.207	0.0173436
639.285	0.0171759
639.363	0.0172102
639.442	0.0170604
639.520	0.0171204
639.598	0.0171436
639.676	0.0171394
639.754	0.0171973
639.832	0.0172680
639.910	0.0171918
639.988	0.0171416
640.067	0.0171860
640.145	0.0171817
640.223	0.0172657
640.301	0.0171255
640.379	0.0171639
640.457	0.0171834
640.535	0.0172362
640.613	0.0171255
640.692	0.0170530
640.770	0.0171784
640.848	0.0172074
640.926	0.0172160
641.004	0.0172090
641.082	0.0173203
641.160	0.0170138
641.238	0.0171525
641.317	0.0171719
641.395	0.0171219
641.473	0.0171227
641.551	0.0171962
641.629	0.0172749
641.707	0.0171924
641.785	0.0171502
641.863	0.0171458
641.942	0.0171313
642.020	0.0173238
642.098	0.0172325
642.176	0.0170369
642.254	0.0171291
642.332	0.0171912
642.410	0.0172361
642.488	0.0172803
642.567	0.0170684
642.645	0.0171940
642.723	0.0172113
642.801	0.0170615
642.879	0.0171178
642.957	0.0172081
643.035	0.0172195
643.113	0.0172150
643.192	0.0171585
643.270	0.0171503
643.348	0.0172327
643.426	0.0171442
643.504	0.0171427
643.582	0.0172857
643.660	0.0172927
643.738	0.0171069
643.817	0.0171538
643.895	0.0171908
643.973	0.0172717
644.051	0.0170297
644.129	0.0171140
644.207	0.0172789
644.285	0.0171764
644.363	0.0171299
644.442	0.0170943
644.520	0.0171458
644.598	0.0173135
644.676	0.0172411
644.754	0.0171560
644.832	0.0171405
644.910	0.0170670
644.988	0.0171712
645.067	0.0172179
645.145	0.0171510
645.223	0.0172488
645.301	0.0172859
645.379	0.0172038
645.457	0.0172444
645.535	0.0171754
645.613	0.0172188
645.692	0.0171036
645.770	0.0172004
645.848	0.0171309
645.926	0.0171543
646.004	0.0171355
646.082	0.0171739
646.160	0.0172533
646.238	0.0171355
646.317	0.0172144
646.395	0.0172124
646.473	0.0170609
646.551	0.0171175
646.629	0.0172955
646.707	0.0171113
646.785	0.0171116
646.863	0.0172635
646.942	0.0171828
647.020	0.0171326
647.098	0.0171562
647.176	0.0172596
647.254	0.0172677
647.332	0.0172318
647.410	0.0171446
647.488	0.0171842
647.567	0.0172023
647.645	0.0173302
647.723	0.0172928
647.801	0.0171611
647.879	0.0170767
647.957	0.0171441
648.035	0.0171391
648.113	0.0174129
648.192	0.0172507
648.270	0.0171220
648.348	0.0172337
648.426	0.0171339
648.504	0.0170975
648.582	0.0170538
648.660	0.0172323
648.738	0.0171307
648.817	0.0172217
648.895	0.0170808
648.973	0.0172394
649.051	0.0173236
649.129	0.0171731
649.207	0.0172889
649.285	0.0171188
649.363	0.0170786
649.442	0.0171555
649.520	0.0172539
649.598	0.0170824
649.676	0.0172732
649.754	0.0170956
649.832	0.0172012
649.910	0.0172380
649.988	0.0171666
650.067	0.0172012
650.145	0.0172706
650.223	0.0172263
650.301	0.0170344
650.379	0.0171320
650.457	0.0172138
650.535	0.0170886
650.613	0.0172796
650.692	0.0171277
650.770	0.0171296
650.848	0.0171991
650.926	0.0172315
651.004	0.0171390
651.082	0.0169808
651.160	0.0170782
651.238	0.0170789
651.317	0.0173176
651.395	0.0172917
651.473	0.0171001
651.551	0.0171193
651.629	0.0170893
651.707	0.0171224
651.785	0.0172142
651.863	0.0171157
651.942	0.0171972
652.020	0.0171865
652.098	0.0172852
652.176	0.0172058
652.254	0.0171547
652.332	0.0172312
652.410	0.0171145
652.488	0.0171789
652.567	0.0171815
652.645	0.0171001
652.723	0.0170688
652.801	0.0171889
652.879	0.0171676
652.957	0.0170541
653.035	0.0172188
653.113	0.0171914
653.192	0.0171103
653.270	0.0171406
653.348	0.0171025
653.426	0.0172292
653.504	0.0172021
653.582	0.0171809
653.660	0.0172097
653.738	0.0171850
653.817	0.0171374
653.895	0.0170989
653.973	0.0171518
654.051	0.0171266
654.129	0.0170546
654.207	0.0171707
654.285	0.0172211
654.363	0.0172867
654.442	0.0172467
654.520	0.0171078
654.598	0.0171579
654.676	0.0172081
654.754	0.0172348
654.832	0.0173224
654.910	0.0171467
654.988	0.0172141
655.067	0.0171577
655.145	0.0171970
655.223	0.0171580
655.301	0.0171885
655.379	0.0172355
655.457	0.0172080
655.535	0.0171394
655.613	0.0171980
655.692	0.0172075
655.770	0.0171848
655.848	0.0171992
655.926	0.0172713
656.004	0.0172507
656.082	0.0172268
656.160	0.0172285
656.238	0.0173040
656.317	0.0172562
656.395	0.0171432
656.473	0.0172445
656.551	0.0171731
656.629	0.0172018
656.707	0.0172081
656.785	0.0171564
656.863	0.0172645
656.942	0.0171680
657.020	0.0172313
657.098	0.0172089
657.176	0.0172750
657.254	0.0172341
657.332	0.0173122
657.410	0.0170682
657.488	0.0170986
657.567	0.0170716
657.645	0.0171630
657.723	0.0171629
657.801	0.0172803
657.879	0.0170207
657.957	0.0172736
658.035	0.0171906
658.113	0.0172171
658.192	0.0172326
658.270	0.0171645
658.348	0.0171994
658.426	0.0172089
658.504	0.0171347
658.582	0.0171847
658.660	0.0171000
658.738	0.0172626
658.817	0.0171796
658.895	0.0172548
658.973	0.0171952
659.051	0.0171715
659.129	0.0172047
659.207	0.0171962
659.285	0.0169954
659.363	0.0172467
659.442	0.0171074
659.520	0.0172070
659.598	0.0171368
659.676	0.0172672
659.754	0.0171124
659.832	0.0171149
659.910	0.0173194
659.988	0.0170947
660.067	0.0171668
660.145	0.0171024
660.223	0.0171629
660.301	0.0172725
660.379	0.0171735
660.457	0.0172366
660.535	0.0172645
660.613	0.0172366
660.692	0.0171631
660.770	0.0171557
660.848	0.0171907
660.926	0.0172478
661.004	0.0172289
661.082	0.0172585
661.160	0.0172232
661.238	0.0171649
661.317	0.0172874
661.395	0.0172530
661.473	0.0172170
661.551	0.0172065
661.629	0.0173030
661.707	0.0171033
661.785	0.0171252
661.863	0.0170669
661.942	0.0171408
662.020	0.0171129
662.098	0.0171425
662.176	0.0173031
662.254	0.0170036
662.332	0.0171363
662.410	0.0171198
662.488	0.0170744
662.567	0.0171603
662.645	0.0171389
662.723	0.0171630
662.801	0.0170737
662.879	0.0171844
662.957	0.0172358
663.035	0.0171117
663.113	0.0172079
663.192	0.0172498
663.270	0.0172243
663.348	0.0171873
663.426	0.0172134
663.504	0.0172068
663.582	0.0171309
663.660	0.0171938
663.738	0.0171478
663.817	0.0172284
663.895	0.0171830
663.973	0.0172350
664.051	0.0171762
664.129	0.0171617
664.207	0.0171398
664.285	0.0171444
664.363	0.0171274
664.442	0.0171495
664.520	0.0172746
664.598	0.0172461
664.676	0.0171310
664.754	0.0170706
664.832	0.0171497
664.910	0.0171912
664.988	0.0172009
665.067	0.0171344
665.145	0.0171219
665.223	0.0171273
665.301	0.0170753
665.379	0.0170245
665.457	0.0171848
665.535	0.0172838
665.613	0.0172061
665.692	0.0172343
665.770	0.0171942
665.848	0.0171882
665.926	0.0171234
666.004	0.0172185
666.082	0.0171974
666.160	0.0171762
666.238	0.0171316
666.317	0.0172050
666.395	0.0172510
666.473	0.0172411
666.551	0.0172424
666.629	0.0171484
666.707	0.0171823
666.785	0.0172292
666.863	0.0171326
666.942	0.0171557
667.020	0.0171995
667.098	0.0173029
667.176	0.0171108
667.254	0.0171657
667.332	0.0172904
667.410	0.0172166
667.488	0.0171608
667.567	0.0170359
667.645	0.0172053
667.723	0.0171734
667.801	0.0172037
667.879	0.0171870
667.957	0.0171346
668.035	0.0172046
668.113	0.0170878
668.192	0.0171851
668.270	0.0172012
668.348	0.0171502
668.426	0.0172650
668.504	0.0172091
668.582	0.0171107
668.660	0.0170800
668.738	0.0171468
668.817	0.0171255
668.895	0.0170630
668.973	0.0171219
669.051	0.0171365
669.129	0.0171375
669.207	0.0171272
669.285	0.0171015
669.363	0.0172189
669.442	0.0170693
669.520	0.0170616
669.598	0.0172086
669.676	0.0170937
669.754	0.0172411
669.832	0.0172368
669.910	0.0170655
669.988	0.0170321
670.067	0.0172186
670.145	0.0172727
670.223	0.0169852
670.301	0.0171146
670.379	0.0173212
670.457	0.0173351
670.535	0.0171779
670.613	0.0170013
670.692	0.0171017
670.770	0.0172028
670.848	0.0171782
670.926	0.0170611
671.004	0.0170882
671.082	0.0172366
671.160	0.0171986
671.238	0.0171782
671.317	0.0171777
671.395	0.0171521
671.473	0.0171210
671.551	0.0171369
671.629	0.0172386
671.707	0.0172449
671.785	0.0170248
671.863	0.0171494
671.942	0.0171355
672.020	0.0171751
672.098	0.0171255
672.176	0.0171861
672.254	0.0171896
672.332	0.0171968
672.410	0.0171096
672.488	0.0172456
672.567	0.0172250
672.645	0.0171897
672.723	0.0171899
672.801	0.0173372
672.879	0.0171412
672.957	0.0171800
673.035	0.0172726
673.113	0.0172063
673.192	0.0170641
673.270	0.0171107
673.348	0.0171504
673.426	0.0171252
673.504	0.0171976
673.582	0.0171461
673.660	0.0170380
673.738	0.0170059
673.817	0.0171519
673.895	0.0172310
673.973	0.0172064
674.051	0.0173186
674.129	0.0173061
674.207	0.0172041
674.285	0.0172748
674.363	0.0172440
674.442	0.0173391
674.520	0.0172257
674.598	0.0172827
674.676	0.0173467
674.754	0.0170670
674.832	0.0170866
674.910	0.0172034
674.988	0.0170382
675.067	0.0168928
675.145	0.0169205
675.223	0.0169411
675.301	0.0170122
675.379	0.0170218
675.457	0.0170145
675.535	0.0169511
675.613	0.0170560
675.692	0.0170552
675.770	0.0171968
675.848	0.0173337
675.926	0.0172608
676.004	0.0171883
676.082	0.0173254
676.160	0.0172510
676.238	0.0172984
676.317	0.0172908
676.395	0.0173805
676.473	0.0171571
676.551	0.0171689
676.629	0.0171814
676.707	0.0170797
676.785	0.0170692
676.863	0.0170267
676.942	0.0169753
677.020	0.0168593
677.098	0.0170774
677.176	0.0169890
677.254	0.0169858
677.332	0.0170618
677.410	0.0169353
677.488	0.0169744
677.567	0.0170836
677.645	0.0172665
677.723	0.0169861
677.801	0.0172495
677.879	0.0172366
677.957	0.0171635
678.035	0.0171731
678.113	0.0173508
678.192	0.0172881
678.270	0.0172749
678.348	0.0172129
678.426	0.0171885
678.504	0.0172102
678.582	0.0172676
678.660	0.0171066
678.738	0.0170138
678.817	0.0170957
678.895	0.0170962
678.973	0.0170453
679.051	0.0171437
679.129	0.0171951
679.207	0.0171628
679.285	0.0171609
679.363	0.0171257
679.442	0.0172081
679.520	0.0172404
679.598	0.0171463
679.676	0.0171639
679.754	0.0173312
679.832	0.0172668
679.910	0.0173465
679.988	0.0172402
680.067	0.0172765
680.145	0.0171746
680.223	0.0171992
680.301	0.0172787
680.379	0.0173928
680.457	0.0171434
680.535	0.0171828
680.613	0.0170824
680.692	0.0170803
680.770	0.0169412
680.848	0.0171550
680.926	0.0171954
681.004	0.0170985
681.082	0.0169513
681.160	0.0170221
681.238	0.0170602
681.317	0.0171976
681.395	0.0170699
681.473	0.0171508
681.551	0.0173102
681.629	0.0171576
681.707	0.0171735
681.785	0.0172063
681.863	0.0173268
681.942	0.0173968
682.020	0.0173124
682.098	0.0172821
682.176	0.0173471
682.254	0.0174894
682.332	0.0174590
682.410	0.0173930
682.488	0.0173808
682.567	0.0173827
682.645	0.0173244
682.723	0.0173514
682.801	0.0172757
682.879	0.0172574
682.957	0.0171468
683.035	0.0171152
683.113	0.0170258
683.192	0.0172005
683.270	0.0172562
683.348	0.0171349
683.426	0.0173140
683.504	0.0172955
683.582	0.0173128
683.660	0.0173923
683.738	0.0175495
683.817	0.0174076
683.895	0.0173061
683.973	0.0172201
684.051	0.0172795
684.129	0.0170126
684.207	0.0167567
684.285	0.0165971
684.363	0.0164837
684.442	0.0163166
684.520	0.0161298
684.598	0.0162622
684.676	0.0164001
684.754	0.0163974
684.832	0.0166316
684.910	0.0168560
684.988	0.0171119
685.067	0.0174878
685.145	0.0176457
685.223	0.0179377
685.301	0.0179301
685.379	0.0180886
685.457	0.0181339
685.535	0.0180789
685.613	0.0180022
685.692	0.0180030
685.770	0.0177904
685.848	0.0175716
685.926	0.0173051
686.004	0.0171638
686.082	0.0171290
686.160	0.0171310
686.238	0.0169212
686.317	0.0169269
686.395	0.0169562
686.473	0.0171892
686.551	0.0171947
686.629	0.0171645
686.707	0.0172713
686.785	0.0174010
686.863	0.0173301
686.942	0.0172840
687.020	0.0173315
687.098	0.0173734
687.176	0.0172163
687.254	0.0170271
687.332	0.0169202
687.410	0.0170404
687.488	0.0170202
687.567	0.0169406
687.645	0.0168038
687.723	0.0168405
687.801	0.0166409
687.879	0.0166428
687.957	0.0166312
688.035	0.0165831
688.113	0.0167387
688.192	0.0168936
688.270	0.0168784
688.348	0.0169435
688.426	0.0171139
688.504	0.0172323
688.582	0.0174677
688.660	0.0175340
688.738	0.0176099
688.817	0.0174982
688.895	0.0174826
688.973	0.0175067
689.051	0.0173227
689.129	0.0172178
689.207	0.0171827
689.285	0.0170566
689.363	0.0171307
689.442	0.0171814
689.520	0.0173145
689.598	0.0173067
689.676	0.0176551
689.754	0.0179332
689.832	0.0180921
689.910	0.0183472
689.988	0.0186863
690.067	0.0189204
690.145	0.0187978
690.223	0.0189711
690.301	0.0188528
690.379	0.0185973
690.457	0.0183180
690.535	0.0176728
690.613	0.0173918
690.692	0.0168259
690.770	0.0163076
690.848	0.0158532
690.926	0.0153757
691.004	0.0150330
691.082	0.0146346
691.160	0.0146433
691.238	0.0145234
691.317	0.0144733
691.395	0.0144283
691.473	0.0143653
691.551	0.0143243
691.629	0.0143423
691.707	0.0142346
691.785	0.0140732
691.863	0.0141323
691.942	0.0141790
692.020	0.0141197
692.098	0.0143886
692.176	0.0147569
692.254	0.0152734
692.332	0.0159430
692.410	0.0168304
692.488	0.0176824
692.567	0.0187236
692.645	0.0198583
692.723	0.0209213
692.801	0.0217625
692.879	0.0226884
692.957	0.0235629
693.035	0.0241263
693.113	0.0244392
693.192	0.0244917
693.270	0.0244613
693.348	0.0244574
693.426	0.0239946
693.504	0.0234195
693.582	0.0229078
693.660	0.0220264
693.738	0.0213081
693.817	0.0204171
693.895	0.0196810
693.973	0.0186076
694.051	0.0177223
694.129	0.0166318
694.207	0.0157828
694.285	0.0147092
694.363	0.0137067
694.442	0.0126649
694.520	0.0118267
694.598	0.0109449
694.676	0.0100281
694.754	0.00917603
694.832	0.00856049
694.910	0.00791206
694.988	0.00760345
695.067	0.00734505
695.145	0.00724442
695.223	0.00720100
695.301	0.00768234
695.379	0.00818016
695.457	0.00885933
695.535	0.00944046
695.613	0.0104039
695.692	0.0114333
695.770	0.0124668
695.848	0.0137491
695.926	0.0149422
696.004	0.0165726
696.082	0.0178418
696.160	0.0193195
696.238	0.0209640
696.317	0.0224539
696.395	0.0238459
696.473	0.0250181
696.551	0.0260713
696.629	0.0268514
696.707	0.0277847
696.785	0.0282822
696.863	0.0286543
696.942	0.0288812
697.020	0.0290707
697.098	0.0291600
697.176	0.0292094
697.254	0.0290701
697.332	0.0290573
697.410	0.0288017
697.488	0.0281117
697.567	0.0275726
697.645	0.0266328
697.723	0.0255789
697.801	0.0241968
697.879	0.0227625
697.957	0.0210194
698.035	0.0190533
698.113	0.0171209
698.192	0.0151244
698.270	0.0131013
698.348	0.0110847
698.426	0.00917664
698.504	0.00738670
698.582	0.00557915
698.660	0.00400322
698.738	0.00272636
698.817	0.00149101
698.895	0.000557938
698.973	-0.0000849152
699.051	-0.000523224
699.129	-0.000595398
699.207	-0.000476685
699.285	0.000239182
699.363	0.00103104
699.442	0.00214027
699.520	0.00365295
699.598	0.00534615
699.676	0.00703201
699.754	0.00890511
699.832	0.0109843
699.910	0.0130003
699.988	0.0151104
700.067	0.0172856
700.145	0.0192181
700.223	0.0213361
700.301	0.0230927
700.379	0.0249072
700.457	0.0265155
700.535	0.0280592
700.613	0.0293978
700.692	0.0304622
700.770	0.0312787
700.848	0.0319208
700.926	0.0323758
701.004	0.0327006
701.082	0.0325816
701.160	0.0323324
701.238	0.0322221
701.317	0.0314912
701.395	0.0309653
701.473	0.0302833
701.551	0.0296729
701.629	0.0290194
701.707	0.0284213
701.785	0.0279822
701.863	0.0273329
701.942	0.0264755
702.020	0.0258818
702.098	0.0250404
702.176	0.0239803
702.254	0.0227056
702.332	0.0213930
702.410	0.0197823
702.488	0.0179621
702.567	0.0159099
702.645	0.0135728
702.723	0.0111897
702.801	0.00866196
702.879	0.00599548
702.957	0.00366035
703.035	0.00120537
703.113	-0.00112419
703.192	-0.00301094
703.270	-0.00479088
703.348	-0.00619667
703.426	-0.00713814
703.504	-0.00768372
703.582	-0.00797714
703.660	-0.00772255
703.738	-0.00694649
703.817	-0.00577980
703.895	-0.00413597
703.973	-0.00204292
704.051	0.000462265
704.129	0.00344139
704.207	0.00666756
704.285	0.00996735
704.363	0.0136042
704.442	0.0172074
704.520	0.0207114
704.598	0.0242356
704.676	0.0277507
704.754	0.0308170
704.832	0.0335849
704.910	0.0359477
704.988	0.0381126
705.067	0.0396185
705.145	0.0406036
705.223	0.0408923
705.301	0.0410889
705.379	0.0405305
705.457	0.0397004
705.535	0.0382950
705.613	0.0364991
705.692	0.0345629
705.770	0.0328473
705.848	0.0306919
705.926	0.0286587
706.004	0.0267297
706.082	0.0247984
706.160	0.0232622
706.238	0.0218085
706.317	0.0206434
706.395	0.0192587
706.473	0.0182447
706.551	0.0173707
706.629	0.0165620
706.707	0.0155827
706.785	0.0144452
706.863	0.0135400
706.942	0.0124866
707.020	0.0112514
707.098	0.0100414
707.176	0.00896416
707.254	0.00772949
707.332	0.00637512
707.410	0.00543144
707.488	0.00439095
707.567	0.00356522
707.645	0.00284569
707.723	0.00233994
707.801	0.00199280
707.879	0.00182320
707.957	0.00196594
708.035	0.00221413
708.113	0.00253044
708.192	0.00306992
708.270	0.00389450
708.348	0.00467361
708.426	0.00579613
708.504	0.00692276
708.582	0.00831398
708.660	0.00976524
708.738	0.0114114
708.817	0.0132746
708.895	0.0149397
708.973	0.0168427
709.051	0.0188340
709.129	0.0208110
709.207	0.0225792
709.285	0.0243903
709.363	0.0258613
709.442	0.0270636
709.520	0.0281788
709.598	0.0289856
709.676	0.0294032
709.754	0.0296725
709.832	0.0296621
709.910	0.0293456
709.988	0.0290070
710.067	0.0285461
710.145	0.0280309
710.223	0.0274424
710.301	0.0270011
710.379	0.0264048
710.457	0.0258237
710.535	0.0254250
710.613	0.0248348
710.692	0.0243096
710.770	0.0237183
710.848	0.0230330
710.926	0.0223151
711.004	0.0214680
711.082	0.0205834
711.160	0.0196709
711.238	0.0185725
711.317	0.0176327
711.395	0.0165905
711.473	0.0156825
711.551	0.0146081
711.629	0.0137842
711.707	0.0129317
711.785	0.0123727
711.863	0.0115981
711.942	0.0111082
712.020	0.0109621
712.098	0.0106697
712.176	0.0106732
712.254	0.0106308
712.332	0.0107327
712.410	0.0107574
712.488	0.0109607
712.567	0.0113219
712.645	0.0116605
712.723	0.0116340
712.801	0.0118423
712.879	0.0122843
712.957	0.0123134
713.035	0.0124454
713.113	0.0127207
713.192	0.0128957
713.270	0.0134861
713.348	0.0135629
713.426	0.0141393
713.504	0.0145454
713.582	0.0149364
713.660	0.0152847
713.738	0.0157779
713.817	0.0161403
713.895	0.0165942
713.973	0.0168742
714.051	0.0171726
714.129	0.0174891
714.207	0.0175285
714.285	0.0174813
714.363	0.0177478
714.442	0.0176480
714.520	0.0180645
714.598	0.0183584
714.676	0.0185036
714.754	0.0188908
714.832	0.0193137
714.910	0.0198434
714.988	0.0203294
715.067	0.0208939
715.145	0.0213460
715.223	0.0216303
715.301	0.0218136
715.379	0.0220065
715.457	0.0221825
715.535	0.0219679
715.613	0.0217841
715.692	0.0214630
715.770	0.0212266
715.848	0.0208635
715.926	0.0203279
716.004	0.0200362
716.082	0.0197163
716.160	0.0191908
716.238	0.0188663
716.317	0.0185689
716.395	0.0181875
716.473	0.0179901
716.551	0.0175143
716.629	0.0174171
716.707	0.0170093
716.785	0.0168184
716.863	0.0165859
716.942	0.0164172
717.020	0.0162561
717.098	0.0160329
717.176	0.0160043
717.254	0.0160650
717.332	0.0161042
717.410	0.0161418
717.488	0.0164844
717.567	0.0167274
717.645	0.0169051
717.723	0.0169987
717.801	0.0171174
717.879	0.0172457
717.957	0.0173175
718.035	0.0171494
718.113	0.0170029
718.192	0.0168433
718.270	0.0165767
718.348	0.0162814
718.426	0.0158846
718.504	0.0155195
718.582	0.0151117
718.660	0.0148507
718.738	0.0143912
718.817	0.0140947
718.895	0.0140127
718.973	0.0139679
719.051	0.0139208
719.129	0.0140337
719.207	0.0141994
719.285	0.0144524
719.363	0.0144471
719.442	0.0149847
719.520	0.0151929
719.598	0.0154388
719.676	0.0158080
719.754	0.0161068
719.832	0.0164023
719.910	0.0168527
719.988	0.0171327
720.067	0.0173016
720.145	0.0175851
720.223	0.0177399
720.301	0.0179633
720.379	0.0181091
720.457	0.0183012
720.535	0.0183720
720.613	0.0183874
720.692	0.0183672
720.770	0.0185609
720.848	0.0187349
720.926	0.0186327
721.004	0.0186129
721.082	0.0184830
721.160	0.0185620
721.238	0.0184232
721.317	0.0183803
721.395	0.0184523
721.473	0.0182005
721.551	0.0181098
721.629	0.0180803
721.707	0.0180727
721.785	0.0182244
721.863	0.0181944
721.942	0.0182178
722.020	0.0183365
722.098	0.0184084
722.176	0.0184900
722.254	0.0186443
722.332	0.0187109
722.410	0.0189840
722.488	0.0190012
722.567	0.0190205
722.645	0.0190118
722.723	0.0188438
722.801	0.0188329
722.879	0.0187798
722.957	0.0185106
723.035	0.0185055
723.113	0.0181608
723.192	0.0178154
723.270	0.0175723
723.348	0.0173237
723.426	0.0170917
723.504	0.0166777
723.582	0.0166418
723.660	0.0164574
723.738	0.0161375
723.817	0.0161555
723.895	0.0159962
723.973	0.0159087
724.051	0.0159259
724.129	0.0156979
724.207	0.0156284
724.285	0.0158029
724.363	0.0157228
724.442	0.0156313
724.520	0.0157350
724.598	0.0156932
724.676	0.0158440
724.754	0.0158813
724.832	0.0158748
724.910	0.0161155
724.988	0.0161963
725.067	0.0162230
725.145	0.0163493
725.223	0.0162785
725.301	0.0164100
725.379	0.0165639
725.457	0.0165205
725.535	0.0165712
725.613	0.0164762
725.692	0.0163558
725.770	0.0163740
725.848	0.0164433
725.926	0.0164265
726.004	0.0164988
726.082	0.0163599
726.160	0.0164494
726.238	0.0164198
726.317	0.0164965
726.395	0.0165042
726.473	0.0166753
726.551	0.0167266
726.629	0.0168490
726.707	0.0170114
726.785	0.0173048
726.863	0.0174625
726.942	0.0176096
727.020	0.0178911
727.098	0.0179398
727.176	0.0181698
727.254	0.0182300
727.332	0.0182631
727.410	0.0183424
727.488	0.0183290
727.567	0.0182505
727.645	0.0182893
727.723	0.0182531
727.801	0.0179367
727.879	0.0179353
727.957	0.0179770
728.035	0.0178411
728.113	0.0175988
728.192	0.0177283
728.270	0.0176062
728.348	0.0175493
728.426	0.0175667
728.504	0.0175311
728.582	0.0174586
728.660	0.0174881
728.738	0.0174290
728.817	0.0174918
728.895	0.0175868
728.973	0.0173981
729.051	0.0175558
729.129	0.0175647
729.207	0.0176448
729.285	0.0175416
729.363	0.0173776
729.442	0.0175095
729.520	0.0173516
729.598	0.0173755
729.676	0.0172113
729.754	0.0171669
729.832	0.0171687
729.910	0.0171814
729.988	0.0170776
730.067	0.0169978
730.145	0.0170991
730.223	0.0170702
730.301	0.0171002
730.379	0.0172033
730.457	0.0171954
730.535	0.0173814
730.613	0.0174019
730.692	0.0173587
730.770	0.0173433
730.848	0.0175703
730.926	0.0173555
731.004	0.0172562
731.082	0.0173059
731.160	0.0170834
731.238	0.0169350
731.317	0.0167767
731.395	0.0165612
731.473	0.0165020
731.551	0.0164050
731.629	0.0162351
731.707	0.0161027
731.785	0.0161181
731.863	0.0161907
731.942	0.0160957
732.020	0.0161441
732.098	0.0162297
732.176	0.0161015
732.254	0.0161591
732.332	0.0162787
732.410	0.0162634
732.488	0.0161459
732.567	0.0159778
732.645	0.0160936
732.723	0.0160972
732.801	0.0162184
732.879	0.0164229
732.957	0.0163672
733.035	0.0164082
733.113	0.0165865
733.192	0.0167837
733.270	0.0167766
733.348	0.0167361
733.426	0.0168378
733.504	0.0170289
733.582	0.0172708
733.660	0.0171265
733.738	0.0172522
733.817	0.0173059
733.895	0.0173210
733.973	0.0174937
734.051	0.0176406
734.129	0.0176778
734.207	0.0176514
734.285	0.0177896
734.363	0.0179402
734.442	0.0179466
734.520	0.0180344
734.598	0.0179262
734.676	0.0179693
734.754	0.0181812
734.832	0.0182805
734.910	0.0184686
734.988	0.0184379
735.067	0.0184246
735.145	0.0185606
735.223	0.0186557
735.301	0.0185399
735.379	0.0184842
735.457	0.0185728
735.535	0.0184832
735.613	0.0182804
735.692	0.0180935
735.770	0.0179179
735.848	0.0177433
735.926	0.0176434
736.004	0.0175008
736.082	0.0172756
736.160	0.0172531
736.238	0.0170735
736.317	0.0169019
736.395	0.0170047
736.473	0.0169213
736.551	0.0167584
736.629	0.0166895
736.707	0.0167424
736.785	0.0166304
736.863	0.0165867
736.942	0.0165357
737.020	0.0163732
737.098	0.0161883
737.176	0.0161177
737.254	0.0159422
737.332	0.0159830
737.410	0.0158209
737.488	0.0157235
737.567	0.0156256
737.645	0.0156152
737.723	0.0156242
737.801	0.0156300
737.879	0.0158367
737.957	0.0157542
738.035	0.0160805
738.113	0.0164481
738.192	0.0166969
738.270	0.0169082
738.348	0.0170277
738.426	0.0173553
738.504	0.0176981
738.582	0.0179936
738.660	0.0181866
738.738	0.0182371
738.817	0.0183817
738.895	0.0185540
738.973	0.0184912
739.051	0.0186282
739.129	0.0184323
739.207	0.0181429
739.285	0.0179974
739.363	0.0177412
739.442	0.0176022
739.520	0.0172697
739.598	0.0169519
739.676	0.0169459
739.754	0.0166965
739.832	0.0164742
739.910	0.0163227
739.988	0.0162600
740.067	0.0162886
740.145	0.0163635
740.223	0.0164841
740.301	0.0167759
740.379	0.0170276
740.457	0.0170803
740.535	0.0172577
740.613	0.0175119
740.692	0.0177465
740.770	0.0179087
740.848	0.0179871
740.926	0.0179664
741.004	0.0179964
741.082	0.0179405
741.160	0.0176705
741.238	0.0175646
741.317	0.0173730
741.395	0.0172630
741.473	0.0170721
741.551	0.0168744
741.629	0.0166165
741.707	0.0164660
741.785	0.0164209
741.863	0.0163093
741.942	0.0162081
742.020	0.0162277
742.098	0.0162372
742.176	0.0164797
742.254	0.0166545
742.332	0.0168531
742.410	0.0169789
742.488	0.0172525
742.567	0.0176279
742.645	0.0178276
742.723	0.0179566
742.801	0.0182007
742.879	0.0185045
742.957	0.0185743
743.035	0.0186432
743.113	0.0188802
743.192	0.0189008
743.270	0.0190604
743.348	0.0188104
743.426	0.0187849
743.504	0.0185428
743.582	0.0183985
743.660	0.0181547
743.738	0.0179558
743.817	0.0176369
743.895	0.0174237
743.973	0.0170646
744.051	0.0168440
744.129	0.0164667
744.207	0.0163186
744.285	0.0161311
744.363	0.0161028
744.442	0.0159951
744.520	0.0159916
744.598	0.0160719
744.676	0.0161701
744.754	0.0163392
744.832	0.0164127
744.910	0.0164648
744.988	0.0165504
745.067	0.0167049
745.145	0.0170136
745.223	0.0172442
745.301	0.0173273
745.379	0.0174418
745.457	0.0174201
745.535	0.0175238
745.613	0.0175956
745.692	0.0175788
745.770	0.0176225
745.848	0.0175272
745.926	0.0171877
746.004	0.0169556
746.082	0.0169614
746.160	0.0168763
746.238	0.0166164
746.317	0.0166313
746.395	0.0163715
746.473	0.0162208
746.551	0.0164209
746.629	0.0164310
746.707	0.0164186
746.785	0.0166605
746.863	0.0167329
746.942	0.0168646
747.020	0.0169832
747.098	0.0172991
747.176	0.0175755
747.254	0.0176108
747.332	0.0175378
747.410	0.0177958
747.488	0.0178979
747.567	0.0180040
747.645	0.0178043
747.723	0.0176678
747.801	0.0176798
747.879	0.0174921
747.957	0.0171839
748.035	0.0169340
748.113	0.0168471
748.192	0.0167888
748.270	0.0167716
748.348	0.0167380
748.426	0.0166747
748.504	0.0167008
748.582	0.0169169
748.660	0.0171011
748.738	0.0171050
748.817	0.0174037
748.895	0.0175806
748.973	0.0179684
749.051	0.0181555
749.129	0.0182248
749.207	0.0183634
749.285	0.0185104
749.363	0.0185707
749.442	0.0183495
749.520	0.0184176
749.598	0.0182692
749.676	0.0182076
749.754	0.0179185
749.832	0.0176695
749.910	0.0172705
749.988	0.0171391
750.067	0.0167524
750.145	0.0167529
750.223	0.0164479
750.301	0.0163173
750.379	0.0163945
750.457	0.0163330
750.535	0.0161591
750.613	0.0162517
750.692	0.0163319
750.770	0.0165602
750.848	0.0167290
750.926	0.0168475
751.004	0.0170111
751.082	0.0171915
751.160	0.0174896
751.238	0.0174404
751.317	0.0176195
751.395	0.0176168
751.473	0.0178899
751.551	0.0177261
751.629	0.0177004
751.707	0.0177536
751.785	0.0175810
751.863	0.0174508
751.942	0.0173703
752.020	0.0171118
752.098	0.0170995
752.176	0.0169749
752.254	0.0167405
752.332	0.0166583
752.410	0.0164464
752.488	0.0162164
752.567	0.0163560
752.645	0.0163269
752.723	0.0164238
752.801	0.0164598
752.879	0.0165047
752.957	0.0166877
753.035	0.0168857
753.113	0.0169958
753.192	0.0171714
753.270	0.0171357
753.348	0.0174583
753.426	0.0177268
753.504	0.0177692
753.582	0.0177411
753.660	0.0179572
753.738	0.0179198
753.817	0.0180116
753.895	0.0177015
753.973	0.0176661
754.051	0.0176341
754.129	0.0173937
754.207	0.0171705
754.285	0.0169474
754.363	0.0170757
754.442	0.0167261
754.520	0.0164430
754.598	0.0163216
754.676	0.0161493
754.754	0.0159429
754.832	0.0160260
754.910	0.0158981
754.988	0.0161787
755.067	0.0161120
755.145	0.0160741
755.223	0.0163174
755.301	0.0165359
755.379	0.0167332
755.457	0.0168376
755.535	0.0172509
755.613	0.0173952
755.692	0.0175286
755.770	0.0177691
755.848	0.0178101
755.926	0.0178690
756.004	0.0181210
756.082	0.0179826
756.160	0.0179395
756.238	0.0180983
756.317	0.0177980
756.395	0.0177342
756.473	0.0176488
756.551	0.0175632
756.629	0.0173123
756.707	0.0173941
756.785	0.0172718
756.863	0.0172415
756.942	0.0172122
757.020	0.0173125
757.098	0.0172749
757.176	0.0172994
757.254	0.0175248
757.332	0.0174827
757.410	0.0175504
757.488	0.0174957
757.567	0.0177359
757.645	0.0177545
757.723	0.0178332
757.801	0.0178613
757.879	0.0178304
757.957	0.0178430
758.035	0.0174940
758.113	0.0176482
758.192	0.0175923
758.270	0.0173800
758.348	0.0172540
758.426	0.0171519
758.504	0.0171157
758.582	0.0169669
758.660	0.0168496
758.738	0.0166460
758.817	0.0167268
758.895	0.0165598
758.973	0.0164612
759.051	0.0165133
759.129	0.0164695
759.207	0.0164240
759.285	0.0165517
759.363	0.0167538
759.442	0.0167726
759.520	0.0168941
759.598	0.0168668
759.676	0.0169773
759.754	0.0170369
759.832	0.0170979
759.910	0.0171289
759.988	0.0171111
760.067	0.0172408
760.145	0.0171697
760.223	0.0170093
760.301	0.0169033
760.379	0.0168933
760.457	0.0169273
760.535	0.0168288
760.613	0.0167651
760.692	0.0167159
760.770	0.0166016
760.848	0.0165147
760.926	0.0164539
761.004	0.0165743
761.082	0.0166549
761.160	0.0166443
761.238	0.0166150
761.317	0.0167488
761.395	0.0170322
761.473	0.0171133
761.551	0.0172302
761.629	0.0173927
761.707	0.0176492
761.785	0.0176566
761.863	0.0178124
761.942	0.0179712
762.020	0.0178268
762.098	0.0178432
762.176	0.0180441
762.254	0.0178167
762.332	0.0177286
762.410	0.0178307
762.488	0.0178138
762.567	0.0175111
762.645	0.0175336
762.723	0.0173612
762.801	0.0172169
762.879	0.0171467
762.957	0.0168349
763.035	0.0169418
763.113	0.0167415
763.192	0.0166452
763.270	0.0166663
763.348	0.0165208
763.426	0.0166137
763.504	0.0166402
763.582	0.0165591
763.660	0.0166615
763.738	0.0166405
763.817	0.0168450
763.895	0.0169103
763.973	0.0171786
764.051	0.0172742
764.129	0.0173408
764.207	0.0175066
764.285	0.0174845
764.363	0.0176633
764.442	0.0175346
764.520	0.0176403
764.598	0.0177426
764.676	0.0178071
764.754	0.0178198
764.832	0.0176224
764.910	0.0175472
764.988	0.0174281
765.067	0.0172294
765.145	0.0172891
765.223	0.0172852
765.301	0.0172218
765.379	0.0170562
765.457	0.0171149
765.535	0.0170979
765.613	0.0169479
765.692	0.0170179
765.770	0.0172131
765.848	0.0172805
765.926	0.0172536
766.004	0.0172649
766.082	0.0173512
766.160	0.0174217
766.238	0.0175683
766.317	0.0175953
766.395	0.0175754
766.473	0.0178027
766.551	0.0177317
766.629	0.0176975
766.707	0.0176883
766.785	0.0177444
766.863	0.0175452
766.942	0.0175538
767.020	0.0173657
767.098	0.0173220
767.176	0.0172461
767.254	0.0170780
767.332	0.0169589
767.410	0.0168180
767.488	0.0169106
767.567	0.0167034
767.645	0.0165549
767.723	0.0166226
767.801	0.0166146
767.879	0.0164752
767.957	0.0165047
768.035	0.0164618
768.113	0.0164524
768.192	0.0164789
768.270	0.0165983
768.348	0.0164704
768.426	0.0166458
768.504	0.0167330
768.582	0.0166663
768.660	0.0166396
768.738	0.0167420
768.817	0.0169274
768.895	0.0169181
768.973	0.0169189
769.051	0.0168870
769.129	0.0169673
769.207	0.0169266
769.285	0.0169896
769.363	0.0169868
769.442	0.0169911
769.520	0.0169767
769.598	0.0171175
769.676	0.0170951
769.754	0.0171046
769.832	0.0169935
769.910	0.0171881
769.988	0.0172991
770.067	0.0173534
770.145	0.0173125
770.223	0.0173201
770.301	0.0175443
770.379	0.0174732
770.457	0.0174651
770.535	0.0177540
770.613	0.0177422
770.692	0.0176591
770.770	0.0176817
770.848	0.0177569
770.926	0.0179310
771.004	0.0177941
771.082	0.0177099
771.160	0.0177089
771.238	0.0177525
771.317	0.0177929
771.395	0.0177892
771.473	0.0175974
771.551	0.0176910
771.629	0.0175972
771.707	0.0174320
771.785	0.0173852
771.863	0.0172965
771.942	0.0173098
772.020	0.0172616
772.098	0.0171223
772.176	0.0170549
772.254	0.0169446
772.332	0.0168414
772.410	0.0169558
772.488	0.0168073
772.567	0.0168275
772.645	0.0169182
772.723	0.0168750
772.801	0.0168610
772.879	0.0168800
772.957	0.0170132
773.035	0.0170181
773.113	0.0169858
773.192	0.0170947
773.270	0.0171847
773.348	0.0171479
773.426	0.0170339
773.504	0.0171675
773.582	0.0171599
773.660	0.0170384
773.738	0.0171658
773.817	0.0171299
773.895	0.0171204
773.973	0.0170442
774.051	0.0169887
774.129	0.0170821
774.207	0.0172009
774.285	0.0170400
774.363	0.0169939
774.442	0.0169700
774.520	0.0169360
774.598	0.0169566
774.676	0.0169380
774.754	0.0168112
774.832	0.0168626
774.910	0.0169376
774.988	0.0168635
775.067	0.0169045
775.145	0.0170104
775.223	0.0170413
775.301	0.0169924
775.379	0.0170148
775.457	0.0171945
775.535	0.0173260
775.613	0.0172499
775.692	0.0173015
775.770	0.0173530
775.848	0.0173821
775.926	0.0173020
776.004	0.0173219
776.082	0.0173106
776.160	0.0173376
776.238	0.0170905
776.317	0.0169656
776.395	0.0169569
776.473	0.0169035
776.551	0.0168395
776.629	0.0166743
776.707	0.0165788
776.785	0.0165511
776.863	0.0166912
776.942	0.0164961
777.020	0.0165927
777.098	0.0164416
777.176	0.0165479
777.254	0.0165249
777.332	0.0165887
777.410	0.0167292
777.488	0.0166122
777.567	0.0168938
777.645	0.0167971
777.723	0.0167258
777.801	0.0168476
777.879	0.0169114
777.957	0.0171148
778.035	0.0172174
778.113	0.0170789
778.192	0.0172200
778.270	0.0172910
778.348	0.0173135
778.426	0.0175454
778.504	0.0174519
778.582	0.0174991
778.660	0.0176395
778.738	0.0177691
778.817	0.0178471
778.895	0.0177178
778.973	0.0176118
779.051	0.0176589
779.129	0.0177106
779.207	0.0178123
779.285	0.0177214
779.363	0.0177599
779.442	0.0177802
779.520	0.0176994
779.598	0.0178008
779.676	0.0177380
779.754	0.0177760
779.832	0.0177422
779.910	0.0178305
779.988	0.0177011
780.067	0.0177434
780.145	0.0176197
780.223	0.0176386
780.301	0.0176859
780.379	0.0175690
780.457	0.0175136
780.535	0.0173738
780.613	0.0172829
780.692	0.0175156
780.770	0.0172974
780.848	0.0172598
780.926	0.0172914
781.004	0.0172073
781.082	0.0170585
781.160	0.0170878
781.238	0.0170014
781.317	0.0168546
781.395	0.0168460
781.473	0.0168289
781.551	0.0167072
781.629	0.0167556
781.707	0.0165967
781.785	0.0165863
781.863	0.0165402
781.942	0.0165250
782.020	0.0164575
782.098	0.0164104
782.176	0.0163994
782.254	0.0162487
782.332	0.0165049
782.410	0.0165399
782.488	0.0163752
782.567	0.0163521
782.645	0.0164848
782.723	0.0164861
782.801	0.0165037
782.879	0.0165951
782.957	0.0164611
783.035	0.0166042
783.113	0.0167802
783.192	0.0166892
783.270	0.0169833
783.348	0.0169928
783.426	0.0170908
783.504	0.0172816
783.582	0.0173350
783.660	0.0172470
783.738	0.0174647
783.817	0.0175081
783.895	0.0176241
783.973	0.0177425
784.051	0.0177934
784.129	0.0177720
784.207	0.0178201
784.285	0.0178780
784.363	0.0179640
784.442	0.0178567
784.520	0.0179167
784.598	0.0178011
784.676	0.0178197
784.754	0.0176971
784.832	0.0177474
784.910	0.0176152
784.988	0.0174194
785.067	0.0174055
785.145	0.0174004
785.223	0.0171611
785.301	0.0171105
785.379	0.0169996
785.457	0.0169610
785.535	0.0168877
785.613	0.0168785
785.692	0.0169382
785.770	0.0168808
785.848	0.0169514
785.926	0.0171645
786.004	0.0169952
786.082	0.0171732
786.160	0.0172822
786.238	0.0173193
786.317	0.0172980
786.395	0.0172435
786.473	0.0174363
786.551	0.0173238
786.629	0.0173380
786.707	0.0171265
786.785	0.0171616
786.863	0.0171615
786.942	0.0171491
787.020	0.0171267
787.098	0.0170617
787.176	0.0170805
787.254	0.0169685
787.332	0.0169189
787.410	0.0168809
787.488	0.0170561
787.567	0.0170677
787.645	0.0171793
787.723	0.0169379
787.801	0.0169375
787.879	0.0171181
787.957	0.0169984
788.035	0.0170624
788.113	0.0169711
788.192	0.0169044
788.270	0.0169813
788.348	0.0171700
788.426	0.0170626
788.504	0.0171950
788.582	0.0173048
788.660	0.0172666
788.738	0.0174174
788.817	0.0173768
788.895	0.0174476
788.973	0.0175529
789.051	0.0175588
789.129	0.0176453
789.207	0.0176658
789.285	0.0175725
789.363	0.0176360
789.442	0.0177585
789.520	0.0174590
789.598	0.0176880
789.676	0.0177197
789.754	0.0176560
789.832	0.0176747
789.910	0.0176990
789.988	0.0176714
790.067	0.0178141
790.145	0.0177334
790.223	0.0175951
790.301	0.0176084
790.379	0.0175623
790.457	0.0175952
790.535	0.0174162
790.613	0.0173489
790.692	0.0173235
790.770	0.0169740
790.848	0.0167969
790.926	0.0165432
791.004	0.0166479
791.082	0.0164454
791.160	0.0160841
791.238	0.0159230
791.317	0.0157150
791.395	0.0157048
791.473	0.0154369
791.551	0.0154542
791.629	0.0153480
791.707	0.0153351
791.785	0.0152211
791.863	0.0153586
791.942	0.0154538
792.020	0.0154475
792.098	0.0157901
792.176	0.0159763
792.254	0.0162814
792.332	0.0164680
792.410	0.0166630
792.488	0.0169079
792.567	0.0172691
792.645	0.0175898
792.723	0.0177636
792.801	0.0179813
792.879	0.0183541
792.957	0.0184156
793.035	0.0187108
793.113	0.0189272
793.192	0.0189576
793.270	0.0189739
793.348	0.0192912
793.426	0.0192052
793.504	0.0191550
793.582	0.0190973
793.660	0.0190437
793.738	0.0189104
793.817	0.0188270
793.895	0.0188187
793.973	0.0186218
794.051	0.0184474
794.129	0.0182307
794.207	0.0183006
794.285	0.0180420
794.363	0.0181156
794.442	0.0178420
794.520	0.0176161
794.598	0.0175327
794.676	0.0172919
794.754	0.0170150
794.832	0.0168877
794.910	0.0166202
794.988	0.0163091
795.067	0.0161254
795.145	0.0160292
795.223	0.0159103
795.301	0.0157044
795.379	0.0154802
795.457	0.0154128
795.535	0.0151670
795.613	0.0149915
795.692	0.0149470
795.770	0.0148880
795.848	0.0147730
795.926	0.0149755
796.004	0.0151381
796.082	0.0150403
796.160	0.0153514
796.238	0.0153534
796.317	0.0157384
796.395	0.0160345
796.473	0.0161210
796.551	0.0165703
796.629	0.0168586
796.707	0.0172066
796.785	0.0174160
796.863	0.0177335
796.942	0.0179607
797.020	0.0182885
797.098	0.0185587
797.176	0.0186560
797.254	0.0188022
797.332	0.0188757
797.410	0.0189536
797.488	0.0192102
797.567	0.0192957
797.645	0.0191743
797.723	0.0191096
797.801	0.0191429
797.879	0.0191724
797.957	0.0190702
798.035	0.0189768
798.113	0.0187336
798.192	0.0187886
798.270	0.0186182
798.348	0.0186079
798.426	0.0183752
798.504	0.0183243
798.582	0.0182130
798.660	0.0180574
798.738	0.0178298
798.817	0.0176382
798.895	0.0173273
798.973	0.0172189
799.051	0.0168864
799.129	0.0164867
799.207	0.0163962
799.285	0.0160290
799.363	0.0156377
799.442	0.0153381
799.520	0.0150635
799.598	0.0147178
799.676	0.0146568
799.754	0.0145246
799.832	0.0142612
799.910	0.0142024
799.988	0.0140501
800.067	0.0139377
800.145	0.0140132
800.223	0.0140905
800.301	0.0143902
800.379	0.0146009
800.457	0.0148147
800.535	0.0151641
800.613	0.0154877
800.692	0.0159560
800.770	0.0162413
800.848	0.0167126
800.926	0.0172932
801.004	0.0177316
801.082	0.0181035
801.160	0.0183053
801.238	0.0186606
801.317	0.0189346
801.395	0.0191754
801.473	0.0194125
801.551	0.0195578
801.629	0.0196619
801.707	0.0197509
801.785	0.0198459
801.863	0.0197426
801.942	0.0196214
802.020	0.0196995
802.098	0.0195045
802.176	0.0195808
802.254	0.0192431
802.332	0.0192504
802.410	0.0191568
802.488	0.0191759
802.567	0.0191645
802.645	0.0188988
802.723	0.0188575
802.801	0.0186643
802.879	0.0183829
802.957	0.0181408
803.035	0.0180614
803.113	0.0179408
803.192	0.0177403
803.270	0.0174870
803.348	0.0171272
803.426	0.0168218
803.504	0.0167005
803.582	0.0163543
803.660	0.0161085
803.738	0.0157055
803.817	0.0155542
803.895	0.0153313
803.973	0.0150948
804.051	0.0148972
804.129	0.0148335
804.207	0.0147962
804.285	0.0146165
804.363	0.0145450
804.442	0.0147466
804.520	0.0146555
804.598	0.0148449
804.676	0.0149605
804.754	0.0151910
804.832	0.0154237
804.910	0.0156859
804.988	0.0158389
805.067	0.0161000
805.145	0.0162330
805.223	0.0163892
805.301	0.0166922
805.379	0.0168921
805.457	0.0170906
805.535	0.0170746
805.613	0.0173657
805.692	0.0174289
805.770	0.0175088
805.848	0.0175906
805.926	0.0177827
806.004	0.0176907
806.082	0.0179453
806.160	0.0180859
806.238	0.0182082
806.317	0.0182438
806.395	0.0182325
806.473	0.0184212
806.551	0.0187118
806.629	0.0187695
806.707	0.0184852
806.785	0.0187025
806.863	0.0188289
806.942	0.0187701
807.020	0.0188007
807.098	0.0187814
807.176	0.0186780
807.254	0.0185600
807.332	0.0184599
807.410	0.0183293
807.488	0.0180975
807.567	0.0181088
807.645	0.0178815
807.723	0.0176715
807.801	0.0175718
807.879	0.0173079
807.957	0.0172664
808.035	0.0170375
808.113	0.0170712
808.192	0.0169827
808.270	0.0167199
808.348	0.0166341
808.426	0.0166230
808.504	0.0167851
808.582	0.0166683
808.660	0.0165392
808.738	0.0167312
808.817	0.0165298
808.895	0.0166731
808.973	0.0165953
809.051	0.0165233
809.129	0.0165049
809.207	0.0168045
809.285	0.0166828
809.363	0.0166631
809.442	0.0165697
809.520	0.0166899
809.598	0.0166891
809.676	0.0168179
809.754	0.0167347
809.832	0.0168527
809.910	0.0168130
809.988	0.0168856
810.067	0.0168537
810.145	0.0169419
810.223	0.0169962
810.301	0.0170314
810.379	0.0170110
810.457	0.0170687
810.535	0.0171527
810.613	0.0170624
810.692	0.0170095
810.770	0.0170279
810.848	0.0169636
810.926	0.0169317
811.004	0.0170441
811.082	0.0169831
811.160	0.0169064
811.238	0.0170550
811.317	0.0170759
811.395	0.0170382
811.473	0.0170933
811.551	0.0171265
811.629	0.0170712
811.707	0.0170494
811.785	0.0171431
811.863	0.0173694
811.942	0.0174111
812.020	0.0174818
812.098	0.0173748
812.176	0.0175883
812.254	0.0175233
812.332	0.0176466
812.410	0.0176523
812.488	0.0176820
812.567	0.0176618
812.645	0.0178678
812.723	0.0177768
812.801	0.0178259
812.879	0.0178728
812.957	0.0179108
813.035	0.0179362
813.113	0.0179462
813.192	0.0179507
813.270	0.0178674
813.348	0.0178513
813.426	0.0177014
813.504	0.0176686
813.582	0.0177321
813.660	0.0177247
813.738	0.0176419
813.817	0.0175153
813.895	0.0174806
813.973	0.0175784
814.051	0.0173853
814.129	0.0174043
814.207	0.0173753
814.285	0.0173141
814.363	0.0172473
814.442	0.0172063
814.520	0.0171777
814.598	0.0171332
814.676	0.0171062
814.754	0.0170046
814.832	0.0170243
814.910	0.0170576
814.988	0.0168713
815.067	0.0166568
815.145	0.0166094
815.223	0.0166029
815.301	0.0164433
815.379	0.0164779
815.457	0.0162926
815.535	0.0162819
815.613	0.0164673
815.692	0.0161948
815.770	0.0161755
815.848	0.0161230
815.926	0.0162474
816.004	0.0162035
816.082	0.0161569
816.160	0.0163052
816.238	0.0163599
816.317	0.0164082
816.395	0.0164188
816.473	0.0165230
816.551	0.0166248
816.629	0.0167170
816.707	0.0168083
816.785	0.0170645
816.863	0.0170450
816.942	0.0170589
817.020	0.0173447
817.098	0.0176003
817.176	0.0174278
817.254	0.0174583
817.332	0.0176395
817.410	0.0178838
817.488	0.0179476
817.567	0.0180381
817.645	0.0179378
817.723	0.0181493
817.801	0.0181332
817.879	0.0181785
817.957	0.0179879
818.035	0.0181088
818.113	0.0181989
818.192	0.0182541
818.270	0.0179957
818.348	0.0180573
818.426	0.0181386
818.504	0.0179870
818.582	0.0179025
818.660	0.0179342
818.738	0.0178320
818.817	0.0178714
818.895	0.0178407
818.973	0.0176917
819.051	0.0177653
819.129	0.0176036
819.207	0.0175678
819.285	0.0175060
819.363	0.0172534
819.442	0.0173231
819.520	0.0172433
819.598	0.0170702
819.676	0.0170753
819.754	0.0170240
819.832	0.0170403
819.910	0.0171055
819.988	0.0168988
820.067	0.0169804
820.145	0.0168824
820.223	0.0168886
820.301	0.0168114
820.379	0.0167907
820.457	0.0166679
820.535	0.0165298
820.613	0.0166329
820.692	0.0166753
820.770	0.0164339
820.848	0.0163550
820.926	0.0163033
821.004	0.0164533
821.082	0.0163139
821.160	0.0163622
821.238	0.0161778
821.317	0.0162941
821.395	0.0163509
821.473	0.0165260
821.551	0.0166424
821.629	0.0167526
821.707	0.0166566
821.785	0.0168145
821.863	0.0169012
821.942	0.0168755
822.020	0.0170011
822.098	0.0169723
822.176	0.0171476
822.254	0.0172858
822.332	0.0174480
822.410	0.0173934
822.488	0.0175497
822.567	0.0173607
822.645	0.0175263
822.723	0.0174714
822.801	0.0175821
822.879	0.0176044
822.957	0.0176029
823.035	0.0175798
823.113	0.0174534
823.192	0.0175224
823.270	0.0173808
823.348	0.0174968
823.426	0.0173869
823.504	0.0173885
823.582	0.0175698
823.660	0.0174227
823.738	0.0173972
823.817	0.0175032
823.895	0.0176918
823.973	0.0175200
824.051	0.0176501
824.129	0.0176463
824.207	0.0176827
824.285	0.0176942
824.363	0.0175692
824.442	0.0177479
824.520	0.0176817
824.598	0.0176917
824.676	0.0176025
824.754	0.0178255
824.832	0.0175198
824.910	0.0173869
824.988	0.0174072
825.067	0.0171033
825.145	0.0172837
825.223	0.0170119
825.301	0.0169246
825.379	0.0169145
825.457	0.0168726
825.535	0.0166718
825.613	0.0166180
825.692	0.0168137
825.770	0.0167701
825.848	0.0167583
825.926	0.0168723
826.004	0.0168140
826.082	0.0169390
826.160	0.0169757
826.238	0.0171027
826.317	0.0171154
826.395	0.0171661
826.473	0.0174065
826.551	0.0173553
826.629	0.0173753
826.707	0.0173293
826.785	0.0172970
826.863	0.0173585
826.942	0.0173473
827.020	0.0172758
827.098	0.0173393
827.176	0.0172552
827.254	0.0173499
827.332	0.0172025
827.410	0.0170787
827.488	0.0169864
827.567	0.0170003
827.645	0.0169634
827.723	0.0168401
827.801	0.0169068
827.879	0.0168757
827.957	0.0168745
828.035	0.0169939
828.113	0.0168556
828.192	0.0168579
828.270	0.0169757
828.348	0.0170928
828.426	0.0170720
828.504	0.0170668
828.582	0.0171220
828.660	0.0171992
828.738	0.0172387
828.817	0.0173827
828.895	0.0172000
828.973	0.0171859
829.051	0.0172433
829.129	0.0171807
829.207	0.0172545
829.285	0.0172604
829.363	0.0172713
829.442	0.0170734
829.520	0.0171668
829.598	0.0171165
829.676	0.0171308
829.754	0.0170727
829.832	0.0171877
829.910	0.0171259
829.988	0.0170634
830.067	0.0171174
830.145	0.0172234
830.223	0.0173129
830.301	0.0173906
830.379	0.0174664
830.457	0.0173923
830.535	0.0175284
830.613	0.0174851
830.692	0.0174062
830.770	0.0175826
830.848	0.0176485
830.926	0.0175776
831.004	0.0175755
831.082	0.0177499
831.160	0.0176058
831.238	0.0175134
831.317	0.0177161
831.395	0.0175832
831.473	0.0175312
831.551	0.0175882
831.629	0.0175117
831.707	0.0172662
831.785	0.0172421
831.863	0.0173887
831.942	0.0171981
832.020	0.0171958
832.098	0.0171107
832.176	0.0169866
832.254	0.0170110
832.332	0.0169281
832.410	0.0168549
832.488	0.0168706
832.567	0.0169767
832.645	0.0169000
832.723	0.0169803
832.801	0.0169228
832.879	0.0168921
832.957	0.0169971
833.035	0.0169869
833.113	0.0169592
833.192	0.0170421
833.270	0.0169115
833.348	0.0170181
833.426	0.0169135
833.504	0.0168264
833.582	0.0169644
833.660	0.0168938
833.738	0.0168559
833.817	0.0171365
833.895	0.0169826
833.973	0.0170424
834.051	0.0170999
834.129	0.0170047
834.207	0.0170098
834.285	0.0171966
834.363	0.0171166
834.442	0.0172994
834.520	0.0174041
834.598	0.0174960
834.676	0.0175621
834.754	0.0176029
834.832	0.0177689
834.910	0.0177290
834.988	0.0179450
835.067	0.0178616
835.145	0.0178412
835.223	0.0178499
835.301	0.0178841
835.379	0.0178373
835.457	0.0178060
835.535	0.0176511
835.613	0.0177087
835.692	0.0175511
835.770	0.0173886
835.848	0.0175612
835.926	0.0173362
836.004	0.0170862
836.082	0.0171459
836.160	0.0168554
836.238	0.0170272
836.317	0.0168073
836.395	0.0167198
836.473	0.0169769
836.551	0.0166847
836.629	0.0165527
836.707	0.0166699
836.785	0.0166619
836.863	0.0166043
836.942	0.0167664
837.020	0.0165576
837.098	0.0167767
837.176	0.0166869
837.254	0.0167304
837.332	0.0168324
837.410	0.0167474
837.488	0.0168809
837.567	0.0169073
837.645	0.0169732
837.723	0.0169685
837.801	0.0168937
837.879	0.0169367
837.957	0.0170627
838.035	0.0170770
838.113	0.0172266
838.192	0.0171358
838.270	0.0171330
838.348	0.0171572
838.426	0.0172770
838.504	0.0174687
838.582	0.0174298
838.660	0.0175313
838.738	0.0175328
838.817	0.0175443
838.895	0.0176371
838.973	0.0176731
839.051	0.0179030
839.129	0.0178038
839.207	0.0179246
839.285	0.0179393
839.363	0.0178876
839.442	0.0179449
839.520	0.0179348
839.598	0.0178940
839.676	0.0177588
839.754	0.0178628
839.832	0.0178770
839.910	0.0178062
839.988	0.0174904
840.067	0.0176694
840.145	0.0175499
840.223	0.0173515
840.301	0.0172281
840.379	0.0172729
840.457	0.0172282
840.535	0.0170230
840.613	0.0169813
840.692	0.0169853
840.770	0.0167770
840.848	0.0167815
840.926	0.0166971
841.004	0.0164899
841.082	0.0165234
841.160	0.0165392
841.238	0.0165186
841.317	0.0163358
841.395	0.0164799
841.473	0.0164127
841.551	0.0163870
841.629	0.0165452
841.707	0.0165291
841.785	0.0164790
841.863	0.0165581
841.942	0.0166475
842.020	0.0165501
842.098	0.0165802
842.176	0.0166664
842.254	0.0168391
842.332	0.0169334
842.410	0.0170002
842.488	0.0170872
842.567	0.0169984
842.645	0.0170862
842.723	0.0174960
842.801	0.0174654
842.879	0.0174312
842.957	0.0174987
843.035	0.0175516
843.113	0.0176656
843.192	0.0177885
843.270	0.0176260
843.348	0.0176452
843.426	0.0179215
843.504	0.0179659
843.582	0.0178584
843.660	0.0178836
843.738	0.0177734
843.817	0.0180032
843.895	0.0179140
843.973	0.0179075
844.051	0.0178790
844.129	0.0177370
844.207	0.0176711
844.285	0.0176723
844.363	0.0176221
844.442	0.0176453
844.520	0.0175623
844.598	0.0174105
844.676	0.0173799
844.754	0.0173788
844.832	0.0172362
844.910	0.0170942
844.988	0.0171696
845.067	0.0170862
845.145	0.0168988
845.223	0.0169180
845.301	0.0168973
845.379	0.0168294
845.457	0.0169189
845.535	0.0167487
845.613	0.0167583
845.692	0.0167442
845.770	0.0166993
845.848	0.0166201
845.926	0.0166627
846.004	0.0167648
846.082	0.0166457
846.160	0.0166499
846.238	0.0166642
846.317	0.0166174
846.395	0.0165513
846.473	0.0166490
846.551	0.0165963
846.629	0.0167091
846.707	0.0166310
846.785	0.0167761
846.863	0.0168581
846.942	0.0168928
847.020	0.0169018
847.098	0.0169088
847.176	0.0170615
847.254	0.0170432
847.332	0.0171565
847.410	0.0174237
847.488	0.0173840
847.567	0.0173398
847.645	0.0173741
847.723	0.0176011
847.801	0.0175924
847.879	0.0175360
847.957	0.0175107
848.035	0.0174933
848.113	0.0177922
848.192	0.0178547
848.270	0.0176811
848.348	0.0175666
848.426	0.0176006
848.504	0.0176891
848.582	0.0176901
848.660	0.0176613
848.738	0.0175527
848.817	0.0175680
848.895	0.0173331
848.973	0.0173833
849.051	0.0173830
849.129	0.0173420
849.207	0.0174477
849.285	0.0172942
849.363	0.0171822
849.442	0.0172285
849.520	0.0172121
849.598	0.0169809
849.676	0.0170016
849.754	0.0170446
849.832	0.0170544
849.910	0.0169987
849.988	0.0169917
850.067	0.0170116
850.145	0.0170470
850.223	0.0170705
850.301	0.0169795
850.379	0.0171731
850.457	0.0170518
850.535	0.0169843
850.613	0.0170441
850.692	0.0169675
850.770	0.0169437
850.848	0.0169277
850.926	0.0169049
851.004	0.0169201
851.082	0.0168910
851.160	0.0170282
851.238	0.0168295
851.317	0.0168478
851.395	0.0168755
851.473	0.0170213
851.551	0.0170084
851.629	0.0169129
851.707	0.0169816
851.785	0.0169181
851.863	0.0170674
851.942	0.0171011
852.020	0.0172311
852.098	0.0172003
852.176	0.0171825
852.254	0.0171767
852.332	0.0173930
852.410	0.0173715
852.488	0.0173656
852.567	0.0172849
852.645	0.0174840
852.723	0.0174123
852.801	0.0174446
852.879	0.0174876
852.957	0.0174609
853.035	0.0174156
853.113	0.0173745
853.192	0.0173354
853.270	0.0174133
853.348	0.0173699
853.426	0.0174123
853.504	0.0172919
853.582	0.0172034
853.660	0.0173838
853.738	0.0172620
853.817	0.0173643
853.895	0.0172821
853.973	0.0172767
854.051	0.0172830
854.129	0.0171841
854.207	0.0172182
854.285	0.0171947
854.363	0.0172053
854.442	0.0173199
854.520	0.0172043
854.598	0.0171941
854.676	0.0171900
854.754	0.0170731
854.832	0.0171765
854.910	0.0171207
854.988	0.0170753
855.067	0.0169901
855.145	0.0170821
855.223	0.0169003
855.301	0.0169757
855.379	0.0170258
855.457	0.0170140
855.535	0.0169729
855.613	0.0169801
855.692	0.0168766
855.770	0.0168698
855.848	0.0169112
855.926	0.0169798
856.004	0.0170080
856.082	0.0168356
856.160	0.0169146
856.238	0.0170438
856.317	0.0170429
856.395	0.0170001
856.473	0.0170303
856.551	0.0171075
856.629	0.0171767
856.707	0.0171413
856.785	0.0171491
856.863	0.0171952
856.942	0.0171285
857.020	0.0171138
857.098	0.0171834
857.176	0.0171856
857.254	0.0172958
857.332	0.0174461
857.410	0.0173679
857.488	0.0173499
857.567	0.0172949
857.645	0.0172932
857.723	0.0172919
857.801	0.0172687
857.879	0.0172686
857.957	0.0172333
858.035	0.0171722
858.113	0.0170787
858.192	0.0171845
858.270	0.0171660
858.348	0.0172090
858.426	0.0172240
858.504	0.0172812
858.582	0.0172356
858.660	0.0171500
858.738	0.0172002
858.817	0.0172737
858.895	0.0171864
858.973	0.0173394
859.051	0.0173187
859.129	0.0172314
859.207	0.0172945
859.285	0.0171884
859.363	0.0172481
859.442	0.0172681
859.520	0.0170810
859.598	0.0170559
859.676	0.0171203
859.754	0.0171446
859.832	0.0171863
859.910	0.0171346
859.988	0.0171405
860.067	0.0170382
860.145	0.0170623
860.223	0.0168974
860.301	0.0169950
860.379	0.0169157
860.457	0.0168801
860.535	0.0170467
860.613	0.0171638
860.692	0.0169653
860.770	0.0170560
860.848	0.0172570
860.926	0.0171376
861.004	0.0171332
861.082	0.0171082
861.160	0.0171399
861.238	0.0173365
861.317	0.0174461
861.395	0.0173755
861.473	0.0173531
861.551	0.0172690
861.629	0.0173393
861.707	0.0172518
861.785	0.0172466
861.863	0.0172868
861.942	0.0172655
862.020	0.0171342
862.098	0.0171405
862.176	0.0171839
862.254	0.0170629
862.332	0.0170110
862.410	0.0169787
862.488	0.0168715
862.567	0.0167998
862.645	0.0168687
862.723	0.0167562
862.801	0.0167488
862.879	0.0167588
862.957	0.0168527
863.035	0.0168620
863.113	0.0168427
863.192	0.0169580
863.270	0.0168896
863.348	0.0169424
863.426	0.0171395
863.504	0.0171163
863.582	0.0171245
863.660	0.0171162
863.738	0.0171201
863.817	0.0171937
863.895	0.0172280
863.973	0.0173302
864.051	0.0172489
864.129	0.0172392
864.207	0.0172218
864.285	0.0170295
864.363	0.0173101
864.442	0.0171629
864.520	0.0170496
864.598	0.0170266
864.676	0.0172439
864.754	0.0171016
864.832	0.0169664
864.910	0.0169662
864.988	0.0170028
865.067	0.0170714
865.145	0.0171137
865.223	0.0171014
865.301	0.0171103
865.379	0.0171512
865.457	0.0171625
865.535	0.0171885
865.613	0.0172637
865.692	0.0173811
865.770	0.0173586
865.848	0.0173844
865.926	0.0172773
866.004	0.0172928
866.082	0.0172736
866.160	0.0173171
866.238	0.0173386
866.317	0.0173583
866.395	0.0173362
866.473	0.0172633
866.551	0.0173125
866.629	0.0171239
866.707	0.0172341
866.785	0.0170489
866.863	0.0171832
866.942	0.0171777
867.020	0.0170605
867.098	0.0171235
867.176	0.0170567
867.254	0.0171198
867.332	0.0170807
867.410	0.0171959
867.488	0.0171185
867.567	0.0171986
867.645	0.0172089
867.723	0.0171763
867.801	0.0172580
867.879	0.0174811
867.957	0.0174765
868.035	0.0173492
868.113	0.0174748
868.192	0.0173360
868.270	0.0173239
868.348	0.0172941
868.426	0.0174226
868.504	0.0171514
868.582	0.0172372
868.660	0.0172490
868.738	0.0171313
868.817	0.0170619
868.895	0.0168526
868.973	0.0170135
869.051	0.0170257
869.129	0.0168533
869.207	0.0168678
869.285	0.0167908
869.363	0.0168115
869.442	0.0168174
869.520	0.0167480
869.598	0.0168657
869.676	0.0167830
869.754	0.0168147
869.832	0.0167648
869.910	0.0168483
869.988	0.0169214
870.067	0.0168360
870.145	0.0170192
870.223	0.0170398
870.301	0.0169733
870.379	0.0171102
870.457	0.0170334
870.535	0.0168731
870.613	0.0170978
870.692	0.0171341
870.770	0.0170983
870.848	0.0172557
870.926	0.0171207
871.004	0.0171904
871.082	0.0171913
871.160	0.0170610
871.238	0.0171331
871.317	0.0170869
871.395	0.0171260
871.473	0.0172694
871.551	0.0171787
871.629	0.0172694
871.707	0.0171227
871.785	0.0171803
871.863	0.0171974
871.942	0.0172579
872.020	0.0173254
872.098	0.0173615
872.176	0.0174890
872.254	0.0173517
872.332	0.0174461
872.410	0.0175438
872.488	0.0175651
872.567	0.0175826
872.645	0.0175543
872.723	0.0176220
872.801	0.0177316
872.879	0.0176534
872.957	0.0176171
873.035	0.0174432
873.113	0.0174480
873.192	0.0174857
873.270	0.0174829
873.348	0.0173371
873.426	0.0169999
873.504	0.0171788
873.582	0.0170452
873.660	0.0170850
873.738	0.0170263
873.817	0.0167836
873.895	0.0167188
873.973	0.0167934
874.051	0.0167778
874.129	0.0168507
874.207	0.0167194
874.285	0.0166979
874.363	0.0167038
874.442	0.0167513
874.520	0.0167721
874.598	0.0168166
874.676	0.0168170
874.754	0.0169920
874.832	0.0169955
874.910	0.0169791
874.988	0.0170595
875.067	0.0169799
875.145	0.0172958
875.223	0.0171642
875.301	0.0170421
875.379	0.0171170
875.457	0.0172258
875.535	0.0172150
875.613	0.0173161
875.692	0.0172392
875.770	0.0174109
875.848	0.0172009
875.926	0.0171785
876.004	0.0171735
876.082	0.0173035
876.160	0.0172896
876.238	0.0173763
876.317	0.0173672
876.395	0.0173907
876.473	0.0173447
876.551	0.0174049
876.629	0.0174837
876.707	0.0175059
876.785	0.0173692
876.863	0.0174280
876.942	0.0174780
877.020	0.0173340
877.098	0.0173582
877.176	0.0175455
877.254	0.0173875
877.332	0.0174158
877.410	0.0173696
877.488	0.0172603
877.567	0.0171706
877.645	0.0171733
877.723	0.0171317
877.801	0.0170569
877.879	0.0170315
877.957	0.0169320
878.035	0.0169154
878.113	0.0168497
878.192	0.0169154
878.270	0.0167014
878.348	0.0167748
878.426	0.0168295
878.504	0.0167920
878.582	0.0168862
878.660	0.0166943
878.738	0.0166795
878.817	0.0167533
878.895	0.0168665
878.973	0.0170011
879.051	0.0169069
879.129	0.0169516
879.207	0.0170513
879.285	0.0170226
879.363	0.0169405
879.442	0.0168963
879.520	0.0170766
879.598	0.0170687
879.676	0.0168692
879.754	0.0170390
879.832	0.0170412
879.910	0.0171378
879.988	0.0171102
880.067	0.0172733
880.145	0.0172011
880.223	0.0171674
880.301	0.0172811
880.379	0.0173584
880.457	0.0174961
880.535	0.0175759
880.613	0.0176403
880.692	0.0175382
880.770	0.0175813
880.848	0.0174387
880.926	0.0175961
881.004	0.0174785
881.082	0.0176466
881.160	0.0174966
881.238	0.0175271
881.317	0.0174157
881.395	0.0174616
881.473	0.0174114
881.551	0.0173155
881.629	0.0173551
881.707	0.0173515
881.785	0.0173512
881.863	0.0172838
881.942	0.0172006
882.020	0.0172406
882.098	0.0172250
882.176	0.0169820
882.254	0.0169029
882.332	0.0169169
882.410	0.0166692
882.488	0.0168456
882.567	0.0167987
882.645	0.0166977
882.723	0.0168317
882.801	0.0167657
882.879	0.0166180
882.957	0.0168444
883.035	0.0167436
883.113	0.0167635
883.192	0.0169686
883.270	0.0167805
883.348	0.0168645
883.426	0.0168616
883.504	0.0168988
883.582	0.0169128
883.660	0.0169083
883.738	0.0170257
883.817	0.0169731
883.895	0.0170590
883.973	0.0172874
884.051	0.0175813
884.129	0.0174478
884.207	0.0176302
884.285	0.0176859
884.363	0.0178905
884.442	0.0179739
884.520	0.0180447
884.598	0.0180221
884.676	0.0180073
884.754	0.0180343
884.832	0.0179722
884.910	0.0179370
884.988	0.0178149
885.067	0.0177531
885.145	0.0177396
885.223	0.0176215
885.301	0.0174355
885.379	0.0172604
885.457	0.0172073
885.535	0.0170870
885.613	0.0169293
885.692	0.0169086
885.770	0.0166866
885.848	0.0166553
885.926	0.0167710
886.004	0.0165735
886.082	0.0163702
886.160	0.0163473
886.238	0.0162977
886.317	0.0162936
886.395	0.0163680
886.473	0.0162969
886.551	0.0164288
886.629	0.0162568
886.707	0.0162569
886.785	0.0163528
886.863	0.0164013
886.942	0.0164961
887.020	0.0164256
887.098	0.0166514
887.176	0.0166493
887.254	0.0167989
887.332	0.0169080
887.410	0.0171519
887.488	0.0170827
887.567	0.0173447
887.645	0.0173328
887.723	0.0176512
887.801	0.0176122
887.879	0.0176492
887.957	0.0178964
888.035	0.0179823
888.113	0.0180775
888.192	0.0179717
888.270	0.0181786
888.348	0.0181231
888.426	0.0179920
888.504	0.0181211
888.582	0.0181592
888.660	0.0179934
888.738	0.0179515
888.817	0.0178704
888.895	0.0179079
888.973	0.0179227
889.051	0.0178527
889.129	0.0176985
889.207	0.0175947
889.285	0.0176810
889.363	0.0175220
889.442	0.0173859
889.520	0.0172987
889.598	0.0169679
889.676	0.0168704
889.754	0.0166298
889.832	0.0164961
889.910	0.0165681
889.988	0.0165481
890.067	0.0162907
890.145	0.0163118
890.223	0.0161700
890.301	0.0163235
890.379	0.0161671
890.457	0.0162235
890.535	0.0161787
890.613	0.0163684
890.692	0.0163508
890.770	0.0166107
890.848	0.0166060
890.926	0.0165953
891.004	0.0169994
891.082	0.0170222
891.160	0.0171323
891.238	0.0173167
891.317	0.0173951
891.395	0.0174727
891.473	0.0175967
891.551	0.0177043
891.629	0.0177396
891.707	0.0178230
891.785	0.0178530
891.863	0.0180492
891.942	0.0181607
892.020	0.0180479
892.098	0.0180547
892.176	0.0181898
892.254	0.0179162
892.332	0.0180125
892.410	0.0180646
892.488	0.0179890
892.567	0.0178169
892.645	0.0177768
892.723	0.0177142
892.801	0.0176037
892.879	0.0176165
892.957	0.0173712
893.035	0.0173534
893.113	0.0171959
893.192	0.0171160
893.270	0.0171439
893.348	0.0169625
893.426	0.0168871
893.504	0.0167889
893.582	0.0168466
893.660	0.0168159
893.738	0.0168159
893.817	0.0167007
893.895	0.0168198
893.973	0.0165807
894.051	0.0165474
894.129	0.0165306
894.207	0.0166995
894.285	0.0164748
894.363	0.0164539
894.442	0.0165303
894.520	0.0164051
894.598	0.0163496
894.676	0.0164008
894.754	0.0163463
894.832	0.0162650
894.910	0.0162075
894.988	0.0164091
895.067	0.0165218
895.145	0.0164516
895.223	0.0165388
895.301	0.0166150
895.379	0.0167173
895.457	0.0168298
895.535	0.0169290
895.613	0.0171419
895.692	0.0173226
895.770	0.0174743
895.848	0.0176430
895.926	0.0178455
896.004	0.0179658
896.082	0.0180608
896.160	0.0181441
896.238	0.0183602
896.317	0.0183057
896.395	0.0182734
896.473	0.0182021
896.551	0.0182980
896.629	0.0182770
896.707	0.0182858
896.785	0.0181467
896.863	0.0181022
896.942	0.0180810
897.020	0.0181319
897.098	0.0180048
897.176	0.0179137
897.254	0.0178790
897.332	0.0176714
897.410	0.0175151
897.488	0.0175373
897.567	0.0174220
897.645	0.0173360
897.723	0.0170284
897.801	0.0169361
897.879	0.0169419
897.957	0.0167912
898.035	0.0165853
898.113	0.0165627
898.192	0.0166171
898.270	0.0164203
898.348	0.0163874
898.426	0.0164432
898.504	0.0164664
898.582	0.0166020
898.660	0.0165452
898.738	0.0166633
898.817	0.0165721
898.895	0.0166122
898.973	0.0167580
899.051	0.0168554
899.129	0.0168302
899.207	0.0169637
899.285	0.0170135
899.363	0.0170197
899.442	0.0171576
899.520	0.0170603
899.598	0.0171051
899.676	0.0172395
899.754	0.0171944
899.832	0.0171851
899.910	0.0172527
899.988	0.0174123
900.067	0.0172754
900.145	0.0174114
900.223	0.0174117
900.301	0.0173702
900.379	0.0173126
900.457	0.0172945
900.535	0.0173568
900.613	0.0172407
900.692	0.0172916
900.770	0.0175050
900.848	0.0173576
900.926	0.0172983
901.004	0.0173083
901.082	0.0174271
901.160	0.0176147
901.238	0.0175812
901.317	0.0175053
901.395	0.0175328
901.473	0.0175455
901.551	0.0176166
901.629	0.0174399
901.707	0.0173007
901.785	0.0173613
901.863	0.0171323
901.942	0.0170924
902.020	0.0171252
902.098	0.0170954
902.176	0.0169162
902.254	0.0168958
902.332	0.0170750
902.410	0.0168121
902.488	0.0169144
902.567	0.0168619
902.645	0.0169131
902.723	0.0169274
902.801	0.0168895
902.879	0.0169467
902.957	0.0170648
903.035	0.0171286
903.113	0.0170293
903.192	0.0172346
903.270	0.0173544
903.348	0.0175565
903.426	0.0176715
903.504	0.0176222
903.582	0.0177064
903.660	0.0177940
903.738	0.0178900
903.817	0.0177147
903.895	0.0175809
903.973	0.0175572
904.051	0.0175153
904.129	0.0176324
904.207	0.0173758
904.285	0.0171650
904.363	0.0172415
904.442	0.0170390
904.520	0.0169859
904.598	0.0168843
904.676	0.0168793
904.754	0.0167222
904.832	0.0168313
904.910	0.0166543
904.988	0.0166572
905.067	0.0168765
905.145	0.0169280
905.223	0.0170372
905.301	0.0169971
905.379	0.0171179
905.457	0.0173266
905.535	0.0172945
905.613	0.0173428
905.692	0.0174673
905.770	0.0175444
905.848	0.0176348
905.926	0.0176662
906.004	0.0176915
906.082	0.0176059
906.160	0.0175506
906.238	0.0175107
906.317	0.0174563
906.395	0.0176136
906.473	0.0173674
906.551	0.0173032
906.629	0.0172261
906.707	0.0172144
906.785	0.0170884
906.863	0.0170924
906.942	0.0170983
907.020	0.0171179
907.098	0.0172583
907.176	0.0172547
907.254	0.0171589
907.332	0.0171310
907.410	0.0172005
907.488	0.0173347
907.567	0.0172259
907.645	0.0173419
907.723	0.0172216
907.801	0.0172214
907.879	0.0171715
907.957	0.0172669
908.035	0.0171295
908.113	0.0170752
908.192	0.0170212
908.270	0.0170387
908.348	0.0170453
908.426	0.0169632
908.504	0.0169264
908.582	0.0168772
908.660	0.0168948
908.738	0.0167500
908.817	0.0169223
908.895	0.0167976
908.973	0.0168655
909.051	0.0169241
909.129	0.0170424
909.207	0.0169884
909.285	0.0172353
909.363	0.0172244
909.442	0.0173598
909.520	0.0173325
909.598	0.0173847
909.676	0.0173560
909.754	0.0175256
909.832	0.0175292
909.910	0.0174816
909.988	0.0174955
910.067	0.0174249
910.145	0.0173221
910.223	0.0173739
910.301	0.0173123
910.379	0.0172777
910.457	0.0171549
910.535	0.0171624
910.613	0.0171584
910.692	0.0170771
910.770	0.0171031
910.848	0.0170794
910.926	0.0170757
911.004	0.0172211
911.082	0.0174185
911.160	0.0171438
911.238	0.0171496
911.317	0.0173519
911.395	0.0173370
911.473	0.0174426
911.551	0.0174529
911.629	0.0174752
911.707	0.0175942
911.785	0.0176876
911.863	0.0176499
911.942	0.0175676
912.020	0.0175875
912.098	0.0174976
912.176	0.0173878
912.254	0.0174374
912.332	0.0172417
912.410	0.0171413
912.488	0.0171071
912.567	0.0171217
912.645	0.0169199
912.723	0.0168499
912.801	0.0169377
912.879	0.0167741
912.957	0.0169434
913.035	0.0169787
913.113	0.0168680
913.192	0.0169676
913.270	0.0171217
913.348	0.0171381
913.426	0.0171313
913.504	0.0172316
913.582	0.0172499
913.660	0.0173492
913.738	0.0174113
913.817	0.0174316
913.895	0.0174324
913.973	0.0174722
914.051	0.0174888
914.129	0.0173445
914.207	0.0175465
914.285	0.0175079
914.363	0.0172586
914.442	0.0172336
914.520	0.0173178
914.598	0.0173077
914.676	0.0169946
914.754	0.0170166
914.832	0.0169809
914.910	0.0169970
914.988	0.0169515
915.067	0.0169143
915.145	0.0168741
915.223	0.0168250
915.301	0.0167867
915.379	0.0169358
915.457	0.0169047
915.535	0.0169859
915.613	0.0169299
915.692	0.0171010
915.770	0.0171479
915.848	0.0171941
915.926	0.0172455
916.004	0.0172567
916.082	0.0174242
916.160	0.0173938
916.238	0.0173895
916.317	0.0174829
916.395	0.0174789
916.473	0.0176311
916.551	0.0175574
916.629	0.0174513
916.707	0.0174899
916.785	0.0174729
916.863	0.0175230
916.942	0.0173973
917.020	0.0172350
917.098	0.0173040
917.176	0.0171687
917.254	0.0170731
917.332	0.0170195
917.410	0.0169640
917.488	0.0169799
917.567	0.0171446
917.645	0.0171765
917.723	0.0171215
917.801	0.0172065
917.879	0.0171261
917.957	0.0172663
918.035	0.0171426
918.113	0.0172755
918.192	0.0172945
918.270	0.0173854
918.348	0.0172276
918.426	0.0174502
918.504	0.0175320
918.582	0.0175417
918.660	0.0174172
918.738	0.0173991
918.817	0.0173960
918.895	0.0174445
918.973	0.0173216
919.051	0.0172852
919.129	0.0171687
919.207	0.0172333
919.285	0.0171929
919.363	0.0171809
919.442	0.0169955
919.520	0.0168426
919.598	0.0170306
919.676	0.0169973
919.754	0.0170305
919.832	0.0170211
919.910	0.0169724
