06/01/2022	21:29:02	Ver.	4.1	UNKNOWN
Optical Delay	599.988409	Delta X		0.078125	Sweeps	1	Scan Rate	0/0
Coordinates	Axis 1	NaN	Axis 2	NaN	Axis 3	NaN	Axis 4	NaN	Axis 5	NaN	Axis 6	0.000000
TX Power	0.000000	RX Power	0.000000

599.988	0.0180836
600.067	0.0181131
600.145	0.0180813
600.223	0.0179931
600.301	0.0180904
600.379	0.0180625
600.457	0.0180463
600.535	0.0179464
600.613	0.0180391
600.692	0.0181551
600.770	0.0180846
600.848	0.0181145
600.926	0.0181752
601.004	0.0179440
601.082	0.0181670
601.160	0.0179912
601.238	0.0180494
601.317	0.0181647
601.395	0.0180569
601.473	0.0182007
601.551	0.0180457
601.629	0.0181145
601.707	0.0181891
601.785	0.0181011
601.863	0.0181252
601.942	0.0181583
602.020	0.0181409
602.098	0.0179210
602.176	0.0181353
602.254	0.0181615
602.332	0.0181914
602.410	0.0180895
602.488	0.0182215
602.567	0.0180106
602.645	0.0180232
602.723	0.0180981
602.801	0.0181116
602.879	0.0181481
602.957	0.0180887
603.035	0.0180741
603.113	0.0181862
603.192	0.0181242
603.270	0.0180581
603.348	0.0179556
603.426	0.0180993
603.504	0.0181430
603.582	0.0180355
603.660	0.0180444
603.738	0.0180665
603.817	0.0181124
603.895	0.0180722
603.973	0.0180946
604.051	0.0181458
604.129	0.0180824
604.207	0.0181004
604.285	0.0180463
604.363	0.0181117
604.442	0.0181437
604.520	0.0181153
604.598	0.0179968
604.676	0.0179884
604.754	0.0180843
604.832	0.0180330
604.910	0.0180740
604.988	0.0181293
605.067	0.0181296
605.145	0.0180151
605.223	0.0181410
605.301	0.0180679
605.379	0.0182065
605.457	0.0179044
605.535	0.0180965
605.613	0.0180796
605.692	0.0178631
605.770	0.0181199
605.848	0.0179814
605.926	0.0180304
606.004	0.0178992
606.082	0.0181186
606.160	0.0181394
606.238	0.0179881
606.317	0.0180468
606.395	0.0180495
606.473	0.0179985
606.551	0.0180322
606.629	0.0181223
606.707	0.0181043
606.785	0.0181936
606.863	0.0180640
606.942	0.0179698
607.020	0.0180667
607.098	0.0179827
607.176	0.0181310
607.254	0.0181445
607.332	0.0180969
607.410	0.0179874
607.488	0.0180695
607.567	0.0182056
607.645	0.0181049
607.723	0.0181477
607.801	0.0181520
607.879	0.0180086
607.957	0.0180396
608.035	0.0179559
608.113	0.0180843
608.192	0.0181776
608.270	0.0181995
608.348	0.0181175
608.426	0.0181405
608.504	0.0180894
608.582	0.0180780
608.660	0.0181277
608.738	0.0181223
608.817	0.0181432
608.895	0.0181785
608.973	0.0181426
609.051	0.0182407
609.129	0.0182002
609.207	0.0180146
609.285	0.0181667
609.363	0.0181319
609.442	0.0180697
609.520	0.0181622
609.598	0.0179705
609.676	0.0180811
609.754	0.0180679
609.832	0.0181466
609.910	0.0180140
609.988	0.0179491
610.067	0.0179677
610.145	0.0181096
610.223	0.0180865
610.301	0.0181703
610.379	0.0180349
610.457	0.0180665
610.535	0.0181573
610.613	0.0181624
610.692	0.0180526
610.770	0.0181046
610.848	0.0180901
610.926	0.0179952
611.004	0.0181270
611.082	0.0180634
611.160	0.0181313
611.238	0.0180016
611.317	0.0180717
611.395	0.0180940
611.473	0.0182146
611.551	0.0180862
611.629	0.0179716
611.707	0.0180159
611.785	0.0182368
611.863	0.0180408
611.942	0.0181490
612.020	0.0182404
612.098	0.0180677
612.176	0.0179658
612.254	0.0181258
612.332	0.0181627
612.410	0.0181724
612.488	0.0179929
612.567	0.0179949
612.645	0.0181180
612.723	0.0181310
612.801	0.0180188
612.879	0.0181123
612.957	0.0181389
613.035	0.0180280
613.113	0.0179707
613.192	0.0180739
613.270	0.0179771
613.348	0.0180681
613.426	0.0179809
613.504	0.0181947
613.582	0.0181620
613.660	0.0180360
613.738	0.0181337
613.817	0.0181064
613.895	0.0180043
613.973	0.0181284
614.051	0.0182533
614.129	0.0182031
614.207	0.0181216
614.285	0.0180408
614.363	0.0181140
614.442	0.0181776
614.520	0.0180669
614.598	0.0182040
614.676	0.0181585
614.754	0.0181993
614.832	0.0181788
614.910	0.0180905
614.988	0.0180766
615.067	0.0180425
615.145	0.0180775
615.223	0.0179905
615.301	0.0181437
615.379	0.0180840
615.457	0.0179535
615.535	0.0180595
615.613	0.0180562
615.692	0.0180119
615.770	0.0180711
615.848	0.0181343
615.926	0.0183447
616.004	0.0181581
616.082	0.0180234
616.160	0.0181649
616.238	0.0182265
616.317	0.0181789
616.395	0.0182350
616.473	0.0181384
616.551	0.0180714
616.629	0.0179746
616.707	0.0180903
616.785	0.0183092
616.863	0.0181476
616.942	0.0180470
617.020	0.0179345
617.098	0.0179356
617.176	0.0181011
617.254	0.0180643
617.332	0.0180693
617.410	0.0181372
617.488	0.0180477
617.567	0.0181320
617.645	0.0181517
617.723	0.0181870
617.801	0.0179374
617.879	0.0179510
617.957	0.0180574
618.035	0.0181203
618.113	0.0181775
618.192	0.0181055
618.270	0.0181416
618.348	0.0181252
618.426	0.0181085
618.504	0.0182427
618.582	0.0181229
618.660	0.0179727
618.738	0.0179877
618.817	0.0179384
618.895	0.0181399
618.973	0.0180706
619.051	0.0181179
619.129	0.0181282
619.207	0.0180850
619.285	0.0181243
619.363	0.0179832
619.442	0.0178786
619.520	0.0180408
619.598	0.0181190
619.676	0.0180367
619.754	0.0181509
619.832	0.0181235
619.910	0.0181508
619.988	0.0180287
620.067	0.0179668
620.145	0.0181924
620.223	0.0181083
620.301	0.0181823
620.379	0.0181154
620.457	0.0180630
620.535	0.0181609
620.613	0.0180830
620.692	0.0180732
620.770	0.0180354
620.848	0.0179243
620.926	0.0180882
621.004	0.0180445
621.082	0.0182255
621.160	0.0181390
621.238	0.0179550
621.317	0.0181012
621.395	0.0182416
621.473	0.0180354
621.551	0.0182058
621.629	0.0181542
621.707	0.0179561
621.785	0.0181168
621.863	0.0181752
621.942	0.0180367
622.020	0.0181842
622.098	0.0181751
622.176	0.0181172
622.254	0.0180012
622.332	0.0182104
622.410	0.0180489
622.488	0.0182243
622.567	0.0180655
622.645	0.0180676
622.723	0.0179822
622.801	0.0180334
622.879	0.0180975
622.957	0.0181068
623.035	0.0182301
623.113	0.0182658
623.192	0.0180497
623.270	0.0180193
623.348	0.0180668
623.426	0.0182461
623.504	0.0181412
623.582	0.0182183
623.660	0.0180847
623.738	0.0180527
623.817	0.0179528
623.895	0.0181044
623.973	0.0180879
624.051	0.0181592
624.129	0.0180791
624.207	0.0181063
624.285	0.0181924
624.363	0.0180224
624.442	0.0180038
624.520	0.0181168
624.598	0.0181809
624.676	0.0182265
624.754	0.0181178
624.832	0.0181407
624.910	0.0181660
624.988	0.0181699
625.067	0.0180284
625.145	0.0180824
625.223	0.0182172
625.301	0.0180875
625.379	0.0180528
625.457	0.0181343
625.535	0.0179993
625.613	0.0181181
625.692	0.0181828
625.770	0.0180265
625.848	0.0181707
625.926	0.0180185
626.004	0.0181662
626.082	0.0180229
626.160	0.0182249
626.238	0.0180737
626.317	0.0180648
626.395	0.0181248
626.473	0.0180114
626.551	0.0181085
626.629	0.0180845
626.707	0.0180330
626.785	0.0181535
626.863	0.0181352
626.942	0.0179836
627.020	0.0180748
627.098	0.0180991
627.176	0.0180799
627.254	0.0181662
627.332	0.0182347
627.410	0.0181416
627.488	0.0179996
627.567	0.0180662
627.645	0.0180554
627.723	0.0180978
627.801	0.0178784
627.879	0.0181192
627.957	0.0181730
628.035	0.0180038
628.113	0.0180938
628.192	0.0181458
628.270	0.0181450
628.348	0.0180019
628.426	0.0180952
628.504	0.0180669
628.582	0.0180701
628.660	0.0180521
628.738	0.0181850
628.817	0.0180773
628.895	0.0180069
628.973	0.0181631
629.051	0.0182911
629.129	0.0181511
629.207	0.0182903
629.285	0.0180415
629.363	0.0179494
629.442	0.0181156
629.520	0.0181418
629.598	0.0181688
629.676	0.0181724
629.754	0.0181098
629.832	0.0180502
629.910	0.0181315
629.988	0.0180889
630.067	0.0180180
630.145	0.0180835
630.223	0.0179726
630.301	0.0181474
630.379	0.0181268
630.457	0.0180366
630.535	0.0180491
630.613	0.0180415
630.692	0.0180022
630.770	0.0180497
630.848	0.0181132
630.926	0.0181328
631.004	0.0180722
631.082	0.0182693
631.160	0.0181228
631.238	0.0180416
631.317	0.0180609
631.395	0.0181441
631.473	0.0181161
631.551	0.0181117
631.629	0.0180615
631.707	0.0180022
631.785	0.0180851
631.863	0.0179531
631.942	0.0180496
632.020	0.0180380
632.098	0.0180040
632.176	0.0180679
632.254	0.0181371
632.332	0.0181077
632.410	0.0180430
632.488	0.0180806
632.567	0.0180817
632.645	0.0180709
632.723	0.0180899
632.801	0.0180427
632.879	0.0180636
632.957	0.0180880
633.035	0.0179866
633.113	0.0180315
633.192	0.0180372
633.270	0.0181232
633.348	0.0180858
633.426	0.0180952
633.504	0.0182850
633.582	0.0181965
633.660	0.0179874
633.738	0.0179827
633.817	0.0180733
633.895	0.0181125
633.973	0.0180447
634.051	0.0181218
634.129	0.0180166
634.207	0.0181750
634.285	0.0180609
634.363	0.0180542
634.442	0.0181247
634.520	0.0180506
634.598	0.0180966
634.676	0.0181435
634.754	0.0179887
634.832	0.0181550
634.910	0.0181853
634.988	0.0181876
635.067	0.0180325
635.145	0.0179510
635.223	0.0179541
635.301	0.0181708
635.379	0.0181812
635.457	0.0181332
635.535	0.0180376
635.613	0.0181547
635.692	0.0180916
635.770	0.0179987
635.848	0.0181318
635.926	0.0180412
636.004	0.0181810
636.082	0.0181908
636.160	0.0180706
636.238	0.0180151
636.317	0.0180439
636.395	0.0180247
636.473	0.0180450
636.551	0.0180541
636.629	0.0179585
636.707	0.0180152
636.785	0.0181404
636.863	0.0181147
636.942	0.0179971
637.020	0.0180738
637.098	0.0180493
637.176	0.0181366
637.254	0.0180796
637.332	0.0180943
637.410	0.0180806
637.488	0.0180782
637.567	0.0179411
637.645	0.0180390
637.723	0.0180688
637.801	0.0180190
637.879	0.0180484
637.957	0.0181137
638.035	0.0180572
638.113	0.0180971
638.192	0.0180959
638.270	0.0180920
638.348	0.0181642
638.426	0.0181329
638.504	0.0180754
638.582	0.0180643
638.660	0.0181727
638.738	0.0180964
638.817	0.0179670
638.895	0.0180354
638.973	0.0179865
639.051	0.0179993
639.129	0.0180903
639.207	0.0181063
639.285	0.0181039
639.363	0.0180118
639.442	0.0180627
639.520	0.0180508
639.598	0.0179706
639.676	0.0180868
639.754	0.0180662
639.832	0.0180973
639.910	0.0180248
639.988	0.0180235
640.067	0.0180997
640.145	0.0181164
640.223	0.0180856
640.301	0.0181321
640.379	0.0181367
640.457	0.0181034
640.535	0.0180582
640.613	0.0181973
640.692	0.0180645
640.770	0.0180706
640.848	0.0180180
640.926	0.0181708
641.004	0.0180634
641.082	0.0181645
641.160	0.0180724
641.238	0.0181055
641.317	0.0180635
641.395	0.0181519
641.473	0.0182020
641.551	0.0180910
641.629	0.0180160
641.707	0.0180474
641.785	0.0180273
641.863	0.0179462
641.942	0.0180161
642.020	0.0181737
642.098	0.0181884
642.176	0.0180662
642.254	0.0180778
642.332	0.0181135
642.410	0.0180805
642.488	0.0179719
642.567	0.0180669
642.645	0.0179749
642.723	0.0181136
642.801	0.0182372
642.879	0.0181491
642.957	0.0179137
643.035	0.0180371
643.113	0.0180895
643.192	0.0181913
643.270	0.0181383
643.348	0.0179455
643.426	0.0180190
643.504	0.0181967
643.582	0.0181350
643.660	0.0180015
643.738	0.0181946
643.817	0.0181293
643.895	0.0180473
643.973	0.0180653
644.051	0.0181096
644.129	0.0180808
644.207	0.0180283
644.285	0.0180343
644.363	0.0181490
644.442	0.0181258
644.520	0.0179669
644.598	0.0180295
644.676	0.0179744
644.754	0.0181290
644.832	0.0180690
644.910	0.0180170
644.988	0.0180557
645.067	0.0181032
645.145	0.0180022
645.223	0.0180294
645.301	0.0180357
645.379	0.0181766
645.457	0.0181704
645.535	0.0180132
645.613	0.0180674
645.692	0.0181298
645.770	0.0179972
645.848	0.0181703
645.926	0.0179748
646.004	0.0180458
646.082	0.0180644
646.160	0.0181432
646.238	0.0180554
646.317	0.0180192
646.395	0.0180408
646.473	0.0180280
646.551	0.0180869
646.629	0.0180835
646.707	0.0180210
646.785	0.0180604
646.863	0.0179535
646.942	0.0180674
647.020	0.0181351
647.098	0.0181295
647.176	0.0181844
647.254	0.0179902
647.332	0.0181015
647.410	0.0181294
647.488	0.0180630
647.567	0.0181404
647.645	0.0181933
647.723	0.0180498
647.801	0.0181094
647.879	0.0180933
647.957	0.0179692
648.035	0.0180674
648.113	0.0180408
648.192	0.0181837
648.270	0.0181873
648.348	0.0181566
648.426	0.0181563
648.504	0.0181425
648.582	0.0180833
648.660	0.0181297
648.738	0.0179063
648.817	0.0180831
648.895	0.0181047
648.973	0.0180837
649.051	0.0180297
649.129	0.0181268
649.207	0.0181511
649.285	0.0179662
649.363	0.0181062
649.442	0.0180312
649.520	0.0180045
649.598	0.0180821
649.676	0.0181840
649.754	0.0181038
649.832	0.0180379
649.910	0.0180404
649.988	0.0180659
650.067	0.0181464
650.145	0.0180888
650.223	0.0179530
650.301	0.0180398
650.379	0.0181555
650.457	0.0180452
650.535	0.0181335
650.613	0.0179288
650.692	0.0180029
650.770	0.0181889
650.848	0.0181338
650.926	0.0181334
651.004	0.0181952
651.082	0.0181280
651.160	0.0181242
651.238	0.0180841
651.317	0.0180938
651.395	0.0180661
651.473	0.0180117
651.551	0.0181334
651.629	0.0180132
651.707	0.0180399
651.785	0.0181382
651.863	0.0179855
651.942	0.0180369
652.020	0.0181220
652.098	0.0181696
652.176	0.0180569
652.254	0.0181337
652.332	0.0181165
652.410	0.0180507
652.488	0.0181165
652.567	0.0181266
652.645	0.0181263
652.723	0.0181483
652.801	0.0179159
652.879	0.0181515
652.957	0.0179898
653.035	0.0180643
653.113	0.0181104
653.192	0.0181355
653.270	0.0180131
653.348	0.0180976
653.426	0.0180839
653.504	0.0180971
653.582	0.0181247
653.660	0.0181020
653.738	0.0180547
653.817	0.0180865
653.895	0.0182043
653.973	0.0180406
654.051	0.0180840
654.129	0.0180647
654.207	0.0181068
654.285	0.0180888
654.363	0.0181590
654.442	0.0180940
654.520	0.0180030
654.598	0.0179573
654.676	0.0180631
654.754	0.0181638
654.832	0.0180952
654.910	0.0180602
654.988	0.0182994
655.067	0.0181164
655.145	0.0179659
655.223	0.0180645
655.301	0.0181207
655.379	0.0182418
655.457	0.0180720
655.535	0.0179898
655.613	0.0180502
655.692	0.0180292
655.770	0.0181915
655.848	0.0180609
655.926	0.0180238
656.004	0.0180512
656.082	0.0182103
656.160	0.0181712
656.238	0.0179806
656.317	0.0180809
656.395	0.0181028
656.473	0.0180343
656.551	0.0181258
656.629	0.0181747
656.707	0.0179533
656.785	0.0180946
656.863	0.0181304
656.942	0.0180785
657.020	0.0180943
657.098	0.0181156
657.176	0.0181194
657.254	0.0180704
657.332	0.0180081
657.410	0.0180416
657.488	0.0181220
657.567	0.0179436
657.645	0.0181055
657.723	0.0182625
657.801	0.0182256
657.879	0.0180843
657.957	0.0179903
658.035	0.0181960
658.113	0.0181977
658.192	0.0181503
658.270	0.0181871
658.348	0.0181038
658.426	0.0179984
658.504	0.0181466
658.582	0.0181996
658.660	0.0180850
658.738	0.0180130
658.817	0.0181674
658.895	0.0180591
658.973	0.0180141
659.051	0.0179758
659.129	0.0181072
659.207	0.0181811
659.285	0.0180870
659.363	0.0179934
659.442	0.0180143
659.520	0.0181205
659.598	0.0180109
659.676	0.0181895
659.754	0.0181384
659.832	0.0179972
659.910	0.0181525
659.988	0.0181422
660.067	0.0179882
660.145	0.0181456
660.223	0.0181268
660.301	0.0180388
660.379	0.0180412
660.457	0.0180572
660.535	0.0180994
660.613	0.0180926
660.692	0.0179978
660.770	0.0180148
660.848	0.0181421
660.926	0.0180367
661.004	0.0180949
661.082	0.0181277
661.160	0.0181151
661.238	0.0179989
661.317	0.0181001
661.395	0.0181487
661.473	0.0182008
661.551	0.0179108
661.629	0.0179982
661.707	0.0181155
661.785	0.0180022
661.863	0.0180435
661.942	0.0180272
662.020	0.0180992
662.098	0.0181396
662.176	0.0180869
662.254	0.0179152
662.332	0.0180412
662.410	0.0180839
662.488	0.0181490
662.567	0.0180215
662.645	0.0181516
662.723	0.0181374
662.801	0.0181145
662.879	0.0180797
662.957	0.0181478
663.035	0.0180437
663.113	0.0180651
663.192	0.0180853
663.270	0.0182096
663.348	0.0180399
663.426	0.0180968
663.504	0.0180563
663.582	0.0180606
663.660	0.0181699
663.738	0.0179700
663.817	0.0181573
663.895	0.0181953
663.973	0.0180872
664.051	0.0181342
664.129	0.0181055
664.207	0.0180489
664.285	0.0181146
664.363	0.0180497
664.442	0.0181949
664.520	0.0181618
664.598	0.0181116
664.676	0.0180480
664.754	0.0181297
664.832	0.0181413
664.910	0.0182277
664.988	0.0181532
665.067	0.0180384
665.145	0.0180822
665.223	0.0180972
665.301	0.0180032
665.379	0.0179932
665.457	0.0180996
665.535	0.0180789
665.613	0.0179916
665.692	0.0181291
665.770	0.0181575
665.848	0.0179764
665.926	0.0181393
666.004	0.0181107
666.082	0.0181721
666.160	0.0179787
666.238	0.0180823
666.317	0.0181183
666.395	0.0180508
666.473	0.0181575
666.551	0.0180186
666.629	0.0180482
666.707	0.0181631
666.785	0.0181120
666.863	0.0181072
666.942	0.0180460
667.020	0.0181913
667.098	0.0180170
667.176	0.0181506
667.254	0.0180894
667.332	0.0181004
667.410	0.0179666
667.488	0.0181589
667.567	0.0181025
667.645	0.0180103
667.723	0.0181658
667.801	0.0181731
667.879	0.0179756
667.957	0.0181626
668.035	0.0179237
668.113	0.0179930
668.192	0.0181416
668.270	0.0181351
668.348	0.0180366
668.426	0.0181033
668.504	0.0180558
668.582	0.0180028
668.660	0.0180447
668.738	0.0180635
668.817	0.0180151
668.895	0.0181322
668.973	0.0181774
669.051	0.0180023
669.129	0.0180888
669.207	0.0180039
669.285	0.0180744
669.363	0.0180181
669.442	0.0180250
669.520	0.0182056
669.598	0.0181068
669.676	0.0180648
669.754	0.0181156
669.832	0.0180875
669.910	0.0180167
669.988	0.0181036
670.067	0.0180437
670.145	0.0181151
670.223	0.0181419
670.301	0.0179504
670.379	0.0180997
670.457	0.0180566
670.535	0.0181915
670.613	0.0181991
670.692	0.0182163
670.770	0.0180273
670.848	0.0180438
670.926	0.0178857
671.004	0.0180373
671.082	0.0179613
671.160	0.0181229
671.238	0.0181205
671.317	0.0180042
671.395	0.0180548
671.473	0.0180668
671.551	0.0179724
671.629	0.0180643
671.707	0.0180859
671.785	0.0181198
671.863	0.0180709
671.942	0.0181110
672.020	0.0180933
672.098	0.0182252
672.176	0.0181730
672.254	0.0179400
672.332	0.0181364
672.410	0.0181015
672.488	0.0180756
672.567	0.0179530
672.645	0.0182090
672.723	0.0182305
672.801	0.0180778
672.879	0.0180517
672.957	0.0181200
673.035	0.0179959
673.113	0.0180758
673.192	0.0179841
673.270	0.0180486
673.348	0.0180585
673.426	0.0180931
673.504	0.0181261
673.582	0.0181699
673.660	0.0181091
673.738	0.0181526
673.817	0.0180196
673.895	0.0181817
673.973	0.0182314
674.051	0.0180778
674.129	0.0179709
674.207	0.0181004
674.285	0.0181895
674.363	0.0180679
674.442	0.0181425
674.520	0.0180670
674.598	0.0179986
674.676	0.0180991
674.754	0.0181548
674.832	0.0180686
674.910	0.0180330
674.988	0.0180904
675.067	0.0181000
675.145	0.0180997
675.223	0.0181474
675.301	0.0180325
675.379	0.0180054
675.457	0.0180642
675.535	0.0179863
675.613	0.0180822
675.692	0.0181846
675.770	0.0180281
675.848	0.0181330
675.926	0.0181435
676.004	0.0181846
676.082	0.0181026
676.160	0.0180873
676.238	0.0181623
676.317	0.0180389
676.395	0.0180494
676.473	0.0181860
676.551	0.0181204
676.629	0.0179292
676.707	0.0180550
676.785	0.0182636
676.863	0.0181913
676.942	0.0180414
677.020	0.0180690
677.098	0.0181161
677.176	0.0180290
677.254	0.0180762
677.332	0.0182109
677.410	0.0180977
677.488	0.0179775
677.567	0.0179592
677.645	0.0180033
677.723	0.0181341
677.801	0.0181209
677.879	0.0180431
677.957	0.0179848
678.035	0.0179842
678.113	0.0181312
678.192	0.0179387
678.270	0.0180622
678.348	0.0180379
678.426	0.0179874
678.504	0.0179760
678.582	0.0179263
678.660	0.0180859
678.738	0.0179626
678.817	0.0180233
678.895	0.0180669
678.973	0.0180656
679.051	0.0180750
679.129	0.0180620
679.207	0.0180050
679.285	0.0181561
679.363	0.0180616
679.442	0.0181666
679.520	0.0181401
679.598	0.0180526
679.676	0.0180399
679.754	0.0182020
679.832	0.0180930
679.910	0.0180576
679.988	0.0180939
680.067	0.0181297
680.145	0.0181781
680.223	0.0182207
680.301	0.0181274
680.379	0.0180649
680.457	0.0178837
680.535	0.0180078
680.613	0.0179696
680.692	0.0180318
680.770	0.0180819
680.848	0.0181411
680.926	0.0181146
681.004	0.0181612
681.082	0.0180254
681.160	0.0179954
681.238	0.0178685
681.317	0.0180173
681.395	0.0181191
681.473	0.0181243
681.551	0.0181158
681.629	0.0181356
681.707	0.0180345
681.785	0.0180227
681.863	0.0180634
681.942	0.0180319
682.020	0.0180479
682.098	0.0181438
682.176	0.0181911
682.254	0.0180439
682.332	0.0180772
682.410	0.0180768
682.488	0.0180548
682.567	0.0179369
682.645	0.0181329
682.723	0.0180110
682.801	0.0181086
682.879	0.0180865
682.957	0.0181593
683.035	0.0180254
683.113	0.0181814
683.192	0.0182148
683.270	0.0180267
683.348	0.0181319
683.426	0.0181453
683.504	0.0181687
683.582	0.0181018
683.660	0.0180816
683.738	0.0183161
683.817	0.0181694
683.895	0.0181163
683.973	0.0180663
684.051	0.0180042
684.129	0.0181113
684.207	0.0181721
684.285	0.0182977
684.363	0.0181717
684.442	0.0180556
684.520	0.0179606
684.598	0.0180981
684.676	0.0179684
684.754	0.0182088
684.832	0.0181512
684.910	0.0182709
684.988	0.0179931
685.067	0.0180128
685.145	0.0181655
685.223	0.0180729
685.301	0.0181137
685.379	0.0181648
685.457	0.0180445
685.535	0.0181413
685.613	0.0181528
685.692	0.0181252
685.770	0.0180634
685.848	0.0179995
685.926	0.0179601
686.004	0.0181013
686.082	0.0181121
686.160	0.0179817
686.238	0.0180422
686.317	0.0181203
686.395	0.0180840
686.473	0.0179895
686.551	0.0180527
686.629	0.0180971
686.707	0.0181361
686.785	0.0180105
686.863	0.0180796
686.942	0.0181451
687.020	0.0181973
687.098	0.0181110
687.176	0.0182075
687.254	0.0179908
687.332	0.0181115
687.410	0.0181155
687.488	0.0181103
687.567	0.0181370
687.645	0.0181300
687.723	0.0180183
687.801	0.0180557
687.879	0.0179795
687.957	0.0179880
688.035	0.0179543
688.113	0.0180621
688.192	0.0181361
688.270	0.0180116
688.348	0.0180093
688.426	0.0180898
688.504	0.0179782
688.582	0.0178775
688.660	0.0178645
688.738	0.0180663
688.817	0.0180279
688.895	0.0179969
688.973	0.0181056
689.051	0.0181081
689.129	0.0179717
689.207	0.0181148
689.285	0.0180686
689.363	0.0180448
689.442	0.0179799
689.520	0.0180938
689.598	0.0178915
689.676	0.0179099
689.754	0.0179829
689.832	0.0180440
689.910	0.0179536
689.988	0.0179485
690.067	0.0179262
690.145	0.0181633
690.223	0.0180648
690.301	0.0179859
690.379	0.0179813
690.457	0.0180635
690.535	0.0181006
690.613	0.0179826
690.692	0.0179697
690.770	0.0180563
690.848	0.0180548
690.926	0.0180954
691.004	0.0181458
691.082	0.0181006
691.160	0.0180450
691.238	0.0180990
691.317	0.0180731
691.395	0.0180058
691.473	0.0178774
691.551	0.0179104
691.629	0.0179604
691.707	0.0181075
691.785	0.0180581
691.863	0.0179587
691.942	0.0180660
692.020	0.0180667
692.098	0.0181059
692.176	0.0178716
692.254	0.0181332
692.332	0.0182084
692.410	0.0180967
692.488	0.0179841
692.567	0.0180894
692.645	0.0180177
692.723	0.0179739
692.801	0.0181111
692.879	0.0181326
692.957	0.0181071
693.035	0.0178767
693.113	0.0179817
693.192	0.0180178
693.270	0.0181042
693.348	0.0181858
693.426	0.0180529
693.504	0.0181425
693.582	0.0179707
693.660	0.0180318
693.738	0.0179094
693.817	0.0180182
693.895	0.0181253
693.973	0.0180624
694.051	0.0181193
694.129	0.0180926
694.207	0.0181708
694.285	0.0182582
694.363	0.0181086
694.442	0.0182172
694.520	0.0181233
694.598	0.0179786
694.676	0.0180141
694.754	0.0179048
694.832	0.0178668
694.910	0.0177622
694.988	0.0177508
695.067	0.0176686
695.145	0.0177836
695.223	0.0179243
695.301	0.0178917
695.379	0.0181455
695.457	0.0182244
695.535	0.0184722
695.613	0.0186212
695.692	0.0185908
695.770	0.0188656
695.848	0.0188663
695.926	0.0186222
696.004	0.0187035
696.082	0.0185178
696.160	0.0183959
696.238	0.0182751
696.317	0.0181200
696.395	0.0179806
696.473	0.0176888
696.551	0.0175679
696.629	0.0174612
696.707	0.0174818
696.785	0.0175224
696.863	0.0175488
696.942	0.0174866
697.020	0.0177098
697.098	0.0176884
697.176	0.0178857
697.254	0.0181381
697.332	0.0182591
697.410	0.0182474
697.488	0.0183502
697.567	0.0183189
697.645	0.0183573
697.723	0.0184197
697.801	0.0184280
697.879	0.0184499
697.957	0.0184343
698.035	0.0184184
698.113	0.0182825
698.192	0.0183497
698.270	0.0183449
698.348	0.0183591
698.426	0.0182785
698.504	0.0182477
698.582	0.0182745
698.660	0.0181091
698.738	0.0179708
698.817	0.0179644
698.895	0.0178096
698.973	0.0176859
699.051	0.0176756
699.129	0.0176704
699.207	0.0175319
699.285	0.0173682
699.363	0.0173467
699.442	0.0174284
699.520	0.0174008
699.598	0.0172993
699.676	0.0173923
699.754	0.0176239
699.832	0.0176453
699.910	0.0177575
699.988	0.0178954
700.067	0.0180276
700.145	0.0181668
700.223	0.0183299
700.301	0.0184892
700.379	0.0186353
700.457	0.0186497
700.535	0.0188164
700.613	0.0188521
700.692	0.0188346
700.770	0.0188515
700.848	0.0189220
700.926	0.0190507
701.004	0.0188847
701.082	0.0187469
701.160	0.0186880
701.238	0.0184338
701.317	0.0183911
701.395	0.0181511
701.473	0.0180045
701.551	0.0179012
701.629	0.0177418
701.707	0.0176801
701.785	0.0175399
701.863	0.0173775
701.942	0.0174950
702.020	0.0174208
702.098	0.0172831
702.176	0.0174218
702.254	0.0174029
702.332	0.0174112
702.410	0.0174138
702.488	0.0173772
702.567	0.0176012
702.645	0.0175232
702.723	0.0176841
702.801	0.0176929
702.879	0.0178342
702.957	0.0179001
703.035	0.0179940
703.113	0.0181374
703.192	0.0182060
703.270	0.0183069
703.348	0.0184091
703.426	0.0185508
703.504	0.0187321
703.582	0.0186716
703.660	0.0187672
703.738	0.0187672
703.817	0.0188003
703.895	0.0188420
703.973	0.0188477
704.051	0.0188021
704.129	0.0187656
704.207	0.0186156
704.285	0.0185989
704.363	0.0185844
704.442	0.0185130
704.520	0.0182413
704.598	0.0183298
704.676	0.0182098
704.754	0.0181134
704.832	0.0179598
704.910	0.0179974
704.988	0.0179156
705.067	0.0179172
705.145	0.0178394
705.223	0.0177203
705.301	0.0176496
705.379	0.0176859
705.457	0.0175299
705.535	0.0174987
705.613	0.0176060
705.692	0.0175070
705.770	0.0174848
705.848	0.0176064
705.926	0.0175036
706.004	0.0176733
706.082	0.0175145
706.160	0.0175974
706.238	0.0176200
706.317	0.0175559
706.395	0.0177120
706.473	0.0177621
706.551	0.0178001
706.629	0.0178103
706.707	0.0179726
706.785	0.0180243
706.863	0.0179421
706.942	0.0181483
707.020	0.0182887
707.098	0.0180933
707.176	0.0182529
707.254	0.0183463
707.332	0.0184067
707.410	0.0185735
707.488	0.0186024
707.567	0.0187730
707.645	0.0186617
707.723	0.0186987
707.801	0.0186917
707.879	0.0186016
707.957	0.0187035
708.035	0.0186014
708.113	0.0186327
708.192	0.0186758
708.270	0.0186347
708.348	0.0185307
708.426	0.0184679
708.504	0.0184105
708.582	0.0182117
708.660	0.0182171
708.738	0.0180860
708.817	0.0180442
708.895	0.0179642
708.973	0.0178613
709.051	0.0177309
709.129	0.0178042
709.207	0.0176742
709.285	0.0174846
709.363	0.0174519
709.442	0.0174780
709.520	0.0174147
709.598	0.0174950
709.676	0.0175943
709.754	0.0175006
709.832	0.0175060
709.910	0.0175475
709.988	0.0177216
710.067	0.0175654
710.145	0.0177369
710.223	0.0177226
710.301	0.0178056
710.379	0.0178603
710.457	0.0178629
710.535	0.0179710
710.613	0.0182166
710.692	0.0182240
710.770	0.0182461
710.848	0.0183984
710.926	0.0182359
711.004	0.0183621
711.082	0.0185471
711.160	0.0184188
711.238	0.0185266
711.317	0.0186533
711.395	0.0184908
711.473	0.0182356
711.551	0.0184776
711.629	0.0185728
711.707	0.0182949
711.785	0.0182513
711.863	0.0182812
711.942	0.0184310
712.020	0.0182545
712.098	0.0183015
712.176	0.0182090
712.254	0.0182126
712.332	0.0183955
712.410	0.0181743
712.488	0.0183128
712.567	0.0182989
712.645	0.0183077
712.723	0.0182857
712.801	0.0181059
712.879	0.0180903
712.957	0.0182375
713.035	0.0181020
713.113	0.0178634
713.192	0.0180311
713.270	0.0181339
713.348	0.0179810
713.426	0.0178906
713.504	0.0178403
713.582	0.0177039
713.660	0.0179503
713.738	0.0178587
713.817	0.0178484
713.895	0.0177748
713.973	0.0177508
714.051	0.0178365
714.129	0.0177703
714.207	0.0178232
714.285	0.0179894
714.363	0.0179263
714.442	0.0180835
714.520	0.0178606
714.598	0.0179406
714.676	0.0180140
714.754	0.0181553
714.832	0.0180973
714.910	0.0180926
714.988	0.0180016
715.067	0.0179613
715.145	0.0180632
715.223	0.0181335
715.301	0.0180872
715.379	0.0181271
715.457	0.0181368
715.535	0.0181517
715.613	0.0180034
715.692	0.0181569
715.770	0.0180556
715.848	0.0181280
715.926	0.0180720
716.004	0.0180067
716.082	0.0180527
716.160	0.0182101
716.238	0.0180714
716.317	0.0180077
716.395	0.0180695
716.473	0.0181603
716.551	0.0180994
716.629	0.0180505
716.707	0.0181794
716.785	0.0180943
716.863	0.0179778
716.942	0.0181787
717.020	0.0180508
717.098	0.0180447
717.176	0.0179322
717.254	0.0182001
717.332	0.0181165
717.410	0.0181549
717.488	0.0181658
717.567	0.0181696
717.645	0.0181213
717.723	0.0181605
717.801	0.0182667
717.879	0.0181940
717.957	0.0181386
718.035	0.0180893
718.113	0.0181358
718.192	0.0181729
718.270	0.0181275
718.348	0.0181239
718.426	0.0181039
718.504	0.0180899
718.582	0.0181071
718.660	0.0180554
718.738	0.0180169
718.817	0.0179675
718.895	0.0178867
718.973	0.0178747
719.051	0.0179380
719.129	0.0179720
719.207	0.0177487
719.285	0.0177564
719.363	0.0176991
719.442	0.0176802
719.520	0.0178843
719.598	0.0177138
719.676	0.0179134
719.754	0.0178365
719.832	0.0178336
719.910	0.0178106
719.988	0.0180079
720.067	0.0179177
720.145	0.0179952
720.223	0.0180087
720.301	0.0180189
720.379	0.0180959
720.457	0.0181548
720.535	0.0180428
720.613	0.0180962
720.692	0.0180640
720.770	0.0182407
720.848	0.0181885
720.926	0.0179675
721.004	0.0182746
721.082	0.0183472
721.160	0.0183227
721.238	0.0182439
721.317	0.0182922
721.395	0.0183965
721.473	0.0184047
721.551	0.0183218
721.629	0.0184016
721.707	0.0183480
721.785	0.0182402
721.863	0.0183168
721.942	0.0181898
722.020	0.0181741
722.098	0.0182825
722.176	0.0181743
722.254	0.0180016
722.332	0.0182207
722.410	0.0182095
722.488	0.0180727
722.567	0.0180964
722.645	0.0180904
722.723	0.0179974
722.801	0.0181008
722.879	0.0180293
722.957	0.0181410
723.035	0.0181186
723.113	0.0179236
723.192	0.0179210
723.270	0.0180282
723.348	0.0181078
723.426	0.0181447
723.504	0.0180247
723.582	0.0180034
723.660	0.0180058
723.738	0.0179429
723.817	0.0180780
723.895	0.0179375
723.973	0.0179375
724.051	0.0180090
724.129	0.0180943
724.207	0.0180609
724.285	0.0179962
724.363	0.0178168
724.442	0.0178745
724.520	0.0179793
724.598	0.0178916
724.676	0.0179468
724.754	0.0179579
724.832	0.0177747
724.910	0.0180480
724.988	0.0179938
725.067	0.0179640
725.145	0.0180460
725.223	0.0180002
725.301	0.0179913
725.379	0.0180802
725.457	0.0181385
725.535	0.0181050
725.613	0.0182980
725.692	0.0182487
725.770	0.0181875
725.848	0.0182766
725.926	0.0182632
726.004	0.0183138
726.082	0.0183437
726.160	0.0183097
726.238	0.0182078
726.317	0.0182800
726.395	0.0182708
726.473	0.0182815
726.551	0.0181193
726.629	0.0181618
726.707	0.0181068
726.785	0.0181821
726.863	0.0180532
726.942	0.0181484
727.020	0.0181430
727.098	0.0180035
727.176	0.0182571
727.254	0.0182101
727.332	0.0181029
727.410	0.0179988
727.488	0.0180521
727.567	0.0181851
727.645	0.0181030
727.723	0.0181087
727.801	0.0180442
727.879	0.0179543
727.957	0.0180394
728.035	0.0181256
728.113	0.0180304
728.192	0.0180856
728.270	0.0180359
728.348	0.0180198
728.426	0.0182623
728.504	0.0181384
728.582	0.0180234
728.660	0.0181776
728.738	0.0181370
728.817	0.0181399
728.895	0.0180114
728.973	0.0181222
729.051	0.0180090
729.129	0.0180288
729.207	0.0180450
729.285	0.0179629
729.363	0.0180345
729.442	0.0180782
729.520	0.0181084
729.598	0.0179704
729.676	0.0180808
729.754	0.0180189
729.832	0.0179603
729.910	0.0180859
729.988	0.0179903
730.067	0.0180069
730.145	0.0180469
730.223	0.0179881
730.301	0.0180051
730.379	0.0178954
730.457	0.0178520
730.535	0.0181084
730.613	0.0180775
730.692	0.0180349
730.770	0.0179803
730.848	0.0179889
730.926	0.0181611
731.004	0.0181351
731.082	0.0182509
731.160	0.0182734
731.238	0.0180955
731.317	0.0180273
731.395	0.0181410
731.473	0.0181268
731.551	0.0182320
731.629	0.0183005
731.707	0.0181065
731.785	0.0180631
731.863	0.0181087
731.942	0.0181052
732.020	0.0181101
732.098	0.0181097
732.176	0.0178919
732.254	0.0181609
732.332	0.0181480
732.410	0.0181715
732.488	0.0181731
732.567	0.0181447
732.645	0.0181892
732.723	0.0181187
732.801	0.0181233
732.879	0.0181864
732.957	0.0181199
733.035	0.0182399
733.113	0.0182143
733.192	0.0181713
733.270	0.0180778
733.348	0.0181695
733.426	0.0181282
733.504	0.0179314
733.582	0.0180745
733.660	0.0180273
733.738	0.0180353
733.817	0.0180705
733.895	0.0178860
733.973	0.0179659
734.051	0.0180419
734.129	0.0179105
734.207	0.0179581
734.285	0.0179713
734.363	0.0180189
734.442	0.0180811
734.520	0.0179082
734.598	0.0179731
734.676	0.0181088
734.754	0.0180154
734.832	0.0180802
734.910	0.0180499
734.988	0.0181134
735.067	0.0182075
735.145	0.0182285
735.223	0.0180904
735.301	0.0182139
735.379	0.0182077
735.457	0.0182446
735.535	0.0181656
735.613	0.0181826
735.692	0.0182103
735.770	0.0181525
735.848	0.0182919
735.926	0.0182858
736.004	0.0181771
736.082	0.0182902
736.160	0.0181667
736.238	0.0181226
736.317	0.0181556
736.395	0.0181478
736.473	0.0181750
736.551	0.0182038
736.629	0.0182130
736.707	0.0181886
736.785	0.0181011
736.863	0.0180028
736.942	0.0180901
737.020	0.0180373
737.098	0.0180016
737.176	0.0179392
737.254	0.0181347
737.332	0.0179657
737.410	0.0180977
737.488	0.0182446
737.567	0.0182132
737.645	0.0181400
737.723	0.0181767
737.801	0.0181426
737.879	0.0181145
737.957	0.0181889
738.035	0.0181877
738.113	0.0183020
738.192	0.0181231
738.270	0.0180714
738.348	0.0182270
738.426	0.0182359
738.504	0.0180676
738.582	0.0182509
738.660	0.0181008
738.738	0.0180351
738.817	0.0179549
738.895	0.0179412
738.973	0.0179913
739.051	0.0181514
739.129	0.0180643
739.207	0.0180884
739.285	0.0180621
739.363	0.0180852
739.442	0.0179842
739.520	0.0180258
739.598	0.0180885
739.676	0.0181230
739.754	0.0180151
739.832	0.0180195
739.910	0.0180425
739.988	0.0180389
740.067	0.0179453
740.145	0.0180637
740.223	0.0179910
740.301	0.0179156
740.379	0.0180183
740.457	0.0180562
740.535	0.0181717
740.613	0.0180338
740.692	0.0180779
740.770	0.0180518
740.848	0.0180599
740.926	0.0181436
741.004	0.0180164
741.082	0.0181436
741.160	0.0182094
741.238	0.0181467
741.317	0.0181051
741.395	0.0181400
741.473	0.0182047
741.551	0.0179994
741.629	0.0180932
741.707	0.0181239
741.785	0.0181261
741.863	0.0180618
741.942	0.0180283
742.020	0.0179854
742.098	0.0182026
742.176	0.0180976
742.254	0.0180610
742.332	0.0180795
742.410	0.0181459
742.488	0.0181649
742.567	0.0181576
742.645	0.0181786
742.723	0.0179875
742.801	0.0180759
742.879	0.0181796
742.957	0.0180896
743.035	0.0181377
743.113	0.0182226
743.192	0.0180794
743.270	0.0182294
743.348	0.0182285
743.426	0.0182599
743.504	0.0181408
743.582	0.0180724
743.660	0.0182240
743.738	0.0181578
743.817	0.0179691
743.895	0.0181551
743.973	0.0179877
744.051	0.0181323
744.129	0.0181576
744.207	0.0181128
744.285	0.0180054
744.363	0.0180891
744.442	0.0180212
744.520	0.0179777
744.598	0.0181833
744.676	0.0180618
744.754	0.0180758
744.832	0.0180249
744.910	0.0181914
744.988	0.0180667
745.067	0.0180265
745.145	0.0181418
745.223	0.0181823
745.301	0.0180643
745.379	0.0178380
745.457	0.0181070
745.535	0.0182107
745.613	0.0179982
745.692	0.0181453
745.770	0.0181049
745.848	0.0180361
745.926	0.0180466
746.004	0.0180141
746.082	0.0179604
746.160	0.0180415
746.238	0.0180060
746.317	0.0180362
746.395	0.0181540
746.473	0.0179144
746.551	0.0179581
746.629	0.0180119
746.707	0.0180575
746.785	0.0179539
746.863	0.0179359
746.942	0.0180076
747.020	0.0179155
747.098	0.0178943
747.176	0.0179533
747.254	0.0179903
747.332	0.0180535
747.410	0.0181435
747.488	0.0180876
747.567	0.0180580
747.645	0.0180611
747.723	0.0180515
747.801	0.0181845
747.879	0.0181557
747.957	0.0180571
748.035	0.0181361
748.113	0.0181129
748.192	0.0180887
748.270	0.0181281
748.348	0.0180273
748.426	0.0182384
748.504	0.0182735
748.582	0.0181596
748.660	0.0182287
748.738	0.0180423
748.817	0.0181375
748.895	0.0179861
748.973	0.0180810
749.051	0.0180160
749.129	0.0179832
749.207	0.0179506
749.285	0.0181295
749.363	0.0181541
749.442	0.0181079
749.520	0.0178954
749.598	0.0179732
749.676	0.0181503
749.754	0.0181126
749.832	0.0179868
749.910	0.0182761
749.988	0.0182510
750.067	0.0181924
750.145	0.0180694
750.223	0.0180907
750.301	0.0183025
750.379	0.0181795
750.457	0.0181433
750.535	0.0183392
750.613	0.0181943
750.692	0.0180960
750.770	0.0179697
750.848	0.0181115
750.926	0.0181374
751.004	0.0182115
751.082	0.0180232
751.160	0.0180992
751.238	0.0179723
751.317	0.0179963
751.395	0.0180019
751.473	0.0180162
751.551	0.0180316
751.629	0.0178784
751.707	0.0180208
751.785	0.0180545
751.863	0.0181944
751.942	0.0180055
752.020	0.0181873
752.098	0.0181078
752.176	0.0179057
752.254	0.0180480
752.332	0.0181533
752.410	0.0182430
752.488	0.0181107
752.567	0.0180767
752.645	0.0179280
752.723	0.0180155
752.801	0.0180412
752.879	0.0179620
752.957	0.0180397
753.035	0.0179659
753.113	0.0180140
753.192	0.0179646
753.270	0.0180169
753.348	0.0180533
753.426	0.0179112
753.504	0.0178748
753.582	0.0180382
753.660	0.0181042
753.738	0.0180373
753.817	0.0180521
753.895	0.0179600
753.973	0.0181071
754.051	0.0178881
754.129	0.0180915
754.207	0.0181307
754.285	0.0180752
754.363	0.0180160
754.442	0.0179501
754.520	0.0180671
754.598	0.0180344
754.676	0.0180222
754.754	0.0181104
754.832	0.0180116
754.910	0.0180661
754.988	0.0180397
755.067	0.0179873
755.145	0.0180944
755.223	0.0179751
755.301	0.0179256
755.379	0.0179876
755.457	0.0179948
755.535	0.0180178
755.613	0.0179593
755.692	0.0180064
755.770	0.0179902
755.848	0.0181417
755.926	0.0180038
756.004	0.0180872
756.082	0.0181844
756.160	0.0182610
756.238	0.0180605
756.317	0.0182156
756.395	0.0180869
756.473	0.0182220
756.551	0.0180597
756.629	0.0181290
756.707	0.0181332
756.785	0.0180944
756.863	0.0180143
756.942	0.0178446
757.020	0.0180987
757.098	0.0182445
757.176	0.0180634
757.254	0.0181641
757.332	0.0181896
757.410	0.0180637
757.488	0.0181198
757.567	0.0180762
757.645	0.0181176
757.723	0.0181316
757.801	0.0180962
757.879	0.0180978
757.957	0.0181896
758.035	0.0180482
758.113	0.0180165
758.192	0.0182423
758.270	0.0182268
758.348	0.0179641
758.426	0.0180247
758.504	0.0180331
758.582	0.0180601
758.660	0.0180473
758.738	0.0180589
758.817	0.0181570
758.895	0.0181182
758.973	0.0180904
759.051	0.0180146
759.129	0.0181476
759.207	0.0181325
759.285	0.0180588
759.363	0.0181381
759.442	0.0181507
759.520	0.0180240
759.598	0.0180783
759.676	0.0180958
759.754	0.0181924
759.832	0.0180722
759.910	0.0181195
759.988	0.0181089
760.067	0.0181503
760.145	0.0180191
760.223	0.0181125
760.301	0.0180936
760.379	0.0180558
760.457	0.0179534
760.535	0.0180289
760.613	0.0181461
760.692	0.0180890
760.770	0.0182600
760.848	0.0181064
760.926	0.0181556
761.004	0.0180273
761.082	0.0180817
761.160	0.0181856
761.238	0.0181338
761.317	0.0181557
761.395	0.0181509
761.473	0.0181050
761.551	0.0181840
761.629	0.0180283
761.707	0.0182657
761.785	0.0180837
761.863	0.0181651
761.942	0.0181908
762.020	0.0181053
762.098	0.0180938
762.176	0.0180769
762.254	0.0180695
762.332	0.0180637
762.410	0.0180394
762.488	0.0180793
762.567	0.0180431
762.645	0.0180187
762.723	0.0181078
762.801	0.0180658
762.879	0.0179353
762.957	0.0179797
763.035	0.0181003
763.113	0.0181131
763.192	0.0179269
763.270	0.0180675
763.348	0.0179449
763.426	0.0180531
763.504	0.0181701
763.582	0.0181084
763.660	0.0180598
763.738	0.0180694
763.817	0.0181266
763.895	0.0181816
763.973	0.0180424
764.051	0.0181010
764.129	0.0181824
764.207	0.0182135
764.285	0.0180990
764.363	0.0179384
764.442	0.0180278
764.520	0.0181136
764.598	0.0180728
764.676	0.0181827
764.754	0.0181392
764.832	0.0180858
764.910	0.0180202
764.988	0.0180428
765.067	0.0180473
765.145	0.0181418
765.223	0.0180172
765.301	0.0181104
765.379	0.0181379
765.457	0.0180716
765.535	0.0180043
765.613	0.0180272
765.692	0.0181425
765.770	0.0180560
765.848	0.0180118
765.926	0.0182235
766.004	0.0180271
766.082	0.0179874
766.160	0.0181678
766.238	0.0181258
766.317	0.0180077
766.395	0.0180561
766.473	0.0179668
766.551	0.0180087
766.629	0.0181682
766.707	0.0180759
766.785	0.0178874
766.863	0.0181674
766.942	0.0179676
767.020	0.0179693
767.098	0.0180537
767.176	0.0180466
767.254	0.0180949
767.332	0.0179041
767.410	0.0180579
767.488	0.0181158
767.567	0.0181387
767.645	0.0180315
767.723	0.0179076
767.801	0.0180094
767.879	0.0180508
767.957	0.0181709
768.035	0.0181889
768.113	0.0181429
768.192	0.0180367
768.270	0.0180461
768.348	0.0179327
768.426	0.0179469
768.504	0.0179411
768.582	0.0180658
768.660	0.0179916
768.738	0.0180104
768.817	0.0180819
768.895	0.0180538
768.973	0.0180299
769.051	0.0179629
769.129	0.0181367
769.207	0.0180557
769.285	0.0179778
769.363	0.0180882
769.442	0.0181355
769.520	0.0182460
769.598	0.0180129
769.676	0.0181293
769.754	0.0181550
769.832	0.0180388
769.910	0.0180456
769.988	0.0181304
770.067	0.0179662
770.145	0.0181129
770.223	0.0180292
770.301	0.0181351
770.379	0.0179630
770.457	0.0181041
770.535	0.0180350
770.613	0.0180222
770.692	0.0180357
770.770	0.0181380
770.848	0.0180054
770.926	0.0180509
771.004	0.0181037
771.082	0.0181070
771.160	0.0180058
771.238	0.0180896
771.317	0.0180248
771.395	0.0180389
771.473	0.0180666
771.551	0.0181467
771.629	0.0180350
771.707	0.0181391
771.785	0.0180209
771.863	0.0179378
771.942	0.0180511
772.020	0.0180202
772.098	0.0180843
772.176	0.0181837
772.254	0.0181623
772.332	0.0179295
772.410	0.0180512
772.488	0.0179648
772.567	0.0180708
772.645	0.0180473
772.723	0.0180850
772.801	0.0181110
772.879	0.0178887
772.957	0.0181149
773.035	0.0180089
773.113	0.0180136
773.192	0.0179567
773.270	0.0180845
773.348	0.0179697
773.426	0.0180048
773.504	0.0180595
773.582	0.0180666
773.660	0.0179575
773.738	0.0180818
773.817	0.0180681
773.895	0.0180692
773.973	0.0182838
774.051	0.0181371
774.129	0.0181783
774.207	0.0181409
774.285	0.0182475
774.363	0.0180280
774.442	0.0180103
774.520	0.0179977
774.598	0.0180351
774.676	0.0179931
774.754	0.0180889
774.832	0.0180232
774.910	0.0180119
774.988	0.0180041
775.067	0.0179927
775.145	0.0180347
775.223	0.0180289
775.301	0.0179083
775.379	0.0180033
775.457	0.0178473
775.535	0.0179053
775.613	0.0179789
775.692	0.0180217
775.770	0.0179510
775.848	0.0180154
775.926	0.0180772
776.004	0.0179397
776.082	0.0181315
776.160	0.0181651
776.238	0.0180441
776.317	0.0181306
776.395	0.0181345
776.473	0.0181382
776.551	0.0180146
776.629	0.0179716
776.707	0.0181097
776.785	0.0181098
776.863	0.0180305
776.942	0.0181940
777.020	0.0181631
777.098	0.0180923
777.176	0.0180678
777.254	0.0180574
777.332	0.0180236
777.410	0.0180714
777.488	0.0180153
777.567	0.0180913
777.645	0.0180592
777.723	0.0180031
777.801	0.0179741
777.879	0.0180231
777.957	0.0180168
778.035	0.0181900
778.113	0.0180427
778.192	0.0179629
778.270	0.0180856
778.348	0.0180922
778.426	0.0180463
778.504	0.0181554
778.582	0.0179649
778.660	0.0180722
778.738	0.0179591
778.817	0.0179841
778.895	0.0181339
778.973	0.0179915
779.051	0.0180628
779.129	0.0178885
779.207	0.0180055
779.285	0.0179787
779.363	0.0179845
779.442	0.0181023
779.520	0.0180286
779.598	0.0179788
779.676	0.0180462
779.754	0.0180309
779.832	0.0181284
779.910	0.0181173
779.988	0.0179485
780.067	0.0179852
780.145	0.0180298
780.223	0.0180745
780.301	0.0180656
780.379	0.0181127
780.457	0.0181757
780.535	0.0180846
780.613	0.0181052
780.692	0.0181456
780.770	0.0180453
780.848	0.0181463
780.926	0.0179365
781.004	0.0179862
781.082	0.0182030
781.160	0.0182730
781.238	0.0181429
781.317	0.0180311
781.395	0.0180701
781.473	0.0178972
781.551	0.0181111
781.629	0.0180302
781.707	0.0180880
781.785	0.0179457
781.863	0.0180476
781.942	0.0180358
782.020	0.0179530
782.098	0.0179906
782.176	0.0178910
782.254	0.0179900
782.332	0.0179954
782.410	0.0180609
782.488	0.0179195
782.567	0.0179710
782.645	0.0180365
782.723	0.0180191
782.801	0.0179910
782.879	0.0182532
782.957	0.0180054
783.035	0.0180110
783.113	0.0181105
783.192	0.0181232
783.270	0.0181054
783.348	0.0180083
783.426	0.0180706
783.504	0.0180915
783.582	0.0181277
783.660	0.0181232
783.738	0.0181443
783.817	0.0180841
783.895	0.0181483
783.973	0.0180231
784.051	0.0181259
784.129	0.0181401
784.207	0.0180557
784.285	0.0180216
784.363	0.0182249
784.442	0.0180529
784.520	0.0181128
784.598	0.0181543
784.676	0.0180177
784.754	0.0180740
784.832	0.0181353
784.910	0.0180738
784.988	0.0181518
785.067	0.0182240
785.145	0.0180814
785.223	0.0181641
785.301	0.0181721
785.379	0.0180670
785.457	0.0181237
785.535	0.0180437
785.613	0.0181888
785.692	0.0180939
785.770	0.0181985
785.848	0.0182098
785.926	0.0181799
786.004	0.0180437
786.082	0.0180613
786.160	0.0180500
786.238	0.0181398
786.317	0.0180858
786.395	0.0181145
786.473	0.0180622
786.551	0.0180988
786.629	0.0181125
786.707	0.0179882
786.785	0.0181207
786.863	0.0180975
786.942	0.0179188
787.020	0.0181312
787.098	0.0178938
787.176	0.0180317
787.254	0.0181778
787.332	0.0179897
787.410	0.0179922
787.488	0.0180536
787.567	0.0181245
787.645	0.0180746
787.723	0.0180766
787.801	0.0182261
787.879	0.0182212
787.957	0.0180322
788.035	0.0179575
788.113	0.0180458
788.192	0.0181824
788.270	0.0181323
788.348	0.0180017
788.426	0.0180983
788.504	0.0181095
788.582	0.0180466
788.660	0.0178819
788.738	0.0180973
788.817	0.0179890
788.895	0.0179557
788.973	0.0179845
789.051	0.0179987
789.129	0.0180134
789.207	0.0179416
789.285	0.0180497
789.363	0.0180778
789.442	0.0179716
789.520	0.0180468
789.598	0.0180762
789.676	0.0179813
789.754	0.0179723
789.832	0.0180782
789.910	0.0181544
789.988	0.0181890
790.067	0.0181242
790.145	0.0179738
790.223	0.0181134
790.301	0.0182305
790.379	0.0180053
790.457	0.0180706
790.535	0.0181200
790.613	0.0180339
790.692	0.0180865
790.770	0.0180386
790.848	0.0180859
790.926	0.0179994
791.004	0.0180148
791.082	0.0180071
791.160	0.0179723
791.238	0.0180989
791.317	0.0180743
791.395	0.0179609
791.473	0.0181041
791.551	0.0180988
791.629	0.0181571
791.707	0.0180698
791.785	0.0181045
791.863	0.0181728
791.942	0.0181980
792.020	0.0180747
792.098	0.0181425
792.176	0.0181305
792.254	0.0181732
792.332	0.0182180
792.410	0.0181077
792.488	0.0181560
792.567	0.0181928
792.645	0.0181936
792.723	0.0182306
792.801	0.0180704
792.879	0.0180601
792.957	0.0181116
793.035	0.0181317
793.113	0.0181534
793.192	0.0181947
793.270	0.0180589
793.348	0.0179467
793.426	0.0179633
793.504	0.0180188
793.582	0.0180308
793.660	0.0181001
793.738	0.0180971
793.817	0.0181309
793.895	0.0181032
793.973	0.0181398
794.051	0.0181269
794.129	0.0181927
794.207	0.0180715
794.285	0.0180508
794.363	0.0181091
794.442	0.0181813
794.520	0.0179884
794.598	0.0179970
794.676	0.0180807
794.754	0.0183210
794.832	0.0180972
794.910	0.0180640
794.988	0.0181978
795.067	0.0180341
795.145	0.0181672
795.223	0.0181676
795.301	0.0180105
795.379	0.0179706
795.457	0.0180332
795.535	0.0179106
795.613	0.0180978
795.692	0.0179180
795.770	0.0179651
795.848	0.0179559
795.926	0.0179065
796.004	0.0179594
796.082	0.0180093
796.160	0.0179616
796.238	0.0179575
796.317	0.0179531
796.395	0.0180291
796.473	0.0180049
796.551	0.0180698
796.629	0.0179745
796.707	0.0180815
796.785	0.0182046
796.863	0.0182089
796.942	0.0180562
797.020	0.0180486
797.098	0.0181273
797.176	0.0180936
797.254	0.0182016
797.332	0.0181109
797.410	0.0180934
797.488	0.0180978
797.567	0.0180415
797.645	0.0181577
797.723	0.0180489
797.801	0.0180136
797.879	0.0182764
797.957	0.0180898
798.035	0.0182310
798.113	0.0180812
798.192	0.0179179
798.270	0.0181093
798.348	0.0181110
798.426	0.0181303
798.504	0.0179700
798.582	0.0179367
798.660	0.0180311
798.738	0.0180592
798.817	0.0179085
798.895	0.0180039
798.973	0.0179788
799.051	0.0181480
799.129	0.0179311
799.207	0.0179894
799.285	0.0180035
799.363	0.0180097
799.442	0.0179299
799.520	0.0178123
799.598	0.0180399
799.676	0.0181556
799.754	0.0180711
799.832	0.0182270
799.910	0.0179800
799.988	0.0180763
800.067	0.0182409
800.145	0.0181028
800.223	0.0181313
800.301	0.0182121
800.379	0.0181670
800.457	0.0182741
800.535	0.0182431
800.613	0.0182769
800.692	0.0182559
800.770	0.0182686
800.848	0.0181420
800.926	0.0181783
801.004	0.0181343
801.082	0.0182453
801.160	0.0180377
801.238	0.0181623
801.317	0.0181169
801.395	0.0179649
801.473	0.0181352
801.551	0.0181459
801.629	0.0181285
801.707	0.0180244
801.785	0.0180907
801.863	0.0179604
801.942	0.0180252
802.020	0.0179295
802.098	0.0179105
802.176	0.0181198
802.254	0.0178949
802.332	0.0179931
802.410	0.0179711
802.488	0.0178902
802.567	0.0179530
802.645	0.0181152
802.723	0.0180438
802.801	0.0180820
802.879	0.0180887
802.957	0.0178168
803.035	0.0180689
803.113	0.0180094
803.192	0.0181596
803.270	0.0180206
803.348	0.0178492
803.426	0.0179560
803.504	0.0180851
803.582	0.0181752
803.660	0.0181217
803.738	0.0180681
803.817	0.0180157
803.895	0.0180804
803.973	0.0180706
804.051	0.0181861
804.129	0.0182272
804.207	0.0181369
804.285	0.0181871
804.363	0.0181528
804.442	0.0180438
804.520	0.0181454
804.598	0.0182250
804.676	0.0180991
804.754	0.0179959
804.832	0.0181135
804.910	0.0181617
804.988	0.0181221
805.067	0.0181754
805.145	0.0180262
805.223	0.0179771
805.301	0.0180872
805.379	0.0181319
805.457	0.0180214
805.535	0.0180315
805.613	0.0179950
805.692	0.0179275
805.770	0.0179708
805.848	0.0179367
805.926	0.0179070
806.004	0.0179939
806.082	0.0180643
806.160	0.0180118
806.238	0.0179252
806.317	0.0178353
806.395	0.0180190
806.473	0.0181216
806.551	0.0180363
806.629	0.0180251
806.707	0.0180214
806.785	0.0179343
806.863	0.0180070
806.942	0.0181430
807.020	0.0180464
807.098	0.0181162
807.176	0.0179939
807.254	0.0181168
807.332	0.0181178
807.410	0.0180537
807.488	0.0180633
807.567	0.0182030
807.645	0.0180956
807.723	0.0180301
807.801	0.0181653
807.879	0.0181779
807.957	0.0180044
808.035	0.0180357
808.113	0.0180476
808.192	0.0180735
808.270	0.0180775
808.348	0.0182700
808.426	0.0182685
808.504	0.0180983
808.582	0.0181245
808.660	0.0181324
808.738	0.0181311
808.817	0.0182613
808.895	0.0181194
808.973	0.0182345
809.051	0.0181525
809.129	0.0180616
809.207	0.0181817
809.285	0.0180424
809.363	0.0180260
809.442	0.0180970
809.520	0.0180756
809.598	0.0180174
809.676	0.0179182
809.754	0.0179779
809.832	0.0180244
809.910	0.0179850
809.988	0.0179451
810.067	0.0180659
810.145	0.0180833
810.223	0.0179797
810.301	0.0180923
810.379	0.0180365
810.457	0.0179567
810.535	0.0180177
810.613	0.0181156
810.692	0.0180516
810.770	0.0179138
810.848	0.0179128
810.926	0.0180505
811.004	0.0179609
811.082	0.0179646
811.160	0.0179388
811.238	0.0179958
811.317	0.0179778
811.395	0.0179527
811.473	0.0178985
811.551	0.0179823
811.629	0.0180624
811.707	0.0178757
811.785	0.0179270
811.863	0.0181214
811.942	0.0179157
812.020	0.0180544
812.098	0.0180084
812.176	0.0180752
812.254	0.0181122
812.332	0.0180627
812.410	0.0180030
812.488	0.0180107
812.567	0.0179646
812.645	0.0180258
812.723	0.0181066
812.801	0.0182729
812.879	0.0181477
812.957	0.0179697
813.035	0.0180168
813.113	0.0180231
813.192	0.0181524
813.270	0.0180460
813.348	0.0180588
813.426	0.0180719
813.504	0.0181618
813.582	0.0180799
813.660	0.0180281
813.738	0.0181100
813.817	0.0180828
813.895	0.0180142
813.973	0.0179968
814.051	0.0179964
814.129	0.0180102
814.207	0.0181095
814.285	0.0181176
814.363	0.0180030
814.442	0.0180682
814.520	0.0180696
814.598	0.0180514
814.676	0.0180628
814.754	0.0180964
814.832	0.0181190
814.910	0.0182030
814.988	0.0181071
815.067	0.0180949
815.145	0.0180251
815.223	0.0180703
815.301	0.0180322
815.379	0.0182298
815.457	0.0180048
815.535	0.0179833
815.613	0.0180437
815.692	0.0180396
815.770	0.0180689
815.848	0.0181209
815.926	0.0179692
816.004	0.0181232
816.082	0.0181472
816.160	0.0180095
816.238	0.0179160
816.317	0.0179961
816.395	0.0180386
816.473	0.0180317
816.551	0.0180959
816.629	0.0178996
816.707	0.0181590
816.785	0.0181525
816.863	0.0180974
816.942	0.0181004
817.020	0.0180335
817.098	0.0180393
817.176	0.0180820
817.254	0.0181234
817.332	0.0181332
817.410	0.0180858
817.488	0.0181062
817.567	0.0180789
817.645	0.0181126
817.723	0.0180911
817.801	0.0180032
817.879	0.0180781
817.957	0.0180865
818.035	0.0180173
818.113	0.0180780
818.192	0.0181145
818.270	0.0181293
818.348	0.0181303
818.426	0.0181077
818.504	0.0181053
818.582	0.0181165
818.660	0.0180050
818.738	0.0180850
818.817	0.0181650
818.895	0.0181179
818.973	0.0180566
819.051	0.0180573
819.129	0.0180997
819.207	0.0181857
819.285	0.0180513
819.363	0.0180738
819.442	0.0180952
819.520	0.0180427
819.598	0.0181634
819.676	0.0181367
819.754	0.0179979
819.832	0.0180811
819.910	0.0182468
819.988	0.0179554
820.067	0.0179662
820.145	0.0180072
820.223	0.0180185
820.301	0.0180859
820.379	0.0180090
820.457	0.0179323
820.535	0.0180824
820.613	0.0180152
820.692	0.0179324
820.770	0.0180532
820.848	0.0179953
820.926	0.0180343
821.004	0.0180904
821.082	0.0181254
821.160	0.0181605
821.238	0.0181409
821.317	0.0181522
821.395	0.0181960
821.473	0.0180070
821.551	0.0180848
821.629	0.0180962
821.707	0.0179705
821.785	0.0180947
821.863	0.0182060
821.942	0.0179766
822.020	0.0182012
822.098	0.0180138
822.176	0.0180752
822.254	0.0179564
822.332	0.0181287
822.410	0.0182648
822.488	0.0181252
822.567	0.0180269
822.645	0.0181236
822.723	0.0181174
822.801	0.0181982
822.879	0.0181058
822.957	0.0179794
823.035	0.0181147
823.113	0.0182182
823.192	0.0181182
823.270	0.0180332
823.348	0.0180445
823.426	0.0181146
823.504	0.0181750
823.582	0.0180971
823.660	0.0181371
823.738	0.0180312
823.817	0.0182098
823.895	0.0179855
823.973	0.0180064
824.051	0.0180148
824.129	0.0182170
824.207	0.0181684
824.285	0.0181393
824.363	0.0180833
824.442	0.0180112
824.520	0.0180805
824.598	0.0181421
824.676	0.0180824
824.754	0.0180826
824.832	0.0182175
824.910	0.0180492
824.988	0.0180807
825.067	0.0181779
825.145	0.0181798
825.223	0.0180868
825.301	0.0180909
825.379	0.0181402
825.457	0.0181802
825.535	0.0180536
825.613	0.0180267
825.692	0.0181343
825.770	0.0179448
825.848	0.0179745
825.926	0.0179306
826.004	0.0179507
826.082	0.0179987
826.160	0.0179969
826.238	0.0179745
826.317	0.0179716
826.395	0.0179439
826.473	0.0179897
826.551	0.0180387
826.629	0.0180561
826.707	0.0181045
826.785	0.0181271
826.863	0.0180481
826.942	0.0180078
827.020	0.0182366
827.098	0.0181640
827.176	0.0181463
827.254	0.0181860
827.332	0.0181988
827.410	0.0180481
827.488	0.0180051
827.567	0.0181937
827.645	0.0182356
827.723	0.0180109
827.801	0.0181197
827.879	0.0182230
827.957	0.0180952
828.035	0.0182005
828.113	0.0180018
828.192	0.0182007
828.270	0.0180863
828.348	0.0181647
828.426	0.0180118
828.504	0.0180767
828.582	0.0181099
828.660	0.0180211
828.738	0.0179788
828.817	0.0180849
828.895	0.0180961
828.973	0.0181357
829.051	0.0181850
829.129	0.0181350
829.207	0.0180541
829.285	0.0180199
829.363	0.0180360
829.442	0.0181200
829.520	0.0181868
829.598	0.0181601
829.676	0.0180659
829.754	0.0180940
829.832	0.0181161
829.910	0.0180271
829.988	0.0180935
830.067	0.0181000
830.145	0.0180513
830.223	0.0179911
830.301	0.0180170
830.379	0.0182395
830.457	0.0180473
830.535	0.0180843
830.613	0.0181519
830.692	0.0181116
830.770	0.0182423
830.848	0.0181445
830.926	0.0181638
831.004	0.0181607
831.082	0.0181190
831.160	0.0181244
831.238	0.0181507
831.317	0.0180031
831.395	0.0180202
831.473	0.0180068
831.551	0.0181368
831.629	0.0181310
831.707	0.0181277
831.785	0.0181086
831.863	0.0181239
831.942	0.0182459
832.020	0.0180731
832.098	0.0180025
832.176	0.0180908
832.254	0.0181209
832.332	0.0181470
832.410	0.0181071
832.488	0.0180336
832.567	0.0181059
832.645	0.0182128
832.723	0.0182439
832.801	0.0180532
832.879	0.0180049
832.957	0.0179736
833.035	0.0180994
833.113	0.0181229
833.192	0.0178899
833.270	0.0180303
833.348	0.0179990
833.426	0.0181210
833.504	0.0180994
833.582	0.0179790
833.660	0.0181034
833.738	0.0180779
833.817	0.0179553
833.895	0.0181512
833.973	0.0182650
834.051	0.0182438
834.129	0.0181583
834.207	0.0180937
834.285	0.0180513
834.363	0.0180318
834.442	0.0181477
834.520	0.0181199
834.598	0.0179734
834.676	0.0180092
834.754	0.0181194
834.832	0.0180099
834.910	0.0179973
834.988	0.0181720
835.067	0.0180756
835.145	0.0180160
835.223	0.0181539
835.301	0.0182063
835.379	0.0179762
835.457	0.0180440
835.535	0.0180534
835.613	0.0179405
835.692	0.0180397
835.770	0.0180795
835.848	0.0181079
835.926	0.0180508
836.004	0.0180739
836.082	0.0180331
836.160	0.0179591
836.238	0.0181050
836.317	0.0180772
836.395	0.0180973
836.473	0.0181072
836.551	0.0179173
836.629	0.0180275
836.707	0.0180781
836.785	0.0181773
836.863	0.0181159
836.942	0.0181565
837.020	0.0180766
837.098	0.0180083
837.176	0.0181273
837.254	0.0181204
837.332	0.0182533
837.410	0.0180297
837.488	0.0180869
837.567	0.0180915
837.645	0.0180408
837.723	0.0179855
837.801	0.0179800
837.879	0.0180923
837.957	0.0182067
838.035	0.0181475
838.113	0.0180756
838.192	0.0180083
838.270	0.0183067
838.348	0.0182106
838.426	0.0180813
838.504	0.0181286
838.582	0.0180772
838.660	0.0181693
838.738	0.0182688
838.817	0.0181612
838.895	0.0180504
838.973	0.0180167
839.051	0.0180232
839.129	0.0181232
839.207	0.0181111
839.285	0.0182072
839.363	0.0179867
839.442	0.0180920
839.520	0.0182071
839.598	0.0181247
839.676	0.0179058
839.754	0.0180968
839.832	0.0181203
839.910	0.0180885
839.988	0.0180784
840.067	0.0181753
840.145	0.0180401
840.223	0.0182087
840.301	0.0181269
840.379	0.0182420
840.457	0.0180411
840.535	0.0180897
840.613	0.0181502
840.692	0.0181485
840.770	0.0181823
840.848	0.0180456
840.926	0.0179762
841.004	0.0180455
841.082	0.0180600
841.160	0.0180065
841.238	0.0179960
841.317	0.0180315
841.395	0.0181564
841.473	0.0181821
841.551	0.0181478
841.629	0.0180584
841.707	0.0179922
841.785	0.0180801
841.863	0.0181402
841.942	0.0179870
842.020	0.0180662
842.098	0.0181672
842.176	0.0181956
842.254	0.0179716
842.332	0.0180961
842.410	0.0180621
842.488	0.0181228
842.567	0.0180547
842.645	0.0180756
842.723	0.0180667
842.801	0.0180811
842.879	0.0180527
842.957	0.0178905
843.035	0.0179733
843.113	0.0180194
843.192	0.0179866
843.270	0.0180300
843.348	0.0180347
843.426	0.0180883
843.504	0.0181178
843.582	0.0181095
843.660	0.0180389
843.738	0.0180475
843.817	0.0180340
843.895	0.0180500
843.973	0.0179874
844.051	0.0179877
844.129	0.0180650
844.207	0.0180878
844.285	0.0180641
844.363	0.0179860
844.442	0.0179700
844.520	0.0180346
844.598	0.0179769
844.676	0.0180018
844.754	0.0181450
844.832	0.0180596
844.910	0.0179875
844.988	0.0181792
845.067	0.0179759
845.145	0.0180556
845.223	0.0180536
845.301	0.0180171
845.379	0.0180968
845.457	0.0181405
845.535	0.0181660
845.613	0.0179836
845.692	0.0180750
845.770	0.0181525
845.848	0.0182730
845.926	0.0182901
846.004	0.0181504
846.082	0.0181470
846.160	0.0182948
846.238	0.0183067
846.317	0.0180457
846.395	0.0181571
846.473	0.0182471
846.551	0.0181429
846.629	0.0181785
846.707	0.0182344
846.785	0.0181375
846.863	0.0181001
846.942	0.0181908
847.020	0.0181377
847.098	0.0181725
847.176	0.0181107
847.254	0.0180009
847.332	0.0180226
847.410	0.0179971
847.488	0.0180717
847.567	0.0179629
847.645	0.0179118
847.723	0.0178906
847.801	0.0179389
847.879	0.0178907
847.957	0.0179029
848.035	0.0180795
848.113	0.0179510
848.192	0.0179220
848.270	0.0179601
848.348	0.0177962
848.426	0.0178751
848.504	0.0179533
848.582	0.0180685
848.660	0.0180144
848.738	0.0178822
848.817	0.0179372
848.895	0.0180096
848.973	0.0179472
849.051	0.0179092
849.129	0.0179639
849.207	0.0180283
849.285	0.0181018
849.363	0.0179939
849.442	0.0179634
849.520	0.0181493
849.598	0.0182042
849.676	0.0180761
849.754	0.0181696
849.832	0.0180660
849.910	0.0182640
849.988	0.0180381
850.067	0.0182667
850.145	0.0181150
850.223	0.0180951
850.301	0.0180062
850.379	0.0180653
850.457	0.0180490
850.535	0.0181992
850.613	0.0181390
850.692	0.0180889
850.770	0.0180022
850.848	0.0180370
850.926	0.0181358
851.004	0.0179897
851.082	0.0180148
851.160	0.0181482
851.238	0.0180736
851.317	0.0180314
851.395	0.0180033
851.473	0.0179411
851.551	0.0179853
851.629	0.0180527
851.707	0.0179894
851.785	0.0180014
851.863	0.0182323
851.942	0.0180655
852.020	0.0179848
852.098	0.0179354
852.176	0.0180362
852.254	0.0182224
852.332	0.0181501
852.410	0.0180610
852.488	0.0180772
852.567	0.0179900
852.645	0.0181184
852.723	0.0180915
852.801	0.0181213
852.879	0.0180687
852.957	0.0182213
853.035	0.0181347
853.113	0.0181853
853.192	0.0181084
853.270	0.0181262
853.348	0.0182077
853.426	0.0182732
853.504	0.0180639
853.582	0.0182793
853.660	0.0181786
853.738	0.0181036
853.817	0.0180400
853.895	0.0180629
853.973	0.0181744
854.051	0.0180317
854.129	0.0181615
854.207	0.0180899
854.285	0.0179420
854.363	0.0180425
854.442	0.0180427
854.520	0.0179928
854.598	0.0180819
854.676	0.0181926
854.754	0.0181381
854.832	0.0180432
854.910	0.0179670
854.988	0.0180623
855.067	0.0179953
855.145	0.0181351
855.223	0.0179405
855.301	0.0180854
855.379	0.0181180
855.457	0.0181471
855.535	0.0180997
855.613	0.0181863
855.692	0.0180836
855.770	0.0181921
855.848	0.0181897
855.926	0.0181445
856.004	0.0180094
856.082	0.0181326
856.160	0.0180649
856.238	0.0179706
856.317	0.0181636
856.395	0.0181491
856.473	0.0181042
856.551	0.0181837
856.629	0.0181519
856.707	0.0181384
856.785	0.0181068
856.863	0.0181074
856.942	0.0181447
857.020	0.0183060
857.098	0.0181257
857.176	0.0181952
857.254	0.0181900
857.332	0.0181540
857.410	0.0181609
857.488	0.0180607
857.567	0.0180862
857.645	0.0181100
857.723	0.0180536
857.801	0.0179920
857.879	0.0180322
857.957	0.0179269
858.035	0.0179478
858.113	0.0178934
858.192	0.0178300
858.270	0.0179785
858.348	0.0177792
858.426	0.0178606
858.504	0.0179283
858.582	0.0178688
858.660	0.0178219
858.738	0.0178068
858.817	0.0177592
858.895	0.0179609
858.973	0.0179840
859.051	0.0179296
859.129	0.0179517
859.207	0.0179291
859.285	0.0179931
859.363	0.0179480
859.442	0.0181028
859.520	0.0180096
859.598	0.0179442
859.676	0.0180437
859.754	0.0180818
859.832	0.0181502
859.910	0.0181509
859.988	0.0181779
860.067	0.0181083
860.145	0.0180663
860.223	0.0181406
860.301	0.0181727
860.379	0.0181293
860.457	0.0181123
860.535	0.0182355
860.613	0.0183433
860.692	0.0183095
860.770	0.0182238
860.848	0.0183360
860.926	0.0182674
861.004	0.0183037
861.082	0.0181945
861.160	0.0182230
861.238	0.0182576
861.317	0.0182568
861.395	0.0181795
861.473	0.0182919
861.551	0.0182209
861.629	0.0181613
861.707	0.0182932
861.785	0.0180673
861.863	0.0180192
861.942	0.0181247
862.020	0.0181168
862.098	0.0181066
862.176	0.0180557
862.254	0.0180492
862.332	0.0179700
862.410	0.0179272
862.488	0.0179440
862.567	0.0180923
862.645	0.0178149
862.723	0.0178384
862.801	0.0180643
862.879	0.0179439
862.957	0.0177750
863.035	0.0178698
863.113	0.0179099
863.192	0.0179423
863.270	0.0179501
863.348	0.0178684
863.426	0.0179227
863.504	0.0179518
863.582	0.0180197
863.660	0.0180659
863.738	0.0178794
863.817	0.0179471
863.895	0.0179285
863.973	0.0179230
864.051	0.0179942
864.129	0.0179631
864.207	0.0179517
864.285	0.0179831
864.363	0.0178906
864.442	0.0180524
864.520	0.0180376
864.598	0.0180336
864.676	0.0179095
864.754	0.0178854
864.832	0.0179736
864.910	0.0179707
864.988	0.0180483
865.067	0.0179655
865.145	0.0179398
865.223	0.0180888
865.301	0.0179709
865.379	0.0180252
865.457	0.0179671
865.535	0.0179543
865.613	0.0182107
865.692	0.0181386
865.770	0.0180647
865.848	0.0181293
865.926	0.0179476
866.004	0.0181763
866.082	0.0181034
866.160	0.0180864
866.238	0.0182562
866.317	0.0180598
866.395	0.0179992
866.473	0.0181373
866.551	0.0183195
866.629	0.0182506
866.707	0.0182356
866.785	0.0182556
866.863	0.0182857
866.942	0.0182528
867.020	0.0180558
867.098	0.0181800
867.176	0.0183095
867.254	0.0181291
867.332	0.0181770
867.410	0.0181297
867.488	0.0181936
867.567	0.0182758
867.645	0.0180998
867.723	0.0180629
867.801	0.0180057
867.879	0.0179885
867.957	0.0178799
868.035	0.0179855
868.113	0.0178601
868.192	0.0179035
868.270	0.0178435
868.348	0.0178693
868.426	0.0178006
868.504	0.0179313
868.582	0.0179272
868.660	0.0178661
868.738	0.0180020
868.817	0.0178433
868.895	0.0177581
868.973	0.0178981
869.051	0.0179293
869.129	0.0179185
869.207	0.0178690
869.285	0.0178522
869.363	0.0179436
869.442	0.0178452
869.520	0.0178050
869.598	0.0177921
869.676	0.0178975
869.754	0.0178144
869.832	0.0179513
869.910	0.0180061
869.988	0.0179295
870.067	0.0180064
870.145	0.0180428
870.223	0.0181453
870.301	0.0181779
870.379	0.0181289
870.457	0.0181139
870.535	0.0181125
870.613	0.0181462
870.692	0.0181199
870.770	0.0180944
870.848	0.0183386
870.926	0.0180084
871.004	0.0181059
871.082	0.0180535
871.160	0.0181663
871.238	0.0180795
871.317	0.0180814
871.395	0.0181113
871.473	0.0181261
871.551	0.0181213
871.629	0.0180537
871.707	0.0180176
871.785	0.0180923
871.863	0.0181409
871.942	0.0181644
872.020	0.0181583
872.098	0.0181729
872.176	0.0181639
872.254	0.0181618
872.332	0.0181425
872.410	0.0181886
872.488	0.0181215
872.567	0.0182640
872.645	0.0180370
872.723	0.0180733
872.801	0.0181916
872.879	0.0182051
872.957	0.0181521
873.035	0.0181837
873.113	0.0181454
873.192	0.0180554
873.270	0.0179980
873.348	0.0181313
873.426	0.0180159
873.504	0.0179803
873.582	0.0179241
873.660	0.0180280
873.738	0.0180593
873.817	0.0180498
873.895	0.0181009
873.973	0.0180064
874.051	0.0178780
874.129	0.0178842
874.207	0.0179872
874.285	0.0179552
874.363	0.0180396
874.442	0.0179318
874.520	0.0177999
874.598	0.0178592
874.676	0.0179535
874.754	0.0179485
874.832	0.0179766
874.910	0.0179671
874.988	0.0178194
875.067	0.0179516
875.145	0.0179054
875.223	0.0179372
875.301	0.0180342
875.379	0.0179913
875.457	0.0179942
875.535	0.0180591
875.613	0.0179464
875.692	0.0180608
875.770	0.0180508
875.848	0.0180438
875.926	0.0180018
876.004	0.0179935
876.082	0.0179961
876.160	0.0180112
876.238	0.0180190
876.317	0.0181103
876.395	0.0178903
876.473	0.0181061
876.551	0.0181567
876.629	0.0180726
876.707	0.0181355
876.785	0.0180621
876.863	0.0180776
876.942	0.0181459
877.020	0.0180756
877.098	0.0181667
877.176	0.0182481
877.254	0.0181732
877.332	0.0180638
877.410	0.0182167
877.488	0.0182733
877.567	0.0181560
877.645	0.0183208
877.723	0.0181565
877.801	0.0181944
877.879	0.0182687
877.957	0.0182378
878.035	0.0181367
878.113	0.0182169
878.192	0.0181052
878.270	0.0180852
878.348	0.0179945
878.426	0.0180935
878.504	0.0181074
878.582	0.0180169
878.660	0.0180216
878.738	0.0180944
878.817	0.0180655
878.895	0.0180830
878.973	0.0179626
879.051	0.0181863
879.129	0.0180845
879.207	0.0180053
879.285	0.0178954
879.363	0.0179802
879.442	0.0179618
879.520	0.0180724
879.598	0.0180978
879.676	0.0179850
879.754	0.0182099
879.832	0.0182265
879.910	0.0180428
879.988	0.0181143
880.067	0.0182193
880.145	0.0180913
880.223	0.0181074
880.301	0.0182498
880.379	0.0179956
880.457	0.0182517
880.535	0.0181996
880.613	0.0181534
880.692	0.0181298
880.770	0.0180447
880.848	0.0180413
880.926	0.0181386
881.004	0.0180181
881.082	0.0179852
881.160	0.0180766
881.238	0.0180872
881.317	0.0180083
881.395	0.0180032
881.473	0.0180354
881.551	0.0180781
881.629	0.0180325
881.707	0.0180134
881.785	0.0180399
881.863	0.0181001
881.942	0.0181536
882.020	0.0180644
882.098	0.0180354
882.176	0.0179483
882.254	0.0180751
882.332	0.0180862
882.410	0.0179988
882.488	0.0180638
882.567	0.0181898
882.645	0.0180009
882.723	0.0180094
882.801	0.0179903
882.879	0.0180052
882.957	0.0179500
883.035	0.0179645
883.113	0.0179950
883.192	0.0179778
883.270	0.0179272
883.348	0.0179250
883.426	0.0179986
883.504	0.0180096
883.582	0.0180521
883.660	0.0180303
883.738	0.0180555
883.817	0.0180872
883.895	0.0181075
883.973	0.0179973
884.051	0.0180023
884.129	0.0180610
884.207	0.0182415
884.285	0.0181635
884.363	0.0181283
884.442	0.0180962
884.520	0.0181940
884.598	0.0180016
884.676	0.0180639
884.754	0.0182368
884.832	0.0183187
884.910	0.0180843
884.988	0.0180724
885.067	0.0183215
885.145	0.0181666
885.223	0.0181576
885.301	0.0180200
885.379	0.0181657
885.457	0.0182581
885.535	0.0181665
885.613	0.0181879
885.692	0.0182155
885.770	0.0181749
885.848	0.0182085
885.926	0.0182150
886.004	0.0181663
886.082	0.0181300
886.160	0.0182629
886.238	0.0180531
886.317	0.0181252
886.395	0.0180386
886.473	0.0180878
886.551	0.0179336
886.629	0.0181802
886.707	0.0179732
886.785	0.0180386
886.863	0.0179727
886.942	0.0179055
887.020	0.0179694
887.098	0.0179858
887.176	0.0179197
887.254	0.0181656
887.332	0.0181645
887.410	0.0180750
887.488	0.0179564
887.567	0.0180996
887.645	0.0180681
887.723	0.0180688
887.801	0.0179202
887.879	0.0180559
887.957	0.0178113
888.035	0.0178810
888.113	0.0178625
888.192	0.0179896
888.270	0.0178989
888.348	0.0178860
888.426	0.0179563
888.504	0.0177859
888.582	0.0179548
888.660	0.0180947
888.738	0.0179716
888.817	0.0181772
888.895	0.0179568
888.973	0.0178839
889.051	0.0181068
889.129	0.0180791
889.207	0.0179472
889.285	0.0179613
889.363	0.0181149
889.442	0.0179346
889.520	0.0180740
889.598	0.0179807
889.676	0.0179436
889.754	0.0179717
889.832	0.0180196
889.910	0.0179960
889.988	0.0179596
890.067	0.0179298
890.145	0.0179359
890.223	0.0179807
890.301	0.0178990
890.379	0.0180963
890.457	0.0181120
890.535	0.0180103
890.613	0.0180521
890.692	0.0180135
890.770	0.0180912
890.848	0.0180508
890.926	0.0180231
891.004	0.0181687
891.082	0.0180625
891.160	0.0181209
891.238	0.0180975
891.317	0.0181136
891.395	0.0180013
891.473	0.0181667
891.551	0.0181242
891.629	0.0179557
891.707	0.0181046
891.785	0.0180345
891.863	0.0181191
891.942	0.0182628
892.020	0.0181009
892.098	0.0181043
892.176	0.0180409
892.254	0.0181825
892.332	0.0182030
892.410	0.0180952
892.488	0.0181405
892.567	0.0181604
892.645	0.0181828
892.723	0.0181174
892.801	0.0180611
892.879	0.0180991
892.957	0.0180902
893.035	0.0181053
893.113	0.0180764
893.192	0.0180325
893.270	0.0181403
893.348	0.0181261
893.426	0.0181422
893.504	0.0181114
893.582	0.0180755
893.660	0.0181190
893.738	0.0182087
893.817	0.0180853
893.895	0.0180704
893.973	0.0179843
894.051	0.0180945
894.129	0.0180650
894.207	0.0181143
894.285	0.0179276
894.363	0.0179017
894.442	0.0179960
894.520	0.0178779
894.598	0.0179088
894.676	0.0180814
894.754	0.0179361
894.832	0.0178419
894.910	0.0178812
894.988	0.0179002
895.067	0.0178413
895.145	0.0177022
895.223	0.0179238
895.301	0.0178309
895.379	0.0179446
895.457	0.0179770
895.535	0.0178269
895.613	0.0179904
895.692	0.0179586
895.770	0.0178909
895.848	0.0178384
895.926	0.0178623
896.004	0.0178201
896.082	0.0177502
896.160	0.0178621
896.238	0.0178262
896.317	0.0178500
896.395	0.0179171
896.473	0.0178795
896.551	0.0178141
896.629	0.0179417
896.707	0.0177972
896.785	0.0180278
896.863	0.0179942
896.942	0.0181081
897.020	0.0181765
897.098	0.0181178
897.176	0.0181850
897.254	0.0183115
897.332	0.0181480
897.410	0.0182564
897.488	0.0182113
897.567	0.0182626
897.645	0.0182565
897.723	0.0183273
897.801	0.0184293
897.879	0.0185478
897.957	0.0183917
898.035	0.0183701
898.113	0.0184595
898.192	0.0184891
898.270	0.0184399
898.348	0.0185228
898.426	0.0184503
898.504	0.0185105
898.582	0.0185439
898.660	0.0184933
898.738	0.0183842
898.817	0.0183207
898.895	0.0183514
898.973	0.0183380
899.051	0.0182364
899.129	0.0181957
899.207	0.0181455
899.285	0.0181243
899.363	0.0180078
899.442	0.0180730
899.520	0.0180575
899.598	0.0180135
899.676	0.0180164
899.754	0.0179670
899.832	0.0179150
899.910	0.0179063
899.988	0.0178666
900.067	0.0178835
900.145	0.0177500
900.223	0.0177702
900.301	0.0177593
900.379	0.0176668
900.457	0.0176942
900.535	0.0177964
900.613	0.0177926
900.692	0.0177125
900.770	0.0177633
900.848	0.0178027
900.926	0.0179278
901.004	0.0178398
901.082	0.0179287
901.160	0.0178577
901.238	0.0178454
901.317	0.0178596
901.395	0.0178654
901.473	0.0178686
901.551	0.0179187
901.629	0.0180553
901.707	0.0180137
901.785	0.0179198
901.863	0.0181418
901.942	0.0179559
902.020	0.0179716
902.098	0.0179853
902.176	0.0180102
902.254	0.0181194
902.332	0.0180018
902.410	0.0180917
902.488	0.0180582
902.567	0.0180747
902.645	0.0180308
902.723	0.0181024
902.801	0.0180634
902.879	0.0180860
902.957	0.0179207
903.035	0.0181024
903.113	0.0182442
903.192	0.0180254
903.270	0.0182037
903.348	0.0181837
903.426	0.0181837
903.504	0.0182758
903.582	0.0181132
903.660	0.0181792
903.738	0.0182277
903.817	0.0181600
903.895	0.0181214
903.973	0.0182534
904.051	0.0182740
904.129	0.0182809
904.207	0.0182073
904.285	0.0182571
904.363	0.0183164
904.442	0.0181366
904.520	0.0181977
904.598	0.0182365
904.676	0.0181648
904.754	0.0182253
904.832	0.0180118
904.910	0.0181024
904.988	0.0181644
905.067	0.0182820
905.145	0.0180825
905.223	0.0181107
905.301	0.0180887
905.379	0.0180834
905.457	0.0180856
905.535	0.0181358
905.613	0.0181351
905.692	0.0181644
905.770	0.0181518
905.848	0.0179979
905.926	0.0180589
906.004	0.0183134
906.082	0.0180979
906.160	0.0180038
906.238	0.0180493
906.317	0.0179272
906.395	0.0180672
906.473	0.0181746
906.551	0.0179240
906.629	0.0179526
906.707	0.0179179
906.785	0.0179761
906.863	0.0179838
906.942	0.0178725
907.020	0.0180757
907.098	0.0179510
907.176	0.0179842
907.254	0.0178767
907.332	0.0179606
907.410	0.0179562
907.488	0.0179855
907.567	0.0180000
907.645	0.0180053
907.723	0.0179724
907.801	0.0178399
907.879	0.0179202
907.957	0.0179131
908.035	0.0180131
908.113	0.0179366
908.192	0.0180893
908.270	0.0180536
908.348	0.0177892
908.426	0.0180099
908.504	0.0180009
908.582	0.0180294
908.660	0.0179687
908.738	0.0179935
908.817	0.0179301
908.895	0.0179450
908.973	0.0180289
909.051	0.0179126
909.129	0.0179804
909.207	0.0180684
909.285	0.0180307
909.363	0.0180470
909.442	0.0180952
909.520	0.0180550
909.598	0.0180968
909.676	0.0181942
909.754	0.0182018
909.832	0.0181149
909.910	0.0181116
909.988	0.0181924
910.067	0.0182925
910.145	0.0180544
910.223	0.0181480
910.301	0.0181685
910.379	0.0183030
910.457	0.0182295
910.535	0.0181084
910.613	0.0181767
910.692	0.0182222
910.770	0.0181920
910.848	0.0180255
910.926	0.0181541
911.004	0.0181810
911.082	0.0182297
911.160	0.0180729
911.238	0.0181142
911.317	0.0181561
911.395	0.0180475
911.473	0.0179576
911.551	0.0180785
911.629	0.0179071
911.707	0.0179674
911.785	0.0179793
911.863	0.0178245
911.942	0.0178048
912.020	0.0179788
912.098	0.0179893
912.176	0.0179900
912.254	0.0179241
912.332	0.0178997
912.410	0.0180289
912.488	0.0180537
912.567	0.0180086
912.645	0.0181184
912.723	0.0181261
912.801	0.0181751
912.879	0.0180445
912.957	0.0180415
913.035	0.0182037
913.113	0.0181268
913.192	0.0181673
913.270	0.0180502
913.348	0.0181068
913.426	0.0182550
913.504	0.0182598
913.582	0.0181284
913.660	0.0181348
913.738	0.0180052
913.817	0.0181377
913.895	0.0179893
913.973	0.0180779
914.051	0.0181001
914.129	0.0180392
914.207	0.0181251
914.285	0.0180157
914.363	0.0180402
914.442	0.0181069
914.520	0.0180196
914.598	0.0181129
914.676	0.0180572
914.754	0.0181312
914.832	0.0181155
914.910	0.0180765
914.988	0.0181693
915.067	0.0181517
915.145	0.0180927
915.223	0.0181863
915.301	0.0180861
915.379	0.0182097
915.457	0.0180133
915.535	0.0180930
915.613	0.0180077
915.692	0.0180719
915.770	0.0179517
915.848	0.0180721
915.926	0.0180888
916.004	0.0181488
916.082	0.0180451
916.160	0.0180990
916.238	0.0180331
916.317	0.0179146
916.395	0.0180675
916.473	0.0180627
916.551	0.0181788
916.629	0.0182233
916.707	0.0180072
916.785	0.0180175
916.863	0.0181969
916.942	0.0181021
917.020	0.0181376
917.098	0.0182054
917.176	0.0182195
917.254	0.0181373
917.332	0.0181929
917.410	0.0181594
917.488	0.0182455
917.567	0.0180997
917.645	0.0182020
917.723	0.0181258
917.801	0.0183638
917.879	0.0182445
917.957	0.0181945
918.035	0.0180048
918.113	0.0181243
918.192	0.0181510
918.270	0.0180952
918.348	0.0181356
918.426	0.0179507
918.504	0.0179198
918.582	0.0180892
918.660	0.0179591
918.738	0.0179916
918.817	0.0179173
918.895	0.0179755
918.973	0.0179105
919.051	0.0179789
919.129	0.0179507
919.207	0.0179935
919.285	0.0180523
919.363	0.0179163
919.442	0.0179552
919.520	0.0179520
919.598	0.0180627
919.676	0.0180172
919.754	0.0180470
919.832	0.0179943
919.910	0.0180469
