06/01/2022	21:42:47	Ver.	4.1	UNKNOWN
Optical Delay	599.988409	Delta X		0.078125	Sweeps	1	Scan Rate	0/0
Coordinates	Axis 1	NaN	Axis 2	NaN	Axis 3	NaN	Axis 4	NaN	Axis 5	NaN	Axis 6	0.000000
TX Power	0.000000	RX Power	0.000000

599.988	0.0175864
600.067	0.0176394
600.145	0.0176316
600.223	0.0176942
600.301	0.0175699
600.379	0.0176800
600.457	0.0175365
600.535	0.0176576
600.613	0.0175564
600.692	0.0177258
600.770	0.0176765
600.848	0.0176356
600.926	0.0176678
601.004	0.0176144
601.082	0.0176544
601.160	0.0176118
601.238	0.0176901
601.317	0.0175916
601.395	0.0176653
601.473	0.0176178
601.551	0.0177523
601.629	0.0176496
601.707	0.0176103
601.785	0.0176628
601.863	0.0175871
601.942	0.0176022
602.020	0.0175825
602.098	0.0177013
602.176	0.0175307
602.254	0.0174981
602.332	0.0175848
602.410	0.0175194
602.488	0.0175986
602.567	0.0176638
602.645	0.0176178
602.723	0.0176348
602.801	0.0176177
602.879	0.0175689
602.957	0.0177008
603.035	0.0177137
603.113	0.0175832
603.192	0.0175496
603.270	0.0177244
603.348	0.0176971
603.426	0.0175460
603.504	0.0176753
603.582	0.0175537
603.660	0.0175660
603.738	0.0176952
603.817	0.0175613
603.895	0.0175674
603.973	0.0175479
604.051	0.0176669
604.129	0.0175235
604.207	0.0175405
604.285	0.0174693
604.363	0.0174996
604.442	0.0174486
604.520	0.0175848
604.598	0.0176279
604.676	0.0176044
604.754	0.0176716
604.832	0.0175265
604.910	0.0174709
604.988	0.0174477
605.067	0.0177299
605.145	0.0176901
605.223	0.0177130
605.301	0.0176612
605.379	0.0174992
605.457	0.0175644
605.535	0.0176507
605.613	0.0176438
605.692	0.0176156
605.770	0.0176003
605.848	0.0175330
605.926	0.0176437
606.004	0.0176160
606.082	0.0175800
606.160	0.0175076
606.238	0.0176214
606.317	0.0175164
606.395	0.0175624
606.473	0.0176842
606.551	0.0174619
606.629	0.0175731
606.707	0.0176227
606.785	0.0176152
606.863	0.0176740
606.942	0.0175535
607.020	0.0175617
607.098	0.0175835
607.176	0.0175956
607.254	0.0175134
607.332	0.0175272
607.410	0.0176521
607.488	0.0175070
607.567	0.0175809
607.645	0.0175257
607.723	0.0175922
607.801	0.0175723
607.879	0.0175677
607.957	0.0175897
608.035	0.0175620
608.113	0.0175745
608.192	0.0176095
608.270	0.0175158
608.348	0.0176555
608.426	0.0175458
608.504	0.0175668
608.582	0.0175344
608.660	0.0176544
608.738	0.0175851
608.817	0.0175583
608.895	0.0175365
608.973	0.0176419
609.051	0.0176118
609.129	0.0176108
609.207	0.0176634
609.285	0.0176934
609.363	0.0177145
609.442	0.0175601
609.520	0.0175951
609.598	0.0175584
609.676	0.0175425
609.754	0.0177103
609.832	0.0175783
609.910	0.0175337
609.988	0.0176009
610.067	0.0175017
610.145	0.0174599
610.223	0.0176762
610.301	0.0175617
610.379	0.0175632
610.457	0.0175786
610.535	0.0175819
610.613	0.0177096
610.692	0.0176865
610.770	0.0175066
610.848	0.0175613
610.926	0.0176559
611.004	0.0176216
611.082	0.0176250
611.160	0.0176962
611.238	0.0175034
611.317	0.0174876
611.395	0.0175230
611.473	0.0176276
611.551	0.0174944
611.629	0.0177338
611.707	0.0176860
611.785	0.0176772
611.863	0.0176125
611.942	0.0175484
612.020	0.0176884
612.098	0.0175199
612.176	0.0174812
612.254	0.0175825
612.332	0.0175574
612.410	0.0175649
612.488	0.0176730
612.567	0.0175156
612.645	0.0175687
612.723	0.0176647
612.801	0.0176287
612.879	0.0174968
612.957	0.0175179
613.035	0.0176187
613.113	0.0175729
613.192	0.0175953
613.270	0.0176530
613.348	0.0175732
613.426	0.0175761
613.504	0.0176052
613.582	0.0176748
613.660	0.0175888
613.738	0.0175597
613.817	0.0175834
613.895	0.0176506
613.973	0.0175247
614.051	0.0175903
614.129	0.0174987
614.207	0.0175455
614.285	0.0174758
614.363	0.0175845
614.442	0.0177984
614.520	0.0175234
614.598	0.0175090
614.676	0.0175393
614.754	0.0176536
614.832	0.0176400
614.910	0.0177020
614.988	0.0176321
615.067	0.0176332
615.145	0.0176435
615.223	0.0175501
615.301	0.0175451
615.379	0.0175296
615.457	0.0176861
615.535	0.0175911
615.613	0.0175271
615.692	0.0176480
615.770	0.0175939
615.848	0.0176785
615.926	0.0176722
616.004	0.0175409
616.082	0.0175777
616.160	0.0175508
616.238	0.0175894
616.317	0.0177426
616.395	0.0178845
616.473	0.0176673
616.551	0.0176327
616.629	0.0176610
616.707	0.0176398
616.785	0.0177066
616.863	0.0177789
616.942	0.0175315
617.020	0.0176535
617.098	0.0177850
617.176	0.0177829
617.254	0.0176504
617.332	0.0176628
617.410	0.0174709
617.488	0.0176118
617.567	0.0177634
617.645	0.0177643
617.723	0.0178526
617.801	0.0176859
617.879	0.0175559
617.957	0.0177843
618.035	0.0177501
618.113	0.0175613
618.192	0.0176862
618.270	0.0176486
618.348	0.0176760
618.426	0.0175636
618.504	0.0176321
618.582	0.0175297
618.660	0.0177621
618.738	0.0175294
618.817	0.0174667
618.895	0.0175588
618.973	0.0175539
619.051	0.0175993
619.129	0.0175529
619.207	0.0175153
619.285	0.0176842
619.363	0.0176122
619.442	0.0174919
619.520	0.0175526
619.598	0.0177191
619.676	0.0175838
619.754	0.0175665
619.832	0.0175514
619.910	0.0176440
619.988	0.0175348
620.067	0.0177311
620.145	0.0177135
620.223	0.0175714
620.301	0.0176672
620.379	0.0177461
620.457	0.0177240
620.535	0.0176107
620.613	0.0176548
620.692	0.0177446
620.770	0.0177044
620.848	0.0177422
620.926	0.0175589
621.004	0.0175865
621.082	0.0177435
621.160	0.0177055
621.238	0.0176907
621.317	0.0177372
621.395	0.0176691
621.473	0.0177091
621.551	0.0177790
621.629	0.0175478
621.707	0.0176530
621.785	0.0177137
621.863	0.0175564
621.942	0.0177608
622.020	0.0176851
622.098	0.0175816
622.176	0.0177152
622.254	0.0176836
622.332	0.0176678
622.410	0.0174947
622.488	0.0175845
622.567	0.0176096
622.645	0.0176034
622.723	0.0176677
622.801	0.0175367
622.879	0.0176107
622.957	0.0176646
623.035	0.0175244
623.113	0.0175036
623.192	0.0176124
623.270	0.0174622
623.348	0.0174879
623.426	0.0176196
623.504	0.0175568
623.582	0.0174726
623.660	0.0176092
623.738	0.0175677
623.817	0.0175748
623.895	0.0173756
623.973	0.0174178
624.051	0.0174316
624.129	0.0174693
624.207	0.0176075
624.285	0.0175672
624.363	0.0174607
624.442	0.0174705
624.520	0.0175378
624.598	0.0175382
624.676	0.0175226
624.754	0.0176743
624.832	0.0176743
624.910	0.0175403
624.988	0.0177293
625.067	0.0176795
625.145	0.0176793
625.223	0.0176635
625.301	0.0174969
625.379	0.0176517
625.457	0.0176747
625.535	0.0176353
625.613	0.0175852
625.692	0.0175932
625.770	0.0177141
625.848	0.0175362
625.926	0.0176278
626.004	0.0177027
626.082	0.0175794
626.160	0.0175831
626.238	0.0176427
626.317	0.0176336
626.395	0.0175043
626.473	0.0176369
626.551	0.0176928
626.629	0.0176978
626.707	0.0176662
626.785	0.0176044
626.863	0.0176359
626.942	0.0178022
627.020	0.0176447
627.098	0.0177182
627.176	0.0176130
627.254	0.0176589
627.332	0.0177176
627.410	0.0175061
627.488	0.0175819
627.567	0.0175838
627.645	0.0176191
627.723	0.0176377
627.801	0.0175134
627.879	0.0174471
627.957	0.0175611
628.035	0.0175512
628.113	0.0174147
628.192	0.0176080
628.270	0.0174552
628.348	0.0174908
628.426	0.0174795
628.504	0.0175261
628.582	0.0173950
628.660	0.0176406
628.738	0.0175790
628.817	0.0174629
628.895	0.0174577
628.973	0.0173949
629.051	0.0174249
629.129	0.0175954
629.207	0.0175346
629.285	0.0174956
629.363	0.0175993
629.442	0.0175793
629.520	0.0176076
629.598	0.0176199
629.676	0.0177121
629.754	0.0177211
629.832	0.0175517
629.910	0.0176428
629.988	0.0176061
630.067	0.0177909
630.145	0.0178303
630.223	0.0177454
630.301	0.0175832
630.379	0.0176987
630.457	0.0176596
630.535	0.0178181
630.613	0.0177289
630.692	0.0176076
630.770	0.0176277
630.848	0.0177682
630.926	0.0176453
631.004	0.0176610
631.082	0.0176558
631.160	0.0176363
631.238	0.0176981
631.317	0.0177835
631.395	0.0175748
631.473	0.0176653
631.551	0.0177265
631.629	0.0175989
631.707	0.0175294
631.785	0.0176842
631.863	0.0177721
631.942	0.0175976
632.020	0.0175422
632.098	0.0177853
632.176	0.0176953
632.254	0.0175957
632.332	0.0176272
632.410	0.0175607
632.488	0.0176044
632.567	0.0174826
632.645	0.0175504
632.723	0.0177078
632.801	0.0175201
632.879	0.0175677
632.957	0.0175840
633.035	0.0174635
633.113	0.0175894
633.192	0.0175279
633.270	0.0176157
633.348	0.0175252
633.426	0.0175536
633.504	0.0177918
633.582	0.0175883
633.660	0.0176807
633.738	0.0175288
633.817	0.0174674
633.895	0.0175386
633.973	0.0175474
634.051	0.0176517
634.129	0.0176939
634.207	0.0175576
634.285	0.0175871
634.363	0.0176432
634.442	0.0175708
634.520	0.0176420
634.598	0.0177090
634.676	0.0175844
634.754	0.0175259
634.832	0.0175717
634.910	0.0175663
634.988	0.0176623
635.067	0.0176878
635.145	0.0174763
635.223	0.0175848
635.301	0.0174845
635.379	0.0176982
635.457	0.0177106
635.535	0.0176235
635.613	0.0176312
635.692	0.0174928
635.770	0.0177166
635.848	0.0177197
635.926	0.0175415
636.004	0.0176148
636.082	0.0176045
636.160	0.0175783
636.238	0.0176762
636.317	0.0176217
636.395	0.0175390
636.473	0.0176543
636.551	0.0176637
636.629	0.0176295
636.707	0.0176160
636.785	0.0176847
636.863	0.0176756
636.942	0.0176159
637.020	0.0176827
637.098	0.0174858
637.176	0.0175403
637.254	0.0176861
637.332	0.0175587
637.410	0.0174981
637.488	0.0175824
637.567	0.0176650
637.645	0.0175592
637.723	0.0174919
637.801	0.0175134
637.879	0.0175167
637.957	0.0174389
638.035	0.0176443
638.113	0.0175202
638.192	0.0175821
638.270	0.0175747
638.348	0.0175952
638.426	0.0175065
638.504	0.0175055
638.582	0.0173651
638.660	0.0174869
638.738	0.0175285
638.817	0.0175770
638.895	0.0176830
638.973	0.0175828
639.051	0.0174989
639.129	0.0174882
639.207	0.0176859
639.285	0.0175321
639.363	0.0175563
639.442	0.0175333
639.520	0.0176188
639.598	0.0176017
639.676	0.0175201
639.754	0.0175137
639.832	0.0176527
639.910	0.0175271
639.988	0.0176425
640.067	0.0175872
640.145	0.0176409
640.223	0.0176954
640.301	0.0175590
640.379	0.0176908
640.457	0.0176765
640.535	0.0175072
640.613	0.0175040
640.692	0.0175964
640.770	0.0175813
640.848	0.0174289
640.926	0.0175751
641.004	0.0175442
641.082	0.0177001
641.160	0.0176072
641.238	0.0174867
641.317	0.0176296
641.395	0.0176207
641.473	0.0174188
641.551	0.0176385
641.629	0.0175230
641.707	0.0175694
641.785	0.0175384
641.863	0.0176378
641.942	0.0176412
642.020	0.0175447
642.098	0.0175527
642.176	0.0175115
642.254	0.0176103
642.332	0.0175391
642.410	0.0174050
642.488	0.0175246
642.567	0.0176118
642.645	0.0175153
642.723	0.0176926
642.801	0.0175758
642.879	0.0175573
642.957	0.0176223
643.035	0.0175730
643.113	0.0175677
643.192	0.0175806
643.270	0.0176389
643.348	0.0176713
643.426	0.0175971
643.504	0.0175548
643.582	0.0175105
643.660	0.0176821
643.738	0.0175954
643.817	0.0176242
643.895	0.0175883
643.973	0.0175083
644.051	0.0174611
644.129	0.0174992
644.207	0.0177230
644.285	0.0175532
644.363	0.0173694
644.442	0.0176425
644.520	0.0176656
644.598	0.0175298
644.676	0.0175764
644.754	0.0175269
644.832	0.0174640
644.910	0.0175497
644.988	0.0176475
645.067	0.0176563
645.145	0.0176064
645.223	0.0175887
645.301	0.0177588
645.379	0.0174754
645.457	0.0174890
645.535	0.0175923
645.613	0.0175992
645.692	0.0175191
645.770	0.0176611
645.848	0.0176266
645.926	0.0175593
646.004	0.0175543
646.082	0.0175919
646.160	0.0175163
646.238	0.0176029
646.317	0.0175198
646.395	0.0175420
646.473	0.0177224
646.551	0.0175822
646.629	0.0175545
646.707	0.0175909
646.785	0.0176577
646.863	0.0174899
646.942	0.0176579
647.020	0.0176205
647.098	0.0176032
647.176	0.0176955
647.254	0.0175815
647.332	0.0177917
647.410	0.0176565
647.488	0.0176021
647.567	0.0175919
647.645	0.0176304
647.723	0.0177200
647.801	0.0177226
647.879	0.0175460
647.957	0.0176717
648.035	0.0176549
648.113	0.0177184
648.192	0.0176936
648.270	0.0176920
648.348	0.0175558
648.426	0.0175330
648.504	0.0176157
648.582	0.0176700
648.660	0.0176262
648.738	0.0176890
648.817	0.0177624
648.895	0.0176362
648.973	0.0174810
649.051	0.0174838
649.129	0.0175855
649.207	0.0176800
649.285	0.0175774
649.363	0.0176174
649.442	0.0176935
649.520	0.0175714
649.598	0.0176601
649.676	0.0174976
649.754	0.0175246
649.832	0.0176872
649.910	0.0175482
649.988	0.0175858
650.067	0.0175690
650.145	0.0176814
650.223	0.0175588
650.301	0.0175842
650.379	0.0175826
650.457	0.0176964
650.535	0.0175935
650.613	0.0175245
650.692	0.0177142
650.770	0.0177682
650.848	0.0176824
650.926	0.0174535
651.004	0.0175909
651.082	0.0175658
651.160	0.0175621
651.238	0.0175658
651.317	0.0175177
651.395	0.0176511
651.473	0.0176064
651.551	0.0176540
651.629	0.0176295
651.707	0.0175573
651.785	0.0175608
651.863	0.0177059
651.942	0.0176222
652.020	0.0176373
652.098	0.0175345
652.176	0.0176446
652.254	0.0175031
652.332	0.0175906
652.410	0.0175961
652.488	0.0176506
652.567	0.0176177
652.645	0.0175060
652.723	0.0175301
652.801	0.0175271
652.879	0.0176630
652.957	0.0176614
653.035	0.0175608
653.113	0.0175964
653.192	0.0175526
653.270	0.0176908
653.348	0.0177116
653.426	0.0176435
653.504	0.0175638
653.582	0.0176319
653.660	0.0175838
653.738	0.0176437
653.817	0.0175416
653.895	0.0175058
653.973	0.0176675
654.051	0.0175737
654.129	0.0175514
654.207	0.0177098
654.285	0.0175838
654.363	0.0176002
654.442	0.0175888
654.520	0.0174320
654.598	0.0176437
654.676	0.0177146
654.754	0.0176076
654.832	0.0175642
654.910	0.0176545
654.988	0.0176985
655.067	0.0177357
655.145	0.0176254
655.223	0.0176649
655.301	0.0177004
655.379	0.0175685
655.457	0.0176262
655.535	0.0176635
655.613	0.0174833
655.692	0.0175028
655.770	0.0176452
655.848	0.0177517
655.926	0.0175778
656.004	0.0175417
656.082	0.0176299
656.160	0.0177037
656.238	0.0175494
656.317	0.0176308
656.395	0.0175735
656.473	0.0175787
656.551	0.0176749
656.629	0.0176641
656.707	0.0175781
656.785	0.0175827
656.863	0.0176380
656.942	0.0175082
657.020	0.0175876
657.098	0.0177712
657.176	0.0176402
657.254	0.0176707
657.332	0.0175134
657.410	0.0175002
657.488	0.0176047
657.567	0.0177320
657.645	0.0176151
657.723	0.0176877
657.801	0.0176949
657.879	0.0176994
657.957	0.0176501
658.035	0.0175606
658.113	0.0176266
658.192	0.0176389
658.270	0.0176869
658.348	0.0174948
658.426	0.0177095
658.504	0.0177195
658.582	0.0175938
658.660	0.0174912
658.738	0.0175560
658.817	0.0176931
658.895	0.0176330
658.973	0.0176463
659.051	0.0176622
659.129	0.0176833
659.207	0.0175578
659.285	0.0176492
659.363	0.0174444
659.442	0.0175372
659.520	0.0175809
659.598	0.0176384
659.676	0.0175454
659.754	0.0177548
659.832	0.0176073
659.910	0.0175368
659.988	0.0175408
660.067	0.0176694
660.145	0.0176091
660.223	0.0175894
660.301	0.0176157
660.379	0.0175750
660.457	0.0177312
660.535	0.0175023
660.613	0.0175475
660.692	0.0175796
660.770	0.0175755
660.848	0.0176225
660.926	0.0175905
661.004	0.0177370
661.082	0.0175778
661.160	0.0176874
661.238	0.0176245
661.317	0.0176115
661.395	0.0177208
661.473	0.0176413
661.551	0.0174962
661.629	0.0174557
661.707	0.0176347
661.785	0.0176774
661.863	0.0175448
661.942	0.0176479
662.020	0.0175761
662.098	0.0176971
662.176	0.0176538
662.254	0.0176306
662.332	0.0175427
662.410	0.0176021
662.488	0.0176310
662.567	0.0177221
662.645	0.0176907
662.723	0.0176542
662.801	0.0177270
662.879	0.0175446
662.957	0.0175132
663.035	0.0178156
663.113	0.0177000
663.192	0.0175866
663.270	0.0176050
663.348	0.0175790
663.426	0.0176958
663.504	0.0177046
663.582	0.0175543
663.660	0.0176267
663.738	0.0175498
663.817	0.0175125
663.895	0.0175939
663.973	0.0177136
664.051	0.0175847
664.129	0.0176492
664.207	0.0175567
664.285	0.0176099
664.363	0.0176125
664.442	0.0175702
664.520	0.0177153
664.598	0.0175205
664.676	0.0175336
664.754	0.0175819
664.832	0.0177362
664.910	0.0176157
664.988	0.0175999
665.067	0.0174887
665.145	0.0175270
665.223	0.0176157
665.301	0.0175392
665.379	0.0176981
665.457	0.0176594
665.535	0.0174817
665.613	0.0175793
665.692	0.0176267
665.770	0.0176395
665.848	0.0175317
665.926	0.0176023
666.004	0.0175353
666.082	0.0175649
666.160	0.0175645
666.238	0.0175946
666.317	0.0176571
666.395	0.0176443
666.473	0.0175452
666.551	0.0175245
666.629	0.0176535
666.707	0.0174207
666.785	0.0175493
666.863	0.0176084
666.942	0.0176240
667.020	0.0176294
667.098	0.0175989
667.176	0.0175888
667.254	0.0176960
667.332	0.0175810
667.410	0.0176368
667.488	0.0175611
667.567	0.0175723
667.645	0.0175025
667.723	0.0176598
667.801	0.0176357
667.879	0.0175758
667.957	0.0175438
668.035	0.0175707
668.113	0.0173298
668.192	0.0175580
668.270	0.0175060
668.348	0.0174490
668.426	0.0175903
668.504	0.0177351
668.582	0.0175972
668.660	0.0175830
668.738	0.0176271
668.817	0.0177365
668.895	0.0175760
668.973	0.0176250
669.051	0.0177081
669.129	0.0176264
669.207	0.0176643
669.285	0.0176041
669.363	0.0176462
669.442	0.0176134
669.520	0.0176319
669.598	0.0175706
669.676	0.0176862
669.754	0.0176704
669.832	0.0176203
669.910	0.0177074
669.988	0.0176418
670.067	0.0174554
670.145	0.0175843
670.223	0.0174327
670.301	0.0174751
670.379	0.0176540
670.457	0.0176356
670.535	0.0176588
670.613	0.0176505
670.692	0.0176016
670.770	0.0176837
670.848	0.0178776
670.926	0.0177798
671.004	0.0176791
671.082	0.0176820
671.160	0.0177148
671.238	0.0177220
671.317	0.0177276
671.395	0.0177467
671.473	0.0175490
671.551	0.0175316
671.629	0.0176442
671.707	0.0176334
671.785	0.0176044
671.863	0.0175132
671.942	0.0176066
672.020	0.0175481
672.098	0.0174027
672.176	0.0173981
672.254	0.0174831
672.332	0.0176629
672.410	0.0176350
672.488	0.0177029
672.567	0.0176575
672.645	0.0177449
672.723	0.0176181
672.801	0.0177776
672.879	0.0177316
672.957	0.0177480
673.035	0.0177338
673.113	0.0176306
673.192	0.0177817
673.270	0.0177168
673.348	0.0176579
673.426	0.0176142
673.504	0.0175408
673.582	0.0174545
673.660	0.0174552
673.738	0.0174083
673.817	0.0174870
673.895	0.0175941
673.973	0.0173669
674.051	0.0174154
674.129	0.0174700
674.207	0.0175495
674.285	0.0174793
674.363	0.0176181
674.442	0.0177164
674.520	0.0178423
674.598	0.0177855
674.676	0.0176894
674.754	0.0175769
674.832	0.0176750
674.910	0.0177734
674.988	0.0177670
675.067	0.0176680
675.145	0.0176594
675.223	0.0177262
675.301	0.0175196
675.379	0.0174144
675.457	0.0174918
675.535	0.0173643
675.613	0.0176543
675.692	0.0174628
675.770	0.0174903
675.848	0.0175530
675.926	0.0175253
676.004	0.0174216
676.082	0.0175230
676.160	0.0176071
676.238	0.0177096
676.317	0.0176224
676.395	0.0176657
676.473	0.0177094
676.551	0.0176868
676.629	0.0177394
676.707	0.0177905
676.785	0.0176332
676.863	0.0177290
676.942	0.0177238
677.020	0.0177080
677.098	0.0177850
677.176	0.0178390
677.254	0.0178288
677.332	0.0176826
677.410	0.0176884
677.488	0.0176250
677.567	0.0177163
677.645	0.0176536
677.723	0.0175733
677.801	0.0174783
677.879	0.0174916
677.957	0.0175028
678.035	0.0174420
678.113	0.0174272
678.192	0.0173792
678.270	0.0174913
678.348	0.0176302
678.426	0.0176400
678.504	0.0178333
678.582	0.0176489
678.660	0.0176556
678.738	0.0177424
678.817	0.0176871
678.895	0.0177650
678.973	0.0176760
679.051	0.0176125
679.129	0.0175665
679.207	0.0173761
679.285	0.0174706
679.363	0.0174332
679.442	0.0173766
679.520	0.0173086
679.598	0.0174968
679.676	0.0174626
679.754	0.0173899
679.832	0.0175419
679.910	0.0174936
679.988	0.0175632
680.067	0.0176157
680.145	0.0175176
680.223	0.0177254
680.301	0.0178627
680.379	0.0178003
680.457	0.0179486
680.535	0.0179228
680.613	0.0178184
680.692	0.0178526
680.770	0.0176718
680.848	0.0177042
680.926	0.0177838
681.004	0.0176955
681.082	0.0177068
681.160	0.0176349
681.238	0.0175565
681.317	0.0176041
681.395	0.0176186
681.473	0.0177495
681.551	0.0178770
681.629	0.0177217
681.707	0.0177949
681.785	0.0177939
681.863	0.0177652
681.942	0.0176704
682.020	0.0177613
682.098	0.0176291
682.176	0.0176099
682.254	0.0173026
682.332	0.0173463
682.410	0.0172682
682.488	0.0172059
682.567	0.0172150
682.645	0.0169686
682.723	0.0170135
682.801	0.0171460
682.879	0.0172218
682.957	0.0173543
683.035	0.0176133
683.113	0.0174205
683.192	0.0175098
683.270	0.0177589
683.348	0.0176020
683.426	0.0175743
683.504	0.0177257
683.582	0.0174921
683.660	0.0173576
683.738	0.0173492
683.817	0.0173817
683.895	0.0174069
683.973	0.0171600
684.051	0.0172408
684.129	0.0175010
684.207	0.0173755
684.285	0.0175953
684.363	0.0178310
684.442	0.0178055
684.520	0.0182084
684.598	0.0182558
684.676	0.0184078
684.754	0.0184067
684.832	0.0186218
684.910	0.0185480
684.988	0.0184082
685.067	0.0182281
685.145	0.0182784
685.223	0.0182919
685.301	0.0181455
685.379	0.0178222
685.457	0.0176190
685.535	0.0173650
685.613	0.0173112
685.692	0.0171816
685.770	0.0171124
685.848	0.0172855
685.926	0.0171068
686.004	0.0173605
686.082	0.0173003
686.160	0.0171796
686.238	0.0174059
686.317	0.0172685
686.395	0.0172449
686.473	0.0173097
686.551	0.0172311
686.629	0.0173782
686.707	0.0173137
686.785	0.0174007
686.863	0.0173329
686.942	0.0174351
687.020	0.0176654
687.098	0.0178065
687.176	0.0177736
687.254	0.0177757
687.332	0.0177036
687.410	0.0177388
687.488	0.0176315
687.567	0.0176214
687.645	0.0176601
687.723	0.0174570
687.801	0.0174363
687.879	0.0174379
687.957	0.0174239
688.035	0.0174126
688.113	0.0174848
688.192	0.0178760
688.270	0.0180598
688.348	0.0181442
688.426	0.0183270
688.504	0.0184953
688.582	0.0187328
688.660	0.0186466
688.738	0.0187176
688.817	0.0185066
688.895	0.0181085
688.973	0.0179324
689.051	0.0177146
689.129	0.0175281
689.207	0.0171800
689.285	0.0169327
689.363	0.0168279
689.442	0.0167788
689.520	0.0168895
689.598	0.0169043
689.676	0.0170984
689.754	0.0175193
689.832	0.0175616
689.910	0.0178825
689.988	0.0182191
690.067	0.0184530
690.145	0.0184412
690.223	0.0182150
690.301	0.0181916
690.379	0.0179745
690.457	0.0176046
690.535	0.0170972
690.613	0.0168475
690.692	0.0165259
690.770	0.0162099
690.848	0.0160054
690.926	0.0157001
691.004	0.0154843
691.082	0.0154766
691.160	0.0156818
691.238	0.0157484
691.317	0.0158198
691.395	0.0160197
691.473	0.0164874
691.551	0.0168655
691.629	0.0173656
691.707	0.0177164
691.785	0.0182848
691.863	0.0187534
691.942	0.0191486
692.020	0.0196406
692.098	0.0199562
692.176	0.0202271
692.254	0.0203304
692.332	0.0205412
692.410	0.0203799
692.488	0.0202711
692.567	0.0202473
692.645	0.0202002
692.723	0.0199644
692.801	0.0197858
692.879	0.0195814
692.957	0.0194482
693.035	0.0194610
693.113	0.0193044
693.192	0.0191914
693.270	0.0189661
693.348	0.0188416
693.426	0.0185876
693.504	0.0183280
693.582	0.0179255
693.660	0.0175392
693.738	0.0170535
693.817	0.0164029
693.895	0.0159057
693.973	0.0151197
694.051	0.0145148
694.129	0.0139090
694.207	0.0132773
694.285	0.0126456
694.363	0.0119987
694.442	0.0115521
694.520	0.0113627
694.598	0.0109858
694.676	0.0110378
694.754	0.0111005
694.832	0.0114471
694.910	0.0117848
694.988	0.0124316
695.067	0.0130741
695.145	0.0138889
695.223	0.0146632
695.301	0.0155563
695.379	0.0165365
695.457	0.0174633
695.535	0.0184953
695.613	0.0193233
695.692	0.0204308
695.770	0.0212907
695.848	0.0220131
695.926	0.0228325
696.004	0.0237085
696.082	0.0243594
696.160	0.0248079
696.238	0.0254218
696.317	0.0256884
696.395	0.0259926
696.473	0.0265118
696.551	0.0267133
696.629	0.0268656
696.707	0.0270135
696.785	0.0267314
696.863	0.0265367
696.942	0.0262077
697.020	0.0255584
697.098	0.0248602
697.176	0.0239219
697.254	0.0226012
697.332	0.0211755
697.410	0.0196550
697.488	0.0178717
697.567	0.0159649
697.645	0.0140786
697.723	0.0123009
697.801	0.0104706
697.879	0.00892326
697.957	0.00763046
698.035	0.00667282
698.113	0.00591606
698.192	0.00543251
698.270	0.00484253
698.348	0.00480011
698.426	0.00496262
698.504	0.00521988
698.582	0.00554832
698.660	0.00604897
698.738	0.00655731
698.817	0.00723534
698.895	0.00835678
698.973	0.00945068
699.051	0.0105435
699.129	0.0119650
699.207	0.0133481
699.285	0.0147527
699.363	0.0162930
699.442	0.0177489
699.520	0.0192112
699.598	0.0206069
699.676	0.0217990
699.754	0.0228140
699.832	0.0237026
699.910	0.0244270
699.988	0.0250182
700.067	0.0253946
700.145	0.0256323
700.223	0.0258530
700.301	0.0260931
700.379	0.0263431
700.457	0.0265823
700.535	0.0267321
700.613	0.0268983
700.692	0.0268536
700.770	0.0269641
700.848	0.0270205
700.926	0.0271429
701.004	0.0271165
701.082	0.0270051
701.160	0.0269006
701.238	0.0268501
701.317	0.0265578
701.395	0.0262386
701.473	0.0259462
701.551	0.0256129
701.629	0.0248951
701.707	0.0241859
701.785	0.0232070
701.863	0.0221899
701.942	0.0209182
702.020	0.0195709
702.098	0.0176868
702.176	0.0157856
702.254	0.0137556
702.332	0.0114429
702.410	0.00918991
702.488	0.00706161
702.567	0.00497833
702.645	0.00295143
702.723	0.00106430
702.801	-0.000655746
702.879	-0.00194954
702.957	-0.00304268
703.035	-0.00360413
703.113	-0.00390068
703.192	-0.00368912
703.270	-0.00309845
703.348	-0.00195656
703.426	-0.000476456
703.504	0.00140381
703.582	0.00354752
703.660	0.00622818
703.738	0.00899193
703.817	0.0116032
703.895	0.0143533
703.973	0.0170906
704.051	0.0199551
704.129	0.0224450
704.207	0.0249055
704.285	0.0272710
704.363	0.0292173
704.442	0.0307603
704.520	0.0323395
704.598	0.0334093
704.676	0.0339645
704.754	0.0344345
704.832	0.0345122
704.910	0.0342404
704.988	0.0336453
705.067	0.0328231
705.145	0.0316321
705.223	0.0306181
705.301	0.0294649
705.379	0.0283141
705.457	0.0271159
705.535	0.0259915
705.613	0.0252185
705.692	0.0244317
705.770	0.0239995
705.848	0.0235306
705.926	0.0233939
706.004	0.0231863
706.082	0.0230282
706.160	0.0229321
706.238	0.0226840
706.317	0.0223373
706.395	0.0218773
706.473	0.0213076
706.551	0.0203777
706.629	0.0193839
706.707	0.0182304
706.785	0.0170213
706.863	0.0153455
706.942	0.0139339
707.020	0.0120158
707.098	0.0101936
707.176	0.00836815
707.254	0.00648872
707.332	0.00443336
707.410	0.00273888
707.488	0.00102379
707.567	-0.000505829
707.645	-0.00181953
707.723	-0.00280891
707.801	-0.00372414
707.879	-0.00416565
707.957	-0.00411118
708.035	-0.00378960
708.113	-0.00281067
708.192	-0.00149231
708.270	0.000237122
708.348	0.00242844
708.426	0.00485466
708.504	0.00753067
708.582	0.0103761
708.660	0.0136517
708.738	0.0166586
708.817	0.0197325
708.895	0.0226521
708.973	0.0255685
709.051	0.0280180
709.129	0.0302306
709.207	0.0323869
709.285	0.0339936
709.363	0.0351011
709.442	0.0359930
709.520	0.0363928
709.598	0.0363437
709.676	0.0362471
709.754	0.0356110
709.832	0.0345926
709.910	0.0334699
709.988	0.0323398
710.067	0.0309454
710.145	0.0293336
710.223	0.0278681
710.301	0.0267731
710.379	0.0256794
710.457	0.0243252
710.535	0.0234664
710.613	0.0227583
710.692	0.0218684
710.770	0.0214310
710.848	0.0205983
710.926	0.0199993
711.004	0.0194479
711.082	0.0187407
711.160	0.0180449
711.238	0.0172764
711.317	0.0167377
711.395	0.0156940
711.473	0.0148296
711.551	0.0138871
711.629	0.0130933
711.707	0.0123450
711.785	0.0114780
711.863	0.0106708
711.942	0.00996017
712.020	0.00921570
712.098	0.00860748
712.176	0.00790924
712.254	0.00737015
712.332	0.00675018
712.410	0.00635803
712.488	0.00598236
712.567	0.00579399
712.645	0.00573326
712.723	0.00583702
712.801	0.00603912
712.879	0.00647408
712.957	0.00712631
713.035	0.00798302
713.113	0.00880096
713.192	0.00969406
713.270	0.0109501
713.348	0.0123921
713.426	0.0136127
713.504	0.0148618
713.582	0.0162122
713.660	0.0174146
713.738	0.0183689
713.817	0.0193642
713.895	0.0201322
713.973	0.0212064
714.051	0.0217030
714.129	0.0222703
714.207	0.0228545
714.285	0.0234082
714.363	0.0238581
714.442	0.0243398
714.520	0.0247109
714.598	0.0251942
714.676	0.0257222
714.754	0.0258801
714.832	0.0261657
714.910	0.0264234
714.988	0.0265323
715.067	0.0266183
715.145	0.0263054
715.223	0.0262098
715.301	0.0257357
715.379	0.0253326
715.457	0.0247766
715.535	0.0242945
715.613	0.0236328
715.692	0.0230322
715.770	0.0223185
715.848	0.0216101
715.926	0.0207154
716.004	0.0200300
716.082	0.0191090
716.160	0.0184352
716.238	0.0176565
716.317	0.0169949
716.395	0.0163688
716.473	0.0158523
716.551	0.0154297
716.629	0.0148631
716.707	0.0145676
716.785	0.0144795
716.863	0.0142686
716.942	0.0141027
717.020	0.0137809
717.098	0.0136731
717.176	0.0136568
717.254	0.0134749
717.332	0.0131848
717.410	0.0130408
717.488	0.0128659
717.567	0.0127448
717.645	0.0126189
717.723	0.0126329
717.801	0.0126922
717.879	0.0127988
717.957	0.0131183
718.035	0.0133050
718.113	0.0135709
718.192	0.0138217
718.270	0.0139066
718.348	0.0141801
718.426	0.0142085
718.504	0.0144286
718.582	0.0143130
718.660	0.0143457
718.738	0.0145662
718.817	0.0145583
718.895	0.0146910
718.973	0.0149834
719.051	0.0153185
719.129	0.0156265
719.207	0.0162045
719.285	0.0168937
719.363	0.0175143
719.442	0.0182433
719.520	0.0190450
719.598	0.0198312
719.676	0.0205180
719.754	0.0210350
719.832	0.0215650
719.910	0.0220614
719.988	0.0224181
720.067	0.0223582
720.145	0.0226509
720.223	0.0226348
720.301	0.0225173
720.379	0.0223090
720.457	0.0218565
720.535	0.0216186
720.613	0.0213683
720.692	0.0207661
720.770	0.0203898
720.848	0.0198185
720.926	0.0193347
721.004	0.0190415
721.082	0.0184602
721.160	0.0180605
721.238	0.0177840
721.317	0.0176031
721.395	0.0173146
721.473	0.0171917
721.551	0.0173293
721.629	0.0174028
721.707	0.0174298
721.785	0.0175642
721.863	0.0178131
721.942	0.0179220
722.020	0.0181343
722.098	0.0184867
722.176	0.0184471
722.254	0.0184766
722.332	0.0187604
722.410	0.0186471
722.488	0.0184695
722.567	0.0184153
722.645	0.0180431
722.723	0.0178208
722.801	0.0174600
722.879	0.0169673
722.957	0.0165604
723.035	0.0162402
723.113	0.0158654
723.192	0.0156450
723.270	0.0152747
723.348	0.0150383
723.426	0.0151030
723.504	0.0151007
723.582	0.0150659
723.660	0.0151450
723.738	0.0151894
723.817	0.0152762
723.895	0.0154632
723.973	0.0156821
724.051	0.0157677
724.129	0.0160421
724.207	0.0162590
724.285	0.0164005
724.363	0.0167017
724.442	0.0167052
724.520	0.0169513
724.598	0.0171495
724.676	0.0172062
724.754	0.0174709
724.832	0.0175162
724.910	0.0176207
724.988	0.0177058
725.067	0.0179175
725.145	0.0180894
725.223	0.0180637
725.301	0.0181598
725.379	0.0179524
725.457	0.0179542
725.535	0.0177538
725.613	0.0176517
725.692	0.0175318
725.770	0.0171947
725.848	0.0170949
725.926	0.0169781
726.004	0.0166892
726.082	0.0165949
726.160	0.0165608
726.238	0.0166849
726.317	0.0169244
726.395	0.0170429
726.473	0.0172546
726.551	0.0177003
726.629	0.0181403
726.707	0.0184991
726.785	0.0190051
726.863	0.0192471
726.942	0.0193778
727.020	0.0196743
727.098	0.0196688
727.176	0.0196569
727.254	0.0196103
727.332	0.0194576
727.410	0.0191210
727.488	0.0189933
727.567	0.0187232
727.645	0.0183217
727.723	0.0181703
727.801	0.0178053
727.879	0.0177101
727.957	0.0175830
728.035	0.0176800
728.113	0.0175780
728.192	0.0177651
728.270	0.0176833
728.348	0.0179761
728.426	0.0180051
728.504	0.0181995
728.582	0.0184902
728.660	0.0184093
728.738	0.0184132
728.817	0.0184748
728.895	0.0184305
728.973	0.0182099
729.051	0.0181897
729.129	0.0182745
729.207	0.0180586
729.285	0.0178353
729.363	0.0177784
729.442	0.0176431
729.520	0.0175248
729.598	0.0173448
729.676	0.0172806
729.754	0.0172675
729.832	0.0172379
729.910	0.0171459
729.988	0.0170506
730.067	0.0172076
730.145	0.0171207
730.223	0.0172542
730.301	0.0173569
730.379	0.0172382
730.457	0.0170395
730.535	0.0170005
730.613	0.0171693
730.692	0.0169102
730.770	0.0168901
730.848	0.0168272
730.926	0.0166868
731.004	0.0166686
731.082	0.0166345
731.160	0.0166518
731.238	0.0165456
731.317	0.0164578
731.395	0.0166803
731.473	0.0167022
731.551	0.0166947
731.629	0.0166417
731.707	0.0166801
731.785	0.0164194
731.863	0.0165018
731.942	0.0163528
732.020	0.0163543
732.098	0.0164099
732.176	0.0163739
732.254	0.0163564
732.332	0.0165251
732.410	0.0165372
732.488	0.0167651
732.567	0.0169418
732.645	0.0170753
732.723	0.0173486
732.801	0.0173637
732.879	0.0176485
732.957	0.0178064
733.035	0.0180315
733.113	0.0181225
733.192	0.0181786
733.270	0.0185379
733.348	0.0183485
733.426	0.0185600
733.504	0.0186806
733.582	0.0187260
733.660	0.0189156
733.738	0.0187725
733.817	0.0188080
733.895	0.0186760
733.973	0.0187506
734.051	0.0187183
734.129	0.0187869
734.207	0.0187471
734.285	0.0187081
734.363	0.0186674
734.442	0.0188329
734.520	0.0187784
734.598	0.0188064
734.676	0.0187630
734.754	0.0188060
734.832	0.0189601
734.910	0.0189245
734.988	0.0187872
735.067	0.0188724
735.145	0.0188696
735.223	0.0187030
735.301	0.0186240
735.379	0.0185335
735.457	0.0183787
735.535	0.0182076
735.613	0.0181767
735.692	0.0179716
735.770	0.0178707
735.848	0.0176627
735.926	0.0175726
736.004	0.0173734
736.082	0.0170279
736.160	0.0167972
736.238	0.0167374
736.317	0.0164221
736.395	0.0163380
736.473	0.0160828
736.551	0.0158809
736.629	0.0157013
736.707	0.0156096
736.785	0.0157242
736.863	0.0155186
736.942	0.0157340
737.020	0.0157760
737.098	0.0159552
737.176	0.0161657
737.254	0.0164080
737.332	0.0167281
737.410	0.0170151
737.488	0.0172401
737.567	0.0174023
737.645	0.0178006
737.723	0.0178717
737.801	0.0180835
737.879	0.0181712
737.957	0.0182332
738.035	0.0181051
738.113	0.0181853
738.192	0.0178995
738.270	0.0178064
738.348	0.0176801
738.426	0.0175994
738.504	0.0175731
738.582	0.0174061
738.660	0.0173396
738.738	0.0171064
738.817	0.0170681
738.895	0.0171922
738.973	0.0170800
739.051	0.0171751
739.129	0.0172002
739.207	0.0174416
739.285	0.0175466
739.363	0.0175427
739.442	0.0176637
739.520	0.0177987
739.598	0.0179438
739.676	0.0179937
739.754	0.0181643
739.832	0.0181853
739.910	0.0183275
739.988	0.0184367
740.067	0.0181809
740.145	0.0183875
740.223	0.0182650
740.301	0.0180144
740.379	0.0181951
740.457	0.0180079
740.535	0.0178474
740.613	0.0178594
740.692	0.0177914
740.770	0.0176786
740.848	0.0176746
740.926	0.0176503
741.004	0.0175269
741.082	0.0176044
741.160	0.0175753
741.238	0.0174664
741.317	0.0175870
741.395	0.0175909
741.473	0.0176190
741.551	0.0175475
741.629	0.0175221
741.707	0.0175582
741.785	0.0175986
741.863	0.0174199
741.942	0.0175659
742.020	0.0177203
742.098	0.0176466
742.176	0.0177709
742.254	0.0179182
742.332	0.0178733
742.410	0.0181241
742.488	0.0182409
742.567	0.0182936
742.645	0.0182899
742.723	0.0184456
742.801	0.0186175
742.879	0.0186099
742.957	0.0184689
743.035	0.0185268
743.113	0.0184247
743.192	0.0182639
743.270	0.0182081
743.348	0.0179598
743.426	0.0176367
743.504	0.0174998
743.582	0.0174102
743.660	0.0172538
743.738	0.0169633
743.817	0.0167411
743.895	0.0167004
743.973	0.0165032
744.051	0.0165942
744.129	0.0163632
744.207	0.0165154
744.285	0.0166588
744.363	0.0166982
744.442	0.0166144
744.520	0.0168388
744.598	0.0169722
744.676	0.0170003
744.754	0.0171952
744.832	0.0173554
744.910	0.0174486
744.988	0.0176205
745.067	0.0176926
745.145	0.0178114
745.223	0.0179337
745.301	0.0179128
745.379	0.0179218
745.457	0.0178058
745.535	0.0176786
745.613	0.0177383
745.692	0.0176003
745.770	0.0173554
745.848	0.0173646
745.926	0.0172499
746.004	0.0171441
746.082	0.0169642
746.160	0.0169564
746.238	0.0169686
746.317	0.0169455
746.395	0.0168998
746.473	0.0170937
746.551	0.0169888
746.629	0.0168671
746.707	0.0171653
746.785	0.0171894
746.863	0.0172662
746.942	0.0172918
747.020	0.0173525
747.098	0.0175089
747.176	0.0175857
747.254	0.0176826
747.332	0.0178606
747.410	0.0179874
747.488	0.0181253
747.567	0.0183572
747.645	0.0184737
747.723	0.0184770
747.801	0.0186163
747.879	0.0186247
747.957	0.0187503
748.035	0.0186894
748.113	0.0188104
748.192	0.0187158
748.270	0.0188391
748.348	0.0188343
748.426	0.0187961
748.504	0.0186272
748.582	0.0184494
748.660	0.0185515
748.738	0.0183011
748.817	0.0181653
748.895	0.0179301
748.973	0.0179147
749.051	0.0175867
749.129	0.0175279
749.207	0.0173132
749.285	0.0172403
749.363	0.0169902
749.442	0.0169878
749.520	0.0169259
749.598	0.0170447
749.676	0.0169265
749.754	0.0171006
749.832	0.0170260
749.910	0.0173830
749.988	0.0172796
750.067	0.0174501
750.145	0.0174414
750.223	0.0175752
750.301	0.0176531
750.379	0.0177825
750.457	0.0176956
750.535	0.0177335
750.613	0.0177933
750.692	0.0178205
750.770	0.0178699
750.848	0.0176063
750.926	0.0176587
751.004	0.0176791
751.082	0.0175857
751.160	0.0174965
751.238	0.0174218
751.317	0.0174359
751.395	0.0173495
751.473	0.0170210
751.551	0.0170942
751.629	0.0170969
751.707	0.0169810
751.785	0.0169414
751.863	0.0170618
751.942	0.0169046
752.020	0.0168961
752.098	0.0170261
752.176	0.0170025
752.254	0.0169234
752.332	0.0170264
752.410	0.0172495
752.488	0.0172268
752.567	0.0173708
752.645	0.0174644
752.723	0.0176366
752.801	0.0177485
752.879	0.0181205
752.957	0.0180731
753.035	0.0183160
753.113	0.0183866
753.192	0.0185098
753.270	0.0186433
753.348	0.0185401
753.426	0.0183886
753.504	0.0184560
753.582	0.0183729
753.660	0.0181777
753.738	0.0178462
753.817	0.0177161
753.895	0.0174485
753.973	0.0171917
754.051	0.0168737
754.129	0.0167348
754.207	0.0165138
754.285	0.0163459
754.363	0.0163289
754.442	0.0163381
754.520	0.0163403
754.598	0.0164135
754.676	0.0165917
754.754	0.0166512
754.832	0.0169250
754.910	0.0171574
754.988	0.0173788
755.067	0.0177175
755.145	0.0177919
755.223	0.0179661
755.301	0.0181923
755.379	0.0184872
755.457	0.0184930
755.535	0.0184380
755.613	0.0185245
755.692	0.0187086
755.770	0.0185619
755.848	0.0185378
755.926	0.0185191
756.004	0.0185018
756.082	0.0182240
756.160	0.0182224
756.238	0.0181623
756.317	0.0181128
756.395	0.0180799
756.473	0.0179726
756.551	0.0178912
756.629	0.0178362
756.707	0.0177271
756.785	0.0175769
756.863	0.0176823
756.942	0.0175097
757.020	0.0175216
757.098	0.0175431
757.176	0.0175266
757.254	0.0175297
757.332	0.0175959
757.410	0.0174410
757.488	0.0172376
757.567	0.0174673
757.645	0.0176531
757.723	0.0176199
757.801	0.0176752
757.879	0.0177718
757.957	0.0177466
758.035	0.0177711
758.113	0.0178857
758.192	0.0178825
758.270	0.0179285
758.348	0.0178518
758.426	0.0178458
758.504	0.0178036
758.582	0.0177135
758.660	0.0175452
758.738	0.0174622
758.817	0.0173769
758.895	0.0171423
758.973	0.0171055
759.051	0.0169087
759.129	0.0167516
759.207	0.0165981
759.285	0.0166134
759.363	0.0166042
759.442	0.0165300
759.520	0.0165768
759.598	0.0166059
759.676	0.0166850
759.754	0.0168636
759.832	0.0168127
759.910	0.0170499
759.988	0.0170667
760.067	0.0172706
760.145	0.0172993
760.223	0.0175609
760.301	0.0175506
760.379	0.0175851
760.457	0.0174169
760.535	0.0174593
760.613	0.0176283
760.692	0.0176104
760.770	0.0176818
760.848	0.0177178
760.926	0.0175526
761.004	0.0175926
761.082	0.0176269
761.160	0.0178279
761.238	0.0178790
761.317	0.0178284
761.395	0.0177743
761.473	0.0180640
761.551	0.0180125
761.629	0.0181387
761.707	0.0181415
761.785	0.0181911
761.863	0.0183792
761.942	0.0182750
762.020	0.0181927
762.098	0.0183491
762.176	0.0181956
762.254	0.0181623
762.332	0.0180961
762.410	0.0180048
762.488	0.0180557
762.567	0.0178771
762.645	0.0178021
762.723	0.0177800
762.801	0.0176627
762.879	0.0175480
762.957	0.0174398
763.035	0.0173586
763.113	0.0172632
763.192	0.0170475
763.270	0.0174000
763.348	0.0173625
763.426	0.0173030
763.504	0.0172579
763.582	0.0172594
763.660	0.0173054
763.738	0.0175393
763.817	0.0175859
763.895	0.0177837
763.973	0.0177482
764.051	0.0177308
764.129	0.0176139
764.207	0.0177015
764.285	0.0178314
764.363	0.0176967
764.442	0.0177408
764.520	0.0177044
764.598	0.0175710
764.676	0.0176636
764.754	0.0176407
764.832	0.0175575
764.910	0.0176282
764.988	0.0175321
765.067	0.0173130
765.145	0.0174412
765.223	0.0173896
765.301	0.0173019
765.379	0.0174279
765.457	0.0174168
765.535	0.0174342
765.613	0.0174957
765.692	0.0174393
765.770	0.0174838
765.848	0.0176782
765.926	0.0176670
766.004	0.0178297
766.082	0.0177431
766.160	0.0179407
766.238	0.0179173
766.317	0.0179956
766.395	0.0179884
766.473	0.0178088
766.551	0.0179075
766.629	0.0176698
766.707	0.0178260
766.785	0.0177377
766.863	0.0177213
766.942	0.0178172
767.020	0.0176129
767.098	0.0174746
767.176	0.0173698
767.254	0.0173000
767.332	0.0170885
767.410	0.0170255
767.488	0.0167793
767.567	0.0167491
767.645	0.0166904
767.723	0.0164790
767.801	0.0164177
767.879	0.0164862
767.957	0.0163987
768.035	0.0164836
768.113	0.0164932
768.192	0.0166504
768.270	0.0167681
768.348	0.0168764
768.426	0.0169829
768.504	0.0170871
768.582	0.0174106
768.660	0.0175613
768.738	0.0175988
768.817	0.0178020
768.895	0.0179447
768.973	0.0180129
769.051	0.0181265
769.129	0.0181916
769.207	0.0181640
769.285	0.0183134
769.363	0.0181744
769.442	0.0182288
769.520	0.0181976
769.598	0.0181251
769.676	0.0180511
769.754	0.0180801
769.832	0.0179567
769.910	0.0179784
769.988	0.0179795
770.067	0.0178656
770.145	0.0178600
770.223	0.0178572
770.301	0.0179977
770.379	0.0180221
770.457	0.0179176
770.535	0.0180943
770.613	0.0181264
770.692	0.0180057
770.770	0.0179854
770.848	0.0180971
770.926	0.0180341
771.004	0.0181349
771.082	0.0181174
771.160	0.0181763
771.238	0.0181501
771.317	0.0180373
771.395	0.0180785
771.473	0.0180080
771.551	0.0178979
771.629	0.0177863
771.707	0.0179223
771.785	0.0178455
771.863	0.0175851
771.942	0.0175863
772.020	0.0175782
772.098	0.0174259
772.176	0.0174546
772.254	0.0172557
772.332	0.0173409
772.410	0.0171764
772.488	0.0171174
772.567	0.0170587
772.645	0.0169530
772.723	0.0169634
772.801	0.0171504
772.879	0.0169166
772.957	0.0170650
773.035	0.0170559
773.113	0.0172457
773.192	0.0171078
773.270	0.0172411
773.348	0.0172289
773.426	0.0173318
773.504	0.0175611
773.582	0.0176907
773.660	0.0177065
773.738	0.0175460
773.817	0.0175663
773.895	0.0175425
773.973	0.0174305
774.051	0.0175533
774.129	0.0174285
774.207	0.0174567
774.285	0.0175945
774.363	0.0174312
774.442	0.0175153
774.520	0.0174851
774.598	0.0176055
774.676	0.0176647
774.754	0.0176371
774.832	0.0178357
774.910	0.0178162
774.988	0.0178847
775.067	0.0178456
775.145	0.0180050
775.223	0.0180527
775.301	0.0180784
775.379	0.0179416
775.457	0.0178577
775.535	0.0177940
775.613	0.0178401
775.692	0.0178633
775.770	0.0176905
775.848	0.0176411
775.926	0.0173673
776.004	0.0173492
776.082	0.0173563
776.160	0.0172485
776.238	0.0170404
776.317	0.0169950
776.395	0.0170954
776.473	0.0169389
776.551	0.0167827
776.629	0.0169394
776.707	0.0169274
776.785	0.0168517
776.863	0.0169463
776.942	0.0169521
777.020	0.0170973
777.098	0.0172543
777.176	0.0174526
777.254	0.0176451
777.332	0.0176134
777.410	0.0177270
777.488	0.0178764
777.567	0.0180185
777.645	0.0179708
777.723	0.0180708
777.801	0.0180859
777.879	0.0180406
777.957	0.0181114
778.035	0.0182392
778.113	0.0181565
778.192	0.0180949
778.270	0.0181347
778.348	0.0180394
778.426	0.0180785
778.504	0.0180283
778.582	0.0181207
778.660	0.0180595
778.738	0.0180590
778.817	0.0178648
778.895	0.0181219
778.973	0.0180092
779.051	0.0178744
779.129	0.0178378
779.207	0.0178551
779.285	0.0177599
779.363	0.0177147
779.442	0.0177034
779.520	0.0178711
779.598	0.0177927
779.676	0.0179945
779.754	0.0178598
779.832	0.0179247
779.910	0.0179230
779.988	0.0180274
780.067	0.0180110
780.145	0.0180569
780.223	0.0179047
780.301	0.0178988
780.379	0.0179022
780.457	0.0179217
780.535	0.0177396
780.613	0.0175754
780.692	0.0174757
780.770	0.0173425
780.848	0.0173647
780.926	0.0170702
781.004	0.0169936
781.082	0.0169592
781.160	0.0168491
781.238	0.0167576
781.317	0.0166581
781.395	0.0166073
781.473	0.0165265
781.551	0.0165795
781.629	0.0166179
781.707	0.0167200
781.785	0.0166918
781.863	0.0168604
781.942	0.0168202
782.020	0.0169881
782.098	0.0170657
782.176	0.0170982
782.254	0.0170412
782.332	0.0171026
782.410	0.0170373
782.488	0.0172804
782.567	0.0173624
782.645	0.0170706
782.723	0.0171955
782.801	0.0174294
782.879	0.0173295
782.957	0.0174467
783.035	0.0174998
783.113	0.0173034
783.192	0.0174079
783.270	0.0176160
783.348	0.0175834
783.426	0.0179028
783.504	0.0177817
783.582	0.0179090
783.660	0.0180714
783.738	0.0181728
783.817	0.0183275
783.895	0.0182718
783.973	0.0182629
784.051	0.0182924
784.129	0.0183520
784.207	0.0183392
784.285	0.0183252
784.363	0.0183069
784.442	0.0181778
784.520	0.0181004
784.598	0.0181271
784.676	0.0180987
784.754	0.0181021
784.832	0.0178689
784.910	0.0177717
784.988	0.0178395
785.067	0.0176184
785.145	0.0176955
785.223	0.0176342
785.301	0.0176263
785.379	0.0175286
785.457	0.0176897
785.535	0.0176517
785.613	0.0175719
785.692	0.0176030
785.770	0.0176944
785.848	0.0177525
785.926	0.0177925
786.004	0.0176929
786.082	0.0177665
786.160	0.0177091
786.238	0.0176029
786.317	0.0174992
786.395	0.0175121
786.473	0.0175111
786.551	0.0174708
786.629	0.0173654
786.707	0.0172476
786.785	0.0173103
786.863	0.0172317
786.942	0.0172346
787.020	0.0172385
787.098	0.0172659
787.176	0.0173053
787.254	0.0173625
787.332	0.0173542
787.410	0.0175135
787.488	0.0175825
787.567	0.0174942
787.645	0.0175406
787.723	0.0176449
787.801	0.0175986
787.879	0.0175562
787.957	0.0176337
788.035	0.0175691
788.113	0.0176502
788.192	0.0175846
788.270	0.0175749
788.348	0.0175793
788.426	0.0178518
788.504	0.0178735
788.582	0.0178303
788.660	0.0178555
788.738	0.0179806
788.817	0.0178402
788.895	0.0179714
788.973	0.0179762
789.051	0.0181832
789.129	0.0181152
789.207	0.0181348
789.285	0.0180238
789.363	0.0180009
789.442	0.0180365
789.520	0.0179249
789.598	0.0179903
789.676	0.0179174
789.754	0.0179001
789.832	0.0178039
789.910	0.0177660
789.988	0.0175707
790.067	0.0175238
790.145	0.0174515
790.223	0.0172679
790.301	0.0170885
790.379	0.0170952
790.457	0.0168929
790.535	0.0169035
790.613	0.0167758
790.692	0.0166026
790.770	0.0164283
790.848	0.0165065
790.926	0.0163258
791.004	0.0162875
791.082	0.0162804
791.160	0.0162601
791.238	0.0163013
791.317	0.0163694
791.395	0.0163799
791.473	0.0163310
791.551	0.0165171
791.629	0.0166361
791.707	0.0166040
791.785	0.0169721
791.863	0.0171056
791.942	0.0174593
792.020	0.0175210
792.098	0.0178599
792.176	0.0178825
792.254	0.0181781
792.332	0.0184436
792.410	0.0186843
792.488	0.0189121
792.567	0.0189359
792.645	0.0189999
792.723	0.0193519
792.801	0.0194479
792.879	0.0193679
792.957	0.0194694
793.035	0.0193552
793.113	0.0196315
793.192	0.0194038
793.270	0.0192464
793.348	0.0192007
793.426	0.0189411
793.504	0.0188998
793.582	0.0187353
793.660	0.0185561
793.738	0.0184689
793.817	0.0182676
793.895	0.0179973
793.973	0.0178848
794.051	0.0176011
794.129	0.0172944
794.207	0.0171735
794.285	0.0170531
794.363	0.0169705
794.442	0.0167664
794.520	0.0166597
794.598	0.0165493
794.676	0.0165498
794.754	0.0164817
794.832	0.0164540
794.910	0.0163199
794.988	0.0163522
795.067	0.0161182
795.145	0.0160130
795.223	0.0161240
795.301	0.0161113
795.379	0.0162018
795.457	0.0160983
795.535	0.0161081
795.613	0.0161194
795.692	0.0162783
795.770	0.0163834
795.848	0.0165519
795.926	0.0167629
796.004	0.0169244
796.082	0.0170870
796.160	0.0171859
796.238	0.0173407
796.317	0.0174899
796.395	0.0176334
796.473	0.0178808
796.551	0.0181266
796.629	0.0182800
796.707	0.0183382
796.785	0.0186405
796.863	0.0185685
796.942	0.0187521
797.020	0.0190085
797.098	0.0190228
797.176	0.0191219
797.254	0.0191801
797.332	0.0192757
797.410	0.0192355
797.488	0.0192020
797.567	0.0192999
797.645	0.0192048
797.723	0.0193290
797.801	0.0191348
797.879	0.0191206
797.957	0.0188370
798.035	0.0187642
798.113	0.0186021
798.192	0.0183865
798.270	0.0182988
798.348	0.0180741
798.426	0.0178336
798.504	0.0175710
798.582	0.0172818
798.660	0.0170184
798.738	0.0167278
798.817	0.0163538
798.895	0.0161369
798.973	0.0158700
799.051	0.0156429
799.129	0.0155020
799.207	0.0152090
799.285	0.0149931
799.363	0.0151063
799.442	0.0150145
799.520	0.0151197
799.598	0.0151730
799.676	0.0150285
799.754	0.0153698
799.832	0.0155491
799.910	0.0156917
799.988	0.0159486
800.067	0.0161416
800.145	0.0164488
800.223	0.0165380
800.301	0.0169408
800.379	0.0171115
800.457	0.0173934
800.535	0.0176743
800.613	0.0179450
800.692	0.0182039
800.770	0.0184075
800.848	0.0186134
800.926	0.0189058
801.004	0.0191768
801.082	0.0192959
801.160	0.0193994
801.238	0.0195489
801.317	0.0196506
801.395	0.0197357
801.473	0.0198216
801.551	0.0198844
801.629	0.0199033
801.707	0.0198646
801.785	0.0198766
801.863	0.0198213
801.942	0.0199185
802.020	0.0196101
802.098	0.0196688
802.176	0.0195462
802.254	0.0195382
802.332	0.0193051
802.410	0.0193179
802.488	0.0191560
802.567	0.0189129
802.645	0.0186567
802.723	0.0184000
802.801	0.0181039
802.879	0.0178994
802.957	0.0175410
803.035	0.0174586
803.113	0.0172797
803.192	0.0171215
803.270	0.0167874
803.348	0.0166245
803.426	0.0163360
803.504	0.0162260
803.582	0.0160863
803.660	0.0156502
803.738	0.0154813
803.817	0.0153558
803.895	0.0151637
803.973	0.0149746
804.051	0.0149400
804.129	0.0147406
804.207	0.0148492
804.285	0.0148987
804.363	0.0150865
804.442	0.0148891
804.520	0.0151409
804.598	0.0151840
804.676	0.0154028
804.754	0.0155529
804.832	0.0158787
804.910	0.0161471
804.988	0.0163737
805.067	0.0166219
805.145	0.0168539
805.223	0.0173466
805.301	0.0174245
805.379	0.0177522
805.457	0.0179022
805.535	0.0182153
805.613	0.0185449
805.692	0.0187743
805.770	0.0188084
805.848	0.0188999
805.926	0.0191622
806.004	0.0191898
806.082	0.0194409
806.160	0.0194470
806.238	0.0195765
806.317	0.0195860
806.395	0.0197195
806.473	0.0198319
806.551	0.0196409
806.629	0.0195854
806.707	0.0196559
806.785	0.0196220
806.863	0.0195397
806.942	0.0193764
807.020	0.0193227
807.098	0.0192176
807.176	0.0189761
807.254	0.0188898
807.332	0.0186562
807.410	0.0184819
807.488	0.0184000
807.567	0.0182018
807.645	0.0180208
807.723	0.0178561
807.801	0.0176134
807.879	0.0173347
807.957	0.0172292
808.035	0.0170540
808.113	0.0170481
808.192	0.0170000
808.270	0.0168485
808.348	0.0168032
808.426	0.0168173
808.504	0.0166604
808.582	0.0166330
808.660	0.0166248
808.738	0.0165895
808.817	0.0167023
808.895	0.0165362
808.973	0.0165285
809.051	0.0165863
809.129	0.0166418
809.207	0.0166913
809.285	0.0165182
809.363	0.0165406
809.442	0.0166358
809.520	0.0167863
809.598	0.0168008
809.676	0.0168226
809.754	0.0166982
809.832	0.0167708
809.910	0.0167210
809.988	0.0167775
810.067	0.0168473
810.145	0.0167972
810.223	0.0168653
810.301	0.0170149
810.379	0.0168667
810.457	0.0171783
810.535	0.0171249
810.613	0.0171438
810.692	0.0172980
810.770	0.0175832
810.848	0.0174944
810.926	0.0175571
811.004	0.0178448
811.082	0.0180154
811.160	0.0182018
811.238	0.0182430
811.317	0.0183102
811.395	0.0183706
811.473	0.0187445
811.551	0.0187386
811.629	0.0185996
811.707	0.0188669
811.785	0.0189832
811.863	0.0189729
811.942	0.0188171
812.020	0.0187756
812.098	0.0187885
812.176	0.0188866
812.254	0.0188071
812.332	0.0187537
812.410	0.0184724
812.488	0.0185247
812.567	0.0185008
812.645	0.0181606
812.723	0.0182243
812.801	0.0180323
812.879	0.0178716
812.957	0.0179380
813.035	0.0178263
813.113	0.0178972
813.192	0.0178402
813.270	0.0178728
813.348	0.0175350
813.426	0.0175765
813.504	0.0176324
813.582	0.0175959
813.660	0.0173401
813.738	0.0174290
813.817	0.0172593
813.895	0.0171555
813.973	0.0172312
814.051	0.0170100
814.129	0.0168463
814.207	0.0167648
814.285	0.0166177
814.363	0.0166436
814.442	0.0165919
814.520	0.0165679
814.598	0.0164465
814.676	0.0164455
814.754	0.0165036
814.832	0.0164554
814.910	0.0164499
814.988	0.0164116
815.067	0.0163899
815.145	0.0164703
815.223	0.0165114
815.301	0.0165963
815.379	0.0167706
815.457	0.0168621
815.535	0.0168455
815.613	0.0169554
815.692	0.0172055
815.770	0.0172485
815.848	0.0173685
815.926	0.0173947
816.004	0.0175957
816.082	0.0177242
816.160	0.0177840
816.238	0.0178954
816.317	0.0179763
816.395	0.0179939
816.473	0.0182455
816.551	0.0182200
816.629	0.0184476
816.707	0.0185074
816.785	0.0183489
816.863	0.0185231
816.942	0.0184912
817.020	0.0184394
817.098	0.0187312
817.176	0.0187677
817.254	0.0186411
817.332	0.0186420
817.410	0.0185129
817.488	0.0185117
817.567	0.0185645
817.645	0.0183962
817.723	0.0183839
817.801	0.0181702
817.879	0.0182018
817.957	0.0183253
818.035	0.0181916
818.113	0.0180752
818.192	0.0179983
818.270	0.0180000
818.348	0.0181451
818.426	0.0180161
818.504	0.0180219
818.582	0.0180418
818.660	0.0179050
818.738	0.0179504
818.817	0.0178186
818.895	0.0178236
818.973	0.0176205
819.051	0.0176543
819.129	0.0176136
819.207	0.0175573
819.285	0.0175197
819.363	0.0173294
819.442	0.0171136
819.520	0.0172384
819.598	0.0170953
819.676	0.0170712
819.754	0.0169866
819.832	0.0168669
819.910	0.0167715
819.988	0.0167005
820.067	0.0166968
820.145	0.0167152
820.223	0.0167740
820.301	0.0166909
820.379	0.0167332
820.457	0.0168839
820.535	0.0168661
820.613	0.0169045
820.692	0.0170498
820.770	0.0170166
820.848	0.0171822
820.926	0.0171201
821.004	0.0172066
821.082	0.0172149
821.160	0.0173644
821.238	0.0173717
821.317	0.0173199
821.395	0.0174409
821.473	0.0173831
821.551	0.0174397
821.629	0.0175766
821.707	0.0175492
821.785	0.0176778
821.863	0.0177123
821.942	0.0177609
822.020	0.0177168
822.098	0.0177193
822.176	0.0177398
822.254	0.0177634
822.332	0.0177271
822.410	0.0178538
822.488	0.0178470
822.567	0.0177242
822.645	0.0177095
822.723	0.0179189
822.801	0.0179128
822.879	0.0179609
822.957	0.0179630
823.035	0.0181126
823.113	0.0179018
823.192	0.0182217
823.270	0.0181950
823.348	0.0183855
823.426	0.0183163
823.504	0.0182699
823.582	0.0185653
823.660	0.0185910
823.738	0.0185361
823.817	0.0183398
823.895	0.0185605
823.973	0.0185329
824.051	0.0184262
824.129	0.0181502
824.207	0.0182787
824.285	0.0180512
824.363	0.0178840
824.442	0.0178152
824.520	0.0177563
824.598	0.0175475
824.676	0.0175486
824.754	0.0175023
824.832	0.0173250
824.910	0.0171435
824.988	0.0172056
825.067	0.0171924
825.145	0.0172012
825.223	0.0170123
825.301	0.0171098
825.379	0.0172223
825.457	0.0171239
825.535	0.0173402
825.613	0.0173432
825.692	0.0173252
825.770	0.0173846
825.848	0.0173176
825.926	0.0174074
826.004	0.0174361
826.082	0.0175221
826.160	0.0175405
826.238	0.0173490
826.317	0.0176916
826.395	0.0176237
826.473	0.0175758
826.551	0.0175855
826.629	0.0175257
826.707	0.0174168
826.785	0.0175684
826.863	0.0175220
826.942	0.0172918
827.020	0.0174810
827.098	0.0174403
827.176	0.0173427
827.254	0.0172231
827.332	0.0173495
827.410	0.0174112
827.488	0.0173483
827.567	0.0173079
827.645	0.0174328
827.723	0.0172961
827.801	0.0173711
827.879	0.0174812
827.957	0.0173438
828.035	0.0173989
828.113	0.0174698
828.192	0.0174481
828.270	0.0174724
828.348	0.0176128
828.426	0.0174919
828.504	0.0174714
828.582	0.0176302
828.660	0.0176292
828.738	0.0175955
828.817	0.0176566
828.895	0.0176788
828.973	0.0175233
829.051	0.0176835
829.129	0.0176289
829.207	0.0177029
829.285	0.0175614
829.363	0.0177853
829.442	0.0176417
829.520	0.0176431
829.598	0.0176043
829.676	0.0176626
829.754	0.0175674
829.832	0.0176236
829.910	0.0176379
829.988	0.0177489
830.067	0.0177811
830.145	0.0178558
830.223	0.0179247
830.301	0.0179722
830.379	0.0178342
830.457	0.0178806
830.535	0.0179445
830.613	0.0180634
830.692	0.0179766
830.770	0.0179790
830.848	0.0180490
830.926	0.0178233
831.004	0.0179151
831.082	0.0179269
831.160	0.0178692
831.238	0.0179623
831.317	0.0177187
831.395	0.0177212
831.473	0.0178178
831.551	0.0176471
831.629	0.0175954
831.707	0.0175588
831.785	0.0176271
831.863	0.0174988
831.942	0.0174168
832.020	0.0174696
832.098	0.0176023
832.176	0.0175026
832.254	0.0174022
832.332	0.0174730
832.410	0.0174648
832.488	0.0175330
832.567	0.0174434
832.645	0.0172439
832.723	0.0174698
832.801	0.0172585
832.879	0.0173816
832.957	0.0173504
833.035	0.0172337
833.113	0.0174778
833.192	0.0172695
833.270	0.0172710
833.348	0.0172971
833.426	0.0172440
833.504	0.0171796
833.582	0.0172511
833.660	0.0172422
833.738	0.0172992
833.817	0.0174422
833.895	0.0174458
833.973	0.0173603
834.051	0.0173724
834.129	0.0175756
834.207	0.0175294
834.285	0.0176186
834.363	0.0177039
834.442	0.0176496
834.520	0.0178730
834.598	0.0178970
834.676	0.0179932
834.754	0.0180293
834.832	0.0180132
834.910	0.0179957
834.988	0.0180655
835.067	0.0179930
835.145	0.0180520
835.223	0.0179158
835.301	0.0178815
835.379	0.0177876
835.457	0.0178481
835.535	0.0177357
835.613	0.0176867
835.692	0.0174960
835.770	0.0174786
835.848	0.0176000
835.926	0.0174252
836.004	0.0173078
836.082	0.0172709
836.160	0.0172531
836.238	0.0172892
836.317	0.0171115
836.395	0.0171304
836.473	0.0170505
836.551	0.0171153
836.629	0.0170623
836.707	0.0172300
836.785	0.0172176
836.863	0.0172399
836.942	0.0172562
837.020	0.0174306
837.098	0.0174794
837.176	0.0174022
837.254	0.0175071
837.332	0.0176694
837.410	0.0176589
837.488	0.0175433
837.567	0.0176207
837.645	0.0177103
837.723	0.0178242
837.801	0.0177209
837.879	0.0178327
837.957	0.0179539
838.035	0.0178211
838.113	0.0178168
838.192	0.0178404
838.270	0.0177576
838.348	0.0177476
838.426	0.0178340
838.504	0.0177526
838.582	0.0177706
838.660	0.0179039
838.738	0.0178678
838.817	0.0179313
838.895	0.0179282
838.973	0.0180000
839.051	0.0180057
839.129	0.0179684
839.207	0.0180357
839.285	0.0180062
839.363	0.0180615
839.442	0.0181189
839.520	0.0180408
839.598	0.0180145
839.676	0.0179733
839.754	0.0179419
839.832	0.0177920
839.910	0.0178755
839.988	0.0177621
840.067	0.0176323
840.145	0.0174886
840.223	0.0174294
840.301	0.0173076
840.379	0.0171689
840.457	0.0171236
840.535	0.0169936
840.613	0.0168173
840.692	0.0168712
840.770	0.0167933
840.848	0.0169772
840.926	0.0168419
841.004	0.0166721
841.082	0.0166483
841.160	0.0166701
841.238	0.0168524
841.317	0.0169711
841.395	0.0170792
841.473	0.0171093
841.551	0.0171485
841.629	0.0174346
841.707	0.0174170
841.785	0.0176134
841.863	0.0175342
841.942	0.0176528
842.020	0.0178062
842.098	0.0178646
842.176	0.0178120
842.254	0.0178603
842.332	0.0178880
842.410	0.0178727
842.488	0.0179012
842.567	0.0178761
842.645	0.0179220
842.723	0.0180093
842.801	0.0178914
842.879	0.0179942
842.957	0.0180589
843.035	0.0179565
843.113	0.0179745
843.192	0.0179652
843.270	0.0179882
843.348	0.0180995
843.426	0.0179622
843.504	0.0180642
843.582	0.0182249
843.660	0.0181027
843.738	0.0181522
843.817	0.0180185
843.895	0.0179511
843.973	0.0179792
844.051	0.0180338
844.129	0.0181622
844.207	0.0178012
844.285	0.0177608
844.363	0.0177869
844.442	0.0178169
844.520	0.0177462
844.598	0.0176690
844.676	0.0177251
844.754	0.0174726
844.832	0.0173676
844.910	0.0174102
844.988	0.0173646
845.067	0.0172328
845.145	0.0170726
845.223	0.0168714
845.301	0.0170575
845.379	0.0169168
845.457	0.0169157
845.535	0.0168399
845.613	0.0167960
845.692	0.0168436
845.770	0.0168830
845.848	0.0167873
845.926	0.0168950
846.004	0.0168463
846.082	0.0168161
846.160	0.0170966
846.238	0.0170876
846.317	0.0170188
846.395	0.0170171
846.473	0.0171602
846.551	0.0172503
846.629	0.0174724
846.707	0.0175416
846.785	0.0175432
846.863	0.0177800
846.942	0.0177834
847.020	0.0178548
847.098	0.0179987
847.176	0.0178637
847.254	0.0180711
847.332	0.0180841
847.410	0.0181993
847.488	0.0181587
847.567	0.0181726
847.645	0.0182281
847.723	0.0181757
847.801	0.0181335
847.879	0.0180563
847.957	0.0181525
848.035	0.0180800
848.113	0.0179906
848.192	0.0179699
848.270	0.0180299
848.348	0.0179594
848.426	0.0179543
848.504	0.0178471
848.582	0.0178928
848.660	0.0177993
848.738	0.0177809
848.817	0.0176711
848.895	0.0175732
848.973	0.0175367
849.051	0.0176514
849.129	0.0176431
849.207	0.0174902
849.285	0.0174916
849.363	0.0175410
849.442	0.0174691
849.520	0.0174022
849.598	0.0173164
849.676	0.0172554
849.754	0.0174374
849.832	0.0172205
849.910	0.0172028
849.988	0.0171754
850.067	0.0171603
850.145	0.0171990
850.223	0.0171744
850.301	0.0171842
850.379	0.0171950
850.457	0.0170973
850.535	0.0170049
850.613	0.0171009
850.692	0.0170344
850.770	0.0170171
850.848	0.0171079
850.926	0.0171324
851.004	0.0171853
851.082	0.0169387
851.160	0.0172755
851.238	0.0172007
851.317	0.0172395
851.395	0.0174035
851.473	0.0173759
851.551	0.0175038
851.629	0.0175101
851.707	0.0177380
851.785	0.0177554
851.863	0.0177087
851.942	0.0176808
852.020	0.0177428
852.098	0.0178428
852.176	0.0179154
852.254	0.0179012
852.332	0.0179449
852.410	0.0178480
852.488	0.0178355
852.567	0.0179800
852.645	0.0180402
852.723	0.0178545
852.801	0.0178875
852.879	0.0179185
852.957	0.0179387
853.035	0.0178668
853.113	0.0177177
853.192	0.0179590
853.270	0.0178349
853.348	0.0178345
853.426	0.0177057
853.504	0.0176895
853.582	0.0176136
853.660	0.0175670
853.738	0.0176853
853.817	0.0174846
853.895	0.0174358
853.973	0.0175755
854.051	0.0174491
854.129	0.0176073
854.207	0.0175208
854.285	0.0175213
854.363	0.0174755
854.442	0.0175111
854.520	0.0173608
854.598	0.0174325
854.676	0.0173794
854.754	0.0173711
854.832	0.0172826
854.910	0.0174461
854.988	0.0173358
855.067	0.0174211
855.145	0.0172915
855.223	0.0173675
855.301	0.0174447
855.379	0.0173897
855.457	0.0173524
855.535	0.0173126
855.613	0.0174501
855.692	0.0174399
855.770	0.0174937
855.848	0.0174104
855.926	0.0174123
856.004	0.0174672
856.082	0.0173189
856.160	0.0174090
856.238	0.0174571
856.317	0.0175320
856.395	0.0172031
856.473	0.0174776
856.551	0.0174374
856.629	0.0174844
856.707	0.0174995
856.785	0.0173201
856.863	0.0173991
856.942	0.0174767
857.020	0.0173423
857.098	0.0174352
857.176	0.0174438
857.254	0.0174493
857.332	0.0175410
857.410	0.0175508
857.488	0.0176085
857.567	0.0176123
857.645	0.0177762
857.723	0.0176450
857.801	0.0176718
857.879	0.0178167
857.957	0.0177057
858.035	0.0177586
858.113	0.0177158
858.192	0.0177496
858.270	0.0177410
858.348	0.0178741
858.426	0.0177625
858.504	0.0178748
858.582	0.0178981
858.660	0.0176484
858.738	0.0177765
858.817	0.0176334
858.895	0.0177573
858.973	0.0176316
859.051	0.0174677
859.129	0.0176067
859.207	0.0175799
859.285	0.0174323
859.363	0.0174124
859.442	0.0174382
859.520	0.0173959
859.598	0.0174590
859.676	0.0175172
859.754	0.0175104
859.832	0.0174302
859.910	0.0174872
859.988	0.0174732
860.067	0.0174171
860.145	0.0174259
860.223	0.0175343
860.301	0.0175436
860.379	0.0175364
860.457	0.0175848
860.535	0.0176813
860.613	0.0177223
860.692	0.0176155
860.770	0.0174999
860.848	0.0176450
860.926	0.0177142
861.004	0.0176339
861.082	0.0176089
861.160	0.0175767
861.238	0.0176661
861.317	0.0175424
861.395	0.0176454
861.473	0.0177050
861.551	0.0177097
861.629	0.0175626
861.707	0.0175419
861.785	0.0175562
861.863	0.0175131
861.942	0.0174548
862.020	0.0175205
862.098	0.0174646
862.176	0.0174998
862.254	0.0174918
862.332	0.0174728
862.410	0.0173968
862.488	0.0174104
862.567	0.0174800
862.645	0.0173909
862.723	0.0174313
862.801	0.0174537
862.879	0.0174098
862.957	0.0174175
863.035	0.0173692
863.113	0.0173695
863.192	0.0175093
863.270	0.0175797
863.348	0.0176001
863.426	0.0175877
863.504	0.0176373
863.582	0.0176158
863.660	0.0174971
863.738	0.0174491
863.817	0.0175098
863.895	0.0176831
863.973	0.0177380
864.051	0.0174490
864.129	0.0174567
864.207	0.0176028
864.285	0.0175351
864.363	0.0175752
864.442	0.0175158
864.520	0.0173222
864.598	0.0174613
864.676	0.0173497
864.754	0.0175059
864.832	0.0175092
864.910	0.0174648
864.988	0.0174350
865.067	0.0176036
865.145	0.0175514
865.223	0.0174635
865.301	0.0175549
865.379	0.0175578
865.457	0.0176405
865.535	0.0176839
865.613	0.0177879
865.692	0.0175520
865.770	0.0176328
865.848	0.0178172
865.926	0.0177257
866.004	0.0178125
866.082	0.0177303
866.160	0.0178136
866.238	0.0178430
866.317	0.0177968
866.395	0.0178117
866.473	0.0176447
866.551	0.0177029
866.629	0.0176466
866.707	0.0175346
866.785	0.0176890
866.863	0.0176133
866.942	0.0175796
867.020	0.0175505
867.098	0.0177685
867.176	0.0177117
867.254	0.0176575
867.332	0.0178054
867.410	0.0178855
867.488	0.0178632
867.567	0.0178696
867.645	0.0177728
867.723	0.0177792
867.801	0.0176931
867.879	0.0176846
867.957	0.0177031
868.035	0.0177032
868.113	0.0176402
868.192	0.0176054
868.270	0.0174283
868.348	0.0174361
868.426	0.0174861
868.504	0.0173667
868.582	0.0172523
868.660	0.0172216
868.738	0.0172041
868.817	0.0172114
868.895	0.0172916
868.973	0.0170438
869.051	0.0171105
869.129	0.0172159
869.207	0.0172410
869.285	0.0172246
869.363	0.0172749
869.442	0.0173839
869.520	0.0172489
869.598	0.0174328
869.676	0.0173648
869.754	0.0174044
869.832	0.0176455
869.910	0.0175815
869.988	0.0176517
870.067	0.0174797
870.145	0.0176078
870.223	0.0177229
870.301	0.0176975
870.379	0.0176485
870.457	0.0176232
870.535	0.0176415
870.613	0.0176294
870.692	0.0174602
870.770	0.0175989
870.848	0.0175652
870.926	0.0173349
871.004	0.0174972
871.082	0.0175958
871.160	0.0175763
871.238	0.0175919
871.317	0.0175324
871.395	0.0174567
871.473	0.0175661
871.551	0.0176881
871.629	0.0176514
871.707	0.0177650
871.785	0.0177950
871.863	0.0178794
871.942	0.0179324
872.020	0.0179680
872.098	0.0180077
872.176	0.0180186
872.254	0.0181285
872.332	0.0180287
872.410	0.0179318
872.488	0.0180935
872.567	0.0178572
872.645	0.0179237
872.723	0.0178716
872.801	0.0178211
872.879	0.0177621
872.957	0.0177212
873.035	0.0176676
873.113	0.0174114
873.192	0.0173186
873.270	0.0173254
873.348	0.0173924
873.426	0.0171440
873.504	0.0171245
873.582	0.0169266
873.660	0.0169501
873.738	0.0169247
873.817	0.0167712
873.895	0.0169247
873.973	0.0170541
874.051	0.0171017
874.129	0.0170747
874.207	0.0171387
874.285	0.0171206
874.363	0.0171017
874.442	0.0173746
874.520	0.0173470
874.598	0.0177033
874.676	0.0177284
874.754	0.0175414
874.832	0.0176823
874.910	0.0178395
874.988	0.0177631
875.067	0.0179809
875.145	0.0179266
875.223	0.0179086
875.301	0.0178238
875.379	0.0179073
875.457	0.0178987
875.535	0.0179056
875.613	0.0178814
875.692	0.0179045
875.770	0.0177268
875.848	0.0177659
875.926	0.0177747
876.004	0.0176300
876.082	0.0176276
876.160	0.0178332
876.238	0.0176646
876.317	0.0177880
876.395	0.0176906
876.473	0.0178165
876.551	0.0177145
876.629	0.0178236
876.707	0.0177467
876.785	0.0177470
876.863	0.0176767
876.942	0.0176761
877.020	0.0176611
877.098	0.0177209
877.176	0.0175608
877.254	0.0177953
877.332	0.0176354
877.410	0.0174250
877.488	0.0174491
877.567	0.0173264
877.645	0.0173306
877.723	0.0171500
877.801	0.0172541
877.879	0.0172552
877.957	0.0171400
878.035	0.0170668
878.113	0.0169447
878.192	0.0170702
878.270	0.0170347
878.348	0.0169845
878.426	0.0169843
878.504	0.0170873
878.582	0.0172247
878.660	0.0170712
878.738	0.0171164
878.817	0.0172601
878.895	0.0173984
878.973	0.0173162
879.051	0.0174396
879.129	0.0174897
879.207	0.0173594
879.285	0.0174216
879.363	0.0174648
879.442	0.0176537
879.520	0.0175417
879.598	0.0175268
879.676	0.0176189
879.754	0.0176308
879.832	0.0177153
879.910	0.0177564
879.988	0.0179590
880.067	0.0180775
880.145	0.0179022
880.223	0.0178998
880.301	0.0180396
880.379	0.0180366
880.457	0.0181516
880.535	0.0180414
880.613	0.0179198
880.692	0.0180759
880.770	0.0179956
880.848	0.0179024
880.926	0.0180275
881.004	0.0178810
881.082	0.0178241
881.160	0.0177925
881.238	0.0177976
881.317	0.0178439
881.395	0.0176846
881.473	0.0176965
881.551	0.0177760
881.629	0.0177487
881.707	0.0175967
881.785	0.0177323
881.863	0.0174551
881.942	0.0174673
882.020	0.0175700
882.098	0.0175277
882.176	0.0174345
882.254	0.0173354
882.332	0.0173341
882.410	0.0171987
882.488	0.0173714
882.567	0.0173217
882.645	0.0172710
882.723	0.0172696
882.801	0.0172371
882.879	0.0172043
882.957	0.0171744
883.035	0.0173115
883.113	0.0173225
883.192	0.0173653
883.270	0.0175420
883.348	0.0176638
883.426	0.0176357
883.504	0.0176645
883.582	0.0177571
883.660	0.0178591
883.738	0.0178896
883.817	0.0179057
883.895	0.0178069
883.973	0.0179232
884.051	0.0178564
884.129	0.0180183
884.207	0.0179211
884.285	0.0179759
884.363	0.0179337
884.442	0.0177988
884.520	0.0177047
884.598	0.0177422
884.676	0.0177514
884.754	0.0177230
884.832	0.0177100
884.910	0.0177519
884.988	0.0176478
885.067	0.0175922
885.145	0.0176174
885.223	0.0174942
885.301	0.0175454
885.379	0.0173335
885.457	0.0174765
885.535	0.0172861
885.613	0.0171457
885.692	0.0171806
885.770	0.0171436
885.848	0.0170367
885.926	0.0170427
886.004	0.0169823
886.082	0.0170418
886.160	0.0171696
886.238	0.0171541
886.317	0.0170465
886.395	0.0171626
886.473	0.0173433
886.551	0.0172901
886.629	0.0173564
886.707	0.0175738
886.785	0.0175043
886.863	0.0177055
886.942	0.0177174
887.020	0.0176751
887.098	0.0177134
887.176	0.0178616
887.254	0.0178249
887.332	0.0177528
887.410	0.0179512
887.488	0.0180886
887.567	0.0180383
887.645	0.0182185
887.723	0.0180399
887.801	0.0181287
887.879	0.0181611
887.957	0.0181851
888.035	0.0182925
888.113	0.0182877
888.192	0.0181985
888.270	0.0183294
888.348	0.0182509
888.426	0.0181847
888.504	0.0182063
888.582	0.0182072
888.660	0.0180621
888.738	0.0179284
888.817	0.0178931
888.895	0.0175642
888.973	0.0175387
889.051	0.0174857
889.129	0.0174100
889.207	0.0171952
889.285	0.0171102
889.363	0.0170037
889.442	0.0170033
889.520	0.0168870
889.598	0.0168216
889.676	0.0168885
889.754	0.0168207
889.832	0.0169276
889.910	0.0170348
889.988	0.0170642
890.067	0.0170666
890.145	0.0172002
890.223	0.0170797
890.301	0.0171310
890.379	0.0173610
890.457	0.0175604
890.535	0.0177325
890.613	0.0176830
890.692	0.0176452
890.770	0.0177773
890.848	0.0177921
890.926	0.0180175
891.004	0.0179508
891.082	0.0179935
891.160	0.0180953
891.238	0.0180238
891.317	0.0180582
891.395	0.0180131
891.473	0.0182092
891.551	0.0181832
891.629	0.0181471
891.707	0.0180173
891.785	0.0180194
891.863	0.0180844
891.942	0.0179473
892.020	0.0179419
892.098	0.0178580
892.176	0.0178471
892.254	0.0178294
892.332	0.0177077
892.410	0.0176628
892.488	0.0176516
892.567	0.0176909
892.645	0.0177525
892.723	0.0177678
892.801	0.0175685
892.879	0.0175850
892.957	0.0175798
893.035	0.0174744
893.113	0.0175959
893.192	0.0176050
893.270	0.0175413
893.348	0.0174229
893.426	0.0174818
893.504	0.0174326
893.582	0.0173486
893.660	0.0172603
893.738	0.0171983
893.817	0.0172160
893.895	0.0171503
893.973	0.0169219
894.051	0.0170395
894.129	0.0170010
894.207	0.0169033
894.285	0.0168237
894.363	0.0167587
894.442	0.0166426
894.520	0.0168546
894.598	0.0168559
894.676	0.0169255
894.754	0.0170113
894.832	0.0170707
894.910	0.0171697
894.988	0.0174385
895.067	0.0174413
895.145	0.0177196
895.223	0.0178800
895.301	0.0180728
895.379	0.0181059
895.457	0.0183323
895.535	0.0183475
895.613	0.0183298
895.692	0.0182967
895.770	0.0184749
895.848	0.0184458
895.926	0.0186457
896.004	0.0184798
896.082	0.0184498
896.160	0.0184642
896.238	0.0184235
896.317	0.0183530
896.395	0.0183736
896.473	0.0183533
896.551	0.0180283
896.629	0.0179176
896.707	0.0179250
896.785	0.0179825
896.863	0.0178812
896.942	0.0177293
897.020	0.0176506
897.098	0.0174658
897.176	0.0172710
897.254	0.0173405
897.332	0.0172458
897.410	0.0173265
897.488	0.0172552
897.567	0.0173462
897.645	0.0174506
897.723	0.0173166
897.801	0.0174119
897.879	0.0175453
897.957	0.0174789
898.035	0.0176646
898.113	0.0177054
898.192	0.0177471
898.270	0.0178821
898.348	0.0176641
898.426	0.0176081
898.504	0.0177328
898.582	0.0176564
898.660	0.0173721
898.738	0.0173997
898.817	0.0174609
898.895	0.0172748
898.973	0.0171528
899.051	0.0170798
899.129	0.0170647
899.207	0.0170286
899.285	0.0168385
899.363	0.0170479
899.442	0.0170006
899.520	0.0169398
899.598	0.0171590
899.676	0.0171838
899.754	0.0171117
899.832	0.0171548
899.910	0.0173895
899.988	0.0173767
900.067	0.0175173
900.145	0.0175288
900.223	0.0176797
900.301	0.0177360
900.379	0.0176759
900.457	0.0177624
900.535	0.0179516
900.613	0.0178892
900.692	0.0178902
900.770	0.0179305
900.848	0.0177564
900.926	0.0179599
901.004	0.0178410
901.082	0.0177646
901.160	0.0179792
901.238	0.0179626
901.317	0.0179218
901.395	0.0178753
901.473	0.0178728
901.551	0.0179433
901.629	0.0178344
901.707	0.0177806
901.785	0.0177954
901.863	0.0176910
901.942	0.0177940
902.020	0.0177308
902.098	0.0176810
902.176	0.0176737
902.254	0.0177880
902.332	0.0177485
902.410	0.0176182
902.488	0.0177220
902.567	0.0177550
902.645	0.0178045
902.723	0.0178720
902.801	0.0177843
902.879	0.0178416
902.957	0.0177318
903.035	0.0177792
903.113	0.0178888
903.192	0.0179352
903.270	0.0176546
903.348	0.0177474
903.426	0.0179252
903.504	0.0178478
903.582	0.0176405
903.660	0.0177151
903.738	0.0176376
903.817	0.0174688
903.895	0.0176012
903.973	0.0174983
904.051	0.0173779
904.129	0.0173478
904.207	0.0172340
904.285	0.0171383
904.363	0.0170775
904.442	0.0169839
904.520	0.0170221
904.598	0.0169499
904.676	0.0170096
904.754	0.0171174
904.832	0.0170362
904.910	0.0172250
904.988	0.0172975
905.067	0.0174869
905.145	0.0173476
905.223	0.0175512
905.301	0.0176889
905.379	0.0176989
905.457	0.0178336
905.535	0.0178143
905.613	0.0177826
905.692	0.0180232
905.770	0.0181169
905.848	0.0181812
905.926	0.0179562
906.004	0.0179482
906.082	0.0179642
906.160	0.0180127
906.238	0.0179536
906.317	0.0180508
906.395	0.0181259
906.473	0.0178181
906.551	0.0178721
906.629	0.0179942
906.707	0.0179407
906.785	0.0177553
906.863	0.0177911
906.942	0.0178259
907.020	0.0176144
907.098	0.0175089
907.176	0.0176604
907.254	0.0175455
907.332	0.0173969
907.410	0.0172867
907.488	0.0173941
907.567	0.0172711
907.645	0.0173367
907.723	0.0173901
907.801	0.0174330
907.879	0.0173668
907.957	0.0174616
908.035	0.0174148
908.113	0.0176595
908.192	0.0175301
908.270	0.0175573
908.348	0.0177261
908.426	0.0176978
908.504	0.0177248
908.582	0.0178136
908.660	0.0177010
908.738	0.0176833
908.817	0.0177264
908.895	0.0175365
908.973	0.0173978
909.051	0.0173878
909.129	0.0173831
909.207	0.0172533
909.285	0.0172610
909.363	0.0172389
909.442	0.0170572
909.520	0.0171451
909.598	0.0171344
909.676	0.0171548
909.754	0.0172511
909.832	0.0173788
909.910	0.0174734
909.988	0.0176131
910.067	0.0176310
910.145	0.0178413
910.223	0.0178065
910.301	0.0179391
910.379	0.0180949
910.457	0.0178905
910.535	0.0180978
910.613	0.0180566
910.692	0.0181256
910.770	0.0181879
910.848	0.0181787
910.926	0.0181426
911.004	0.0182050
911.082	0.0181074
911.160	0.0179912
911.238	0.0179110
911.317	0.0180640
911.395	0.0179813
911.473	0.0177586
911.551	0.0178274
911.629	0.0176760
911.707	0.0176327
911.785	0.0175382
911.863	0.0174927
911.942	0.0174841
912.020	0.0173723
912.098	0.0173172
912.176	0.0172640
912.254	0.0172093
912.332	0.0173427
912.410	0.0172928
912.488	0.0172266
912.567	0.0171906
912.645	0.0173695
912.723	0.0174553
912.801	0.0174985
912.879	0.0173979
912.957	0.0174841
913.035	0.0175327
913.113	0.0176540
913.192	0.0176845
913.270	0.0175654
913.348	0.0176325
913.426	0.0178062
913.504	0.0177841
913.582	0.0178959
913.660	0.0178233
913.738	0.0177892
913.817	0.0177647
913.895	0.0178416
913.973	0.0177311
914.051	0.0178309
914.129	0.0176019
914.207	0.0175118
914.285	0.0176269
914.363	0.0173212
914.442	0.0174008
914.520	0.0173430
914.598	0.0172427
914.676	0.0172607
914.754	0.0172035
914.832	0.0173407
914.910	0.0172303
914.988	0.0172203
915.067	0.0173526
915.145	0.0174331
915.223	0.0174966
915.301	0.0175420
915.379	0.0175771
915.457	0.0176698
915.535	0.0176895
915.613	0.0179604
915.692	0.0179147
915.770	0.0180388
915.848	0.0180104
915.926	0.0180788
916.004	0.0180499
916.082	0.0179339
916.160	0.0180211
916.238	0.0179077
916.317	0.0179578
916.395	0.0178496
916.473	0.0176455
916.551	0.0176682
916.629	0.0177685
916.707	0.0178062
916.785	0.0176629
916.863	0.0175643
916.942	0.0177293
917.020	0.0176192
917.098	0.0175450
917.176	0.0176637
917.254	0.0173408
917.332	0.0173782
917.410	0.0175840
917.488	0.0174175
917.567	0.0173379
917.645	0.0173770
917.723	0.0176154
917.801	0.0173953
917.879	0.0173348
917.957	0.0174489
918.035	0.0175010
918.113	0.0174818
918.192	0.0175864
918.270	0.0174652
918.348	0.0175735
918.426	0.0176237
918.504	0.0175249
918.582	0.0177003
918.660	0.0177200
918.738	0.0176459
918.817	0.0177708
918.895	0.0175769
918.973	0.0175388
919.051	0.0176711
919.129	0.0176155
919.207	0.0174657
919.285	0.0175501
919.363	0.0174019
919.442	0.0175195
919.520	0.0173892
919.598	0.0172878
919.676	0.0173917
919.754	0.0174401
919.832	0.0174923
919.910	0.0175639
