06/01/2022	21:43:07	Ver.	4.1	UNKNOWN
Optical Delay	599.988409	Delta X		0.078125	Sweeps	1	Scan Rate	0/0
Coordinates	Axis 1	NaN	Axis 2	NaN	Axis 3	NaN	Axis 4	NaN	Axis 5	NaN	Axis 6	0.000000
TX Power	0.000000	RX Power	0.000000

599.988	0.0174287
600.067	0.0174500
600.145	0.0172997
600.223	0.0174374
600.301	0.0176019
600.379	0.0174004
600.457	0.0173293
600.535	0.0174377
600.613	0.0174100
600.692	0.0172645
600.770	0.0174927
600.848	0.0174866
600.926	0.0173229
601.004	0.0173932
601.082	0.0173595
601.160	0.0173769
601.238	0.0173616
601.317	0.0174225
601.395	0.0173880
601.473	0.0174657
601.551	0.0173809
601.629	0.0173378
601.707	0.0174252
601.785	0.0173671
601.863	0.0174052
601.942	0.0174656
602.020	0.0175512
602.098	0.0174831
602.176	0.0174632
602.254	0.0174457
602.332	0.0173731
602.410	0.0173924
602.488	0.0174434
602.567	0.0174541
602.645	0.0174084
602.723	0.0174374
602.801	0.0173793
602.879	0.0174438
602.957	0.0173992
603.035	0.0172926
603.113	0.0174412
603.192	0.0174056
603.270	0.0173917
603.348	0.0173494
603.426	0.0174745
603.504	0.0174306
603.582	0.0173728
603.660	0.0174883
603.738	0.0173241
603.817	0.0174079
603.895	0.0173898
603.973	0.0173584
604.051	0.0174667
604.129	0.0174654
604.207	0.0174288
604.285	0.0173502
604.363	0.0174088
604.442	0.0175036
604.520	0.0173041
604.598	0.0173228
604.676	0.0176046
604.754	0.0174493
604.832	0.0173446
604.910	0.0173728
604.988	0.0174607
605.067	0.0173901
605.145	0.0173875
605.223	0.0174211
605.301	0.0174549
605.379	0.0173935
605.457	0.0175053
605.535	0.0173750
605.613	0.0173348
605.692	0.0174910
605.770	0.0173877
605.848	0.0173425
605.926	0.0173872
606.004	0.0173489
606.082	0.0173707
606.160	0.0174007
606.238	0.0175411
606.317	0.0174471
606.395	0.0174671
606.473	0.0175059
606.551	0.0174517
606.629	0.0173921
606.707	0.0173563
606.785	0.0175262
606.863	0.0175034
606.942	0.0173739
607.020	0.0174731
607.098	0.0175048
607.176	0.0174716
607.254	0.0173613
607.332	0.0175343
607.410	0.0174306
607.488	0.0174275
607.567	0.0174065
607.645	0.0174358
607.723	0.0174129
607.801	0.0173957
607.879	0.0174452
607.957	0.0175740
608.035	0.0173430
608.113	0.0172797
608.192	0.0172990
608.270	0.0174502
608.348	0.0174458
608.426	0.0174112
608.504	0.0174049
608.582	0.0174870
608.660	0.0173245
608.738	0.0172636
608.817	0.0173566
608.895	0.0175025
608.973	0.0173288
609.051	0.0174458
609.129	0.0174290
609.207	0.0173650
609.285	0.0172863
609.363	0.0173415
609.442	0.0174445
609.520	0.0173479
609.598	0.0174612
609.676	0.0175721
609.754	0.0174577
609.832	0.0173864
609.910	0.0174767
609.988	0.0174268
610.067	0.0174100
610.145	0.0173622
610.223	0.0175832
610.301	0.0174387
610.379	0.0174447
610.457	0.0173689
610.535	0.0174645
610.613	0.0173932
610.692	0.0173526
610.770	0.0174438
610.848	0.0174897
610.926	0.0175068
611.004	0.0175285
611.082	0.0175329
611.160	0.0173764
611.238	0.0173945
611.317	0.0174960
611.395	0.0174762
611.473	0.0174763
611.551	0.0174320
611.629	0.0174384
611.707	0.0174252
611.785	0.0174529
611.863	0.0173569
611.942	0.0173188
612.020	0.0174200
612.098	0.0174576
612.176	0.0175117
612.254	0.0173642
612.332	0.0174208
612.410	0.0174834
612.488	0.0174860
612.567	0.0175616
612.645	0.0175509
612.723	0.0173941
612.801	0.0173370
612.879	0.0174693
612.957	0.0175797
613.035	0.0174618
613.113	0.0175002
613.192	0.0176151
613.270	0.0174081
613.348	0.0172722
613.426	0.0174902
613.504	0.0174028
613.582	0.0174265
613.660	0.0173449
613.738	0.0174843
613.817	0.0175392
613.895	0.0174227
613.973	0.0174409
614.051	0.0174107
614.129	0.0174014
614.207	0.0173366
614.285	0.0173048
614.363	0.0173127
614.442	0.0173812
614.520	0.0174137
614.598	0.0173015
614.676	0.0173706
614.754	0.0173603
614.832	0.0174189
614.910	0.0174565
614.988	0.0173801
615.067	0.0173138
615.145	0.0173578
615.223	0.0174540
615.301	0.0174156
615.379	0.0173350
615.457	0.0173811
615.535	0.0174403
615.613	0.0174985
615.692	0.0172609
615.770	0.0174342
615.848	0.0174612
615.926	0.0173801
616.004	0.0173979
616.082	0.0173106
616.160	0.0175187
616.238	0.0174667
616.317	0.0173404
616.395	0.0172832
616.473	0.0174894
616.551	0.0174438
616.629	0.0175372
616.707	0.0174334
616.785	0.0173404
616.863	0.0174629
616.942	0.0173931
617.020	0.0176547
617.098	0.0175628
617.176	0.0173928
617.254	0.0173967
617.332	0.0174041
617.410	0.0174570
617.488	0.0175547
617.567	0.0176471
617.645	0.0175204
617.723	0.0173911
617.801	0.0174172
617.879	0.0174692
617.957	0.0175021
618.035	0.0174873
618.113	0.0173920
618.192	0.0174348
618.270	0.0174280
618.348	0.0175224
618.426	0.0174831
618.504	0.0174776
618.582	0.0174942
618.660	0.0172838
618.738	0.0173759
618.817	0.0175042
618.895	0.0174390
618.973	0.0174189
619.051	0.0174146
619.129	0.0174155
619.207	0.0173852
619.285	0.0175787
619.363	0.0175050
619.442	0.0174725
619.520	0.0176096
619.598	0.0174539
619.676	0.0174638
619.754	0.0174191
619.832	0.0175074
619.910	0.0175536
619.988	0.0173621
620.067	0.0173105
620.145	0.0174680
620.223	0.0175695
620.301	0.0175585
620.379	0.0174987
620.457	0.0174312
620.535	0.0174557
620.613	0.0174834
620.692	0.0174312
620.770	0.0174725
620.848	0.0175004
620.926	0.0174902
621.004	0.0176026
621.082	0.0174120
621.160	0.0175216
621.238	0.0175007
621.317	0.0174393
621.395	0.0174678
621.473	0.0175141
621.551	0.0174542
621.629	0.0175314
621.707	0.0174454
621.785	0.0175201
621.863	0.0175289
621.942	0.0176511
622.020	0.0176146
622.098	0.0175087
622.176	0.0174495
622.254	0.0174323
622.332	0.0175373
622.410	0.0174690
622.488	0.0173981
622.567	0.0173443
622.645	0.0173302
622.723	0.0175516
622.801	0.0173895
622.879	0.0174228
622.957	0.0174320
623.035	0.0173419
623.113	0.0173798
623.192	0.0173193
623.270	0.0173013
623.348	0.0172674
623.426	0.0173431
623.504	0.0173271
623.582	0.0172891
623.660	0.0173087
623.738	0.0174534
623.817	0.0173765
623.895	0.0172211
623.973	0.0172633
624.051	0.0174046
624.129	0.0174235
624.207	0.0175224
624.285	0.0174262
624.363	0.0175281
624.442	0.0174932
624.520	0.0173200
624.598	0.0173777
624.676	0.0173868
624.754	0.0174117
624.832	0.0175879
624.910	0.0174812
624.988	0.0175025
625.067	0.0173649
625.145	0.0174152
625.223	0.0175450
625.301	0.0175661
625.379	0.0175223
625.457	0.0174900
625.535	0.0174316
625.613	0.0174230
625.692	0.0175230
625.770	0.0174061
625.848	0.0173313
625.926	0.0175285
626.004	0.0174570
626.082	0.0174522
626.160	0.0175072
626.238	0.0174695
626.317	0.0173544
626.395	0.0174881
626.473	0.0174193
626.551	0.0174724
626.629	0.0174778
626.707	0.0173460
626.785	0.0174574
626.863	0.0175432
626.942	0.0174088
627.020	0.0173525
627.098	0.0173811
627.176	0.0174331
627.254	0.0173319
627.332	0.0173745
627.410	0.0173730
627.488	0.0173084
627.567	0.0173797
627.645	0.0174781
627.723	0.0173729
627.801	0.0174353
627.879	0.0174187
627.957	0.0173284
628.035	0.0174394
628.113	0.0173844
628.192	0.0173228
628.270	0.0172900
628.348	0.0173349
628.426	0.0172510
628.504	0.0174540
628.582	0.0174028
628.660	0.0174748
628.738	0.0173204
628.817	0.0172437
628.895	0.0172927
628.973	0.0173309
629.051	0.0174644
629.129	0.0174290
629.207	0.0172949
629.285	0.0174699
629.363	0.0175155
629.442	0.0175595
629.520	0.0174937
629.598	0.0174735
629.676	0.0176022
629.754	0.0174530
629.832	0.0175249
629.910	0.0176592
629.988	0.0175067
630.067	0.0174524
630.145	0.0175687
630.223	0.0174106
630.301	0.0173843
630.379	0.0175473
630.457	0.0175468
630.535	0.0173692
630.613	0.0174776
630.692	0.0174358
630.770	0.0174921
630.848	0.0173212
630.926	0.0175362
631.004	0.0173775
631.082	0.0174086
631.160	0.0174711
631.238	0.0175182
631.317	0.0174445
631.395	0.0174579
631.473	0.0174326
631.551	0.0174794
631.629	0.0174532
631.707	0.0174298
631.785	0.0174078
631.863	0.0174255
631.942	0.0173336
632.020	0.0174267
632.098	0.0172672
632.176	0.0173421
632.254	0.0174507
632.332	0.0174176
632.410	0.0174783
632.488	0.0174171
632.567	0.0172990
632.645	0.0174751
632.723	0.0172571
632.801	0.0174326
632.879	0.0174065
632.957	0.0173323
633.035	0.0173082
633.113	0.0174483
633.192	0.0174323
633.270	0.0173798
633.348	0.0173486
633.426	0.0173803
633.504	0.0175037
633.582	0.0174792
633.660	0.0173703
633.738	0.0172710
633.817	0.0174432
633.895	0.0174951
633.973	0.0175110
634.051	0.0172694
634.129	0.0174015
634.207	0.0174883
634.285	0.0174164
634.363	0.0174587
634.442	0.0174982
634.520	0.0175121
634.598	0.0174487
634.676	0.0173922
634.754	0.0173597
634.832	0.0175005
634.910	0.0175604
634.988	0.0173389
635.067	0.0174217
635.145	0.0174575
635.223	0.0173429
635.301	0.0175104
635.379	0.0174786
635.457	0.0175488
635.535	0.0175301
635.613	0.0174301
635.692	0.0175401
635.770	0.0174237
635.848	0.0174966
635.926	0.0173676
636.004	0.0173927
636.082	0.0174661
636.160	0.0173827
636.238	0.0174694
636.317	0.0174329
636.395	0.0173884
636.473	0.0173895
636.551	0.0173557
636.629	0.0173254
636.707	0.0174413
636.785	0.0174109
636.863	0.0173750
636.942	0.0174448
637.020	0.0173637
637.098	0.0173560
637.176	0.0174516
637.254	0.0174039
637.332	0.0174979
637.410	0.0174531
637.488	0.0174085
637.567	0.0174075
637.645	0.0174097
637.723	0.0174104
637.801	0.0173991
637.879	0.0173210
637.957	0.0173699
638.035	0.0173432
638.113	0.0173779
638.192	0.0173733
638.270	0.0174182
638.348	0.0173127
638.426	0.0173205
638.504	0.0176164
638.582	0.0173829
638.660	0.0173681
638.738	0.0172810
638.817	0.0173470
638.895	0.0174830
638.973	0.0175471
639.051	0.0173506
639.129	0.0173326
639.207	0.0174144
639.285	0.0173077
639.363	0.0174542
639.442	0.0174001
639.520	0.0175233
639.598	0.0173949
639.676	0.0174819
639.754	0.0174488
639.832	0.0175099
639.910	0.0173755
639.988	0.0176107
640.067	0.0173953
640.145	0.0174123
640.223	0.0174744
640.301	0.0174656
640.379	0.0173074
640.457	0.0174663
640.535	0.0174534
640.613	0.0174107
640.692	0.0174850
640.770	0.0174284
640.848	0.0173971
640.926	0.0174932
641.004	0.0174395
641.082	0.0173943
641.160	0.0173800
641.238	0.0173659
641.317	0.0173332
641.395	0.0174161
641.473	0.0173959
641.551	0.0174492
641.629	0.0173587
641.707	0.0173447
641.785	0.0173726
641.863	0.0172720
641.942	0.0174200
642.020	0.0174921
642.098	0.0173135
642.176	0.0173346
642.254	0.0173276
642.332	0.0173397
642.410	0.0173144
642.488	0.0173648
642.567	0.0175360
642.645	0.0173728
642.723	0.0173905
642.801	0.0174497
642.879	0.0174232
642.957	0.0172309
643.035	0.0173215
643.113	0.0172837
643.192	0.0173356
643.270	0.0174312
643.348	0.0175171
643.426	0.0172945
643.504	0.0172863
643.582	0.0174289
643.660	0.0173836
643.738	0.0173935
643.817	0.0173322
643.895	0.0174969
643.973	0.0176227
644.051	0.0173028
644.129	0.0173519
644.207	0.0174041
644.285	0.0174161
644.363	0.0174376
644.442	0.0173939
644.520	0.0173190
644.598	0.0174825
644.676	0.0174990
644.754	0.0174355
644.832	0.0173454
644.910	0.0173920
644.988	0.0174386
645.067	0.0174237
645.145	0.0174939
645.223	0.0174088
645.301	0.0174680
645.379	0.0176177
645.457	0.0173690
645.535	0.0173299
645.613	0.0173980
645.692	0.0174458
645.770	0.0174373
645.848	0.0174221
645.926	0.0174136
646.004	0.0174642
646.082	0.0175040
646.160	0.0174030
646.238	0.0174499
646.317	0.0174812
646.395	0.0173483
646.473	0.0173946
646.551	0.0175071
646.629	0.0174718
646.707	0.0174365
646.785	0.0173963
646.863	0.0173257
646.942	0.0175429
647.020	0.0174773
647.098	0.0175346
647.176	0.0172806
647.254	0.0174465
647.332	0.0174182
647.410	0.0173895
647.488	0.0173755
647.567	0.0174257
647.645	0.0174957
647.723	0.0175597
647.801	0.0174612
647.879	0.0174623
647.957	0.0174161
648.035	0.0174298
648.113	0.0174524
648.192	0.0174683
648.270	0.0175956
648.348	0.0174643
648.426	0.0175408
648.504	0.0173997
648.582	0.0173459
648.660	0.0174964
648.738	0.0174464
648.817	0.0173650
648.895	0.0174078
648.973	0.0174317
649.051	0.0173501
649.129	0.0173922
649.207	0.0175729
649.285	0.0174117
649.363	0.0174650
649.442	0.0174110
649.520	0.0173795
649.598	0.0175127
649.676	0.0174410
649.754	0.0174638
649.832	0.0174355
649.910	0.0174584
649.988	0.0174355
650.067	0.0173816
650.145	0.0174490
650.223	0.0174184
650.301	0.0173297
650.379	0.0173591
650.457	0.0174795
650.535	0.0174112
650.613	0.0175043
650.692	0.0173354
650.770	0.0173354
650.848	0.0174292
650.926	0.0173810
651.004	0.0175012
651.082	0.0175387
651.160	0.0173820
651.238	0.0173294
651.317	0.0174046
651.395	0.0173727
651.473	0.0172758
651.551	0.0174166
651.629	0.0175513
651.707	0.0176003
651.785	0.0175289
651.863	0.0175117
651.942	0.0174757
652.020	0.0174643
652.098	0.0173985
652.176	0.0174767
652.254	0.0174723
652.332	0.0174364
652.410	0.0175301
652.488	0.0173537
652.567	0.0174889
652.645	0.0174277
652.723	0.0174519
652.801	0.0175166
652.879	0.0175202
652.957	0.0173814
653.035	0.0174945
653.113	0.0174543
653.192	0.0173838
653.270	0.0176350
653.348	0.0174338
653.426	0.0173553
653.504	0.0173184
653.582	0.0174227
653.660	0.0174905
653.738	0.0174241
653.817	0.0174594
653.895	0.0174080
653.973	0.0174320
654.051	0.0173201
654.129	0.0174866
654.207	0.0174634
654.285	0.0173699
654.363	0.0173637
654.442	0.0174660
654.520	0.0174498
654.598	0.0173503
654.676	0.0174861
654.754	0.0174085
654.832	0.0175025
654.910	0.0174857
654.988	0.0173994
655.067	0.0174852
655.145	0.0174819
655.223	0.0173629
655.301	0.0173440
655.379	0.0174222
655.457	0.0174114
655.535	0.0175101
655.613	0.0174339
655.692	0.0173856
655.770	0.0174567
655.848	0.0174158
655.926	0.0174702
656.004	0.0173209
656.082	0.0173286
656.160	0.0175280
656.238	0.0174297
656.317	0.0174697
656.395	0.0174249
656.473	0.0173069
656.551	0.0173953
656.629	0.0173889
656.707	0.0174557
656.785	0.0174220
656.863	0.0173361
656.942	0.0174478
657.020	0.0174662
657.098	0.0173997
657.176	0.0174133
657.254	0.0173512
657.332	0.0173322
657.410	0.0173338
657.488	0.0173692
657.567	0.0173550
657.645	0.0173807
657.723	0.0174474
657.801	0.0173661
657.879	0.0173409
657.957	0.0175288
658.035	0.0173516
658.113	0.0173531
658.192	0.0173780
658.270	0.0173798
658.348	0.0174036
658.426	0.0174498
658.504	0.0174804
658.582	0.0173795
658.660	0.0173546
658.738	0.0174850
658.817	0.0174915
658.895	0.0172396
658.973	0.0173651
659.051	0.0175385
659.129	0.0174854
659.207	0.0173732
659.285	0.0173026
659.363	0.0173599
659.442	0.0173234
659.520	0.0174168
659.598	0.0173868
659.676	0.0172929
659.754	0.0174233
659.832	0.0173372
659.910	0.0174589
659.988	0.0174504
660.067	0.0172860
660.145	0.0174458
660.223	0.0174776
660.301	0.0174419
660.379	0.0174969
660.457	0.0174145
660.535	0.0174611
660.613	0.0173343
660.692	0.0174590
660.770	0.0173515
660.848	0.0174117
660.926	0.0175459
661.004	0.0173517
661.082	0.0173144
661.160	0.0174560
661.238	0.0173524
661.317	0.0173872
661.395	0.0173310
661.473	0.0173461
661.551	0.0174426
661.629	0.0174271
661.707	0.0175227
661.785	0.0174110
661.863	0.0172765
661.942	0.0173936
662.020	0.0173853
662.098	0.0174749
662.176	0.0174498
662.254	0.0174879
662.332	0.0173196
662.410	0.0174443
662.488	0.0174279
662.567	0.0173988
662.645	0.0174695
662.723	0.0174648
662.801	0.0174151
662.879	0.0173329
662.957	0.0174922
663.035	0.0173379
663.113	0.0172394
663.192	0.0174554
663.270	0.0174509
663.348	0.0173382
663.426	0.0175507
663.504	0.0174162
663.582	0.0173964
663.660	0.0174143
663.738	0.0173955
663.817	0.0174603
663.895	0.0174114
663.973	0.0174274
664.051	0.0174476
664.129	0.0172632
664.207	0.0174867
664.285	0.0174146
664.363	0.0174739
664.442	0.0173221
664.520	0.0174018
664.598	0.0174220
664.676	0.0174743
664.754	0.0175333
664.832	0.0172955
664.910	0.0175086
664.988	0.0174369
665.067	0.0172916
665.145	0.0174651
665.223	0.0174400
665.301	0.0174244
665.379	0.0174791
665.457	0.0173559
665.535	0.0173821
665.613	0.0173512
665.692	0.0173846
665.770	0.0173141
665.848	0.0174489
665.926	0.0174916
666.004	0.0173877
666.082	0.0173325
666.160	0.0173928
666.238	0.0173535
666.317	0.0174979
666.395	0.0174690
666.473	0.0174760
666.551	0.0173815
666.629	0.0172292
666.707	0.0173126
666.785	0.0174809
666.863	0.0173344
666.942	0.0172932
667.020	0.0173547
667.098	0.0172685
667.176	0.0174759
667.254	0.0173092
667.332	0.0173849
667.410	0.0173591
667.488	0.0175072
667.567	0.0173798
667.645	0.0172627
667.723	0.0174100
667.801	0.0175046
667.879	0.0176723
667.957	0.0174342
668.035	0.0173726
668.113	0.0174815
668.192	0.0175497
668.270	0.0174278
668.348	0.0174371
668.426	0.0174676
668.504	0.0174655
668.582	0.0173246
668.660	0.0174165
668.738	0.0172492
668.817	0.0172502
668.895	0.0173413
668.973	0.0174220
669.051	0.0174302
669.129	0.0173486
669.207	0.0173528
669.285	0.0173968
669.363	0.0174960
669.442	0.0174318
669.520	0.0175406
669.598	0.0172913
669.676	0.0173486
669.754	0.0175526
669.832	0.0176350
669.910	0.0174774
669.988	0.0174944
670.067	0.0175127
670.145	0.0176099
670.223	0.0175414
670.301	0.0175227
670.379	0.0174374
670.457	0.0172390
670.535	0.0171722
670.613	0.0172325
670.692	0.0172561
670.770	0.0172556
670.848	0.0172913
670.926	0.0172140
671.004	0.0172158
671.082	0.0172256
671.160	0.0173846
671.238	0.0173373
671.317	0.0175330
671.395	0.0174813
671.473	0.0174155
671.551	0.0174934
671.629	0.0174706
671.707	0.0175542
671.785	0.0174577
671.863	0.0174799
671.942	0.0175285
672.020	0.0173843
672.098	0.0173919
672.176	0.0172861
672.254	0.0173215
672.332	0.0172710
672.410	0.0171934
672.488	0.0171365
672.567	0.0172335
672.645	0.0171350
672.723	0.0172392
672.801	0.0172911
672.879	0.0173267
672.957	0.0174575
673.035	0.0172031
673.113	0.0174948
673.192	0.0175288
673.270	0.0175006
673.348	0.0174762
673.426	0.0174417
673.504	0.0174627
673.582	0.0174415
673.660	0.0174245
673.738	0.0174622
673.817	0.0176390
673.895	0.0175320
673.973	0.0173724
674.051	0.0173534
674.129	0.0173457
674.207	0.0174071
674.285	0.0173013
674.363	0.0170891
674.442	0.0173177
674.520	0.0173425
674.598	0.0172343
674.676	0.0172183
674.754	0.0173690
674.832	0.0173489
674.910	0.0172974
674.988	0.0173102
675.067	0.0174259
675.145	0.0173828
675.223	0.0173636
675.301	0.0175037
675.379	0.0175439
675.457	0.0174741
675.535	0.0174935
675.613	0.0174842
675.692	0.0175373
675.770	0.0175793
675.848	0.0176134
675.926	0.0175909
676.004	0.0174489
676.082	0.0174952
676.160	0.0173883
676.238	0.0174796
676.317	0.0173006
676.395	0.0173259
676.473	0.0174723
676.551	0.0173531
676.629	0.0172569
676.707	0.0172610
676.785	0.0172252
676.863	0.0173106
676.942	0.0172491
677.020	0.0173708
677.098	0.0173427
677.176	0.0174532
677.254	0.0175451
677.332	0.0175288
677.410	0.0174815
677.488	0.0175159
677.567	0.0176812
677.645	0.0175919
677.723	0.0175665
677.801	0.0174908
677.879	0.0174510
677.957	0.0174089
678.035	0.0172784
678.113	0.0172952
678.192	0.0172025
678.270	0.0171121
678.348	0.0168853
678.426	0.0170289
678.504	0.0170925
678.582	0.0171052
678.660	0.0170374
678.738	0.0171027
678.817	0.0171790
678.895	0.0172636
678.973	0.0173010
679.051	0.0174821
679.129	0.0175673
679.207	0.0175401
679.285	0.0175717
679.363	0.0175531
679.442	0.0176369
679.520	0.0177206
679.598	0.0177267
679.676	0.0176965
679.754	0.0176420
679.832	0.0175880
679.910	0.0175949
679.988	0.0175129
680.067	0.0173380
680.145	0.0174359
680.223	0.0174188
680.301	0.0173962
680.379	0.0172445
680.457	0.0173152
680.535	0.0173478
680.613	0.0173951
680.692	0.0175455
680.770	0.0174408
680.848	0.0174934
680.926	0.0174911
681.004	0.0176737
681.082	0.0176515
681.160	0.0177729
681.238	0.0176519
681.317	0.0176824
681.395	0.0175010
681.473	0.0175105
681.551	0.0175000
681.629	0.0173460
681.707	0.0172002
681.785	0.0171545
681.863	0.0171505
681.942	0.0170547
682.020	0.0169984
682.098	0.0168777
682.176	0.0168984
682.254	0.0169560
682.332	0.0170587
682.410	0.0171592
682.488	0.0172465
682.567	0.0172208
682.645	0.0174197
682.723	0.0175943
682.801	0.0175480
682.879	0.0177099
682.957	0.0177776
683.035	0.0176802
683.113	0.0176332
683.192	0.0174593
683.270	0.0174168
683.348	0.0171481
683.426	0.0171261
683.504	0.0170780
683.582	0.0169021
683.660	0.0170398
683.738	0.0169869
683.817	0.0171767
683.895	0.0172068
683.973	0.0175161
684.051	0.0177898
684.129	0.0179173
684.207	0.0181001
684.285	0.0182668
684.363	0.0183893
684.442	0.0184576
684.520	0.0184846
684.598	0.0184478
684.676	0.0184170
684.754	0.0183360
684.832	0.0182630
684.910	0.0180074
684.988	0.0178216
685.067	0.0174411
685.145	0.0171966
685.223	0.0170169
685.301	0.0168015
685.379	0.0167093
685.457	0.0166557
685.535	0.0165473
685.613	0.0165163
685.692	0.0165685
685.770	0.0165060
685.848	0.0166830
685.926	0.0168537
686.004	0.0168720
686.082	0.0169287
686.160	0.0169275
686.238	0.0172041
686.317	0.0173814
686.395	0.0174372
686.473	0.0175375
686.551	0.0177187
686.629	0.0176881
686.707	0.0178381
686.785	0.0180126
686.863	0.0179169
686.942	0.0178335
687.020	0.0179036
687.098	0.0178047
687.176	0.0176449
687.254	0.0175900
687.332	0.0175508
687.410	0.0173739
687.488	0.0172775
687.567	0.0170767
687.645	0.0169627
687.723	0.0169376
687.801	0.0169080
687.879	0.0170911
687.957	0.0172649
688.035	0.0175835
688.113	0.0176318
688.192	0.0177935
688.270	0.0181499
688.348	0.0183831
688.426	0.0184859
688.504	0.0185259
688.582	0.0183779
688.660	0.0182331
688.738	0.0180149
688.817	0.0178325
688.895	0.0175129
688.973	0.0170817
689.051	0.0168697
689.129	0.0167200
689.207	0.0165103
689.285	0.0164421
689.363	0.0164092
689.442	0.0165374
689.520	0.0165374
689.598	0.0168151
689.676	0.0170309
689.754	0.0172179
689.832	0.0173632
689.910	0.0174933
689.988	0.0175807
690.067	0.0175578
690.145	0.0174704
690.223	0.0174804
690.301	0.0173832
690.379	0.0172610
690.457	0.0170721
690.535	0.0169283
690.613	0.0168554
690.692	0.0167579
690.770	0.0166028
690.848	0.0166129
690.926	0.0164848
691.004	0.0165640
691.082	0.0165150
691.160	0.0165292
691.238	0.0166333
691.317	0.0167811
691.395	0.0169672
691.473	0.0173784
691.551	0.0176625
691.629	0.0179505
691.707	0.0182918
691.785	0.0186480
691.863	0.0190415
691.942	0.0193692
692.020	0.0195787
692.098	0.0195234
692.176	0.0194646
692.254	0.0195179
692.332	0.0197141
692.410	0.0195110
692.488	0.0191848
692.567	0.0190212
692.645	0.0188476
692.723	0.0187492
692.801	0.0184375
692.879	0.0181495
692.957	0.0180242
693.035	0.0179180
693.113	0.0178450
693.192	0.0178657
693.270	0.0176802
693.348	0.0175807
693.426	0.0172315
693.504	0.0169138
693.582	0.0166672
693.660	0.0161808
693.738	0.0157903
693.817	0.0151846
693.895	0.0147414
693.973	0.0142023
694.051	0.0136394
694.129	0.0128709
694.207	0.0123820
694.285	0.0119415
694.363	0.0114529
694.442	0.0113943
694.520	0.0113889
694.598	0.0114420
694.676	0.0118133
694.754	0.0125322
694.832	0.0129935
694.910	0.0139909
694.988	0.0150576
695.067	0.0161168
695.145	0.0169833
695.223	0.0182065
695.301	0.0192056
695.379	0.0203732
695.457	0.0213900
695.535	0.0223553
695.613	0.0229395
695.692	0.0235797
695.770	0.0242056
695.848	0.0244490
695.926	0.0248879
696.004	0.0250548
696.082	0.0252954
696.160	0.0254655
696.238	0.0254729
696.317	0.0255298
696.395	0.0255939
696.473	0.0253194
696.551	0.0250272
696.629	0.0249004
696.707	0.0245156
696.785	0.0237843
696.863	0.0227615
696.942	0.0217521
697.020	0.0205270
697.098	0.0187305
697.176	0.0170543
697.254	0.0151652
697.332	0.0133466
697.410	0.0115703
697.488	0.00993965
697.567	0.00845406
697.645	0.00720749
697.723	0.00636986
697.801	0.00586945
697.879	0.00560707
697.957	0.00563278
698.035	0.00604095
698.113	0.00654648
698.192	0.00723389
698.270	0.00788437
698.348	0.00875381
698.426	0.00958664
698.504	0.0103233
698.582	0.0110745
698.660	0.0119138
698.738	0.0128136
698.817	0.0135181
698.895	0.0143167
698.973	0.0153278
699.051	0.0162093
699.129	0.0170766
699.207	0.0179881
699.285	0.0189471
699.363	0.0197482
699.442	0.0206777
699.520	0.0214078
699.598	0.0222263
699.676	0.0227012
699.754	0.0234098
699.832	0.0239072
699.910	0.0244202
699.988	0.0251440
700.067	0.0255792
700.145	0.0260468
700.223	0.0263336
700.301	0.0267224
700.379	0.0270723
700.457	0.0270538
700.535	0.0271107
700.613	0.0270384
700.692	0.0271027
700.770	0.0269984
700.848	0.0266747
700.926	0.0263664
701.004	0.0260143
701.082	0.0254671
701.160	0.0250279
701.238	0.0244706
701.317	0.0235756
701.395	0.0229226
701.473	0.0221477
701.551	0.0210392
701.629	0.0197915
701.707	0.0184859
701.785	0.0169704
701.863	0.0151676
701.942	0.0134453
702.020	0.0113332
702.098	0.00931656
702.176	0.00753494
702.254	0.00574249
702.332	0.00390617
702.410	0.00221764
702.488	0.00100555
702.567	-0.000157089
702.645	-0.00110298
702.723	-0.00164871
702.801	-0.00201515
702.879	-0.00173874
702.957	-0.00111778
703.035	-0.000411911
703.113	0.000928040
703.192	0.00271637
703.270	0.00478836
703.348	0.00679153
703.426	0.00928993
703.504	0.0119742
703.582	0.0144930
703.660	0.0171658
703.738	0.0197580
703.817	0.0220065
703.895	0.0242964
703.973	0.0264507
704.051	0.0280779
704.129	0.0297206
704.207	0.0308272
704.285	0.0315081
704.363	0.0320712
704.442	0.0320349
704.520	0.0319737
704.598	0.0315710
704.676	0.0307129
704.754	0.0299055
704.832	0.0290771
704.910	0.0282343
704.988	0.0272614
705.067	0.0263440
705.145	0.0256390
705.223	0.0249722
705.301	0.0244347
705.379	0.0239588
705.457	0.0235828
705.535	0.0235045
705.613	0.0233086
705.692	0.0234483
705.770	0.0233292
705.848	0.0232953
705.926	0.0232412
706.004	0.0231074
706.082	0.0230836
706.160	0.0225109
706.238	0.0220596
706.317	0.0214520
706.395	0.0206143
706.473	0.0194261
706.551	0.0182242
706.629	0.0167664
706.707	0.0150900
706.785	0.0130703
706.863	0.0112290
706.942	0.00906502
707.020	0.00685875
707.098	0.00474823
707.176	0.00269142
707.254	0.000791855
707.332	-0.00104210
707.410	-0.00243431
707.488	-0.00373047
707.567	-0.00449219
707.645	-0.00482582
707.723	-0.00477104
707.801	-0.00442802
707.879	-0.00339867
707.957	-0.00193764
708.035	0.0000474548
708.113	0.00212791
708.192	0.00464722
708.270	0.00737411
708.348	0.0102750
708.426	0.0133762
708.504	0.0162653
708.582	0.0193396
708.660	0.0224611
708.738	0.0251962
708.817	0.0278588
708.895	0.0300806
708.973	0.0321038
709.051	0.0339087
709.129	0.0352021
709.207	0.0359361
709.285	0.0364200
709.363	0.0365824
709.442	0.0363840
709.520	0.0355613
709.598	0.0346307
709.676	0.0333684
709.754	0.0318441
709.832	0.0304710
709.910	0.0288473
709.988	0.0273406
710.067	0.0257716
710.145	0.0246944
710.223	0.0235081
710.301	0.0225932
710.379	0.0218748
710.457	0.0211516
710.535	0.0209248
710.613	0.0206239
710.692	0.0203380
710.770	0.0199406
710.848	0.0197263
710.926	0.0193800
711.004	0.0187168
711.082	0.0181401
711.160	0.0174228
711.238	0.0164597
711.317	0.0156473
711.395	0.0149068
711.473	0.0138909
711.551	0.0128793
711.629	0.0118214
711.707	0.0108980
711.785	0.00991531
711.863	0.00856934
711.942	0.00772209
712.020	0.00670372
712.098	0.00577316
712.176	0.00505447
712.254	0.00417213
712.332	0.00356537
712.410	0.00342812
712.488	0.00321899
712.567	0.00327614
712.645	0.00355377
712.723	0.00428520
712.801	0.00515259
712.879	0.00625008
712.957	0.00732147
713.035	0.00855347
713.113	0.0101897
713.192	0.0115286
713.270	0.0131179
713.348	0.0145348
713.426	0.0160360
713.504	0.0173312
713.582	0.0187322
713.660	0.0200101
713.738	0.0212982
713.817	0.0223809
713.895	0.0232847
713.973	0.0242558
714.051	0.0251675
714.129	0.0260114
714.207	0.0264867
714.285	0.0269702
714.363	0.0274828
714.442	0.0277138
714.520	0.0278650
714.598	0.0277979
714.676	0.0276866
714.754	0.0272454
714.832	0.0269306
714.910	0.0263911
714.988	0.0258887
715.067	0.0254513
715.145	0.0248620
715.223	0.0241792
715.301	0.0236496
715.379	0.0230782
715.457	0.0226308
715.535	0.0221343
715.613	0.0215932
715.692	0.0210697
715.770	0.0206575
715.848	0.0201118
715.926	0.0195434
716.004	0.0188096
716.082	0.0181931
716.160	0.0175745
716.238	0.0170760
716.317	0.0164135
716.395	0.0157802
716.473	0.0151305
716.551	0.0147125
716.629	0.0141599
716.707	0.0136772
716.785	0.0131915
716.863	0.0126921
716.942	0.0123138
717.020	0.0118909
717.098	0.0114049
717.176	0.0109979
717.254	0.0110052
717.332	0.0109281
717.410	0.0107959
717.488	0.0109001
717.567	0.0108351
717.645	0.0110526
717.723	0.0113115
717.801	0.0115331
717.879	0.0118216
717.957	0.0122452
718.035	0.0126329
718.113	0.0127718
718.192	0.0129973
718.270	0.0133572
718.348	0.0135046
718.426	0.0139021
718.504	0.0140343
718.582	0.0142460
718.660	0.0144952
718.738	0.0149175
718.817	0.0153204
718.895	0.0157150
718.973	0.0164375
719.051	0.0170014
719.129	0.0176649
719.207	0.0186182
719.285	0.0194690
719.363	0.0202280
719.442	0.0208334
719.520	0.0216657
719.598	0.0221671
719.676	0.0226890
719.754	0.0229655
719.832	0.0231818
719.910	0.0232874
719.988	0.0234452
720.067	0.0234788
720.145	0.0232381
720.223	0.0229509
720.301	0.0226754
720.379	0.0223772
720.457	0.0217596
720.535	0.0213985
720.613	0.0206562
720.692	0.0201501
720.770	0.0196456
720.848	0.0191355
720.926	0.0186353
721.004	0.0183754
721.082	0.0180541
721.160	0.0180065
721.238	0.0177033
721.317	0.0177208
721.395	0.0177335
721.473	0.0175964
721.551	0.0177029
721.629	0.0177313
721.707	0.0179508
721.785	0.0177396
721.863	0.0177975
721.942	0.0176344
722.020	0.0175632
722.098	0.0174757
722.176	0.0170595
722.254	0.0169752
722.332	0.0166674
722.410	0.0162841
722.488	0.0160391
722.567	0.0158432
722.645	0.0156342
722.723	0.0156338
722.801	0.0154011
722.879	0.0151814
722.957	0.0151120
723.035	0.0151038
723.113	0.0150069
723.192	0.0148553
723.270	0.0149939
723.348	0.0147334
723.426	0.0147394
723.504	0.0147430
723.582	0.0147007
723.660	0.0149185
723.738	0.0149449
723.817	0.0151297
723.895	0.0154049
723.973	0.0155780
724.051	0.0157600
724.129	0.0159741
724.207	0.0162659
724.285	0.0166240
724.363	0.0169761
724.442	0.0172060
724.520	0.0176199
724.598	0.0177901
724.676	0.0180376
724.754	0.0184212
724.832	0.0186012
724.910	0.0186902
724.988	0.0188335
725.067	0.0188088
725.145	0.0188020
725.223	0.0185975
725.301	0.0184438
725.379	0.0182265
725.457	0.0177612
725.535	0.0175534
725.613	0.0174877
725.692	0.0171103
725.770	0.0168467
725.848	0.0167953
725.926	0.0166866
726.004	0.0167406
726.082	0.0169527
726.160	0.0169589
726.238	0.0173894
726.317	0.0177287
726.395	0.0180840
726.473	0.0184234
726.551	0.0185909
726.629	0.0190368
726.707	0.0192946
726.785	0.0194185
726.863	0.0194279
726.942	0.0194669
727.020	0.0193694
727.098	0.0194279
727.176	0.0190747
727.254	0.0188194
727.332	0.0184894
727.410	0.0183730
727.488	0.0181879
727.567	0.0177567
727.645	0.0176800
727.723	0.0174802
727.801	0.0174708
727.879	0.0173024
727.957	0.0173575
728.035	0.0172697
728.113	0.0173119
728.192	0.0174187
728.270	0.0175828
728.348	0.0176720
728.426	0.0177711
728.504	0.0177782
728.582	0.0178252
728.660	0.0178604
728.738	0.0178413
728.817	0.0178103
728.895	0.0176765
728.973	0.0179592
729.051	0.0176427
729.129	0.0174624
729.207	0.0176768
729.285	0.0173122
729.363	0.0173222
729.442	0.0173764
729.520	0.0173472
729.598	0.0173348
729.676	0.0172725
729.754	0.0172653
729.832	0.0172263
729.910	0.0171174
729.988	0.0170951
730.067	0.0170388
730.145	0.0168951
730.223	0.0168985
730.301	0.0167207
730.379	0.0164742
730.457	0.0164668
730.535	0.0163456
730.613	0.0163589
730.692	0.0162464
730.770	0.0161201
730.848	0.0161775
730.926	0.0162773
731.004	0.0163608
731.082	0.0163639
731.160	0.0163852
731.238	0.0166149
731.317	0.0166090
731.395	0.0167487
731.473	0.0167342
731.551	0.0168732
731.629	0.0167921
731.707	0.0168108
731.785	0.0167005
731.863	0.0167248
731.942	0.0167130
732.020	0.0166489
732.098	0.0165829
732.176	0.0166149
732.254	0.0166191
732.332	0.0166071
732.410	0.0166938
732.488	0.0167873
732.567	0.0169071
732.645	0.0169955
732.723	0.0172546
732.801	0.0172680
732.879	0.0176286
732.957	0.0178168
733.035	0.0178420
733.113	0.0181215
733.192	0.0183475
733.270	0.0186636
733.348	0.0188319
733.426	0.0189211
733.504	0.0191444
733.582	0.0191215
733.660	0.0191504
733.738	0.0191949
733.817	0.0192464
733.895	0.0191647
733.973	0.0189952
734.051	0.0191450
734.129	0.0190663
734.207	0.0188531
734.285	0.0189405
734.363	0.0188548
734.442	0.0186108
734.520	0.0186099
734.598	0.0188168
734.676	0.0186496
734.754	0.0184788
734.832	0.0183169
734.910	0.0181900
734.988	0.0181211
735.067	0.0180216
735.145	0.0179331
735.223	0.0179203
735.301	0.0177045
735.379	0.0175561
735.457	0.0174134
735.535	0.0173518
735.613	0.0172371
735.692	0.0170779
735.770	0.0169429
735.848	0.0167026
735.926	0.0165932
736.004	0.0165628
736.082	0.0163807
736.160	0.0162020
736.238	0.0160540
736.317	0.0158656
736.395	0.0156855
736.473	0.0155843
736.551	0.0157056
736.629	0.0155350
736.707	0.0156232
736.785	0.0156756
736.863	0.0158383
736.942	0.0158213
737.020	0.0161274
737.098	0.0164509
737.176	0.0167228
737.254	0.0169504
737.332	0.0170674
737.410	0.0173938
737.488	0.0176694
737.567	0.0177840
737.645	0.0177670
737.723	0.0177999
737.801	0.0180460
737.879	0.0176601
737.957	0.0176615
738.035	0.0174924
738.113	0.0174966
738.192	0.0172351
738.270	0.0171180
738.348	0.0170418
738.426	0.0167957
738.504	0.0167807
738.582	0.0168832
738.660	0.0168122
738.738	0.0169569
738.817	0.0169843
738.895	0.0172046
738.973	0.0173132
739.051	0.0175626
739.129	0.0178714
739.207	0.0178622
739.285	0.0179612
739.363	0.0182119
739.442	0.0181678
739.520	0.0183161
739.598	0.0183846
739.676	0.0183473
739.754	0.0182251
739.832	0.0179922
739.910	0.0181141
739.988	0.0180446
740.067	0.0178867
740.145	0.0178203
740.223	0.0177688
740.301	0.0177411
740.379	0.0175842
740.457	0.0175391
740.535	0.0175463
740.613	0.0176989
740.692	0.0177542
740.770	0.0176234
740.848	0.0176698
740.926	0.0176484
741.004	0.0176694
741.082	0.0177673
741.160	0.0175462
741.238	0.0175777
741.317	0.0175264
741.395	0.0173087
741.473	0.0173965
741.551	0.0173492
741.629	0.0173293
741.707	0.0172909
741.785	0.0174217
741.863	0.0175116
741.942	0.0174393
742.020	0.0176745
742.098	0.0176824
742.176	0.0176817
742.254	0.0178738
742.332	0.0179412
742.410	0.0179961
742.488	0.0180845
742.567	0.0180873
742.645	0.0180290
742.723	0.0180958
742.801	0.0181178
742.879	0.0180753
742.957	0.0179978
743.035	0.0179073
743.113	0.0177234
743.192	0.0175797
743.270	0.0173887
743.348	0.0171397
743.426	0.0169057
743.504	0.0168159
743.582	0.0166403
743.660	0.0166232
743.738	0.0164511
743.817	0.0163397
743.895	0.0164669
743.973	0.0164450
744.051	0.0165056
744.129	0.0164828
744.207	0.0166010
744.285	0.0168713
744.363	0.0168532
744.442	0.0168551
744.520	0.0171368
744.598	0.0172925
744.676	0.0173624
744.754	0.0175509
744.832	0.0176795
744.910	0.0175636
744.988	0.0176306
745.067	0.0176076
745.145	0.0176933
745.223	0.0176669
745.301	0.0175710
745.379	0.0174923
745.457	0.0172981
745.535	0.0174896
745.613	0.0173209
745.692	0.0171864
745.770	0.0171037
745.848	0.0170938
745.926	0.0169637
746.004	0.0168749
746.082	0.0169186
746.160	0.0169141
746.238	0.0166726
746.317	0.0166842
746.395	0.0167349
746.473	0.0164970
746.551	0.0166498
746.629	0.0168622
746.707	0.0168089
746.785	0.0169349
746.863	0.0172146
746.942	0.0172659
747.020	0.0174912
747.098	0.0177100
747.176	0.0180880
747.254	0.0180534
747.332	0.0184147
747.410	0.0185783
747.488	0.0188144
747.567	0.0188312
747.645	0.0190356
747.723	0.0191406
747.801	0.0189814
747.879	0.0191223
747.957	0.0191756
748.035	0.0189990
748.113	0.0188778
748.192	0.0187495
748.270	0.0185935
748.348	0.0182710
748.426	0.0181013
748.504	0.0179592
748.582	0.0176345
748.660	0.0174416
748.738	0.0173714
748.817	0.0170076
748.895	0.0169052
748.973	0.0166943
749.051	0.0167654
749.129	0.0167171
749.207	0.0166191
749.285	0.0167240
749.363	0.0166808
749.442	0.0168738
749.520	0.0169742
749.598	0.0171690
749.676	0.0172614
749.754	0.0174393
749.832	0.0175183
749.910	0.0176362
749.988	0.0177943
750.067	0.0178152
750.145	0.0178174
750.223	0.0178362
750.301	0.0178772
750.379	0.0175832
750.457	0.0176310
750.535	0.0173826
750.613	0.0174609
750.692	0.0173997
750.770	0.0171027
750.848	0.0171174
750.926	0.0168292
751.004	0.0166425
751.082	0.0165284
751.160	0.0165085
751.238	0.0163405
751.317	0.0163387
751.395	0.0162695
751.473	0.0163407
751.551	0.0163115
751.629	0.0163041
751.707	0.0164762
751.785	0.0164968
751.863	0.0166534
751.942	0.0168879
752.020	0.0168243
752.098	0.0170518
752.176	0.0172705
752.254	0.0174403
752.332	0.0176498
752.410	0.0177773
752.488	0.0178952
752.567	0.0180288
752.645	0.0182795
752.723	0.0183308
752.801	0.0184113
752.879	0.0183456
752.957	0.0182981
753.035	0.0185780
753.113	0.0183515
753.192	0.0183197
753.270	0.0180547
753.348	0.0178030
753.426	0.0176820
753.504	0.0174221
753.582	0.0171527
753.660	0.0167958
753.738	0.0165084
753.817	0.0162667
753.895	0.0161142
753.973	0.0160949
754.051	0.0159808
754.129	0.0160970
754.207	0.0160955
754.285	0.0162766
754.363	0.0164333
754.442	0.0166267
754.520	0.0168343
754.598	0.0171288
754.676	0.0174284
754.754	0.0175940
754.832	0.0178487
754.910	0.0180686
754.988	0.0183298
755.067	0.0184122
755.145	0.0184968
755.223	0.0186057
755.301	0.0186708
755.379	0.0185146
755.457	0.0186587
755.535	0.0183964
755.613	0.0182758
755.692	0.0182346
755.770	0.0179491
755.848	0.0177538
755.926	0.0177937
756.004	0.0176481
756.082	0.0175999
756.160	0.0175094
756.238	0.0173734
756.317	0.0174207
756.395	0.0173344
756.473	0.0174451
756.551	0.0172889
756.629	0.0173409
756.707	0.0173928
756.785	0.0173330
756.863	0.0174334
756.942	0.0173438
757.020	0.0173225
757.098	0.0173198
757.176	0.0172992
757.254	0.0174039
757.332	0.0173753
757.410	0.0175213
757.488	0.0175108
757.567	0.0175350
757.645	0.0175797
757.723	0.0176526
757.801	0.0176880
757.879	0.0176492
757.957	0.0177194
758.035	0.0177801
758.113	0.0175994
758.192	0.0174441
758.270	0.0175506
758.348	0.0174167
758.426	0.0173203
758.504	0.0172772
758.582	0.0171078
758.660	0.0170791
758.738	0.0169027
758.817	0.0167130
758.895	0.0165356
758.973	0.0165042
759.051	0.0164794
759.129	0.0164635
759.207	0.0165078
759.285	0.0163604
759.363	0.0164692
759.442	0.0164535
759.520	0.0166486
759.598	0.0167559
759.676	0.0167616
759.754	0.0168278
759.832	0.0170321
759.910	0.0171526
759.988	0.0171699
760.067	0.0171252
760.145	0.0173572
760.223	0.0173944
760.301	0.0174747
760.379	0.0173892
760.457	0.0174554
760.535	0.0175212
760.613	0.0175052
760.692	0.0174298
760.770	0.0175911
760.848	0.0176744
760.926	0.0176337
761.004	0.0177689
761.082	0.0176783
761.160	0.0177741
761.238	0.0179525
761.317	0.0181277
761.395	0.0180489
761.473	0.0181155
761.551	0.0180497
761.629	0.0181168
761.707	0.0180660
761.785	0.0180325
761.863	0.0180683
761.942	0.0179243
762.020	0.0179141
762.098	0.0179083
762.176	0.0176762
762.254	0.0177382
762.332	0.0176173
762.410	0.0174600
762.488	0.0174426
762.567	0.0174710
762.645	0.0174189
762.723	0.0172929
762.801	0.0173260
762.879	0.0173275
762.957	0.0172923
763.035	0.0173349
763.113	0.0174614
763.192	0.0175566
763.270	0.0174960
763.348	0.0175540
763.426	0.0176672
763.504	0.0176335
763.582	0.0176552
763.660	0.0175539
763.738	0.0174676
763.817	0.0173975
763.895	0.0175103
763.973	0.0174755
764.051	0.0172850
764.129	0.0172531
764.207	0.0172157
764.285	0.0172272
764.363	0.0172424
764.442	0.0172397
764.520	0.0172585
764.598	0.0171249
764.676	0.0172739
764.754	0.0172082
764.832	0.0171154
764.910	0.0172675
764.988	0.0172966
765.067	0.0173243
765.145	0.0174001
765.223	0.0173639
765.301	0.0174851
765.379	0.0174545
765.457	0.0176057
765.535	0.0175972
765.613	0.0176529
765.692	0.0177359
765.770	0.0176604
765.848	0.0177299
765.926	0.0179138
766.004	0.0177146
766.082	0.0177088
766.160	0.0177238
766.238	0.0176087
766.317	0.0177042
766.395	0.0176176
766.473	0.0175043
766.551	0.0175285
766.629	0.0172437
766.707	0.0172305
766.785	0.0172193
766.863	0.0171359
766.942	0.0169660
767.020	0.0169554
767.098	0.0169593
767.176	0.0168882
767.254	0.0168485
767.332	0.0167995
767.410	0.0167044
767.488	0.0165313
767.567	0.0165772
767.645	0.0166043
767.723	0.0164797
767.801	0.0166226
767.879	0.0165529
767.957	0.0166771
768.035	0.0166916
768.113	0.0168035
768.192	0.0169332
768.270	0.0169207
768.348	0.0170982
768.426	0.0172659
768.504	0.0173966
768.582	0.0174851
768.660	0.0175724
768.738	0.0177480
768.817	0.0179295
768.895	0.0179137
768.973	0.0180856
769.051	0.0181419
769.129	0.0181541
769.207	0.0181982
769.285	0.0182587
769.363	0.0183584
769.442	0.0182796
769.520	0.0181126
769.598	0.0179305
769.676	0.0180366
769.754	0.0179922
769.832	0.0179984
769.910	0.0178854
769.988	0.0177106
770.067	0.0176513
770.145	0.0177537
770.223	0.0177013
770.301	0.0175600
770.379	0.0175574
770.457	0.0176794
770.535	0.0176926
770.613	0.0176864
770.692	0.0177926
770.770	0.0178389
770.848	0.0178785
770.926	0.0179876
771.004	0.0180046
771.082	0.0179018
771.160	0.0181065
771.238	0.0177823
771.317	0.0177738
771.395	0.0178754
771.473	0.0179292
771.551	0.0179080
771.629	0.0176878
771.707	0.0177267
771.785	0.0175014
771.863	0.0173823
771.942	0.0171725
772.020	0.0172323
772.098	0.0170836
772.176	0.0166662
772.254	0.0166074
772.332	0.0165850
772.410	0.0167234
772.488	0.0165852
772.567	0.0165440
772.645	0.0164509
772.723	0.0166047
772.801	0.0166026
772.879	0.0166061
772.957	0.0167852
773.035	0.0169908
773.113	0.0170937
773.192	0.0171959
773.270	0.0172829
773.348	0.0171660
773.426	0.0173540
773.504	0.0174293
773.582	0.0174622
773.660	0.0173479
773.738	0.0174595
773.817	0.0175666
773.895	0.0174583
773.973	0.0174431
774.051	0.0173068
774.129	0.0173839
774.207	0.0173942
774.285	0.0175600
774.363	0.0175690
774.442	0.0175446
774.520	0.0174531
774.598	0.0176643
774.676	0.0176414
774.754	0.0175474
774.832	0.0175697
774.910	0.0176019
774.988	0.0177395
775.067	0.0174785
775.145	0.0176453
775.223	0.0174845
775.301	0.0175601
775.379	0.0174763
775.457	0.0173792
775.535	0.0173779
775.613	0.0175219
775.692	0.0174831
775.770	0.0172466
775.848	0.0172638
775.926	0.0172462
776.004	0.0173488
776.082	0.0172252
776.160	0.0169868
776.238	0.0171487
776.317	0.0170896
776.395	0.0169658
776.473	0.0169301
776.551	0.0168301
776.629	0.0168298
776.707	0.0169390
776.785	0.0170706
776.863	0.0170933
776.942	0.0170632
777.020	0.0171754
777.098	0.0172594
777.176	0.0173974
777.254	0.0176366
777.332	0.0175291
777.410	0.0177692
777.488	0.0178014
777.567	0.0177787
777.645	0.0178080
777.723	0.0178767
777.801	0.0181422
777.879	0.0180055
777.957	0.0179761
778.035	0.0180360
778.113	0.0181116
778.192	0.0180494
778.270	0.0179141
778.348	0.0178319
778.426	0.0179087
778.504	0.0176993
778.582	0.0177418
778.660	0.0175630
778.738	0.0175368
778.817	0.0174631
778.895	0.0173360
778.973	0.0173094
779.051	0.0172129
779.129	0.0173696
779.207	0.0173003
779.285	0.0174763
779.363	0.0174639
779.442	0.0175920
779.520	0.0176064
779.598	0.0177650
779.676	0.0178104
779.754	0.0180255
779.832	0.0179584
779.910	0.0179523
779.988	0.0180016
780.067	0.0179356
780.145	0.0179266
780.223	0.0178089
780.301	0.0176995
780.379	0.0173457
780.457	0.0174511
780.535	0.0173029
780.613	0.0171009
780.692	0.0168797
780.770	0.0166163
780.848	0.0165526
780.926	0.0166832
781.004	0.0164414
781.082	0.0163856
781.160	0.0162846
781.238	0.0162919
781.317	0.0163102
781.395	0.0162375
781.473	0.0163269
781.551	0.0163222
781.629	0.0165282
781.707	0.0166289
781.785	0.0168428
781.863	0.0168096
781.942	0.0169405
782.020	0.0169617
782.098	0.0170473
782.176	0.0170581
782.254	0.0172462
782.332	0.0171847
782.410	0.0171989
782.488	0.0171857
782.567	0.0172961
782.645	0.0174715
782.723	0.0174165
782.801	0.0172082
782.879	0.0173782
782.957	0.0174081
783.035	0.0175169
783.113	0.0175761
783.192	0.0176991
783.270	0.0178211
783.348	0.0178590
783.426	0.0179733
783.504	0.0178369
783.582	0.0179855
783.660	0.0180766
783.738	0.0181188
783.817	0.0180768
783.895	0.0180460
783.973	0.0181310
784.051	0.0180103
784.129	0.0180469
784.207	0.0180663
784.285	0.0179592
784.363	0.0179878
784.442	0.0180312
784.520	0.0178965
784.598	0.0178686
784.676	0.0178634
784.754	0.0179046
784.832	0.0178056
784.910	0.0176724
784.988	0.0175852
785.067	0.0176499
785.145	0.0175049
785.223	0.0175102
785.301	0.0174738
785.379	0.0173228
785.457	0.0173006
785.535	0.0173999
785.613	0.0174258
785.692	0.0172604
785.770	0.0172855
785.848	0.0171113
785.926	0.0173625
786.004	0.0173592
786.082	0.0174037
786.160	0.0173514
786.238	0.0173354
786.317	0.0172558
786.395	0.0173832
786.473	0.0174179
786.551	0.0171244
786.629	0.0171436
786.707	0.0173029
786.785	0.0172758
786.863	0.0171754
786.942	0.0172639
787.020	0.0172729
787.098	0.0171758
787.176	0.0173185
787.254	0.0172263
787.332	0.0171333
787.410	0.0172582
787.488	0.0172340
787.567	0.0171441
787.645	0.0171248
787.723	0.0170412
787.801	0.0172098
787.879	0.0171832
787.957	0.0173452
788.035	0.0172866
788.113	0.0174415
788.192	0.0174710
788.270	0.0176402
788.348	0.0176878
788.426	0.0177539
788.504	0.0179306
788.582	0.0179883
788.660	0.0179458
788.738	0.0179639
788.817	0.0179305
788.895	0.0179197
788.973	0.0178835
789.051	0.0178573
789.129	0.0178145
789.207	0.0177989
789.285	0.0176730
789.363	0.0177452
789.442	0.0176542
789.520	0.0175448
789.598	0.0174584
789.676	0.0175475
789.754	0.0174612
789.832	0.0173029
789.910	0.0170161
789.988	0.0169934
790.067	0.0168575
790.145	0.0168757
790.223	0.0167086
790.301	0.0166290
790.379	0.0165968
790.457	0.0164201
790.535	0.0165118
790.613	0.0164006
790.692	0.0162167
790.770	0.0163673
790.848	0.0163962
790.926	0.0162656
791.004	0.0161772
791.082	0.0164491
791.160	0.0163589
791.238	0.0163281
791.317	0.0165191
791.395	0.0165949
791.473	0.0169421
791.551	0.0171131
791.629	0.0171846
791.707	0.0173570
791.785	0.0176590
791.863	0.0177647
791.942	0.0180458
792.020	0.0181259
792.098	0.0183816
792.176	0.0183724
792.254	0.0185097
792.332	0.0188914
792.410	0.0189292
792.488	0.0190086
792.567	0.0192034
792.645	0.0191614
792.723	0.0192966
792.801	0.0192207
792.879	0.0192034
792.957	0.0191392
793.035	0.0190318
793.113	0.0189153
793.192	0.0187408
793.270	0.0185958
793.348	0.0184087
793.426	0.0182338
793.504	0.0179383
793.582	0.0178705
793.660	0.0176567
793.738	0.0175214
793.817	0.0171882
793.895	0.0171223
793.973	0.0169283
794.051	0.0168051
794.129	0.0168158
794.207	0.0166038
794.285	0.0163213
794.363	0.0162559
794.442	0.0161549
794.520	0.0161567
794.598	0.0161806
794.676	0.0161413
794.754	0.0160874
794.832	0.0161406
794.910	0.0162745
794.988	0.0160943
795.067	0.0162065
795.145	0.0163889
795.223	0.0163380
795.301	0.0162907
795.379	0.0164584
795.457	0.0165162
795.535	0.0165561
795.613	0.0166866
795.692	0.0168491
795.770	0.0169601
795.848	0.0168439
795.926	0.0171220
796.004	0.0173383
796.082	0.0173878
796.160	0.0173518
796.238	0.0176463
796.317	0.0177672
796.395	0.0178451
796.473	0.0181321
796.551	0.0183376
796.629	0.0183089
796.707	0.0185898
796.785	0.0187292
796.863	0.0185973
796.942	0.0188894
797.020	0.0189136
797.098	0.0189834
797.176	0.0190154
797.254	0.0190041
797.332	0.0190399
797.410	0.0190415
797.488	0.0191035
797.567	0.0187316
797.645	0.0186546
797.723	0.0185683
797.801	0.0183460
797.879	0.0181934
797.957	0.0180969
798.035	0.0177795
798.113	0.0176400
798.192	0.0172729
798.270	0.0171857
798.348	0.0166713
798.426	0.0164963
798.504	0.0161921
798.582	0.0160525
798.660	0.0157381
798.738	0.0156168
798.817	0.0153906
798.895	0.0152779
798.973	0.0151616
799.051	0.0150328
799.129	0.0150119
799.207	0.0150748
799.285	0.0152906
799.363	0.0154051
799.442	0.0154279
799.520	0.0155984
799.598	0.0157697
799.676	0.0158865
799.754	0.0161363
799.832	0.0164175
799.910	0.0165553
799.988	0.0168815
800.067	0.0170708
800.145	0.0175039
800.223	0.0174725
800.301	0.0178374
800.379	0.0180492
800.457	0.0182404
800.535	0.0184398
800.613	0.0185487
800.692	0.0188591
800.770	0.0190868
800.848	0.0191484
800.926	0.0192920
801.004	0.0193564
801.082	0.0193536
801.160	0.0195586
801.238	0.0195556
801.317	0.0195403
801.395	0.0195182
801.473	0.0194213
801.551	0.0193260
801.629	0.0194504
801.707	0.0194645
801.785	0.0193324
801.863	0.0192211
801.942	0.0190966
802.020	0.0191128
802.098	0.0189902
802.176	0.0188121
802.254	0.0187170
802.332	0.0184865
802.410	0.0183237
802.488	0.0179814
802.567	0.0180513
802.645	0.0177892
802.723	0.0175909
802.801	0.0172506
802.879	0.0170827
802.957	0.0169853
803.035	0.0167973
803.113	0.0164971
803.192	0.0163126
803.270	0.0159697
803.348	0.0157069
803.426	0.0155318
803.504	0.0155144
803.582	0.0152415
803.660	0.0151217
803.738	0.0148555
803.817	0.0147206
803.895	0.0147152
803.973	0.0147615
804.051	0.0146384
804.129	0.0147061
804.207	0.0148008
804.285	0.0149212
804.363	0.0151554
804.442	0.0153767
804.520	0.0153277
804.598	0.0155116
804.676	0.0158751
804.754	0.0160973
804.832	0.0163601
804.910	0.0165730
804.988	0.0170398
805.067	0.0173367
805.145	0.0174688
805.223	0.0177003
805.301	0.0181609
805.379	0.0182619
805.457	0.0186743
805.535	0.0189808
805.613	0.0190106
805.692	0.0192792
805.770	0.0194116
805.848	0.0193407
805.926	0.0195776
806.004	0.0195937
806.082	0.0196098
806.160	0.0195681
806.238	0.0193459
806.317	0.0195787
806.395	0.0196005
806.473	0.0195502
806.551	0.0193745
806.629	0.0192522
806.707	0.0190980
806.785	0.0190414
806.863	0.0189569
806.942	0.0190139
807.020	0.0187857
807.098	0.0186115
807.176	0.0185123
807.254	0.0184144
807.332	0.0182818
807.410	0.0180831
807.488	0.0178523
807.567	0.0177438
807.645	0.0175890
807.723	0.0174371
807.801	0.0171704
807.879	0.0169851
807.957	0.0169470
808.035	0.0167893
808.113	0.0165961
808.192	0.0166070
808.270	0.0164879
808.348	0.0162513
808.426	0.0162555
808.504	0.0162964
808.582	0.0162316
808.660	0.0162228
808.738	0.0161392
808.817	0.0161382
808.895	0.0161339
808.973	0.0162010
809.051	0.0161763
809.129	0.0162716
809.207	0.0162827
809.285	0.0162227
809.363	0.0164206
809.442	0.0162845
809.520	0.0162798
809.598	0.0163519
809.676	0.0164642
809.754	0.0162965
809.832	0.0165422
809.910	0.0164941
809.988	0.0166053
810.067	0.0166901
810.145	0.0166795
810.223	0.0167684
810.301	0.0169882
810.379	0.0169956
810.457	0.0172572
810.535	0.0175449
810.613	0.0174938
810.692	0.0177523
810.770	0.0179242
810.848	0.0179658
810.926	0.0181448
811.004	0.0182848
811.082	0.0184238
811.160	0.0185262
811.238	0.0186939
811.317	0.0187550
811.395	0.0188687
811.473	0.0188049
811.551	0.0188431
811.629	0.0188963
811.707	0.0188814
811.785	0.0188659
811.863	0.0188307
811.942	0.0188503
812.020	0.0187679
812.098	0.0185875
812.176	0.0185451
812.254	0.0183918
812.332	0.0183415
812.410	0.0182444
812.488	0.0182304
812.567	0.0180974
812.645	0.0179163
812.723	0.0178239
812.801	0.0177779
812.879	0.0176426
812.957	0.0175889
813.035	0.0175230
813.113	0.0173286
813.192	0.0173928
813.270	0.0173059
813.348	0.0172639
813.426	0.0171547
813.504	0.0170007
813.582	0.0169154
813.660	0.0168355
813.738	0.0167989
813.817	0.0166555
813.895	0.0164916
813.973	0.0165116
814.051	0.0165612
814.129	0.0163948
814.207	0.0162986
814.285	0.0161547
814.363	0.0163020
814.442	0.0161165
814.520	0.0160210
814.598	0.0161629
814.676	0.0161730
814.754	0.0161727
814.832	0.0163149
814.910	0.0162965
814.988	0.0162386
815.067	0.0164091
815.145	0.0165392
815.223	0.0165466
815.301	0.0166783
815.379	0.0168549
815.457	0.0170789
815.535	0.0170576
815.613	0.0172655
815.692	0.0175761
815.770	0.0177264
815.848	0.0177130
815.926	0.0178809
816.004	0.0180157
816.082	0.0180363
816.160	0.0182182
816.238	0.0183944
816.317	0.0184564
816.395	0.0185430
816.473	0.0185542
816.551	0.0184792
816.629	0.0187000
816.707	0.0186349
816.785	0.0185313
816.863	0.0185733
816.942	0.0186092
817.020	0.0184969
817.098	0.0184335
817.176	0.0185101
817.254	0.0183498
817.332	0.0183442
817.410	0.0182714
817.488	0.0182889
817.567	0.0182008
817.645	0.0180959
817.723	0.0180907
817.801	0.0181543
817.879	0.0179685
817.957	0.0180290
818.035	0.0178069
818.113	0.0177551
818.192	0.0178018
818.270	0.0177827
818.348	0.0176708
818.426	0.0175301
818.504	0.0174831
818.582	0.0176760
818.660	0.0174947
818.738	0.0172407
818.817	0.0173411
818.895	0.0173491
818.973	0.0170824
819.051	0.0169322
819.129	0.0169585
819.207	0.0168741
819.285	0.0167937
819.363	0.0168089
819.442	0.0166653
819.520	0.0165562
819.598	0.0166380
819.676	0.0166479
819.754	0.0165524
819.832	0.0165776
819.910	0.0166556
819.988	0.0164174
820.067	0.0165157
820.145	0.0165947
820.223	0.0166881
820.301	0.0166644
820.379	0.0167671
820.457	0.0167372
820.535	0.0169527
820.613	0.0170474
820.692	0.0168495
820.770	0.0170743
820.848	0.0170929
820.926	0.0171786
821.004	0.0171139
821.082	0.0172698
821.160	0.0172956
821.238	0.0173634
821.317	0.0173734
821.395	0.0175446
821.473	0.0176529
821.551	0.0175084
821.629	0.0176672
821.707	0.0176616
821.785	0.0177631
821.863	0.0176772
821.942	0.0177944
822.020	0.0177172
822.098	0.0177544
822.176	0.0176942
822.254	0.0177029
822.332	0.0177392
822.410	0.0178522
822.488	0.0178318
822.567	0.0176945
822.645	0.0178249
822.723	0.0177728
822.801	0.0178900
822.879	0.0180477
822.957	0.0180775
823.035	0.0182921
823.113	0.0183045
823.192	0.0181960
823.270	0.0182435
823.348	0.0182790
823.426	0.0183656
823.504	0.0183421
823.582	0.0183744
823.660	0.0184578
823.738	0.0183763
823.817	0.0181639
823.895	0.0181468
823.973	0.0179111
824.051	0.0178487
824.129	0.0176494
824.207	0.0175468
824.285	0.0174689
824.363	0.0172224
824.442	0.0171294
824.520	0.0171357
824.598	0.0169982
824.676	0.0168587
824.754	0.0167700
824.832	0.0168713
824.910	0.0169817
824.988	0.0168567
825.067	0.0168036
825.145	0.0168447
825.223	0.0170042
825.301	0.0170428
825.379	0.0169339
825.457	0.0169283
825.535	0.0171380
825.613	0.0172082
825.692	0.0171521
825.770	0.0171295
825.848	0.0170615
825.926	0.0171779
826.004	0.0173269
826.082	0.0172895
826.160	0.0172589
826.238	0.0173457
826.317	0.0173616
826.395	0.0174841
826.473	0.0174254
826.551	0.0174831
826.629	0.0174560
826.707	0.0173775
826.785	0.0174006
826.863	0.0173775
826.942	0.0175706
827.020	0.0174632
827.098	0.0174403
827.176	0.0172517
827.254	0.0171421
827.332	0.0172179
827.410	0.0171944
827.488	0.0172735
827.567	0.0173759
827.645	0.0172314
827.723	0.0172180
827.801	0.0171931
827.879	0.0174416
827.957	0.0174526
828.035	0.0172265
828.113	0.0173335
828.192	0.0174763
828.270	0.0173834
828.348	0.0173922
828.426	0.0176464
828.504	0.0175548
828.582	0.0175079
828.660	0.0176339
828.738	0.0176422
828.817	0.0176583
828.895	0.0175879
828.973	0.0177043
829.051	0.0174718
829.129	0.0174119
829.207	0.0174349
829.285	0.0174562
829.363	0.0175106
829.442	0.0173787
829.520	0.0173883
829.598	0.0174371
829.676	0.0173513
829.754	0.0175059
829.832	0.0174732
829.910	0.0175211
829.988	0.0175191
830.067	0.0176890
830.145	0.0176643
830.223	0.0177935
830.301	0.0178278
830.379	0.0176823
830.457	0.0177420
830.535	0.0177256
830.613	0.0178125
830.692	0.0177528
830.770	0.0176897
830.848	0.0176814
830.926	0.0177578
831.004	0.0178256
831.082	0.0177351
831.160	0.0177280
831.238	0.0174812
831.317	0.0176447
831.395	0.0176749
831.473	0.0175450
831.551	0.0173891
831.629	0.0174997
831.707	0.0174713
831.785	0.0173238
831.863	0.0173238
831.942	0.0174395
832.020	0.0173113
832.098	0.0174143
832.176	0.0174806
832.254	0.0173957
832.332	0.0171650
832.410	0.0174562
832.488	0.0173256
832.567	0.0173260
832.645	0.0173591
832.723	0.0172256
832.801	0.0171606
832.879	0.0171811
832.957	0.0173560
833.035	0.0172289
833.113	0.0171494
833.192	0.0171143
833.270	0.0170544
833.348	0.0169870
833.426	0.0170181
833.504	0.0170646
833.582	0.0171101
833.660	0.0170446
833.738	0.0170394
833.817	0.0171471
833.895	0.0172101
833.973	0.0170663
834.051	0.0173184
834.129	0.0174186
834.207	0.0173926
834.285	0.0174702
834.363	0.0175000
834.442	0.0174702
834.520	0.0175968
834.598	0.0174825
834.676	0.0177001
834.754	0.0176469
834.832	0.0176828
834.910	0.0176116
834.988	0.0178423
835.067	0.0177854
835.145	0.0175869
835.223	0.0175215
835.301	0.0175470
835.379	0.0174808
835.457	0.0174088
835.535	0.0173205
835.613	0.0173439
835.692	0.0173450
835.770	0.0174288
835.848	0.0172984
835.926	0.0170930
836.004	0.0171461
836.082	0.0170489
836.160	0.0171434
836.238	0.0173200
836.317	0.0171566
836.395	0.0171663
836.473	0.0171311
836.551	0.0172266
836.629	0.0172845
836.707	0.0172535
836.785	0.0172732
836.863	0.0174111
836.942	0.0174100
837.020	0.0176195
837.098	0.0175302
837.176	0.0174113
837.254	0.0177293
837.332	0.0176772
837.410	0.0175414
837.488	0.0176838
837.567	0.0177702
837.645	0.0176131
837.723	0.0177039
837.801	0.0176099
837.879	0.0176437
837.957	0.0176031
838.035	0.0174672
838.113	0.0173774
838.192	0.0176244
838.270	0.0175779
838.348	0.0175559
838.426	0.0175594
838.504	0.0175363
838.582	0.0176314
838.660	0.0174960
838.738	0.0175082
838.817	0.0177360
838.895	0.0177235
838.973	0.0177518
839.051	0.0177489
839.129	0.0177047
839.207	0.0177699
839.285	0.0177607
839.363	0.0176698
839.442	0.0175766
839.520	0.0176803
839.598	0.0176116
839.676	0.0174539
839.754	0.0172222
839.832	0.0172747
839.910	0.0171185
839.988	0.0170475
840.067	0.0170179
840.145	0.0169059
840.223	0.0167760
840.301	0.0166972
840.379	0.0168835
840.457	0.0167390
840.535	0.0167147
840.613	0.0166687
840.692	0.0167052
840.770	0.0166903
840.848	0.0168308
840.926	0.0169781
841.004	0.0168260
841.082	0.0169697
841.160	0.0171752
841.238	0.0173263
841.317	0.0172192
841.395	0.0172808
841.473	0.0173504
841.551	0.0174981
841.629	0.0175634
841.707	0.0176616
841.785	0.0176205
841.863	0.0176057
841.942	0.0176073
842.020	0.0177728
842.098	0.0177780
842.176	0.0177794
842.254	0.0178247
842.332	0.0177469
842.410	0.0177134
842.488	0.0178762
842.567	0.0178969
842.645	0.0177499
842.723	0.0177997
842.801	0.0177008
842.879	0.0177831
842.957	0.0178639
843.035	0.0179830
843.113	0.0178312
843.192	0.0179238
843.270	0.0179192
843.348	0.0178164
843.426	0.0177780
843.504	0.0178944
843.582	0.0179070
843.660	0.0178933
843.738	0.0178709
843.817	0.0177050
843.895	0.0177689
843.973	0.0176808
844.051	0.0176880
844.129	0.0176463
844.207	0.0175413
844.285	0.0175681
844.363	0.0174558
844.442	0.0172926
844.520	0.0172741
844.598	0.0171883
844.676	0.0169963
844.754	0.0169746
844.832	0.0169701
844.910	0.0168816
844.988	0.0167525
845.067	0.0166994
845.145	0.0166675
845.223	0.0167632
845.301	0.0165596
845.379	0.0164653
845.457	0.0164822
845.535	0.0165329
845.613	0.0167387
845.692	0.0167535
845.770	0.0166952
845.848	0.0167632
845.926	0.0168310
846.004	0.0168937
846.082	0.0170208
846.160	0.0171153
846.238	0.0171204
846.317	0.0173193
846.395	0.0174047
846.473	0.0175434
846.551	0.0175508
846.629	0.0176001
846.707	0.0178193
846.785	0.0178783
846.863	0.0177495
846.942	0.0179729
847.020	0.0180215
847.098	0.0179194
847.176	0.0179611
847.254	0.0179953
847.332	0.0179933
847.410	0.0180487
847.488	0.0180962
847.567	0.0179745
847.645	0.0179817
847.723	0.0180134
847.801	0.0178783
847.879	0.0179452
847.957	0.0179147
848.035	0.0178423
848.113	0.0178986
848.192	0.0178282
848.270	0.0176824
848.348	0.0176479
848.426	0.0176023
848.504	0.0176835
848.582	0.0176878
848.660	0.0174700
848.738	0.0174960
848.817	0.0174127
848.895	0.0172915
848.973	0.0173346
849.051	0.0173383
849.129	0.0173267
849.207	0.0172463
849.285	0.0172399
849.363	0.0171622
849.442	0.0172561
849.520	0.0171575
849.598	0.0170686
849.676	0.0171096
849.754	0.0170362
849.832	0.0171076
849.910	0.0171758
849.988	0.0170684
850.067	0.0170778
850.145	0.0169647
850.223	0.0168843
850.301	0.0169654
850.379	0.0169166
850.457	0.0168781
850.535	0.0167907
850.613	0.0168300
850.692	0.0167545
850.770	0.0168267
850.848	0.0169935
850.926	0.0169079
851.004	0.0170522
851.082	0.0170316
851.160	0.0169035
851.238	0.0171578
851.317	0.0172726
851.395	0.0173956
851.473	0.0174096
851.551	0.0174188
851.629	0.0175320
851.707	0.0176637
851.785	0.0176524
851.863	0.0177073
851.942	0.0176645
852.020	0.0177627
852.098	0.0178004
852.176	0.0178963
852.254	0.0178848
852.332	0.0178872
852.410	0.0179862
852.488	0.0178831
852.567	0.0179726
852.645	0.0179001
852.723	0.0178419
852.801	0.0179298
852.879	0.0178519
852.957	0.0177747
853.035	0.0176893
853.113	0.0176797
853.192	0.0177118
853.270	0.0176858
853.348	0.0174856
853.426	0.0173889
853.504	0.0174833
853.582	0.0174889
853.660	0.0174658
853.738	0.0173173
853.817	0.0173626
853.895	0.0174669
853.973	0.0173569
854.051	0.0173506
854.129	0.0172807
854.207	0.0171709
854.285	0.0173473
854.363	0.0173662
854.442	0.0172792
854.520	0.0172353
854.598	0.0171115
854.676	0.0172885
854.754	0.0170790
854.832	0.0172570
854.910	0.0172276
854.988	0.0170907
855.067	0.0171715
855.145	0.0171124
855.223	0.0170711
855.301	0.0170097
855.379	0.0172186
855.457	0.0169599
855.535	0.0169672
855.613	0.0170790
855.692	0.0171000
855.770	0.0170785
855.848	0.0170937
855.926	0.0170289
856.004	0.0171336
856.082	0.0171990
856.160	0.0172313
856.238	0.0172053
856.317	0.0172686
856.395	0.0172718
856.473	0.0173432
856.551	0.0174061
856.629	0.0173434
856.707	0.0174404
856.785	0.0173612
856.863	0.0174158
856.942	0.0173044
857.020	0.0173975
857.098	0.0175645
857.176	0.0173642
857.254	0.0173011
857.332	0.0174789
857.410	0.0175424
857.488	0.0175345
857.567	0.0175721
857.645	0.0176031
857.723	0.0175774
857.801	0.0176344
857.879	0.0175380
857.957	0.0177271
858.035	0.0177579
858.113	0.0177184
858.192	0.0176674
858.270	0.0176723
858.348	0.0177207
858.426	0.0176901
858.504	0.0176408
858.582	0.0176632
858.660	0.0176064
858.738	0.0175896
858.817	0.0175619
858.895	0.0176249
858.973	0.0174096
859.051	0.0174074
859.129	0.0175050
859.207	0.0173792
859.285	0.0172024
859.363	0.0173305
859.442	0.0173698
859.520	0.0173503
859.598	0.0172736
859.676	0.0173894
859.754	0.0172771
859.832	0.0174017
859.910	0.0172547
859.988	0.0172501
860.067	0.0172211
860.145	0.0174294
860.223	0.0172369
860.301	0.0173402
860.379	0.0173695
860.457	0.0172940
860.535	0.0173666
860.613	0.0172532
860.692	0.0174084
860.770	0.0173758
860.848	0.0174015
860.926	0.0174185
861.004	0.0173540
861.082	0.0174565
861.160	0.0173591
861.238	0.0172847
861.317	0.0174446
861.395	0.0173218
861.473	0.0174126
861.551	0.0174319
861.629	0.0172627
861.707	0.0173240
861.785	0.0171967
861.863	0.0171742
861.942	0.0172202
862.020	0.0172913
862.098	0.0173627
862.176	0.0172828
862.254	0.0173055
862.332	0.0170936
862.410	0.0172662
862.488	0.0173159
862.567	0.0173598
862.645	0.0172068
862.723	0.0173513
862.801	0.0174259
862.879	0.0174657
862.957	0.0174889
863.035	0.0173370
863.113	0.0173937
863.192	0.0175822
863.270	0.0175402
863.348	0.0175512
863.426	0.0174298
863.504	0.0174921
863.582	0.0175043
863.660	0.0174683
863.738	0.0174030
863.817	0.0173283
863.895	0.0173008
863.973	0.0174742
864.051	0.0173121
864.129	0.0173014
864.207	0.0173135
864.285	0.0171867
864.363	0.0172221
864.442	0.0173590
864.520	0.0174694
864.598	0.0172146
864.676	0.0175436
864.754	0.0174655
864.832	0.0174507
864.910	0.0174330
864.988	0.0175153
865.067	0.0174464
865.145	0.0176685
865.223	0.0176416
865.301	0.0176955
865.379	0.0173850
865.457	0.0175330
865.535	0.0176916
865.613	0.0177070
865.692	0.0174854
865.770	0.0174345
865.848	0.0175058
865.926	0.0175751
866.004	0.0173014
866.082	0.0174974
866.160	0.0174787
866.238	0.0174260
866.317	0.0174471
866.395	0.0174207
866.473	0.0175256
866.551	0.0173775
866.629	0.0175350
866.707	0.0177287
866.785	0.0176312
866.863	0.0175774
866.942	0.0176318
867.020	0.0178159
867.098	0.0177448
867.176	0.0177121
867.254	0.0176578
867.332	0.0175197
867.410	0.0174985
867.488	0.0175063
867.567	0.0175326
867.645	0.0173647
867.723	0.0174006
867.801	0.0174158
867.879	0.0173616
867.957	0.0173499
868.035	0.0172500
868.113	0.0172392
868.192	0.0172165
868.270	0.0170638
868.348	0.0170094
868.426	0.0170515
868.504	0.0173209
868.582	0.0171526
868.660	0.0170287
868.738	0.0172440
868.817	0.0172267
868.895	0.0170210
868.973	0.0172164
869.051	0.0171880
869.129	0.0172771
869.207	0.0172639
869.285	0.0171998
869.363	0.0173295
869.442	0.0173032
869.520	0.0173965
869.598	0.0173418
869.676	0.0173350
869.754	0.0174512
869.832	0.0174286
869.910	0.0174014
869.988	0.0175531
870.067	0.0174207
870.145	0.0174850
870.223	0.0174296
870.301	0.0174017
870.379	0.0175092
870.457	0.0175900
870.535	0.0175040
870.613	0.0175590
870.692	0.0174790
870.770	0.0173702
870.848	0.0174210
870.926	0.0173019
871.004	0.0175398
871.082	0.0176811
871.160	0.0174003
871.238	0.0173484
871.317	0.0174319
871.395	0.0175394
871.473	0.0176512
871.551	0.0176048
871.629	0.0175675
871.707	0.0176625
871.785	0.0177595
871.863	0.0177641
871.942	0.0178028
872.020	0.0178224
872.098	0.0178732
872.176	0.0177679
872.254	0.0178600
872.332	0.0177648
872.410	0.0176194
872.488	0.0176858
872.567	0.0175605
872.645	0.0175463
872.723	0.0175564
872.801	0.0175581
872.879	0.0172141
872.957	0.0171475
873.035	0.0170639
873.113	0.0169781
873.192	0.0170384
873.270	0.0169718
873.348	0.0167332
873.426	0.0168420
873.504	0.0167554
873.582	0.0166092
873.660	0.0167653
873.738	0.0168491
873.817	0.0168949
873.895	0.0168902
873.973	0.0169804
874.051	0.0169997
874.129	0.0171705
874.207	0.0172953
874.285	0.0173515
874.363	0.0175489
874.442	0.0176540
874.520	0.0177418
874.598	0.0176848
874.676	0.0175960
874.754	0.0176048
874.832	0.0177780
874.910	0.0177818
874.988	0.0178306
875.067	0.0177705
875.145	0.0177802
875.223	0.0175825
875.301	0.0176743
875.379	0.0175379
875.457	0.0175082
875.535	0.0174216
875.613	0.0176300
875.692	0.0174862
875.770	0.0173762
875.848	0.0176012
875.926	0.0174664
876.004	0.0174660
876.082	0.0174394
876.160	0.0174302
876.238	0.0175906
876.317	0.0175138
876.395	0.0174049
876.473	0.0175339
876.551	0.0175655
876.629	0.0175032
876.707	0.0175316
876.785	0.0175841
876.863	0.0175608
876.942	0.0174402
877.020	0.0174032
877.098	0.0175568
877.176	0.0173969
877.254	0.0174231
877.332	0.0173186
877.410	0.0172687
877.488	0.0172421
877.567	0.0170330
877.645	0.0170745
877.723	0.0170676
877.801	0.0170771
877.879	0.0169953
877.957	0.0168636
878.035	0.0169943
878.113	0.0169737
878.192	0.0168875
878.270	0.0171233
878.348	0.0168595
878.426	0.0169731
878.504	0.0170544
878.582	0.0170389
878.660	0.0170383
878.738	0.0172781
878.817	0.0172104
878.895	0.0172105
878.973	0.0173179
879.051	0.0173057
879.129	0.0172759
879.207	0.0172774
879.285	0.0174290
879.363	0.0174655
879.442	0.0175092
879.520	0.0176511
879.598	0.0177286
879.676	0.0176286
879.754	0.0178098
879.832	0.0177333
879.910	0.0179636
879.988	0.0178944
880.067	0.0179510
880.145	0.0179932
880.223	0.0180073
880.301	0.0179132
880.379	0.0178288
880.457	0.0178183
880.535	0.0178950
880.613	0.0176507
880.692	0.0176675
880.770	0.0177790
880.848	0.0176298
880.926	0.0175513
881.004	0.0175066
881.082	0.0174305
881.160	0.0174076
881.238	0.0174596
881.317	0.0173246
881.395	0.0174353
881.473	0.0174102
881.551	0.0174030
881.629	0.0172361
881.707	0.0173639
881.785	0.0173665
881.863	0.0173197
881.942	0.0172546
882.020	0.0172344
882.098	0.0173461
882.176	0.0173887
882.254	0.0172469
882.332	0.0173544
882.410	0.0172826
882.488	0.0171065
882.567	0.0171477
882.645	0.0172652
882.723	0.0171477
882.801	0.0172230
882.879	0.0172794
882.957	0.0172458
883.035	0.0173376
883.113	0.0174015
883.192	0.0173846
883.270	0.0173499
883.348	0.0175460
883.426	0.0175883
883.504	0.0175460
883.582	0.0176897
883.660	0.0176985
883.738	0.0177467
883.817	0.0177672
883.895	0.0177176
883.973	0.0177480
884.051	0.0177539
884.129	0.0177264
884.207	0.0174603
884.285	0.0176210
884.363	0.0176488
884.442	0.0173756
884.520	0.0172704
884.598	0.0176060
884.676	0.0175697
884.754	0.0174036
884.832	0.0172191
884.910	0.0174708
884.988	0.0173443
885.067	0.0173235
885.145	0.0173362
885.223	0.0173630
885.301	0.0171983
885.379	0.0172482
885.457	0.0171740
885.535	0.0170069
885.613	0.0171637
885.692	0.0171317
885.770	0.0171309
885.848	0.0170695
885.926	0.0169756
886.004	0.0169961
886.082	0.0171441
886.160	0.0171777
886.238	0.0172855
886.317	0.0171473
886.395	0.0171964
886.473	0.0173171
886.551	0.0174932
886.629	0.0176080
886.707	0.0175981
886.785	0.0176423
886.863	0.0179189
886.942	0.0177825
887.020	0.0177540
887.098	0.0179141
887.176	0.0179275
887.254	0.0179337
887.332	0.0179031
887.410	0.0179321
887.488	0.0180260
887.567	0.0181243
887.645	0.0179422
887.723	0.0180579
887.801	0.0178687
887.879	0.0179856
887.957	0.0179728
888.035	0.0179518
888.113	0.0179644
888.192	0.0179331
888.270	0.0178336
888.348	0.0179035
888.426	0.0178857
888.504	0.0175803
888.582	0.0174869
888.660	0.0175211
888.738	0.0173660
888.817	0.0172341
888.895	0.0170159
888.973	0.0168230
889.051	0.0167924
889.129	0.0166716
889.207	0.0167028
889.285	0.0168046
889.363	0.0166901
889.442	0.0166800
889.520	0.0167794
889.598	0.0168993
889.676	0.0170700
889.754	0.0169769
889.832	0.0170323
889.910	0.0172344
889.988	0.0173347
890.067	0.0172284
890.145	0.0174822
890.223	0.0174542
890.301	0.0175572
890.379	0.0175467
890.457	0.0175790
890.535	0.0175446
890.613	0.0178168
890.692	0.0177506
890.770	0.0176688
890.848	0.0177797
890.926	0.0178087
891.004	0.0178922
891.082	0.0178633
891.160	0.0178539
891.238	0.0178052
891.317	0.0178639
891.395	0.0179298
891.473	0.0179578
891.551	0.0178335
891.629	0.0178624
891.707	0.0178311
891.785	0.0178217
891.863	0.0177293
891.942	0.0177004
892.020	0.0176619
892.098	0.0176228
892.176	0.0176969
892.254	0.0175637
892.332	0.0175491
892.410	0.0175682
892.488	0.0174549
892.567	0.0173826
892.645	0.0174506
892.723	0.0174284
892.801	0.0172308
892.879	0.0173498
892.957	0.0173734
893.035	0.0171388
893.113	0.0172906
893.192	0.0172369
893.270	0.0171368
893.348	0.0170969
893.426	0.0169788
893.504	0.0169016
893.582	0.0169564
893.660	0.0168262
893.738	0.0168655
893.817	0.0166750
893.895	0.0167735
893.973	0.0168185
894.051	0.0166478
894.129	0.0167656
894.207	0.0166819
894.285	0.0168938
894.363	0.0168980
894.442	0.0169590
894.520	0.0168984
894.598	0.0170307
894.676	0.0174190
894.754	0.0174778
894.832	0.0174169
894.910	0.0177152
894.988	0.0178248
895.067	0.0177948
895.145	0.0179819
895.223	0.0181486
895.301	0.0181162
895.379	0.0182213
895.457	0.0181264
895.535	0.0182360
895.613	0.0182512
895.692	0.0182986
895.770	0.0180579
895.848	0.0180863
895.926	0.0181481
896.004	0.0181908
896.082	0.0181075
896.160	0.0180607
896.238	0.0179630
896.317	0.0179375
896.395	0.0177864
896.473	0.0176184
896.551	0.0175602
896.629	0.0175258
896.707	0.0173421
896.785	0.0173220
896.863	0.0171725
896.942	0.0171938
897.020	0.0172420
897.098	0.0170826
897.176	0.0171500
897.254	0.0171489
897.332	0.0170633
897.410	0.0171078
897.488	0.0172412
897.567	0.0172966
897.645	0.0172093
897.723	0.0175125
897.801	0.0174908
897.879	0.0175478
897.957	0.0175712
898.035	0.0176294
898.113	0.0176524
898.192	0.0177192
898.270	0.0176221
898.348	0.0175320
898.426	0.0174417
898.504	0.0175150
898.582	0.0172652
898.660	0.0169720
898.738	0.0170533
898.817	0.0169202
898.895	0.0168695
898.973	0.0167239
899.051	0.0167660
899.129	0.0166886
899.207	0.0167105
899.285	0.0168668
899.363	0.0166145
899.442	0.0169851
899.520	0.0170785
899.598	0.0170533
899.676	0.0171799
899.754	0.0171825
899.832	0.0172508
899.910	0.0173681
899.988	0.0174419
900.067	0.0174803
900.145	0.0175648
900.223	0.0176102
900.301	0.0178075
900.379	0.0178763
900.457	0.0177705
900.535	0.0177402
900.613	0.0177876
900.692	0.0177963
900.770	0.0178707
900.848	0.0177960
900.926	0.0178313
901.004	0.0177879
901.082	0.0177467
901.160	0.0178508
901.238	0.0177916
901.317	0.0178307
901.395	0.0177235
901.473	0.0177036
901.551	0.0176714
901.629	0.0176296
901.707	0.0176162
901.785	0.0173062
901.863	0.0173975
901.942	0.0176071
902.020	0.0175336
902.098	0.0175867
902.176	0.0175673
902.254	0.0175712
902.332	0.0177074
902.410	0.0177651
902.488	0.0176858
902.567	0.0177213
902.645	0.0177000
902.723	0.0176230
902.801	0.0177285
902.879	0.0177841
902.957	0.0175772
903.035	0.0175592
903.113	0.0177419
903.192	0.0175600
903.270	0.0175211
903.348	0.0174178
903.426	0.0174146
903.504	0.0173202
903.582	0.0172124
903.660	0.0171877
903.738	0.0171902
903.817	0.0170579
903.895	0.0169557
903.973	0.0170158
904.051	0.0169923
904.129	0.0168848
904.207	0.0168692
904.285	0.0169444
904.363	0.0169842
904.442	0.0170001
904.520	0.0169939
904.598	0.0170853
904.676	0.0171490
904.754	0.0173429
904.832	0.0171581
904.910	0.0174214
904.988	0.0174992
905.067	0.0174401
905.145	0.0175816
905.223	0.0175923
905.301	0.0177129
905.379	0.0177795
905.457	0.0178539
905.535	0.0176773
905.613	0.0178397
905.692	0.0179710
905.770	0.0178635
905.848	0.0179149
905.926	0.0179290
906.004	0.0179500
906.082	0.0180211
906.160	0.0178651
906.238	0.0178774
906.317	0.0179223
906.395	0.0180613
906.473	0.0177500
906.551	0.0175818
906.629	0.0176068
906.707	0.0176649
906.785	0.0175664
906.863	0.0174426
906.942	0.0173972
907.020	0.0173695
907.098	0.0173627
907.176	0.0171954
907.254	0.0172186
907.332	0.0171408
907.410	0.0172012
907.488	0.0173434
907.567	0.0172540
907.645	0.0173223
907.723	0.0172697
907.801	0.0172078
907.879	0.0173619
907.957	0.0175029
908.035	0.0174895
908.113	0.0175204
908.192	0.0175137
908.270	0.0175195
908.348	0.0175931
908.426	0.0175193
908.504	0.0175106
908.582	0.0174877
908.660	0.0173514
908.738	0.0172227
908.817	0.0171331
908.895	0.0170481
908.973	0.0169624
909.051	0.0168777
909.129	0.0168287
909.207	0.0169291
909.285	0.0168253
909.363	0.0168916
909.442	0.0169719
909.520	0.0169833
909.598	0.0171760
909.676	0.0172403
909.754	0.0173721
909.832	0.0174037
909.910	0.0176770
909.988	0.0177194
910.067	0.0176853
910.145	0.0178733
910.223	0.0180555
910.301	0.0180286
910.379	0.0181094
910.457	0.0181906
910.535	0.0181973
910.613	0.0182127
910.692	0.0181242
910.770	0.0182208
910.848	0.0183262
910.926	0.0181218
911.004	0.0179735
911.082	0.0179131
911.160	0.0178903
911.238	0.0178156
911.317	0.0176893
911.395	0.0175899
911.473	0.0174689
911.551	0.0174703
911.629	0.0173408
911.707	0.0172644
911.785	0.0171162
911.863	0.0171333
911.942	0.0171173
912.020	0.0171835
912.098	0.0171035
912.176	0.0172140
912.254	0.0171095
912.332	0.0171369
912.410	0.0173945
912.488	0.0171833
912.567	0.0171249
912.645	0.0173272
912.723	0.0173461
912.801	0.0174443
912.879	0.0175636
912.957	0.0174679
913.035	0.0175967
913.113	0.0175256
913.192	0.0177448
913.270	0.0177424
913.348	0.0177711
913.426	0.0175925
913.504	0.0176214
913.582	0.0177058
913.660	0.0176134
913.738	0.0175578
913.817	0.0174502
913.895	0.0173495
913.973	0.0173112
914.051	0.0172757
914.129	0.0171727
914.207	0.0171003
914.285	0.0169453
914.363	0.0170795
914.442	0.0170229
914.520	0.0170358
914.598	0.0171325
914.676	0.0171565
914.754	0.0171858
914.832	0.0171566
914.910	0.0172735
914.988	0.0174170
915.067	0.0175063
915.145	0.0175765
915.223	0.0175778
915.301	0.0176250
915.379	0.0177091
915.457	0.0178677
915.535	0.0177953
915.613	0.0178010
915.692	0.0179661
915.770	0.0178644
915.848	0.0179359
915.926	0.0177654
916.004	0.0178753
916.082	0.0178616
916.160	0.0178374
916.238	0.0176719
916.317	0.0176196
916.395	0.0175321
916.473	0.0175056
916.551	0.0174435
916.629	0.0174600
916.707	0.0173615
916.785	0.0173307
916.863	0.0173399
916.942	0.0173787
917.020	0.0172703
917.098	0.0173788
917.176	0.0171955
917.254	0.0170358
917.332	0.0171947
917.410	0.0172190
917.488	0.0172024
917.567	0.0171217
917.645	0.0171533
917.723	0.0172935
917.801	0.0173222
917.879	0.0174155
917.957	0.0174345
918.035	0.0173830
918.113	0.0174949
918.192	0.0173763
918.270	0.0175612
918.348	0.0175865
918.426	0.0175396
918.504	0.0176308
918.582	0.0176429
918.660	0.0175367
918.738	0.0174590
918.817	0.0175246
918.895	0.0174284
918.973	0.0174165
919.051	0.0174739
919.129	0.0172147
919.207	0.0171745
919.285	0.0172423
919.363	0.0172194
919.442	0.0171790
919.520	0.0172768
919.598	0.0171242
919.676	0.0172439
919.754	0.0172610
919.832	0.0173303
919.910	0.0174055
