06/01/2022	21:43:22	Ver.	4.1	UNKNOWN
Optical Delay	599.988409	Delta X		0.078125	Sweeps	1	Scan Rate	0/0
Coordinates	Axis 1	NaN	Axis 2	NaN	Axis 3	NaN	Axis 4	NaN	Axis 5	NaN	Axis 6	0.000000
TX Power	0.000000	RX Power	0.000000

599.988	0.0173557
600.067	0.0173093
600.145	0.0173218
600.223	0.0173837
600.301	0.0173360
600.379	0.0172774
600.457	0.0174728
600.535	0.0173820
600.613	0.0173853
600.692	0.0173420
600.770	0.0173024
600.848	0.0174191
600.926	0.0173911
601.004	0.0173048
601.082	0.0173841
601.160	0.0175198
601.238	0.0173849
601.317	0.0174197
601.395	0.0173016
601.473	0.0173342
601.551	0.0173368
601.629	0.0174277
601.707	0.0173412
601.785	0.0173136
601.863	0.0172525
601.942	0.0174559
602.020	0.0173823
602.098	0.0173087
602.176	0.0173758
602.254	0.0172803
602.332	0.0173746
602.410	0.0173306
602.488	0.0172766
602.567	0.0175169
602.645	0.0173520
602.723	0.0174071
602.801	0.0172950
602.879	0.0173566
602.957	0.0173599
603.035	0.0173235
603.113	0.0172365
603.192	0.0173197
603.270	0.0173805
603.348	0.0174129
603.426	0.0174277
603.504	0.0173541
603.582	0.0175005
603.660	0.0172533
603.738	0.0172340
603.817	0.0174504
603.895	0.0174288
603.973	0.0173403
604.051	0.0173146
604.129	0.0173621
604.207	0.0172945
604.285	0.0173603
604.363	0.0173842
604.442	0.0172273
604.520	0.0173710
604.598	0.0174098
604.676	0.0173967
604.754	0.0174591
604.832	0.0173009
604.910	0.0173045
604.988	0.0173550
605.067	0.0173590
605.145	0.0173315
605.223	0.0173403
605.301	0.0173763
605.379	0.0175119
605.457	0.0173548
605.535	0.0173422
605.613	0.0173161
605.692	0.0175359
605.770	0.0174278
605.848	0.0172920
605.926	0.0173467
606.004	0.0173444
606.082	0.0173232
606.160	0.0172731
606.238	0.0173123
606.317	0.0174439
606.395	0.0172731
606.473	0.0173371
606.551	0.0173248
606.629	0.0174409
606.707	0.0173738
606.785	0.0173644
606.863	0.0174184
606.942	0.0173792
607.020	0.0173729
607.098	0.0173116
607.176	0.0173277
607.254	0.0172687
607.332	0.0173241
607.410	0.0173665
607.488	0.0173826
607.567	0.0174616
607.645	0.0174025
607.723	0.0173174
607.801	0.0173393
607.879	0.0173553
607.957	0.0173835
608.035	0.0173820
608.113	0.0173061
608.192	0.0172876
608.270	0.0174909
608.348	0.0173408
608.426	0.0174034
608.504	0.0174148
608.582	0.0174375
608.660	0.0174201
608.738	0.0173806
608.817	0.0174778
608.895	0.0174802
608.973	0.0174606
609.051	0.0173437
609.129	0.0172707
609.207	0.0172102
609.285	0.0173705
609.363	0.0174122
609.442	0.0173487
609.520	0.0173716
609.598	0.0173766
609.676	0.0174769
609.754	0.0174975
609.832	0.0173714
609.910	0.0173228
609.988	0.0174387
610.067	0.0173157
610.145	0.0173187
610.223	0.0173979
610.301	0.0174786
610.379	0.0174879
610.457	0.0173154
610.535	0.0173194
610.613	0.0174995
610.692	0.0174386
610.770	0.0174628
610.848	0.0174950
610.926	0.0173602
611.004	0.0172816
611.082	0.0173537
611.160	0.0173698
611.238	0.0173424
611.317	0.0172802
611.395	0.0173284
611.473	0.0172517
611.551	0.0174531
611.629	0.0174628
611.707	0.0174178
611.785	0.0174662
611.863	0.0173087
611.942	0.0173534
612.020	0.0173158
612.098	0.0172807
612.176	0.0173124
612.254	0.0173622
612.332	0.0173335
612.410	0.0173573
612.488	0.0172551
612.567	0.0173901
612.645	0.0173110
612.723	0.0173310
612.801	0.0174361
612.879	0.0172599
612.957	0.0174807
613.035	0.0173460
613.113	0.0173825
613.192	0.0173267
613.270	0.0173227
613.348	0.0174117
613.426	0.0173544
613.504	0.0174055
613.582	0.0174329
613.660	0.0173242
613.738	0.0173362
613.817	0.0173171
613.895	0.0174717
613.973	0.0174295
614.051	0.0173776
614.129	0.0174525
614.207	0.0174268
614.285	0.0174200
614.363	0.0173921
614.442	0.0173367
614.520	0.0174057
614.598	0.0173222
614.676	0.0174484
614.754	0.0172763
614.832	0.0172519
614.910	0.0173693
614.988	0.0173415
615.067	0.0173837
615.145	0.0173642
615.223	0.0173228
615.301	0.0174496
615.379	0.0172458
615.457	0.0173206
615.535	0.0175260
615.613	0.0174023
615.692	0.0173347
615.770	0.0173007
615.848	0.0174088
615.926	0.0173502
616.004	0.0174256
616.082	0.0175308
616.160	0.0174287
616.238	0.0174862
616.317	0.0173776
616.395	0.0173965
616.473	0.0173640
616.551	0.0173703
616.629	0.0173904
616.707	0.0175771
616.785	0.0173280
616.863	0.0175539
616.942	0.0174024
617.020	0.0173598
617.098	0.0173441
617.176	0.0173553
617.254	0.0174490
617.332	0.0173573
617.410	0.0174220
617.488	0.0173679
617.567	0.0173989
617.645	0.0172395
617.723	0.0173633
617.801	0.0173857
617.879	0.0174935
617.957	0.0173217
618.035	0.0172708
618.113	0.0174229
618.192	0.0173405
618.270	0.0172311
618.348	0.0173426
618.426	0.0174016
618.504	0.0172419
618.582	0.0173686
618.660	0.0173492
618.738	0.0173708
618.817	0.0172815
618.895	0.0172662
618.973	0.0173885
619.051	0.0173308
619.129	0.0174501
619.207	0.0172717
619.285	0.0173697
619.363	0.0172449
619.442	0.0174290
619.520	0.0174274
619.598	0.0173514
619.676	0.0172611
619.754	0.0173949
619.832	0.0174261
619.910	0.0173962
619.988	0.0173604
620.067	0.0173260
620.145	0.0173215
620.223	0.0174524
620.301	0.0173640
620.379	0.0175582
620.457	0.0175087
620.535	0.0173261
620.613	0.0175577
620.692	0.0173293
620.770	0.0174334
620.848	0.0175381
620.926	0.0174463
621.004	0.0174754
621.082	0.0173447
621.160	0.0174936
621.238	0.0173660
621.317	0.0174164
621.395	0.0174893
621.473	0.0174840
621.551	0.0173725
621.629	0.0173011
621.707	0.0174049
621.785	0.0175450
621.863	0.0175014
621.942	0.0172607
622.020	0.0173599
622.098	0.0173971
622.176	0.0174097
622.254	0.0173864
622.332	0.0174352
622.410	0.0174650
622.488	0.0173475
622.567	0.0173236
622.645	0.0175196
622.723	0.0173772
622.801	0.0173125
622.879	0.0173213
622.957	0.0174487
623.035	0.0172835
623.113	0.0173496
623.192	0.0174252
623.270	0.0172903
623.348	0.0172237
623.426	0.0172787
623.504	0.0172804
623.582	0.0173462
623.660	0.0173372
623.738	0.0172105
623.817	0.0171459
623.895	0.0172896
623.973	0.0173595
624.051	0.0174075
624.129	0.0173399
624.207	0.0174868
624.285	0.0172898
624.363	0.0174584
624.442	0.0173707
624.520	0.0172410
624.598	0.0174529
624.676	0.0173912
624.754	0.0174091
624.832	0.0174843
624.910	0.0173611
624.988	0.0174277
625.067	0.0175307
625.145	0.0173905
625.223	0.0174019
625.301	0.0173780
625.379	0.0174345
625.457	0.0173801
625.535	0.0173510
625.613	0.0174609
625.692	0.0173527
625.770	0.0174281
625.848	0.0172957
625.926	0.0173870
626.004	0.0174273
626.082	0.0173666
626.160	0.0173335
626.238	0.0172614
626.317	0.0174527
626.395	0.0174154
626.473	0.0173738
626.551	0.0174384
626.629	0.0174400
626.707	0.0174289
626.785	0.0173921
626.863	0.0174613
626.942	0.0173676
627.020	0.0173750
627.098	0.0174239
627.176	0.0174339
627.254	0.0172388
627.332	0.0172884
627.410	0.0173521
627.488	0.0174026
627.567	0.0173331
627.645	0.0173605
627.723	0.0174407
627.801	0.0172786
627.879	0.0173932
627.957	0.0173016
628.035	0.0172784
628.113	0.0172772
628.192	0.0171355
628.270	0.0173528
628.348	0.0173299
628.426	0.0172086
628.504	0.0172551
628.582	0.0172224
628.660	0.0172591
628.738	0.0172199
628.817	0.0173232
628.895	0.0174299
628.973	0.0173450
629.051	0.0173660
629.129	0.0173618
629.207	0.0173322
629.285	0.0174315
629.363	0.0173758
629.442	0.0174933
629.520	0.0176665
629.598	0.0174052
629.676	0.0174860
629.754	0.0174567
629.832	0.0174470
629.910	0.0174941
629.988	0.0174453
630.067	0.0174066
630.145	0.0174257
630.223	0.0173744
630.301	0.0174108
630.379	0.0173816
630.457	0.0173731
630.535	0.0173619
630.613	0.0173623
630.692	0.0174580
630.770	0.0175060
630.848	0.0173649
630.926	0.0174333
631.004	0.0173295
631.082	0.0173620
631.160	0.0174614
631.238	0.0173286
631.317	0.0172757
631.395	0.0174387
631.473	0.0174014
631.551	0.0175217
631.629	0.0173949
631.707	0.0175255
631.785	0.0174908
631.863	0.0172920
631.942	0.0173795
632.020	0.0174194
632.098	0.0173774
632.176	0.0173697
632.254	0.0173814
632.332	0.0173421
632.410	0.0174348
632.488	0.0174278
632.567	0.0173059
632.645	0.0172897
632.723	0.0174049
632.801	0.0174075
632.879	0.0173495
632.957	0.0172687
633.035	0.0172863
633.113	0.0173244
633.192	0.0171577
633.270	0.0172918
633.348	0.0174071
633.426	0.0173740
633.504	0.0172212
633.582	0.0172543
633.660	0.0172721
633.738	0.0173451
633.817	0.0171554
633.895	0.0173260
633.973	0.0175178
634.051	0.0173980
634.129	0.0173560
634.207	0.0172812
634.285	0.0173534
634.363	0.0173518
634.442	0.0173521
634.520	0.0173085
634.598	0.0175215
634.676	0.0174406
634.754	0.0174176
634.832	0.0174015
634.910	0.0172910
634.988	0.0174725
635.067	0.0175547
635.145	0.0175117
635.223	0.0174828
635.301	0.0174091
635.379	0.0175523
635.457	0.0174265
635.535	0.0175418
635.613	0.0174203
635.692	0.0173526
635.770	0.0175186
635.848	0.0174073
635.926	0.0174254
636.004	0.0175429
636.082	0.0174803
636.160	0.0175053
636.238	0.0174618
636.317	0.0173733
636.395	0.0173471
636.473	0.0174428
636.551	0.0173586
636.629	0.0173053
636.707	0.0173458
636.785	0.0174055
636.863	0.0173158
636.942	0.0174039
637.020	0.0174785
637.098	0.0174593
637.176	0.0174887
637.254	0.0174010
637.332	0.0175515
637.410	0.0173441
637.488	0.0173502
637.567	0.0173586
637.645	0.0173904
637.723	0.0173997
637.801	0.0173402
637.879	0.0174377
637.957	0.0173696
638.035	0.0173305
638.113	0.0173830
638.192	0.0173907
638.270	0.0174258
638.348	0.0174258
638.426	0.0172707
638.504	0.0173233
638.582	0.0172350
638.660	0.0174533
638.738	0.0174397
638.817	0.0171951
638.895	0.0172472
638.973	0.0173226
639.051	0.0175574
639.129	0.0173441
639.207	0.0173926
639.285	0.0174686
639.363	0.0173980
639.442	0.0173158
639.520	0.0173708
639.598	0.0173598
639.676	0.0173187
639.754	0.0174719
639.832	0.0172956
639.910	0.0173235
639.988	0.0173719
640.067	0.0173540
640.145	0.0175041
640.223	0.0174120
640.301	0.0173750
640.379	0.0174742
640.457	0.0174197
640.535	0.0172941
640.613	0.0175796
640.692	0.0174397
640.770	0.0173581
640.848	0.0173760
640.926	0.0173886
641.004	0.0173639
641.082	0.0174238
641.160	0.0174274
641.238	0.0173157
641.317	0.0174268
641.395	0.0172762
641.473	0.0174734
641.551	0.0174638
641.629	0.0173192
641.707	0.0174354
641.785	0.0173800
641.863	0.0172396
641.942	0.0172852
642.020	0.0173376
642.098	0.0173384
642.176	0.0173162
642.254	0.0172861
642.332	0.0173120
642.410	0.0173212
642.488	0.0173986
642.567	0.0174349
642.645	0.0174714
642.723	0.0172947
642.801	0.0173762
642.879	0.0174741
642.957	0.0173567
643.035	0.0173051
643.113	0.0173470
643.192	0.0172980
643.270	0.0173648
643.348	0.0173055
643.426	0.0172948
643.504	0.0172813
643.582	0.0173804
643.660	0.0172152
643.738	0.0173548
643.817	0.0173700
643.895	0.0173869
643.973	0.0174081
644.051	0.0173572
644.129	0.0173612
644.207	0.0173422
644.285	0.0172254
644.363	0.0173135
644.442	0.0174384
644.520	0.0174308
644.598	0.0174244
644.676	0.0174220
644.754	0.0174126
644.832	0.0174300
644.910	0.0175310
644.988	0.0173390
645.067	0.0173535
645.145	0.0174024
645.223	0.0173721
645.301	0.0173908
645.379	0.0173806
645.457	0.0174059
645.535	0.0173801
645.613	0.0173433
645.692	0.0173932
645.770	0.0172352
645.848	0.0174174
645.926	0.0174023
646.004	0.0174065
646.082	0.0173450
646.160	0.0174600
646.238	0.0174052
646.317	0.0172250
646.395	0.0173936
646.473	0.0174625
646.551	0.0174236
646.629	0.0174125
646.707	0.0174014
646.785	0.0174004
646.863	0.0174432
646.942	0.0174540
647.020	0.0174461
647.098	0.0173351
647.176	0.0173708
647.254	0.0174344
647.332	0.0173519
647.410	0.0174335
647.488	0.0174292
647.567	0.0174775
647.645	0.0172939
647.723	0.0174044
647.801	0.0174514
647.879	0.0173776
647.957	0.0173955
648.035	0.0174111
648.113	0.0175602
648.192	0.0174885
648.270	0.0173299
648.348	0.0172993
648.426	0.0174400
648.504	0.0174194
648.582	0.0172930
648.660	0.0174067
648.738	0.0173600
648.817	0.0174197
648.895	0.0174722
648.973	0.0175339
649.051	0.0173649
649.129	0.0173093
649.207	0.0174297
649.285	0.0174552
649.363	0.0174899
649.442	0.0173640
649.520	0.0173260
649.598	0.0174436
649.676	0.0174998
649.754	0.0174804
649.832	0.0172799
649.910	0.0174300
649.988	0.0174512
650.067	0.0174245
650.145	0.0173050
650.223	0.0172995
650.301	0.0174696
650.379	0.0175327
650.457	0.0174598
650.535	0.0173831
650.613	0.0173474
650.692	0.0173939
650.770	0.0173673
650.848	0.0172987
650.926	0.0173377
651.004	0.0173396
651.082	0.0174049
651.160	0.0174297
651.238	0.0174207
651.317	0.0173943
651.395	0.0173148
651.473	0.0173558
651.551	0.0173862
651.629	0.0173943
651.707	0.0173130
651.785	0.0174165
651.863	0.0175375
651.942	0.0174655
652.020	0.0173920
652.098	0.0173790
652.176	0.0174650
652.254	0.0174478
652.332	0.0175211
652.410	0.0172059
652.488	0.0173706
652.567	0.0173753
652.645	0.0174952
652.723	0.0174049
652.801	0.0172801
652.879	0.0174683
652.957	0.0175188
653.035	0.0172678
653.113	0.0175046
653.192	0.0173634
653.270	0.0173372
653.348	0.0173435
653.426	0.0173962
653.504	0.0174374
653.582	0.0173660
653.660	0.0174818
653.738	0.0174704
653.817	0.0174297
653.895	0.0173135
653.973	0.0175071
654.051	0.0174022
654.129	0.0173772
654.207	0.0173540
654.285	0.0175172
654.363	0.0174003
654.442	0.0174384
654.520	0.0174303
654.598	0.0174453
654.676	0.0173350
654.754	0.0173842
654.832	0.0173397
654.910	0.0174008
654.988	0.0174492
655.067	0.0173853
655.145	0.0174054
655.223	0.0174217
655.301	0.0174085
655.379	0.0174216
655.457	0.0173534
655.535	0.0173518
655.613	0.0172774
655.692	0.0173727
655.770	0.0174409
655.848	0.0173710
655.926	0.0174856
656.004	0.0174112
656.082	0.0174113
656.160	0.0173701
656.238	0.0173715
656.317	0.0173402
656.395	0.0173203
656.473	0.0174187
656.551	0.0172277
656.629	0.0173501
656.707	0.0174788
656.785	0.0173718
656.863	0.0173340
656.942	0.0172575
657.020	0.0174459
657.098	0.0174261
657.176	0.0173505
657.254	0.0173470
657.332	0.0173456
657.410	0.0173861
657.488	0.0172812
657.567	0.0174548
657.645	0.0174210
657.723	0.0174724
657.801	0.0174248
657.879	0.0174211
657.957	0.0174001
658.035	0.0173450
658.113	0.0174162
658.192	0.0174400
658.270	0.0173544
658.348	0.0172764
658.426	0.0174519
658.504	0.0173016
658.582	0.0172973
658.660	0.0172542
658.738	0.0174167
658.817	0.0173669
658.895	0.0173207
658.973	0.0173219
659.051	0.0175942
659.129	0.0173002
659.207	0.0172791
659.285	0.0174976
659.363	0.0173806
659.442	0.0173376
659.520	0.0173291
659.598	0.0174258
659.676	0.0174253
659.754	0.0173161
659.832	0.0173048
659.910	0.0173068
659.988	0.0173502
660.067	0.0172841
660.145	0.0173025
660.223	0.0174290
660.301	0.0174568
660.379	0.0173981
660.457	0.0174142
660.535	0.0172389
660.613	0.0173946
660.692	0.0172604
660.770	0.0174426
660.848	0.0173441
660.926	0.0173589
661.004	0.0173505
661.082	0.0174224
661.160	0.0173276
661.238	0.0174189
661.317	0.0173338
661.395	0.0172353
661.473	0.0172665
661.551	0.0172945
661.629	0.0174678
661.707	0.0174026
661.785	0.0174699
661.863	0.0174004
661.942	0.0172710
662.020	0.0174399
662.098	0.0173711
662.176	0.0173814
662.254	0.0172269
662.332	0.0173643
662.410	0.0173701
662.488	0.0173637
662.567	0.0173785
662.645	0.0172378
662.723	0.0174537
662.801	0.0172710
662.879	0.0172324
662.957	0.0173924
663.035	0.0173083
663.113	0.0173113
663.192	0.0173547
663.270	0.0172848
663.348	0.0175090
663.426	0.0173793
663.504	0.0173316
663.582	0.0172452
663.660	0.0172997
663.738	0.0172877
663.817	0.0172056
663.895	0.0174516
663.973	0.0173688
664.051	0.0172227
664.129	0.0173962
664.207	0.0173352
664.285	0.0173648
664.363	0.0172955
664.442	0.0173670
664.520	0.0172760
664.598	0.0172037
664.676	0.0173387
664.754	0.0174028
664.832	0.0172291
664.910	0.0172163
664.988	0.0173731
665.067	0.0173592
665.145	0.0173302
665.223	0.0173975
665.301	0.0173090
665.379	0.0174128
665.457	0.0171682
665.535	0.0173878
665.613	0.0173447
665.692	0.0173741
665.770	0.0173438
665.848	0.0174070
665.926	0.0174448
666.004	0.0173640
666.082	0.0172962
666.160	0.0172253
666.238	0.0173858
666.317	0.0173837
666.395	0.0173380
666.473	0.0173699
666.551	0.0173284
666.629	0.0174357
666.707	0.0174001
666.785	0.0172977
666.863	0.0174266
666.942	0.0173991
667.020	0.0173285
667.098	0.0173876
667.176	0.0173623
667.254	0.0175387
667.332	0.0174229
667.410	0.0173042
667.488	0.0173489
667.567	0.0173724
667.645	0.0174015
667.723	0.0172591
667.801	0.0173750
667.879	0.0173120
667.957	0.0173039
668.035	0.0172228
668.113	0.0173431
668.192	0.0172310
668.270	0.0172231
668.348	0.0174391
668.426	0.0174183
668.504	0.0173441
668.582	0.0172742
668.660	0.0173630
668.738	0.0174405
668.817	0.0174469
668.895	0.0174881
668.973	0.0173436
669.051	0.0174284
669.129	0.0174391
669.207	0.0173050
669.285	0.0174626
669.363	0.0175342
669.442	0.0173540
669.520	0.0174738
669.598	0.0173878
669.676	0.0172540
669.754	0.0173866
669.832	0.0172641
669.910	0.0171935
669.988	0.0172409
670.067	0.0172359
670.145	0.0171149
670.223	0.0172411
670.301	0.0173367
670.379	0.0172630
670.457	0.0173542
670.535	0.0172962
670.613	0.0175127
670.692	0.0173901
670.770	0.0174075
670.848	0.0174059
670.926	0.0175099
671.004	0.0175183
671.082	0.0175584
671.160	0.0174599
671.238	0.0172242
671.317	0.0174526
671.395	0.0174957
671.473	0.0172716
671.551	0.0171469
671.629	0.0172892
671.707	0.0171971
671.785	0.0172088
671.863	0.0171457
671.942	0.0171849
672.020	0.0172688
672.098	0.0172515
672.176	0.0171782
672.254	0.0173823
672.332	0.0173558
672.410	0.0173598
672.488	0.0172739
672.567	0.0173848
672.645	0.0175152
672.723	0.0174674
672.801	0.0174087
672.879	0.0174464
672.957	0.0173633
673.035	0.0175211
673.113	0.0174596
673.192	0.0172739
673.270	0.0172073
673.348	0.0173360
673.426	0.0172784
673.504	0.0171945
673.582	0.0174384
673.660	0.0172511
673.738	0.0172342
673.817	0.0172251
673.895	0.0172322
673.973	0.0172630
674.051	0.0172156
674.129	0.0172433
674.207	0.0173998
674.285	0.0173502
674.363	0.0175082
674.442	0.0174416
674.520	0.0172802
674.598	0.0173244
674.676	0.0173668
674.754	0.0174795
674.832	0.0174517
674.910	0.0175813
674.988	0.0174648
675.067	0.0173314
675.145	0.0174873
675.223	0.0173640
675.301	0.0174184
675.379	0.0173819
675.457	0.0172340
675.535	0.0171840
675.613	0.0172395
675.692	0.0172585
675.770	0.0171533
675.848	0.0171362
675.926	0.0171122
676.004	0.0172041
676.082	0.0173286
676.160	0.0172352
676.238	0.0172165
676.317	0.0173895
676.395	0.0174657
676.473	0.0175352
676.551	0.0173975
676.629	0.0174683
676.707	0.0176476
676.785	0.0176865
676.863	0.0176374
676.942	0.0175096
677.020	0.0174465
677.098	0.0175396
677.176	0.0174466
677.254	0.0174635
677.332	0.0173517
677.410	0.0172158
677.488	0.0172488
677.567	0.0171578
677.645	0.0171935
677.723	0.0171112
677.801	0.0170585
677.879	0.0171472
677.957	0.0170947
678.035	0.0170654
678.113	0.0171085
678.192	0.0171702
678.270	0.0173479
678.348	0.0174155
678.426	0.0174183
678.504	0.0173036
678.582	0.0174997
678.660	0.0174977
678.738	0.0175473
678.817	0.0173627
678.895	0.0174441
678.973	0.0175100
679.051	0.0173466
679.129	0.0174105
679.207	0.0174413
679.285	0.0176265
679.363	0.0173817
679.442	0.0174342
679.520	0.0173258
679.598	0.0173072
679.676	0.0173888
679.754	0.0174683
679.832	0.0171995
679.910	0.0173640
679.988	0.0173989
680.067	0.0174345
680.145	0.0174416
680.223	0.0173143
680.301	0.0174059
680.379	0.0173340
680.457	0.0174441
680.535	0.0174048
680.613	0.0173335
680.692	0.0173267
680.770	0.0174243
680.848	0.0174652
680.926	0.0176766
681.004	0.0175525
681.082	0.0174466
681.160	0.0175884
681.238	0.0174714
681.317	0.0174585
681.395	0.0173386
681.473	0.0173215
681.551	0.0174618
681.629	0.0172754
681.707	0.0173377
681.785	0.0171475
681.863	0.0170869
681.942	0.0169993
682.020	0.0170504
682.098	0.0169403
682.176	0.0171060
682.254	0.0170714
682.332	0.0172177
682.410	0.0172911
682.488	0.0173988
682.567	0.0174210
682.645	0.0174673
682.723	0.0174028
682.801	0.0173780
682.879	0.0173746
682.957	0.0174969
683.035	0.0173563
683.113	0.0175009
683.192	0.0175133
683.270	0.0173766
683.348	0.0173245
683.426	0.0173194
683.504	0.0172688
683.582	0.0171329
683.660	0.0170827
683.738	0.0173754
683.817	0.0175031
683.895	0.0175860
683.973	0.0176488
684.051	0.0178171
684.129	0.0179687
684.207	0.0180857
684.285	0.0181786
684.363	0.0182973
684.442	0.0179705
684.520	0.0181240
684.598	0.0180960
684.676	0.0180499
684.754	0.0178672
684.832	0.0176189
684.910	0.0175829
684.988	0.0172858
685.067	0.0171886
685.145	0.0169776
685.223	0.0168460
685.301	0.0168513
685.379	0.0167308
685.457	0.0167047
685.535	0.0167250
685.613	0.0166879
685.692	0.0166558
685.770	0.0167960
685.848	0.0166994
685.926	0.0169093
686.004	0.0170070
686.082	0.0170148
686.160	0.0171583
686.238	0.0172791
686.317	0.0172350
686.395	0.0171660
686.473	0.0171817
686.551	0.0172069
686.629	0.0173125
686.707	0.0174558
686.785	0.0174744
686.863	0.0175240
686.942	0.0175564
687.020	0.0176595
687.098	0.0178249
687.176	0.0177825
687.254	0.0177187
687.332	0.0178144
687.410	0.0178065
687.488	0.0176241
687.567	0.0175829
687.645	0.0173964
687.723	0.0174145
687.801	0.0174154
687.879	0.0175324
687.957	0.0176427
688.035	0.0176292
688.113	0.0176694
688.192	0.0179227
688.270	0.0178860
688.348	0.0178835
688.426	0.0179684
688.504	0.0178141
688.582	0.0178354
688.660	0.0175539
688.738	0.0172657
688.817	0.0169869
688.895	0.0167242
688.973	0.0165569
689.051	0.0165366
689.129	0.0163925
689.207	0.0162964
689.285	0.0163611
689.363	0.0163175
689.442	0.0165051
689.520	0.0167730
689.598	0.0168858
689.676	0.0171503
689.754	0.0173972
689.832	0.0176384
689.910	0.0177505
689.988	0.0177648
690.067	0.0177467
690.145	0.0178915
690.223	0.0178101
690.301	0.0177113
690.379	0.0175163
690.457	0.0174545
690.535	0.0173232
690.613	0.0170594
690.692	0.0170113
690.770	0.0168813
690.848	0.0166951
690.926	0.0165759
691.004	0.0164143
691.082	0.0164951
691.160	0.0163261
691.238	0.0165233
691.317	0.0165202
691.395	0.0165118
691.473	0.0168180
691.551	0.0170197
691.629	0.0174965
691.707	0.0177309
691.785	0.0178730
691.863	0.0184042
691.942	0.0186338
692.020	0.0189845
692.098	0.0191306
692.176	0.0192740
692.254	0.0193600
692.332	0.0193340
692.410	0.0195864
692.488	0.0194857
692.567	0.0193790
692.645	0.0189700
692.723	0.0187821
692.801	0.0186324
692.879	0.0183624
692.957	0.0178767
693.035	0.0176823
693.113	0.0173332
693.192	0.0170061
693.270	0.0169050
693.348	0.0167665
693.426	0.0165188
693.504	0.0163644
693.582	0.0160734
693.660	0.0158292
693.738	0.0155737
693.817	0.0154218
693.895	0.0151250
693.973	0.0147832
694.051	0.0144175
694.129	0.0140321
694.207	0.0136752
694.285	0.0133305
694.363	0.0129292
694.442	0.0128080
694.520	0.0126228
694.598	0.0123972
694.676	0.0127054
694.754	0.0129459
694.832	0.0132803
694.910	0.0140168
694.988	0.0147849
695.067	0.0157762
695.145	0.0167473
695.223	0.0178904
695.301	0.0190965
695.379	0.0201269
695.457	0.0211060
695.535	0.0219376
695.613	0.0229047
695.692	0.0235941
695.770	0.0240107
695.848	0.0242862
695.926	0.0245247
696.004	0.0247154
696.082	0.0247805
696.160	0.0247049
696.238	0.0245083
696.317	0.0244814
696.395	0.0242904
696.473	0.0239786
696.551	0.0237048
696.629	0.0233285
696.707	0.0229340
696.785	0.0222005
696.863	0.0213538
696.942	0.0203063
697.020	0.0189938
697.098	0.0176299
697.176	0.0161440
697.254	0.0145741
697.332	0.0130343
697.410	0.0114684
697.488	0.0101467
697.567	0.00883018
697.645	0.00788177
697.723	0.00714409
697.801	0.00675156
697.879	0.00677116
697.957	0.00665115
698.035	0.00697189
698.113	0.00763596
698.192	0.00833267
698.270	0.00908203
698.348	0.00995293
698.426	0.0107455
698.504	0.0115841
698.582	0.0125946
698.660	0.0133777
698.738	0.0142453
698.817	0.0149060
698.895	0.0157426
698.973	0.0163152
699.051	0.0170013
699.129	0.0177638
699.207	0.0181840
699.285	0.0188094
699.363	0.0194547
699.442	0.0200968
699.520	0.0207521
699.598	0.0212748
699.676	0.0220148
699.754	0.0224610
699.832	0.0231387
699.910	0.0237042
699.988	0.0243871
700.067	0.0247239
700.145	0.0252309
700.223	0.0256673
700.301	0.0260219
700.379	0.0263619
700.457	0.0263154
700.535	0.0263259
700.613	0.0263792
700.692	0.0263216
700.770	0.0261818
700.848	0.0258860
700.926	0.0255588
701.004	0.0253585
701.082	0.0247398
701.160	0.0245341
701.238	0.0236187
701.317	0.0232183
701.395	0.0225021
701.473	0.0215273
701.551	0.0204181
701.629	0.0193060
701.707	0.0178349
701.785	0.0162463
701.863	0.0145284
701.942	0.0125262
702.020	0.0106454
702.098	0.00881905
702.176	0.00693695
702.254	0.00505959
702.332	0.00345650
702.410	0.00204742
702.488	0.000893936
702.567	0.000131226
702.645	-0.000486145
702.723	-0.000853348
702.801	-0.000780334
702.879	-0.000243683
702.957	0.000578766
703.035	0.00187088
703.113	0.00332916
703.192	0.00514015
703.270	0.00713264
703.348	0.00915680
703.426	0.0114180
703.504	0.0139330
703.582	0.0161123
703.660	0.0186415
703.738	0.0209405
703.817	0.0231099
703.895	0.0250646
703.973	0.0268729
704.051	0.0284435
704.129	0.0295142
704.207	0.0304124
704.285	0.0309642
704.363	0.0309464
704.442	0.0306815
704.520	0.0301192
704.598	0.0292647
704.676	0.0283877
704.754	0.0274328
704.832	0.0263400
704.910	0.0254058
704.988	0.0246323
705.067	0.0240958
705.145	0.0234608
705.223	0.0230393
705.301	0.0228975
705.379	0.0229298
705.457	0.0229836
705.535	0.0231406
705.613	0.0230924
705.692	0.0234440
705.770	0.0236526
705.848	0.0237790
705.926	0.0237341
706.004	0.0237450
706.082	0.0237234
706.160	0.0234148
706.238	0.0229932
706.317	0.0223186
706.395	0.0215977
706.473	0.0205367
706.551	0.0192596
706.629	0.0177145
706.707	0.0160378
706.785	0.0141547
706.863	0.0120452
706.942	0.00987206
707.020	0.00763062
707.098	0.00529007
707.176	0.00311432
707.254	0.00100769
707.332	-0.000792847
707.410	-0.00254173
707.488	-0.00391167
707.567	-0.00472130
707.645	-0.00503784
707.723	-0.00512138
707.801	-0.00478645
707.879	-0.00379471
707.957	-0.00247482
708.035	-0.000604019
708.113	0.00180359
708.192	0.00424751
708.270	0.00701675
708.348	0.00996307
708.426	0.0129225
708.504	0.0160400
708.582	0.0188921
708.660	0.0219234
708.738	0.0245826
708.817	0.0273016
708.895	0.0294608
708.973	0.0313633
709.051	0.0332970
709.129	0.0343418
709.207	0.0352058
709.285	0.0358831
709.363	0.0359998
709.442	0.0358192
709.520	0.0351661
709.598	0.0342099
709.676	0.0332558
709.754	0.0319494
709.832	0.0302961
709.910	0.0287418
709.988	0.0271855
710.067	0.0257745
710.145	0.0243393
710.223	0.0230566
710.301	0.0220753
710.379	0.0212694
710.457	0.0208878
710.535	0.0205371
710.613	0.0201227
710.692	0.0200078
710.770	0.0199770
710.848	0.0199529
710.926	0.0197601
711.004	0.0194462
711.082	0.0193137
711.160	0.0186824
711.238	0.0182654
711.317	0.0173475
711.395	0.0167981
711.473	0.0159435
711.551	0.0150404
711.629	0.0139875
711.707	0.0128334
711.785	0.0115900
711.863	0.0103728
711.942	0.00899231
712.020	0.00784172
712.098	0.00638603
712.176	0.00507370
712.254	0.00388680
712.332	0.00299484
712.410	0.00203316
712.488	0.00162193
712.567	0.00135529
712.645	0.00142654
712.723	0.00176712
712.801	0.00237411
712.879	0.00323769
712.957	0.00427711
713.035	0.00561668
713.113	0.00719063
713.192	0.00881950
713.270	0.0103911
713.348	0.0122517
713.426	0.0140504
713.504	0.0158647
713.582	0.0176134
713.660	0.0192923
713.738	0.0209032
713.817	0.0225616
713.895	0.0241698
713.973	0.0254207
714.051	0.0266423
714.129	0.0276709
714.207	0.0285294
714.285	0.0289401
714.363	0.0295998
714.442	0.0296310
714.520	0.0296560
714.598	0.0293510
714.676	0.0288350
714.754	0.0283051
714.832	0.0275832
714.910	0.0267502
714.988	0.0259734
715.067	0.0251496
715.145	0.0243668
715.223	0.0235377
715.301	0.0230076
715.379	0.0224915
715.457	0.0220818
715.535	0.0218668
715.613	0.0212506
715.692	0.0209742
715.770	0.0207907
715.848	0.0206188
715.926	0.0202927
716.004	0.0198325
716.082	0.0196942
716.160	0.0190512
716.238	0.0186546
716.317	0.0180512
716.395	0.0173750
716.473	0.0166256
716.551	0.0160057
716.629	0.0152370
716.707	0.0145191
716.785	0.0134299
716.863	0.0125485
716.942	0.0118220
717.020	0.0109794
717.098	0.0104110
717.176	0.00978798
717.254	0.00927017
717.332	0.00889969
717.410	0.00880829
717.488	0.00872536
717.567	0.00880486
717.645	0.00908340
717.723	0.00947464
717.801	0.00994675
717.879	0.0104684
717.957	0.0107597
718.035	0.0112903
718.113	0.0117954
718.192	0.0123142
718.270	0.0127219
718.348	0.0131355
718.426	0.0134636
718.504	0.0138708
718.582	0.0142806
718.660	0.0146199
718.738	0.0152174
718.817	0.0156172
718.895	0.0162437
718.973	0.0166458
719.051	0.0173879
719.129	0.0182111
719.207	0.0190024
719.285	0.0196679
719.363	0.0204678
719.442	0.0210025
719.520	0.0216833
719.598	0.0221518
719.676	0.0227144
719.754	0.0231732
719.832	0.0233470
719.910	0.0236792
719.988	0.0237740
720.067	0.0236939
720.145	0.0237766
720.223	0.0236604
720.301	0.0235050
720.379	0.0230737
720.457	0.0227079
720.535	0.0223766
720.613	0.0217306
720.692	0.0212570
720.770	0.0207225
720.848	0.0201721
720.926	0.0197621
721.004	0.0194077
721.082	0.0190945
721.160	0.0188321
721.238	0.0185201
721.317	0.0186077
721.395	0.0183426
721.473	0.0180291
721.551	0.0181087
721.629	0.0180310
721.707	0.0179696
721.785	0.0176315
721.863	0.0174883
721.942	0.0171974
722.020	0.0168733
722.098	0.0165678
722.176	0.0161868
722.254	0.0158543
722.332	0.0155178
722.410	0.0151585
722.488	0.0150786
722.567	0.0148537
722.645	0.0146526
722.723	0.0147210
722.801	0.0146214
722.879	0.0145926
722.957	0.0144391
723.035	0.0146193
723.113	0.0146645
723.192	0.0144431
723.270	0.0144373
723.348	0.0145631
723.426	0.0143595
723.504	0.0142283
723.582	0.0143542
723.660	0.0142365
723.738	0.0144568
723.817	0.0144450
723.895	0.0146030
723.973	0.0146977
724.051	0.0151346
724.129	0.0153306
724.207	0.0156245
724.285	0.0161197
724.363	0.0166422
724.442	0.0169766
724.520	0.0173874
724.598	0.0178936
724.676	0.0184061
724.754	0.0187891
724.832	0.0191255
724.910	0.0192442
724.988	0.0195424
725.067	0.0195713
725.145	0.0195000
725.223	0.0193822
725.301	0.0190379
725.379	0.0187784
725.457	0.0186005
725.535	0.0182862
725.613	0.0178127
725.692	0.0174676
725.770	0.0173143
725.848	0.0170253
725.926	0.0169569
726.004	0.0168835
726.082	0.0170869
726.160	0.0172346
726.238	0.0174555
726.317	0.0176861
726.395	0.0182253
726.473	0.0183822
726.551	0.0187398
726.629	0.0190376
726.707	0.0192699
726.785	0.0195084
726.863	0.0194103
726.942	0.0194938
727.020	0.0193225
727.098	0.0192342
727.176	0.0191851
727.254	0.0188818
727.332	0.0184395
727.410	0.0183786
727.488	0.0181320
727.567	0.0177768
727.645	0.0178161
727.723	0.0175299
727.801	0.0173853
727.879	0.0173109
727.957	0.0173124
728.035	0.0172451
728.113	0.0171519
728.192	0.0171217
728.270	0.0170372
728.348	0.0171258
728.426	0.0171121
728.504	0.0171043
728.582	0.0170655
728.660	0.0171405
728.738	0.0170467
728.817	0.0170035
728.895	0.0170337
728.973	0.0171548
729.051	0.0173166
729.129	0.0171840
729.207	0.0172158
729.285	0.0173718
729.363	0.0174493
729.442	0.0175873
729.520	0.0173828
729.598	0.0175012
729.676	0.0175319
729.754	0.0176171
729.832	0.0175629
729.910	0.0173993
729.988	0.0173402
730.067	0.0171841
730.145	0.0169666
730.223	0.0167718
730.301	0.0166828
730.379	0.0165057
730.457	0.0162975
730.535	0.0159030
730.613	0.0158433
730.692	0.0159716
730.770	0.0157642
730.848	0.0157703
730.926	0.0158971
731.004	0.0158719
731.082	0.0160143
731.160	0.0162387
731.238	0.0163620
731.317	0.0164782
731.395	0.0166750
731.473	0.0169256
731.551	0.0168616
731.629	0.0170496
731.707	0.0171159
731.785	0.0170638
731.863	0.0171331
731.942	0.0171490
732.020	0.0171439
732.098	0.0169852
732.176	0.0169352
732.254	0.0169077
732.332	0.0167975
732.410	0.0169456
732.488	0.0168304
732.567	0.0167341
732.645	0.0167783
732.723	0.0169086
732.801	0.0169893
732.879	0.0169202
732.957	0.0171505
733.035	0.0173132
733.113	0.0176282
733.192	0.0177608
733.270	0.0180124
733.348	0.0183793
733.426	0.0185567
733.504	0.0187858
733.582	0.0189525
733.660	0.0191738
733.738	0.0193182
733.817	0.0194581
733.895	0.0195159
733.973	0.0195741
734.051	0.0195197
734.129	0.0196614
734.207	0.0194283
734.285	0.0193605
734.363	0.0192106
734.442	0.0189843
734.520	0.0188547
734.598	0.0186930
734.676	0.0185547
734.754	0.0183595
734.832	0.0182569
734.910	0.0180997
734.988	0.0179261
735.067	0.0176108
735.145	0.0175294
735.223	0.0175276
735.301	0.0172640
735.379	0.0170784
735.457	0.0170051
735.535	0.0168022
735.613	0.0168346
735.692	0.0166300
735.770	0.0165526
735.848	0.0164393
735.926	0.0164512
736.004	0.0163387
736.082	0.0163615
736.160	0.0162453
736.238	0.0161851
736.317	0.0161955
736.395	0.0161830
736.473	0.0160242
736.551	0.0160265
736.629	0.0159738
736.707	0.0159389
736.785	0.0159135
736.863	0.0159937
736.942	0.0160696
737.020	0.0162144
737.098	0.0163299
737.176	0.0164751
737.254	0.0166761
737.332	0.0168675
737.410	0.0170217
737.488	0.0169731
737.567	0.0171859
737.645	0.0172173
737.723	0.0172861
737.801	0.0172486
737.879	0.0172033
737.957	0.0172511
738.035	0.0171124
738.113	0.0169482
738.192	0.0168884
738.270	0.0169640
738.348	0.0170100
738.426	0.0168570
738.504	0.0168399
738.582	0.0171352
738.660	0.0170882
738.738	0.0170337
738.817	0.0174099
738.895	0.0175525
738.973	0.0175598
739.051	0.0178288
739.129	0.0179836
739.207	0.0179739
739.285	0.0182723
739.363	0.0183842
739.442	0.0182833
739.520	0.0183865
739.598	0.0183948
739.676	0.0182455
739.754	0.0182839
739.832	0.0182597
739.910	0.0181118
739.988	0.0180510
740.067	0.0179710
740.145	0.0179529
740.223	0.0179048
740.301	0.0177354
740.379	0.0177737
740.457	0.0176544
740.535	0.0176683
740.613	0.0178129
740.692	0.0177081
740.770	0.0177150
740.848	0.0177866
740.926	0.0178140
741.004	0.0177097
741.082	0.0176810
741.160	0.0176590
741.238	0.0176600
741.317	0.0175074
741.395	0.0174112
741.473	0.0174070
741.551	0.0174444
741.629	0.0173562
741.707	0.0173296
741.785	0.0172680
741.863	0.0175545
741.942	0.0175810
742.020	0.0175851
742.098	0.0176449
742.176	0.0176682
742.254	0.0178064
742.332	0.0178333
742.410	0.0180025
742.488	0.0178491
742.567	0.0177849
742.645	0.0178658
742.723	0.0178613
742.801	0.0177904
742.879	0.0178783
742.957	0.0176467
743.035	0.0175148
743.113	0.0173339
743.192	0.0171370
743.270	0.0169753
743.348	0.0169623
743.426	0.0167940
743.504	0.0167556
743.582	0.0166623
743.660	0.0164301
743.738	0.0164836
743.817	0.0165137
743.895	0.0164818
743.973	0.0164861
744.051	0.0167767
744.129	0.0169200
744.207	0.0169717
744.285	0.0169752
744.363	0.0169443
744.442	0.0173420
744.520	0.0172438
744.598	0.0174886
744.676	0.0175027
744.754	0.0173629
744.832	0.0174604
744.910	0.0175739
744.988	0.0175031
745.067	0.0171915
745.145	0.0172898
745.223	0.0173230
745.301	0.0172945
745.379	0.0172565
745.457	0.0172614
745.535	0.0171084
745.613	0.0171866
745.692	0.0172666
745.770	0.0171754
745.848	0.0170942
745.926	0.0170452
746.004	0.0170638
746.082	0.0171204
746.160	0.0169333
746.238	0.0168382
746.317	0.0168122
746.395	0.0169675
746.473	0.0167425
746.551	0.0166331
746.629	0.0167177
746.707	0.0167354
746.785	0.0169387
746.863	0.0168843
746.942	0.0171759
747.020	0.0172627
747.098	0.0175630
747.176	0.0177964
747.254	0.0180950
747.332	0.0183302
747.410	0.0185764
747.488	0.0186894
747.567	0.0190060
747.645	0.0191512
747.723	0.0190647
747.801	0.0192611
747.879	0.0191490
747.957	0.0190748
748.035	0.0190427
748.113	0.0188477
748.192	0.0186794
748.270	0.0184518
748.348	0.0181548
748.426	0.0179347
748.504	0.0177316
748.582	0.0175251
748.660	0.0173635
748.738	0.0170080
748.817	0.0169576
748.895	0.0166738
748.973	0.0165855
749.051	0.0165390
749.129	0.0165648
749.207	0.0165353
749.285	0.0165824
749.363	0.0167219
749.442	0.0167928
749.520	0.0170243
749.598	0.0172919
749.676	0.0173796
749.754	0.0173925
749.832	0.0176278
749.910	0.0177716
749.988	0.0178608
750.067	0.0180065
750.145	0.0179136
750.223	0.0178751
750.301	0.0179414
750.379	0.0178493
750.457	0.0177723
750.535	0.0175720
750.613	0.0173511
750.692	0.0173524
750.770	0.0170361
750.848	0.0169106
750.926	0.0166051
751.004	0.0165329
751.082	0.0164833
751.160	0.0163976
751.238	0.0162907
751.317	0.0161194
751.395	0.0159628
751.473	0.0160917
751.551	0.0160330
751.629	0.0160346
751.707	0.0160498
751.785	0.0162472
751.863	0.0163942
751.942	0.0167272
752.020	0.0168359
752.098	0.0169687
752.176	0.0174034
752.254	0.0174688
752.332	0.0177517
752.410	0.0180870
752.488	0.0181016
752.567	0.0183453
752.645	0.0185446
752.723	0.0187618
752.801	0.0185952
752.879	0.0186232
752.957	0.0186518
753.035	0.0185408
753.113	0.0183179
753.192	0.0180260
753.270	0.0179407
753.348	0.0175952
753.426	0.0173120
753.504	0.0171611
753.582	0.0166978
753.660	0.0164590
753.738	0.0164418
753.817	0.0162074
753.895	0.0159982
753.973	0.0160147
754.051	0.0159869
754.129	0.0160020
754.207	0.0161217
754.285	0.0163895
754.363	0.0167023
754.442	0.0169855
754.520	0.0171310
754.598	0.0175426
754.676	0.0177060
754.754	0.0178851
754.832	0.0180321
754.910	0.0182411
754.988	0.0183754
755.067	0.0185722
755.145	0.0186953
755.223	0.0187164
755.301	0.0185312
755.379	0.0184805
755.457	0.0184740
755.535	0.0183239
755.613	0.0181503
755.692	0.0180024
755.770	0.0179613
755.848	0.0177560
755.926	0.0175967
756.004	0.0176286
756.082	0.0174449
756.160	0.0172916
756.238	0.0173282
756.317	0.0173061
756.395	0.0171830
756.473	0.0170009
756.551	0.0170705
756.629	0.0172192
756.707	0.0169693
756.785	0.0169403
756.863	0.0169632
756.942	0.0169212
757.020	0.0170267
757.098	0.0170039
757.176	0.0172157
757.254	0.0171632
757.332	0.0171506
757.410	0.0172077
757.488	0.0172014
757.567	0.0175027
757.645	0.0175016
757.723	0.0175924
757.801	0.0175485
757.879	0.0175719
757.957	0.0177136
758.035	0.0177269
758.113	0.0177010
758.192	0.0175031
758.270	0.0177468
758.348	0.0174886
758.426	0.0172578
758.504	0.0172416
758.582	0.0171319
758.660	0.0170845
758.738	0.0166164
758.817	0.0164551
758.895	0.0163205
758.973	0.0163351
759.051	0.0162238
759.129	0.0162448
759.207	0.0162051
759.285	0.0162003
759.363	0.0162616
759.442	0.0163551
759.520	0.0164050
759.598	0.0164350
759.676	0.0165608
759.754	0.0167497
759.832	0.0168649
759.910	0.0170385
759.988	0.0171519
760.067	0.0173263
760.145	0.0172299
760.223	0.0173660
760.301	0.0174715
760.379	0.0174216
760.457	0.0174599
760.535	0.0175389
760.613	0.0176423
760.692	0.0176104
760.770	0.0177921
760.848	0.0177800
760.926	0.0177389
761.004	0.0177494
761.082	0.0178165
761.160	0.0179018
761.238	0.0179369
761.317	0.0179983
761.395	0.0178728
761.473	0.0179008
761.551	0.0180133
761.629	0.0180322
761.707	0.0178459
761.785	0.0179257
761.863	0.0179375
761.942	0.0180115
762.020	0.0177733
762.098	0.0177053
762.176	0.0176351
762.254	0.0176603
762.332	0.0174940
762.410	0.0175137
762.488	0.0174879
762.567	0.0174770
762.645	0.0173338
762.723	0.0174034
762.801	0.0174297
762.879	0.0175228
762.957	0.0174474
763.035	0.0176328
763.113	0.0175124
763.192	0.0175848
763.270	0.0176485
763.348	0.0176945
763.426	0.0176036
763.504	0.0175829
763.582	0.0175793
763.660	0.0174541
763.738	0.0173151
763.817	0.0171806
763.895	0.0171535
763.973	0.0170252
764.051	0.0169544
764.129	0.0170078
764.207	0.0168696
764.285	0.0167982
764.363	0.0168612
764.442	0.0169207
764.520	0.0169472
764.598	0.0169261
764.676	0.0171575
764.754	0.0171642
764.832	0.0172550
764.910	0.0173132
764.988	0.0173512
765.067	0.0174418
765.145	0.0174235
765.223	0.0174743
765.301	0.0175221
765.379	0.0174819
765.457	0.0173917
765.535	0.0175603
765.613	0.0175528
765.692	0.0174426
765.770	0.0175462
765.848	0.0174358
765.926	0.0174869
766.004	0.0176157
766.082	0.0176178
766.160	0.0174971
766.238	0.0174751
766.317	0.0173615
766.395	0.0173968
766.473	0.0173611
766.551	0.0173027
766.629	0.0173032
766.707	0.0171852
766.785	0.0171471
766.863	0.0170995
766.942	0.0170600
767.020	0.0170681
767.098	0.0169382
767.176	0.0167464
767.254	0.0169608
767.332	0.0167191
767.410	0.0166305
767.488	0.0165506
767.567	0.0165884
767.645	0.0164195
767.723	0.0166830
767.801	0.0165290
767.879	0.0166060
767.957	0.0166860
768.035	0.0166642
768.113	0.0168994
768.192	0.0168393
768.270	0.0169997
768.348	0.0171416
768.426	0.0172270
768.504	0.0173824
768.582	0.0175160
768.660	0.0178144
768.738	0.0177556
768.817	0.0178587
768.895	0.0178808
768.973	0.0181622
769.051	0.0182396
769.129	0.0181269
769.207	0.0181493
769.285	0.0182550
769.363	0.0182785
769.442	0.0182718
769.520	0.0180790
769.598	0.0182661
769.676	0.0181405
769.754	0.0180472
769.832	0.0179268
769.910	0.0178567
769.988	0.0178362
770.067	0.0177623
770.145	0.0176350
770.223	0.0175734
770.301	0.0174232
770.379	0.0174279
770.457	0.0175420
770.535	0.0175674
770.613	0.0175758
770.692	0.0174385
770.770	0.0176822
770.848	0.0177467
770.926	0.0177639
771.004	0.0178188
771.082	0.0178909
771.160	0.0178896
771.238	0.0178934
771.317	0.0179651
771.395	0.0179391
771.473	0.0178539
771.551	0.0177538
771.629	0.0177251
771.707	0.0176846
771.785	0.0175106
771.863	0.0173233
771.942	0.0171421
772.020	0.0170770
772.098	0.0169882
772.176	0.0167749
772.254	0.0166856
772.332	0.0166974
772.410	0.0165128
772.488	0.0164202
772.567	0.0162616
772.645	0.0163419
772.723	0.0163651
772.801	0.0164542
772.879	0.0165337
772.957	0.0165684
773.035	0.0166953
773.113	0.0166595
773.192	0.0168497
773.270	0.0169127
773.348	0.0170941
773.426	0.0171362
773.504	0.0172546
773.582	0.0172665
773.660	0.0172584
773.738	0.0173152
773.817	0.0173286
773.895	0.0173544
773.973	0.0174052
774.051	0.0173183
774.129	0.0173498
774.207	0.0174406
774.285	0.0174919
774.363	0.0173284
774.442	0.0173101
774.520	0.0175189
774.598	0.0174747
774.676	0.0174076
774.754	0.0173952
774.832	0.0175484
774.910	0.0175406
774.988	0.0173810
775.067	0.0174828
775.145	0.0173257
775.223	0.0175176
775.301	0.0174499
775.379	0.0174585
775.457	0.0173771
775.535	0.0172321
775.613	0.0172149
775.692	0.0172376
775.770	0.0172124
775.848	0.0172561
775.926	0.0171466
776.004	0.0171762
776.082	0.0170480
776.160	0.0169798
776.238	0.0170072
776.317	0.0169059
776.395	0.0170329
776.473	0.0169810
776.551	0.0170615
776.629	0.0170108
776.707	0.0170985
776.785	0.0171574
776.863	0.0172595
776.942	0.0172983
777.020	0.0174271
777.098	0.0174406
777.176	0.0175409
777.254	0.0177063
777.332	0.0176064
777.410	0.0176734
777.488	0.0178019
777.567	0.0178117
777.645	0.0177850
777.723	0.0176475
777.801	0.0177766
777.879	0.0177400
777.957	0.0177233
778.035	0.0178754
778.113	0.0176535
778.192	0.0176006
778.270	0.0176734
778.348	0.0176189
778.426	0.0174549
778.504	0.0174345
778.582	0.0175712
778.660	0.0174904
778.738	0.0174388
778.817	0.0174334
778.895	0.0172171
778.973	0.0172373
779.051	0.0173029
779.129	0.0173158
779.207	0.0174440
779.285	0.0174452
779.363	0.0172407
779.442	0.0176295
779.520	0.0176066
779.598	0.0176406
779.676	0.0178149
779.754	0.0179216
779.832	0.0178606
779.910	0.0178194
779.988	0.0178468
780.067	0.0179291
780.145	0.0177643
780.223	0.0176225
780.301	0.0175410
780.379	0.0175119
780.457	0.0173312
780.535	0.0170290
780.613	0.0170195
780.692	0.0168994
780.770	0.0167599
780.848	0.0164883
780.926	0.0164339
781.004	0.0165305
781.082	0.0162763
781.160	0.0162196
781.238	0.0162663
781.317	0.0161086
781.395	0.0163168
781.473	0.0163943
781.551	0.0164778
781.629	0.0164390
781.707	0.0165740
781.785	0.0167612
781.863	0.0166936
781.942	0.0168550
782.020	0.0169279
782.098	0.0169690
782.176	0.0170724
782.254	0.0170132
782.332	0.0170068
782.410	0.0171624
782.488	0.0171902
782.567	0.0171181
782.645	0.0172182
782.723	0.0171989
782.801	0.0171820
782.879	0.0173853
782.957	0.0175233
783.035	0.0175531
783.113	0.0176544
783.192	0.0177812
783.270	0.0178351
783.348	0.0180001
783.426	0.0179980
783.504	0.0181677
783.582	0.0181807
783.660	0.0181409
783.738	0.0182976
783.817	0.0181053
783.895	0.0179057
783.973	0.0180432
784.051	0.0179799
784.129	0.0179124
784.207	0.0179157
784.285	0.0177587
784.363	0.0177145
784.442	0.0175684
784.520	0.0176125
784.598	0.0176292
784.676	0.0177151
784.754	0.0175471
784.832	0.0176276
784.910	0.0175255
784.988	0.0175352
785.067	0.0175594
785.145	0.0175116
785.223	0.0175050
785.301	0.0174638
785.379	0.0175501
785.457	0.0174639
785.535	0.0174036
785.613	0.0174407
785.692	0.0175191
785.770	0.0175532
785.848	0.0172157
785.926	0.0171482
786.004	0.0172797
786.082	0.0171336
786.160	0.0172002
786.238	0.0170172
786.317	0.0169094
786.395	0.0169224
786.473	0.0170044
786.551	0.0169531
786.629	0.0169718
786.707	0.0168819
786.785	0.0169901
786.863	0.0170096
786.942	0.0171574
787.020	0.0172233
787.098	0.0172292
787.176	0.0171133
787.254	0.0172454
787.332	0.0172403
787.410	0.0172996
787.488	0.0172710
787.567	0.0171635
787.645	0.0170546
787.723	0.0172117
787.801	0.0170553
787.879	0.0171394
787.957	0.0173097
788.035	0.0172020
788.113	0.0172011
788.192	0.0173664
788.270	0.0172964
788.348	0.0173782
788.426	0.0176346
788.504	0.0178526
788.582	0.0176575
788.660	0.0176959
788.738	0.0177398
788.817	0.0177766
788.895	0.0178742
788.973	0.0178178
789.051	0.0178227
789.129	0.0177553
789.207	0.0177224
789.285	0.0176395
789.363	0.0174902
789.442	0.0176009
789.520	0.0175346
789.598	0.0172950
789.676	0.0172744
789.754	0.0172442
789.832	0.0171088
789.910	0.0170394
789.988	0.0170689
790.067	0.0169711
790.145	0.0168349
790.223	0.0168294
790.301	0.0166607
790.379	0.0166057
790.457	0.0165284
790.535	0.0166055
790.613	0.0163692
790.692	0.0163235
790.770	0.0163699
790.848	0.0161892
790.926	0.0163076
791.004	0.0164037
791.082	0.0162789
791.160	0.0163496
791.238	0.0165305
791.317	0.0164907
791.395	0.0166779
791.473	0.0166718
791.551	0.0169715
791.629	0.0172955
791.707	0.0175259
791.785	0.0175703
791.863	0.0177193
791.942	0.0180196
792.020	0.0181320
792.098	0.0183111
792.176	0.0184090
792.254	0.0184103
792.332	0.0186496
792.410	0.0188456
792.488	0.0188042
792.567	0.0187647
792.645	0.0188556
792.723	0.0189533
792.801	0.0188237
792.879	0.0189262
792.957	0.0188056
793.035	0.0186311
793.113	0.0186192
793.192	0.0185651
793.270	0.0182953
793.348	0.0180285
793.426	0.0179159
793.504	0.0179246
793.582	0.0177088
793.660	0.0174046
793.738	0.0173211
793.817	0.0173129
793.895	0.0172202
793.973	0.0170395
794.051	0.0168049
794.129	0.0168727
794.207	0.0167030
794.285	0.0164714
794.363	0.0164383
794.442	0.0162647
794.520	0.0162390
794.598	0.0164249
794.676	0.0163075
794.754	0.0161350
794.832	0.0162058
794.910	0.0162601
794.988	0.0161771
795.067	0.0162539
795.145	0.0162997
795.223	0.0163930
795.301	0.0163431
795.379	0.0163967
795.457	0.0164968
795.535	0.0164924
795.613	0.0165990
795.692	0.0167944
795.770	0.0169572
795.848	0.0169335
795.926	0.0171379
796.004	0.0174034
796.082	0.0174568
796.160	0.0173631
796.238	0.0175378
796.317	0.0177803
796.395	0.0178742
796.473	0.0180773
796.551	0.0181277
796.629	0.0180666
796.707	0.0182712
796.785	0.0184497
796.863	0.0185443
796.942	0.0186852
797.020	0.0187527
797.098	0.0187313
797.176	0.0188754
797.254	0.0188070
797.332	0.0189398
797.410	0.0188700
797.488	0.0187267
797.567	0.0186913
797.645	0.0186857
797.723	0.0186217
797.801	0.0182499
797.879	0.0180646
797.957	0.0178131
798.035	0.0176720
798.113	0.0175053
798.192	0.0172168
798.270	0.0168719
798.348	0.0164822
798.426	0.0163181
798.504	0.0161490
798.582	0.0159489
798.660	0.0156593
798.738	0.0155207
798.817	0.0153337
798.895	0.0152300
798.973	0.0152490
799.051	0.0151779
799.129	0.0149961
799.207	0.0151167
799.285	0.0153667
799.363	0.0155013
799.442	0.0156590
799.520	0.0158519
799.598	0.0159306
799.676	0.0162765
799.754	0.0165451
799.832	0.0168120
799.910	0.0169064
799.988	0.0171333
800.067	0.0173477
800.145	0.0176345
800.223	0.0178040
800.301	0.0178423
800.379	0.0182070
800.457	0.0183097
800.535	0.0183360
800.613	0.0185182
800.692	0.0187237
800.770	0.0187803
800.848	0.0188642
800.926	0.0189530
801.004	0.0189180
801.082	0.0191491
801.160	0.0190698
801.238	0.0189870
801.317	0.0191228
801.395	0.0190441
801.473	0.0191619
801.551	0.0191131
801.629	0.0190994
801.707	0.0189043
801.785	0.0188864
801.863	0.0189905
801.942	0.0189646
802.020	0.0189939
802.098	0.0188337
802.176	0.0186525
802.254	0.0185625
802.332	0.0183182
802.410	0.0182220
802.488	0.0180721
802.567	0.0179224
802.645	0.0177113
802.723	0.0176378
802.801	0.0175006
802.879	0.0171884
802.957	0.0169814
803.035	0.0168039
803.113	0.0165935
803.192	0.0161584
803.270	0.0160173
803.348	0.0159568
803.426	0.0155903
803.504	0.0152981
803.582	0.0151144
803.660	0.0149834
803.738	0.0147384
803.817	0.0146561
803.895	0.0146503
803.973	0.0145740
804.051	0.0144559
804.129	0.0146977
804.207	0.0146701
804.285	0.0147903
804.363	0.0148766
804.442	0.0150569
804.520	0.0154095
804.598	0.0155962
804.676	0.0158897
804.754	0.0161513
804.832	0.0163248
804.910	0.0165525
804.988	0.0170522
805.067	0.0171740
805.145	0.0173449
805.223	0.0176038
805.301	0.0179885
805.379	0.0182034
805.457	0.0184470
805.535	0.0185860
805.613	0.0187038
805.692	0.0189025
805.770	0.0192307
805.848	0.0192847
805.926	0.0192482
806.004	0.0193365
806.082	0.0194341
806.160	0.0194709
806.238	0.0195449
806.317	0.0194102
806.395	0.0193716
806.473	0.0193006
806.551	0.0192117
806.629	0.0192554
806.707	0.0192402
806.785	0.0191712
806.863	0.0190025
806.942	0.0189233
807.020	0.0187460
807.098	0.0186565
807.176	0.0185640
807.254	0.0183849
807.332	0.0181546
807.410	0.0180445
807.488	0.0178686
807.567	0.0178522
807.645	0.0176394
807.723	0.0172779
807.801	0.0171369
807.879	0.0172808
807.957	0.0169868
808.035	0.0167652
808.113	0.0165004
808.192	0.0165312
808.270	0.0164693
808.348	0.0163187
808.426	0.0162244
808.504	0.0161490
808.582	0.0161266
808.660	0.0159471
808.738	0.0159402
808.817	0.0158989
808.895	0.0160194
808.973	0.0158916
809.051	0.0158300
809.129	0.0158367
809.207	0.0158875
809.285	0.0159834
809.363	0.0159800
809.442	0.0159539
809.520	0.0159316
809.598	0.0161440
809.676	0.0161829
809.754	0.0160811
809.832	0.0162305
809.910	0.0162775
809.988	0.0163953
810.067	0.0164658
810.145	0.0164352
810.223	0.0167621
810.301	0.0169224
810.379	0.0170049
810.457	0.0170722
810.535	0.0173259
810.613	0.0174450
810.692	0.0176942
810.770	0.0178868
810.848	0.0180067
810.926	0.0181268
811.004	0.0182298
811.082	0.0186280
811.160	0.0186008
811.238	0.0187537
811.317	0.0187872
811.395	0.0189166
811.473	0.0189790
811.551	0.0190412
811.629	0.0191367
811.707	0.0190484
811.785	0.0190479
811.863	0.0189498
811.942	0.0188410
812.020	0.0187138
812.098	0.0186407
812.176	0.0185079
812.254	0.0185041
812.332	0.0184244
812.410	0.0183195
812.488	0.0181573
812.567	0.0180358
812.645	0.0179745
812.723	0.0178872
812.801	0.0177656
812.879	0.0175790
812.957	0.0176506
813.035	0.0174942
813.113	0.0173773
813.192	0.0174273
813.270	0.0172575
813.348	0.0170644
813.426	0.0169037
813.504	0.0168686
813.582	0.0168559
813.660	0.0166712
813.738	0.0165874
813.817	0.0163631
813.895	0.0163738
813.973	0.0162730
814.051	0.0162639
814.129	0.0161338
814.207	0.0161254
814.285	0.0160481
814.363	0.0160875
814.442	0.0160291
814.520	0.0159473
814.598	0.0160010
814.676	0.0159769
814.754	0.0159921
814.832	0.0162096
814.910	0.0160828
814.988	0.0162715
815.067	0.0162550
815.145	0.0164294
815.223	0.0164725
815.301	0.0167133
815.379	0.0166913
815.457	0.0169147
815.535	0.0170900
815.613	0.0171118
815.692	0.0174265
815.770	0.0174952
815.848	0.0175117
815.926	0.0177358
816.004	0.0178909
816.082	0.0179920
816.160	0.0182488
816.238	0.0181622
816.317	0.0183420
816.395	0.0186483
816.473	0.0186236
816.551	0.0186568
816.629	0.0186403
816.707	0.0188049
816.785	0.0187467
816.863	0.0188178
816.942	0.0187596
817.020	0.0187954
817.098	0.0185970
817.176	0.0184354
817.254	0.0185558
817.332	0.0184589
817.410	0.0184599
817.488	0.0182746
817.567	0.0181509
817.645	0.0181664
817.723	0.0180362
817.801	0.0179784
817.879	0.0178294
817.957	0.0178130
818.035	0.0176637
818.113	0.0176790
818.192	0.0176892
818.270	0.0175423
818.348	0.0175985
818.426	0.0176270
818.504	0.0174550
818.582	0.0172964
818.660	0.0174700
818.738	0.0171671
818.817	0.0170271
818.895	0.0170459
818.973	0.0169499
819.051	0.0169669
819.129	0.0168366
819.207	0.0167319
819.285	0.0166629
819.363	0.0165923
819.442	0.0164458
819.520	0.0164236
819.598	0.0163411
819.676	0.0163712
819.754	0.0162055
819.832	0.0163303
819.910	0.0162640
819.988	0.0162445
820.067	0.0163451
820.145	0.0164171
820.223	0.0165456
820.301	0.0165477
820.379	0.0165055
820.457	0.0167760
820.535	0.0167751
820.613	0.0168479
820.692	0.0170735
820.770	0.0170851
820.848	0.0170936
820.926	0.0171915
821.004	0.0173265
821.082	0.0173016
821.160	0.0172614
821.238	0.0174489
821.317	0.0174473
821.395	0.0175703
821.473	0.0175924
821.551	0.0175726
821.629	0.0175339
821.707	0.0177399
821.785	0.0176675
821.863	0.0176781
821.942	0.0177516
822.020	0.0175983
822.098	0.0174788
822.176	0.0175158
822.254	0.0176469
822.332	0.0175464
822.410	0.0176566
822.488	0.0175854
822.567	0.0175985
822.645	0.0178239
822.723	0.0179015
822.801	0.0179390
822.879	0.0179536
822.957	0.0180388
823.035	0.0182481
823.113	0.0181184
823.192	0.0183051
823.270	0.0181948
823.348	0.0183047
823.426	0.0182409
823.504	0.0182619
823.582	0.0183543
823.660	0.0183111
823.738	0.0182179
823.817	0.0180849
823.895	0.0179195
823.973	0.0178440
824.051	0.0177203
824.129	0.0175295
824.207	0.0175029
824.285	0.0172815
824.363	0.0172028
824.442	0.0170933
824.520	0.0169582
824.598	0.0167120
824.676	0.0166328
824.754	0.0165868
824.832	0.0165612
824.910	0.0166369
824.988	0.0166571
825.067	0.0166817
825.145	0.0166959
825.223	0.0167594
825.301	0.0167201
825.379	0.0167466
825.457	0.0169370
825.535	0.0169802
825.613	0.0170946
825.692	0.0171339
825.770	0.0173287
825.848	0.0171943
825.926	0.0172421
826.004	0.0171973
826.082	0.0172652
826.160	0.0173020
826.238	0.0172744
826.317	0.0173038
826.395	0.0173190
826.473	0.0172055
826.551	0.0173208
826.629	0.0173653
826.707	0.0171897
826.785	0.0171685
826.863	0.0173474
826.942	0.0173211
827.020	0.0170971
827.098	0.0171696
827.176	0.0171310
827.254	0.0172066
827.332	0.0172256
827.410	0.0170747
827.488	0.0170567
827.567	0.0170860
827.645	0.0171440
827.723	0.0172182
827.801	0.0172571
827.879	0.0172877
827.957	0.0172652
828.035	0.0173814
828.113	0.0172593
828.192	0.0174129
828.270	0.0176167
828.348	0.0173064
828.426	0.0175348
828.504	0.0176124
828.582	0.0176643
828.660	0.0175488
828.738	0.0176320
828.817	0.0177094
828.895	0.0174995
828.973	0.0174731
829.051	0.0173772
829.129	0.0173473
829.207	0.0174368
829.285	0.0172637
829.363	0.0172671
829.442	0.0172921
829.520	0.0171469
829.598	0.0173099
829.676	0.0172913
829.754	0.0172570
829.832	0.0173729
829.910	0.0173772
829.988	0.0174234
830.067	0.0175197
830.145	0.0175223
830.223	0.0175142
830.301	0.0175588
830.379	0.0175498
830.457	0.0176871
830.535	0.0177900
830.613	0.0177501
830.692	0.0177410
830.770	0.0177532
830.848	0.0175948
830.926	0.0175928
831.004	0.0174638
831.082	0.0174873
831.160	0.0173937
831.238	0.0175128
831.317	0.0175015
831.395	0.0173999
831.473	0.0173929
831.551	0.0173592
831.629	0.0173601
831.707	0.0173004
831.785	0.0173255
831.863	0.0173582
831.942	0.0174541
832.020	0.0173913
832.098	0.0173183
832.176	0.0173829
832.254	0.0174762
832.332	0.0172667
832.410	0.0172675
832.488	0.0172339
832.567	0.0171365
832.645	0.0172752
832.723	0.0172421
832.801	0.0172006
832.879	0.0172056
832.957	0.0171275
833.035	0.0171397
833.113	0.0169032
833.192	0.0170169
833.270	0.0169245
833.348	0.0170532
833.426	0.0170016
833.504	0.0170071
833.582	0.0169509
833.660	0.0169379
833.738	0.0168510
833.817	0.0170282
833.895	0.0170287
833.973	0.0171098
834.051	0.0172161
834.129	0.0173579
834.207	0.0173281
834.285	0.0172172
834.363	0.0174490
834.442	0.0173602
834.520	0.0174033
834.598	0.0173887
834.676	0.0173338
834.754	0.0175696
834.832	0.0174460
834.910	0.0174448
834.988	0.0174256
835.067	0.0175032
835.145	0.0175909
835.223	0.0174818
835.301	0.0175640
835.379	0.0174695
835.457	0.0174961
835.535	0.0174059
835.613	0.0174337
835.692	0.0173368
835.770	0.0172753
835.848	0.0173995
835.926	0.0174712
836.004	0.0172710
836.082	0.0173927
836.160	0.0173145
836.238	0.0172414
836.317	0.0173885
836.395	0.0173399
836.473	0.0173586
836.551	0.0172330
836.629	0.0173396
836.707	0.0171286
836.785	0.0173484
836.863	0.0172813
836.942	0.0173558
837.020	0.0173144
837.098	0.0173964
837.176	0.0174112
837.254	0.0174965
837.332	0.0174416
837.410	0.0175917
837.488	0.0173975
837.567	0.0177324
837.645	0.0176004
837.723	0.0175485
837.801	0.0175911
837.879	0.0175575
837.957	0.0176244
838.035	0.0176585
838.113	0.0176872
838.192	0.0174931
838.270	0.0174901
838.348	0.0175574
838.426	0.0175905
838.504	0.0176796
838.582	0.0176223
838.660	0.0175243
838.738	0.0176613
838.817	0.0176417
838.895	0.0176956
838.973	0.0176179
839.051	0.0175383
839.129	0.0175700
839.207	0.0175523
839.285	0.0175342
839.363	0.0175067
839.442	0.0174632
839.520	0.0172931
839.598	0.0173103
839.676	0.0173620
839.754	0.0171570
839.832	0.0169556
839.910	0.0170358
839.988	0.0170932
840.067	0.0168312
840.145	0.0168249
840.223	0.0168391
840.301	0.0167010
840.379	0.0167743
840.457	0.0167242
840.535	0.0167119
840.613	0.0168365
840.692	0.0167157
840.770	0.0168388
840.848	0.0168023
840.926	0.0169108
841.004	0.0169633
841.082	0.0170775
841.160	0.0170866
841.238	0.0170961
841.317	0.0171494
841.395	0.0174232
841.473	0.0173194
841.551	0.0174448
841.629	0.0176008
841.707	0.0176031
841.785	0.0175697
841.863	0.0174710
841.942	0.0176140
842.020	0.0176532
842.098	0.0176063
842.176	0.0177363
842.254	0.0178551
842.332	0.0177953
842.410	0.0177065
842.488	0.0176389
842.567	0.0176711
842.645	0.0177228
842.723	0.0178355
842.801	0.0177423
842.879	0.0176705
842.957	0.0176517
843.035	0.0176799
843.113	0.0176823
843.192	0.0175679
843.270	0.0176076
843.348	0.0177538
843.426	0.0177946
843.504	0.0176334
843.582	0.0177641
843.660	0.0177180
843.738	0.0176873
843.817	0.0178162
843.895	0.0178095
843.973	0.0177931
844.051	0.0176237
844.129	0.0174467
844.207	0.0176155
844.285	0.0175583
844.363	0.0174524
844.442	0.0173017
844.520	0.0173553
844.598	0.0172000
844.676	0.0170682
844.754	0.0169849
844.832	0.0169556
844.910	0.0167781
844.988	0.0166706
845.067	0.0166369
845.145	0.0167618
845.223	0.0165010
845.301	0.0165960
845.379	0.0166091
845.457	0.0166325
845.535	0.0165220
845.613	0.0165038
845.692	0.0165837
845.770	0.0165865
845.848	0.0166975
845.926	0.0166561
846.004	0.0167654
846.082	0.0170321
846.160	0.0169814
846.238	0.0170899
846.317	0.0172385
846.395	0.0173763
846.473	0.0175474
846.551	0.0176461
846.629	0.0176495
846.707	0.0176962
846.785	0.0178040
846.863	0.0178965
846.942	0.0179631
847.020	0.0179731
847.098	0.0179721
847.176	0.0180390
847.254	0.0178676
847.332	0.0180260
847.410	0.0179462
847.488	0.0179942
847.567	0.0179365
847.645	0.0178056
847.723	0.0176988
847.801	0.0177851
847.879	0.0178083
847.957	0.0177243
848.035	0.0178366
848.113	0.0176953
848.192	0.0175742
848.270	0.0174645
848.348	0.0175086
848.426	0.0175263
848.504	0.0174786
848.582	0.0173923
848.660	0.0174318
848.738	0.0174632
848.817	0.0173939
848.895	0.0173833
848.973	0.0173730
849.051	0.0172253
849.129	0.0173737
849.207	0.0172017
849.285	0.0172272
849.363	0.0173254
849.442	0.0173300
849.520	0.0170818
849.598	0.0170844
849.676	0.0171128
849.754	0.0170816
849.832	0.0170290
849.910	0.0169809
849.988	0.0170583
850.067	0.0168534
850.145	0.0168700
850.223	0.0168034
850.301	0.0168864
850.379	0.0166139
850.457	0.0166725
850.535	0.0166354
850.613	0.0166934
850.692	0.0167031
850.770	0.0167072
850.848	0.0169480
850.926	0.0169495
851.004	0.0168176
851.082	0.0170286
851.160	0.0170417
851.238	0.0172385
851.317	0.0173180
851.395	0.0174160
851.473	0.0173425
851.551	0.0174809
851.629	0.0174955
851.707	0.0176190
851.785	0.0176418
851.863	0.0176690
851.942	0.0177645
852.020	0.0177506
852.098	0.0177693
852.176	0.0177293
852.254	0.0176981
852.332	0.0178305
852.410	0.0176968
852.488	0.0177321
852.567	0.0178465
852.645	0.0178065
852.723	0.0176759
852.801	0.0178255
852.879	0.0177370
852.957	0.0178238
853.035	0.0177292
853.113	0.0176981
853.192	0.0176673
853.270	0.0175712
853.348	0.0176559
853.426	0.0176456
853.504	0.0174330
853.582	0.0174624
853.660	0.0174289
853.738	0.0174910
853.817	0.0174369
853.895	0.0172540
853.973	0.0172527
854.051	0.0173471
854.129	0.0173151
854.207	0.0171899
854.285	0.0171465
854.363	0.0171069
854.442	0.0171919
854.520	0.0171484
854.598	0.0170910
854.676	0.0171716
854.754	0.0170437
854.832	0.0169959
854.910	0.0169860
854.988	0.0170863
855.067	0.0170274
855.145	0.0170771
855.223	0.0169801
855.301	0.0170082
855.379	0.0170855
855.457	0.0169080
855.535	0.0169745
855.613	0.0170071
855.692	0.0169955
855.770	0.0170683
855.848	0.0170525
855.926	0.0169658
856.004	0.0170078
856.082	0.0171958
856.160	0.0172757
856.238	0.0172858
856.317	0.0172334
856.395	0.0172215
856.473	0.0171896
856.551	0.0173358
856.629	0.0172472
856.707	0.0172440
856.785	0.0173197
856.863	0.0172722
856.942	0.0173426
857.020	0.0173759
857.098	0.0173092
857.176	0.0173647
857.254	0.0175126
857.332	0.0173813
857.410	0.0175668
857.488	0.0174245
857.567	0.0175285
857.645	0.0176271
857.723	0.0176308
857.801	0.0176754
857.879	0.0175982
857.957	0.0177400
858.035	0.0177662
858.113	0.0177090
858.192	0.0177317
858.270	0.0177799
858.348	0.0177785
858.426	0.0177150
858.504	0.0176003
858.582	0.0177091
858.660	0.0177116
858.738	0.0176517
858.817	0.0175317
858.895	0.0175317
858.973	0.0175010
859.051	0.0174620
859.129	0.0173112
859.207	0.0172753
859.285	0.0172451
859.363	0.0172800
859.442	0.0172713
859.520	0.0173642
859.598	0.0172224
859.676	0.0171416
859.754	0.0173077
859.832	0.0173390
859.910	0.0171797
859.988	0.0171578
860.067	0.0172876
860.145	0.0173138
860.223	0.0173182
860.301	0.0171509
860.379	0.0172260
860.457	0.0171732
860.535	0.0172013
860.613	0.0172693
860.692	0.0172516
860.770	0.0172607
860.848	0.0173225
860.926	0.0171948
861.004	0.0170893
861.082	0.0171831
861.160	0.0171539
861.238	0.0172118
861.317	0.0171832
861.395	0.0170744
861.473	0.0171147
861.551	0.0172764
861.629	0.0173412
861.707	0.0172528
861.785	0.0170818
861.863	0.0173486
861.942	0.0174007
862.020	0.0172504
862.098	0.0172993
862.176	0.0173512
862.254	0.0174257
862.332	0.0174680
862.410	0.0173490
862.488	0.0173447
862.567	0.0173586
862.645	0.0171799
862.723	0.0172987
862.801	0.0174171
862.879	0.0173627
862.957	0.0172888
863.035	0.0174104
863.113	0.0174377
863.192	0.0173186
863.270	0.0172451
863.348	0.0173294
863.426	0.0174203
863.504	0.0173160
863.582	0.0174822
863.660	0.0172543
863.738	0.0174748
863.817	0.0175185
863.895	0.0173243
863.973	0.0174014
864.051	0.0173792
864.129	0.0172942
864.207	0.0174471
864.285	0.0174032
864.363	0.0173695
864.442	0.0174157
864.520	0.0174541
864.598	0.0173597
864.676	0.0174976
864.754	0.0173661
864.832	0.0174066
864.910	0.0174199
864.988	0.0173559
865.067	0.0173238
865.145	0.0174733
865.223	0.0174263
865.301	0.0173679
865.379	0.0173940
865.457	0.0174223
865.535	0.0174102
865.613	0.0173781
865.692	0.0174371
865.770	0.0173761
865.848	0.0174107
865.926	0.0173490
866.004	0.0173431
866.082	0.0173721
866.160	0.0173343
866.238	0.0174351
866.317	0.0175127
866.395	0.0173478
866.473	0.0174357
866.551	0.0173895
866.629	0.0174975
866.707	0.0174462
866.785	0.0174802
866.863	0.0175960
866.942	0.0174411
867.020	0.0175352
867.098	0.0174588
867.176	0.0174614
867.254	0.0176260
867.332	0.0175482
867.410	0.0175595
867.488	0.0173347
867.567	0.0174020
867.645	0.0173707
867.723	0.0172251
867.801	0.0173363
867.879	0.0172518
867.957	0.0171823
868.035	0.0171921
868.113	0.0172074
868.192	0.0172283
868.270	0.0172502
868.348	0.0170976
868.426	0.0171460
868.504	0.0171461
868.582	0.0171315
868.660	0.0170958
868.738	0.0170734
868.817	0.0170480
868.895	0.0171185
868.973	0.0172078
869.051	0.0171572
869.129	0.0171024
869.207	0.0171758
869.285	0.0171375
869.363	0.0173113
869.442	0.0171915
869.520	0.0171749
869.598	0.0173315
869.676	0.0172988
869.754	0.0173735
869.832	0.0173705
869.910	0.0174575
869.988	0.0172480
870.067	0.0172833
870.145	0.0174871
870.223	0.0173392
870.301	0.0172495
870.379	0.0173748
870.457	0.0175343
870.535	0.0173572
870.613	0.0174025
870.692	0.0175521
870.770	0.0173633
870.848	0.0172231
870.926	0.0172545
871.004	0.0175375
871.082	0.0174474
871.160	0.0173725
871.238	0.0174184
871.317	0.0173981
871.395	0.0175921
871.473	0.0175050
871.551	0.0176617
871.629	0.0175579
871.707	0.0177312
871.785	0.0176524
871.863	0.0177619
871.942	0.0178255
872.020	0.0176094
872.098	0.0177266
872.176	0.0176891
872.254	0.0175852
872.332	0.0176870
872.410	0.0176519
872.488	0.0174857
872.567	0.0173939
872.645	0.0173757
872.723	0.0171810
872.801	0.0173211
872.879	0.0170642
872.957	0.0170522
873.035	0.0168999
873.113	0.0170341
873.192	0.0170040
873.270	0.0169575
873.348	0.0168224
873.426	0.0167510
873.504	0.0168959
873.582	0.0169192
873.660	0.0168407
873.738	0.0168406
873.817	0.0169487
873.895	0.0169019
873.973	0.0170470
874.051	0.0172016
874.129	0.0172094
874.207	0.0171439
874.285	0.0173135
874.363	0.0174968
874.442	0.0175137
874.520	0.0176100
874.598	0.0176263
874.676	0.0176158
874.754	0.0175631
874.832	0.0176102
874.910	0.0175491
874.988	0.0176637
875.067	0.0176851
875.145	0.0176245
875.223	0.0177054
875.301	0.0176322
875.379	0.0176136
875.457	0.0174314
875.535	0.0174342
875.613	0.0173692
875.692	0.0174453
875.770	0.0172866
875.848	0.0172901
875.926	0.0174972
876.004	0.0174380
876.082	0.0173390
876.160	0.0174016
876.238	0.0174225
876.317	0.0175693
876.395	0.0174850
876.473	0.0175180
876.551	0.0175286
876.629	0.0173857
876.707	0.0174493
876.785	0.0174914
876.863	0.0175637
876.942	0.0174905
877.020	0.0174175
877.098	0.0174691
877.176	0.0174049
877.254	0.0173387
877.332	0.0172729
877.410	0.0173274
877.488	0.0170899
877.567	0.0171066
877.645	0.0172844
877.723	0.0171294
877.801	0.0171139
877.879	0.0169765
877.957	0.0169644
878.035	0.0169340
878.113	0.0169415
878.192	0.0169035
878.270	0.0168501
878.348	0.0170140
878.426	0.0170295
878.504	0.0168728
878.582	0.0170983
878.660	0.0171807
878.738	0.0170739
878.817	0.0171445
878.895	0.0171323
878.973	0.0172208
879.051	0.0172726
879.129	0.0175119
879.207	0.0174539
879.285	0.0175038
879.363	0.0175227
879.442	0.0175901
879.520	0.0177264
879.598	0.0176277
879.676	0.0177544
879.754	0.0179548
879.832	0.0179707
879.910	0.0178489
879.988	0.0180394
880.067	0.0179266
880.145	0.0177814
880.223	0.0178584
880.301	0.0179082
880.379	0.0177860
880.457	0.0177762
880.535	0.0176861
880.613	0.0174651
880.692	0.0174691
880.770	0.0175727
880.848	0.0175280
880.926	0.0173571
881.004	0.0173198
881.082	0.0174944
881.160	0.0173309
881.238	0.0173624
881.317	0.0173016
881.395	0.0174416
881.473	0.0173987
881.551	0.0172755
881.629	0.0174168
881.707	0.0172677
881.785	0.0173056
881.863	0.0173640
881.942	0.0172860
882.020	0.0173255
882.098	0.0172424
882.176	0.0172626
882.254	0.0173838
882.332	0.0172927
882.410	0.0173868
882.488	0.0172559
882.567	0.0172211
882.645	0.0171804
882.723	0.0171989
882.801	0.0170833
882.879	0.0172264
882.957	0.0171807
883.035	0.0171638
883.113	0.0172995
883.192	0.0171400
883.270	0.0172798
883.348	0.0174305
883.426	0.0174825
883.504	0.0174917
883.582	0.0175298
883.660	0.0176453
883.738	0.0175856
883.817	0.0176574
883.895	0.0176854
883.973	0.0176211
884.051	0.0176879
884.129	0.0176678
884.207	0.0175583
884.285	0.0175771
884.363	0.0175840
884.442	0.0174313
884.520	0.0173396
884.598	0.0173572
884.676	0.0172275
884.754	0.0170412
884.832	0.0172607
884.910	0.0172396
884.988	0.0172159
885.067	0.0172595
885.145	0.0171832
885.223	0.0172762
885.301	0.0172574
885.379	0.0172004
885.457	0.0172222
885.535	0.0172575
885.613	0.0172819
885.692	0.0172657
885.770	0.0171499
885.848	0.0172055
885.926	0.0170653
886.004	0.0170908
886.082	0.0170757
886.160	0.0172451
886.238	0.0170870
886.317	0.0171518
886.395	0.0172267
886.473	0.0172140
886.551	0.0173921
886.629	0.0174982
886.707	0.0174207
886.785	0.0174827
886.863	0.0175327
886.942	0.0177370
887.020	0.0176574
887.098	0.0176826
887.176	0.0179670
887.254	0.0179798
887.332	0.0180554
887.410	0.0180860
887.488	0.0179259
887.567	0.0179908
887.645	0.0178716
887.723	0.0180103
887.801	0.0180471
887.879	0.0177479
887.957	0.0177536
888.035	0.0177663
888.113	0.0176886
888.192	0.0177390
888.270	0.0176649
888.348	0.0177919
888.426	0.0176765
888.504	0.0175384
888.582	0.0174339
888.660	0.0174722
888.738	0.0172840
888.817	0.0171234
888.895	0.0170403
888.973	0.0169556
889.051	0.0168972
889.129	0.0166440
889.207	0.0166410
889.285	0.0165061
889.363	0.0164533
889.442	0.0166230
889.520	0.0167897
889.598	0.0167749
889.676	0.0167981
889.754	0.0168608
889.832	0.0169615
889.910	0.0171262
889.988	0.0171744
890.067	0.0172869
890.145	0.0172140
890.223	0.0174997
890.301	0.0175143
890.379	0.0173979
890.457	0.0176446
890.535	0.0176923
890.613	0.0176054
890.692	0.0177006
890.770	0.0177699
890.848	0.0178372
890.926	0.0176527
891.004	0.0178027
891.082	0.0178129
891.160	0.0178936
891.238	0.0179032
891.317	0.0177077
891.395	0.0177836
891.473	0.0178860
891.551	0.0178115
891.629	0.0177522
891.707	0.0175831
891.785	0.0176262
891.863	0.0177151
891.942	0.0176731
892.020	0.0173997
892.098	0.0175796
892.176	0.0177090
892.254	0.0175324
892.332	0.0174568
892.410	0.0174374
892.488	0.0173549
892.567	0.0172867
892.645	0.0172672
892.723	0.0173493
892.801	0.0173051
892.879	0.0172509
892.957	0.0172851
893.035	0.0172638
893.113	0.0171561
893.192	0.0172427
893.270	0.0171220
893.348	0.0170687
893.426	0.0171032
893.504	0.0168681
893.582	0.0168259
893.660	0.0169080
893.738	0.0166701
893.817	0.0167754
893.895	0.0166746
893.973	0.0167309
894.051	0.0166216
894.129	0.0166166
894.207	0.0165093
894.285	0.0167125
894.363	0.0167908
894.442	0.0168702
894.520	0.0169513
894.598	0.0170547
894.676	0.0172141
894.754	0.0173531
894.832	0.0175159
894.910	0.0176469
894.988	0.0179012
895.067	0.0178393
895.145	0.0178863
895.223	0.0181799
895.301	0.0180445
895.379	0.0180936
895.457	0.0182402
895.535	0.0182132
895.613	0.0182561
895.692	0.0182130
895.770	0.0180974
895.848	0.0180856
895.926	0.0180457
896.004	0.0181033
896.082	0.0179867
896.160	0.0178034
896.238	0.0178281
896.317	0.0176360
896.395	0.0175144
896.473	0.0174245
896.551	0.0175697
896.629	0.0173271
896.707	0.0173068
896.785	0.0170844
896.863	0.0170779
896.942	0.0171307
897.020	0.0170104
897.098	0.0170454
897.176	0.0172025
897.254	0.0172343
897.332	0.0171706
897.410	0.0171457
897.488	0.0173241
897.567	0.0173643
897.645	0.0172968
897.723	0.0173222
897.801	0.0173876
897.879	0.0176063
897.957	0.0176456
898.035	0.0175450
898.113	0.0175356
898.192	0.0176344
898.270	0.0176160
898.348	0.0173084
898.426	0.0174827
898.504	0.0172672
898.582	0.0173103
898.660	0.0171445
898.738	0.0169304
898.817	0.0168410
898.895	0.0165775
898.973	0.0165710
899.051	0.0165396
899.129	0.0165577
899.207	0.0164876
899.285	0.0166167
899.363	0.0165833
899.442	0.0167683
899.520	0.0168472
899.598	0.0168107
899.676	0.0169417
899.754	0.0170863
899.832	0.0173007
899.910	0.0174757
899.988	0.0173778
900.067	0.0176046
900.145	0.0175490
900.223	0.0177497
900.301	0.0176783
900.379	0.0177612
900.457	0.0176828
900.535	0.0179338
900.613	0.0180049
900.692	0.0179148
900.770	0.0177927
900.848	0.0177866
900.926	0.0178424
901.004	0.0178421
901.082	0.0178014
901.160	0.0177644
901.238	0.0178065
901.317	0.0177110
901.395	0.0175973
901.473	0.0175877
901.551	0.0175188
901.629	0.0174072
901.707	0.0175204
901.785	0.0173894
901.863	0.0173159
901.942	0.0172733
902.020	0.0173159
902.098	0.0173100
902.176	0.0173761
902.254	0.0175605
902.332	0.0176669
902.410	0.0176246
902.488	0.0175536
902.567	0.0176727
902.645	0.0175412
902.723	0.0177274
902.801	0.0178028
902.879	0.0176457
902.957	0.0175867
903.035	0.0176675
903.113	0.0175808
903.192	0.0174480
903.270	0.0173934
903.348	0.0173634
903.426	0.0172845
903.504	0.0172864
903.582	0.0170918
903.660	0.0169952
903.738	0.0169024
903.817	0.0168510
903.895	0.0168952
903.973	0.0168681
904.051	0.0167155
904.129	0.0166617
904.207	0.0168417
904.285	0.0167859
904.363	0.0167809
904.442	0.0169279
904.520	0.0169505
904.598	0.0170566
904.676	0.0171664
904.754	0.0171307
904.832	0.0171323
904.910	0.0173422
904.988	0.0174820
905.067	0.0174699
905.145	0.0174092
905.223	0.0175066
905.301	0.0175653
905.379	0.0176096
905.457	0.0176354
905.535	0.0175460
905.613	0.0177963
905.692	0.0177184
905.770	0.0176317
905.848	0.0178184
905.926	0.0178400
906.004	0.0178272
906.082	0.0178001
906.160	0.0178535
906.238	0.0178011
906.317	0.0178807
906.395	0.0177915
906.473	0.0177379
906.551	0.0176046
906.629	0.0176237
906.707	0.0176982
906.785	0.0175294
906.863	0.0174470
906.942	0.0173415
907.020	0.0174281
907.098	0.0172791
907.176	0.0174015
907.254	0.0172451
907.332	0.0173121
907.410	0.0173338
907.488	0.0171993
907.567	0.0172820
907.645	0.0173121
907.723	0.0173373
907.801	0.0174922
907.879	0.0174700
907.957	0.0174557
908.035	0.0174514
908.113	0.0175655
908.192	0.0173283
908.270	0.0175052
908.348	0.0173976
908.426	0.0173059
908.504	0.0173682
908.582	0.0173928
908.660	0.0171622
908.738	0.0170404
908.817	0.0169382
908.895	0.0168651
908.973	0.0167854
909.051	0.0168553
909.129	0.0167992
909.207	0.0167326
909.285	0.0169264
909.363	0.0170487
909.442	0.0169797
909.520	0.0171111
909.598	0.0171265
909.676	0.0171626
909.754	0.0174565
909.832	0.0175501
909.910	0.0175764
909.988	0.0175876
910.067	0.0177843
910.145	0.0177936
910.223	0.0179004
910.301	0.0179553
910.379	0.0179350
910.457	0.0180524
910.535	0.0181100
910.613	0.0180815
910.692	0.0180219
910.770	0.0181584
910.848	0.0181191
910.926	0.0179787
911.004	0.0178662
911.082	0.0178634
911.160	0.0177988
911.238	0.0177364
911.317	0.0177148
911.395	0.0175547
911.473	0.0173825
911.551	0.0172954
911.629	0.0172663
911.707	0.0171580
911.785	0.0170421
911.863	0.0172505
911.942	0.0171241
912.020	0.0170848
912.098	0.0169666
912.176	0.0169476
912.254	0.0169361
912.332	0.0168623
912.410	0.0170708
912.488	0.0169810
912.567	0.0168893
912.645	0.0172379
912.723	0.0172803
912.801	0.0172183
912.879	0.0173615
912.957	0.0172979
913.035	0.0173813
913.113	0.0175517
913.192	0.0175554
913.270	0.0175982
913.348	0.0178453
913.426	0.0176414
913.504	0.0175028
913.582	0.0175193
913.660	0.0175320
913.738	0.0175126
913.817	0.0172047
913.895	0.0172931
913.973	0.0170781
914.051	0.0171562
914.129	0.0170557
914.207	0.0168828
914.285	0.0169614
914.363	0.0169508
914.442	0.0168533
914.520	0.0168056
914.598	0.0168739
914.676	0.0169205
914.754	0.0171740
914.832	0.0170952
914.910	0.0170620
914.988	0.0172704
915.067	0.0176177
915.145	0.0174868
915.223	0.0175111
915.301	0.0176215
915.379	0.0177351
915.457	0.0178482
915.535	0.0177293
915.613	0.0179147
915.692	0.0179745
915.770	0.0178397
915.848	0.0177316
915.926	0.0178206
916.004	0.0178360
916.082	0.0178606
916.160	0.0177492
916.238	0.0177076
916.317	0.0175076
916.395	0.0173596
916.473	0.0173936
916.551	0.0173587
916.629	0.0174123
916.707	0.0174495
916.785	0.0172279
916.863	0.0172097
916.942	0.0171577
917.020	0.0171991
917.098	0.0172615
917.176	0.0170964
917.254	0.0170222
917.332	0.0170171
917.410	0.0171555
917.488	0.0171424
917.567	0.0172295
917.645	0.0171318
917.723	0.0172293
917.801	0.0171525
917.879	0.0171063
917.957	0.0173264
918.035	0.0173685
918.113	0.0174947
918.192	0.0174413
918.270	0.0175610
918.348	0.0174864
918.426	0.0177261
918.504	0.0176419
918.582	0.0175216
918.660	0.0175603
918.738	0.0175509
918.817	0.0173699
918.895	0.0174319
918.973	0.0173148
919.051	0.0172153
919.129	0.0171515
919.207	0.0172099
919.285	0.0171828
919.363	0.0170545
919.442	0.0171417
919.520	0.0170970
919.598	0.0170338
919.676	0.0170828
919.754	0.0170868
919.832	0.0170789
919.910	0.0172790
