06/01/2022	21:44:43	Ver.	4.1	UNKNOWN
Optical Delay	599.988409	Delta X		0.078125	Sweeps	1	Scan Rate	0/0
Coordinates	Axis 1	NaN	Axis 2	NaN	Axis 3	NaN	Axis 4	NaN	Axis 5	NaN	Axis 6	0.000000
TX Power	0.000000	RX Power	0.000000

599.988	0.0176292
600.067	0.0177531
600.145	0.0176302
600.223	0.0176213
600.301	0.0176173
600.379	0.0177693
600.457	0.0176814
600.535	0.0175933
600.613	0.0176276
600.692	0.0176977
600.770	0.0175795
600.848	0.0176946
600.926	0.0175844
601.004	0.0176318
601.082	0.0178285
601.160	0.0177557
601.238	0.0175121
601.317	0.0175607
601.395	0.0176463
601.473	0.0175842
601.551	0.0176544
601.629	0.0175309
601.707	0.0175998
601.785	0.0176293
601.863	0.0176035
601.942	0.0177168
602.020	0.0176102
602.098	0.0175653
602.176	0.0175965
602.254	0.0175943
602.332	0.0175765
602.410	0.0176192
602.488	0.0175991
602.567	0.0177111
602.645	0.0176826
602.723	0.0177079
602.801	0.0175496
602.879	0.0176264
602.957	0.0176788
603.035	0.0177620
603.113	0.0176751
603.192	0.0176843
603.270	0.0177016
603.348	0.0175805
603.426	0.0177940
603.504	0.0176965
603.582	0.0175916
603.660	0.0176385
603.738	0.0178313
603.817	0.0175740
603.895	0.0177068
603.973	0.0176154
604.051	0.0177563
604.129	0.0176632
604.207	0.0176855
604.285	0.0177555
604.363	0.0176227
604.442	0.0176099
604.520	0.0176550
604.598	0.0177773
604.676	0.0176015
604.754	0.0175851
604.832	0.0176258
604.910	0.0177804
604.988	0.0176118
605.067	0.0176028
605.145	0.0176559
605.223	0.0175851
605.301	0.0175854
605.379	0.0176180
605.457	0.0175740
605.535	0.0175959
605.613	0.0175681
605.692	0.0176133
605.770	0.0177665
605.848	0.0176594
605.926	0.0176776
606.004	0.0174744
606.082	0.0175837
606.160	0.0175765
606.238	0.0176008
606.317	0.0176324
606.395	0.0176552
606.473	0.0177188
606.551	0.0176040
606.629	0.0176334
606.707	0.0177525
606.785	0.0176502
606.863	0.0176628
606.942	0.0177138
607.020	0.0175985
607.098	0.0176290
607.176	0.0176299
607.254	0.0176323
607.332	0.0176567
607.410	0.0176556
607.488	0.0176668
607.567	0.0176060
607.645	0.0176669
607.723	0.0176860
607.801	0.0176820
607.879	0.0177425
607.957	0.0177094
608.035	0.0176073
608.113	0.0176440
608.192	0.0176725
608.270	0.0177114
608.348	0.0176984
608.426	0.0175982
608.504	0.0175898
608.582	0.0176127
608.660	0.0176536
608.738	0.0176266
608.817	0.0177180
608.895	0.0177135
608.973	0.0176437
609.051	0.0176619
609.129	0.0176208
609.207	0.0177269
609.285	0.0176166
609.363	0.0177405
609.442	0.0176150
609.520	0.0176826
609.598	0.0176362
609.676	0.0176165
609.754	0.0176205
609.832	0.0176501
609.910	0.0176871
609.988	0.0175805
610.067	0.0176821
610.145	0.0176385
610.223	0.0174826
610.301	0.0176592
610.379	0.0177236
610.457	0.0176009
610.535	0.0176852
610.613	0.0176591
610.692	0.0176547
610.770	0.0176066
610.848	0.0176150
610.926	0.0176805
611.004	0.0175028
611.082	0.0175894
611.160	0.0177371
611.238	0.0176872
611.317	0.0176192
611.395	0.0176043
611.473	0.0176714
611.551	0.0177098
611.629	0.0175954
611.707	0.0174738
611.785	0.0177140
611.863	0.0176957
611.942	0.0176802
612.020	0.0176891
612.098	0.0176318
612.176	0.0176009
612.254	0.0176582
612.332	0.0176435
612.410	0.0176569
612.488	0.0176463
612.567	0.0176828
612.645	0.0176305
612.723	0.0174748
612.801	0.0176962
612.879	0.0177087
612.957	0.0176185
613.035	0.0177385
613.113	0.0177623
613.192	0.0177142
613.270	0.0175459
613.348	0.0176987
613.426	0.0177962
613.504	0.0176399
613.582	0.0176761
613.660	0.0175302
613.738	0.0176694
613.817	0.0176931
613.895	0.0175911
613.973	0.0177703
614.051	0.0176524
614.129	0.0176896
614.207	0.0176198
614.285	0.0176926
614.363	0.0177183
614.442	0.0177131
614.520	0.0176290
614.598	0.0174088
614.676	0.0176815
614.754	0.0177612
614.832	0.0175548
614.910	0.0177267
614.988	0.0176851
615.067	0.0176592
615.145	0.0176788
615.223	0.0176712
615.301	0.0176917
615.379	0.0177386
615.457	0.0176584
615.535	0.0177244
615.613	0.0177271
615.692	0.0175797
615.770	0.0177425
615.848	0.0177087
615.926	0.0176087
616.004	0.0177289
616.082	0.0177473
616.160	0.0176267
616.238	0.0176557
616.317	0.0177052
616.395	0.0176458
616.473	0.0176205
616.551	0.0176686
616.629	0.0176720
616.707	0.0176411
616.785	0.0176249
616.863	0.0176323
616.942	0.0177222
617.020	0.0176498
617.098	0.0177013
617.176	0.0177356
617.254	0.0177165
617.332	0.0176653
617.410	0.0176660
617.488	0.0175053
617.567	0.0176165
617.645	0.0177368
617.723	0.0176384
617.801	0.0176333
617.879	0.0176742
617.957	0.0175742
618.035	0.0176461
618.113	0.0175780
618.192	0.0175225
618.270	0.0177030
618.348	0.0175888
618.426	0.0176271
618.504	0.0176262
618.582	0.0175832
618.660	0.0176571
618.738	0.0175962
618.817	0.0176553
618.895	0.0177962
618.973	0.0177884
619.051	0.0176722
619.129	0.0175298
619.207	0.0177428
619.285	0.0177113
619.363	0.0176563
619.442	0.0177542
619.520	0.0176641
619.598	0.0177095
619.676	0.0177246
619.754	0.0176753
619.832	0.0176962
619.910	0.0177008
619.988	0.0176960
620.067	0.0177312
620.145	0.0176929
620.223	0.0178257
620.301	0.0177644
620.379	0.0177486
620.457	0.0177629
620.535	0.0176367
620.613	0.0177042
620.692	0.0177305
620.770	0.0176938
620.848	0.0176631
620.926	0.0176114
621.004	0.0177474
621.082	0.0175905
621.160	0.0176322
621.238	0.0176248
621.317	0.0175168
621.395	0.0176804
621.473	0.0176818
621.551	0.0176162
621.629	0.0175956
621.707	0.0175427
621.785	0.0176839
621.863	0.0176664
621.942	0.0175164
622.020	0.0176561
622.098	0.0176999
622.176	0.0176576
622.254	0.0176932
622.332	0.0176094
622.410	0.0177161
622.488	0.0177946
622.567	0.0176469
622.645	0.0176620
622.723	0.0177113
622.801	0.0177168
622.879	0.0176485
622.957	0.0177409
623.035	0.0177090
623.113	0.0177069
623.192	0.0176994
623.270	0.0176460
623.348	0.0176803
623.426	0.0176730
623.504	0.0177591
623.582	0.0177239
623.660	0.0177142
623.738	0.0176778
623.817	0.0176614
623.895	0.0176376
623.973	0.0177366
624.051	0.0176249
624.129	0.0177304
624.207	0.0176489
624.285	0.0178230
624.363	0.0177079
624.442	0.0175861
624.520	0.0177464
624.598	0.0177010
624.676	0.0175597
624.754	0.0177770
624.832	0.0176693
624.910	0.0175848
624.988	0.0178944
625.067	0.0177148
625.145	0.0176059
625.223	0.0177048
625.301	0.0178055
625.379	0.0177850
625.457	0.0178242
625.535	0.0178018
625.613	0.0176123
625.692	0.0176668
625.770	0.0177646
625.848	0.0177546
625.926	0.0176911
626.004	0.0176607
626.082	0.0177545
626.160	0.0176245
626.238	0.0175583
626.317	0.0175902
626.395	0.0177505
626.473	0.0176908
626.551	0.0175901
626.629	0.0175219
626.707	0.0175674
626.785	0.0175488
626.863	0.0176566
626.942	0.0177202
627.020	0.0174939
627.098	0.0176383
627.176	0.0176810
627.254	0.0175896
627.332	0.0175785
627.410	0.0175189
627.488	0.0175690
627.567	0.0176643
627.645	0.0175529
627.723	0.0176139
627.801	0.0177076
627.879	0.0177181
627.957	0.0175784
628.035	0.0177131
628.113	0.0178320
628.192	0.0176645
628.270	0.0177106
628.348	0.0178345
628.426	0.0177713
628.504	0.0176872
628.582	0.0177158
628.660	0.0177419
628.738	0.0176639
628.817	0.0177335
628.895	0.0178692
628.973	0.0177168
629.051	0.0177177
629.129	0.0179637
629.207	0.0177491
629.285	0.0176432
629.363	0.0178004
629.442	0.0176903
629.520	0.0176723
629.598	0.0175640
629.676	0.0177329
629.754	0.0176978
629.832	0.0176745
629.910	0.0176657
629.988	0.0177665
630.067	0.0177637
630.145	0.0176864
630.223	0.0175230
630.301	0.0177046
630.379	0.0178284
630.457	0.0177467
630.535	0.0177203
630.613	0.0178646
630.692	0.0175718
630.770	0.0178043
630.848	0.0178094
630.926	0.0177363
631.004	0.0176030
631.082	0.0178527
631.160	0.0177119
631.238	0.0176597
631.317	0.0175822
631.395	0.0176746
631.473	0.0175574
631.551	0.0175987
631.629	0.0176819
631.707	0.0177316
631.785	0.0177372
631.863	0.0175354
631.942	0.0175475
632.020	0.0176300
632.098	0.0176393
632.176	0.0176189
632.254	0.0176004
632.332	0.0177000
632.410	0.0176129
632.488	0.0177225
632.567	0.0176232
632.645	0.0175996
632.723	0.0176372
632.801	0.0175807
632.879	0.0175552
632.957	0.0176469
633.035	0.0177429
633.113	0.0176089
633.192	0.0177224
633.270	0.0176624
633.348	0.0176121
633.426	0.0177221
633.504	0.0178065
633.582	0.0177642
633.660	0.0177881
633.738	0.0178560
633.817	0.0178018
633.895	0.0177814
633.973	0.0177908
634.051	0.0176826
634.129	0.0178080
634.207	0.0176289
634.285	0.0176944
634.363	0.0178736
634.442	0.0177229
634.520	0.0177982
634.598	0.0178323
634.676	0.0176884
634.754	0.0177104
634.832	0.0177901
634.910	0.0176561
634.988	0.0176118
635.067	0.0178282
635.145	0.0177884
635.223	0.0177540
635.301	0.0176794
635.379	0.0176981
635.457	0.0177081
635.535	0.0175843
635.613	0.0175558
635.692	0.0177415
635.770	0.0177337
635.848	0.0176918
635.926	0.0177554
636.004	0.0177068
636.082	0.0177338
636.160	0.0175948
636.238	0.0177641
636.317	0.0175918
636.395	0.0176828
636.473	0.0176644
636.551	0.0177640
636.629	0.0176646
636.707	0.0175819
636.785	0.0175684
636.863	0.0176823
636.942	0.0176822
637.020	0.0176515
637.098	0.0176995
637.176	0.0175682
637.254	0.0177325
637.332	0.0175769
637.410	0.0174902
637.488	0.0176926
637.567	0.0175460
637.645	0.0176285
637.723	0.0176447
637.801	0.0175032
637.879	0.0176791
637.957	0.0177106
638.035	0.0175468
638.113	0.0176210
638.192	0.0176263
638.270	0.0177296
638.348	0.0177255
638.426	0.0176826
638.504	0.0175639
638.582	0.0176933
638.660	0.0175529
638.738	0.0176694
638.817	0.0177084
638.895	0.0176810
638.973	0.0177313
639.051	0.0176872
639.129	0.0176949
639.207	0.0177987
639.285	0.0178264
639.363	0.0177592
639.442	0.0176301
639.520	0.0177213
639.598	0.0176526
639.676	0.0177460
639.754	0.0177612
639.832	0.0177214
639.910	0.0177620
639.988	0.0176696
640.067	0.0178310
640.145	0.0178852
640.223	0.0176519
640.301	0.0176702
640.379	0.0177497
640.457	0.0177114
640.535	0.0177916
640.613	0.0177210
640.692	0.0177378
640.770	0.0177898
640.848	0.0177757
640.926	0.0176279
641.004	0.0176825
641.082	0.0178766
641.160	0.0177812
641.238	0.0178320
641.317	0.0176462
641.395	0.0177100
641.473	0.0178185
641.551	0.0176925
641.629	0.0176524
641.707	0.0176614
641.785	0.0175828
641.863	0.0176762
641.942	0.0176480
642.020	0.0177124
642.098	0.0177732
642.176	0.0176862
642.254	0.0176186
642.332	0.0177061
642.410	0.0176604
642.488	0.0176253
642.567	0.0176950
642.645	0.0177396
642.723	0.0177579
642.801	0.0176450
642.879	0.0177393
642.957	0.0177457
643.035	0.0176574
643.113	0.0175838
643.192	0.0177527
643.270	0.0176603
643.348	0.0175366
643.426	0.0177410
643.504	0.0177322
643.582	0.0176350
643.660	0.0175289
643.738	0.0175646
643.817	0.0176038
643.895	0.0176727
643.973	0.0176862
644.051	0.0176429
644.129	0.0176685
644.207	0.0176720
644.285	0.0176840
644.363	0.0175761
644.442	0.0175983
644.520	0.0175242
644.598	0.0178088
644.676	0.0176747
644.754	0.0175847
644.832	0.0176888
644.910	0.0177814
644.988	0.0176971
645.067	0.0177992
645.145	0.0176908
645.223	0.0176068
645.301	0.0176794
645.379	0.0176756
645.457	0.0176923
645.535	0.0176088
645.613	0.0177056
645.692	0.0175742
645.770	0.0177428
645.848	0.0177435
645.926	0.0177899
646.004	0.0177648
646.082	0.0176774
646.160	0.0176796
646.238	0.0177303
646.317	0.0177226
646.395	0.0177485
646.473	0.0177473
646.551	0.0178281
646.629	0.0178465
646.707	0.0177139
646.785	0.0177122
646.863	0.0176948
646.942	0.0176966
647.020	0.0175597
647.098	0.0177095
647.176	0.0178333
647.254	0.0177094
647.332	0.0176331
647.410	0.0177478
647.488	0.0176846
647.567	0.0177219
647.645	0.0177608
647.723	0.0177865
647.801	0.0176338
647.879	0.0176768
647.957	0.0176258
648.035	0.0176949
648.113	0.0177809
648.192	0.0176994
648.270	0.0177329
648.348	0.0176360
648.426	0.0175677
648.504	0.0176568
648.582	0.0176495
648.660	0.0177448
648.738	0.0177509
648.817	0.0176513
648.895	0.0176600
648.973	0.0177887
649.051	0.0177161
649.129	0.0176878
649.207	0.0176318
649.285	0.0177126
649.363	0.0178499
649.442	0.0177099
649.520	0.0177094
649.598	0.0177777
649.676	0.0177673
649.754	0.0176987
649.832	0.0177657
649.910	0.0177493
649.988	0.0176314
650.067	0.0177994
650.145	0.0176903
650.223	0.0178494
650.301	0.0178747
650.379	0.0176124
650.457	0.0176860
650.535	0.0177641
650.613	0.0176850
650.692	0.0176305
650.770	0.0178252
650.848	0.0177602
650.926	0.0177002
651.004	0.0176907
651.082	0.0177431
651.160	0.0177151
651.238	0.0177714
651.317	0.0177169
651.395	0.0178027
651.473	0.0177296
651.551	0.0177162
651.629	0.0177393
651.707	0.0176064
651.785	0.0177021
651.863	0.0176691
651.942	0.0176958
652.020	0.0177959
652.098	0.0176520
652.176	0.0176503
652.254	0.0177300
652.332	0.0177100
652.410	0.0176477
652.488	0.0176469
652.567	0.0176659
652.645	0.0178292
652.723	0.0177536
652.801	0.0177371
652.879	0.0177251
652.957	0.0176776
653.035	0.0177082
653.113	0.0176524
653.192	0.0176369
653.270	0.0179191
653.348	0.0177850
653.426	0.0176125
653.504	0.0176350
653.582	0.0177507
653.660	0.0175764
653.738	0.0176978
653.817	0.0177589
653.895	0.0175514
653.973	0.0175140
654.051	0.0176714
654.129	0.0177287
654.207	0.0178168
654.285	0.0176826
654.363	0.0176112
654.442	0.0177631
654.520	0.0176480
654.598	0.0176259
654.676	0.0175976
654.754	0.0177113
654.832	0.0176981
654.910	0.0178239
654.988	0.0176205
655.067	0.0176857
655.145	0.0176555
655.223	0.0176781
655.301	0.0177005
655.379	0.0175282
655.457	0.0175572
655.535	0.0176296
655.613	0.0177020
655.692	0.0175046
655.770	0.0177051
655.848	0.0176353
655.926	0.0176579
656.004	0.0177426
656.082	0.0178343
656.160	0.0176736
656.238	0.0176156
656.317	0.0178117
656.395	0.0176270
656.473	0.0174683
656.551	0.0175941
656.629	0.0176672
656.707	0.0177058
656.785	0.0176698
656.863	0.0176281
656.942	0.0176573
657.020	0.0177158
657.098	0.0178011
657.176	0.0176870
657.254	0.0175426
657.332	0.0176194
657.410	0.0179043
657.488	0.0176759
657.567	0.0175473
657.645	0.0178090
657.723	0.0176430
657.801	0.0178122
657.879	0.0177413
657.957	0.0175066
658.035	0.0176095
658.113	0.0177210
658.192	0.0176118
658.270	0.0176831
658.348	0.0175941
658.426	0.0176221
658.504	0.0177437
658.582	0.0176979
658.660	0.0177255
658.738	0.0176910
658.817	0.0175813
658.895	0.0176245
658.973	0.0177049
659.051	0.0177666
659.129	0.0175928
659.207	0.0176037
659.285	0.0176575
659.363	0.0175948
659.442	0.0177759
659.520	0.0178487
659.598	0.0176793
659.676	0.0176843
659.754	0.0176965
659.832	0.0177499
659.910	0.0176630
659.988	0.0175307
660.067	0.0177241
660.145	0.0176910
660.223	0.0176908
660.301	0.0175795
660.379	0.0175385
660.457	0.0175855
660.535	0.0175433
660.613	0.0175449
660.692	0.0177443
660.770	0.0175266
660.848	0.0175346
660.926	0.0175973
661.004	0.0177246
661.082	0.0175509
661.160	0.0176049
661.238	0.0176734
661.317	0.0176477
661.395	0.0176610
661.473	0.0177083
661.551	0.0175739
661.629	0.0177433
661.707	0.0176911
661.785	0.0176621
661.863	0.0177427
661.942	0.0177332
662.020	0.0176494
662.098	0.0175715
662.176	0.0176460
662.254	0.0175784
662.332	0.0176080
662.410	0.0176015
662.488	0.0175746
662.567	0.0176029
662.645	0.0176168
662.723	0.0175974
662.801	0.0176422
662.879	0.0176349
662.957	0.0177025
663.035	0.0176836
663.113	0.0175759
663.192	0.0177495
663.270	0.0177262
663.348	0.0177174
663.426	0.0177186
663.504	0.0177710
663.582	0.0177670
663.660	0.0177319
663.738	0.0177330
663.817	0.0176616
663.895	0.0175576
663.973	0.0176613
664.051	0.0176540
664.129	0.0175749
664.207	0.0175539
664.285	0.0176460
664.363	0.0174463
664.442	0.0173998
664.520	0.0175404
664.598	0.0175623
664.676	0.0175585
664.754	0.0176240
664.832	0.0175876
664.910	0.0177902
664.988	0.0177886
665.067	0.0177985
665.145	0.0177381
665.223	0.0178887
665.301	0.0178046
665.379	0.0178397
665.457	0.0178114
665.535	0.0177061
665.613	0.0178032
665.692	0.0177675
665.770	0.0177691
665.848	0.0176558
665.926	0.0176286
666.004	0.0175150
666.082	0.0175372
666.160	0.0174699
666.238	0.0175690
666.317	0.0174873
666.395	0.0175325
666.473	0.0176225
666.551	0.0175777
666.629	0.0175657
666.707	0.0176913
666.785	0.0175977
666.863	0.0176241
666.942	0.0177205
667.020	0.0178782
667.098	0.0176523
667.176	0.0177819
667.254	0.0177886
667.332	0.0177319
667.410	0.0178218
667.488	0.0175970
667.567	0.0176200
667.645	0.0177061
667.723	0.0175895
667.801	0.0176785
667.879	0.0176591
667.957	0.0175416
668.035	0.0176443
668.113	0.0173927
668.192	0.0174797
668.270	0.0174098
668.348	0.0175426
668.426	0.0174088
668.504	0.0175491
668.582	0.0175883
668.660	0.0176936
668.738	0.0176122
668.817	0.0177244
668.895	0.0177203
668.973	0.0177357
669.051	0.0177470
669.129	0.0178954
669.207	0.0178779
669.285	0.0178363
669.363	0.0177750
669.442	0.0178338
669.520	0.0178655
669.598	0.0177859
669.676	0.0177444
669.754	0.0178741
669.832	0.0177038
669.910	0.0176736
669.988	0.0175726
670.067	0.0175445
670.145	0.0175879
670.223	0.0174241
670.301	0.0173480
670.379	0.0174961
670.457	0.0174792
670.535	0.0176353
670.613	0.0175481
670.692	0.0175723
670.770	0.0176812
670.848	0.0177368
670.926	0.0178748
671.004	0.0179677
671.082	0.0177738
671.160	0.0180754
671.238	0.0178302
671.317	0.0179031
671.395	0.0178945
671.473	0.0177315
671.551	0.0177612
671.629	0.0177544
671.707	0.0176558
671.785	0.0175782
671.863	0.0175583
671.942	0.0175369
672.020	0.0174632
672.098	0.0175062
672.176	0.0175974
672.254	0.0174282
672.332	0.0174490
672.410	0.0174703
672.488	0.0176273
672.567	0.0177212
672.645	0.0176701
672.723	0.0176959
672.801	0.0178313
672.879	0.0177095
672.957	0.0179586
673.035	0.0179504
673.113	0.0179281
673.192	0.0180504
673.270	0.0179881
673.348	0.0178579
673.426	0.0179255
673.504	0.0177626
673.582	0.0177867
673.660	0.0176809
673.738	0.0176571
673.817	0.0177013
673.895	0.0175758
673.973	0.0175884
674.051	0.0175092
674.129	0.0175890
674.207	0.0175909
674.285	0.0175566
674.363	0.0175917
674.442	0.0176080
674.520	0.0176332
674.598	0.0176512
674.676	0.0175919
674.754	0.0175864
674.832	0.0177072
674.910	0.0176893
674.988	0.0174462
675.067	0.0175986
675.145	0.0176881
675.223	0.0175732
675.301	0.0176432
675.379	0.0176290
675.457	0.0176606
675.535	0.0177808
675.613	0.0176864
675.692	0.0177858
675.770	0.0176371
675.848	0.0176952
675.926	0.0176499
676.004	0.0176904
676.082	0.0179111
676.160	0.0177947
676.238	0.0176926
676.317	0.0176881
676.395	0.0177542
676.473	0.0176869
676.551	0.0178410
676.629	0.0178400
676.707	0.0178500
676.785	0.0177629
676.863	0.0177592
676.942	0.0178256
677.020	0.0177696
677.098	0.0177980
677.176	0.0177795
677.254	0.0177444
677.332	0.0176298
677.410	0.0175835
677.488	0.0177011
677.567	0.0176154
677.645	0.0176242
677.723	0.0176324
677.801	0.0175872
677.879	0.0176165
677.957	0.0177148
678.035	0.0175654
678.113	0.0176298
678.192	0.0175525
678.270	0.0176211
678.348	0.0174661
678.426	0.0176329
678.504	0.0176627
678.582	0.0177205
678.660	0.0177868
678.738	0.0177861
678.817	0.0177328
678.895	0.0176974
678.973	0.0177278
679.051	0.0176197
679.129	0.0178364
679.207	0.0176955
679.285	0.0178728
679.363	0.0177647
679.442	0.0177417
679.520	0.0178651
679.598	0.0178045
679.676	0.0177332
679.754	0.0177753
679.832	0.0177728
679.910	0.0177762
679.988	0.0176364
680.067	0.0175430
680.145	0.0175956
680.223	0.0174052
680.301	0.0176032
680.379	0.0175574
680.457	0.0175592
680.535	0.0175142
680.613	0.0175525
680.692	0.0175469
680.770	0.0176937
680.848	0.0179114
680.926	0.0179479
681.004	0.0180144
681.082	0.0180620
681.160	0.0180538
681.238	0.0180895
681.317	0.0181616
681.395	0.0182107
681.473	0.0180741
681.551	0.0179639
681.629	0.0179586
681.707	0.0178292
681.785	0.0175745
681.863	0.0175922
681.942	0.0175011
682.020	0.0173851
682.098	0.0174535
682.176	0.0174619
682.254	0.0174947
682.332	0.0174281
682.410	0.0175167
682.488	0.0177406
682.567	0.0175972
682.645	0.0176536
682.723	0.0177113
682.801	0.0176406
682.879	0.0175685
682.957	0.0176712
683.035	0.0176917
683.113	0.0176071
683.192	0.0176809
683.270	0.0176117
683.348	0.0174741
683.426	0.0176602
683.504	0.0176231
683.582	0.0175837
683.660	0.0175142
683.738	0.0175269
683.817	0.0175377
683.895	0.0173777
683.973	0.0172739
684.051	0.0172203
684.129	0.0171974
684.207	0.0171189
684.285	0.0170919
684.363	0.0169523
684.442	0.0169056
684.520	0.0170047
684.598	0.0170312
684.676	0.0172993
684.754	0.0174158
684.832	0.0177819
684.910	0.0179354
684.988	0.0181506
685.067	0.0183108
685.145	0.0186137
685.223	0.0186588
685.301	0.0188617
685.379	0.0189513
685.457	0.0190784
685.535	0.0191488
685.613	0.0190280
685.692	0.0188805
685.770	0.0188956
685.848	0.0188832
685.926	0.0187496
686.004	0.0185464
686.082	0.0183531
686.160	0.0181441
686.238	0.0180236
686.317	0.0176431
686.395	0.0174857
686.473	0.0173169
686.551	0.0169102
686.629	0.0166544
686.707	0.0165160
686.785	0.0164252
686.863	0.0161199
686.942	0.0158968
687.020	0.0157783
687.098	0.0157553
687.176	0.0158897
687.254	0.0159013
687.332	0.0159776
687.410	0.0161749
687.488	0.0164661
687.567	0.0167205
687.645	0.0171359
687.723	0.0175205
687.801	0.0179762
687.879	0.0183324
687.957	0.0187965
688.035	0.0190721
688.113	0.0192136
688.192	0.0193581
688.270	0.0196204
688.348	0.0195551
688.426	0.0195422
688.504	0.0192989
688.582	0.0191804
688.660	0.0188461
688.738	0.0184537
688.817	0.0181355
688.895	0.0178831
688.973	0.0175269
689.051	0.0172083
689.129	0.0170183
689.207	0.0168941
689.285	0.0168056
689.363	0.0166632
689.442	0.0166383
689.520	0.0168559
689.598	0.0168360
689.676	0.0170477
689.754	0.0172300
689.832	0.0172986
689.910	0.0174599
689.988	0.0173656
690.067	0.0175448
690.145	0.0177034
690.223	0.0177754
690.301	0.0177898
690.379	0.0177688
690.457	0.0178683
690.535	0.0178548
690.613	0.0178240
690.692	0.0179877
690.770	0.0181697
690.848	0.0181753
690.926	0.0180733
691.004	0.0180689
691.082	0.0180579
691.160	0.0179524
691.238	0.0179736
691.317	0.0180247
691.395	0.0179388
691.473	0.0180460
691.551	0.0182024
691.629	0.0182764
691.707	0.0183646
691.785	0.0183929
691.863	0.0183676
691.942	0.0184859
692.020	0.0183719
692.098	0.0182794
692.176	0.0181461
692.254	0.0179535
692.332	0.0177730
692.410	0.0173508
692.488	0.0170639
692.567	0.0168367
692.645	0.0164627
692.723	0.0160778
692.801	0.0158749
692.879	0.0155801
692.957	0.0153209
693.035	0.0153005
693.113	0.0151870
693.192	0.0151447
693.270	0.0151790
693.348	0.0152590
693.426	0.0155435
693.504	0.0157726
693.582	0.0162051
693.660	0.0167364
693.738	0.0172118
693.817	0.0177789
693.895	0.0182819
693.973	0.0188986
694.051	0.0196130
694.129	0.0200804
694.207	0.0205718
694.285	0.0210862
694.363	0.0215169
694.442	0.0217770
694.520	0.0217236
694.598	0.0216772
694.676	0.0215171
694.754	0.0212696
694.832	0.0209698
694.910	0.0208075
694.988	0.0203681
695.067	0.0199883
695.145	0.0197791
695.223	0.0193063
695.301	0.0190370
695.379	0.0186667
695.457	0.0182117
695.535	0.0177206
695.613	0.0173199
695.692	0.0169051
695.770	0.0164619
695.848	0.0160226
695.926	0.0155254
696.004	0.0153141
696.082	0.0148062
696.160	0.0145908
696.238	0.0143208
696.317	0.0142086
696.395	0.0139368
696.473	0.0138196
696.551	0.0139691
696.629	0.0140060
696.707	0.0141058
696.785	0.0140374
696.863	0.0142203
696.942	0.0141956
697.020	0.0141386
697.098	0.0143003
697.176	0.0143071
697.254	0.0143652
697.332	0.0145709
697.410	0.0147435
697.488	0.0149602
697.567	0.0151810
697.645	0.0156886
697.723	0.0160678
697.801	0.0164674
697.879	0.0169768
697.957	0.0174799
698.035	0.0180189
698.113	0.0188331
698.192	0.0193749
698.270	0.0201523
698.348	0.0209465
698.426	0.0215438
698.504	0.0224784
698.582	0.0229963
698.660	0.0235894
698.738	0.0241482
698.817	0.0246037
698.895	0.0248095
698.973	0.0250108
699.051	0.0250872
699.129	0.0250185
699.207	0.0248502
699.285	0.0247251
699.363	0.0244151
699.442	0.0239177
699.520	0.0233048
699.598	0.0230370
699.676	0.0224397
699.754	0.0217490
699.832	0.0211783
699.910	0.0205087
699.988	0.0195761
700.067	0.0186752
700.145	0.0180200
700.223	0.0170660
700.301	0.0159138
700.379	0.0149281
700.457	0.0138369
700.535	0.0126279
700.613	0.0114938
700.692	0.0102518
700.770	0.00910515
700.848	0.00781326
700.926	0.00685532
701.004	0.00611168
701.082	0.00553780
701.160	0.00501648
701.238	0.00491615
701.317	0.00501617
701.395	0.00532265
701.473	0.00629433
701.551	0.00709991
701.629	0.00842323
701.707	0.00997849
701.785	0.0115795
701.863	0.0132763
701.942	0.0152531
702.020	0.0170711
702.098	0.0188387
702.176	0.0202900
702.254	0.0218877
702.332	0.0231039
702.410	0.0242097
702.488	0.0251665
702.567	0.0256660
702.645	0.0259505
702.723	0.0261729
702.801	0.0261616
702.879	0.0259106
702.957	0.0255280
703.035	0.0249864
703.113	0.0243122
703.192	0.0235361
703.270	0.0229208
703.348	0.0222479
703.426	0.0215530
703.504	0.0208195
703.582	0.0206590
703.660	0.0202405
703.738	0.0200956
703.817	0.0201878
703.895	0.0203212
703.973	0.0206525
704.051	0.0209663
704.129	0.0214896
704.207	0.0218529
704.285	0.0224844
704.363	0.0227792
704.442	0.0232114
704.520	0.0234815
704.598	0.0236150
704.676	0.0236140
704.754	0.0234898
704.832	0.0231448
704.910	0.0226648
704.988	0.0220845
705.067	0.0211039
705.145	0.0201295
705.223	0.0189819
705.301	0.0177440
705.379	0.0165913
705.457	0.0152315
705.535	0.0138054
705.613	0.0124212
705.692	0.0112064
705.770	0.00984894
705.848	0.00850807
705.926	0.00720016
706.004	0.00592148
706.082	0.00487770
706.160	0.00376389
706.238	0.00292503
706.317	0.00217033
706.395	0.00176537
706.473	0.00136513
706.551	0.00161537
706.629	0.00206795
706.707	0.00296036
706.785	0.00424026
706.863	0.00569534
706.942	0.00743111
707.020	0.00984589
707.098	0.0120168
707.176	0.0144342
707.254	0.0169740
707.332	0.0194882
707.410	0.0217800
707.488	0.0239830
707.567	0.0261195
707.645	0.0280305
707.723	0.0295631
707.801	0.0307408
707.879	0.0317751
707.957	0.0322057
708.035	0.0324678
708.113	0.0322362
708.192	0.0317907
708.270	0.0310766
708.348	0.0299569
708.426	0.0286720
708.504	0.0271835
708.582	0.0257396
708.660	0.0242455
708.738	0.0228187
708.817	0.0213730
708.895	0.0205002
708.973	0.0195650
709.051	0.0189789
709.129	0.0184526
709.207	0.0182927
709.285	0.0182719
709.363	0.0183580
709.442	0.0184842
709.520	0.0188198
709.598	0.0193379
709.676	0.0197529
709.754	0.0200218
709.832	0.0205608
709.910	0.0210342
709.988	0.0213732
710.067	0.0215623
710.145	0.0219162
710.223	0.0218363
710.301	0.0216034
710.379	0.0214515
710.457	0.0210340
710.535	0.0202441
710.613	0.0191402
710.692	0.0180335
710.770	0.0164823
710.848	0.0149232
710.926	0.0131749
711.004	0.0113911
711.082	0.00974022
711.160	0.00781693
711.238	0.00633911
711.317	0.00466934
711.395	0.00322906
711.473	0.00206581
711.551	0.00107376
711.629	0.000537567
711.707	-0.0000329590
711.785	-0.000188675
711.863	0.0000690460
711.942	0.000955200
712.020	0.00174980
712.098	0.00289719
712.176	0.00445801
712.254	0.00639481
712.332	0.00869804
712.410	0.0111625
712.488	0.0136436
712.567	0.0163674
712.645	0.0188423
712.723	0.0216084
712.801	0.0239117
712.879	0.0261099
712.957	0.0280327
713.035	0.0297250
713.113	0.0309410
713.192	0.0319225
713.270	0.0324762
713.348	0.0328208
713.426	0.0327507
713.504	0.0322381
713.582	0.0316097
713.660	0.0306908
713.738	0.0294990
713.817	0.0283497
713.895	0.0271983
713.973	0.0258563
714.051	0.0246928
714.129	0.0236464
714.207	0.0227326
714.285	0.0218426
714.363	0.0213067
714.442	0.0210962
714.520	0.0206246
714.598	0.0204042
714.676	0.0202071
714.754	0.0201553
714.832	0.0202118
714.910	0.0201555
714.988	0.0200209
715.067	0.0200757
715.145	0.0202245
715.223	0.0200883
715.301	0.0199970
715.379	0.0199597
715.457	0.0195380
715.535	0.0193147
715.613	0.0192168
715.692	0.0188335
715.770	0.0183584
715.848	0.0177176
715.926	0.0167653
716.004	0.0160481
716.082	0.0148958
716.160	0.0136691
716.238	0.0125775
716.317	0.0112264
716.395	0.0100572
716.473	0.00869606
716.551	0.00753685
716.629	0.00660378
716.707	0.00556229
716.785	0.00480728
716.863	0.00442879
716.942	0.00398590
717.020	0.00386055
717.098	0.00400108
717.176	0.00425163
717.254	0.00475243
717.332	0.00553284
717.410	0.00621674
717.488	0.00750931
717.567	0.00876976
717.645	0.0101850
717.723	0.0117258
717.801	0.0131986
717.879	0.0149387
717.957	0.0168913
718.035	0.0186763
718.113	0.0203603
718.192	0.0220901
718.270	0.0235899
718.348	0.0248429
718.426	0.0259342
718.504	0.0267273
718.582	0.0272885
718.660	0.0275874
718.738	0.0276754
718.817	0.0275816
718.895	0.0271030
718.973	0.0265700
719.051	0.0260537
719.129	0.0253832
719.207	0.0246571
719.285	0.0240158
719.363	0.0235562
719.442	0.0230503
719.520	0.0225456
719.598	0.0222943
719.676	0.0220154
719.754	0.0219375
719.832	0.0219441
719.910	0.0220888
719.988	0.0221049
720.067	0.0223206
720.145	0.0223567
720.223	0.0223694
720.301	0.0223679
720.379	0.0223877
720.457	0.0222228
720.535	0.0220114
720.613	0.0216418
720.692	0.0212198
720.770	0.0206308
720.848	0.0199748
720.926	0.0193211
721.004	0.0186539
721.082	0.0179086
721.160	0.0172299
721.238	0.0164838
721.317	0.0155409
721.395	0.0146895
721.473	0.0140318
721.551	0.0132417
721.629	0.0124754
721.707	0.0117230
721.785	0.0111115
721.863	0.0105519
721.942	0.0100108
722.020	0.00966179
722.098	0.00950310
722.176	0.00934448
722.254	0.00923515
722.332	0.00936714
722.410	0.00953308
722.488	0.00976074
722.567	0.0101147
722.645	0.0103644
722.723	0.0110815
722.801	0.0116503
722.879	0.0122292
722.957	0.0128931
723.035	0.0134840
723.113	0.0142423
723.192	0.0150620
723.270	0.0157365
723.348	0.0164016
723.426	0.0170447
723.504	0.0176262
723.582	0.0183624
723.660	0.0186554
723.738	0.0190407
723.817	0.0193164
723.895	0.0198043
723.973	0.0198502
724.051	0.0198528
724.129	0.0199825
724.207	0.0198292
724.285	0.0198584
724.363	0.0196902
724.442	0.0197010
724.520	0.0198265
724.598	0.0198432
724.676	0.0199945
724.754	0.0202164
724.832	0.0205714
724.910	0.0209943
724.988	0.0212608
725.067	0.0215975
725.145	0.0221673
725.223	0.0225810
725.301	0.0228688
725.379	0.0231392
725.457	0.0233842
725.535	0.0232414
725.613	0.0233075
725.692	0.0231717
725.770	0.0229255
725.848	0.0225604
725.926	0.0221083
726.004	0.0216718
726.082	0.0210925
726.160	0.0205439
726.238	0.0200622
726.317	0.0194353
726.395	0.0189823
726.473	0.0183902
726.551	0.0179441
726.629	0.0174148
726.707	0.0170206
726.785	0.0167758
726.863	0.0163144
726.942	0.0163056
727.020	0.0158240
727.098	0.0155907
727.176	0.0152995
727.254	0.0151868
727.332	0.0150555
727.410	0.0148019
727.488	0.0148989
727.567	0.0147073
727.645	0.0147124
727.723	0.0146165
727.801	0.0145454
727.879	0.0146385
727.957	0.0147391
728.035	0.0147038
728.113	0.0147456
728.192	0.0148088
728.270	0.0151667
728.348	0.0152272
728.426	0.0152609
728.504	0.0155009
728.582	0.0154935
728.660	0.0156828
728.738	0.0157927
728.817	0.0158307
728.895	0.0159827
728.973	0.0161125
729.051	0.0162180
729.129	0.0163041
729.207	0.0163059
729.285	0.0164340
729.363	0.0165044
729.442	0.0165931
729.520	0.0166371
729.598	0.0165806
729.676	0.0164816
729.754	0.0165989
729.832	0.0166365
729.910	0.0168401
729.988	0.0169814
730.067	0.0170926
730.145	0.0175344
730.223	0.0177391
730.301	0.0179024
730.379	0.0184016
730.457	0.0186629
730.535	0.0189104
730.613	0.0191855
730.692	0.0195512
730.770	0.0196434
730.848	0.0199429
730.926	0.0200301
731.004	0.0199150
731.082	0.0198915
731.160	0.0199313
731.238	0.0196883
731.317	0.0193576
731.395	0.0190557
731.473	0.0190197
731.551	0.0188007
731.629	0.0188230
731.707	0.0188375
731.785	0.0188391
731.863	0.0188914
731.942	0.0190508
732.020	0.0190874
732.098	0.0193362
732.176	0.0193053
732.254	0.0195259
732.332	0.0194660
732.410	0.0194501
732.488	0.0195064
732.567	0.0193809
732.645	0.0191059
732.723	0.0189563
732.801	0.0188380
732.879	0.0185195
732.957	0.0182961
733.035	0.0181407
733.113	0.0179360
733.192	0.0177567
733.270	0.0176666
733.348	0.0177011
733.426	0.0176241
733.504	0.0175157
733.582	0.0173484
733.660	0.0174152
733.738	0.0174456
733.817	0.0173433
733.895	0.0172076
733.973	0.0171006
734.051	0.0171468
734.129	0.0169553
734.207	0.0169068
734.285	0.0167590
734.363	0.0167532
734.442	0.0164999
734.520	0.0163892
734.598	0.0163049
734.676	0.0159707
734.754	0.0158862
734.832	0.0159199
734.910	0.0158433
734.988	0.0158884
735.067	0.0160719
735.145	0.0161127
735.223	0.0160564
735.301	0.0163789
735.379	0.0165402
735.457	0.0167693
735.535	0.0170119
735.613	0.0172131
735.692	0.0173277
735.770	0.0175832
735.848	0.0176787
735.926	0.0177538
736.004	0.0176754
736.082	0.0175256
736.160	0.0175292
736.238	0.0172587
736.317	0.0172435
736.395	0.0169980
736.473	0.0167436
736.551	0.0166325
736.629	0.0166051
736.707	0.0166402
736.785	0.0165614
736.863	0.0166673
736.942	0.0166765
737.020	0.0166506
737.098	0.0170155
737.176	0.0172962
737.254	0.0174829
737.332	0.0176900
737.410	0.0179487
737.488	0.0181261
737.567	0.0182796
737.645	0.0183426
737.723	0.0184647
737.801	0.0186900
737.879	0.0186183
737.957	0.0186510
738.035	0.0187661
738.113	0.0185061
738.192	0.0184660
738.270	0.0185858
738.348	0.0186046
738.426	0.0188308
738.504	0.0189663
738.582	0.0191464
738.660	0.0191335
738.738	0.0193403
738.817	0.0193094
738.895	0.0194490
738.973	0.0194530
739.051	0.0192906
739.129	0.0192880
739.207	0.0190594
739.285	0.0189163
739.363	0.0185832
739.442	0.0183690
739.520	0.0181403
739.598	0.0178252
739.676	0.0174818
739.754	0.0174336
739.832	0.0173540
739.910	0.0171265
739.988	0.0171861
740.067	0.0173087
740.145	0.0173061
740.223	0.0173615
740.301	0.0176688
740.379	0.0178259
740.457	0.0179108
740.535	0.0180272
740.613	0.0180776
740.692	0.0180957
740.770	0.0182581
740.848	0.0183228
740.926	0.0180965
741.004	0.0181250
741.082	0.0180470
741.160	0.0180528
741.238	0.0178813
741.317	0.0176553
741.395	0.0173718
741.473	0.0172388
741.551	0.0170159
741.629	0.0167413
741.707	0.0165244
741.785	0.0164825
741.863	0.0162678
741.942	0.0162024
742.020	0.0161720
742.098	0.0161449
742.176	0.0161835
742.254	0.0161474
742.332	0.0164355
742.410	0.0164864
742.488	0.0164928
742.567	0.0168341
742.645	0.0170959
742.723	0.0171638
742.801	0.0173105
742.879	0.0174075
742.957	0.0173825
743.035	0.0174547
743.113	0.0174166
743.192	0.0174508
743.270	0.0173460
743.348	0.0172880
743.426	0.0172578
743.504	0.0170277
743.582	0.0171290
743.660	0.0170085
743.738	0.0170667
743.817	0.0170996
743.895	0.0171281
743.973	0.0171895
744.051	0.0172218
744.129	0.0173861
744.207	0.0174548
744.285	0.0176861
744.363	0.0177995
744.442	0.0178497
744.520	0.0179076
744.598	0.0179702
744.676	0.0179280
744.754	0.0178960
744.832	0.0177912
744.910	0.0178230
744.988	0.0176884
745.067	0.0177625
745.145	0.0177586
745.223	0.0178171
745.301	0.0176645
745.379	0.0178435
745.457	0.0180288
745.535	0.0182598
745.613	0.0183119
745.692	0.0185590
745.770	0.0186906
745.848	0.0188540
745.926	0.0188817
746.004	0.0189745
746.082	0.0190565
746.160	0.0191648
746.238	0.0192185
746.317	0.0191609
746.395	0.0190633
746.473	0.0189735
746.551	0.0189569
746.629	0.0187947
746.707	0.0186899
746.785	0.0186809
746.863	0.0183346
746.942	0.0182249
747.020	0.0180309
747.098	0.0177766
747.176	0.0174614
747.254	0.0172723
747.332	0.0169978
747.410	0.0169368
747.488	0.0167551
747.567	0.0166740
747.645	0.0165784
747.723	0.0164534
747.801	0.0164494
747.879	0.0166393
747.957	0.0167290
748.035	0.0168269
748.113	0.0171845
748.192	0.0173569
748.270	0.0175724
748.348	0.0178691
748.426	0.0182191
748.504	0.0184914
748.582	0.0185492
748.660	0.0186524
748.738	0.0186011
748.817	0.0184287
748.895	0.0185915
748.973	0.0184892
749.051	0.0181728
749.129	0.0179446
749.207	0.0177337
749.285	0.0175779
749.363	0.0172806
749.442	0.0170470
749.520	0.0169119
749.598	0.0165046
749.676	0.0164523
749.754	0.0163625
749.832	0.0161686
749.910	0.0160043
749.988	0.0159738
750.067	0.0159492
750.145	0.0157873
750.223	0.0160812
750.301	0.0161230
750.379	0.0160987
750.457	0.0162998
750.535	0.0164901
750.613	0.0167595
750.692	0.0168941
750.770	0.0169976
750.848	0.0172723
750.926	0.0177332
751.004	0.0180334
751.082	0.0182141
751.160	0.0184251
751.238	0.0187260
751.317	0.0189500
751.395	0.0191795
751.473	0.0192635
751.551	0.0191804
751.629	0.0191116
751.707	0.0190852
751.785	0.0188190
751.863	0.0187901
751.942	0.0183753
752.020	0.0181495
752.098	0.0177984
752.176	0.0175921
752.254	0.0171468
752.332	0.0168722
752.410	0.0167812
752.488	0.0165001
752.567	0.0165141
752.645	0.0163953
752.723	0.0165425
752.801	0.0165263
752.879	0.0166851
752.957	0.0169006
753.035	0.0169227
753.113	0.0172056
753.192	0.0175249
753.270	0.0176605
753.348	0.0179350
753.426	0.0182004
753.504	0.0185443
753.582	0.0188219
753.660	0.0188465
753.738	0.0191418
753.817	0.0193029
753.895	0.0193159
753.973	0.0195269
754.051	0.0194994
754.129	0.0195522
754.207	0.0194328
754.285	0.0192141
754.363	0.0189803
754.442	0.0189382
754.520	0.0186944
754.598	0.0185298
754.676	0.0182822
754.754	0.0180531
754.832	0.0178626
754.910	0.0177224
754.988	0.0174947
755.067	0.0173199
755.145	0.0173502
755.223	0.0170443
755.301	0.0167969
755.379	0.0169759
755.457	0.0167802
755.535	0.0165905
755.613	0.0165667
755.692	0.0164326
755.770	0.0164835
755.848	0.0165465
755.926	0.0167209
756.004	0.0169882
756.082	0.0172082
756.160	0.0173484
756.238	0.0176674
756.317	0.0179671
756.395	0.0181724
756.473	0.0181019
756.551	0.0184134
756.629	0.0186850
756.707	0.0188129
756.785	0.0188036
756.863	0.0188180
756.942	0.0185937
757.020	0.0185872
757.098	0.0184209
757.176	0.0179955
757.254	0.0178404
757.332	0.0174374
757.410	0.0173367
757.488	0.0169154
757.567	0.0162933
757.645	0.0160224
757.723	0.0158598
757.801	0.0156683
757.879	0.0154821
757.957	0.0155455
758.035	0.0154081
758.113	0.0155272
758.192	0.0157852
758.270	0.0159512
758.348	0.0161144
758.426	0.0165210
758.504	0.0167926
758.582	0.0171076
758.660	0.0173655
758.738	0.0177438
758.817	0.0179539
758.895	0.0182819
758.973	0.0183414
759.051	0.0186178
759.129	0.0187695
759.207	0.0189106
759.285	0.0188844
759.363	0.0189291
759.442	0.0190189
759.520	0.0187157
759.598	0.0186945
759.676	0.0187156
759.754	0.0185937
759.832	0.0185524
759.910	0.0184454
759.988	0.0183768
760.067	0.0180198
760.145	0.0179770
760.223	0.0179008
760.301	0.0180080
760.379	0.0178224
760.457	0.0178949
760.535	0.0177523
760.613	0.0177866
760.692	0.0177278
760.770	0.0178051
760.848	0.0178391
760.926	0.0178220
761.004	0.0179134
761.082	0.0179588
761.160	0.0178136
761.238	0.0181289
761.317	0.0181259
761.395	0.0182259
761.473	0.0183221
761.551	0.0183756
761.629	0.0184610
761.707	0.0186106
761.785	0.0186049
761.863	0.0185466
761.942	0.0185278
762.020	0.0183902
762.098	0.0184065
762.176	0.0184177
762.254	0.0182272
762.332	0.0180064
762.410	0.0178043
762.488	0.0177389
762.567	0.0173556
762.645	0.0172842
762.723	0.0170567
762.801	0.0166830
762.879	0.0164877
762.957	0.0165121
763.035	0.0164487
763.113	0.0163570
763.192	0.0163500
763.270	0.0164029
763.348	0.0167312
763.426	0.0166718
763.504	0.0167387
763.582	0.0169633
763.660	0.0172260
763.738	0.0172831
763.817	0.0174722
763.895	0.0175114
763.973	0.0176598
764.051	0.0176720
764.129	0.0177471
764.207	0.0177659
764.285	0.0178966
764.363	0.0179301
764.442	0.0179444
764.520	0.0179890
764.598	0.0178486
764.676	0.0178143
764.754	0.0179701
764.832	0.0177660
764.910	0.0176344
764.988	0.0176146
765.067	0.0175736
765.145	0.0173891
765.223	0.0175051
765.301	0.0173951
765.379	0.0173104
765.457	0.0172546
765.535	0.0172836
765.613	0.0172062
765.692	0.0171952
765.770	0.0171708
765.848	0.0169210
765.926	0.0169540
766.004	0.0169409
766.082	0.0168111
766.160	0.0168266
766.238	0.0166818
766.317	0.0168060
766.395	0.0169717
766.473	0.0170200
766.551	0.0170469
766.629	0.0172525
766.707	0.0175415
766.785	0.0175615
766.863	0.0177766
766.942	0.0178194
767.020	0.0180536
767.098	0.0182481
767.176	0.0184251
767.254	0.0186801
767.332	0.0187310
767.410	0.0189337
767.488	0.0190578
767.567	0.0188927
767.645	0.0188440
767.723	0.0188643
767.801	0.0187969
767.879	0.0188257
767.957	0.0187016
768.035	0.0184814
768.113	0.0184177
768.192	0.0182584
768.270	0.0180400
768.348	0.0178123
768.426	0.0176892
768.504	0.0176035
768.582	0.0175771
768.660	0.0174174
768.738	0.0173407
768.817	0.0173643
768.895	0.0173492
768.973	0.0173955
769.051	0.0175460
769.129	0.0176185
769.207	0.0177528
769.285	0.0178435
769.363	0.0181070
769.442	0.0181815
769.520	0.0182343
769.598	0.0181744
769.676	0.0183438
769.754	0.0183826
769.832	0.0182652
769.910	0.0182880
769.988	0.0183183
770.067	0.0182459
770.145	0.0180898
770.223	0.0179783
770.301	0.0178109
770.379	0.0177541
770.457	0.0175786
770.535	0.0174536
770.613	0.0172865
770.692	0.0172218
770.770	0.0171273
770.848	0.0169785
770.926	0.0170216
771.004	0.0169193
771.082	0.0169018
771.160	0.0166939
771.238	0.0166032
771.317	0.0165678
771.395	0.0164258
771.473	0.0165887
771.551	0.0166290
771.629	0.0164043
771.707	0.0165175
771.785	0.0165479
771.863	0.0166401
771.942	0.0165748
772.020	0.0168533
772.098	0.0170418
772.176	0.0171617
772.254	0.0173872
772.332	0.0174892
772.410	0.0175056
772.488	0.0178658
772.567	0.0179406
772.645	0.0180067
772.723	0.0180433
772.801	0.0181549
772.879	0.0181256
772.957	0.0184146
773.035	0.0183966
773.113	0.0182171
773.192	0.0182672
773.270	0.0181877
773.348	0.0181203
773.426	0.0181573
773.504	0.0179959
773.582	0.0178708
773.660	0.0179794
773.738	0.0177819
773.817	0.0176592
773.895	0.0175472
773.973	0.0174481
774.051	0.0173547
774.129	0.0171826
774.207	0.0172527
774.285	0.0172413
774.363	0.0170742
774.442	0.0171505
774.520	0.0172095
774.598	0.0173481
774.676	0.0173226
774.754	0.0174706
774.832	0.0176773
774.910	0.0177871
774.988	0.0179431
775.067	0.0180690
775.145	0.0183426
775.223	0.0183588
775.301	0.0184711
775.379	0.0186204
775.457	0.0187022
775.535	0.0186443
775.613	0.0186932
775.692	0.0185780
775.770	0.0186002
775.848	0.0184740
775.926	0.0184492
776.004	0.0183728
776.082	0.0184800
776.160	0.0182893
776.238	0.0181191
776.317	0.0179349
776.395	0.0178654
776.473	0.0177998
776.551	0.0175043
776.629	0.0173232
776.707	0.0171918
776.785	0.0172369
776.863	0.0171937
776.942	0.0169484
777.020	0.0170379
777.098	0.0169820
777.176	0.0170324
777.254	0.0170535
777.332	0.0171967
777.410	0.0171174
777.488	0.0173140
777.567	0.0174465
777.645	0.0174643
777.723	0.0176736
777.801	0.0178757
777.879	0.0180579
777.957	0.0181876
778.035	0.0182237
778.113	0.0182236
778.192	0.0184785
778.270	0.0183325
778.348	0.0184676
778.426	0.0184930
778.504	0.0183701
778.582	0.0184166
778.660	0.0182124
778.738	0.0180139
778.817	0.0180302
778.895	0.0180218
778.973	0.0176589
779.051	0.0175053
779.129	0.0173717
779.207	0.0172209
779.285	0.0171471
779.363	0.0169823
779.442	0.0169164
779.520	0.0167250
779.598	0.0165904
779.676	0.0165800
779.754	0.0165502
779.832	0.0166663
779.910	0.0164848
779.988	0.0167949
780.067	0.0167016
780.145	0.0166972
780.223	0.0167272
780.301	0.0168165
780.379	0.0168541
780.457	0.0170068
780.535	0.0171821
780.613	0.0172858
780.692	0.0173830
780.770	0.0173880
780.848	0.0174406
780.926	0.0175437
781.004	0.0177103
781.082	0.0176601
781.160	0.0177940
781.238	0.0180576
781.317	0.0178858
781.395	0.0178225
781.473	0.0180215
781.551	0.0182637
781.629	0.0182030
781.707	0.0181727
781.785	0.0182028
781.863	0.0182247
781.942	0.0182254
782.020	0.0182846
782.098	0.0182871
782.176	0.0183348
782.254	0.0182959
782.332	0.0182448
782.410	0.0181596
782.488	0.0181600
782.567	0.0181020
782.645	0.0180244
782.723	0.0179629
782.801	0.0179527
782.879	0.0177340
782.957	0.0177943
783.035	0.0177653
783.113	0.0178463
783.192	0.0178139
783.270	0.0177632
783.348	0.0178483
783.426	0.0178960
783.504	0.0179260
783.582	0.0180568
783.660	0.0182531
783.738	0.0182756
783.817	0.0182621
783.895	0.0184194
783.973	0.0182898
784.051	0.0183630
784.129	0.0183759
784.207	0.0182105
784.285	0.0182148
784.363	0.0181723
784.442	0.0180814
784.520	0.0178980
784.598	0.0178373
784.676	0.0177068
784.754	0.0176353
784.832	0.0175804
784.910	0.0173808
784.988	0.0174146
785.067	0.0173147
785.145	0.0171999
785.223	0.0171609
785.301	0.0170562
785.379	0.0170186
785.457	0.0171411
785.535	0.0172164
785.613	0.0171642
785.692	0.0170882
785.770	0.0172072
785.848	0.0170563
785.926	0.0170309
786.004	0.0170894
786.082	0.0171319
786.160	0.0168787
786.238	0.0169304
786.317	0.0170432
786.395	0.0170803
786.473	0.0169773
786.551	0.0170589
786.629	0.0171526
786.707	0.0172677
786.785	0.0173339
786.863	0.0174016
786.942	0.0175562
787.020	0.0175794
787.098	0.0178028
787.176	0.0180113
787.254	0.0178854
787.332	0.0181378
787.410	0.0181400
787.488	0.0181031
787.567	0.0180625
787.645	0.0180761
787.723	0.0181094
787.801	0.0181775
787.879	0.0180123
787.957	0.0178854
788.035	0.0178424
788.113	0.0175233
788.192	0.0175616
788.270	0.0173728
788.348	0.0174181
788.426	0.0172083
788.504	0.0173037
788.582	0.0172887
788.660	0.0172218
788.738	0.0172517
788.817	0.0172807
788.895	0.0173182
788.973	0.0173241
789.051	0.0174432
789.129	0.0174080
789.207	0.0174344
789.285	0.0175793
789.363	0.0176053
789.442	0.0176267
789.520	0.0177113
789.598	0.0175635
789.676	0.0176538
789.754	0.0177839
789.832	0.0177496
789.910	0.0178604
789.988	0.0178517
790.067	0.0178683
790.145	0.0178306
790.223	0.0178648
790.301	0.0181190
790.379	0.0181727
790.457	0.0182233
790.535	0.0182182
790.613	0.0181609
790.692	0.0182435
790.770	0.0182685
790.848	0.0182207
790.926	0.0184144
791.004	0.0183883
791.082	0.0182819
791.160	0.0182397
791.238	0.0182817
791.317	0.0182848
791.395	0.0182244
791.473	0.0181149
791.551	0.0181465
791.629	0.0180267
791.707	0.0178973
791.785	0.0179705
791.863	0.0177493
791.942	0.0178927
792.020	0.0177888
792.098	0.0176452
792.176	0.0177763
792.254	0.0177599
792.332	0.0179782
792.410	0.0179619
792.488	0.0179232
792.567	0.0178564
792.645	0.0178197
792.723	0.0177761
792.801	0.0177620
792.879	0.0176806
792.957	0.0175774
793.035	0.0175336
793.113	0.0174147
793.192	0.0172290
793.270	0.0171072
793.348	0.0169101
793.426	0.0168725
793.504	0.0168494
793.582	0.0165418
793.660	0.0166514
793.738	0.0167603
793.817	0.0167052
793.895	0.0164999
793.973	0.0163908
794.051	0.0166542
794.129	0.0166251
794.207	0.0167697
794.285	0.0169638
794.363	0.0171170
794.442	0.0170784
794.520	0.0172713
794.598	0.0174698
794.676	0.0174388
794.754	0.0177599
794.832	0.0178314
794.910	0.0179448
794.988	0.0180249
795.067	0.0180226
795.145	0.0183060
795.223	0.0183360
795.301	0.0183105
795.379	0.0184409
795.457	0.0185554
795.535	0.0185331
795.613	0.0185486
795.692	0.0185863
795.770	0.0187165
795.848	0.0187816
795.926	0.0186548
796.004	0.0186057
796.082	0.0185112
796.160	0.0186316
796.238	0.0186217
796.317	0.0183010
796.395	0.0181753
796.473	0.0181704
796.551	0.0179613
796.629	0.0177601
796.707	0.0175013
796.785	0.0171687
796.863	0.0171459
796.942	0.0169650
797.020	0.0168082
797.098	0.0165875
797.176	0.0164676
797.254	0.0162334
797.332	0.0163696
797.410	0.0162769
797.488	0.0163523
797.567	0.0162203
797.645	0.0165443
797.723	0.0165207
797.801	0.0166155
797.879	0.0167547
797.957	0.0169406
798.035	0.0169289
798.113	0.0171641
798.192	0.0173376
798.270	0.0174493
798.348	0.0176986
798.426	0.0179337
798.504	0.0181129
798.582	0.0181632
798.660	0.0182295
798.738	0.0183144
798.817	0.0184138
798.895	0.0186574
798.973	0.0187022
799.051	0.0185567
799.129	0.0187726
799.207	0.0189242
799.285	0.0186359
799.363	0.0186109
799.442	0.0188859
799.520	0.0186510
799.598	0.0186535
799.676	0.0185355
799.754	0.0185332
799.832	0.0185633
799.910	0.0184033
799.988	0.0184222
800.067	0.0183574
800.145	0.0183189
800.223	0.0182047
800.301	0.0182248
800.379	0.0183155
800.457	0.0182497
800.535	0.0183630
800.613	0.0183320
800.692	0.0183377
800.770	0.0185670
800.848	0.0182413
800.926	0.0183150
801.004	0.0182887
801.082	0.0182758
801.160	0.0182931
801.238	0.0181786
801.317	0.0181857
801.395	0.0180840
801.473	0.0178971
801.551	0.0178212
801.629	0.0177257
801.707	0.0174162
801.785	0.0173277
801.863	0.0171358
801.942	0.0168632
802.020	0.0167090
802.098	0.0164114
802.176	0.0159891
802.254	0.0159033
802.332	0.0157786
802.410	0.0156598
802.488	0.0154987
802.567	0.0153803
802.645	0.0154323
802.723	0.0152263
802.801	0.0152901
802.879	0.0153350
802.957	0.0154700
803.035	0.0155449
803.113	0.0156950
803.192	0.0160736
803.270	0.0162440
803.348	0.0164641
803.426	0.0169083
803.504	0.0170200
803.582	0.0173695
803.660	0.0175343
803.738	0.0177647
803.817	0.0180150
803.895	0.0182097
803.973	0.0184900
804.051	0.0185024
804.129	0.0187312
804.207	0.0188838
804.285	0.0188556
804.363	0.0189529
804.442	0.0189780
804.520	0.0189348
804.598	0.0189760
804.676	0.0191199
804.754	0.0191471
804.832	0.0191712
804.910	0.0193127
804.988	0.0191206
805.067	0.0192235
805.145	0.0193008
805.223	0.0192149
805.301	0.0191486
805.379	0.0191013
805.457	0.0190665
805.535	0.0190363
805.613	0.0190285
805.692	0.0189462
805.770	0.0189505
805.848	0.0189666
805.926	0.0188355
806.004	0.0187817
806.082	0.0187115
806.160	0.0185706
806.238	0.0185806
806.317	0.0183616
806.395	0.0184048
806.473	0.0184116
806.551	0.0182790
806.629	0.0181137
806.707	0.0180028
806.785	0.0179501
806.863	0.0177118
806.942	0.0175037
807.020	0.0173075
807.098	0.0173736
807.176	0.0172007
807.254	0.0171360
807.332	0.0167271
807.410	0.0164449
807.488	0.0165413
807.567	0.0163795
807.645	0.0162510
807.723	0.0159554
807.801	0.0158915
807.879	0.0158720
807.957	0.0156868
808.035	0.0155424
808.113	0.0155473
808.192	0.0154530
808.270	0.0155134
808.348	0.0154357
808.426	0.0156149
808.504	0.0156747
808.582	0.0157680
808.660	0.0160015
808.738	0.0162091
808.817	0.0163879
808.895	0.0166126
808.973	0.0168887
809.051	0.0170930
809.129	0.0173276
809.207	0.0175974
809.285	0.0180441
809.363	0.0181329
809.442	0.0181978
809.520	0.0185107
809.598	0.0186946
809.676	0.0188294
809.754	0.0189035
809.832	0.0189474
809.910	0.0191711
809.988	0.0191008
810.067	0.0191559
810.145	0.0193296
810.223	0.0192432
810.301	0.0193126
810.379	0.0193287
810.457	0.0192973
810.535	0.0193616
810.613	0.0192151
810.692	0.0192312
810.770	0.0193118
810.848	0.0191647
810.926	0.0191801
811.004	0.0190509
811.082	0.0190146
811.160	0.0189463
811.238	0.0188300
811.317	0.0188278
811.395	0.0187578
811.473	0.0187158
811.551	0.0183979
811.629	0.0182365
811.707	0.0180806
811.785	0.0179823
811.863	0.0177460
811.942	0.0175816
812.020	0.0174061
812.098	0.0173327
812.176	0.0171346
812.254	0.0170064
812.332	0.0168069
812.410	0.0166864
812.488	0.0165173
812.567	0.0164126
812.645	0.0163974
812.723	0.0162517
812.801	0.0162560
812.879	0.0162769
812.957	0.0162679
813.035	0.0161166
813.113	0.0159985
813.192	0.0161256
813.270	0.0161484
813.348	0.0161863
813.426	0.0162119
813.504	0.0162415
813.582	0.0164147
813.660	0.0164240
813.738	0.0164301
813.817	0.0165340
813.895	0.0166142
813.973	0.0167338
814.051	0.0168855
814.129	0.0168632
814.207	0.0170795
814.285	0.0173020
814.363	0.0173369
814.442	0.0175599
814.520	0.0176553
814.598	0.0179812
814.676	0.0180523
814.754	0.0181902
814.832	0.0184324
814.910	0.0185373
814.988	0.0185727
815.067	0.0186344
815.145	0.0188394
815.223	0.0187866
815.301	0.0188477
815.379	0.0189451
815.457	0.0190610
815.535	0.0190299
815.613	0.0189973
815.692	0.0189709
815.770	0.0190128
815.848	0.0189356
815.926	0.0190395
816.004	0.0190497
816.082	0.0188794
816.160	0.0188800
816.238	0.0187770
816.317	0.0188051
816.395	0.0187671
816.473	0.0186881
816.551	0.0186110
816.629	0.0186185
816.707	0.0184560
816.785	0.0185578
816.863	0.0183173
816.942	0.0183223
817.020	0.0182800
817.098	0.0180300
817.176	0.0180667
817.254	0.0177009
817.332	0.0175768
817.410	0.0174840
817.488	0.0173867
817.567	0.0171764
817.645	0.0170364
817.723	0.0168758
817.801	0.0168347
817.879	0.0167352
817.957	0.0166370
818.035	0.0165242
818.113	0.0164462
818.192	0.0164851
818.270	0.0165526
818.348	0.0165137
818.426	0.0163834
818.504	0.0163459
818.582	0.0163286
818.660	0.0163878
818.738	0.0165029
818.817	0.0166467
818.895	0.0167771
818.973	0.0166241
819.051	0.0166251
819.129	0.0168410
819.207	0.0169501
819.285	0.0168861
819.363	0.0167927
819.442	0.0168909
819.520	0.0170520
819.598	0.0170112
819.676	0.0171037
819.754	0.0171002
819.832	0.0170444
819.910	0.0171830
819.988	0.0172823
820.067	0.0174565
820.145	0.0174305
820.223	0.0175587
820.301	0.0176253
820.379	0.0178221
820.457	0.0178996
820.535	0.0180161
820.613	0.0180685
820.692	0.0181894
820.770	0.0183370
820.848	0.0183953
820.926	0.0185089
821.004	0.0184544
821.082	0.0185844
821.160	0.0187170
821.238	0.0186472
821.317	0.0186963
821.395	0.0188625
821.473	0.0189601
821.551	0.0188425
821.629	0.0189862
821.707	0.0190092
821.785	0.0190471
821.863	0.0190414
821.942	0.0188947
822.020	0.0188565
822.098	0.0187753
822.176	0.0187602
822.254	0.0188289
822.332	0.0187591
822.410	0.0185417
822.488	0.0183749
822.567	0.0183646
822.645	0.0183568
822.723	0.0181309
822.801	0.0180103
822.879	0.0178880
822.957	0.0177650
823.035	0.0177196
823.113	0.0176347
823.192	0.0174160
823.270	0.0172466
823.348	0.0170554
823.426	0.0170502
823.504	0.0170309
823.582	0.0169926
823.660	0.0168479
823.738	0.0168166
823.817	0.0167398
823.895	0.0167265
823.973	0.0166630
824.051	0.0168546
824.129	0.0168425
824.207	0.0168061
824.285	0.0169330
824.363	0.0169362
824.442	0.0169432
824.520	0.0170253
824.598	0.0170971
824.676	0.0170454
824.754	0.0172468
824.832	0.0172787
824.910	0.0173853
824.988	0.0174990
825.067	0.0173666
825.145	0.0173763
825.223	0.0174665
825.301	0.0175404
825.379	0.0174211
825.457	0.0173901
825.535	0.0175828
825.613	0.0174355
825.692	0.0174006
825.770	0.0173570
825.848	0.0173557
825.926	0.0172768
826.004	0.0173234
826.082	0.0174452
826.160	0.0173354
826.238	0.0174607
826.317	0.0175037
826.395	0.0176544
826.473	0.0175501
826.551	0.0177035
826.629	0.0177803
826.707	0.0178000
826.785	0.0178045
826.863	0.0177474
826.942	0.0178175
827.020	0.0180222
827.098	0.0179324
827.176	0.0180997
827.254	0.0182336
827.332	0.0181133
827.410	0.0180855
827.488	0.0180982
827.567	0.0181123
827.645	0.0181851
827.723	0.0181413
827.801	0.0182413
827.879	0.0181824
827.957	0.0181622
828.035	0.0181982
828.113	0.0180798
828.192	0.0180978
828.270	0.0181683
828.348	0.0180692
828.426	0.0181145
828.504	0.0179995
828.582	0.0180077
828.660	0.0178510
828.738	0.0178566
828.817	0.0177684
828.895	0.0179448
828.973	0.0177336
829.051	0.0177549
829.129	0.0176919
829.207	0.0176637
829.285	0.0175765
829.363	0.0176363
829.442	0.0176434
829.520	0.0175798
829.598	0.0174229
829.676	0.0174939
829.754	0.0175277
829.832	0.0175958
829.910	0.0174818
829.988	0.0175693
830.067	0.0175658
830.145	0.0176785
830.223	0.0175610
830.301	0.0177150
830.379	0.0176153
830.457	0.0178565
830.535	0.0179168
830.613	0.0178315
830.692	0.0179739
830.770	0.0178316
830.848	0.0177055
830.926	0.0178184
831.004	0.0178107
831.082	0.0176483
831.160	0.0175744
831.238	0.0174728
831.317	0.0173371
831.395	0.0173978
831.473	0.0173870
831.551	0.0172392
831.629	0.0172234
831.707	0.0171268
831.785	0.0173297
831.863	0.0171192
831.942	0.0171534
832.020	0.0171587
832.098	0.0172278
832.176	0.0174506
832.254	0.0172527
832.332	0.0172479
832.410	0.0174522
832.488	0.0175062
832.567	0.0175446
832.645	0.0175114
832.723	0.0175240
832.801	0.0175332
832.879	0.0176060
832.957	0.0177253
833.035	0.0177428
833.113	0.0177893
833.192	0.0177466
833.270	0.0176294
833.348	0.0175679
833.426	0.0177090
833.504	0.0177106
833.582	0.0175490
833.660	0.0177706
833.738	0.0176937
833.817	0.0176865
833.895	0.0175940
833.973	0.0176028
834.051	0.0177325
834.129	0.0176976
834.207	0.0177713
834.285	0.0177377
834.363	0.0177596
834.442	0.0178628
834.520	0.0178492
834.598	0.0178816
834.676	0.0177717
834.754	0.0179313
834.832	0.0177145
834.910	0.0177958
834.988	0.0176939
835.067	0.0177596
835.145	0.0177865
835.223	0.0176629
835.301	0.0176896
835.379	0.0176604
835.457	0.0176792
835.535	0.0176817
835.613	0.0177776
835.692	0.0178529
835.770	0.0178677
835.848	0.0179346
835.926	0.0178871
836.004	0.0179063
836.082	0.0178370
836.160	0.0179054
836.238	0.0181198
836.317	0.0180097
836.395	0.0179917
836.473	0.0180806
836.551	0.0180917
836.629	0.0179949
836.707	0.0179364
836.785	0.0179532
836.863	0.0179441
836.942	0.0179785
837.020	0.0180714
837.098	0.0180310
837.176	0.0179034
837.254	0.0181391
837.332	0.0179147
837.410	0.0177870
837.488	0.0178345
837.567	0.0176100
837.645	0.0178770
837.723	0.0178458
837.801	0.0176311
837.879	0.0173949
837.957	0.0174586
838.035	0.0174493
838.113	0.0174406
838.192	0.0173548
838.270	0.0171464
838.348	0.0172516
838.426	0.0172408
838.504	0.0171819
838.582	0.0172734
838.660	0.0173517
838.738	0.0173046
838.817	0.0171057
838.895	0.0171420
838.973	0.0172121
839.051	0.0171467
839.129	0.0172146
839.207	0.0173181
839.285	0.0173605
839.363	0.0173008
839.442	0.0173336
839.520	0.0174226
839.598	0.0173429
839.676	0.0175434
839.754	0.0173746
839.832	0.0174639
839.910	0.0175907
839.988	0.0176183
840.067	0.0175578
840.145	0.0175549
840.223	0.0176885
840.301	0.0178442
840.379	0.0177492
840.457	0.0177517
840.535	0.0177623
840.613	0.0178136
840.692	0.0176976
840.770	0.0178812
840.848	0.0178956
840.926	0.0178529
841.004	0.0179271
841.082	0.0179830
841.160	0.0180153
841.238	0.0180381
841.317	0.0180850
841.395	0.0182157
841.473	0.0181496
841.551	0.0181133
841.629	0.0180733
841.707	0.0181960
841.785	0.0181278
841.863	0.0182420
841.942	0.0181779
842.020	0.0181594
842.098	0.0181173
842.176	0.0182818
842.254	0.0180205
842.332	0.0180354
842.410	0.0181916
842.488	0.0180157
842.567	0.0180105
842.645	0.0180700
842.723	0.0179499
842.801	0.0178841
842.879	0.0177204
842.957	0.0179686
843.035	0.0177751
843.113	0.0175420
843.192	0.0175008
843.270	0.0175311
843.348	0.0172820
843.426	0.0173241
843.504	0.0171929
843.582	0.0172208
843.660	0.0170299
843.738	0.0168013
843.817	0.0169086
843.895	0.0167623
843.973	0.0168346
844.051	0.0170186
844.129	0.0168555
844.207	0.0168273
844.285	0.0169129
844.363	0.0169572
844.442	0.0171674
844.520	0.0171613
844.598	0.0171756
844.676	0.0173180
844.754	0.0174628
844.832	0.0174502
844.910	0.0175482
844.988	0.0175845
845.067	0.0177882
845.145	0.0177747
845.223	0.0177538
845.301	0.0179831
845.379	0.0180080
845.457	0.0180047
845.535	0.0179836
845.613	0.0180737
845.692	0.0180329
845.770	0.0181743
845.848	0.0180989
845.926	0.0179550
846.004	0.0180618
846.082	0.0181780
846.160	0.0179677
846.238	0.0178297
846.317	0.0178832
846.395	0.0179180
846.473	0.0179188
846.551	0.0178428
846.629	0.0177947
846.707	0.0177084
846.785	0.0176884
846.863	0.0177173
846.942	0.0178040
847.020	0.0177882
847.098	0.0177282
847.176	0.0176625
847.254	0.0177267
847.332	0.0177935
847.410	0.0177238
847.488	0.0177306
847.567	0.0178182
847.645	0.0178027
847.723	0.0179353
847.801	0.0177914
847.879	0.0177658
847.957	0.0178818
848.035	0.0180540
848.113	0.0178874
848.192	0.0178116
848.270	0.0176861
848.348	0.0176849
848.426	0.0177757
848.504	0.0176777
848.582	0.0177216
848.660	0.0176245
848.738	0.0173905
848.817	0.0175129
848.895	0.0174110
848.973	0.0172105
849.051	0.0171447
849.129	0.0171385
849.207	0.0170835
849.285	0.0170821
849.363	0.0170199
849.442	0.0169386
849.520	0.0170541
849.598	0.0169530
849.676	0.0170237
849.754	0.0170022
849.832	0.0169722
849.910	0.0170712
849.988	0.0173174
850.067	0.0171753
850.145	0.0172555
850.223	0.0174110
850.301	0.0176044
850.379	0.0175694
850.457	0.0176982
850.535	0.0177847
850.613	0.0177826
850.692	0.0178381
850.770	0.0179217
850.848	0.0178857
850.926	0.0180474
851.004	0.0178709
851.082	0.0180773
851.160	0.0179755
851.238	0.0181371
851.317	0.0180602
851.395	0.0179871
851.473	0.0180587
851.551	0.0180363
851.629	0.0180786
851.707	0.0179325
851.785	0.0178925
851.863	0.0179984
851.942	0.0179227
852.020	0.0178684
852.098	0.0178288
852.176	0.0179807
852.254	0.0180278
852.332	0.0179400
852.410	0.0179185
852.488	0.0179128
852.567	0.0178165
852.645	0.0179232
852.723	0.0179146
852.801	0.0178995
852.879	0.0178596
852.957	0.0179119
853.035	0.0179294
853.113	0.0178060
853.192	0.0178302
853.270	0.0177738
853.348	0.0177196
853.426	0.0177451
853.504	0.0175456
853.582	0.0175175
853.660	0.0175423
853.738	0.0174761
853.817	0.0173779
853.895	0.0172829
853.973	0.0173067
854.051	0.0172987
854.129	0.0172735
854.207	0.0172833
854.285	0.0170576
854.363	0.0171849
854.442	0.0173231
854.520	0.0172679
854.598	0.0172755
854.676	0.0171059
854.754	0.0173357
854.832	0.0172262
854.910	0.0172997
854.988	0.0171305
855.067	0.0173759
855.145	0.0172353
855.223	0.0171655
855.301	0.0172039
855.379	0.0174136
855.457	0.0173218
855.535	0.0171927
855.613	0.0173113
855.692	0.0174801
855.770	0.0175115
855.848	0.0175517
855.926	0.0175120
856.004	0.0176575
856.082	0.0178046
856.160	0.0177979
856.238	0.0178083
856.317	0.0180018
856.395	0.0179613
856.473	0.0179705
856.551	0.0180157
856.629	0.0179919
856.707	0.0182600
856.785	0.0181860
856.863	0.0180835
856.942	0.0181526
857.020	0.0182008
857.098	0.0181536
857.176	0.0180209
857.254	0.0181909
857.332	0.0181304
857.410	0.0180315
857.488	0.0179483
857.567	0.0178960
857.645	0.0179790
857.723	0.0179038
857.801	0.0176789
857.879	0.0178779
857.957	0.0178966
858.035	0.0179208
858.113	0.0178349
858.192	0.0179543
858.270	0.0179636
858.348	0.0178528
858.426	0.0178374
858.504	0.0178815
858.582	0.0177907
858.660	0.0178136
858.738	0.0176939
858.817	0.0178835
858.895	0.0176431
858.973	0.0175464
859.051	0.0176276
859.129	0.0175513
859.207	0.0175503
859.285	0.0173825
859.363	0.0173779
859.442	0.0174745
859.520	0.0173721
859.598	0.0172565
859.676	0.0173930
859.754	0.0173318
859.832	0.0171768
859.910	0.0171046
859.988	0.0173083
860.067	0.0171326
860.145	0.0172104
860.223	0.0172788
860.301	0.0171490
860.379	0.0172419
860.457	0.0172912
860.535	0.0171776
860.613	0.0173681
860.692	0.0174255
860.770	0.0175276
860.848	0.0174573
860.926	0.0174261
861.004	0.0174781
861.082	0.0174564
861.160	0.0174792
861.238	0.0176221
861.317	0.0175562
861.395	0.0175156
861.473	0.0176026
861.551	0.0175903
861.629	0.0175106
861.707	0.0176460
861.785	0.0177715
861.863	0.0176482
861.942	0.0177864
862.020	0.0177917
862.098	0.0178314
862.176	0.0178521
862.254	0.0178678
862.332	0.0178549
862.410	0.0178848
862.488	0.0177949
862.567	0.0178396
862.645	0.0178963
862.723	0.0178496
862.801	0.0180148
862.879	0.0180055
862.957	0.0179854
863.035	0.0178782
863.113	0.0179815
863.192	0.0180582
863.270	0.0178288
863.348	0.0177586
863.426	0.0178693
863.504	0.0178994
863.582	0.0179597
863.660	0.0179199
863.738	0.0179352
863.817	0.0178122
863.895	0.0178556
863.973	0.0179621
864.051	0.0179840
864.129	0.0178230
864.207	0.0179585
864.285	0.0178835
864.363	0.0177251
864.442	0.0176606
864.520	0.0179276
864.598	0.0180114
864.676	0.0177659
864.754	0.0176459
864.832	0.0175314
864.910	0.0175287
864.988	0.0176990
865.067	0.0175256
865.145	0.0175311
865.223	0.0175894
865.301	0.0175081
865.379	0.0175449
865.457	0.0175238
865.535	0.0175518
865.613	0.0175345
865.692	0.0174931
865.770	0.0173927
865.848	0.0174020
865.926	0.0173415
866.004	0.0173440
866.082	0.0172388
866.160	0.0172817
866.238	0.0172865
866.317	0.0173414
866.395	0.0173114
866.473	0.0173008
866.551	0.0172912
866.629	0.0171443
866.707	0.0172552
866.785	0.0173070
866.863	0.0174323
866.942	0.0174795
867.020	0.0174907
867.098	0.0172980
867.176	0.0174985
867.254	0.0176611
867.332	0.0175465
867.410	0.0176183
867.488	0.0176538
867.567	0.0176942
867.645	0.0176866
867.723	0.0177342
867.801	0.0177682
867.879	0.0176031
867.957	0.0176645
868.035	0.0175405
868.113	0.0177231
868.192	0.0178436
868.270	0.0178515
868.348	0.0177677
868.426	0.0178555
868.504	0.0176582
868.582	0.0177377
868.660	0.0177407
868.738	0.0177915
868.817	0.0176836
868.895	0.0176743
868.973	0.0176911
869.051	0.0177976
869.129	0.0177560
869.207	0.0178375
869.285	0.0178474
869.363	0.0178284
869.442	0.0178014
869.520	0.0179712
869.598	0.0179498
869.676	0.0178453
869.754	0.0177149
869.832	0.0178627
869.910	0.0178772
869.988	0.0178136
870.067	0.0177729
870.145	0.0180260
870.223	0.0180080
870.301	0.0178415
870.379	0.0179976
870.457	0.0178160
870.535	0.0178420
870.613	0.0177589
870.692	0.0177715
870.770	0.0177409
870.848	0.0177299
870.926	0.0176875
871.004	0.0176135
871.082	0.0175966
871.160	0.0174191
871.238	0.0175393
871.317	0.0174329
871.395	0.0173847
871.473	0.0173627
871.551	0.0172218
871.629	0.0173569
871.707	0.0172243
871.785	0.0171504
871.863	0.0172140
871.942	0.0172887
872.020	0.0171848
872.098	0.0173610
872.176	0.0173650
872.254	0.0173663
872.332	0.0173936
872.410	0.0175266
872.488	0.0175710
872.567	0.0176156
872.645	0.0175389
872.723	0.0175843
872.801	0.0177242
872.879	0.0178045
872.957	0.0177000
873.035	0.0177596
873.113	0.0179179
873.192	0.0177532
873.270	0.0178792
873.348	0.0179440
873.426	0.0179070
873.504	0.0178509
873.582	0.0177180
873.660	0.0176981
873.738	0.0178233
873.817	0.0179047
873.895	0.0179017
873.973	0.0177888
874.051	0.0178513
874.129	0.0178354
874.207	0.0177384
874.285	0.0176814
874.363	0.0177680
874.442	0.0177849
874.520	0.0178086
874.598	0.0177129
874.676	0.0178099
874.754	0.0177691
874.832	0.0177124
874.910	0.0177661
874.988	0.0176646
875.067	0.0177700
875.145	0.0178590
875.223	0.0178011
875.301	0.0178134
875.379	0.0178577
875.457	0.0178120
875.535	0.0177810
875.613	0.0177528
875.692	0.0178713
875.770	0.0178058
875.848	0.0177395
875.926	0.0176939
876.004	0.0176870
876.082	0.0176276
876.160	0.0176979
876.238	0.0174121
876.317	0.0175135
876.395	0.0175037
876.473	0.0174033
876.551	0.0173793
876.629	0.0174434
876.707	0.0174526
876.785	0.0173701
876.863	0.0173392
876.942	0.0173347
877.020	0.0172272
877.098	0.0174485
877.176	0.0172104
877.254	0.0173853
877.332	0.0174429
877.410	0.0176224
877.488	0.0174234
877.567	0.0175174
877.645	0.0175832
877.723	0.0175981
877.801	0.0176301
877.879	0.0176623
877.957	0.0177759
878.035	0.0177371
878.113	0.0176445
878.192	0.0176733
878.270	0.0177866
878.348	0.0177234
878.426	0.0178521
878.504	0.0177696
878.582	0.0178632
878.660	0.0178201
878.738	0.0178680
878.817	0.0178830
878.895	0.0179022
878.973	0.0178938
879.051	0.0179500
879.129	0.0179362
879.207	0.0179613
879.285	0.0178195
879.363	0.0178526
879.442	0.0178580
879.520	0.0179453
879.598	0.0179490
879.676	0.0178202
879.754	0.0178244
879.832	0.0177546
879.910	0.0176640
879.988	0.0176958
880.067	0.0176358
880.145	0.0176226
880.223	0.0176241
880.301	0.0174670
880.379	0.0174404
880.457	0.0175521
880.535	0.0175541
880.613	0.0175877
880.692	0.0176310
880.770	0.0176717
880.848	0.0176616
880.926	0.0177592
881.004	0.0178227
881.082	0.0178396
881.160	0.0177884
881.238	0.0178105
881.317	0.0178356
881.395	0.0179688
881.473	0.0179550
881.551	0.0178500
881.629	0.0177806
881.707	0.0178378
881.785	0.0177697
881.863	0.0177354
881.942	0.0177332
882.020	0.0175553
882.098	0.0174697
882.176	0.0174565
882.254	0.0176107
882.332	0.0176791
882.410	0.0175198
882.488	0.0175470
882.567	0.0175195
882.645	0.0173915
882.723	0.0173605
882.801	0.0174046
882.879	0.0175299
882.957	0.0174991
883.035	0.0174957
883.113	0.0173748
883.192	0.0173923
883.270	0.0175258
883.348	0.0174081
883.426	0.0175870
883.504	0.0174421
883.582	0.0175854
883.660	0.0176066
883.738	0.0177345
883.817	0.0176588
883.895	0.0177238
883.973	0.0178635
884.051	0.0178707
884.129	0.0179788
884.207	0.0177583
884.285	0.0177318
884.363	0.0177819
884.442	0.0178311
884.520	0.0177116
884.598	0.0176620
884.676	0.0176575
884.754	0.0176737
884.832	0.0176648
884.910	0.0177546
884.988	0.0176943
885.067	0.0177464
885.145	0.0176414
885.223	0.0176522
885.301	0.0177833
885.379	0.0177914
885.457	0.0179269
885.535	0.0178352
885.613	0.0179213
885.692	0.0179597
885.770	0.0179677
885.848	0.0180772
885.926	0.0180070
886.004	0.0181277
886.082	0.0179789
886.160	0.0181013
886.238	0.0180061
886.317	0.0179288
886.395	0.0179253
886.473	0.0179081
886.551	0.0179153
886.629	0.0177603
886.707	0.0178986
886.785	0.0178829
886.863	0.0179067
886.942	0.0177638
887.020	0.0178748
887.098	0.0176546
887.176	0.0176643
887.254	0.0175861
887.332	0.0175755
887.410	0.0174923
887.488	0.0173882
887.567	0.0173918
887.645	0.0173009
887.723	0.0173649
887.801	0.0172719
887.879	0.0173591
887.957	0.0174271
888.035	0.0171649
888.113	0.0172107
888.192	0.0172988
888.270	0.0172755
888.348	0.0173483
888.426	0.0175187
888.504	0.0175061
888.582	0.0175748
888.660	0.0175008
888.738	0.0175595
888.817	0.0175309
888.895	0.0176118
888.973	0.0175572
889.051	0.0177030
889.129	0.0176527
889.207	0.0177680
889.285	0.0178490
889.363	0.0177215
889.442	0.0178284
889.520	0.0180288
889.598	0.0178729
889.676	0.0179548
889.754	0.0179575
889.832	0.0181611
889.910	0.0180316
889.988	0.0181588
890.067	0.0181448
890.145	0.0180846
890.223	0.0181436
890.301	0.0180896
890.379	0.0180478
890.457	0.0180369
890.535	0.0180505
890.613	0.0179476
890.692	0.0179049
890.770	0.0180125
890.848	0.0177886
890.926	0.0178029
891.004	0.0176242
891.082	0.0177201
891.160	0.0176952
891.238	0.0175934
891.317	0.0175529
891.395	0.0176492
891.473	0.0175142
891.551	0.0175665
891.629	0.0176064
891.707	0.0174717
891.785	0.0173344
891.863	0.0174675
891.942	0.0173700
892.020	0.0173563
892.098	0.0172128
892.176	0.0171336
892.254	0.0171477
892.332	0.0171535
892.410	0.0171012
892.488	0.0171499
892.567	0.0170190
892.645	0.0169321
892.723	0.0171118
892.801	0.0171722
892.879	0.0171336
892.957	0.0173280
893.035	0.0173103
893.113	0.0172793
893.192	0.0173260
893.270	0.0176646
893.348	0.0177220
893.426	0.0178220
893.504	0.0178756
893.582	0.0180113
893.660	0.0180984
893.738	0.0182485
893.817	0.0182780
893.895	0.0183173
893.973	0.0183865
894.051	0.0183101
894.129	0.0184556
894.207	0.0184811
894.285	0.0182233
894.363	0.0182763
894.442	0.0180894
894.520	0.0181211
894.598	0.0181898
894.676	0.0180650
894.754	0.0180055
894.832	0.0178584
894.910	0.0178121
894.988	0.0176974
895.067	0.0176016
895.145	0.0177743
895.223	0.0177571
895.301	0.0176036
895.379	0.0176669
895.457	0.0177324
895.535	0.0177042
895.613	0.0177856
895.692	0.0178603
895.770	0.0177121
895.848	0.0177615
895.926	0.0177509
896.004	0.0179618
896.082	0.0179917
896.160	0.0179522
896.238	0.0178752
896.317	0.0181338
896.395	0.0181268
896.473	0.0180972
896.551	0.0181398
896.629	0.0178293
896.707	0.0180304
896.785	0.0179844
896.863	0.0179172
896.942	0.0178563
897.020	0.0177161
897.098	0.0177224
897.176	0.0175520
897.254	0.0175170
897.332	0.0174320
897.410	0.0174396
897.488	0.0171807
897.567	0.0170900
897.645	0.0169630
897.723	0.0170090
897.801	0.0170223
897.879	0.0169684
897.957	0.0167217
898.035	0.0167888
898.113	0.0167448
898.192	0.0167776
898.270	0.0168410
898.348	0.0169730
898.426	0.0170190
898.504	0.0170659
898.582	0.0171825
898.660	0.0174023
898.738	0.0174812
898.817	0.0176997
898.895	0.0179312
898.973	0.0178529
899.051	0.0179288
899.129	0.0180680
899.207	0.0182263
899.285	0.0183163
899.363	0.0181660
899.442	0.0180167
899.520	0.0180560
899.598	0.0182928
899.676	0.0183168
899.754	0.0180589
899.832	0.0180769
899.910	0.0180063
899.988	0.0179769
900.067	0.0181103
900.145	0.0178497
900.223	0.0177460
900.301	0.0179654
900.379	0.0179510
900.457	0.0177688
900.535	0.0178525
900.613	0.0177574
900.692	0.0176831
900.770	0.0176084
900.848	0.0176527
900.926	0.0176684
901.004	0.0175392
901.082	0.0177177
901.160	0.0176814
901.238	0.0178159
901.317	0.0177599
901.395	0.0179270
901.473	0.0179949
901.551	0.0182227
901.629	0.0180273
901.707	0.0180839
901.785	0.0180392
901.863	0.0180907
901.942	0.0179922
902.020	0.0180284
902.098	0.0181742
902.176	0.0180399
902.254	0.0177400
902.332	0.0178359
902.410	0.0177830
902.488	0.0175672
902.567	0.0174595
902.645	0.0173418
902.723	0.0174697
902.801	0.0172203
902.879	0.0170662
902.957	0.0169332
903.035	0.0168542
903.113	0.0170682
903.192	0.0170041
903.270	0.0168365
903.348	0.0168884
903.426	0.0170550
903.504	0.0170831
903.582	0.0170518
903.660	0.0169966
903.738	0.0171748
903.817	0.0173328
903.895	0.0172803
903.973	0.0174599
904.051	0.0177451
904.129	0.0176366
904.207	0.0179971
904.285	0.0180324
904.363	0.0181544
904.442	0.0182060
904.520	0.0183868
904.598	0.0183221
904.676	0.0183022
904.754	0.0184100
904.832	0.0181766
904.910	0.0182031
904.988	0.0182821
905.067	0.0182101
905.145	0.0180851
905.223	0.0180052
905.301	0.0179347
905.379	0.0178997
905.457	0.0177955
905.535	0.0177897
905.613	0.0176982
905.692	0.0175815
905.770	0.0175800
905.848	0.0174839
905.926	0.0175666
906.004	0.0174654
906.082	0.0173859
906.160	0.0175556
906.238	0.0175661
906.317	0.0175656
906.395	0.0175758
906.473	0.0176295
906.551	0.0177048
906.629	0.0176112
906.707	0.0177470
906.785	0.0175105
906.863	0.0177253
906.942	0.0175645
907.020	0.0176013
907.098	0.0175429
907.176	0.0176452
907.254	0.0175370
907.332	0.0176187
907.410	0.0175259
907.488	0.0174799
907.567	0.0175056
907.645	0.0174084
907.723	0.0176102
907.801	0.0174453
907.879	0.0174587
907.957	0.0174632
908.035	0.0173900
908.113	0.0173835
908.192	0.0174130
908.270	0.0174020
908.348	0.0174457
908.426	0.0175547
908.504	0.0176614
908.582	0.0178038
908.660	0.0177264
908.738	0.0177504
908.817	0.0177620
908.895	0.0177865
908.973	0.0177621
909.051	0.0178506
909.129	0.0179727
909.207	0.0178352
909.285	0.0178709
909.363	0.0179472
909.442	0.0178580
909.520	0.0179150
909.598	0.0177514
909.676	0.0178804
909.754	0.0179091
909.832	0.0179209
909.910	0.0180096
909.988	0.0180255
910.067	0.0179358
910.145	0.0180143
910.223	0.0180817
910.301	0.0182076
910.379	0.0179346
910.457	0.0179462
910.535	0.0178203
910.613	0.0178625
910.692	0.0177870
910.770	0.0177441
910.848	0.0176092
910.926	0.0175437
911.004	0.0174905
911.082	0.0174500
911.160	0.0174574
911.238	0.0172749
911.317	0.0173457
911.395	0.0174168
911.473	0.0174084
911.551	0.0175417
911.629	0.0177026
911.707	0.0176141
911.785	0.0177164
911.863	0.0177285
911.942	0.0176845
912.020	0.0175926
912.098	0.0178059
912.176	0.0178036
912.254	0.0178099
912.332	0.0177597
912.410	0.0178101
912.488	0.0177092
912.567	0.0175780
912.645	0.0175916
912.723	0.0174416
912.801	0.0174572
912.879	0.0174728
912.957	0.0172762
913.035	0.0171848
913.113	0.0172543
913.192	0.0170722
913.270	0.0172443
913.348	0.0173361
913.426	0.0173022
913.504	0.0173584
913.582	0.0173381
913.660	0.0175661
913.738	0.0176073
913.817	0.0175177
913.895	0.0177254
913.973	0.0178341
914.051	0.0179053
914.129	0.0180578
914.207	0.0179631
914.285	0.0178239
914.363	0.0180649
914.442	0.0179353
914.520	0.0179071
914.598	0.0178776
914.676	0.0179532
914.754	0.0178555
914.832	0.0178426
914.910	0.0178383
914.988	0.0178851
915.067	0.0178940
915.145	0.0177632
915.223	0.0177619
915.301	0.0179462
915.379	0.0177481
915.457	0.0178629
915.535	0.0176895
915.613	0.0178906
915.692	0.0178066
915.770	0.0178627
915.848	0.0177665
915.926	0.0176774
916.004	0.0176260
916.082	0.0175626
916.160	0.0176951
916.238	0.0174697
916.317	0.0174574
916.395	0.0176012
916.473	0.0174197
916.551	0.0175439
916.629	0.0177354
916.707	0.0176134
916.785	0.0176568
916.863	0.0176654
916.942	0.0178866
917.020	0.0179247
917.098	0.0178326
917.176	0.0179037
917.254	0.0180813
917.332	0.0180123
917.410	0.0180405
917.488	0.0180748
917.567	0.0180446
917.645	0.0180900
917.723	0.0180225
917.801	0.0180230
917.879	0.0179209
917.957	0.0176950
918.035	0.0176728
918.113	0.0175287
918.192	0.0174693
918.270	0.0174996
918.348	0.0172865
918.426	0.0172366
918.504	0.0172895
918.582	0.0172520
918.660	0.0172346
918.738	0.0172720
918.817	0.0173505
918.895	0.0173669
918.973	0.0174888
919.051	0.0174820
919.129	0.0175144
919.207	0.0175429
919.285	0.0176109
919.363	0.0176967
919.442	0.0176550
919.520	0.0177003
919.598	0.0177094
919.676	0.0177543
919.754	0.0177600
919.832	0.0175157
919.910	0.0176194
