06/01/2022	21:44:58	Ver.	4.1	UNKNOWN
Optical Delay	599.988409	Delta X		0.078125	Sweeps	1	Scan Rate	0/0
Coordinates	Axis 1	NaN	Axis 2	NaN	Axis 3	NaN	Axis 4	NaN	Axis 5	NaN	Axis 6	0.000000
TX Power	0.000000	RX Power	0.000000

599.988	0.0173159
600.067	0.0173138
600.145	0.0173521
600.223	0.0174303
600.301	0.0172627
600.379	0.0173605
600.457	0.0173261
600.535	0.0173728
600.613	0.0173293
600.692	0.0172802
600.770	0.0173454
600.848	0.0173298
600.926	0.0173592
601.004	0.0174823
601.082	0.0173634
601.160	0.0173356
601.238	0.0174481
601.317	0.0173417
601.395	0.0174384
601.473	0.0173135
601.551	0.0172070
601.629	0.0174229
601.707	0.0174010
601.785	0.0173445
601.863	0.0173924
601.942	0.0174133
602.020	0.0173096
602.098	0.0173000
602.176	0.0174602
602.254	0.0173164
602.332	0.0173171
602.410	0.0173059
602.488	0.0172836
602.567	0.0174126
602.645	0.0172846
602.723	0.0173959
602.801	0.0172995
602.879	0.0172778
602.957	0.0172328
603.035	0.0172931
603.113	0.0172467
603.192	0.0173045
603.270	0.0172792
603.348	0.0172193
603.426	0.0172704
603.504	0.0172385
603.582	0.0173042
603.660	0.0174067
603.738	0.0173755
603.817	0.0173285
603.895	0.0173361
603.973	0.0173458
604.051	0.0172237
604.129	0.0173655
604.207	0.0173721
604.285	0.0173359
604.363	0.0173577
604.442	0.0172273
604.520	0.0173895
604.598	0.0172831
604.676	0.0173277
604.754	0.0174055
604.832	0.0172808
604.910	0.0173644
604.988	0.0174427
605.067	0.0172910
605.145	0.0174281
605.223	0.0172421
605.301	0.0173699
605.379	0.0174135
605.457	0.0173330
605.535	0.0173384
605.613	0.0171851
605.692	0.0175680
605.770	0.0175747
605.848	0.0172823
605.926	0.0173477
606.004	0.0175105
606.082	0.0172935
606.160	0.0173190
606.238	0.0174104
606.317	0.0173926
606.395	0.0173294
606.473	0.0172182
606.551	0.0174221
606.629	0.0173503
606.707	0.0174841
606.785	0.0175087
606.863	0.0172458
606.942	0.0173093
607.020	0.0172930
607.098	0.0173577
607.176	0.0173925
607.254	0.0174531
607.332	0.0172754
607.410	0.0171896
607.488	0.0173480
607.567	0.0174007
607.645	0.0174471
607.723	0.0172973
607.801	0.0173341
607.879	0.0173372
607.957	0.0172086
608.035	0.0172461
608.113	0.0173948
608.192	0.0174117
608.270	0.0172990
608.348	0.0173380
608.426	0.0174242
608.504	0.0173389
608.582	0.0173932
608.660	0.0174362
608.738	0.0173662
608.817	0.0174613
608.895	0.0174531
608.973	0.0173524
609.051	0.0172623
609.129	0.0173764
609.207	0.0174794
609.285	0.0173434
609.363	0.0173658
609.442	0.0174049
609.520	0.0174103
609.598	0.0172809
609.676	0.0172832
609.754	0.0172734
609.832	0.0173854
609.910	0.0173963
609.988	0.0172788
610.067	0.0173074
610.145	0.0173907
610.223	0.0171828
610.301	0.0174201
610.379	0.0172353
610.457	0.0171673
610.535	0.0173966
610.613	0.0173997
610.692	0.0173401
610.770	0.0173424
610.848	0.0173319
610.926	0.0172289
611.004	0.0173339
611.082	0.0172008
611.160	0.0172395
611.238	0.0173619
611.317	0.0172672
611.395	0.0173777
611.473	0.0171984
611.551	0.0173852
611.629	0.0174192
611.707	0.0173418
611.785	0.0174415
611.863	0.0174039
611.942	0.0173328
612.020	0.0173670
612.098	0.0174061
612.176	0.0174091
612.254	0.0173141
612.332	0.0173663
612.410	0.0172886
612.488	0.0173768
612.567	0.0173611
612.645	0.0172075
612.723	0.0172693
612.801	0.0173333
612.879	0.0174767
612.957	0.0174388
613.035	0.0172215
613.113	0.0172458
613.192	0.0173738
613.270	0.0173582
613.348	0.0173488
613.426	0.0173655
613.504	0.0172931
613.582	0.0172971
613.660	0.0173927
613.738	0.0173450
613.817	0.0173858
613.895	0.0173785
613.973	0.0173820
614.051	0.0173987
614.129	0.0173316
614.207	0.0174677
614.285	0.0173081
614.363	0.0173613
614.442	0.0172660
614.520	0.0174084
614.598	0.0174759
614.676	0.0174281
614.754	0.0174345
614.832	0.0173008
614.910	0.0172631
614.988	0.0173732
615.067	0.0173359
615.145	0.0173100
615.223	0.0174391
615.301	0.0172890
615.379	0.0173547
615.457	0.0174644
615.535	0.0173238
615.613	0.0173940
615.692	0.0173660
615.770	0.0174185
615.848	0.0174137
615.926	0.0172787
616.004	0.0173142
616.082	0.0173743
616.160	0.0175287
616.238	0.0172777
616.317	0.0173407
616.395	0.0174153
616.473	0.0173170
616.551	0.0173426
616.629	0.0174284
616.707	0.0174354
616.785	0.0174211
616.863	0.0173100
616.942	0.0172924
617.020	0.0174297
617.098	0.0173965
617.176	0.0173261
617.254	0.0173591
617.332	0.0174465
617.410	0.0174054
617.488	0.0173624
617.567	0.0172649
617.645	0.0172953
617.723	0.0174146
617.801	0.0174648
617.879	0.0172093
617.957	0.0171915
618.035	0.0174071
618.113	0.0172953
618.192	0.0173631
618.270	0.0172224
618.348	0.0172358
618.426	0.0173195
618.504	0.0173234
618.582	0.0173425
618.660	0.0172212
618.738	0.0173832
618.817	0.0174548
618.895	0.0173970
618.973	0.0174626
619.051	0.0173658
619.129	0.0172266
619.207	0.0174426
619.285	0.0173525
619.363	0.0174401
619.442	0.0174120
619.520	0.0173584
619.598	0.0174273
619.676	0.0174166
619.754	0.0174211
619.832	0.0173991
619.910	0.0173662
619.988	0.0174001
620.067	0.0174289
620.145	0.0174827
620.223	0.0173672
620.301	0.0174380
620.379	0.0174825
620.457	0.0174145
620.535	0.0172174
620.613	0.0173538
620.692	0.0174813
620.770	0.0174245
620.848	0.0173631
620.926	0.0173418
621.004	0.0174009
621.082	0.0173632
621.160	0.0173167
621.238	0.0172636
621.317	0.0172857
621.395	0.0172824
621.473	0.0173661
621.551	0.0173514
621.629	0.0173257
621.707	0.0173231
621.785	0.0171431
621.863	0.0172376
621.942	0.0172699
622.020	0.0174307
622.098	0.0172834
622.176	0.0174076
622.254	0.0173538
622.332	0.0172549
622.410	0.0172270
622.488	0.0173110
622.567	0.0174014
622.645	0.0172458
622.723	0.0174881
622.801	0.0173029
622.879	0.0173058
622.957	0.0172399
623.035	0.0175096
623.113	0.0173831
623.192	0.0173250
623.270	0.0173980
623.348	0.0172406
623.426	0.0173602
623.504	0.0172971
623.582	0.0172469
623.660	0.0173327
623.738	0.0172891
623.817	0.0173811
623.895	0.0173277
623.973	0.0173361
624.051	0.0173928
624.129	0.0173402
624.207	0.0172321
624.285	0.0172845
624.363	0.0173250
624.442	0.0172869
624.520	0.0173929
624.598	0.0174021
624.676	0.0174209
624.754	0.0173750
624.832	0.0173268
624.910	0.0173120
624.988	0.0173293
625.067	0.0174061
625.145	0.0174296
625.223	0.0173522
625.301	0.0172803
625.379	0.0173076
625.457	0.0173994
625.535	0.0173946
625.613	0.0173279
625.692	0.0173686
625.770	0.0173998
625.848	0.0172688
625.926	0.0173412
626.004	0.0173187
626.082	0.0171749
626.160	0.0171708
626.238	0.0172345
626.317	0.0173552
626.395	0.0174548
626.473	0.0173383
626.551	0.0173014
626.629	0.0172800
626.707	0.0172823
626.785	0.0173151
626.863	0.0172360
626.942	0.0172731
627.020	0.0172781
627.098	0.0172023
627.176	0.0173029
627.254	0.0173845
627.332	0.0173869
627.410	0.0172590
627.488	0.0172658
627.567	0.0172532
627.645	0.0172951
627.723	0.0173521
627.801	0.0173377
627.879	0.0174203
627.957	0.0172957
628.035	0.0173672
628.113	0.0173399
628.192	0.0173296
628.270	0.0174043
628.348	0.0173083
628.426	0.0174026
628.504	0.0174743
628.582	0.0174770
628.660	0.0173499
628.738	0.0172346
628.817	0.0172884
628.895	0.0173738
628.973	0.0173746
629.051	0.0172305
629.129	0.0172424
629.207	0.0173500
629.285	0.0174797
629.363	0.0174891
629.442	0.0173548
629.520	0.0172475
629.598	0.0173364
629.676	0.0173642
629.754	0.0173730
629.832	0.0172882
629.910	0.0173340
629.988	0.0173173
630.067	0.0173945
630.145	0.0173087
630.223	0.0173640
630.301	0.0173850
630.379	0.0173180
630.457	0.0174679
630.535	0.0174649
630.613	0.0173153
630.692	0.0172775
630.770	0.0173095
630.848	0.0174281
630.926	0.0173620
631.004	0.0173400
631.082	0.0172594
631.160	0.0171887
631.238	0.0173578
631.317	0.0172911
631.395	0.0174410
631.473	0.0174043
631.551	0.0172948
631.629	0.0173218
631.707	0.0172930
631.785	0.0173449
631.863	0.0173001
631.942	0.0171923
632.020	0.0173115
632.098	0.0173278
632.176	0.0173881
632.254	0.0172224
632.332	0.0172749
632.410	0.0174281
632.488	0.0172931
632.567	0.0172554
632.645	0.0172073
632.723	0.0173227
632.801	0.0173534
632.879	0.0171832
632.957	0.0170978
633.035	0.0173770
633.113	0.0172964
633.192	0.0173731
633.270	0.0173594
633.348	0.0172699
633.426	0.0174550
633.504	0.0173988
633.582	0.0174377
633.660	0.0173899
633.738	0.0173843
633.817	0.0174651
633.895	0.0173664
633.973	0.0172407
634.051	0.0174660
634.129	0.0173248
634.207	0.0174390
634.285	0.0173428
634.363	0.0174686
634.442	0.0174574
634.520	0.0173053
634.598	0.0173918
634.676	0.0173639
634.754	0.0173590
634.832	0.0174908
634.910	0.0173296
634.988	0.0173338
635.067	0.0174327
635.145	0.0172615
635.223	0.0173756
635.301	0.0172649
635.379	0.0174506
635.457	0.0173987
635.535	0.0172990
635.613	0.0173394
635.692	0.0173592
635.770	0.0172226
635.848	0.0172826
635.926	0.0173262
636.004	0.0172574
636.082	0.0174280
636.160	0.0171944
636.238	0.0173757
636.317	0.0173806
636.395	0.0173438
636.473	0.0173049
636.551	0.0172781
636.629	0.0173882
636.707	0.0172943
636.785	0.0173723
636.863	0.0173044
636.942	0.0172870
637.020	0.0171838
637.098	0.0174794
637.176	0.0173544
637.254	0.0172833
637.332	0.0173248
637.410	0.0173516
637.488	0.0172904
637.567	0.0174747
637.645	0.0172346
637.723	0.0171696
637.801	0.0172750
637.879	0.0172623
637.957	0.0172355
638.035	0.0172913
638.113	0.0172311
638.192	0.0171543
638.270	0.0172640
638.348	0.0172963
638.426	0.0173218
638.504	0.0173231
638.582	0.0174095
638.660	0.0173949
638.738	0.0172987
638.817	0.0172630
638.895	0.0173680
638.973	0.0173425
639.051	0.0173379
639.129	0.0173148
639.207	0.0174667
639.285	0.0173757
639.363	0.0174087
639.442	0.0174195
639.520	0.0173716
639.598	0.0174953
639.676	0.0173895
639.754	0.0173190
639.832	0.0174770
639.910	0.0174919
639.988	0.0173257
640.067	0.0174612
640.145	0.0173986
640.223	0.0173559
640.301	0.0172718
640.379	0.0172968
640.457	0.0172896
640.535	0.0172870
640.613	0.0174812
640.692	0.0174547
640.770	0.0174236
640.848	0.0173762
640.926	0.0171922
641.004	0.0173764
641.082	0.0175259
641.160	0.0173442
641.238	0.0173261
641.317	0.0174010
641.395	0.0172372
641.473	0.0172811
641.551	0.0174111
641.629	0.0174670
641.707	0.0172717
641.785	0.0174278
641.863	0.0173912
641.942	0.0171246
642.020	0.0172740
642.098	0.0172680
642.176	0.0172859
642.254	0.0174314
642.332	0.0173416
642.410	0.0173131
642.488	0.0173501
642.567	0.0173218
642.645	0.0172933
642.723	0.0172736
642.801	0.0173092
642.879	0.0174859
642.957	0.0173774
643.035	0.0172992
643.113	0.0173790
643.192	0.0174068
643.270	0.0174026
643.348	0.0174741
643.426	0.0173939
643.504	0.0173856
643.582	0.0173175
643.660	0.0173477
643.738	0.0173112
643.817	0.0172666
643.895	0.0173952
643.973	0.0173511
644.051	0.0173569
644.129	0.0173951
644.207	0.0173710
644.285	0.0173346
644.363	0.0174294
644.442	0.0173566
644.520	0.0173825
644.598	0.0173997
644.676	0.0173360
644.754	0.0172359
644.832	0.0173918
644.910	0.0173396
644.988	0.0174094
645.067	0.0172488
645.145	0.0173564
645.223	0.0174778
645.301	0.0173721
645.379	0.0172987
645.457	0.0174342
645.535	0.0174057
645.613	0.0172572
645.692	0.0172980
645.770	0.0174629
645.848	0.0173746
645.926	0.0173228
646.004	0.0175385
646.082	0.0174018
646.160	0.0173737
646.238	0.0172980
646.317	0.0173579
646.395	0.0173766
646.473	0.0172890
646.551	0.0175017
646.629	0.0174406
646.707	0.0172524
646.785	0.0174387
646.863	0.0175709
646.942	0.0173434
647.020	0.0174202
647.098	0.0172585
647.176	0.0173498
647.254	0.0173364
647.332	0.0172941
647.410	0.0174667
647.488	0.0173717
647.567	0.0173608
647.645	0.0172919
647.723	0.0173952
647.801	0.0171519
647.879	0.0173320
647.957	0.0173264
648.035	0.0173257
648.113	0.0173716
648.192	0.0171686
648.270	0.0175503
648.348	0.0173254
648.426	0.0171780
648.504	0.0172890
648.582	0.0173973
648.660	0.0171815
648.738	0.0172203
648.817	0.0173573
648.895	0.0173361
648.973	0.0172942
649.051	0.0174350
649.129	0.0173065
649.207	0.0171140
649.285	0.0173378
649.363	0.0174647
649.442	0.0173642
649.520	0.0172424
649.598	0.0174281
649.676	0.0174917
649.754	0.0173135
649.832	0.0172562
649.910	0.0172852
649.988	0.0173408
650.067	0.0173186
650.145	0.0172568
650.223	0.0174843
650.301	0.0172794
650.379	0.0174319
650.457	0.0173048
650.535	0.0173414
650.613	0.0172958
650.692	0.0172426
650.770	0.0175231
650.848	0.0174133
650.926	0.0172461
651.004	0.0173383
651.082	0.0174689
651.160	0.0173830
651.238	0.0174725
651.317	0.0174253
651.395	0.0173853
651.473	0.0175411
651.551	0.0174693
651.629	0.0174419
651.707	0.0174563
651.785	0.0174265
651.863	0.0173872
651.942	0.0173058
652.020	0.0172948
652.098	0.0173895
652.176	0.0174560
652.254	0.0174153
652.332	0.0174569
652.410	0.0174093
652.488	0.0173585
652.567	0.0173808
652.645	0.0173289
652.723	0.0172263
652.801	0.0174775
652.879	0.0174793
652.957	0.0173678
653.035	0.0174397
653.113	0.0174660
653.192	0.0174664
653.270	0.0173275
653.348	0.0173760
653.426	0.0173491
653.504	0.0174837
653.582	0.0173512
653.660	0.0173235
653.738	0.0173006
653.817	0.0172515
653.895	0.0173769
653.973	0.0173615
654.051	0.0172833
654.129	0.0174073
654.207	0.0173119
654.285	0.0173889
654.363	0.0172703
654.442	0.0173479
654.520	0.0172501
654.598	0.0173544
654.676	0.0173198
654.754	0.0174833
654.832	0.0174075
654.910	0.0172772
654.988	0.0172773
655.067	0.0173051
655.145	0.0174036
655.223	0.0172861
655.301	0.0172191
655.379	0.0172779
655.457	0.0172411
655.535	0.0173774
655.613	0.0173621
655.692	0.0173144
655.770	0.0173059
655.848	0.0173559
655.926	0.0173782
656.004	0.0173684
656.082	0.0173306
656.160	0.0173709
656.238	0.0172544
656.317	0.0174499
656.395	0.0174538
656.473	0.0172492
656.551	0.0172453
656.629	0.0174424
656.707	0.0173647
656.785	0.0175267
656.863	0.0172575
656.942	0.0173494
657.020	0.0172578
657.098	0.0172888
657.176	0.0172885
657.254	0.0172712
657.332	0.0173023
657.410	0.0174274
657.488	0.0173777
657.567	0.0172938
657.645	0.0173151
657.723	0.0174431
657.801	0.0174531
657.879	0.0173940
657.957	0.0173705
658.035	0.0173366
658.113	0.0173409
658.192	0.0173776
658.270	0.0173304
658.348	0.0173695
658.426	0.0172885
658.504	0.0172993
658.582	0.0174250
658.660	0.0174609
658.738	0.0174730
658.817	0.0172779
658.895	0.0173816
658.973	0.0172668
659.051	0.0174294
659.129	0.0173885
659.207	0.0173595
659.285	0.0173655
659.363	0.0174290
659.442	0.0173274
659.520	0.0173619
659.598	0.0173597
659.676	0.0173093
659.754	0.0173298
659.832	0.0173447
659.910	0.0173425
659.988	0.0173267
660.067	0.0172607
660.145	0.0172102
660.223	0.0173470
660.301	0.0173406
660.379	0.0174090
660.457	0.0174702
660.535	0.0175985
660.613	0.0174368
660.692	0.0174978
660.770	0.0174247
660.848	0.0173898
660.926	0.0173697
661.004	0.0173033
661.082	0.0173091
661.160	0.0173264
661.238	0.0173556
661.317	0.0174354
661.395	0.0172867
661.473	0.0172892
661.551	0.0173656
661.629	0.0172604
661.707	0.0172839
661.785	0.0172482
661.863	0.0173896
661.942	0.0173237
662.020	0.0174025
662.098	0.0173503
662.176	0.0173135
662.254	0.0174334
662.332	0.0174532
662.410	0.0175053
662.488	0.0174645
662.567	0.0175494
662.645	0.0174702
662.723	0.0174071
662.801	0.0173720
662.879	0.0172440
662.957	0.0173650
663.035	0.0174586
663.113	0.0172794
663.192	0.0171346
663.270	0.0172587
663.348	0.0173432
663.426	0.0173426
663.504	0.0172231
663.582	0.0170743
663.660	0.0173137
663.738	0.0174886
663.817	0.0174413
663.895	0.0174299
663.973	0.0173051
664.051	0.0174504
664.129	0.0173496
664.207	0.0175289
664.285	0.0175320
664.363	0.0173597
664.442	0.0175066
664.520	0.0174237
664.598	0.0173619
664.676	0.0173545
664.754	0.0173053
664.832	0.0171967
664.910	0.0171388
664.988	0.0171985
665.067	0.0172223
665.145	0.0174096
665.223	0.0172064
665.301	0.0171871
665.379	0.0171686
665.457	0.0171567
665.535	0.0172505
665.613	0.0172797
665.692	0.0172470
665.770	0.0173542
665.848	0.0174151
665.926	0.0175155
666.004	0.0174519
666.082	0.0174583
666.160	0.0174052
666.238	0.0175478
666.317	0.0174665
666.395	0.0174821
666.473	0.0174603
666.551	0.0174342
666.629	0.0172857
666.707	0.0173847
666.785	0.0173534
666.863	0.0172872
666.942	0.0173251
667.020	0.0172765
667.098	0.0172185
667.176	0.0173492
667.254	0.0172591
667.332	0.0172759
667.410	0.0173019
667.488	0.0172765
667.567	0.0172964
667.645	0.0172170
667.723	0.0173306
667.801	0.0175291
667.879	0.0173581
667.957	0.0173917
668.035	0.0174659
668.113	0.0174625
668.192	0.0174451
668.270	0.0175285
668.348	0.0174467
668.426	0.0175159
668.504	0.0174588
668.582	0.0174258
668.660	0.0174264
668.738	0.0174118
668.817	0.0174342
668.895	0.0173974
668.973	0.0173566
669.051	0.0171458
669.129	0.0170997
669.207	0.0171517
669.285	0.0171599
669.363	0.0172794
669.442	0.0172063
669.520	0.0171764
669.598	0.0172608
669.676	0.0173768
669.754	0.0174277
669.832	0.0174826
669.910	0.0175101
669.988	0.0175539
670.067	0.0175054
670.145	0.0175848
670.223	0.0175463
670.301	0.0175138
670.379	0.0174378
670.457	0.0174755
670.535	0.0174477
670.613	0.0172827
670.692	0.0173974
670.770	0.0172135
670.848	0.0172058
670.926	0.0173777
671.004	0.0171362
671.082	0.0171484
671.160	0.0172793
671.238	0.0170815
671.317	0.0171795
671.395	0.0171674
671.473	0.0171670
671.551	0.0172705
671.629	0.0173543
671.707	0.0174444
671.785	0.0175320
671.863	0.0174564
671.942	0.0175404
672.020	0.0175875
672.098	0.0175133
672.176	0.0175681
672.254	0.0175311
672.332	0.0175114
672.410	0.0176259
672.488	0.0175042
672.567	0.0173998
672.645	0.0173997
672.723	0.0172529
672.801	0.0173702
672.879	0.0174396
672.957	0.0172804
673.035	0.0173667
673.113	0.0172491
673.192	0.0173013
673.270	0.0172196
673.348	0.0171957
673.426	0.0172730
673.504	0.0173441
673.582	0.0174403
673.660	0.0172993
673.738	0.0173477
673.817	0.0174570
673.895	0.0173121
673.973	0.0173773
674.051	0.0173672
674.129	0.0172758
674.207	0.0172710
674.285	0.0172708
674.363	0.0171867
674.442	0.0173147
674.520	0.0173876
674.598	0.0173119
674.676	0.0173550
674.754	0.0173508
674.832	0.0171477
674.910	0.0172837
674.988	0.0172860
675.067	0.0173196
675.145	0.0173566
675.223	0.0172495
675.301	0.0173409
675.379	0.0171873
675.457	0.0174995
675.535	0.0173268
675.613	0.0174415
675.692	0.0175726
675.770	0.0173894
675.848	0.0174945
675.926	0.0174942
676.004	0.0173392
676.082	0.0174097
676.160	0.0173714
676.238	0.0172115
676.317	0.0174372
676.395	0.0173638
676.473	0.0172312
676.551	0.0174696
676.629	0.0174831
676.707	0.0174447
676.785	0.0174386
676.863	0.0174226
676.942	0.0175510
677.020	0.0175262
677.098	0.0172754
677.176	0.0174448
677.254	0.0172626
677.332	0.0174586
677.410	0.0171909
677.488	0.0170837
677.567	0.0172450
677.645	0.0172458
677.723	0.0171421
677.801	0.0170360
677.879	0.0170617
677.957	0.0170471
678.035	0.0170786
678.113	0.0171061
678.192	0.0171613
678.270	0.0170433
678.348	0.0172818
678.426	0.0173985
678.504	0.0174187
678.582	0.0173674
678.660	0.0175010
678.738	0.0174802
678.817	0.0175817
678.895	0.0177529
678.973	0.0177096
679.051	0.0176907
679.129	0.0177346
679.207	0.0176535
679.285	0.0177193
679.363	0.0176943
679.442	0.0176917
679.520	0.0176041
679.598	0.0174629
679.676	0.0173586
679.754	0.0173711
679.832	0.0171807
679.910	0.0170663
679.988	0.0170336
680.067	0.0170293
680.145	0.0169449
680.223	0.0169313
680.301	0.0168768
680.379	0.0168326
680.457	0.0170055
680.535	0.0169326
680.613	0.0171361
680.692	0.0171581
680.770	0.0172125
680.848	0.0174504
680.926	0.0177605
681.004	0.0179334
681.082	0.0180980
681.160	0.0183470
681.238	0.0181842
681.317	0.0182505
681.395	0.0182543
681.473	0.0181068
681.551	0.0179954
681.629	0.0178973
681.707	0.0175292
681.785	0.0173420
681.863	0.0170035
681.942	0.0170985
682.020	0.0169093
682.098	0.0167417
682.176	0.0165820
682.254	0.0164690
682.332	0.0163927
682.410	0.0164286
682.488	0.0166116
682.567	0.0165408
682.645	0.0166241
682.723	0.0168432
682.801	0.0169545
682.879	0.0172360
682.957	0.0173518
683.035	0.0173367
683.113	0.0175655
683.192	0.0175106
683.270	0.0178179
683.348	0.0179498
683.426	0.0181255
683.504	0.0180835
683.582	0.0180073
683.660	0.0178778
683.738	0.0179014
683.817	0.0178163
683.895	0.0177290
683.973	0.0174495
684.051	0.0172450
684.129	0.0169222
684.207	0.0167255
684.285	0.0164945
684.363	0.0164123
684.442	0.0164245
684.520	0.0163428
684.598	0.0162765
684.676	0.0163844
684.754	0.0165891
684.832	0.0168437
684.910	0.0170149
684.988	0.0173518
685.067	0.0177112
685.145	0.0181915
685.223	0.0183884
685.301	0.0186315
685.379	0.0189479
685.457	0.0192550
685.535	0.0191766
685.613	0.0191337
685.692	0.0189721
685.770	0.0190848
685.848	0.0189336
685.926	0.0183897
686.004	0.0182345
686.082	0.0179008
686.160	0.0176997
686.238	0.0172817
686.317	0.0171059
686.395	0.0167327
686.473	0.0164100
686.551	0.0161950
686.629	0.0160126
686.707	0.0159750
686.785	0.0157075
686.863	0.0155170
686.942	0.0153979
687.020	0.0154092
687.098	0.0153114
687.176	0.0152673
687.254	0.0152023
687.332	0.0155621
687.410	0.0157879
687.488	0.0159657
687.567	0.0162338
687.645	0.0165923
687.723	0.0170084
687.801	0.0175991
687.879	0.0181532
687.957	0.0185737
688.035	0.0188333
688.113	0.0191763
688.192	0.0193894
688.270	0.0196352
688.348	0.0196791
688.426	0.0196857
688.504	0.0195468
688.582	0.0193095
688.660	0.0192000
688.738	0.0187695
688.817	0.0183086
688.895	0.0180174
688.973	0.0176565
689.051	0.0173611
689.129	0.0169657
689.207	0.0165794
689.285	0.0162970
689.363	0.0162417
689.442	0.0159616
689.520	0.0159033
689.598	0.0158795
689.676	0.0160692
689.754	0.0160353
689.832	0.0161221
689.910	0.0162699
689.988	0.0164756
690.067	0.0165798
690.145	0.0166507
690.223	0.0169625
690.301	0.0171452
690.379	0.0174311
690.457	0.0176177
690.535	0.0179056
690.613	0.0180460
690.692	0.0183325
690.770	0.0183930
690.848	0.0185164
690.926	0.0183967
691.004	0.0184077
691.082	0.0182319
691.160	0.0183038
691.238	0.0181718
691.317	0.0180334
691.395	0.0178143
691.473	0.0177115
691.551	0.0175958
691.629	0.0174928
691.707	0.0173201
691.785	0.0170718
691.863	0.0171040
691.942	0.0169320
692.020	0.0168488
692.098	0.0167426
692.176	0.0168685
692.254	0.0167107
692.332	0.0167248
692.410	0.0166996
692.488	0.0167963
692.567	0.0167699
692.645	0.0166841
692.723	0.0167564
692.801	0.0166640
692.879	0.0166680
692.957	0.0166834
693.035	0.0167164
693.113	0.0166306
693.192	0.0164839
693.270	0.0163744
693.348	0.0162504
693.426	0.0163011
693.504	0.0161774
693.582	0.0162041
693.660	0.0161520
693.738	0.0163290
693.817	0.0164788
693.895	0.0167492
693.973	0.0171127
694.051	0.0174706
694.129	0.0180486
694.207	0.0185200
694.285	0.0191641
694.363	0.0196416
694.442	0.0201742
694.520	0.0204452
694.598	0.0208559
694.676	0.0211160
694.754	0.0211405
694.832	0.0211135
694.910	0.0207944
694.988	0.0205288
695.067	0.0201715
695.145	0.0197513
695.223	0.0191034
695.301	0.0185806
695.379	0.0179949
695.457	0.0175408
695.535	0.0169664
695.613	0.0163818
695.692	0.0158746
695.770	0.0155970
695.848	0.0151081
695.926	0.0148149
696.004	0.0147253
696.082	0.0145667
696.160	0.0143954
696.238	0.0145778
696.317	0.0148478
696.395	0.0148434
696.473	0.0148409
696.551	0.0149984
696.629	0.0149779
696.707	0.0150002
696.785	0.0148883
696.863	0.0150071
696.942	0.0149783
697.020	0.0146745
697.098	0.0146838
697.176	0.0146133
697.254	0.0144329
697.332	0.0143741
697.410	0.0146159
697.488	0.0148121
697.567	0.0149241
697.645	0.0151461
697.723	0.0155370
697.801	0.0158686
697.879	0.0163628
697.957	0.0168714
698.035	0.0175776
698.113	0.0183582
698.192	0.0189493
698.270	0.0194672
698.348	0.0202064
698.426	0.0208119
698.504	0.0214418
698.582	0.0220664
698.660	0.0228903
698.738	0.0234016
698.817	0.0238618
698.895	0.0243261
698.973	0.0245543
699.051	0.0246442
699.129	0.0246400
699.207	0.0246167
699.285	0.0243710
699.363	0.0239096
699.442	0.0232752
699.520	0.0228162
699.598	0.0221091
699.676	0.0211894
699.754	0.0203562
699.832	0.0195219
699.910	0.0187161
699.988	0.0179237
700.067	0.0169454
700.145	0.0162238
700.223	0.0152743
700.301	0.0143655
700.379	0.0134370
700.457	0.0126772
700.535	0.0116139
700.613	0.0104348
700.692	0.00957771
700.770	0.00865654
700.848	0.00799614
700.926	0.00710083
701.004	0.00650253
701.082	0.00625809
701.160	0.00617561
701.238	0.00635406
701.317	0.00677750
701.395	0.00744469
701.473	0.00821388
701.551	0.00937012
701.629	0.0108548
701.707	0.0122863
701.785	0.0137534
701.863	0.0153645
701.942	0.0169285
702.020	0.0184579
702.098	0.0198985
702.176	0.0210758
702.254	0.0221276
702.332	0.0229556
702.410	0.0237121
702.488	0.0241178
702.567	0.0245337
702.645	0.0247195
702.723	0.0243536
702.801	0.0242558
702.879	0.0241048
702.957	0.0234718
703.035	0.0228882
703.113	0.0223484
703.192	0.0218056
703.270	0.0213786
703.348	0.0209966
703.426	0.0204877
703.504	0.0202059
703.582	0.0200709
703.660	0.0200890
703.738	0.0200201
703.817	0.0200313
703.895	0.0201975
703.973	0.0205040
704.051	0.0207270
704.129	0.0210753
704.207	0.0214780
704.285	0.0218025
704.363	0.0218489
704.442	0.0222498
704.520	0.0223566
704.598	0.0225466
704.676	0.0226505
704.754	0.0224891
704.832	0.0221885
704.910	0.0216972
704.988	0.0209985
705.067	0.0202420
705.145	0.0193965
705.223	0.0181236
705.301	0.0168532
705.379	0.0155637
705.457	0.0140417
705.535	0.0127251
705.613	0.0113345
705.692	0.0101922
705.770	0.00870445
705.848	0.00757423
705.926	0.00654770
706.004	0.00559723
706.082	0.00480530
706.160	0.00405251
706.238	0.00356834
706.317	0.00312073
706.395	0.00294884
706.473	0.00309830
706.551	0.00334579
706.629	0.00398048
706.707	0.00479881
706.785	0.00599052
706.863	0.00743217
706.942	0.00911240
707.020	0.0111800
707.098	0.0133183
707.176	0.0156466
707.254	0.0178651
707.332	0.0202227
707.410	0.0223083
707.488	0.0244140
707.567	0.0264265
707.645	0.0279868
707.723	0.0292214
707.801	0.0302341
707.879	0.0311593
707.957	0.0314539
708.035	0.0314172
708.113	0.0311078
708.192	0.0303426
708.270	0.0295599
708.348	0.0283329
708.426	0.0269696
708.504	0.0255547
708.582	0.0238409
708.660	0.0223898
708.738	0.0210734
708.817	0.0196042
708.895	0.0184797
708.973	0.0176754
709.051	0.0170232
709.129	0.0166863
709.207	0.0166878
709.285	0.0167023
709.363	0.0170757
709.442	0.0175803
709.520	0.0181985
709.598	0.0187670
709.676	0.0193198
709.754	0.0200039
709.832	0.0205701
709.910	0.0210216
709.988	0.0216001
710.067	0.0218550
710.145	0.0220183
710.223	0.0220135
710.301	0.0218452
710.379	0.0215370
710.457	0.0210580
710.535	0.0201273
710.613	0.0189523
710.692	0.0177917
710.770	0.0163995
710.848	0.0148598
710.926	0.0131544
711.004	0.0114954
711.082	0.00968987
711.160	0.00816032
711.238	0.00658478
711.317	0.00524025
711.395	0.00379745
711.473	0.00271667
711.551	0.00200745
711.629	0.00128120
711.707	0.000887070
711.785	0.000840225
711.863	0.000900040
711.942	0.00143578
712.020	0.00203659
712.098	0.00322151
712.176	0.00487770
712.254	0.00643745
712.332	0.00830055
712.410	0.0103920
712.488	0.0128397
712.567	0.0153549
712.645	0.0175869
712.723	0.0201653
712.801	0.0225706
712.879	0.0247212
712.957	0.0264803
713.035	0.0282143
713.113	0.0294608
713.192	0.0307475
713.270	0.0314963
713.348	0.0318269
713.426	0.0319715
713.504	0.0320271
713.582	0.0314468
713.660	0.0308176
713.738	0.0298061
713.817	0.0286299
713.895	0.0275124
713.973	0.0261823
714.051	0.0249093
714.129	0.0238313
714.207	0.0227869
714.285	0.0218121
714.363	0.0208721
714.442	0.0201654
714.520	0.0195496
714.598	0.0191474
714.676	0.0189400
714.754	0.0186105
714.832	0.0186201
714.910	0.0185442
714.988	0.0185330
715.067	0.0185200
715.145	0.0187017
715.223	0.0188206
715.301	0.0189977
715.379	0.0191657
715.457	0.0193079
715.535	0.0194261
715.613	0.0192575
715.692	0.0193935
715.770	0.0191434
715.848	0.0186607
715.926	0.0180801
716.004	0.0172750
716.082	0.0161169
716.160	0.0152034
716.238	0.0140305
716.317	0.0127347
716.395	0.0112364
716.473	0.00999413
716.551	0.00874374
716.629	0.00733223
716.707	0.00611870
716.785	0.00513550
716.863	0.00421684
716.942	0.00368042
717.020	0.00328857
717.098	0.00296043
717.176	0.00298042
717.254	0.00327126
717.332	0.00378387
717.410	0.00449242
717.488	0.00533791
717.567	0.00650391
717.645	0.00779488
717.723	0.00966255
717.801	0.0113750
717.879	0.0133092
717.957	0.0150819
718.035	0.0172662
718.113	0.0191642
718.192	0.0211179
718.270	0.0228928
718.348	0.0243778
718.426	0.0256660
718.504	0.0267676
718.582	0.0275323
718.660	0.0280980
718.738	0.0281629
718.817	0.0280348
718.895	0.0277225
718.973	0.0271915
719.051	0.0265457
719.129	0.0258175
719.207	0.0249554
719.285	0.0241891
719.363	0.0235191
719.442	0.0230616
719.520	0.0223877
719.598	0.0219389
719.676	0.0217078
719.754	0.0216867
719.832	0.0214095
719.910	0.0215323
719.988	0.0216548
720.067	0.0216066
720.145	0.0217256
720.223	0.0218105
720.301	0.0217935
720.379	0.0218140
720.457	0.0215614
720.535	0.0212188
720.613	0.0211060
720.692	0.0208165
720.770	0.0204877
720.848	0.0201629
720.926	0.0195145
721.004	0.0190952
721.082	0.0184643
721.160	0.0179837
721.238	0.0173291
721.317	0.0168557
721.395	0.0161223
721.473	0.0153638
721.551	0.0145399
721.629	0.0137699
721.707	0.0129944
721.785	0.0120368
721.863	0.0111263
721.942	0.0104620
722.020	0.00963699
722.098	0.00916023
722.176	0.00863319
722.254	0.00810402
722.332	0.00783096
722.410	0.00792587
722.488	0.00786942
722.567	0.00807961
722.645	0.00839645
722.723	0.00892403
722.801	0.00942146
722.879	0.0100439
722.957	0.0106876
723.035	0.0115112
723.113	0.0124291
723.192	0.0133114
723.270	0.0141312
723.348	0.0150850
723.426	0.0158436
723.504	0.0166421
723.582	0.0174953
723.660	0.0181060
723.738	0.0187239
723.817	0.0193452
723.895	0.0197207
723.973	0.0199948
724.051	0.0202002
724.129	0.0204247
724.207	0.0202948
724.285	0.0202898
724.363	0.0202567
724.442	0.0202478
724.520	0.0201820
724.598	0.0201752
724.676	0.0200835
724.754	0.0203889
724.832	0.0206347
724.910	0.0206837
724.988	0.0211063
725.067	0.0215367
725.145	0.0218477
725.223	0.0222831
725.301	0.0226012
725.379	0.0229547
725.457	0.0232148
725.535	0.0233466
725.613	0.0233292
725.692	0.0232712
725.770	0.0231184
725.848	0.0228108
725.926	0.0223969
726.004	0.0221696
726.082	0.0216618
726.160	0.0211733
726.238	0.0205645
726.317	0.0200546
726.395	0.0196798
726.473	0.0191003
726.551	0.0184597
726.629	0.0179253
726.707	0.0175265
726.785	0.0170223
726.863	0.0166080
726.942	0.0161835
727.020	0.0157803
727.098	0.0153478
727.176	0.0150089
727.254	0.0147239
727.332	0.0144469
727.410	0.0142181
727.488	0.0140488
727.567	0.0137778
727.645	0.0136576
727.723	0.0135236
727.801	0.0137152
727.879	0.0134739
727.957	0.0133248
728.035	0.0134117
728.113	0.0135789
728.192	0.0136718
728.270	0.0137299
728.348	0.0139497
728.426	0.0140137
728.504	0.0143346
728.582	0.0145670
728.660	0.0145279
728.738	0.0148521
728.817	0.0149680
728.895	0.0151411
728.973	0.0154898
729.051	0.0156068
729.129	0.0158709
729.207	0.0159260
729.285	0.0160060
729.363	0.0161201
729.442	0.0161581
729.520	0.0162653
729.598	0.0162289
729.676	0.0163092
729.754	0.0164462
729.832	0.0164011
729.910	0.0164957
729.988	0.0166451
730.067	0.0167365
730.145	0.0168497
730.223	0.0171664
730.301	0.0176196
730.379	0.0178274
730.457	0.0181510
730.535	0.0184738
730.613	0.0188824
730.692	0.0194128
730.770	0.0196128
730.848	0.0200689
730.926	0.0200314
731.004	0.0202278
731.082	0.0203192
731.160	0.0203635
731.238	0.0204375
731.317	0.0203094
731.395	0.0202476
731.473	0.0200211
731.551	0.0200008
731.629	0.0198399
731.707	0.0197247
731.785	0.0197216
731.863	0.0196043
731.942	0.0195374
732.020	0.0194965
732.098	0.0192993
732.176	0.0193012
732.254	0.0192676
732.332	0.0191650
732.410	0.0191099
732.488	0.0188639
732.567	0.0187311
732.645	0.0184991
732.723	0.0183492
732.801	0.0181081
732.879	0.0178232
732.957	0.0175381
733.035	0.0173867
733.113	0.0173514
733.192	0.0170795
733.270	0.0168556
733.348	0.0167966
733.426	0.0166685
733.504	0.0166929
733.582	0.0167641
733.660	0.0166364
733.738	0.0166144
733.817	0.0165383
733.895	0.0164132
733.973	0.0164794
734.051	0.0165588
734.129	0.0163302
734.207	0.0162018
734.285	0.0161295
734.363	0.0158558
734.442	0.0157345
734.520	0.0157544
734.598	0.0157008
734.676	0.0154945
734.754	0.0153705
734.832	0.0154134
734.910	0.0152146
734.988	0.0150859
735.067	0.0153088
735.145	0.0155021
735.223	0.0154752
735.301	0.0158789
735.379	0.0159528
735.457	0.0161544
735.535	0.0163493
735.613	0.0167296
735.692	0.0169370
735.770	0.0172300
735.848	0.0173714
735.926	0.0175548
736.004	0.0175066
736.082	0.0175177
736.160	0.0174903
736.238	0.0173186
736.317	0.0171862
736.395	0.0171781
736.473	0.0166548
736.551	0.0166135
736.629	0.0166089
736.707	0.0164187
736.785	0.0162185
736.863	0.0163495
736.942	0.0165088
737.020	0.0166828
737.098	0.0166035
737.176	0.0170015
737.254	0.0170691
737.332	0.0173780
737.410	0.0176543
737.488	0.0180421
737.567	0.0182405
737.645	0.0184074
737.723	0.0184864
737.801	0.0186364
737.879	0.0186874
737.957	0.0186317
738.035	0.0188805
738.113	0.0188496
738.192	0.0187479
738.270	0.0187893
738.348	0.0187891
738.426	0.0187222
738.504	0.0188000
738.582	0.0188474
738.660	0.0189502
738.738	0.0189043
738.817	0.0189377
738.895	0.0189426
738.973	0.0187888
739.051	0.0188593
739.129	0.0186206
739.207	0.0184542
739.285	0.0182729
739.363	0.0181647
739.442	0.0179344
739.520	0.0177170
739.598	0.0173400
739.676	0.0172452
739.754	0.0172808
739.832	0.0169772
739.910	0.0170545
739.988	0.0169121
740.067	0.0168598
740.145	0.0169553
740.223	0.0168600
740.301	0.0169876
740.379	0.0171378
740.457	0.0170651
740.535	0.0171053
740.613	0.0172385
740.692	0.0172894
740.770	0.0173177
740.848	0.0173639
740.926	0.0175272
741.004	0.0174914
741.082	0.0174586
741.160	0.0175494
741.238	0.0174030
741.317	0.0172940
741.395	0.0172701
741.473	0.0169669
741.551	0.0170154
741.629	0.0168202
741.707	0.0165099
741.785	0.0162876
741.863	0.0160520
741.942	0.0160126
742.020	0.0156704
742.098	0.0157003
742.176	0.0156011
742.254	0.0155719
742.332	0.0156850
742.410	0.0158432
742.488	0.0161102
742.567	0.0162792
742.645	0.0165915
742.723	0.0166318
742.801	0.0167264
742.879	0.0168271
742.957	0.0171008
743.035	0.0173065
743.113	0.0172533
743.192	0.0171996
743.270	0.0171874
743.348	0.0173263
743.426	0.0171156
743.504	0.0169241
743.582	0.0167956
743.660	0.0168011
743.738	0.0168132
743.817	0.0169035
743.895	0.0168252
743.973	0.0169032
744.051	0.0170117
744.129	0.0170864
744.207	0.0172495
744.285	0.0174777
744.363	0.0174574
744.442	0.0176143
744.520	0.0177125
744.598	0.0177943
744.676	0.0178304
744.754	0.0177843
744.832	0.0175794
744.910	0.0175141
744.988	0.0174087
745.067	0.0174666
745.145	0.0173695
745.223	0.0175139
745.301	0.0175266
745.379	0.0176367
745.457	0.0178674
745.535	0.0179085
745.613	0.0179855
745.692	0.0182321
745.770	0.0183936
745.848	0.0185481
745.926	0.0188028
746.004	0.0190417
746.082	0.0189983
746.160	0.0189891
746.238	0.0191601
746.317	0.0190340
746.395	0.0190102
746.473	0.0188886
746.551	0.0187894
746.629	0.0185223
746.707	0.0182515
746.785	0.0181315
746.863	0.0178902
746.942	0.0176202
747.020	0.0173657
747.098	0.0170622
747.176	0.0167321
747.254	0.0165488
747.332	0.0162926
747.410	0.0161658
747.488	0.0161554
747.567	0.0160936
747.645	0.0159074
747.723	0.0161260
747.801	0.0161929
747.879	0.0163113
747.957	0.0164236
748.035	0.0167334
748.113	0.0169745
748.192	0.0172902
748.270	0.0175005
748.348	0.0177528
748.426	0.0177321
748.504	0.0178328
748.582	0.0178589
748.660	0.0181333
748.738	0.0180573
748.817	0.0178654
748.895	0.0177852
748.973	0.0175806
749.051	0.0174857
749.129	0.0171792
749.207	0.0171106
749.285	0.0170232
749.363	0.0168000
749.442	0.0164747
749.520	0.0165299
749.598	0.0164223
749.676	0.0162949
749.754	0.0160984
749.832	0.0160517
749.910	0.0160494
749.988	0.0158007
750.067	0.0159376
750.145	0.0157467
750.223	0.0157594
750.301	0.0157859
750.379	0.0159908
750.457	0.0159837
750.535	0.0160310
750.613	0.0161634
750.692	0.0164531
750.770	0.0165511
750.848	0.0169442
750.926	0.0173100
751.004	0.0174982
751.082	0.0178944
751.160	0.0183471
751.238	0.0186496
751.317	0.0188931
751.395	0.0191505
751.473	0.0190808
751.551	0.0190726
751.629	0.0190115
751.707	0.0188625
751.785	0.0186990
751.863	0.0184882
751.942	0.0182175
752.020	0.0179833
752.098	0.0176450
752.176	0.0173502
752.254	0.0169907
752.332	0.0166360
752.410	0.0166017
752.488	0.0163795
752.567	0.0162633
752.645	0.0161804
752.723	0.0161975
752.801	0.0163134
752.879	0.0163880
752.957	0.0164904
753.035	0.0166115
753.113	0.0169378
753.192	0.0170279
753.270	0.0173494
753.348	0.0176592
753.426	0.0179744
753.504	0.0181671
753.582	0.0183299
753.660	0.0184471
753.738	0.0188489
753.817	0.0189807
753.895	0.0190046
753.973	0.0192063
754.051	0.0192374
754.129	0.0191243
754.207	0.0190646
754.285	0.0190250
754.363	0.0187211
754.442	0.0185252
754.520	0.0183337
754.598	0.0181193
754.676	0.0178848
754.754	0.0176619
754.832	0.0175197
754.910	0.0171002
754.988	0.0169559
755.067	0.0168998
755.145	0.0167202
755.223	0.0165269
755.301	0.0164655
755.379	0.0162718
755.457	0.0160771
755.535	0.0161035
755.613	0.0160658
755.692	0.0161304
755.770	0.0160717
755.848	0.0162231
755.926	0.0165221
756.004	0.0167336
756.082	0.0167504
756.160	0.0169615
756.238	0.0174184
756.317	0.0174742
756.395	0.0176462
756.473	0.0179070
756.551	0.0181375
756.629	0.0181703
756.707	0.0182787
756.785	0.0183452
756.863	0.0182520
756.942	0.0181145
757.020	0.0179600
757.098	0.0177016
757.176	0.0174848
757.254	0.0172474
757.332	0.0168404
757.410	0.0165696
757.488	0.0163034
757.567	0.0159299
757.645	0.0156627
757.723	0.0154092
757.801	0.0154268
757.879	0.0152612
757.957	0.0152969
758.035	0.0152432
758.113	0.0154538
758.192	0.0155913
758.270	0.0157176
758.348	0.0160417
758.426	0.0163350
758.504	0.0165138
758.582	0.0167309
758.660	0.0171299
758.738	0.0173076
758.817	0.0176545
758.895	0.0177311
758.973	0.0179990
759.051	0.0180568
759.129	0.0182571
759.207	0.0184138
759.285	0.0184090
759.363	0.0184975
759.442	0.0186031
759.520	0.0186015
759.598	0.0185672
759.676	0.0184671
759.754	0.0184628
759.832	0.0183567
759.910	0.0184009
759.988	0.0182901
760.067	0.0180415
760.145	0.0179369
760.223	0.0179140
760.301	0.0176690
760.379	0.0175822
760.457	0.0175790
760.535	0.0175266
760.613	0.0174448
760.692	0.0175275
760.770	0.0172498
760.848	0.0174110
760.926	0.0173807
761.004	0.0172910
761.082	0.0175153
761.160	0.0176582
761.238	0.0175053
761.317	0.0176029
761.395	0.0177446
761.473	0.0177689
761.551	0.0178789
761.629	0.0180274
761.707	0.0181147
761.785	0.0180466
761.863	0.0182011
761.942	0.0181502
762.020	0.0181543
762.098	0.0179107
762.176	0.0178422
762.254	0.0179852
762.332	0.0177496
762.410	0.0176618
762.488	0.0173895
762.567	0.0171526
762.645	0.0170171
762.723	0.0167939
762.801	0.0166217
762.879	0.0164338
762.957	0.0164194
763.035	0.0160740
763.113	0.0162498
763.192	0.0162776
763.270	0.0162619
763.348	0.0162818
763.426	0.0163171
763.504	0.0163998
763.582	0.0166019
763.660	0.0165998
763.738	0.0167493
763.817	0.0169954
763.895	0.0170015
763.973	0.0170709
764.051	0.0172195
764.129	0.0173331
764.207	0.0172012
764.285	0.0173509
764.363	0.0173472
764.442	0.0173512
764.520	0.0172863
764.598	0.0174622
764.676	0.0174948
764.754	0.0174867
764.832	0.0173381
764.910	0.0172157
764.988	0.0173482
765.067	0.0172767
765.145	0.0172263
765.223	0.0172080
765.301	0.0171796
765.379	0.0170588
765.457	0.0169212
765.535	0.0169122
765.613	0.0168355
765.692	0.0168372
765.770	0.0169208
765.848	0.0166081
765.926	0.0166855
766.004	0.0165623
766.082	0.0164429
766.160	0.0164693
766.238	0.0163693
766.317	0.0165284
766.395	0.0165142
766.473	0.0167902
766.551	0.0168632
766.629	0.0168667
766.707	0.0170270
766.785	0.0172807
766.863	0.0175627
766.942	0.0177792
767.020	0.0178717
767.098	0.0180901
767.176	0.0184252
767.254	0.0185731
767.332	0.0185319
767.410	0.0187147
767.488	0.0187788
767.567	0.0188145
767.645	0.0189036
767.723	0.0187859
767.801	0.0186436
767.879	0.0186159
767.957	0.0183911
768.035	0.0180171
768.113	0.0180003
768.192	0.0179381
768.270	0.0176095
768.348	0.0174536
768.426	0.0173264
768.504	0.0170617
768.582	0.0169815
768.660	0.0168618
768.738	0.0168582
768.817	0.0167865
768.895	0.0168784
768.973	0.0170698
769.051	0.0170495
769.129	0.0172308
769.207	0.0173901
769.285	0.0174110
769.363	0.0176463
769.442	0.0176801
769.520	0.0178731
769.598	0.0178608
769.676	0.0179237
769.754	0.0181283
769.832	0.0182063
769.910	0.0181158
769.988	0.0180552
770.067	0.0179391
770.145	0.0178201
770.223	0.0177911
770.301	0.0176283
770.379	0.0173502
770.457	0.0173481
770.535	0.0172537
770.613	0.0170473
770.692	0.0168823
770.770	0.0168097
770.848	0.0165445
770.926	0.0163824
771.004	0.0164053
771.082	0.0162788
771.160	0.0160957
771.238	0.0160601
771.317	0.0159265
771.395	0.0159537
771.473	0.0157811
771.551	0.0158394
771.629	0.0159583
771.707	0.0157429
771.785	0.0159843
771.863	0.0160635
771.942	0.0162719
772.020	0.0164697
772.098	0.0166835
772.176	0.0169286
772.254	0.0171934
772.332	0.0172604
772.410	0.0173718
772.488	0.0175311
772.567	0.0177379
772.645	0.0179743
772.723	0.0180549
772.801	0.0181288
772.879	0.0181147
772.957	0.0181298
773.035	0.0181659
773.113	0.0180156
773.192	0.0180378
773.270	0.0179566
773.348	0.0178203
773.426	0.0177364
773.504	0.0176888
773.582	0.0174078
773.660	0.0172451
773.738	0.0171012
773.817	0.0169920
773.895	0.0169944
773.973	0.0167870
774.051	0.0168112
774.129	0.0168627
774.207	0.0166510
774.285	0.0167863
774.363	0.0166727
774.442	0.0167326
774.520	0.0170840
774.598	0.0172489
774.676	0.0172429
774.754	0.0174516
774.832	0.0178297
774.910	0.0178642
774.988	0.0180148
775.067	0.0181864
775.145	0.0183827
775.223	0.0183285
775.301	0.0183926
775.379	0.0185701
775.457	0.0185904
775.535	0.0184748
775.613	0.0184081
775.692	0.0183941
775.770	0.0182803
775.848	0.0181507
775.926	0.0179326
776.004	0.0179115
776.082	0.0178240
776.160	0.0177303
776.238	0.0173975
776.317	0.0174623
776.395	0.0173209
776.473	0.0171821
776.551	0.0171523
776.629	0.0170279
776.707	0.0168387
776.785	0.0166754
776.863	0.0166864
776.942	0.0166325
777.020	0.0166396
777.098	0.0165836
777.176	0.0166203
777.254	0.0167326
777.332	0.0167546
777.410	0.0168253
777.488	0.0167805
777.567	0.0170267
777.645	0.0171420
777.723	0.0172475
777.801	0.0173541
777.879	0.0174890
777.957	0.0175646
778.035	0.0177017
778.113	0.0177480
778.192	0.0179134
778.270	0.0179646
778.348	0.0180249
778.426	0.0178072
778.504	0.0178575
778.582	0.0179151
778.660	0.0178457
778.738	0.0175952
778.817	0.0174458
778.895	0.0174996
778.973	0.0172478
779.051	0.0171968
779.129	0.0170860
779.207	0.0168475
779.285	0.0168309
779.363	0.0168191
779.442	0.0167179
779.520	0.0164979
779.598	0.0163666
779.676	0.0162262
779.754	0.0160886
779.832	0.0163079
779.910	0.0162092
779.988	0.0161570
780.067	0.0162070
780.145	0.0162658
780.223	0.0164320
780.301	0.0164229
780.379	0.0164957
780.457	0.0166344
780.535	0.0168849
780.613	0.0169293
780.692	0.0171958
780.770	0.0173161
780.848	0.0173367
780.926	0.0175691
781.004	0.0177384
781.082	0.0177264
781.160	0.0178576
781.238	0.0180305
781.317	0.0179674
781.395	0.0180482
781.473	0.0179807
781.551	0.0181015
781.629	0.0180991
781.707	0.0180928
781.785	0.0180697
781.863	0.0180334
781.942	0.0179337
782.020	0.0179153
782.098	0.0178838
782.176	0.0177246
782.254	0.0176949
782.332	0.0176784
782.410	0.0176830
782.488	0.0175842
782.567	0.0175598
782.645	0.0174645
782.723	0.0172637
782.801	0.0174755
782.879	0.0174408
782.957	0.0173313
783.035	0.0174932
783.113	0.0174011
783.192	0.0175127
783.270	0.0175471
783.348	0.0175759
783.426	0.0175417
783.504	0.0178389
783.582	0.0179269
783.660	0.0178690
783.738	0.0179761
783.817	0.0179655
783.895	0.0179433
783.973	0.0181387
784.051	0.0181507
784.129	0.0180524
784.207	0.0178846
784.285	0.0178926
784.363	0.0178396
784.442	0.0177575
784.520	0.0176679
784.598	0.0175245
784.676	0.0174923
784.754	0.0172690
784.832	0.0172303
784.910	0.0171162
784.988	0.0168139
785.067	0.0169257
785.145	0.0168990
785.223	0.0168975
785.301	0.0168470
785.379	0.0167126
785.457	0.0167908
785.535	0.0167873
785.613	0.0168024
785.692	0.0166965
785.770	0.0164952
785.848	0.0166653
785.926	0.0167795
786.004	0.0167194
786.082	0.0166158
786.160	0.0166183
786.238	0.0167697
786.317	0.0165918
786.395	0.0166422
786.473	0.0167768
786.551	0.0167365
786.629	0.0168685
786.707	0.0171631
786.785	0.0171131
786.863	0.0171613
786.942	0.0173211
787.020	0.0174614
787.098	0.0174189
787.176	0.0175822
787.254	0.0176448
787.332	0.0177498
787.410	0.0178485
787.488	0.0177271
787.567	0.0176417
787.645	0.0175750
787.723	0.0177245
787.801	0.0175191
787.879	0.0174356
787.957	0.0173550
788.035	0.0173006
788.113	0.0170934
788.192	0.0170664
788.270	0.0170720
788.348	0.0169051
788.426	0.0168507
788.504	0.0166787
788.582	0.0167379
788.660	0.0169341
788.738	0.0168063
788.817	0.0169550
788.895	0.0171039
788.973	0.0171326
789.051	0.0171468
789.129	0.0172710
789.207	0.0173154
789.285	0.0173571
789.363	0.0175228
789.442	0.0175589
789.520	0.0175478
789.598	0.0175310
789.676	0.0176917
789.754	0.0175109
789.832	0.0177033
789.910	0.0176720
789.988	0.0174912
790.067	0.0177254
790.145	0.0176400
790.223	0.0176611
790.301	0.0175503
790.379	0.0176019
790.457	0.0177314
790.535	0.0175489
790.613	0.0176088
790.692	0.0177608
790.770	0.0178291
790.848	0.0178045
790.926	0.0177653
791.004	0.0179279
791.082	0.0178546
791.160	0.0178661
791.238	0.0178328
791.317	0.0177890
791.395	0.0178065
791.473	0.0176829
791.551	0.0174940
791.629	0.0174979
791.707	0.0175021
791.785	0.0174610
791.863	0.0175913
791.942	0.0174532
792.020	0.0174281
792.098	0.0175462
792.176	0.0174837
792.254	0.0174618
792.332	0.0175426
792.410	0.0174783
792.488	0.0176579
792.567	0.0176304
792.645	0.0175647
792.723	0.0175771
792.801	0.0175407
792.879	0.0174234
792.957	0.0174884
793.035	0.0173150
793.113	0.0171182
793.192	0.0171420
793.270	0.0169804
793.348	0.0167307
793.426	0.0167010
793.504	0.0164458
793.582	0.0164148
793.660	0.0162364
793.738	0.0162518
793.817	0.0162794
793.895	0.0161455
793.973	0.0160356
794.051	0.0161990
794.129	0.0162917
794.207	0.0163892
794.285	0.0165036
794.363	0.0166021
794.442	0.0167251
794.520	0.0170091
794.598	0.0171398
794.676	0.0173148
794.754	0.0174528
794.832	0.0176149
794.910	0.0178294
794.988	0.0178370
795.067	0.0178650
795.145	0.0181330
795.223	0.0183015
795.301	0.0181973
795.379	0.0183037
795.457	0.0182288
795.535	0.0183006
795.613	0.0183422
795.692	0.0183630
795.770	0.0182794
795.848	0.0182437
795.926	0.0182640
796.004	0.0182263
796.082	0.0181522
796.160	0.0180407
796.238	0.0179681
796.317	0.0178684
796.395	0.0176987
796.473	0.0176190
796.551	0.0175301
796.629	0.0171049
796.707	0.0169268
796.785	0.0168200
796.863	0.0165426
796.942	0.0165178
797.020	0.0162423
797.098	0.0160648
797.176	0.0159180
797.254	0.0158797
797.332	0.0159092
797.410	0.0158710
797.488	0.0159769
797.567	0.0160770
797.645	0.0162189
797.723	0.0164896
797.801	0.0167561
797.879	0.0167118
797.957	0.0169830
798.035	0.0172778
798.113	0.0173767
798.192	0.0174590
798.270	0.0175979
798.348	0.0178937
798.426	0.0180453
798.504	0.0181112
798.582	0.0182389
798.660	0.0183102
798.738	0.0181976
798.817	0.0182816
798.895	0.0182806
798.973	0.0183306
799.051	0.0182988
799.129	0.0182795
799.207	0.0183402
799.285	0.0182038
799.363	0.0180190
799.442	0.0180978
799.520	0.0179607
799.598	0.0179527
799.676	0.0180020
799.754	0.0178949
799.832	0.0179285
799.910	0.0180335
799.988	0.0178905
800.067	0.0178945
800.145	0.0177798
800.223	0.0179047
800.301	0.0178558
800.379	0.0180333
800.457	0.0179841
800.535	0.0178142
800.613	0.0178885
800.692	0.0179691
800.770	0.0180153
800.848	0.0179807
800.926	0.0180692
801.004	0.0178497
801.082	0.0177831
801.160	0.0177824
801.238	0.0177033
801.317	0.0175908
801.395	0.0175784
801.473	0.0172359
801.551	0.0171730
801.629	0.0170499
801.707	0.0168197
801.785	0.0166810
801.863	0.0166590
801.942	0.0165161
802.020	0.0160592
802.098	0.0159474
802.176	0.0158624
802.254	0.0157085
802.332	0.0154956
802.410	0.0152763
802.488	0.0152498
802.567	0.0151586
802.645	0.0152818
802.723	0.0151205
802.801	0.0152231
802.879	0.0153995
802.957	0.0154575
803.035	0.0156116
803.113	0.0158292
803.192	0.0160718
803.270	0.0162555
803.348	0.0165041
803.426	0.0165796
803.504	0.0168581
803.582	0.0170428
803.660	0.0174326
803.738	0.0175538
803.817	0.0177721
803.895	0.0181152
803.973	0.0182394
804.051	0.0182523
804.129	0.0182778
804.207	0.0184993
804.285	0.0185143
804.363	0.0186420
804.442	0.0185921
804.520	0.0187624
804.598	0.0187967
804.676	0.0188838
804.754	0.0189105
804.832	0.0188294
804.910	0.0188921
804.988	0.0188746
805.067	0.0189297
805.145	0.0189450
805.223	0.0188856
805.301	0.0187374
805.379	0.0186557
805.457	0.0186256
805.535	0.0184911
805.613	0.0185204
805.692	0.0184883
805.770	0.0184193
805.848	0.0183530
805.926	0.0182230
806.004	0.0182962
806.082	0.0181389
806.160	0.0181445
806.238	0.0182255
806.317	0.0179369
806.395	0.0181404
806.473	0.0179252
806.551	0.0179858
806.629	0.0177525
806.707	0.0177560
806.785	0.0177467
806.863	0.0176102
806.942	0.0174437
807.020	0.0173642
807.098	0.0171769
807.176	0.0169963
807.254	0.0167374
807.332	0.0165752
807.410	0.0162735
807.488	0.0161725
807.567	0.0157744
807.645	0.0155660
807.723	0.0154176
807.801	0.0153013
807.879	0.0152213
807.957	0.0151497
808.035	0.0149492
808.113	0.0151172
808.192	0.0150536
808.270	0.0149082
808.348	0.0149088
808.426	0.0151707
808.504	0.0153021
808.582	0.0154488
808.660	0.0155679
808.738	0.0157795
808.817	0.0160767
808.895	0.0162516
808.973	0.0167322
809.051	0.0169044
809.129	0.0169082
809.207	0.0173676
809.285	0.0176212
809.363	0.0179081
809.442	0.0179486
809.520	0.0180190
809.598	0.0184216
809.676	0.0185712
809.754	0.0186810
809.832	0.0187486
809.910	0.0187933
809.988	0.0189531
810.067	0.0188741
810.145	0.0188810
810.223	0.0190720
810.301	0.0190598
810.379	0.0190045
810.457	0.0190951
810.535	0.0190316
810.613	0.0189558
810.692	0.0190336
810.770	0.0190021
810.848	0.0188557
810.926	0.0186697
811.004	0.0185922
811.082	0.0185283
811.160	0.0183718
811.238	0.0183318
811.317	0.0181394
811.395	0.0180061
811.473	0.0179459
811.551	0.0178749
811.629	0.0177497
811.707	0.0175578
811.785	0.0175333
811.863	0.0173413
811.942	0.0172421
812.020	0.0171021
812.098	0.0169179
812.176	0.0170478
812.254	0.0169426
812.332	0.0166959
812.410	0.0166865
812.488	0.0164983
812.567	0.0162376
812.645	0.0162984
812.723	0.0162593
812.801	0.0161222
812.879	0.0161127
812.957	0.0159813
813.035	0.0159377
813.113	0.0159628
813.192	0.0157962
813.270	0.0157912
813.348	0.0158183
813.426	0.0157718
813.504	0.0158884
813.582	0.0158095
813.660	0.0158433
813.738	0.0159480
813.817	0.0159579
813.895	0.0161711
813.973	0.0163205
814.051	0.0163017
814.129	0.0164938
814.207	0.0166316
814.285	0.0168145
814.363	0.0169183
814.442	0.0171158
814.520	0.0173994
814.598	0.0174744
814.676	0.0175219
814.754	0.0177566
814.832	0.0179771
814.910	0.0181986
814.988	0.0182919
815.067	0.0182584
815.145	0.0185312
815.223	0.0186425
815.301	0.0185725
815.379	0.0185857
815.457	0.0186774
815.535	0.0185889
815.613	0.0185922
815.692	0.0186169
815.770	0.0185236
815.848	0.0185742
815.926	0.0186038
816.004	0.0185268
816.082	0.0183887
816.160	0.0183521
816.238	0.0183979
816.317	0.0184184
816.395	0.0183109
816.473	0.0184104
816.551	0.0183085
816.629	0.0182494
816.707	0.0182742
816.785	0.0182159
816.863	0.0181973
816.942	0.0181324
817.020	0.0179832
817.098	0.0177334
817.176	0.0177547
817.254	0.0174505
817.332	0.0173560
817.410	0.0171296
817.488	0.0170029
817.567	0.0169514
817.645	0.0167475
817.723	0.0166424
817.801	0.0163996
817.879	0.0163703
817.957	0.0162737
818.035	0.0162569
818.113	0.0161275
818.192	0.0160518
818.270	0.0160205
818.348	0.0160352
818.426	0.0158791
818.504	0.0159362
818.582	0.0159428
818.660	0.0158908
818.738	0.0160020
818.817	0.0161216
818.895	0.0162466
818.973	0.0161916
819.051	0.0163583
819.129	0.0162474
819.207	0.0161747
819.285	0.0164748
819.363	0.0164287
819.442	0.0163242
819.520	0.0165739
819.598	0.0164137
819.676	0.0164491
819.754	0.0167164
819.832	0.0166885
819.910	0.0167176
819.988	0.0167631
820.067	0.0169249
820.145	0.0170304
820.223	0.0171124
820.301	0.0170381
820.379	0.0172363
820.457	0.0174642
820.535	0.0175601
820.613	0.0177330
820.692	0.0177906
820.770	0.0180140
820.848	0.0181592
820.926	0.0182304
821.004	0.0184112
821.082	0.0184602
821.160	0.0184576
821.238	0.0186092
821.317	0.0186520
821.395	0.0187213
821.473	0.0188815
821.551	0.0188234
821.629	0.0187474
821.707	0.0186729
821.785	0.0187906
821.863	0.0186685
821.942	0.0187003
822.020	0.0187236
822.098	0.0185284
822.176	0.0185491
822.254	0.0185204
822.332	0.0182175
822.410	0.0181720
822.488	0.0182160
822.567	0.0179765
822.645	0.0179005
822.723	0.0178598
822.801	0.0176477
822.879	0.0173040
822.957	0.0173390
823.035	0.0171792
823.113	0.0169891
823.192	0.0169052
823.270	0.0169082
823.348	0.0167679
823.426	0.0165672
823.504	0.0165706
823.582	0.0164409
823.660	0.0161906
823.738	0.0163745
823.817	0.0164309
823.895	0.0163082
823.973	0.0163931
824.051	0.0164396
824.129	0.0162679
824.207	0.0163682
824.285	0.0166409
824.363	0.0166270
824.442	0.0165611
824.520	0.0166048
824.598	0.0168068
824.676	0.0168472
824.754	0.0168678
824.832	0.0169048
824.910	0.0168069
824.988	0.0169068
825.067	0.0170064
825.145	0.0168519
825.223	0.0168618
825.301	0.0170156
825.379	0.0168740
825.457	0.0169750
825.535	0.0169144
825.613	0.0167991
825.692	0.0170116
825.770	0.0169548
825.848	0.0168909
825.926	0.0168358
826.004	0.0169308
826.082	0.0168403
826.160	0.0168938
826.238	0.0169499
826.317	0.0170695
826.395	0.0170514
826.473	0.0171713
826.551	0.0172763
826.629	0.0172427
826.707	0.0174238
826.785	0.0175179
826.863	0.0175134
826.942	0.0176220
827.020	0.0176859
827.098	0.0176770
827.176	0.0178326
827.254	0.0177923
827.332	0.0179366
827.410	0.0179317
827.488	0.0179443
827.567	0.0178545
827.645	0.0180011
827.723	0.0179783
827.801	0.0179552
827.879	0.0178915
827.957	0.0178938
828.035	0.0177885
828.113	0.0178258
828.192	0.0178209
828.270	0.0178482
828.348	0.0177709
828.426	0.0176452
828.504	0.0177963
828.582	0.0177227
828.660	0.0176138
828.738	0.0176098
828.817	0.0176588
828.895	0.0175663
828.973	0.0175050
829.051	0.0174883
829.129	0.0174598
829.207	0.0173999
829.285	0.0173222
829.363	0.0173595
829.442	0.0173792
829.520	0.0171980
829.598	0.0171329
829.676	0.0172398
829.754	0.0172543
829.832	0.0172112
829.910	0.0172150
829.988	0.0170910
830.067	0.0173201
830.145	0.0171346
830.223	0.0171471
830.301	0.0172244
830.379	0.0173238
830.457	0.0171401
830.535	0.0172921
830.613	0.0173576
830.692	0.0172955
830.770	0.0171021
830.848	0.0171816
830.926	0.0172546
831.004	0.0172601
831.082	0.0171642
831.160	0.0171194
831.238	0.0170921
831.317	0.0169501
831.395	0.0170715
831.473	0.0169923
831.551	0.0167856
831.629	0.0168555
831.707	0.0168690
831.785	0.0169321
831.863	0.0168038
831.942	0.0169018
832.020	0.0168875
832.098	0.0169049
832.176	0.0169276
832.254	0.0171483
832.332	0.0171578
832.410	0.0170156
832.488	0.0170266
832.567	0.0172396
832.645	0.0170828
832.723	0.0172252
832.801	0.0170601
832.879	0.0173674
832.957	0.0172681
833.035	0.0171783
833.113	0.0173550
833.192	0.0172958
833.270	0.0173898
833.348	0.0174266
833.426	0.0174786
833.504	0.0174863
833.582	0.0172574
833.660	0.0174867
833.738	0.0176670
833.817	0.0174626
833.895	0.0173147
833.973	0.0175659
834.051	0.0174651
834.129	0.0174638
834.207	0.0175656
834.285	0.0173945
834.363	0.0174088
834.442	0.0176202
834.520	0.0176022
834.598	0.0176300
834.676	0.0174508
834.754	0.0173956
834.832	0.0172674
834.910	0.0173974
834.988	0.0174738
835.067	0.0173623
835.145	0.0173710
835.223	0.0171879
835.301	0.0173637
835.379	0.0172470
835.457	0.0175060
835.535	0.0173297
835.613	0.0173317
835.692	0.0174724
835.770	0.0173650
835.848	0.0175444
835.926	0.0175349
836.004	0.0177393
836.082	0.0177203
836.160	0.0176138
836.238	0.0176785
836.317	0.0177040
836.395	0.0178087
836.473	0.0178546
836.551	0.0178074
836.629	0.0176639
836.707	0.0176903
836.785	0.0176592
836.863	0.0177747
836.942	0.0176357
837.020	0.0177820
837.098	0.0176482
837.176	0.0176035
837.254	0.0176118
837.332	0.0173469
837.410	0.0172382
837.488	0.0172550
837.567	0.0172015
837.645	0.0171972
837.723	0.0171553
837.801	0.0170973
837.879	0.0170588
837.957	0.0168908
838.035	0.0168655
838.113	0.0167034
838.192	0.0168240
838.270	0.0167680
838.348	0.0167921
838.426	0.0168266
838.504	0.0166529
838.582	0.0167308
838.660	0.0166814
838.738	0.0167255
838.817	0.0167135
838.895	0.0168014
838.973	0.0168319
839.051	0.0168513
839.129	0.0167828
839.207	0.0168919
839.285	0.0170616
839.363	0.0168977
839.442	0.0167879
839.520	0.0169601
839.598	0.0172069
839.676	0.0172492
839.754	0.0173122
839.832	0.0171714
839.910	0.0172823
839.988	0.0172945
840.067	0.0173468
840.145	0.0174146
840.223	0.0174339
840.301	0.0174212
840.379	0.0173349
840.457	0.0175204
840.535	0.0175053
840.613	0.0173770
840.692	0.0174186
840.770	0.0174274
840.848	0.0174554
840.926	0.0174950
841.004	0.0174960
841.082	0.0176115
841.160	0.0176528
841.238	0.0174885
841.317	0.0176121
841.395	0.0178085
841.473	0.0178114
841.551	0.0177047
841.629	0.0176432
841.707	0.0176612
841.785	0.0177412
841.863	0.0177516
841.942	0.0178462
842.020	0.0179007
842.098	0.0177761
842.176	0.0178859
842.254	0.0178753
842.332	0.0179091
842.410	0.0178904
842.488	0.0177527
842.567	0.0176636
842.645	0.0177940
842.723	0.0177165
842.801	0.0175916
842.879	0.0176011
842.957	0.0175011
843.035	0.0174119
843.113	0.0172476
843.192	0.0171254
843.270	0.0169419
843.348	0.0168615
843.426	0.0167497
843.504	0.0167100
843.582	0.0164413
843.660	0.0163975
843.738	0.0163528
843.817	0.0164413
843.895	0.0164879
843.973	0.0164129
844.051	0.0164353
844.129	0.0164094
844.207	0.0164877
844.285	0.0167108
844.363	0.0166387
844.442	0.0168372
844.520	0.0168493
844.598	0.0170502
844.676	0.0171996
844.754	0.0172756
844.832	0.0173729
844.910	0.0173846
844.988	0.0174244
845.067	0.0175240
845.145	0.0176381
845.223	0.0177699
845.301	0.0176207
845.379	0.0176278
845.457	0.0177622
845.535	0.0176366
845.613	0.0176915
845.692	0.0176997
845.770	0.0177013
845.848	0.0176614
845.926	0.0175600
846.004	0.0175603
846.082	0.0175321
846.160	0.0175075
846.238	0.0174986
846.317	0.0174376
846.395	0.0175124
846.473	0.0173415
846.551	0.0173938
846.629	0.0174023
846.707	0.0173296
846.785	0.0175031
846.863	0.0173521
846.942	0.0173174
847.020	0.0175368
847.098	0.0175584
847.176	0.0174240
847.254	0.0175040
847.332	0.0175281
847.410	0.0174528
847.488	0.0175185
847.567	0.0176983
847.645	0.0174549
847.723	0.0174570
847.801	0.0175739
847.879	0.0175224
847.957	0.0175838
848.035	0.0175431
848.113	0.0176017
848.192	0.0175433
848.270	0.0175681
848.348	0.0173957
848.426	0.0175380
848.504	0.0174535
848.582	0.0172720
848.660	0.0171665
848.738	0.0172949
848.817	0.0172798
848.895	0.0170264
848.973	0.0169650
849.051	0.0168442
849.129	0.0168842
849.207	0.0167417
849.285	0.0165175
849.363	0.0166935
849.442	0.0166454
849.520	0.0167596
849.598	0.0168182
849.676	0.0167308
849.754	0.0168446
849.832	0.0168216
849.910	0.0169160
849.988	0.0169087
850.067	0.0169884
850.145	0.0170696
850.223	0.0170750
850.301	0.0172208
850.379	0.0173761
850.457	0.0173989
850.535	0.0173254
850.613	0.0174104
850.692	0.0174982
850.770	0.0175161
850.848	0.0175208
850.926	0.0175058
851.004	0.0175753
851.082	0.0176697
851.160	0.0176089
851.238	0.0177049
851.317	0.0177600
851.395	0.0176556
851.473	0.0177537
851.551	0.0177085
851.629	0.0177190
851.707	0.0176225
851.785	0.0175517
851.863	0.0175800
851.942	0.0176977
852.020	0.0176200
852.098	0.0175748
852.176	0.0174126
852.254	0.0175089
852.332	0.0175231
852.410	0.0175574
852.488	0.0175702
852.567	0.0173457
852.645	0.0175604
852.723	0.0177173
852.801	0.0174928
852.879	0.0175688
852.957	0.0175190
853.035	0.0175387
853.113	0.0175594
853.192	0.0175318
853.270	0.0175021
853.348	0.0174516
853.426	0.0175705
853.504	0.0174534
853.582	0.0173708
853.660	0.0174206
853.738	0.0172594
853.817	0.0172653
853.895	0.0173799
853.973	0.0170105
854.051	0.0170123
854.129	0.0170080
854.207	0.0169063
854.285	0.0168559
854.363	0.0168746
854.442	0.0167486
854.520	0.0167127
854.598	0.0166690
854.676	0.0166593
854.754	0.0166325
854.832	0.0167724
854.910	0.0166690
854.988	0.0166743
855.067	0.0164950
855.145	0.0167822
855.223	0.0168906
855.301	0.0169648
855.379	0.0169791
855.457	0.0169998
855.535	0.0169613
855.613	0.0171788
855.692	0.0171906
855.770	0.0171747
855.848	0.0173521
855.926	0.0174231
856.004	0.0173869
856.082	0.0175958
856.160	0.0177199
856.238	0.0174928
856.317	0.0175324
856.395	0.0176891
856.473	0.0178504
856.551	0.0177111
856.629	0.0178706
856.707	0.0177795
856.785	0.0177449
856.863	0.0176723
856.942	0.0177414
857.020	0.0178652
857.098	0.0176769
857.176	0.0177768
857.254	0.0179288
857.332	0.0179491
857.410	0.0177798
857.488	0.0177681
857.567	0.0175996
857.645	0.0177062
857.723	0.0178488
857.801	0.0176986
857.879	0.0177738
857.957	0.0176662
858.035	0.0176118
858.113	0.0174593
858.192	0.0174633
858.270	0.0174940
858.348	0.0174693
858.426	0.0174011
858.504	0.0174214
858.582	0.0173657
858.660	0.0173080
858.738	0.0173341
858.817	0.0172314
858.895	0.0172426
858.973	0.0171758
859.051	0.0172256
859.129	0.0171805
859.207	0.0171444
859.285	0.0171591
859.363	0.0170795
859.442	0.0169052
859.520	0.0170007
859.598	0.0169213
859.676	0.0169846
859.754	0.0171309
859.832	0.0168369
859.910	0.0169521
859.988	0.0169108
860.067	0.0168903
860.145	0.0168752
860.223	0.0167398
860.301	0.0168163
860.379	0.0168835
860.457	0.0169595
860.535	0.0170808
860.613	0.0169089
860.692	0.0171086
860.770	0.0170128
860.848	0.0170121
860.926	0.0171302
861.004	0.0170482
861.082	0.0172735
861.160	0.0172327
861.238	0.0172850
861.317	0.0173794
861.395	0.0173936
861.473	0.0174703
861.551	0.0173823
861.629	0.0174088
861.707	0.0174974
861.785	0.0174358
861.863	0.0175904
861.942	0.0175880
862.020	0.0175490
862.098	0.0176673
862.176	0.0175627
862.254	0.0175745
862.332	0.0174732
862.410	0.0176053
862.488	0.0175680
862.567	0.0175275
862.645	0.0176035
862.723	0.0176239
862.801	0.0176464
862.879	0.0176164
862.957	0.0176277
863.035	0.0175944
863.113	0.0177077
863.192	0.0175501
863.270	0.0175529
863.348	0.0176003
863.426	0.0176933
863.504	0.0175998
863.582	0.0175562
863.660	0.0176645
863.738	0.0176295
863.817	0.0176729
863.895	0.0174965
863.973	0.0175613
864.051	0.0175211
864.129	0.0174313
864.207	0.0175893
864.285	0.0175092
864.363	0.0175281
864.442	0.0174850
864.520	0.0174892
864.598	0.0175333
864.676	0.0175577
864.754	0.0173911
864.832	0.0174513
864.910	0.0175365
864.988	0.0174389
865.067	0.0173351
865.145	0.0173363
865.223	0.0172939
865.301	0.0172994
865.379	0.0172577
865.457	0.0172812
865.535	0.0171941
865.613	0.0171913
865.692	0.0170263
865.770	0.0170709
865.848	0.0170356
865.926	0.0169862
866.004	0.0168839
866.082	0.0168073
866.160	0.0167862
866.238	0.0167486
866.317	0.0168243
866.395	0.0167747
866.473	0.0166100
866.551	0.0169675
866.629	0.0168150
866.707	0.0168725
866.785	0.0168935
866.863	0.0170017
866.942	0.0169765
867.020	0.0171683
867.098	0.0173000
867.176	0.0171928
867.254	0.0172591
867.332	0.0173772
867.410	0.0175777
867.488	0.0174713
867.567	0.0175474
867.645	0.0175356
867.723	0.0174454
867.801	0.0174443
867.879	0.0175587
867.957	0.0175188
868.035	0.0174624
868.113	0.0173880
868.192	0.0174364
868.270	0.0175521
868.348	0.0174115
868.426	0.0174878
868.504	0.0174469
868.582	0.0175055
868.660	0.0174226
868.738	0.0174352
868.817	0.0175166
868.895	0.0175114
868.973	0.0174597
869.051	0.0174925
869.129	0.0175098
869.207	0.0173121
869.285	0.0174632
869.363	0.0175452
869.442	0.0175093
869.520	0.0175662
869.598	0.0175589
869.676	0.0175068
869.754	0.0174976
869.832	0.0176159
869.910	0.0175605
869.988	0.0174981
870.067	0.0176696
870.145	0.0176385
870.223	0.0174471
870.301	0.0175062
870.379	0.0174290
870.457	0.0174971
870.535	0.0175664
870.613	0.0176276
870.692	0.0173640
870.770	0.0173938
870.848	0.0174921
870.926	0.0173483
871.004	0.0171671
871.082	0.0171090
871.160	0.0172477
871.238	0.0170372
871.317	0.0170938
871.395	0.0168889
871.473	0.0168690
871.551	0.0169366
871.629	0.0169479
871.707	0.0167714
871.785	0.0169762
871.863	0.0168109
871.942	0.0168077
872.020	0.0167462
872.098	0.0169090
872.176	0.0170247
872.254	0.0169394
872.332	0.0170956
872.410	0.0169897
872.488	0.0172977
872.567	0.0172889
872.645	0.0173798
872.723	0.0172559
872.801	0.0174488
872.879	0.0176595
872.957	0.0176291
873.035	0.0176089
873.113	0.0175086
873.192	0.0177326
873.270	0.0176533
873.348	0.0175075
873.426	0.0176172
873.504	0.0175513
873.582	0.0175307
873.660	0.0174270
873.738	0.0174992
873.817	0.0175446
873.895	0.0174834
873.973	0.0173910
874.051	0.0174243
874.129	0.0174519
874.207	0.0173245
874.285	0.0173730
874.363	0.0174855
874.442	0.0174566
874.520	0.0175401
874.598	0.0173715
874.676	0.0174837
874.754	0.0175597
874.832	0.0173753
874.910	0.0175062
874.988	0.0175494
875.067	0.0176560
875.145	0.0176299
875.223	0.0176583
875.301	0.0176110
875.379	0.0176054
875.457	0.0173400
875.535	0.0173312
875.613	0.0174057
875.692	0.0173479
875.770	0.0172910
875.848	0.0172865
875.926	0.0172145
876.004	0.0173034
876.082	0.0172401
876.160	0.0171897
876.238	0.0171741
876.317	0.0171593
876.395	0.0172706
876.473	0.0171216
876.551	0.0170992
876.629	0.0170457
876.707	0.0170791
876.785	0.0170496
876.863	0.0168919
876.942	0.0170090
877.020	0.0169485
877.098	0.0169486
877.176	0.0169888
877.254	0.0170510
877.332	0.0170380
877.410	0.0170578
877.488	0.0171621
877.567	0.0170726
877.645	0.0171556
877.723	0.0171434
877.801	0.0171745
877.879	0.0172440
877.957	0.0172545
878.035	0.0172642
878.113	0.0173357
878.192	0.0173717
878.270	0.0173100
878.348	0.0174151
878.426	0.0174601
878.504	0.0173924
878.582	0.0174261
878.660	0.0174933
878.738	0.0175270
878.817	0.0176580
878.895	0.0175006
878.973	0.0175928
879.051	0.0174996
879.129	0.0176363
879.207	0.0174625
879.285	0.0176678
879.363	0.0176414
879.442	0.0176975
879.520	0.0176073
879.598	0.0175876
879.676	0.0176175
879.754	0.0175499
879.832	0.0174151
879.910	0.0175124
879.988	0.0175137
880.067	0.0174682
880.145	0.0173594
880.223	0.0173226
880.301	0.0172419
880.379	0.0172386
880.457	0.0173468
880.535	0.0173131
880.613	0.0172836
880.692	0.0172864
880.770	0.0173108
880.848	0.0174340
880.926	0.0173127
881.004	0.0173138
881.082	0.0174626
881.160	0.0174028
881.238	0.0174528
881.317	0.0175957
881.395	0.0175230
881.473	0.0175384
881.551	0.0174237
881.629	0.0173972
881.707	0.0174639
881.785	0.0174378
881.863	0.0173185
881.942	0.0174751
882.020	0.0173074
882.098	0.0174277
882.176	0.0173547
882.254	0.0173048
882.332	0.0172773
882.410	0.0172703
882.488	0.0173135
882.567	0.0172265
882.645	0.0172799
882.723	0.0170537
882.801	0.0171086
882.879	0.0170136
882.957	0.0170528
883.035	0.0169666
883.113	0.0171873
883.192	0.0170277
883.270	0.0170110
883.348	0.0170712
883.426	0.0170558
883.504	0.0170412
883.582	0.0171565
883.660	0.0173225
883.738	0.0174396
883.817	0.0174833
883.895	0.0173290
883.973	0.0172984
884.051	0.0173686
884.129	0.0174939
884.207	0.0174731
884.285	0.0174764
884.363	0.0175259
884.442	0.0175661
884.520	0.0174422
884.598	0.0173608
884.676	0.0174183
884.754	0.0175082
884.832	0.0175364
884.910	0.0173885
884.988	0.0173844
885.067	0.0172323
885.145	0.0173544
885.223	0.0172512
885.301	0.0174007
885.379	0.0173903
885.457	0.0175204
885.535	0.0173590
885.613	0.0175668
885.692	0.0174055
885.770	0.0173711
885.848	0.0175557
885.926	0.0175735
886.004	0.0176208
886.082	0.0176086
886.160	0.0177163
886.238	0.0175581
886.317	0.0175225
886.395	0.0176061
886.473	0.0177243
886.551	0.0176586
886.629	0.0177500
886.707	0.0175294
886.785	0.0176475
886.863	0.0175726
886.942	0.0174807
887.020	0.0174690
887.098	0.0175115
887.176	0.0175423
887.254	0.0173006
887.332	0.0171813
887.410	0.0173686
887.488	0.0173087
887.567	0.0172108
887.645	0.0171339
887.723	0.0169745
887.801	0.0170356
887.879	0.0170860
887.957	0.0169367
888.035	0.0170100
888.113	0.0170721
888.192	0.0170175
888.270	0.0170520
888.348	0.0170010
888.426	0.0169035
888.504	0.0168395
888.582	0.0171464
888.660	0.0171144
888.738	0.0171828
888.817	0.0170289
888.895	0.0171967
888.973	0.0173824
889.051	0.0172209
889.129	0.0171508
889.207	0.0175510
889.285	0.0176065
889.363	0.0175890
889.442	0.0175655
889.520	0.0175594
889.598	0.0176253
889.676	0.0176320
889.754	0.0178166
889.832	0.0176200
889.910	0.0176878
889.988	0.0176192
890.067	0.0176927
890.145	0.0176924
890.223	0.0177125
890.301	0.0177540
890.379	0.0176685
890.457	0.0176454
890.535	0.0176099
890.613	0.0177119
890.692	0.0176387
890.770	0.0175822
890.848	0.0175973
890.926	0.0173725
891.004	0.0173762
891.082	0.0173901
891.160	0.0174413
891.238	0.0172476
891.317	0.0171303
891.395	0.0172934
891.473	0.0171708
891.551	0.0170729
891.629	0.0169757
891.707	0.0171259
891.785	0.0170213
891.863	0.0171323
891.942	0.0170342
892.020	0.0170076
892.098	0.0169711
892.176	0.0171777
892.254	0.0170119
892.332	0.0168061
892.410	0.0169919
892.488	0.0168031
892.567	0.0167799
892.645	0.0169048
892.723	0.0168425
892.801	0.0169013
892.879	0.0168429
892.957	0.0167913
893.035	0.0168594
893.113	0.0172504
893.192	0.0171056
893.270	0.0171567
893.348	0.0171563
893.426	0.0174400
893.504	0.0175742
893.582	0.0177026
893.660	0.0175845
893.738	0.0176987
893.817	0.0178915
893.895	0.0178400
893.973	0.0180253
894.051	0.0179282
894.129	0.0179883
894.207	0.0178583
894.285	0.0179208
894.363	0.0177439
894.442	0.0177551
894.520	0.0176136
894.598	0.0177525
894.676	0.0176838
894.754	0.0175835
894.832	0.0175311
894.910	0.0175227
894.988	0.0174667
895.067	0.0174844
895.145	0.0173650
895.223	0.0174596
895.301	0.0173769
895.379	0.0173319
895.457	0.0174181
895.535	0.0175142
895.613	0.0174146
895.692	0.0173455
895.770	0.0173985
895.848	0.0174136
895.926	0.0174264
896.004	0.0174905
896.082	0.0176608
896.160	0.0176072
896.238	0.0177058
896.317	0.0175902
896.395	0.0176974
896.473	0.0176043
896.551	0.0176010
896.629	0.0177108
896.707	0.0175555
896.785	0.0176780
896.863	0.0175053
896.942	0.0173750
897.020	0.0172211
897.098	0.0173695
897.176	0.0171239
897.254	0.0169528
897.332	0.0169166
897.410	0.0167055
897.488	0.0167881
897.567	0.0166710
897.645	0.0167794
897.723	0.0165424
897.801	0.0164958
897.879	0.0165720
897.957	0.0166531
898.035	0.0166525
898.113	0.0166316
898.192	0.0166123
898.270	0.0168417
898.348	0.0167644
898.426	0.0167779
898.504	0.0168530
898.582	0.0169751
898.660	0.0170636
898.738	0.0171940
898.817	0.0173342
898.895	0.0174502
898.973	0.0176087
899.051	0.0177831
899.129	0.0177451
899.207	0.0177586
899.285	0.0178997
899.363	0.0179897
899.442	0.0178190
899.520	0.0178961
899.598	0.0178964
899.676	0.0178325
899.754	0.0178092
899.832	0.0178053
899.910	0.0176275
899.988	0.0175916
900.067	0.0176460
900.145	0.0176318
900.223	0.0174191
900.301	0.0174261
900.379	0.0173049
900.457	0.0173613
900.535	0.0173119
900.613	0.0172768
900.692	0.0172247
900.770	0.0174018
900.848	0.0172762
900.926	0.0172860
901.004	0.0173891
901.082	0.0175155
901.160	0.0174644
901.238	0.0177753
901.317	0.0177541
901.395	0.0177417
901.473	0.0176298
901.551	0.0178562
901.629	0.0178967
901.707	0.0179469
901.785	0.0179230
901.863	0.0178692
901.942	0.0178334
902.020	0.0177053
902.098	0.0177509
902.176	0.0176712
902.254	0.0174907
902.332	0.0175504
902.410	0.0173345
902.488	0.0172047
902.567	0.0169972
902.645	0.0171462
902.723	0.0169283
902.801	0.0169290
902.879	0.0169248
902.957	0.0167123
903.035	0.0166018
903.113	0.0164931
903.192	0.0165727
903.270	0.0166155
903.348	0.0166408
903.426	0.0164425
903.504	0.0164750
903.582	0.0165824
903.660	0.0168697
903.738	0.0167078
903.817	0.0166752
903.895	0.0170338
903.973	0.0170905
904.051	0.0171688
904.129	0.0174579
904.207	0.0175526
904.285	0.0175915
904.363	0.0177431
904.442	0.0177689
904.520	0.0177764
904.598	0.0179499
904.676	0.0179752
904.754	0.0180297
904.832	0.0179119
904.910	0.0178880
904.988	0.0179457
905.067	0.0177699
905.145	0.0178007
905.223	0.0178770
905.301	0.0176450
905.379	0.0175560
905.457	0.0175481
905.535	0.0175406
905.613	0.0175025
905.692	0.0173056
905.770	0.0173444
905.848	0.0171473
905.926	0.0172088
906.004	0.0171599
906.082	0.0170251
906.160	0.0171848
906.238	0.0171981
906.317	0.0170770
906.395	0.0171662
906.473	0.0171662
906.551	0.0171048
906.629	0.0171310
906.707	0.0172430
906.785	0.0172947
906.863	0.0173143
906.942	0.0173444
907.020	0.0172778
907.098	0.0171408
907.176	0.0173425
907.254	0.0173112
907.332	0.0173668
907.410	0.0172517
907.488	0.0173337
907.567	0.0173571
907.645	0.0172796
907.723	0.0173127
907.801	0.0172348
907.879	0.0172641
907.957	0.0171769
908.035	0.0170322
908.113	0.0172508
908.192	0.0173920
908.270	0.0172774
908.348	0.0172449
908.426	0.0173853
908.504	0.0172924
908.582	0.0173779
908.660	0.0174274
908.738	0.0172350
908.817	0.0173802
908.895	0.0173218
908.973	0.0174231
909.051	0.0173354
909.129	0.0173151
909.207	0.0173420
909.285	0.0174683
909.363	0.0175529
909.442	0.0174785
909.520	0.0175592
909.598	0.0175446
909.676	0.0176170
909.754	0.0174999
909.832	0.0175860
909.910	0.0176642
909.988	0.0175452
910.067	0.0176807
910.145	0.0175558
910.223	0.0177127
910.301	0.0176392
910.379	0.0176849
910.457	0.0176397
910.535	0.0176792
910.613	0.0176105
910.692	0.0173048
910.770	0.0173449
910.848	0.0173914
910.926	0.0173792
911.004	0.0171733
911.082	0.0172485
911.160	0.0171519
911.238	0.0171682
911.317	0.0173433
911.395	0.0171625
911.473	0.0172356
911.551	0.0173237
911.629	0.0173334
911.707	0.0172264
911.785	0.0173789
911.863	0.0174058
911.942	0.0174100
912.020	0.0173090
912.098	0.0173106
912.176	0.0172408
912.254	0.0171968
912.332	0.0172657
912.410	0.0172246
912.488	0.0171863
912.567	0.0172458
912.645	0.0171104
912.723	0.0170474
912.801	0.0170784
912.879	0.0170985
912.957	0.0171083
913.035	0.0170284
913.113	0.0169814
913.192	0.0170061
913.270	0.0170783
913.348	0.0171575
913.426	0.0170888
913.504	0.0172155
913.582	0.0171801
913.660	0.0171174
913.738	0.0171765
913.817	0.0173182
913.895	0.0172717
913.973	0.0175723
914.051	0.0175324
914.129	0.0175681
914.207	0.0176051
914.285	0.0175029
914.363	0.0175459
914.442	0.0175950
914.520	0.0177030
914.598	0.0174802
914.676	0.0176852
914.754	0.0174328
914.832	0.0174334
914.910	0.0174425
914.988	0.0173004
915.067	0.0173029
915.145	0.0173705
915.223	0.0172931
915.301	0.0173811
915.379	0.0173553
915.457	0.0174152
915.535	0.0174430
915.613	0.0172485
915.692	0.0172177
915.770	0.0173360
915.848	0.0173822
915.926	0.0174577
916.004	0.0172871
916.082	0.0172984
916.160	0.0173598
916.238	0.0172371
916.317	0.0173644
916.395	0.0171919
916.473	0.0173312
916.551	0.0171890
916.629	0.0173019
916.707	0.0171917
916.785	0.0172899
916.863	0.0174012
916.942	0.0175316
917.020	0.0175429
917.098	0.0175529
917.176	0.0176019
917.254	0.0175098
917.332	0.0175217
917.410	0.0177020
917.488	0.0176324
917.567	0.0177269
917.645	0.0175658
917.723	0.0173924
917.801	0.0176104
917.879	0.0174889
917.957	0.0174573
918.035	0.0173006
918.113	0.0171793
918.192	0.0170843
918.270	0.0171387
918.348	0.0168118
918.426	0.0169931
918.504	0.0170793
918.582	0.0169435
918.660	0.0169288
918.738	0.0169009
918.817	0.0170467
918.895	0.0172163
918.973	0.0171481
919.051	0.0173019
919.129	0.0172497
919.207	0.0172354
919.285	0.0173200
919.363	0.0172592
919.442	0.0173631
919.520	0.0173486
919.598	0.0173909
919.676	0.0173051
919.754	0.0173298
919.832	0.0172757
919.910	0.0172133
