06/01/2022	21:45:53	Ver.	4.1	UNKNOWN
Optical Delay	599.988409	Delta X		0.078125	Sweeps	1	Scan Rate	0/0
Coordinates	Axis 1	NaN	Axis 2	NaN	Axis 3	NaN	Axis 4	NaN	Axis 5	NaN	Axis 6	0.000000
TX Power	0.000000	RX Power	0.000000

599.988	0.0182969
600.067	0.0182832
600.145	0.0183329
600.223	0.0182715
600.301	0.0183104
600.379	0.0183511
600.457	0.0182816
600.535	0.0183104
600.613	0.0182760
600.692	0.0182381
600.770	0.0183415
600.848	0.0183316
600.926	0.0183009
601.004	0.0184165
601.082	0.0182581
601.160	0.0182758
601.238	0.0183067
601.317	0.0183547
601.395	0.0182935
601.473	0.0181567
601.551	0.0183512
601.629	0.0183000
601.707	0.0182387
601.785	0.0183284
601.863	0.0182733
601.942	0.0182715
602.020	0.0182646
602.098	0.0182652
602.176	0.0181921
602.254	0.0182425
602.332	0.0181440
602.410	0.0181667
602.488	0.0182228
602.567	0.0182281
602.645	0.0182955
602.723	0.0184044
602.801	0.0182108
602.879	0.0182355
602.957	0.0182261
603.035	0.0183247
603.113	0.0181873
603.192	0.0181868
603.270	0.0182240
603.348	0.0183223
603.426	0.0183825
603.504	0.0182346
603.582	0.0182456
603.660	0.0183765
603.738	0.0183675
603.817	0.0182956
603.895	0.0182436
603.973	0.0183531
604.051	0.0182892
604.129	0.0183006
604.207	0.0183315
604.285	0.0182068
604.363	0.0183428
604.442	0.0181872
604.520	0.0181470
604.598	0.0183626
604.676	0.0183129
604.754	0.0181367
604.832	0.0183364
604.910	0.0183624
604.988	0.0181597
605.067	0.0182923
605.145	0.0183447
605.223	0.0183038
605.301	0.0182670
605.379	0.0182767
605.457	0.0181813
605.535	0.0182964
605.613	0.0182912
605.692	0.0181821
605.770	0.0182320
605.848	0.0182818
605.926	0.0183213
606.004	0.0182188
606.082	0.0182522
606.160	0.0181432
606.238	0.0182325
606.317	0.0181258
606.395	0.0182494
606.473	0.0181659
606.551	0.0182191
606.629	0.0184001
606.707	0.0183241
606.785	0.0182723
606.863	0.0183575
606.942	0.0183398
607.020	0.0183626
607.098	0.0181196
607.176	0.0183368
607.254	0.0182794
607.332	0.0182388
607.410	0.0181487
607.488	0.0182698
607.567	0.0182039
607.645	0.0182793
607.723	0.0183216
607.801	0.0183094
607.879	0.0181545
607.957	0.0182784
608.035	0.0182986
608.113	0.0183039
608.192	0.0182704
608.270	0.0184194
608.348	0.0184401
608.426	0.0182760
608.504	0.0182315
608.582	0.0181268
608.660	0.0183065
608.738	0.0183209
608.817	0.0182405
608.895	0.0182839
608.973	0.0184178
609.051	0.0183255
609.129	0.0181915
609.207	0.0182842
609.285	0.0183631
609.363	0.0183414
609.442	0.0181380
609.520	0.0182040
609.598	0.0182471
609.676	0.0183524
609.754	0.0182515
609.832	0.0183248
609.910	0.0182743
609.988	0.0182319
610.067	0.0183105
610.145	0.0183701
610.223	0.0183651
610.301	0.0182410
610.379	0.0183053
610.457	0.0182800
610.535	0.0182371
610.613	0.0183962
610.692	0.0183170
610.770	0.0182636
610.848	0.0183856
610.926	0.0183508
611.004	0.0181414
611.082	0.0182740
611.160	0.0183747
611.238	0.0182732
611.317	0.0182777
611.395	0.0183065
611.473	0.0182062
611.551	0.0183298
611.629	0.0183966
611.707	0.0182682
611.785	0.0181654
611.863	0.0183083
611.942	0.0183495
612.020	0.0182487
612.098	0.0182867
612.176	0.0182444
612.254	0.0182674
612.332	0.0183121
612.410	0.0182872
612.488	0.0183947
612.567	0.0182675
612.645	0.0182970
612.723	0.0184453
612.801	0.0183135
612.879	0.0182866
612.957	0.0183860
613.035	0.0183480
613.113	0.0182449
613.192	0.0181489
613.270	0.0182241
613.348	0.0182270
613.426	0.0183840
613.504	0.0182827
613.582	0.0182583
613.660	0.0182944
613.738	0.0182642
613.817	0.0183393
613.895	0.0184123
613.973	0.0181441
614.051	0.0182812
614.129	0.0184164
614.207	0.0183605
614.285	0.0182224
614.363	0.0180579
614.442	0.0182429
614.520	0.0183134
614.598	0.0183105
614.676	0.0183031
614.754	0.0184037
614.832	0.0183444
614.910	0.0182661
614.988	0.0182776
615.067	0.0184441
615.145	0.0182943
615.223	0.0181735
615.301	0.0181570
615.379	0.0183137
615.457	0.0181975
615.535	0.0183214
615.613	0.0182812
615.692	0.0182358
615.770	0.0184395
615.848	0.0182735
615.926	0.0182584
616.004	0.0183124
616.082	0.0184258
616.160	0.0182500
616.238	0.0183384
616.317	0.0183115
616.395	0.0181228
616.473	0.0183124
616.551	0.0181882
616.629	0.0182680
616.707	0.0183137
616.785	0.0182274
616.863	0.0183641
616.942	0.0182899
617.020	0.0181995
617.098	0.0181909
617.176	0.0182780
617.254	0.0182275
617.332	0.0183579
617.410	0.0182913
617.488	0.0182578
617.567	0.0182908
617.645	0.0182944
617.723	0.0181588
617.801	0.0182285
617.879	0.0183546
617.957	0.0184058
618.035	0.0183178
618.113	0.0182635
618.192	0.0182834
618.270	0.0183368
618.348	0.0183809
618.426	0.0183533
618.504	0.0181747
618.582	0.0183904
618.660	0.0183645
618.738	0.0184838
618.817	0.0183717
618.895	0.0183724
618.973	0.0182807
619.051	0.0182761
619.129	0.0183847
619.207	0.0183194
619.285	0.0182844
619.363	0.0182928
619.442	0.0181807
619.520	0.0181922
619.598	0.0182762
619.676	0.0183039
619.754	0.0181952
619.832	0.0181760
619.910	0.0180605
619.988	0.0182937
620.067	0.0183319
620.145	0.0183688
620.223	0.0182313
620.301	0.0182565
620.379	0.0181628
620.457	0.0182186
620.535	0.0183108
620.613	0.0181989
620.692	0.0182987
620.770	0.0181422
620.848	0.0180860
620.926	0.0182472
621.004	0.0183128
621.082	0.0181323
621.160	0.0182972
621.238	0.0183186
621.317	0.0182477
621.395	0.0182631
621.473	0.0182224
621.551	0.0182832
621.629	0.0182771
621.707	0.0183152
621.785	0.0182730
621.863	0.0181627
621.942	0.0182408
622.020	0.0182832
622.098	0.0183341
622.176	0.0182307
622.254	0.0183148
622.332	0.0181838
622.410	0.0184277
622.488	0.0184128
622.567	0.0181478
622.645	0.0182792
622.723	0.0184547
622.801	0.0181372
622.879	0.0182124
622.957	0.0183694
623.035	0.0183176
623.113	0.0182818
623.192	0.0181058
623.270	0.0182997
623.348	0.0183203
623.426	0.0182549
623.504	0.0181859
623.582	0.0183035
623.660	0.0181958
623.738	0.0183170
623.817	0.0182605
623.895	0.0180635
623.973	0.0181367
624.051	0.0183031
624.129	0.0182684
624.207	0.0182680
624.285	0.0183678
624.363	0.0182126
624.442	0.0181944
624.520	0.0181950
624.598	0.0182793
624.676	0.0183150
624.754	0.0181841
624.832	0.0182754
624.910	0.0182867
624.988	0.0183664
625.067	0.0183556
625.145	0.0181290
625.223	0.0182497
625.301	0.0182456
625.379	0.0181366
625.457	0.0182357
625.535	0.0182068
625.613	0.0183028
625.692	0.0183252
625.770	0.0182811
625.848	0.0182112
625.926	0.0181454
626.004	0.0181956
626.082	0.0182238
626.160	0.0182700
626.238	0.0182962
626.317	0.0181979
626.395	0.0181453
626.473	0.0182000
626.551	0.0181873
626.629	0.0181242
626.707	0.0181336
626.785	0.0181999
626.863	0.0183786
626.942	0.0181269
627.020	0.0181764
627.098	0.0181660
627.176	0.0183421
627.254	0.0184276
627.332	0.0183700
627.410	0.0182169
627.488	0.0183140
627.567	0.0183191
627.645	0.0183534
627.723	0.0183003
627.801	0.0183842
627.879	0.0183608
627.957	0.0182940
628.035	0.0181781
628.113	0.0182716
628.192	0.0183195
628.270	0.0184259
628.348	0.0182336
628.426	0.0183720
628.504	0.0183595
628.582	0.0182497
628.660	0.0183624
628.738	0.0183029
628.817	0.0183155
628.895	0.0182378
628.973	0.0183073
629.051	0.0182117
629.129	0.0182333
629.207	0.0182366
629.285	0.0181984
629.363	0.0183694
629.442	0.0182381
629.520	0.0183901
629.598	0.0184268
629.676	0.0181963
629.754	0.0182880
629.832	0.0183134
629.910	0.0182738
629.988	0.0181596
630.067	0.0183613
630.145	0.0182614
630.223	0.0182312
630.301	0.0183782
630.379	0.0183299
630.457	0.0183879
630.535	0.0183515
630.613	0.0182603
630.692	0.0181956
630.770	0.0182719
630.848	0.0183200
630.926	0.0183483
631.004	0.0182486
631.082	0.0183090
631.160	0.0182397
631.238	0.0183373
631.317	0.0181225
631.395	0.0183160
631.473	0.0181355
631.551	0.0183030
631.629	0.0182932
631.707	0.0182710
631.785	0.0181478
631.863	0.0180582
631.942	0.0181937
632.020	0.0183438
632.098	0.0183335
632.176	0.0182522
632.254	0.0182375
632.332	0.0181386
632.410	0.0183058
632.488	0.0183295
632.567	0.0181396
632.645	0.0182366
632.723	0.0182131
632.801	0.0182000
632.879	0.0181172
632.957	0.0183205
633.035	0.0183526
633.113	0.0182748
633.192	0.0182629
633.270	0.0183414
633.348	0.0183189
633.426	0.0180675
633.504	0.0183492
633.582	0.0183485
633.660	0.0184015
633.738	0.0184024
633.817	0.0184404
633.895	0.0183192
633.973	0.0181759
634.051	0.0183218
634.129	0.0184084
634.207	0.0184201
634.285	0.0182292
634.363	0.0183135
634.442	0.0182709
634.520	0.0183644
634.598	0.0182504
634.676	0.0183080
634.754	0.0182607
634.832	0.0182602
634.910	0.0184121
634.988	0.0184517
635.067	0.0183080
635.145	0.0183168
635.223	0.0182312
635.301	0.0182372
635.379	0.0183661
635.457	0.0184168
635.535	0.0183462
635.613	0.0182164
635.692	0.0182993
635.770	0.0184264
635.848	0.0182742
635.926	0.0182832
636.004	0.0182301
636.082	0.0183891
636.160	0.0183360
636.238	0.0183079
636.317	0.0184501
636.395	0.0182126
636.473	0.0182073
636.551	0.0183292
636.629	0.0184299
636.707	0.0182487
636.785	0.0182419
636.863	0.0182564
636.942	0.0183740
637.020	0.0181612
637.098	0.0183094
637.176	0.0183231
637.254	0.0183186
637.332	0.0182719
637.410	0.0182097
637.488	0.0182012
637.567	0.0183318
637.645	0.0182698
637.723	0.0182498
637.801	0.0183497
637.879	0.0182301
637.957	0.0182543
638.035	0.0182475
638.113	0.0183642
638.192	0.0182887
638.270	0.0182345
638.348	0.0182740
638.426	0.0182610
638.504	0.0183046
638.582	0.0183443
638.660	0.0182896
638.738	0.0182797
638.817	0.0182294
638.895	0.0181894
638.973	0.0183794
639.051	0.0182754
639.129	0.0183221
639.207	0.0183556
639.285	0.0183739
639.363	0.0183639
639.442	0.0185315
639.520	0.0184145
639.598	0.0183782
639.676	0.0183413
639.754	0.0184198
639.832	0.0184882
639.910	0.0184238
639.988	0.0183806
640.067	0.0184389
640.145	0.0183447
640.223	0.0182460
640.301	0.0183360
640.379	0.0183649
640.457	0.0182771
640.535	0.0182659
640.613	0.0181819
640.692	0.0183121
640.770	0.0182722
640.848	0.0184011
640.926	0.0184832
641.004	0.0182745
641.082	0.0184651
641.160	0.0183541
641.238	0.0183351
641.317	0.0184840
641.395	0.0184678
641.473	0.0182427
641.551	0.0181925
641.629	0.0182869
641.707	0.0182050
641.785	0.0183543
641.863	0.0184560
641.942	0.0182104
642.020	0.0183322
642.098	0.0183942
642.176	0.0183424
642.254	0.0183133
642.332	0.0182278
642.410	0.0181982
642.488	0.0182211
642.567	0.0181496
642.645	0.0183025
642.723	0.0182363
642.801	0.0183798
642.879	0.0182427
642.957	0.0182069
643.035	0.0181037
643.113	0.0183234
643.192	0.0182992
643.270	0.0182096
643.348	0.0180675
643.426	0.0182763
643.504	0.0181775
643.582	0.0183157
643.660	0.0181989
643.738	0.0182626
643.817	0.0183935
643.895	0.0180844
643.973	0.0182652
644.051	0.0182619
644.129	0.0183537
644.207	0.0184487
644.285	0.0183572
644.363	0.0182819
644.442	0.0182301
644.520	0.0182517
644.598	0.0184396
644.676	0.0183197
644.754	0.0183644
644.832	0.0183637
644.910	0.0183439
644.988	0.0182982
645.067	0.0182453
645.145	0.0182922
645.223	0.0183046
645.301	0.0182275
645.379	0.0183290
645.457	0.0182929
645.535	0.0182809
645.613	0.0182137
645.692	0.0183799
645.770	0.0182694
645.848	0.0183739
645.926	0.0184451
646.004	0.0182697
646.082	0.0182655
646.160	0.0182961
646.238	0.0183768
646.317	0.0182686
646.395	0.0183083
646.473	0.0183635
646.551	0.0182001
646.629	0.0182475
646.707	0.0183366
646.785	0.0183076
646.863	0.0184290
646.942	0.0183225
647.020	0.0184426
647.098	0.0183689
647.176	0.0183234
647.254	0.0183352
647.332	0.0183401
647.410	0.0182075
647.488	0.0182943
647.567	0.0182323
647.645	0.0182594
647.723	0.0183670
647.801	0.0182205
647.879	0.0182597
647.957	0.0182569
648.035	0.0183488
648.113	0.0182147
648.192	0.0183871
648.270	0.0182884
648.348	0.0183079
648.426	0.0183372
648.504	0.0182600
648.582	0.0182590
648.660	0.0181908
648.738	0.0183172
648.817	0.0182309
648.895	0.0181718
648.973	0.0183366
649.051	0.0183129
649.129	0.0183741
649.207	0.0182174
649.285	0.0183784
649.363	0.0182917
649.442	0.0182478
649.520	0.0180822
649.598	0.0181232
649.676	0.0183013
649.754	0.0182715
649.832	0.0181419
649.910	0.0182472
649.988	0.0182317
650.067	0.0182887
650.145	0.0182910
650.223	0.0182774
650.301	0.0181519
650.379	0.0182764
650.457	0.0182876
650.535	0.0182804
650.613	0.0182657
650.692	0.0183464
650.770	0.0184115
650.848	0.0182210
650.926	0.0182946
651.004	0.0182373
651.082	0.0182963
651.160	0.0181949
651.238	0.0182822
651.317	0.0183150
651.395	0.0183662
651.473	0.0182029
651.551	0.0183398
651.629	0.0183177
651.707	0.0182137
651.785	0.0182731
651.863	0.0183591
651.942	0.0183202
652.020	0.0182777
652.098	0.0182991
652.176	0.0183209
652.254	0.0184332
652.332	0.0183102
652.410	0.0182333
652.488	0.0182605
652.567	0.0182799
652.645	0.0182951
652.723	0.0182856
652.801	0.0180544
652.879	0.0181692
652.957	0.0182752
653.035	0.0182082
653.113	0.0182549
653.192	0.0182346
653.270	0.0181770
653.348	0.0182203
653.426	0.0182153
653.504	0.0182810
653.582	0.0182330
653.660	0.0181642
653.738	0.0183174
653.817	0.0183430
653.895	0.0182668
653.973	0.0182493
654.051	0.0183013
654.129	0.0182336
654.207	0.0183999
654.285	0.0183833
654.363	0.0183282
654.442	0.0183133
654.520	0.0183367
654.598	0.0182487
654.676	0.0182572
654.754	0.0183755
654.832	0.0183222
654.910	0.0184066
654.988	0.0182034
655.067	0.0184093
655.145	0.0182677
655.223	0.0182549
655.301	0.0183492
655.379	0.0183552
655.457	0.0183852
655.535	0.0183237
655.613	0.0183680
655.692	0.0182240
655.770	0.0182364
655.848	0.0182851
655.926	0.0183051
656.004	0.0182868
656.082	0.0183636
656.160	0.0183456
656.238	0.0182032
656.317	0.0183351
656.395	0.0182806
656.473	0.0182352
656.551	0.0181778
656.629	0.0182492
656.707	0.0183805
656.785	0.0181683
656.863	0.0182774
656.942	0.0183123
657.020	0.0184380
657.098	0.0183395
657.176	0.0184222
657.254	0.0183127
657.332	0.0182577
657.410	0.0181822
657.488	0.0182530
657.567	0.0182394
657.645	0.0183437
657.723	0.0184019
657.801	0.0182143
657.879	0.0183098
657.957	0.0182394
658.035	0.0181115
658.113	0.0183117
658.192	0.0182829
658.270	0.0182794
658.348	0.0183723
658.426	0.0182205
658.504	0.0182767
658.582	0.0183528
658.660	0.0183543
658.738	0.0183188
658.817	0.0184354
658.895	0.0184287
658.973	0.0183979
659.051	0.0184676
659.129	0.0184137
659.207	0.0182637
659.285	0.0182797
659.363	0.0182946
659.442	0.0183016
659.520	0.0182640
659.598	0.0182600
659.676	0.0182138
659.754	0.0180486
659.832	0.0182676
659.910	0.0181532
659.988	0.0181591
660.067	0.0180444
660.145	0.0181964
660.223	0.0182539
660.301	0.0182935
660.379	0.0183391
660.457	0.0183192
660.535	0.0182989
660.613	0.0183820
660.692	0.0184757
660.770	0.0183810
660.848	0.0184444
660.926	0.0183974
661.004	0.0184129
661.082	0.0184065
661.160	0.0183208
661.238	0.0182472
661.317	0.0181396
661.395	0.0181406
661.473	0.0181586
661.551	0.0180949
661.629	0.0181517
661.707	0.0181195
661.785	0.0181563
661.863	0.0181271
661.942	0.0181482
662.020	0.0182173
662.098	0.0181787
662.176	0.0182804
662.254	0.0182240
662.332	0.0181815
662.410	0.0183351
662.488	0.0184135
662.567	0.0183417
662.645	0.0183974
662.723	0.0183530
662.801	0.0185127
662.879	0.0182116
662.957	0.0182398
663.035	0.0182250
663.113	0.0184353
663.192	0.0183163
663.270	0.0181781
663.348	0.0182806
663.426	0.0182636
663.504	0.0183533
663.582	0.0182954
663.660	0.0181387
663.738	0.0181184
663.817	0.0180865
663.895	0.0183107
663.973	0.0183347
664.051	0.0182067
664.129	0.0182034
664.207	0.0182595
664.285	0.0183773
664.363	0.0183110
664.442	0.0183129
664.520	0.0183974
664.598	0.0184260
664.676	0.0183490
664.754	0.0184593
664.832	0.0183504
664.910	0.0183649
664.988	0.0183132
665.067	0.0184233
665.145	0.0183661
665.223	0.0183641
665.301	0.0183421
665.379	0.0182595
665.457	0.0181468
665.535	0.0182225
665.613	0.0182167
665.692	0.0180251
665.770	0.0180156
665.848	0.0181547
665.926	0.0180962
666.004	0.0181042
666.082	0.0181753
666.160	0.0181531
666.238	0.0182288
666.317	0.0183372
666.395	0.0184557
666.473	0.0183949
666.551	0.0184799
666.629	0.0184155
666.707	0.0185137
666.785	0.0185204
666.863	0.0184063
666.942	0.0184293
667.020	0.0184052
667.098	0.0183813
667.176	0.0183121
667.254	0.0182657
667.332	0.0181577
667.410	0.0181190
667.488	0.0180698
667.567	0.0181567
667.645	0.0181010
667.723	0.0181446
667.801	0.0180228
667.879	0.0181280
667.957	0.0182098
668.035	0.0182467
668.113	0.0183251
668.192	0.0184081
668.270	0.0184464
668.348	0.0184560
668.426	0.0184563
668.504	0.0184618
668.582	0.0184885
668.660	0.0184051
668.738	0.0184396
668.817	0.0185278
668.895	0.0184324
668.973	0.0183308
669.051	0.0183953
669.129	0.0182279
669.207	0.0181841
669.285	0.0181859
669.363	0.0182239
669.442	0.0181839
669.520	0.0181120
669.598	0.0181578
669.676	0.0181863
669.754	0.0181843
669.832	0.0182642
669.910	0.0182008
669.988	0.0182613
670.067	0.0182700
670.145	0.0183533
670.223	0.0182797
670.301	0.0184321
670.379	0.0182569
670.457	0.0183659
670.535	0.0183560
670.613	0.0184465
670.692	0.0184924
670.770	0.0183000
670.848	0.0184624
670.926	0.0184393
671.004	0.0185040
671.082	0.0184480
671.160	0.0183662
671.238	0.0184175
671.317	0.0182344
671.395	0.0184075
671.473	0.0184174
671.551	0.0182854
671.629	0.0183633
671.707	0.0183721
671.785	0.0182084
671.863	0.0181836
671.942	0.0182903
672.020	0.0182498
672.098	0.0181066
672.176	0.0182659
672.254	0.0181495
672.332	0.0182524
672.410	0.0181596
672.488	0.0180103
672.567	0.0182153
672.645	0.0181507
672.723	0.0181593
672.801	0.0182442
672.879	0.0182560
672.957	0.0181841
673.035	0.0182352
673.113	0.0183739
673.192	0.0183675
673.270	0.0183219
673.348	0.0185216
673.426	0.0184234
673.504	0.0184515
673.582	0.0183747
673.660	0.0185422
673.738	0.0185693
673.817	0.0185226
673.895	0.0184689
673.973	0.0182996
674.051	0.0183363
674.129	0.0182939
674.207	0.0182906
674.285	0.0183394
674.363	0.0183466
674.442	0.0182417
674.520	0.0182986
674.598	0.0181836
674.676	0.0182049
674.754	0.0181738
674.832	0.0182435
674.910	0.0182867
674.988	0.0182201
675.067	0.0182322
675.145	0.0184152
675.223	0.0184013
675.301	0.0183472
675.379	0.0184470
675.457	0.0184002
675.535	0.0183630
675.613	0.0184180
675.692	0.0184311
675.770	0.0184630
675.848	0.0183098
675.926	0.0185372
676.004	0.0184223
676.082	0.0183128
676.160	0.0184225
676.238	0.0181906
676.317	0.0182274
676.395	0.0182023
676.473	0.0181671
676.551	0.0180983
676.629	0.0180715
676.707	0.0180331
676.785	0.0180719
676.863	0.0181197
676.942	0.0182323
677.020	0.0181683
677.098	0.0182057
677.176	0.0181792
677.254	0.0181369
677.332	0.0183736
677.410	0.0184818
677.488	0.0184100
677.567	0.0185183
677.645	0.0186433
677.723	0.0186758
677.801	0.0187948
677.879	0.0186421
677.957	0.0185455
678.035	0.0186884
678.113	0.0184331
678.192	0.0184454
678.270	0.0184740
678.348	0.0183568
678.426	0.0181338
678.504	0.0181155
678.582	0.0182008
678.660	0.0181497
678.738	0.0179836
678.817	0.0180877
678.895	0.0179951
678.973	0.0180927
679.051	0.0180184
679.129	0.0178358
679.207	0.0179349
679.285	0.0179940
679.363	0.0181095
679.442	0.0179707
679.520	0.0180412
679.598	0.0180478
679.676	0.0181300
679.754	0.0181991
679.832	0.0183624
679.910	0.0184120
679.988	0.0185776
680.067	0.0185979
680.145	0.0185676
680.223	0.0188386
680.301	0.0189024
680.379	0.0189316
680.457	0.0190354
680.535	0.0189253
680.613	0.0188506
680.692	0.0188523
680.770	0.0187598
680.848	0.0185614
680.926	0.0183613
681.004	0.0180305
681.082	0.0178806
681.160	0.0177242
681.238	0.0174772
681.317	0.0173606
681.395	0.0173675
681.473	0.0171760
681.551	0.0172896
681.629	0.0173077
681.707	0.0174504
681.785	0.0177910
681.863	0.0180062
681.942	0.0180331
682.020	0.0183333
682.098	0.0184474
682.176	0.0185812
682.254	0.0186344
682.332	0.0188834
682.410	0.0189962
682.488	0.0191296
682.567	0.0192915
682.645	0.0191698
682.723	0.0190881
682.801	0.0192473
682.879	0.0191487
682.957	0.0190077
683.035	0.0189478
683.113	0.0188267
683.192	0.0186755
683.270	0.0184930
683.348	0.0181165
683.426	0.0179950
683.504	0.0178580
683.582	0.0177230
683.660	0.0173475
683.738	0.0172225
683.817	0.0172891
683.895	0.0172040
683.973	0.0170311
684.051	0.0171389
684.129	0.0171725
684.207	0.0173450
684.285	0.0175329
684.363	0.0176955
684.442	0.0181216
684.520	0.0183298
684.598	0.0186221
684.676	0.0189322
684.754	0.0192049
684.832	0.0193121
684.910	0.0196050
684.988	0.0198029
685.067	0.0199224
685.145	0.0198461
685.223	0.0199039
685.301	0.0198360
685.379	0.0197545
685.457	0.0194733
685.535	0.0192543
685.613	0.0189355
685.692	0.0184951
685.770	0.0182642
685.848	0.0178239
685.926	0.0173703
686.004	0.0168943
686.082	0.0167014
686.160	0.0163674
686.238	0.0161887
686.317	0.0158861
686.395	0.0157838
686.473	0.0156620
686.551	0.0157372
686.629	0.0156833
686.707	0.0160533
686.785	0.0163157
686.863	0.0165970
686.942	0.0171127
687.020	0.0172352
687.098	0.0176884
687.176	0.0183401
687.254	0.0186733
687.332	0.0189754
687.410	0.0195634
687.488	0.0197842
687.567	0.0200864
687.645	0.0204221
687.723	0.0207280
687.801	0.0208294
687.879	0.0209074
687.957	0.0209968
688.035	0.0209778
688.113	0.0208222
688.192	0.0206655
688.270	0.0206455
688.348	0.0202459
688.426	0.0197436
688.504	0.0192751
688.582	0.0188524
688.660	0.0184507
688.738	0.0178760
688.817	0.0172412
688.895	0.0167748
688.973	0.0165019
689.051	0.0161959
689.129	0.0159676
689.207	0.0158401
689.285	0.0160280
689.363	0.0157866
689.442	0.0160852
689.520	0.0162979
689.598	0.0166075
689.676	0.0168610
689.754	0.0172796
689.832	0.0175783
689.910	0.0177596
689.988	0.0180860
690.067	0.0183433
690.145	0.0184473
690.223	0.0185829
690.301	0.0186193
690.379	0.0187660
690.457	0.0187399
690.535	0.0188943
690.613	0.0189353
690.692	0.0190546
690.770	0.0192862
690.848	0.0194086
690.926	0.0194850
691.004	0.0196055
691.082	0.0196277
691.160	0.0196461
691.238	0.0195705
691.317	0.0193968
691.395	0.0193626
691.473	0.0192115
691.551	0.0187881
691.629	0.0183924
691.707	0.0180782
691.785	0.0177879
691.863	0.0174358
691.942	0.0170870
692.020	0.0167878
692.098	0.0167136
692.176	0.0167200
692.254	0.0167650
692.332	0.0167803
692.410	0.0170977
692.488	0.0174622
692.567	0.0176211
692.645	0.0178312
692.723	0.0181683
692.801	0.0182986
692.879	0.0184090
692.957	0.0185713
693.035	0.0184982
693.113	0.0186091
693.192	0.0185640
693.270	0.0185434
693.348	0.0185545
693.426	0.0185841
693.504	0.0186945
693.582	0.0187006
693.660	0.0188647
693.738	0.0188903
693.817	0.0190836
693.895	0.0191699
693.973	0.0192269
694.051	0.0190889
694.129	0.0189285
694.207	0.0190224
694.285	0.0189588
694.363	0.0187509
694.442	0.0185242
694.520	0.0184169
694.598	0.0183615
694.676	0.0182846
694.754	0.0182887
694.832	0.0182298
694.910	0.0182690
694.988	0.0185233
695.067	0.0186240
695.145	0.0188071
695.223	0.0190024
695.301	0.0190210
695.379	0.0191538
695.457	0.0193079
695.535	0.0191725
695.613	0.0189933
695.692	0.0186537
695.770	0.0183243
695.848	0.0180141
695.926	0.0175292
696.004	0.0168600
696.082	0.0166290
696.160	0.0160913
696.238	0.0157642
696.317	0.0154482
696.395	0.0152990
696.473	0.0150256
696.551	0.0149326
696.629	0.0150150
696.707	0.0149824
696.785	0.0152242
696.863	0.0153531
696.942	0.0157552
697.020	0.0161048
697.098	0.0167246
697.176	0.0170717
697.254	0.0174574
697.332	0.0181326
697.410	0.0186880
697.488	0.0192394
697.567	0.0197746
697.645	0.0202288
697.723	0.0209126
697.801	0.0213257
697.879	0.0216930
697.957	0.0220219
698.035	0.0222686
698.113	0.0224741
698.192	0.0225686
698.270	0.0227679
698.348	0.0227682
698.426	0.0225510
698.504	0.0225082
698.582	0.0223759
698.660	0.0220778
698.738	0.0219658
698.817	0.0215696
698.895	0.0210770
698.973	0.0208035
699.051	0.0206905
699.129	0.0201705
699.207	0.0196793
699.285	0.0193889
699.363	0.0189540
699.442	0.0185146
699.520	0.0178831
699.598	0.0173066
699.676	0.0166308
699.754	0.0163108
699.832	0.0158229
699.910	0.0149879
699.988	0.0144528
700.067	0.0139114
700.145	0.0132555
700.223	0.0127019
700.301	0.0121369
700.379	0.0117205
700.457	0.0113929
700.535	0.0111194
700.613	0.0112225
700.692	0.0111102
700.770	0.0115086
700.848	0.0122614
700.926	0.0129459
701.004	0.0139480
701.082	0.0149297
701.160	0.0159576
701.238	0.0170554
701.317	0.0179877
701.395	0.0191656
701.473	0.0200536
701.551	0.0206186
701.629	0.0212407
701.707	0.0217492
701.785	0.0220164
701.863	0.0222655
701.942	0.0221309
702.020	0.0220622
702.098	0.0218983
702.176	0.0216843
702.254	0.0214349
702.332	0.0213252
702.410	0.0211518
702.488	0.0210328
702.567	0.0209681
702.645	0.0207719
702.723	0.0206834
702.801	0.0207520
702.879	0.0206717
702.957	0.0206627
703.035	0.0208108
703.113	0.0208019
703.192	0.0210406
703.270	0.0215400
703.348	0.0217603
703.426	0.0220854
703.504	0.0224158
703.582	0.0226198
703.660	0.0228776
703.738	0.0232545
703.817	0.0231313
703.895	0.0230008
703.973	0.0228396
704.051	0.0225367
704.129	0.0222608
704.207	0.0216229
704.285	0.0209949
704.363	0.0201604
704.442	0.0192916
704.520	0.0183993
704.598	0.0176151
704.676	0.0165137
704.754	0.0154728
704.832	0.0144222
704.910	0.0135060
704.988	0.0126098
705.067	0.0117313
705.145	0.0110319
705.223	0.0103860
705.301	0.0100874
705.379	0.00958038
705.457	0.00936302
705.535	0.00925209
705.613	0.00926033
705.692	0.00916664
705.770	0.00946312
705.848	0.00961647
705.926	0.00956512
706.004	0.00978088
706.082	0.0102460
706.160	0.0107745
706.238	0.0112765
706.317	0.0121848
706.395	0.0132365
706.473	0.0142294
706.551	0.0154375
706.629	0.0167664
706.707	0.0183723
706.785	0.0200912
706.863	0.0217496
706.942	0.0233014
707.020	0.0247175
707.098	0.0260839
707.176	0.0272218
707.254	0.0279491
707.332	0.0285670
707.410	0.0287923
707.488	0.0288712
707.567	0.0286813
707.645	0.0279702
707.723	0.0274937
707.801	0.0266393
707.879	0.0256715
707.957	0.0244868
708.035	0.0235543
708.113	0.0225144
708.192	0.0214225
708.270	0.0204626
708.348	0.0196512
708.426	0.0189631
708.504	0.0185244
708.582	0.0179298
708.660	0.0177409
708.738	0.0175643
708.817	0.0174574
708.895	0.0175363
708.973	0.0177940
709.051	0.0179950
709.129	0.0184045
709.207	0.0188392
709.285	0.0191951
709.363	0.0197897
709.442	0.0203210
709.520	0.0206877
709.598	0.0210770
709.676	0.0214587
709.754	0.0216635
709.832	0.0216515
709.910	0.0215626
709.988	0.0212598
710.067	0.0206928
710.145	0.0200915
710.223	0.0191414
710.301	0.0179012
710.379	0.0166216
710.457	0.0153440
710.535	0.0138666
710.613	0.0126175
710.692	0.0112522
710.770	0.0101110
710.848	0.00880707
710.926	0.00804245
711.004	0.00741104
711.082	0.00698425
711.160	0.00656433
711.238	0.00637604
711.317	0.00658379
711.395	0.00674095
711.473	0.00717834
711.551	0.00761185
711.629	0.00824249
711.707	0.00877258
711.785	0.00974464
711.863	0.0105685
711.942	0.0118349
712.020	0.0131646
712.098	0.0143961
712.176	0.0157640
712.254	0.0173969
712.332	0.0190425
712.410	0.0207049
712.488	0.0223826
712.567	0.0241100
712.645	0.0256727
712.723	0.0271220
712.801	0.0285216
712.879	0.0296557
712.957	0.0305280
713.035	0.0311024
713.113	0.0314407
713.192	0.0316055
713.270	0.0310590
713.348	0.0304029
713.426	0.0296586
713.504	0.0285489
713.582	0.0272329
713.660	0.0260002
713.738	0.0246400
713.817	0.0232427
713.895	0.0219551
713.973	0.0209277
714.051	0.0199131
714.129	0.0190955
714.207	0.0183769
714.285	0.0179282
714.363	0.0177737
714.442	0.0177417
714.520	0.0175919
714.598	0.0175835
714.676	0.0178071
714.754	0.0181515
714.832	0.0185193
714.910	0.0188579
714.988	0.0191140
715.067	0.0195733
715.145	0.0198801
715.223	0.0201947
715.301	0.0203604
715.379	0.0205368
715.457	0.0204168
715.535	0.0203600
715.613	0.0198421
715.692	0.0192819
715.770	0.0185114
715.848	0.0176496
715.926	0.0166153
716.004	0.0152256
716.082	0.0139516
716.160	0.0126892
716.238	0.0114679
716.317	0.0100956
716.395	0.00885574
716.473	0.00788078
716.551	0.00696869
716.629	0.00620071
716.707	0.00564079
716.785	0.00529633
716.863	0.00524384
716.942	0.00533607
717.020	0.00568298
717.098	0.00632637
717.176	0.00702385
717.254	0.00811981
717.332	0.00924698
717.410	0.0106221
717.488	0.0122726
717.567	0.0136272
717.645	0.0153079
717.723	0.0169722
717.801	0.0185907
717.879	0.0200853
717.957	0.0214622
718.035	0.0229185
718.113	0.0241422
718.192	0.0252499
718.270	0.0261535
718.348	0.0269550
718.426	0.0276506
718.504	0.0281836
718.582	0.0285709
718.660	0.0287890
718.738	0.0288125
718.817	0.0287689
718.895	0.0285070
718.973	0.0279633
719.051	0.0274995
719.129	0.0268727
719.207	0.0260197
719.285	0.0253103
719.363	0.0246758
719.442	0.0238266
719.520	0.0229661
719.598	0.0222910
719.676	0.0217341
719.754	0.0213141
719.832	0.0209671
719.910	0.0203421
719.988	0.0201443
720.067	0.0198527
720.145	0.0197417
720.223	0.0194885
720.301	0.0194231
720.379	0.0192992
720.457	0.0193833
720.535	0.0189990
720.613	0.0192032
720.692	0.0193336
720.770	0.0191432
720.848	0.0191103
720.926	0.0191165
721.004	0.0188712
721.082	0.0188598
721.160	0.0185280
721.238	0.0181262
721.317	0.0178531
721.395	0.0172349
721.473	0.0166827
721.551	0.0159967
721.629	0.0152579
721.707	0.0145450
721.785	0.0137352
721.863	0.0129443
721.942	0.0122099
722.020	0.0112152
722.098	0.0104162
722.176	0.00969208
722.254	0.00918472
722.332	0.00862701
722.410	0.00804718
722.488	0.00786903
722.567	0.00759644
722.645	0.00762207
722.723	0.00784927
722.801	0.00841560
722.879	0.00893524
722.957	0.00973549
723.035	0.0107885
723.113	0.0119548
723.192	0.0132735
723.270	0.0146228
723.348	0.0160468
723.426	0.0174346
723.504	0.0187038
723.582	0.0200883
723.660	0.0211038
723.738	0.0221467
723.817	0.0229214
723.895	0.0235548
723.973	0.0239360
724.051	0.0243076
724.129	0.0246376
724.207	0.0244801
724.285	0.0245432
724.363	0.0245142
724.442	0.0243903
724.520	0.0240353
724.598	0.0238825
724.676	0.0236414
724.754	0.0236620
724.832	0.0235553
724.910	0.0233012
724.988	0.0231378
725.067	0.0230854
725.145	0.0232679
725.223	0.0232899
725.301	0.0231267
725.379	0.0228626
725.457	0.0228873
725.535	0.0225823
725.613	0.0225276
725.692	0.0224084
725.770	0.0221313
725.848	0.0218658
725.926	0.0218055
726.004	0.0215484
726.082	0.0212776
726.160	0.0211701
726.238	0.0208028
726.317	0.0206538
726.395	0.0205730
726.473	0.0203415
726.551	0.0200604
726.629	0.0195846
726.707	0.0194573
726.785	0.0189268
726.863	0.0184959
726.942	0.0178773
727.020	0.0174753
727.098	0.0169401
727.176	0.0163529
727.254	0.0157428
727.332	0.0151778
727.410	0.0144076
727.488	0.0140919
727.567	0.0133339
727.645	0.0129086
727.723	0.0124738
727.801	0.0120782
727.879	0.0117307
727.957	0.0115574
728.035	0.0114309
728.113	0.0113913
728.192	0.0113659
728.270	0.0116106
728.348	0.0119911
728.426	0.0121309
728.504	0.0124615
728.582	0.0130241
728.660	0.0134649
728.738	0.0140374
728.817	0.0146535
728.895	0.0152793
728.973	0.0158849
729.051	0.0165931
729.129	0.0170261
729.207	0.0174988
729.285	0.0178176
729.363	0.0181916
729.442	0.0184193
729.520	0.0185406
729.598	0.0186954
729.676	0.0184326
729.754	0.0184595
729.832	0.0184380
729.910	0.0184148
729.988	0.0184745
730.067	0.0186526
730.145	0.0187391
730.223	0.0191256
730.301	0.0193732
730.379	0.0197277
730.457	0.0202660
730.535	0.0208129
730.613	0.0213262
730.692	0.0217664
730.770	0.0223238
730.848	0.0229129
730.926	0.0231819
731.004	0.0233923
731.082	0.0235432
731.160	0.0236047
731.238	0.0236933
731.317	0.0234315
731.395	0.0234621
731.473	0.0231623
731.551	0.0230137
731.629	0.0227583
731.707	0.0224741
731.785	0.0221690
731.863	0.0218938
731.942	0.0215399
732.020	0.0212224
732.098	0.0206768
732.176	0.0205105
732.254	0.0202170
732.332	0.0197642
732.410	0.0195100
732.488	0.0190702
732.567	0.0188070
732.645	0.0186164
732.723	0.0182535
732.801	0.0180750
732.879	0.0178241
732.957	0.0175037
733.035	0.0171423
733.113	0.0169189
733.192	0.0166667
733.270	0.0163136
733.348	0.0161472
733.426	0.0159352
733.504	0.0157109
733.582	0.0155702
733.660	0.0151788
733.738	0.0150609
733.817	0.0149789
733.895	0.0149830
733.973	0.0148553
734.051	0.0151266
734.129	0.0151635
734.207	0.0152364
734.285	0.0152380
734.363	0.0154537
734.442	0.0157397
734.520	0.0159175
734.598	0.0159603
734.676	0.0163354
734.754	0.0163698
734.832	0.0166379
734.910	0.0166346
734.988	0.0167888
735.067	0.0168649
735.145	0.0168108
735.223	0.0168439
735.301	0.0168065
735.379	0.0166629
735.457	0.0167788
735.535	0.0167702
735.613	0.0167886
735.692	0.0168281
735.770	0.0168021
735.848	0.0169194
735.926	0.0170744
736.004	0.0171504
736.082	0.0173956
736.160	0.0175652
736.238	0.0179640
736.317	0.0181219
736.395	0.0185118
736.473	0.0186947
736.551	0.0188736
736.629	0.0191677
736.707	0.0195307
736.785	0.0197152
736.863	0.0199119
736.942	0.0199908
737.020	0.0203427
737.098	0.0206361
737.176	0.0205806
737.254	0.0207431
737.332	0.0208785
737.410	0.0209657
737.488	0.0211584
737.567	0.0211198
737.645	0.0211491
737.723	0.0211554
737.801	0.0209368
737.879	0.0212475
737.957	0.0210111
738.035	0.0207079
738.113	0.0205820
738.192	0.0204967
738.270	0.0204229
738.348	0.0200295
738.426	0.0197809
738.504	0.0196662
738.582	0.0193635
738.660	0.0192312
738.738	0.0190672
738.817	0.0187084
738.895	0.0185285
738.973	0.0185921
739.051	0.0181929
739.129	0.0183224
739.207	0.0183816
739.285	0.0181177
739.363	0.0180193
739.442	0.0181924
739.520	0.0181579
739.598	0.0180396
739.676	0.0179662
739.754	0.0177715
739.832	0.0179484
739.910	0.0178930
739.988	0.0177013
740.067	0.0174525
740.145	0.0174595
740.223	0.0173427
740.301	0.0171077
740.379	0.0170360
740.457	0.0169563
740.535	0.0168817
740.613	0.0168720
740.692	0.0167085
740.770	0.0167876
740.848	0.0168047
740.926	0.0169378
741.004	0.0170380
741.082	0.0170934
741.160	0.0171883
741.238	0.0172310
741.317	0.0172673
741.395	0.0172547
741.473	0.0173365
741.551	0.0170518
741.629	0.0170959
741.707	0.0171175
741.785	0.0169464
741.863	0.0171172
741.942	0.0170638
742.020	0.0170918
742.098	0.0171839
742.176	0.0173096
742.254	0.0172523
742.332	0.0173621
742.410	0.0172800
742.488	0.0175393
742.567	0.0176266
742.645	0.0176547
742.723	0.0176601
742.801	0.0177879
742.879	0.0178779
742.957	0.0179831
743.035	0.0180415
743.113	0.0181680
743.192	0.0182376
743.270	0.0183855
743.348	0.0184986
743.426	0.0185773
743.504	0.0187898
743.582	0.0190070
743.660	0.0190250
743.738	0.0190194
743.817	0.0193405
743.895	0.0194090
743.973	0.0193357
744.051	0.0194257
744.129	0.0194783
744.207	0.0193892
744.285	0.0194312
744.363	0.0194791
744.442	0.0193110
744.520	0.0193349
744.598	0.0193012
744.676	0.0194336
744.754	0.0193577
744.832	0.0194711
744.910	0.0194343
744.988	0.0194682
745.067	0.0194652
745.145	0.0195275
745.223	0.0196795
745.301	0.0197054
745.379	0.0197294
745.457	0.0197143
745.535	0.0195716
745.613	0.0195175
745.692	0.0193484
745.770	0.0193003
745.848	0.0191198
745.926	0.0189839
746.004	0.0187813
746.082	0.0186907
746.160	0.0184528
746.238	0.0183618
746.317	0.0181834
746.395	0.0181521
746.473	0.0179625
746.551	0.0178291
746.629	0.0178373
746.707	0.0177168
746.785	0.0177382
746.863	0.0178077
746.942	0.0178067
747.020	0.0177308
747.098	0.0176734
747.176	0.0177031
747.254	0.0177978
747.332	0.0177778
747.410	0.0178685
747.488	0.0178922
747.567	0.0180909
747.645	0.0179811
747.723	0.0181194
747.801	0.0181180
747.879	0.0182238
747.957	0.0182903
748.035	0.0180244
748.113	0.0179617
748.192	0.0178483
748.270	0.0177831
748.348	0.0178117
748.426	0.0177237
748.504	0.0175620
748.582	0.0173466
748.660	0.0170680
748.738	0.0170258
748.817	0.0170249
748.895	0.0169731
748.973	0.0167789
749.051	0.0167927
749.129	0.0168838
749.207	0.0168865
749.285	0.0169897
749.363	0.0172123
749.442	0.0173097
749.520	0.0174474
749.598	0.0174723
749.676	0.0177150
749.754	0.0178640
749.832	0.0178958
749.910	0.0180304
749.988	0.0179676
750.067	0.0179692
750.145	0.0181155
750.223	0.0180887
750.301	0.0181629
750.379	0.0182564
750.457	0.0183616
750.535	0.0185433
750.613	0.0186529
750.692	0.0186789
750.770	0.0188872
750.848	0.0189494
750.926	0.0190709
751.004	0.0191006
751.082	0.0190022
751.160	0.0191401
751.238	0.0192730
751.317	0.0191949
751.395	0.0191696
751.473	0.0191312
751.551	0.0191567
751.629	0.0191236
751.707	0.0191742
751.785	0.0189651
751.863	0.0188429
751.942	0.0188490
752.020	0.0186832
752.098	0.0187704
752.176	0.0185773
752.254	0.0183950
752.332	0.0184351
752.410	0.0183445
752.488	0.0184001
752.567	0.0184300
752.645	0.0182626
752.723	0.0183051
752.801	0.0184158
752.879	0.0184959
752.957	0.0184827
753.035	0.0183467
753.113	0.0186339
753.192	0.0189422
753.270	0.0187846
753.348	0.0190201
753.426	0.0190073
753.504	0.0191588
753.582	0.0192475
753.660	0.0193166
753.738	0.0191788
753.817	0.0192907
753.895	0.0192590
753.973	0.0191867
754.051	0.0189134
754.129	0.0187458
754.207	0.0185458
754.285	0.0183505
754.363	0.0183003
754.442	0.0181417
754.520	0.0178541
754.598	0.0175468
754.676	0.0174761
754.754	0.0173161
754.832	0.0172461
754.910	0.0171825
754.988	0.0173365
755.067	0.0173035
755.145	0.0173307
755.223	0.0173650
755.301	0.0173866
755.379	0.0175405
755.457	0.0174995
755.535	0.0177471
755.613	0.0178349
755.692	0.0179356
755.770	0.0179694
755.848	0.0180256
755.926	0.0182547
756.004	0.0182417
756.082	0.0183395
756.160	0.0183683
756.238	0.0184640
756.317	0.0184977
756.395	0.0184657
756.473	0.0183987
756.551	0.0182812
756.629	0.0183492
756.707	0.0181522
756.785	0.0179076
756.863	0.0178689
756.942	0.0176566
757.020	0.0174195
757.098	0.0173625
757.176	0.0172158
757.254	0.0171670
757.332	0.0170020
757.410	0.0169778
757.488	0.0170908
757.567	0.0170589
757.645	0.0170389
757.723	0.0171334
757.801	0.0173125
757.879	0.0175004
757.957	0.0178204
758.035	0.0178441
758.113	0.0180720
758.192	0.0181921
758.270	0.0183208
758.348	0.0184402
758.426	0.0184615
758.504	0.0185903
758.582	0.0185796
758.660	0.0186674
758.738	0.0187673
758.817	0.0187819
758.895	0.0188885
758.973	0.0190589
759.051	0.0191926
759.129	0.0192026
759.207	0.0193172
759.285	0.0192144
759.363	0.0193275
759.442	0.0192416
759.520	0.0195041
759.598	0.0193990
759.676	0.0193435
759.754	0.0193973
759.832	0.0193639
759.910	0.0192819
759.988	0.0191895
760.067	0.0190774
760.145	0.0191980
760.223	0.0191018
760.301	0.0191223
760.379	0.0190479
760.457	0.0188283
760.535	0.0188210
760.613	0.0188316
760.692	0.0186287
760.770	0.0186350
760.848	0.0185325
760.926	0.0184307
761.004	0.0182618
761.082	0.0182384
761.160	0.0179204
761.238	0.0179177
761.317	0.0179248
761.395	0.0179166
761.473	0.0177308
761.551	0.0178971
761.629	0.0179504
761.707	0.0180426
761.785	0.0181342
761.863	0.0183214
761.942	0.0184032
762.020	0.0185054
762.098	0.0186351
762.176	0.0187582
762.254	0.0188256
762.332	0.0187750
762.410	0.0187131
762.488	0.0185941
762.567	0.0186183
762.645	0.0185213
762.723	0.0183226
762.801	0.0180009
762.879	0.0180231
762.957	0.0177583
763.035	0.0176043
763.113	0.0174599
763.192	0.0172231
763.270	0.0170881
763.348	0.0169826
763.426	0.0168169
763.504	0.0168229
763.582	0.0167841
763.660	0.0169155
763.738	0.0170965
763.817	0.0170516
763.895	0.0171856
763.973	0.0173164
764.051	0.0176260
764.129	0.0177171
764.207	0.0178363
764.285	0.0180605
764.363	0.0181640
764.442	0.0183199
764.520	0.0184991
764.598	0.0186160
764.676	0.0185686
764.754	0.0185400
764.832	0.0186655
764.910	0.0186648
764.988	0.0184511
765.067	0.0184775
765.145	0.0181776
765.223	0.0180820
765.301	0.0179985
765.379	0.0178757
765.457	0.0178106
765.535	0.0178514
765.613	0.0177551
765.692	0.0175225
765.770	0.0176645
765.848	0.0177926
765.926	0.0179249
766.004	0.0178753
766.082	0.0180464
766.160	0.0180035
766.238	0.0183920
766.317	0.0185079
766.395	0.0186572
766.473	0.0187642
766.551	0.0190424
766.629	0.0191036
766.707	0.0192095
766.785	0.0193690
766.863	0.0193206
766.942	0.0194510
767.020	0.0194838
767.098	0.0193507
767.176	0.0194745
767.254	0.0195254
767.332	0.0194885
767.410	0.0195471
767.488	0.0195078
767.567	0.0193913
767.645	0.0193731
767.723	0.0191429
767.801	0.0190688
767.879	0.0187651
767.957	0.0187546
768.035	0.0186977
768.113	0.0184540
768.192	0.0183508
768.270	0.0182249
768.348	0.0181634
768.426	0.0179465
768.504	0.0179537
768.582	0.0179949
768.660	0.0180045
768.738	0.0181187
768.817	0.0181630
768.895	0.0180598
768.973	0.0181034
769.051	0.0182481
769.129	0.0183027
769.207	0.0183373
769.285	0.0183989
769.363	0.0184819
769.442	0.0186208
769.520	0.0185559
769.598	0.0184963
769.676	0.0184673
769.754	0.0183118
769.832	0.0183024
769.910	0.0183445
769.988	0.0182265
770.067	0.0181503
770.145	0.0179783
770.223	0.0179479
770.301	0.0180049
770.379	0.0178671
770.457	0.0177927
770.535	0.0175436
770.613	0.0176481
770.692	0.0173869
770.770	0.0172961
770.848	0.0172794
770.926	0.0173190
771.004	0.0171439
771.082	0.0170943
771.160	0.0171381
771.238	0.0171380
771.317	0.0171338
771.395	0.0172636
771.473	0.0173034
771.551	0.0173595
771.629	0.0173426
771.707	0.0174020
771.785	0.0176807
771.863	0.0177845
771.942	0.0179311
772.020	0.0181055
772.098	0.0182324
772.176	0.0182394
772.254	0.0183859
772.332	0.0183585
772.410	0.0184441
772.488	0.0185868
772.567	0.0186414
772.645	0.0187859
772.723	0.0187241
772.801	0.0187995
772.879	0.0188030
772.957	0.0186144
773.035	0.0187207
773.113	0.0187728
773.192	0.0185815
773.270	0.0184409
773.348	0.0183883
773.426	0.0184378
773.504	0.0181857
773.582	0.0181403
773.660	0.0181155
773.738	0.0179874
773.817	0.0179007
773.895	0.0178963
773.973	0.0180208
774.051	0.0179350
774.129	0.0181509
774.207	0.0183562
774.285	0.0185295
774.363	0.0185663
774.442	0.0187920
774.520	0.0191669
774.598	0.0193609
774.676	0.0194722
774.754	0.0195472
774.832	0.0195597
774.910	0.0198637
774.988	0.0199654
775.067	0.0200146
775.145	0.0199458
775.223	0.0199142
775.301	0.0197752
775.379	0.0195543
775.457	0.0194358
775.535	0.0192537
775.613	0.0191474
775.692	0.0189660
775.770	0.0188293
775.848	0.0185303
775.926	0.0182790
776.004	0.0180973
776.082	0.0177940
776.160	0.0179420
776.238	0.0176046
776.317	0.0175965
776.395	0.0175706
776.473	0.0173851
776.551	0.0173014
776.629	0.0172990
776.707	0.0171025
776.785	0.0172918
776.863	0.0174117
776.942	0.0173496
777.020	0.0172497
777.098	0.0174473
777.176	0.0176459
777.254	0.0177836
777.332	0.0179209
777.410	0.0180955
777.488	0.0181716
777.567	0.0183971
777.645	0.0183552
777.723	0.0185041
777.801	0.0187452
777.879	0.0187047
777.957	0.0185995
778.035	0.0187158
778.113	0.0186988
778.192	0.0186843
778.270	0.0185143
778.348	0.0184886
778.426	0.0182918
778.504	0.0181417
778.582	0.0180208
778.660	0.0180480
778.738	0.0178632
778.817	0.0176293
778.895	0.0175935
778.973	0.0173837
779.051	0.0173029
779.129	0.0171472
779.207	0.0171332
779.285	0.0170692
779.363	0.0168079
779.442	0.0167570
779.520	0.0170101
779.598	0.0169485
779.676	0.0170026
779.754	0.0171081
779.832	0.0171535
779.910	0.0172433
779.988	0.0178162
780.067	0.0178496
780.145	0.0181406
780.223	0.0185832
780.301	0.0186828
780.379	0.0188016
780.457	0.0191438
780.535	0.0192529
780.613	0.0191793
780.692	0.0193663
780.770	0.0194851
780.848	0.0194944
780.926	0.0195471
781.004	0.0194910
781.082	0.0195057
781.160	0.0194137
781.238	0.0192351
781.317	0.0192398
781.395	0.0191104
781.473	0.0190765
781.551	0.0190295
781.629	0.0189799
781.707	0.0188280
781.785	0.0187367
781.863	0.0185674
781.942	0.0185045
782.020	0.0183084
782.098	0.0182234
782.176	0.0181446
782.254	0.0181372
782.332	0.0180099
782.410	0.0179446
782.488	0.0179552
782.567	0.0181551
782.645	0.0180054
782.723	0.0180682
782.801	0.0181647
782.879	0.0181966
782.957	0.0182339
783.035	0.0184332
783.113	0.0185547
783.192	0.0185108
783.270	0.0186970
783.348	0.0188336
783.426	0.0187647
783.504	0.0189767
783.582	0.0189952
783.660	0.0189525
783.738	0.0188879
783.817	0.0189376
783.895	0.0188835
783.973	0.0187768
784.051	0.0186629
784.129	0.0186565
784.207	0.0184639
784.285	0.0182329
784.363	0.0181155
784.442	0.0180325
784.520	0.0178589
784.598	0.0177576
784.676	0.0176373
784.754	0.0175298
784.832	0.0172949
784.910	0.0171792
784.988	0.0170439
785.067	0.0171812
785.145	0.0169946
785.223	0.0169188
785.301	0.0170443
785.379	0.0169547
785.457	0.0169695
785.535	0.0172205
785.613	0.0172554
785.692	0.0174700
785.770	0.0176377
785.848	0.0176886
785.926	0.0179004
786.004	0.0179824
786.082	0.0181890
786.160	0.0181135
786.238	0.0184801
786.317	0.0185703
786.395	0.0185719
786.473	0.0187089
786.551	0.0186934
786.629	0.0188357
786.707	0.0187525
786.785	0.0188351
786.863	0.0188605
786.942	0.0187240
787.020	0.0188528
787.098	0.0188150
787.176	0.0186361
787.254	0.0186002
787.332	0.0186375
787.410	0.0184527
787.488	0.0184430
787.567	0.0181957
787.645	0.0180708
787.723	0.0180772
787.801	0.0179047
787.879	0.0179119
787.957	0.0178667
788.035	0.0177451
788.113	0.0178058
788.192	0.0177264
788.270	0.0178827
788.348	0.0178451
788.426	0.0179326
788.504	0.0181510
788.582	0.0182618
788.660	0.0183905
788.738	0.0184132
788.817	0.0186729
788.895	0.0186843
788.973	0.0188186
789.051	0.0191003
789.129	0.0190726
789.207	0.0190939
789.285	0.0191708
789.363	0.0192363
789.442	0.0191956
789.520	0.0192045
789.598	0.0192161
789.676	0.0190503
789.754	0.0189619
789.832	0.0189571
789.910	0.0188846
789.988	0.0188522
790.067	0.0187541
790.145	0.0185656
790.223	0.0186036
790.301	0.0184247
790.379	0.0183393
790.457	0.0181252
790.535	0.0180909
790.613	0.0180961
790.692	0.0178948
790.770	0.0177620
790.848	0.0178700
790.926	0.0178814
791.004	0.0177471
791.082	0.0179532
791.160	0.0179362
791.238	0.0179326
791.317	0.0180798
791.395	0.0181254
791.473	0.0181184
791.551	0.0181960
791.629	0.0185393
791.707	0.0185393
791.785	0.0185234
791.863	0.0186967
791.942	0.0186922
792.020	0.0187036
792.098	0.0187054
792.176	0.0186549
792.254	0.0186288
792.332	0.0185064
792.410	0.0184284
792.488	0.0183072
792.567	0.0182599
792.645	0.0181789
792.723	0.0180752
792.801	0.0179303
792.879	0.0180428
792.957	0.0177042
793.035	0.0175373
793.113	0.0174917
793.192	0.0175479
793.270	0.0172797
793.348	0.0172078
793.426	0.0172382
793.504	0.0173003
793.582	0.0172725
793.660	0.0171124
793.738	0.0171935
793.817	0.0172424
793.895	0.0173483
793.973	0.0175166
794.051	0.0175563
794.129	0.0179104
794.207	0.0179581
794.285	0.0182079
794.363	0.0182438
794.442	0.0185352
794.520	0.0188111
794.598	0.0189755
794.676	0.0190474
794.754	0.0191113
794.832	0.0192627
794.910	0.0192715
794.988	0.0192659
795.067	0.0193796
795.145	0.0193891
795.223	0.0193681
795.301	0.0191801
795.379	0.0191959
795.457	0.0189840
795.535	0.0188808
795.613	0.0187211
795.692	0.0186901
795.770	0.0183912
795.848	0.0183907
795.926	0.0183060
796.004	0.0179845
796.082	0.0178984
796.160	0.0178580
796.238	0.0176672
796.317	0.0175815
796.395	0.0173573
796.473	0.0172070
796.551	0.0171940
796.629	0.0173391
796.707	0.0173264
796.785	0.0171999
796.863	0.0172569
796.942	0.0173348
797.020	0.0173296
797.098	0.0174091
797.176	0.0176942
797.254	0.0178088
797.332	0.0179002
797.410	0.0180598
797.488	0.0182390
797.567	0.0183654
797.645	0.0185771
797.723	0.0187640
797.801	0.0189211
797.879	0.0191015
797.957	0.0192424
798.035	0.0192718
798.113	0.0193425
798.192	0.0193584
798.270	0.0192295
798.348	0.0193317
798.426	0.0192735
798.504	0.0190521
798.582	0.0189931
798.660	0.0191833
798.738	0.0189465
798.817	0.0189335
798.895	0.0188718
798.973	0.0186243
799.051	0.0185684
799.129	0.0183627
799.207	0.0184660
799.285	0.0183797
799.363	0.0183688
799.442	0.0183247
799.520	0.0183396
799.598	0.0184308
799.676	0.0183993
799.754	0.0185307
799.832	0.0185509
799.910	0.0186649
799.988	0.0186512
800.067	0.0186751
800.145	0.0187000
800.223	0.0187063
800.301	0.0188363
800.379	0.0186100
800.457	0.0185180
800.535	0.0185344
800.613	0.0185741
800.692	0.0184167
800.770	0.0183203
800.848	0.0181364
800.926	0.0181564
801.004	0.0179140
801.082	0.0178646
801.160	0.0175974
801.238	0.0175144
801.317	0.0175395
801.395	0.0173280
801.473	0.0172287
801.551	0.0171662
801.629	0.0170578
801.707	0.0168262
801.785	0.0168561
801.863	0.0168648
801.942	0.0165968
802.020	0.0165376
802.098	0.0164877
802.176	0.0164860
802.254	0.0165437
802.332	0.0165621
802.410	0.0165833
802.488	0.0164877
802.567	0.0167667
802.645	0.0167422
802.723	0.0169342
802.801	0.0172209
802.879	0.0174219
802.957	0.0176276
803.035	0.0176627
803.113	0.0179951
803.192	0.0184081
803.270	0.0186172
803.348	0.0187516
803.426	0.0187949
803.504	0.0191716
803.582	0.0194977
803.660	0.0194081
803.738	0.0195817
803.817	0.0196500
803.895	0.0197981
803.973	0.0197186
804.051	0.0199467
804.129	0.0200900
804.207	0.0198669
804.285	0.0198921
804.363	0.0197900
804.442	0.0197497
804.520	0.0196777
804.598	0.0196161
804.676	0.0195186
804.754	0.0194837
804.832	0.0195380
804.910	0.0193119
804.988	0.0190483
805.067	0.0191064
805.145	0.0190523
805.223	0.0189420
805.301	0.0188849
805.379	0.0188890
805.457	0.0188515
805.535	0.0188181
805.613	0.0190057
805.692	0.0187776
805.770	0.0188964
805.848	0.0188932
805.926	0.0190173
806.004	0.0188726
806.082	0.0188696
806.160	0.0188934
806.238	0.0188907
806.317	0.0187446
806.395	0.0186449
806.473	0.0186375
806.551	0.0184845
806.629	0.0182919
806.707	0.0180790
806.785	0.0178178
806.863	0.0177215
806.942	0.0176614
807.020	0.0174017
807.098	0.0173434
807.176	0.0169816
807.254	0.0169340
807.332	0.0166587
807.410	0.0164130
807.488	0.0162788
807.567	0.0161765
807.645	0.0160547
807.723	0.0159122
807.801	0.0160914
807.879	0.0160139
807.957	0.0160579
808.035	0.0161353
808.113	0.0163171
808.192	0.0162818
808.270	0.0166589
808.348	0.0168810
808.426	0.0170460
808.504	0.0174444
808.582	0.0176919
808.660	0.0179220
808.738	0.0181638
808.817	0.0184155
808.895	0.0187823
808.973	0.0189178
809.051	0.0190723
809.129	0.0192191
809.207	0.0194413
809.285	0.0195048
809.363	0.0195579
809.442	0.0197047
809.520	0.0197119
809.598	0.0196304
809.676	0.0196892
809.754	0.0197575
809.832	0.0197633
809.910	0.0196221
809.988	0.0196745
810.067	0.0196120
810.145	0.0195766
810.223	0.0196062
810.301	0.0194370
810.379	0.0192500
810.457	0.0192371
810.535	0.0191962
810.613	0.0190723
810.692	0.0188102
810.770	0.0189312
810.848	0.0188503
810.926	0.0187664
811.004	0.0186061
811.082	0.0185206
811.160	0.0184338
811.238	0.0183750
811.317	0.0184280
811.395	0.0183652
811.473	0.0183582
811.551	0.0182320
811.629	0.0182430
811.707	0.0182941
811.785	0.0181839
811.863	0.0180898
811.942	0.0182019
812.020	0.0180378
812.098	0.0181026
812.176	0.0179271
812.254	0.0178269
812.332	0.0178690
812.410	0.0178749
812.488	0.0177257
812.567	0.0176086
812.645	0.0175848
812.723	0.0173997
812.801	0.0173606
812.879	0.0172375
812.957	0.0170745
813.035	0.0171472
813.113	0.0170486
813.192	0.0169368
813.270	0.0166851
813.348	0.0167841
813.426	0.0169057
813.504	0.0169320
813.582	0.0168253
813.660	0.0170229
813.738	0.0171429
813.817	0.0173111
813.895	0.0176363
813.973	0.0176987
814.051	0.0180257
814.129	0.0181308
814.207	0.0183601
814.285	0.0186580
814.363	0.0187634
814.442	0.0189019
814.520	0.0190739
814.598	0.0191364
814.676	0.0193127
814.754	0.0195631
814.832	0.0194913
814.910	0.0194048
814.988	0.0196165
815.067	0.0195713
815.145	0.0195207
815.223	0.0194693
815.301	0.0194555
815.379	0.0194326
815.457	0.0193228
815.535	0.0192895
815.613	0.0193916
815.692	0.0191940
815.770	0.0190829
815.848	0.0190787
815.926	0.0190951
816.004	0.0190680
816.082	0.0189700
816.160	0.0188747
816.238	0.0187679
816.317	0.0187746
816.395	0.0187629
816.473	0.0186117
816.551	0.0186663
816.629	0.0184109
816.707	0.0183973
816.785	0.0182026
816.863	0.0182601
816.942	0.0180511
817.020	0.0181468
817.098	0.0181560
817.176	0.0178729
817.254	0.0179508
817.332	0.0180046
817.410	0.0178223
817.488	0.0178031
817.567	0.0178873
817.645	0.0178336
817.723	0.0178147
817.801	0.0177541
817.879	0.0175374
817.957	0.0175150
818.035	0.0174265
818.113	0.0173574
818.192	0.0173458
818.270	0.0172993
818.348	0.0170963
818.426	0.0171184
818.504	0.0169059
818.582	0.0169220
818.660	0.0168382
818.738	0.0167944
818.817	0.0168568
818.895	0.0169568
818.973	0.0169098
819.051	0.0168677
819.129	0.0168700
819.207	0.0170205
819.285	0.0170441
819.363	0.0173283
819.442	0.0173128
819.520	0.0174420
819.598	0.0176760
819.676	0.0179116
819.754	0.0181168
819.832	0.0182858
819.910	0.0183580
819.988	0.0186967
820.067	0.0188843
820.145	0.0189578
820.223	0.0192605
820.301	0.0192879
820.379	0.0195845
820.457	0.0196816
820.535	0.0197970
820.613	0.0197198
820.692	0.0198499
820.770	0.0198295
820.848	0.0198605
820.926	0.0196498
821.004	0.0197994
821.082	0.0197389
821.160	0.0198013
821.238	0.0197751
821.317	0.0197077
821.395	0.0196690
821.473	0.0195880
821.551	0.0195728
821.629	0.0194455
821.707	0.0192748
821.785	0.0192990
821.863	0.0192731
821.942	0.0190408
822.020	0.0189941
822.098	0.0189320
822.176	0.0188399
822.254	0.0186715
822.332	0.0185697
822.410	0.0183649
822.488	0.0182506
822.567	0.0180531
822.645	0.0179675
822.723	0.0179337
822.801	0.0177155
822.879	0.0176990
822.957	0.0177345
823.035	0.0176110
823.113	0.0174918
823.192	0.0175420
823.270	0.0174143
823.348	0.0173595
823.426	0.0174475
823.504	0.0175491
823.582	0.0174352
823.660	0.0173668
823.738	0.0173375
823.817	0.0174451
823.895	0.0173680
823.973	0.0173469
824.051	0.0175196
824.129	0.0176408
824.207	0.0174654
824.285	0.0175674
824.363	0.0175426
824.442	0.0173822
824.520	0.0173977
824.598	0.0174485
824.676	0.0172779
824.754	0.0173318
824.832	0.0174527
824.910	0.0174442
824.988	0.0174729
825.067	0.0174051
825.145	0.0174129
825.223	0.0175797
825.301	0.0175098
825.379	0.0175068
825.457	0.0176123
825.535	0.0176891
825.613	0.0178649
825.692	0.0179514
825.770	0.0179631
825.848	0.0180719
825.926	0.0182851
826.004	0.0183386
826.082	0.0184312
826.160	0.0186207
826.238	0.0186112
826.317	0.0186802
826.395	0.0187823
826.473	0.0188141
826.551	0.0189854
826.629	0.0189256
826.707	0.0189071
826.785	0.0189220
826.863	0.0190671
826.942	0.0191084
827.020	0.0190401
827.098	0.0189484
827.176	0.0191382
827.254	0.0191447
827.332	0.0190221
827.410	0.0192358
827.488	0.0191531
827.567	0.0190379
827.645	0.0191586
827.723	0.0189540
827.801	0.0190156
827.879	0.0190092
827.957	0.0189613
828.035	0.0189927
828.113	0.0188641
828.192	0.0188248
828.270	0.0187759
828.348	0.0187916
828.426	0.0188152
828.504	0.0187921
828.582	0.0185244
828.660	0.0184099
828.738	0.0184810
828.817	0.0184072
828.895	0.0183425
828.973	0.0182516
829.051	0.0182963
829.129	0.0183094
829.207	0.0181812
829.285	0.0181906
829.363	0.0180699
829.442	0.0180958
829.520	0.0181086
829.598	0.0180981
829.676	0.0181365
829.754	0.0181065
829.832	0.0180322
829.910	0.0180487
829.988	0.0180453
830.067	0.0180177
830.145	0.0180233
830.223	0.0180036
830.301	0.0179601
830.379	0.0179010
830.457	0.0179321
830.535	0.0177245
830.613	0.0176525
830.692	0.0176424
830.770	0.0175856
830.848	0.0175797
830.926	0.0176006
831.004	0.0176014
831.082	0.0176076
831.160	0.0176846
831.238	0.0177001
831.317	0.0177418
831.395	0.0175879
831.473	0.0177465
831.551	0.0177508
831.629	0.0179147
831.707	0.0178111
831.785	0.0178831
831.863	0.0178901
831.942	0.0180569
832.020	0.0180208
832.098	0.0180711
832.176	0.0181580
832.254	0.0183295
832.332	0.0180348
832.410	0.0179938
832.488	0.0182883
832.567	0.0185236
832.645	0.0182661
832.723	0.0183911
832.801	0.0183163
832.879	0.0184544
832.957	0.0185825
833.035	0.0184106
833.113	0.0186853
833.192	0.0186338
833.270	0.0185759
833.348	0.0186699
833.426	0.0185195
833.504	0.0184978
833.582	0.0186783
833.660	0.0186383
833.738	0.0185068
833.817	0.0186592
833.895	0.0185287
833.973	0.0185989
834.051	0.0185111
834.129	0.0184708
834.207	0.0184907
834.285	0.0184908
834.363	0.0184292
834.442	0.0183281
834.520	0.0182764
834.598	0.0184080
834.676	0.0183587
834.754	0.0183553
834.832	0.0183161
834.910	0.0184211
834.988	0.0183399
835.067	0.0182866
835.145	0.0184932
835.223	0.0184878
835.301	0.0186433
835.379	0.0185442
835.457	0.0185485
835.535	0.0186771
835.613	0.0187374
835.692	0.0186871
835.770	0.0186978
835.848	0.0187073
835.926	0.0187714
836.004	0.0186694
836.082	0.0186166
836.160	0.0186802
836.238	0.0188160
836.317	0.0186384
836.395	0.0184897
836.473	0.0184708
836.551	0.0184325
836.629	0.0183761
836.707	0.0182366
836.785	0.0181467
836.863	0.0181781
836.942	0.0182455
837.020	0.0182275
837.098	0.0178741
837.176	0.0179060
837.254	0.0178170
837.332	0.0180252
837.410	0.0178504
837.488	0.0176995
837.567	0.0177332
837.645	0.0176411
837.723	0.0176109
837.801	0.0176039
837.879	0.0175327
837.957	0.0176659
838.035	0.0175740
838.113	0.0177203
838.192	0.0176419
838.270	0.0175969
838.348	0.0176823
838.426	0.0177390
838.504	0.0178021
838.582	0.0178880
838.660	0.0178500
838.738	0.0179417
838.817	0.0179118
838.895	0.0180517
838.973	0.0180643
839.051	0.0181730
839.129	0.0182187
839.207	0.0182755
839.285	0.0182749
839.363	0.0184881
839.442	0.0184529
839.520	0.0184492
839.598	0.0184010
839.676	0.0185039
839.754	0.0183900
839.832	0.0184356
839.910	0.0185059
839.988	0.0184366
840.067	0.0183561
840.145	0.0184614
840.223	0.0184695
840.301	0.0183978
840.379	0.0184734
840.457	0.0185746
840.535	0.0186194
840.613	0.0184805
840.692	0.0185625
840.770	0.0185487
840.848	0.0185634
840.926	0.0185867
841.004	0.0188510
841.082	0.0187841
841.160	0.0187926
841.238	0.0187150
841.317	0.0186976
841.395	0.0188137
841.473	0.0188096
841.551	0.0187030
841.629	0.0187917
841.707	0.0187624
841.785	0.0187183
841.863	0.0186589
841.942	0.0187741
842.020	0.0184843
842.098	0.0185614
842.176	0.0186077
842.254	0.0184026
842.332	0.0182408
842.410	0.0181812
842.488	0.0179668
842.567	0.0178917
842.645	0.0180589
842.723	0.0179325
842.801	0.0176707
842.879	0.0176879
842.957	0.0176335
843.035	0.0174936
843.113	0.0175858
843.192	0.0175380
843.270	0.0176273
843.348	0.0175300
843.426	0.0175845
843.504	0.0176475
843.582	0.0177253
843.660	0.0178542
843.738	0.0178516
843.817	0.0179482
843.895	0.0181343
843.973	0.0182384
844.051	0.0181380
844.129	0.0181796
844.207	0.0182272
844.285	0.0183080
844.363	0.0183809
844.442	0.0185284
844.520	0.0185388
844.598	0.0183746
844.676	0.0185398
844.754	0.0185394
844.832	0.0185355
844.910	0.0186620
844.988	0.0185695
845.067	0.0186043
845.145	0.0186132
845.223	0.0186148
845.301	0.0185732
845.379	0.0182768
845.457	0.0184595
845.535	0.0184457
845.613	0.0183344
845.692	0.0181957
845.770	0.0182436
845.848	0.0182071
845.926	0.0182162
846.004	0.0181948
846.082	0.0181880
846.160	0.0182011
846.238	0.0182021
846.317	0.0181021
846.395	0.0182193
846.473	0.0180515
846.551	0.0181535
846.629	0.0182822
846.707	0.0181654
846.785	0.0183135
846.863	0.0183633
846.942	0.0183725
847.020	0.0183150
847.098	0.0183343
847.176	0.0184480
847.254	0.0183951
847.332	0.0184135
847.410	0.0183185
847.488	0.0183978
847.567	0.0186182
847.645	0.0184793
847.723	0.0184277
847.801	0.0184853
847.879	0.0184566
847.957	0.0186120
848.035	0.0184361
848.113	0.0181062
848.192	0.0182099
848.270	0.0182127
848.348	0.0180582
848.426	0.0180680
848.504	0.0180030
848.582	0.0179629
848.660	0.0177902
848.738	0.0176498
848.817	0.0176284
848.895	0.0177036
848.973	0.0177075
849.051	0.0176629
849.129	0.0176712
849.207	0.0176636
849.285	0.0176431
849.363	0.0177577
849.442	0.0179072
849.520	0.0180074
849.598	0.0179222
849.676	0.0179307
849.754	0.0180837
849.832	0.0180367
849.910	0.0182126
849.988	0.0183604
850.067	0.0182775
850.145	0.0185144
850.223	0.0185926
850.301	0.0185977
850.379	0.0186134
850.457	0.0186564
850.535	0.0186666
850.613	0.0186949
850.692	0.0187023
850.770	0.0185552
850.848	0.0187057
850.926	0.0186755
851.004	0.0186672
851.082	0.0185897
851.160	0.0186021
851.238	0.0185835
851.317	0.0184705
851.395	0.0185409
851.473	0.0184560
851.551	0.0185625
851.629	0.0184377
851.707	0.0184054
851.785	0.0184731
851.863	0.0184581
851.942	0.0184027
852.020	0.0184248
852.098	0.0184259
852.176	0.0184274
852.254	0.0184687
852.332	0.0184407
852.410	0.0185018
852.488	0.0185910
852.567	0.0185486
852.645	0.0185032
852.723	0.0185689
852.801	0.0184322
852.879	0.0184733
852.957	0.0183472
853.035	0.0183495
853.113	0.0184827
853.192	0.0183602
853.270	0.0182513
853.348	0.0182967
853.426	0.0182159
853.504	0.0181122
853.582	0.0180475
853.660	0.0180889
853.738	0.0180302
853.817	0.0179881
853.895	0.0179331
853.973	0.0179806
854.051	0.0177489
854.129	0.0176781
854.207	0.0175950
854.285	0.0176409
854.363	0.0176540
854.442	0.0175892
854.520	0.0174664
854.598	0.0174918
854.676	0.0175204
854.754	0.0175819
854.832	0.0176041
854.910	0.0177127
854.988	0.0177567
855.067	0.0177299
855.145	0.0179623
855.223	0.0179046
855.301	0.0181075
855.379	0.0181217
855.457	0.0182502
855.535	0.0184055
855.613	0.0185323
855.692	0.0185685
855.770	0.0185255
855.848	0.0186388
855.926	0.0186945
856.004	0.0187641
856.082	0.0187559
856.160	0.0187277
856.238	0.0186710
856.317	0.0187320
856.395	0.0187703
856.473	0.0187708
856.551	0.0187579
856.629	0.0187016
856.707	0.0186380
856.785	0.0186327
856.863	0.0186330
856.942	0.0185941
857.020	0.0185386
857.098	0.0185964
857.176	0.0185641
857.254	0.0185361
857.332	0.0185673
857.410	0.0184589
857.488	0.0184687
857.567	0.0185309
857.645	0.0185063
857.723	0.0185756
857.801	0.0185723
857.879	0.0184573
857.957	0.0184860
858.035	0.0184588
858.113	0.0185109
858.192	0.0184577
858.270	0.0183413
858.348	0.0183485
858.426	0.0183512
858.504	0.0184449
858.582	0.0182391
858.660	0.0180598
858.738	0.0180988
858.817	0.0182915
858.895	0.0181682
858.973	0.0180183
859.051	0.0180270
859.129	0.0181151
859.207	0.0179593
859.285	0.0179309
859.363	0.0179503
859.442	0.0179794
859.520	0.0178406
859.598	0.0178948
859.676	0.0179047
859.754	0.0177765
859.832	0.0178988
859.910	0.0177802
859.988	0.0177505
860.067	0.0179132
860.145	0.0178171
860.223	0.0177213
860.301	0.0178401
860.379	0.0178394
860.457	0.0179742
860.535	0.0178594
860.613	0.0179441
860.692	0.0180350
860.770	0.0180521
860.848	0.0180142
860.926	0.0180058
861.004	0.0181426
861.082	0.0181657
861.160	0.0182362
861.238	0.0181908
861.317	0.0182201
861.395	0.0182857
861.473	0.0182923
861.551	0.0182753
861.629	0.0183215
861.707	0.0182883
861.785	0.0183643
861.863	0.0183764
861.942	0.0184491
862.020	0.0185564
862.098	0.0184901
862.176	0.0185238
862.254	0.0185155
862.332	0.0185493
862.410	0.0185534
862.488	0.0186130
862.567	0.0186727
862.645	0.0185550
862.723	0.0185021
862.801	0.0187291
862.879	0.0187978
862.957	0.0185902
863.035	0.0187267
863.113	0.0186359
863.192	0.0185155
863.270	0.0185719
863.348	0.0187071
863.426	0.0186665
863.504	0.0186245
863.582	0.0186826
863.660	0.0185727
863.738	0.0185918
863.817	0.0185074
863.895	0.0186278
863.973	0.0185948
864.051	0.0186828
864.129	0.0186339
864.207	0.0184639
864.285	0.0184754
864.363	0.0185282
864.442	0.0183408
864.520	0.0182768
864.598	0.0184819
864.676	0.0183179
864.754	0.0179008
864.832	0.0179903
864.910	0.0180481
864.988	0.0181300
865.067	0.0179418
865.145	0.0177734
865.223	0.0179244
865.301	0.0179658
865.379	0.0177538
865.457	0.0177757
865.535	0.0178088
865.613	0.0178031
865.692	0.0178262
865.770	0.0178465
865.848	0.0179601
865.926	0.0178839
866.004	0.0177087
866.082	0.0178307
866.160	0.0179877
866.238	0.0179411
866.317	0.0178712
866.395	0.0180558
866.473	0.0180029
866.551	0.0179521
866.629	0.0180858
866.707	0.0182085
866.785	0.0180507
866.863	0.0180016
866.942	0.0181506
867.020	0.0181264
867.098	0.0181493
867.176	0.0181944
867.254	0.0182017
867.332	0.0182928
867.410	0.0183405
867.488	0.0182094
867.567	0.0181570
867.645	0.0183646
867.723	0.0184349
867.801	0.0183560
867.879	0.0185149
867.957	0.0184209
868.035	0.0183718
868.113	0.0184408
868.192	0.0184283
868.270	0.0184131
868.348	0.0184012
868.426	0.0184119
868.504	0.0185210
868.582	0.0184859
868.660	0.0184536
868.738	0.0185152
868.817	0.0186815
868.895	0.0185016
868.973	0.0186106
869.051	0.0185954
869.129	0.0186318
869.207	0.0185488
869.285	0.0186324
869.363	0.0185707
869.442	0.0186485
869.520	0.0187081
869.598	0.0186741
869.676	0.0186430
869.754	0.0186723
869.832	0.0186003
869.910	0.0185242
869.988	0.0184489
870.067	0.0184839
870.145	0.0183958
870.223	0.0182937
870.301	0.0183018
870.379	0.0183374
870.457	0.0180946
870.535	0.0179821
870.613	0.0179758
870.692	0.0179140
870.770	0.0180392
870.848	0.0179423
870.926	0.0180668
871.004	0.0178377
871.082	0.0178678
871.160	0.0180357
871.238	0.0180341
871.317	0.0179845
871.395	0.0179555
871.473	0.0180637
871.551	0.0179704
871.629	0.0180066
871.707	0.0181262
871.785	0.0180011
871.863	0.0180002
871.942	0.0180975
872.020	0.0181965
872.098	0.0181905
872.176	0.0182333
872.254	0.0182208
872.332	0.0180395
872.410	0.0181337
872.488	0.0182573
872.567	0.0180914
872.645	0.0182225
872.723	0.0181801
872.801	0.0185069
872.879	0.0183765
872.957	0.0182303
873.035	0.0182135
873.113	0.0182755
873.192	0.0182486
873.270	0.0183048
873.348	0.0183509
873.426	0.0183382
873.504	0.0183356
873.582	0.0184185
873.660	0.0184696
873.738	0.0182173
873.817	0.0184330
873.895	0.0184621
873.973	0.0184186
874.051	0.0183789
874.129	0.0184483
874.207	0.0183726
874.285	0.0183898
874.363	0.0184360
874.442	0.0185723
874.520	0.0186220
874.598	0.0185371
874.676	0.0185961
874.754	0.0186003
874.832	0.0184869
874.910	0.0185988
874.988	0.0184049
875.067	0.0183376
875.145	0.0184869
875.223	0.0185613
875.301	0.0184467
875.379	0.0183275
875.457	0.0182640
875.535	0.0182124
875.613	0.0181509
875.692	0.0182054
875.770	0.0181894
875.848	0.0183507
875.926	0.0182456
876.004	0.0181510
876.082	0.0181212
876.160	0.0180969
876.238	0.0181373
876.317	0.0180999
876.395	0.0180857
876.473	0.0180448
876.551	0.0181113
876.629	0.0180503
876.707	0.0183252
876.785	0.0180370
876.863	0.0180191
876.942	0.0180906
877.020	0.0181085
877.098	0.0180045
877.176	0.0181723
877.254	0.0181138
877.332	0.0181283
877.410	0.0181312
877.488	0.0181383
877.567	0.0181215
877.645	0.0182740
877.723	0.0180730
877.801	0.0181203
877.879	0.0181714
877.957	0.0181281
878.035	0.0181526
878.113	0.0182648
878.192	0.0182396
878.270	0.0181581
878.348	0.0183280
878.426	0.0184387
878.504	0.0183032
878.582	0.0184003
878.660	0.0183984
878.738	0.0184635
878.817	0.0186107
878.895	0.0184995
878.973	0.0184235
879.051	0.0184412
879.129	0.0184190
879.207	0.0185661
879.285	0.0184190
879.363	0.0185189
879.442	0.0184553
879.520	0.0185034
879.598	0.0184554
879.676	0.0183344
879.754	0.0184168
879.832	0.0183327
879.910	0.0185313
879.988	0.0184900
880.067	0.0184646
880.145	0.0183361
880.223	0.0183766
880.301	0.0184704
880.379	0.0185834
880.457	0.0185553
880.535	0.0184964
880.613	0.0184276
880.692	0.0184682
880.770	0.0184448
880.848	0.0183975
880.926	0.0183229
881.004	0.0183759
881.082	0.0184255
881.160	0.0183665
881.238	0.0181601
881.317	0.0183595
881.395	0.0183853
881.473	0.0182667
881.551	0.0181396
881.629	0.0183784
881.707	0.0182886
881.785	0.0182671
881.863	0.0181276
881.942	0.0180027
882.020	0.0182252
882.098	0.0182531
882.176	0.0180242
882.254	0.0180970
882.332	0.0180200
882.410	0.0179727
882.488	0.0180811
882.567	0.0180425
882.645	0.0180744
882.723	0.0181020
882.801	0.0180529
882.879	0.0180968
882.957	0.0180416
883.035	0.0181927
883.113	0.0181263
883.192	0.0180465
883.270	0.0180517
883.348	0.0182459
883.426	0.0180427
883.504	0.0181192
883.582	0.0180767
883.660	0.0180289
883.738	0.0181323
883.817	0.0181327
883.895	0.0181579
883.973	0.0181411
884.051	0.0181911
884.129	0.0182258
884.207	0.0182452
884.285	0.0182885
884.363	0.0183211
884.442	0.0182483
884.520	0.0181677
884.598	0.0182959
884.676	0.0182814
884.754	0.0183104
884.832	0.0181046
884.910	0.0181750
884.988	0.0182973
885.067	0.0183515
885.145	0.0182928
885.223	0.0184183
885.301	0.0183382
885.379	0.0182797
885.457	0.0183756
885.535	0.0183747
885.613	0.0185265
885.692	0.0185552
885.770	0.0184988
885.848	0.0186012
885.926	0.0187588
886.004	0.0185000
886.082	0.0185139
886.160	0.0184827
886.238	0.0186457
886.317	0.0185058
886.395	0.0185865
886.473	0.0185892
886.551	0.0184542
886.629	0.0186656
886.707	0.0186066
886.785	0.0184502
886.863	0.0185188
886.942	0.0185401
887.020	0.0184461
887.098	0.0183991
887.176	0.0183321
887.254	0.0182225
887.332	0.0182697
887.410	0.0180934
887.488	0.0181279
887.567	0.0179594
887.645	0.0179212
887.723	0.0179093
887.801	0.0178277
887.879	0.0178464
887.957	0.0177735
888.035	0.0177270
888.113	0.0177979
888.192	0.0178439
888.270	0.0179462
888.348	0.0179379
888.426	0.0180169
888.504	0.0181286
888.582	0.0181182
888.660	0.0181456
888.738	0.0183076
888.817	0.0182230
888.895	0.0181474
888.973	0.0183384
889.051	0.0183179
889.129	0.0184956
889.207	0.0184385
889.285	0.0186112
889.363	0.0185174
889.442	0.0185780
889.520	0.0185462
889.598	0.0184612
889.676	0.0186035
889.754	0.0186285
889.832	0.0185529
889.910	0.0187498
889.988	0.0183863
890.067	0.0183794
890.145	0.0185791
890.223	0.0184291
890.301	0.0183731
890.379	0.0182976
890.457	0.0182374
890.535	0.0181474
890.613	0.0181821
890.692	0.0180295
890.770	0.0181260
890.848	0.0179623
890.926	0.0180482
891.004	0.0179324
891.082	0.0179598
891.160	0.0179155
891.238	0.0179751
891.317	0.0180402
891.395	0.0179469
891.473	0.0181051
891.551	0.0180418
891.629	0.0179659
891.707	0.0179932
891.785	0.0180289
891.863	0.0180957
891.942	0.0181079
892.020	0.0180859
892.098	0.0180006
892.176	0.0181775
892.254	0.0181497
892.332	0.0180461
892.410	0.0180516
892.488	0.0181280
892.567	0.0181374
892.645	0.0182809
892.723	0.0183427
892.801	0.0184173
892.879	0.0184393
892.957	0.0183846
893.035	0.0185774
893.113	0.0185207
893.192	0.0186958
893.270	0.0187574
893.348	0.0187701
893.426	0.0186002
893.504	0.0186376
893.582	0.0186658
893.660	0.0186808
893.738	0.0185449
893.817	0.0185320
893.895	0.0185403
893.973	0.0184346
894.051	0.0184254
894.129	0.0183260
894.207	0.0183806
894.285	0.0183944
894.363	0.0184197
894.442	0.0183163
894.520	0.0183643
894.598	0.0183909
894.676	0.0184116
894.754	0.0183175
894.832	0.0184512
894.910	0.0185643
894.988	0.0185816
895.067	0.0186253
895.145	0.0184139
895.223	0.0188065
895.301	0.0187074
895.379	0.0186396
895.457	0.0186256
895.535	0.0187061
895.613	0.0186932
895.692	0.0187656
895.770	0.0185933
895.848	0.0185492
895.926	0.0186391
896.004	0.0184186
896.082	0.0185136
896.160	0.0183388
896.238	0.0182216
896.317	0.0181229
896.395	0.0183244
896.473	0.0181121
896.551	0.0179605
896.629	0.0179848
896.707	0.0178357
896.785	0.0177004
896.863	0.0177548
896.942	0.0178268
897.020	0.0177198
897.098	0.0175986
897.176	0.0177284
897.254	0.0177356
897.332	0.0176546
897.410	0.0176725
897.488	0.0177235
897.567	0.0177549
897.645	0.0178075
897.723	0.0178120
897.801	0.0179726
897.879	0.0179635
897.957	0.0180016
898.035	0.0180412
898.113	0.0181635
898.192	0.0182435
898.270	0.0180931
898.348	0.0182412
898.426	0.0183542
898.504	0.0184908
898.582	0.0184969
898.660	0.0184826
898.738	0.0186440
898.817	0.0187238
898.895	0.0185696
898.973	0.0187058
899.051	0.0188194
899.129	0.0187199
899.207	0.0185690
899.285	0.0186194
899.363	0.0184850
899.442	0.0184981
899.520	0.0183684
899.598	0.0182955
899.676	0.0182674
899.754	0.0181135
899.832	0.0180878
899.910	0.0181351
899.988	0.0180399
900.067	0.0179841
900.145	0.0180102
900.223	0.0181268
900.301	0.0181196
900.379	0.0181808
900.457	0.0182616
900.535	0.0182095
900.613	0.0184295
900.692	0.0184768
900.770	0.0185728
900.848	0.0187755
900.926	0.0188229
901.004	0.0187414
901.082	0.0189674
901.160	0.0188794
901.238	0.0190886
901.317	0.0190623
901.395	0.0189599
901.473	0.0190893
901.551	0.0192107
901.629	0.0190536
901.707	0.0188820
901.785	0.0187846
901.863	0.0185173
901.942	0.0186359
902.020	0.0185508
902.098	0.0183710
902.176	0.0180328
902.254	0.0180418
902.332	0.0179275
902.410	0.0177512
902.488	0.0175916
902.567	0.0174301
902.645	0.0172749
902.723	0.0174385
902.801	0.0173745
902.879	0.0173932
902.957	0.0173843
903.035	0.0175343
903.113	0.0176399
903.192	0.0176360
903.270	0.0176330
903.348	0.0178886
903.426	0.0179577
903.504	0.0180869
903.582	0.0180836
903.660	0.0180378
903.738	0.0182407
903.817	0.0184530
903.895	0.0184473
903.973	0.0185174
904.051	0.0185296
904.129	0.0186681
904.207	0.0186916
904.285	0.0188480
904.363	0.0187777
904.442	0.0187799
904.520	0.0188106
904.598	0.0188307
904.676	0.0188487
904.754	0.0187615
904.832	0.0188120
904.910	0.0187005
904.988	0.0184950
905.067	0.0185110
905.145	0.0183597
905.223	0.0183354
905.301	0.0183127
905.379	0.0180725
905.457	0.0180973
905.535	0.0179912
905.613	0.0178857
905.692	0.0177909
905.770	0.0178367
905.848	0.0179107
905.926	0.0178882
906.004	0.0177578
906.082	0.0178130
906.160	0.0179469
906.238	0.0178671
906.317	0.0178880
906.395	0.0180946
906.473	0.0181200
906.551	0.0182107
906.629	0.0182119
906.707	0.0182428
906.785	0.0184771
906.863	0.0184478
906.942	0.0185538
907.020	0.0186445
907.098	0.0186173
907.176	0.0186016
907.254	0.0186211
907.332	0.0186804
907.410	0.0187881
907.488	0.0187376
907.567	0.0186915
907.645	0.0186149
907.723	0.0184381
907.801	0.0185431
907.879	0.0184744
907.957	0.0184738
908.035	0.0182234
908.113	0.0182771
908.192	0.0181030
908.270	0.0180177
908.348	0.0179209
908.426	0.0178091
908.504	0.0179234
908.582	0.0178134
908.660	0.0177953
908.738	0.0178026
908.817	0.0178761
908.895	0.0178343
908.973	0.0179404
909.051	0.0179515
909.129	0.0181125
909.207	0.0182961
909.285	0.0182810
909.363	0.0184640
909.442	0.0185384
909.520	0.0185614
909.598	0.0186729
909.676	0.0187358
909.754	0.0186488
909.832	0.0185298
909.910	0.0185567
909.988	0.0186809
910.067	0.0185777
910.145	0.0185510
910.223	0.0184782
910.301	0.0182806
910.379	0.0182323
910.457	0.0182563
910.535	0.0181474
910.613	0.0182264
910.692	0.0182690
910.770	0.0180424
910.848	0.0179990
910.926	0.0180338
911.004	0.0180367
911.082	0.0181216
911.160	0.0182652
911.238	0.0183382
911.317	0.0182039
911.395	0.0181892
911.473	0.0182447
911.551	0.0182195
911.629	0.0182964
911.707	0.0182815
911.785	0.0183517
911.863	0.0181777
911.942	0.0180962
912.020	0.0180330
912.098	0.0179783
912.176	0.0180544
912.254	0.0179748
912.332	0.0181498
912.410	0.0179577
912.488	0.0179179
912.567	0.0180959
912.645	0.0181638
912.723	0.0181421
912.801	0.0182030
912.879	0.0181054
912.957	0.0183303
913.035	0.0182928
913.113	0.0184383
913.192	0.0184557
913.270	0.0184135
913.348	0.0183546
913.426	0.0183589
913.504	0.0185590
913.582	0.0183646
913.660	0.0184100
913.738	0.0184003
913.817	0.0183336
913.895	0.0183541
913.973	0.0183563
914.051	0.0182997
914.129	0.0181975
914.207	0.0181396
914.285	0.0181081
914.363	0.0181403
914.442	0.0180920
914.520	0.0180687
914.598	0.0181454
914.676	0.0180719
914.754	0.0182117
914.832	0.0182631
914.910	0.0181646
914.988	0.0182196
915.067	0.0185503
915.145	0.0184248
915.223	0.0183545
915.301	0.0184115
915.379	0.0184977
915.457	0.0184664
915.535	0.0184280
915.613	0.0182762
915.692	0.0184206
915.770	0.0183145
915.848	0.0181992
915.926	0.0182958
916.004	0.0181800
916.082	0.0181531
916.160	0.0181252
916.238	0.0181549
916.317	0.0181421
916.395	0.0182127
916.473	0.0181974
916.551	0.0181937
916.629	0.0183870
916.707	0.0184718
916.785	0.0184437
916.863	0.0185332
916.942	0.0185555
917.020	0.0186608
917.098	0.0187244
917.176	0.0186411
917.254	0.0185869
917.332	0.0185331
917.410	0.0185785
917.488	0.0184790
917.567	0.0184399
917.645	0.0183284
917.723	0.0182336
917.801	0.0180345
917.879	0.0180672
917.957	0.0180873
918.035	0.0179163
918.113	0.0181454
918.192	0.0180592
918.270	0.0179244
918.348	0.0180293
918.426	0.0180381
918.504	0.0181068
918.582	0.0182127
918.660	0.0181878
918.738	0.0181357
918.817	0.0181286
918.895	0.0182961
918.973	0.0182465
919.051	0.0182587
919.129	0.0183224
919.207	0.0183560
919.285	0.0183787
919.363	0.0181820
919.442	0.0180624
919.520	0.0184110
919.598	0.0182802
919.676	0.0180890
919.754	0.0181378
919.832	0.0183032
919.910	0.0182906
