06/01/2022	21:46:53	Ver.	4.1	UNKNOWN
Optical Delay	599.988409	Delta X		0.078125	Sweeps	1	Scan Rate	0/0
Coordinates	Axis 1	NaN	Axis 2	NaN	Axis 3	NaN	Axis 4	NaN	Axis 5	NaN	Axis 6	0.000000
TX Power	0.000000	RX Power	0.000000

599.988	0.0178400
600.067	0.0178338
600.145	0.0178842
600.223	0.0178615
600.301	0.0177846
600.379	0.0179303
600.457	0.0178220
600.535	0.0178871
600.613	0.0178754
600.692	0.0177874
600.770	0.0178299
600.848	0.0177795
600.926	0.0177834
601.004	0.0179659
601.082	0.0177605
601.160	0.0179156
601.238	0.0177772
601.317	0.0178036
601.395	0.0179259
601.473	0.0178828
601.551	0.0177394
601.629	0.0178679
601.707	0.0178529
601.785	0.0179109
601.863	0.0180108
601.942	0.0178976
602.020	0.0178876
602.098	0.0178348
602.176	0.0177784
602.254	0.0178067
602.332	0.0177901
602.410	0.0179402
602.488	0.0179533
602.567	0.0178709
602.645	0.0179237
602.723	0.0179249
602.801	0.0177861
602.879	0.0179594
602.957	0.0179455
603.035	0.0178822
603.113	0.0178358
603.192	0.0178558
603.270	0.0179037
603.348	0.0178930
603.426	0.0179141
603.504	0.0176842
603.582	0.0178753
603.660	0.0178724
603.738	0.0177927
603.817	0.0179548
603.895	0.0179584
603.973	0.0177633
604.051	0.0177934
604.129	0.0178661
604.207	0.0179036
604.285	0.0178492
604.363	0.0178824
604.442	0.0179061
604.520	0.0179527
604.598	0.0177959
604.676	0.0179312
604.754	0.0178303
604.832	0.0177544
604.910	0.0178827
604.988	0.0179471
605.067	0.0178400
605.145	0.0177505
605.223	0.0179152
605.301	0.0178564
605.379	0.0179610
605.457	0.0177343
605.535	0.0178501
605.613	0.0178742
605.692	0.0178943
605.770	0.0177020
605.848	0.0177693
605.926	0.0177771
606.004	0.0178161
606.082	0.0178180
606.160	0.0177946
606.238	0.0177587
606.317	0.0177753
606.395	0.0178347
606.473	0.0177856
606.551	0.0178003
606.629	0.0177667
606.707	0.0178487
606.785	0.0178504
606.863	0.0176609
606.942	0.0178024
607.020	0.0178934
607.098	0.0178529
607.176	0.0179185
607.254	0.0179596
607.332	0.0178325
607.410	0.0176996
607.488	0.0178715
607.567	0.0179889
607.645	0.0179651
607.723	0.0177908
607.801	0.0178699
607.879	0.0178803
607.957	0.0178182
608.035	0.0178668
608.113	0.0178392
608.192	0.0178812
608.270	0.0177962
608.348	0.0178515
608.426	0.0178767
608.504	0.0177786
608.582	0.0178426
608.660	0.0179273
608.738	0.0178266
608.817	0.0179217
608.895	0.0178241
608.973	0.0178670
609.051	0.0179871
609.129	0.0177518
609.207	0.0179089
609.285	0.0178316
609.363	0.0178271
609.442	0.0177296
609.520	0.0177754
609.598	0.0178540
609.676	0.0178497
609.754	0.0177647
609.832	0.0177889
609.910	0.0178359
609.988	0.0177502
610.067	0.0178638
610.145	0.0178254
610.223	0.0178763
610.301	0.0177505
610.379	0.0177426
610.457	0.0177638
610.535	0.0179351
610.613	0.0178751
610.692	0.0177217
610.770	0.0180007
610.848	0.0178941
610.926	0.0178114
611.004	0.0178284
611.082	0.0177910
611.160	0.0180154
611.238	0.0178818
611.317	0.0178849
611.395	0.0179018
611.473	0.0178237
611.551	0.0178618
611.629	0.0177954
611.707	0.0177524
611.785	0.0177483
611.863	0.0178127
611.942	0.0179222
612.020	0.0177731
612.098	0.0178436
612.176	0.0176867
612.254	0.0177240
612.332	0.0178216
612.410	0.0178166
612.488	0.0178272
612.567	0.0177518
612.645	0.0178635
612.723	0.0179279
612.801	0.0178680
612.879	0.0178870
612.957	0.0178303
613.035	0.0178906
613.113	0.0177335
613.192	0.0178304
613.270	0.0178874
613.348	0.0177715
613.426	0.0179912
613.504	0.0179372
613.582	0.0179301
613.660	0.0177992
613.738	0.0178988
613.817	0.0178598
613.895	0.0177458
613.973	0.0178516
614.051	0.0179199
614.129	0.0177953
614.207	0.0178387
614.285	0.0177762
614.363	0.0178455
614.442	0.0177961
614.520	0.0178052
614.598	0.0178828
614.676	0.0178744
614.754	0.0178046
614.832	0.0178790
614.910	0.0178037
614.988	0.0177759
615.067	0.0178404
615.145	0.0180373
615.223	0.0176805
615.301	0.0178764
615.379	0.0178149
615.457	0.0178291
615.535	0.0178200
615.613	0.0177820
615.692	0.0178808
615.770	0.0179726
615.848	0.0177922
615.926	0.0178156
616.004	0.0177586
616.082	0.0179246
616.160	0.0178392
616.238	0.0179122
616.317	0.0177560
616.395	0.0178478
616.473	0.0178979
616.551	0.0178374
616.629	0.0177232
616.707	0.0178452
616.785	0.0177915
616.863	0.0179265
616.942	0.0177848
617.020	0.0177563
617.098	0.0179247
617.176	0.0179417
617.254	0.0179037
617.332	0.0180088
617.410	0.0179324
617.488	0.0178682
617.567	0.0179501
617.645	0.0178172
617.723	0.0177039
617.801	0.0177868
617.879	0.0178474
617.957	0.0179541
618.035	0.0177381
618.113	0.0178643
618.192	0.0178458
618.270	0.0178741
618.348	0.0177468
618.426	0.0177992
618.504	0.0177736
618.582	0.0178517
618.660	0.0178306
618.738	0.0177695
618.817	0.0177680
618.895	0.0177182
618.973	0.0177879
619.051	0.0178827
619.129	0.0179064
619.207	0.0177749
619.285	0.0178440
619.363	0.0177670
619.442	0.0177605
619.520	0.0178503
619.598	0.0178229
619.676	0.0176877
619.754	0.0177212
619.832	0.0180659
619.910	0.0178878
619.988	0.0177625
620.067	0.0177502
620.145	0.0178867
620.223	0.0178243
620.301	0.0179058
620.379	0.0177158
620.457	0.0177268
620.535	0.0178705
620.613	0.0177169
620.692	0.0178151
620.770	0.0179160
620.848	0.0177654
620.926	0.0178106
621.004	0.0178117
621.082	0.0177626
621.160	0.0178638
621.238	0.0178159
621.317	0.0177829
621.395	0.0179565
621.473	0.0177184
621.551	0.0178014
621.629	0.0179167
621.707	0.0177486
621.785	0.0178550
621.863	0.0177938
621.942	0.0178748
622.020	0.0178410
622.098	0.0177939
622.176	0.0177814
622.254	0.0176912
622.332	0.0177154
622.410	0.0179111
622.488	0.0177518
622.567	0.0177191
622.645	0.0178093
622.723	0.0178307
622.801	0.0178293
622.879	0.0177405
622.957	0.0177388
623.035	0.0177716
623.113	0.0177948
623.192	0.0178452
623.270	0.0177545
623.348	0.0177990
623.426	0.0179028
623.504	0.0178173
623.582	0.0177438
623.660	0.0178209
623.738	0.0178101
623.817	0.0178655
623.895	0.0177589
623.973	0.0179640
624.051	0.0179060
624.129	0.0178489
624.207	0.0179301
624.285	0.0178356
624.363	0.0179474
624.442	0.0179011
624.520	0.0178320
624.598	0.0179340
624.676	0.0179299
624.754	0.0179485
624.832	0.0179083
624.910	0.0177335
624.988	0.0178787
625.067	0.0178715
625.145	0.0176631
625.223	0.0177362
625.301	0.0178806
625.379	0.0178439
625.457	0.0177535
625.535	0.0179779
625.613	0.0179900
625.692	0.0177900
625.770	0.0177615
625.848	0.0178557
625.926	0.0179454
626.004	0.0178761
626.082	0.0178436
626.160	0.0177981
626.238	0.0177767
626.317	0.0177876
626.395	0.0178714
626.473	0.0178611
626.551	0.0178396
626.629	0.0178825
626.707	0.0177990
626.785	0.0178834
626.863	0.0179903
626.942	0.0179213
627.020	0.0178191
627.098	0.0178239
627.176	0.0178320
627.254	0.0179329
627.332	0.0179631
627.410	0.0179858
627.488	0.0178228
627.567	0.0178543
627.645	0.0178237
627.723	0.0178473
627.801	0.0179257
627.879	0.0177751
627.957	0.0179449
628.035	0.0178820
628.113	0.0179228
628.192	0.0179120
628.270	0.0177100
628.348	0.0177615
628.426	0.0178564
628.504	0.0178010
628.582	0.0179431
628.660	0.0179748
628.738	0.0178977
628.817	0.0177994
628.895	0.0178702
628.973	0.0178500
629.051	0.0178750
629.129	0.0177980
629.207	0.0177521
629.285	0.0178725
629.363	0.0178841
629.442	0.0177639
629.520	0.0177412
629.598	0.0177493
629.676	0.0179169
629.754	0.0178550
629.832	0.0178669
629.910	0.0177837
629.988	0.0178215
630.067	0.0178577
630.145	0.0178922
630.223	0.0178279
630.301	0.0178865
630.379	0.0178957
630.457	0.0177827
630.535	0.0178735
630.613	0.0179401
630.692	0.0178678
630.770	0.0177814
630.848	0.0177361
630.926	0.0177821
631.004	0.0178694
631.082	0.0177943
631.160	0.0177984
631.238	0.0179634
631.317	0.0177599
631.395	0.0178822
631.473	0.0179450
631.551	0.0177948
631.629	0.0178139
631.707	0.0178542
631.785	0.0178672
631.863	0.0178044
631.942	0.0178305
632.020	0.0178506
632.098	0.0178876
632.176	0.0179581
632.254	0.0178150
632.332	0.0179221
632.410	0.0178833
632.488	0.0179353
632.567	0.0178395
632.645	0.0179961
632.723	0.0177585
632.801	0.0178956
632.879	0.0180247
632.957	0.0178849
633.035	0.0179422
633.113	0.0179861
633.192	0.0179037
633.270	0.0178351
633.348	0.0179221
633.426	0.0179167
633.504	0.0179531
633.582	0.0177405
633.660	0.0179474
633.738	0.0178731
633.817	0.0178464
633.895	0.0179436
633.973	0.0178316
634.051	0.0178868
634.129	0.0178351
634.207	0.0180231
634.285	0.0178088
634.363	0.0176954
634.442	0.0179514
634.520	0.0179032
634.598	0.0179394
634.676	0.0179449
634.754	0.0178040
634.832	0.0177835
634.910	0.0178818
634.988	0.0178114
635.067	0.0178842
635.145	0.0178080
635.223	0.0179275
635.301	0.0178281
635.379	0.0180864
635.457	0.0179514
635.535	0.0179542
635.613	0.0178584
635.692	0.0177651
635.770	0.0177950
635.848	0.0178584
635.926	0.0177882
636.004	0.0178921
636.082	0.0178179
636.160	0.0179029
636.238	0.0178143
636.317	0.0178747
636.395	0.0178017
636.473	0.0178251
636.551	0.0177623
636.629	0.0176704
636.707	0.0178688
636.785	0.0177731
636.863	0.0178112
636.942	0.0178684
637.020	0.0179115
637.098	0.0178237
637.176	0.0177197
637.254	0.0178456
637.332	0.0179062
637.410	0.0178936
637.488	0.0179332
637.567	0.0179351
637.645	0.0177775
637.723	0.0178488
637.801	0.0178052
637.879	0.0178580
637.957	0.0177985
638.035	0.0179049
638.113	0.0178466
638.192	0.0178819
638.270	0.0178884
638.348	0.0177882
638.426	0.0178621
638.504	0.0179136
638.582	0.0178394
638.660	0.0178880
638.738	0.0178609
638.817	0.0178653
638.895	0.0178388
638.973	0.0179453
639.051	0.0178020
639.129	0.0178159
639.207	0.0178912
639.285	0.0178709
639.363	0.0178306
639.442	0.0179131
639.520	0.0178625
639.598	0.0179488
639.676	0.0178704
639.754	0.0177778
639.832	0.0178843
639.910	0.0178426
639.988	0.0178571
640.067	0.0179360
640.145	0.0179356
640.223	0.0178552
640.301	0.0178732
640.379	0.0179453
640.457	0.0179894
640.535	0.0178942
640.613	0.0178084
640.692	0.0178811
640.770	0.0178194
640.848	0.0179247
640.926	0.0179556
641.004	0.0178669
641.082	0.0178259
641.160	0.0178867
641.238	0.0179724
641.317	0.0178291
641.395	0.0178783
641.473	0.0177751
641.551	0.0178682
641.629	0.0179104
641.707	0.0179917
641.785	0.0178644
641.863	0.0178258
641.942	0.0179657
642.020	0.0179546
642.098	0.0179008
642.176	0.0177282
642.254	0.0177647
642.332	0.0178899
642.410	0.0178678
642.488	0.0179102
642.567	0.0177851
642.645	0.0178646
642.723	0.0179283
642.801	0.0178578
642.879	0.0179078
642.957	0.0179041
643.035	0.0180099
643.113	0.0180686
643.192	0.0178407
643.270	0.0178851
643.348	0.0177642
643.426	0.0178027
643.504	0.0178624
643.582	0.0178658
643.660	0.0178277
643.738	0.0178548
643.817	0.0178588
643.895	0.0178996
643.973	0.0179955
644.051	0.0177162
644.129	0.0177421
644.207	0.0179350
644.285	0.0178751
644.363	0.0177763
644.442	0.0180023
644.520	0.0178841
644.598	0.0178956
644.676	0.0178879
644.754	0.0178364
644.832	0.0179445
644.910	0.0178806
644.988	0.0178043
645.067	0.0180276
645.145	0.0178349
645.223	0.0178006
645.301	0.0179039
645.379	0.0178519
645.457	0.0180230
645.535	0.0178515
645.613	0.0178620
645.692	0.0178542
645.770	0.0179305
645.848	0.0177306
645.926	0.0178136
646.004	0.0179182
646.082	0.0177936
646.160	0.0177396
646.238	0.0178289
646.317	0.0178471
646.395	0.0178315
646.473	0.0180626
646.551	0.0179333
646.629	0.0177772
646.707	0.0179604
646.785	0.0176961
646.863	0.0179294
646.942	0.0179654
647.020	0.0178003
647.098	0.0177755
647.176	0.0177885
647.254	0.0178472
647.332	0.0177713
647.410	0.0177987
647.488	0.0177901
647.567	0.0178305
647.645	0.0178483
647.723	0.0178081
647.801	0.0178947
647.879	0.0177663
647.957	0.0178316
648.035	0.0179070
648.113	0.0177877
648.192	0.0177843
648.270	0.0178190
648.348	0.0177387
648.426	0.0176852
648.504	0.0178426
648.582	0.0178233
648.660	0.0177097
648.738	0.0177354
648.817	0.0177585
648.895	0.0177934
648.973	0.0178339
649.051	0.0178895
649.129	0.0177709
649.207	0.0179163
649.285	0.0177569
649.363	0.0178067
649.442	0.0178001
649.520	0.0178930
649.598	0.0178849
649.676	0.0178093
649.754	0.0178903
649.832	0.0179109
649.910	0.0177315
649.988	0.0177850
650.067	0.0177934
650.145	0.0177010
650.223	0.0177296
650.301	0.0178567
650.379	0.0179736
650.457	0.0178811
650.535	0.0178275
650.613	0.0176868
650.692	0.0178833
650.770	0.0178525
650.848	0.0178822
650.926	0.0179201
651.004	0.0178645
651.082	0.0177593
651.160	0.0178466
651.238	0.0177814
651.317	0.0178822
651.395	0.0179101
651.473	0.0178087
651.551	0.0178480
651.629	0.0178304
651.707	0.0179096
651.785	0.0179006
651.863	0.0177931
651.942	0.0178042
652.020	0.0177444
652.098	0.0178906
652.176	0.0178210
652.254	0.0178739
652.332	0.0178860
652.410	0.0176907
652.488	0.0178843
652.567	0.0178680
652.645	0.0176373
652.723	0.0179280
652.801	0.0179435
652.879	0.0177391
652.957	0.0177993
653.035	0.0179438
653.113	0.0179430
653.192	0.0179108
653.270	0.0179125
653.348	0.0177988
653.426	0.0178632
653.504	0.0176521
653.582	0.0176660
653.660	0.0177383
653.738	0.0178080
653.817	0.0177183
653.895	0.0178133
653.973	0.0177729
654.051	0.0176804
654.129	0.0178194
654.207	0.0177959
654.285	0.0178948
654.363	0.0179604
654.442	0.0178970
654.520	0.0178702
654.598	0.0179482
654.676	0.0181052
654.754	0.0179016
654.832	0.0178265
654.910	0.0179535
654.988	0.0179985
655.067	0.0180092
655.145	0.0179353
655.223	0.0178336
655.301	0.0178916
655.379	0.0178149
655.457	0.0176997
655.535	0.0177637
655.613	0.0177289
655.692	0.0177130
655.770	0.0177037
655.848	0.0177070
655.926	0.0176431
656.004	0.0177431
656.082	0.0177605
656.160	0.0178038
656.238	0.0179926
656.317	0.0178792
656.395	0.0179475
656.473	0.0179426
656.551	0.0179775
656.629	0.0181600
656.707	0.0180094
656.785	0.0178912
656.863	0.0179913
656.942	0.0181438
657.020	0.0178801
657.098	0.0178409
657.176	0.0178994
657.254	0.0179240
657.332	0.0177483
657.410	0.0176241
657.488	0.0177287
657.567	0.0177634
657.645	0.0176559
657.723	0.0177175
657.801	0.0176582
657.879	0.0177882
657.957	0.0178536
658.035	0.0178191
658.113	0.0178529
658.192	0.0177937
658.270	0.0179155
658.348	0.0178843
658.426	0.0179520
658.504	0.0180244
658.582	0.0178706
658.660	0.0180063
658.738	0.0181507
658.817	0.0180018
658.895	0.0180159
658.973	0.0179412
659.051	0.0178540
659.129	0.0179066
659.207	0.0177767
659.285	0.0178558
659.363	0.0178368
659.442	0.0176846
659.520	0.0177512
659.598	0.0177953
659.676	0.0176434
659.754	0.0178751
659.832	0.0176955
659.910	0.0176784
659.988	0.0176704
660.067	0.0177364
660.145	0.0177782
660.223	0.0178228
660.301	0.0179255
660.379	0.0179289
660.457	0.0179741
660.535	0.0181017
660.613	0.0179236
660.692	0.0180491
660.770	0.0179961
660.848	0.0179224
660.926	0.0180505
661.004	0.0180046
661.082	0.0177427
661.160	0.0179174
661.238	0.0178640
661.317	0.0177135
661.395	0.0177974
661.473	0.0177630
661.551	0.0175250
661.629	0.0175830
661.707	0.0175545
661.785	0.0175822
661.863	0.0176279
661.942	0.0176421
662.020	0.0177262
662.098	0.0177967
662.176	0.0178638
662.254	0.0179053
662.332	0.0179738
662.410	0.0180499
662.488	0.0181796
662.567	0.0180512
662.645	0.0181124
662.723	0.0181364
662.801	0.0180093
662.879	0.0180227
662.957	0.0179704
663.035	0.0178806
663.113	0.0179279
663.192	0.0177318
663.270	0.0178566
663.348	0.0178851
663.426	0.0177483
663.504	0.0176038
663.582	0.0175816
663.660	0.0176802
663.738	0.0177444
663.817	0.0177663
663.895	0.0179847
663.973	0.0178613
664.051	0.0179619
664.129	0.0179739
664.207	0.0180504
664.285	0.0179900
664.363	0.0181197
664.442	0.0180544
664.520	0.0181378
664.598	0.0179874
664.676	0.0180034
664.754	0.0179678
664.832	0.0177839
664.910	0.0177775
664.988	0.0179095
665.067	0.0177427
665.145	0.0176971
665.223	0.0177022
665.301	0.0178059
665.379	0.0177460
665.457	0.0177242
665.535	0.0177685
665.613	0.0177834
665.692	0.0178355
665.770	0.0177866
665.848	0.0177661
665.926	0.0178480
666.004	0.0179557
666.082	0.0179088
666.160	0.0178886
666.238	0.0178707
666.317	0.0179708
666.395	0.0179803
666.473	0.0178448
666.551	0.0178870
666.629	0.0180029
666.707	0.0178439
666.785	0.0178194
666.863	0.0179037
666.942	0.0180887
667.020	0.0179153
667.098	0.0179262
667.176	0.0178227
667.254	0.0178187
667.332	0.0179547
667.410	0.0178504
667.488	0.0177888
667.567	0.0178723
667.645	0.0177902
667.723	0.0178007
667.801	0.0178108
667.879	0.0179310
667.957	0.0179282
668.035	0.0179182
668.113	0.0178407
668.192	0.0178194
668.270	0.0177518
668.348	0.0178495
668.426	0.0178970
668.504	0.0177731
668.582	0.0177602
668.660	0.0178059
668.738	0.0178870
668.817	0.0177301
668.895	0.0177697
668.973	0.0178696
669.051	0.0179922
669.129	0.0179160
669.207	0.0179114
669.285	0.0179309
669.363	0.0179578
669.442	0.0179037
669.520	0.0179752
669.598	0.0179776
669.676	0.0178724
669.754	0.0178490
669.832	0.0178600
669.910	0.0177615
669.988	0.0178514
670.067	0.0176854
670.145	0.0177227
670.223	0.0177084
670.301	0.0177097
670.379	0.0176986
670.457	0.0177895
670.535	0.0175505
670.613	0.0176940
670.692	0.0176931
670.770	0.0176492
670.848	0.0177090
670.926	0.0178329
671.004	0.0178186
671.082	0.0178333
671.160	0.0180117
671.238	0.0179663
671.317	0.0179211
671.395	0.0179756
671.473	0.0180595
671.551	0.0181953
671.629	0.0181548
671.707	0.0180590
671.785	0.0181451
671.863	0.0180794
671.942	0.0179962
672.020	0.0180138
672.098	0.0178740
672.176	0.0177632
672.254	0.0178511
672.332	0.0177417
672.410	0.0176424
672.488	0.0176259
672.567	0.0177350
672.645	0.0176345
672.723	0.0174973
672.801	0.0174695
672.879	0.0174957
672.957	0.0176587
673.035	0.0176821
673.113	0.0176492
673.192	0.0177097
673.270	0.0177579
673.348	0.0177858
673.426	0.0178253
673.504	0.0179036
673.582	0.0178399
673.660	0.0179494
673.738	0.0180907
673.817	0.0180099
673.895	0.0180086
673.973	0.0179871
674.051	0.0179341
674.129	0.0180173
674.207	0.0179301
674.285	0.0178679
674.363	0.0177051
674.442	0.0177466
674.520	0.0176006
674.598	0.0176662
674.676	0.0177039
674.754	0.0175896
674.832	0.0177271
674.910	0.0175316
674.988	0.0177910
675.067	0.0177505
675.145	0.0176641
675.223	0.0175295
675.301	0.0176646
675.379	0.0178559
675.457	0.0179120
675.535	0.0179706
675.613	0.0179411
675.692	0.0180210
675.770	0.0181781
675.848	0.0181637
675.926	0.0180688
676.004	0.0180877
676.082	0.0182177
676.160	0.0184627
676.238	0.0181919
676.317	0.0182743
676.395	0.0182240
676.473	0.0182780
676.551	0.0180962
676.629	0.0180224
676.707	0.0180659
676.785	0.0179531
676.863	0.0178019
676.942	0.0176541
677.020	0.0175565
677.098	0.0175578
677.176	0.0174702
677.254	0.0174985
677.332	0.0174743
677.410	0.0174764
677.488	0.0175491
677.567	0.0175915
677.645	0.0176740
677.723	0.0178053
677.801	0.0177506
677.879	0.0177582
677.957	0.0179784
678.035	0.0178924
678.113	0.0180036
678.192	0.0178738
678.270	0.0179041
678.348	0.0177171
678.426	0.0177596
678.504	0.0177063
678.582	0.0177789
678.660	0.0177847
678.738	0.0177003
678.817	0.0178017
678.895	0.0177325
678.973	0.0176173
679.051	0.0178780
679.129	0.0179318
679.207	0.0180076
679.285	0.0182003
679.363	0.0181326
679.442	0.0182196
679.520	0.0182533
679.598	0.0182876
679.676	0.0184593
679.754	0.0182762
679.832	0.0181545
679.910	0.0181116
679.988	0.0180795
680.067	0.0178881
680.145	0.0177583
680.223	0.0174715
680.301	0.0174096
680.379	0.0173314
680.457	0.0172205
680.535	0.0172572
680.613	0.0171539
680.692	0.0172200
680.770	0.0172439
680.848	0.0174174
680.926	0.0175759
681.004	0.0176120
681.082	0.0177036
681.160	0.0178638
681.238	0.0181749
681.317	0.0181662
681.395	0.0183775
681.473	0.0185386
681.551	0.0185858
681.629	0.0187078
681.707	0.0188320
681.785	0.0189167
681.863	0.0188398
681.942	0.0186885
682.020	0.0186343
682.098	0.0184585
682.176	0.0182832
682.254	0.0180067
682.332	0.0178590
682.410	0.0175717
682.488	0.0175006
682.567	0.0172381
682.645	0.0170737
682.723	0.0169966
682.801	0.0169897
682.879	0.0169487
682.957	0.0168293
683.035	0.0170346
683.113	0.0171011
683.192	0.0172207
683.270	0.0171583
683.348	0.0174100
683.426	0.0176212
683.504	0.0178011
683.582	0.0179355
683.660	0.0181379
683.738	0.0183583
683.817	0.0183946
683.895	0.0185338
683.973	0.0186900
684.051	0.0188429
684.129	0.0187250
684.207	0.0188248
684.285	0.0188492
684.363	0.0189101
684.442	0.0189186
684.520	0.0189082
684.598	0.0187254
684.676	0.0185589
684.754	0.0184636
684.832	0.0183830
684.910	0.0180629
684.988	0.0181185
685.067	0.0178445
685.145	0.0174370
685.223	0.0171471
685.301	0.0169640
685.379	0.0165511
685.457	0.0164246
685.535	0.0160927
685.613	0.0159734
685.692	0.0158775
685.770	0.0158585
685.848	0.0159960
685.926	0.0161715
686.004	0.0163047
686.082	0.0165843
686.160	0.0168268
686.238	0.0173019
686.317	0.0176981
686.395	0.0182184
686.473	0.0184969
686.551	0.0188029
686.629	0.0190889
686.707	0.0192099
686.785	0.0196540
686.863	0.0198675
686.942	0.0199590
687.020	0.0200166
687.098	0.0199922
687.176	0.0199689
687.254	0.0199736
687.332	0.0200625
687.410	0.0197808
687.488	0.0196904
687.567	0.0196089
687.645	0.0192740
687.723	0.0188237
687.801	0.0186012
687.879	0.0184263
687.957	0.0181059
688.035	0.0175970
688.113	0.0172857
688.192	0.0169440
688.270	0.0166843
688.348	0.0161661
688.426	0.0159354
688.504	0.0158463
688.582	0.0156915
688.660	0.0156084
688.738	0.0154685
688.817	0.0152527
688.895	0.0155357
688.973	0.0156472
689.051	0.0155989
689.129	0.0157849
689.207	0.0160112
689.285	0.0163418
689.363	0.0167972
689.442	0.0170959
689.520	0.0172993
689.598	0.0177803
689.676	0.0181904
689.754	0.0183895
689.832	0.0186714
689.910	0.0188835
689.988	0.0193082
690.067	0.0195141
690.145	0.0196933
690.223	0.0198257
690.301	0.0198772
690.379	0.0200896
690.457	0.0199854
690.535	0.0199165
690.613	0.0198562
690.692	0.0196770
690.770	0.0196643
690.848	0.0193566
690.926	0.0191905
691.004	0.0189049
691.082	0.0185167
691.160	0.0183012
691.238	0.0178532
691.317	0.0175673
691.395	0.0172080
691.473	0.0170186
691.551	0.0166929
691.629	0.0164316
691.707	0.0163728
691.785	0.0161555
691.863	0.0161662
691.942	0.0161118
692.020	0.0162437
692.098	0.0162946
692.176	0.0164320
692.254	0.0166382
692.332	0.0168449
692.410	0.0170631
692.488	0.0174116
692.567	0.0178440
692.645	0.0179893
692.723	0.0182533
692.801	0.0185324
692.879	0.0185805
692.957	0.0187639
693.035	0.0189011
693.113	0.0188084
693.192	0.0186685
693.270	0.0184978
693.348	0.0183669
693.426	0.0180788
693.504	0.0180913
693.582	0.0178802
693.660	0.0177391
693.738	0.0178990
693.817	0.0178319
693.895	0.0179292
693.973	0.0179724
694.051	0.0181355
694.129	0.0182428
694.207	0.0184093
694.285	0.0185635
694.363	0.0187457
694.442	0.0188437
694.520	0.0186757
694.598	0.0185387
694.676	0.0184252
694.754	0.0183514
694.832	0.0181687
694.910	0.0179830
694.988	0.0177334
695.067	0.0174035
695.145	0.0172762
695.223	0.0171101
695.301	0.0168643
695.379	0.0168384
695.457	0.0164922
695.535	0.0163966
695.613	0.0165005
695.692	0.0162955
695.770	0.0161062
695.848	0.0161310
695.926	0.0160730
696.004	0.0161236
696.082	0.0162994
696.160	0.0163825
696.238	0.0165656
696.317	0.0165682
696.395	0.0167564
696.473	0.0170371
696.551	0.0172648
696.629	0.0177223
696.707	0.0179636
696.785	0.0183450
696.863	0.0187154
696.942	0.0191371
697.020	0.0195810
697.098	0.0198106
697.176	0.0201488
697.254	0.0205857
697.332	0.0209094
697.410	0.0208739
697.488	0.0211709
697.567	0.0211809
697.645	0.0210641
697.723	0.0209475
697.801	0.0207308
697.879	0.0206650
697.957	0.0203019
698.035	0.0199049
698.113	0.0195501
698.192	0.0190881
698.270	0.0187034
698.348	0.0182816
698.426	0.0179626
698.504	0.0173708
698.582	0.0170415
698.660	0.0166403
698.738	0.0160423
698.817	0.0155897
698.895	0.0152058
698.973	0.0150372
699.051	0.0146603
699.129	0.0144073
699.207	0.0143234
699.285	0.0140509
699.363	0.0139910
699.442	0.0141708
699.520	0.0142814
699.598	0.0145585
699.676	0.0149099
699.754	0.0149685
699.832	0.0153532
699.910	0.0158471
699.988	0.0160860
700.067	0.0165363
700.145	0.0168457
700.223	0.0172948
700.301	0.0178821
700.379	0.0183269
700.457	0.0185263
700.535	0.0188367
700.613	0.0189922
700.692	0.0192947
700.770	0.0194849
700.848	0.0191729
700.926	0.0190636
701.004	0.0191689
701.082	0.0189040
701.160	0.0189936
701.238	0.0187530
701.317	0.0185209
701.395	0.0185194
701.473	0.0184496
701.551	0.0185492
701.629	0.0184834
701.707	0.0186478
701.785	0.0186954
701.863	0.0187383
701.942	0.0189509
702.020	0.0191208
702.098	0.0193584
702.176	0.0196306
702.254	0.0199747
702.332	0.0202638
702.410	0.0205816
702.488	0.0209784
702.567	0.0211363
702.645	0.0214115
702.723	0.0216359
702.801	0.0216806
702.879	0.0217811
702.957	0.0215485
703.035	0.0215450
703.113	0.0212983
703.192	0.0211658
703.270	0.0207305
703.348	0.0203464
703.426	0.0198433
703.504	0.0192307
703.582	0.0185942
703.660	0.0177366
703.738	0.0170304
703.817	0.0161618
703.895	0.0155383
703.973	0.0147172
704.051	0.0140238
704.129	0.0133598
704.207	0.0128787
704.285	0.0124551
704.363	0.0120116
704.442	0.0114418
704.520	0.0113592
704.598	0.0111954
704.676	0.0111954
704.754	0.0112119
704.832	0.0112482
704.910	0.0114307
704.988	0.0115414
705.067	0.0120751
705.145	0.0122879
705.223	0.0126917
705.301	0.0132594
705.379	0.0138437
705.457	0.0146198
705.535	0.0154358
705.613	0.0163622
705.692	0.0170071
705.770	0.0179642
705.848	0.0188166
705.926	0.0197511
706.004	0.0206705
706.082	0.0215299
706.160	0.0223141
706.238	0.0231219
706.317	0.0236578
706.395	0.0242970
706.473	0.0246098
706.551	0.0248052
706.629	0.0248380
706.707	0.0249763
706.785	0.0248466
706.863	0.0245322
706.942	0.0241970
707.020	0.0236335
707.098	0.0228524
707.176	0.0222384
707.254	0.0215250
707.332	0.0207253
707.410	0.0198426
707.488	0.0190865
707.567	0.0184288
707.645	0.0179807
707.723	0.0174550
707.801	0.0172665
707.879	0.0170157
707.957	0.0167503
708.035	0.0167865
708.113	0.0171122
708.192	0.0173772
708.270	0.0175954
708.348	0.0180303
708.426	0.0185097
708.504	0.0188239
708.582	0.0192303
708.660	0.0196037
708.738	0.0199384
708.817	0.0202200
708.895	0.0201712
708.973	0.0201921
709.051	0.0197499
709.129	0.0194253
709.207	0.0190575
709.285	0.0183730
709.363	0.0175700
709.442	0.0167686
709.520	0.0159679
709.598	0.0150055
709.676	0.0140442
709.754	0.0131503
709.832	0.0125017
709.910	0.0116242
709.988	0.0110752
710.067	0.0105376
710.145	0.0103018
710.223	0.0101077
710.301	0.0102322
710.379	0.0102938
710.457	0.0104217
710.535	0.0107677
710.613	0.0112588
710.692	0.0116312
710.770	0.0121895
710.848	0.0127617
710.926	0.0131710
711.004	0.0136955
711.082	0.0142403
711.160	0.0147186
711.238	0.0150754
711.317	0.0156367
711.395	0.0161813
711.473	0.0167673
711.551	0.0177209
711.629	0.0185487
711.707	0.0193636
711.785	0.0204475
711.863	0.0214262
711.942	0.0225260
712.020	0.0237701
712.098	0.0249948
712.176	0.0262097
712.254	0.0270588
712.332	0.0276609
712.410	0.0282765
712.488	0.0284753
712.567	0.0284809
712.645	0.0282286
712.723	0.0275643
712.801	0.0269632
712.879	0.0261352
712.957	0.0247382
713.035	0.0235587
713.113	0.0224485
713.192	0.0212695
713.270	0.0200445
713.348	0.0189388
713.426	0.0177984
713.504	0.0169250
713.582	0.0163455
713.660	0.0157714
713.738	0.0154626
713.817	0.0152723
713.895	0.0152199
713.973	0.0153785
714.051	0.0155775
714.129	0.0159449
714.207	0.0163662
714.285	0.0167892
714.363	0.0172774
714.442	0.0179913
714.520	0.0185634
714.598	0.0189670
714.676	0.0194062
714.754	0.0196246
714.832	0.0196611
714.910	0.0195457
714.988	0.0192056
715.067	0.0185282
715.145	0.0179861
715.223	0.0173383
715.301	0.0162027
715.379	0.0151321
715.457	0.0141181
715.535	0.0132055
715.613	0.0119878
715.692	0.0111336
715.770	0.0103789
715.848	0.00955879
715.926	0.00925911
716.004	0.00881752
716.082	0.00870773
716.160	0.00879372
716.238	0.00892166
716.317	0.00936043
716.395	0.00976662
716.473	0.0103338
716.551	0.0110271
716.629	0.0118713
716.707	0.0126455
716.785	0.0133955
716.863	0.0141342
716.942	0.0149447
717.020	0.0155607
717.098	0.0162728
717.176	0.0168847
717.254	0.0174912
717.332	0.0182942
717.410	0.0191009
717.488	0.0196043
717.567	0.0203440
717.645	0.0211760
717.723	0.0220972
717.801	0.0230567
717.879	0.0239925
717.957	0.0248124
718.035	0.0261378
718.113	0.0269737
718.192	0.0276741
718.270	0.0282407
718.348	0.0284918
718.426	0.0287198
718.504	0.0286761
718.582	0.0282123
718.660	0.0276430
718.738	0.0266447
718.817	0.0257573
718.895	0.0247028
718.973	0.0235298
719.051	0.0222355
719.129	0.0210313
719.207	0.0198307
719.285	0.0189680
719.363	0.0182229
719.442	0.0173844
719.520	0.0166117
719.598	0.0162418
719.676	0.0158974
719.754	0.0158674
719.832	0.0158180
719.910	0.0158391
719.988	0.0161263
720.067	0.0163277
720.145	0.0166367
720.223	0.0169944
720.301	0.0174806
720.379	0.0178228
720.457	0.0182262
720.535	0.0185091
720.613	0.0187492
720.692	0.0186765
720.770	0.0185235
720.848	0.0185144
720.926	0.0181285
721.004	0.0174631
721.082	0.0169448
721.160	0.0161096
721.238	0.0152693
721.317	0.0141549
721.395	0.0130764
721.473	0.0120657
721.551	0.0109403
721.629	0.0101271
721.707	0.00920090
721.785	0.00865250
721.863	0.00806572
721.942	0.00774635
722.020	0.00772461
722.098	0.00786728
722.176	0.00830070
722.254	0.00895760
722.332	0.00972450
722.410	0.0104589
722.488	0.0115517
722.567	0.0127187
722.645	0.0137305
722.723	0.0148331
722.801	0.0159107
722.879	0.0168865
722.957	0.0176682
723.035	0.0184954
723.113	0.0192208
723.192	0.0198013
723.270	0.0203321
723.348	0.0209151
723.426	0.0213973
723.504	0.0219674
723.582	0.0225101
723.660	0.0230568
723.738	0.0234650
723.817	0.0238129
723.895	0.0243836
723.973	0.0247334
724.051	0.0249870
724.129	0.0252236
724.207	0.0253308
724.285	0.0252433
724.363	0.0253021
724.442	0.0249751
724.520	0.0247480
724.598	0.0240046
724.676	0.0235887
724.754	0.0230732
724.832	0.0223608
724.910	0.0219086
724.988	0.0211800
725.067	0.0208919
725.145	0.0203590
725.223	0.0200799
725.301	0.0198342
725.379	0.0196056
725.457	0.0194230
725.535	0.0194364
725.613	0.0192097
725.692	0.0192568
725.770	0.0192145
725.848	0.0190961
725.926	0.0190262
726.004	0.0188696
726.082	0.0186290
726.160	0.0183720
726.238	0.0182335
726.317	0.0180372
726.395	0.0177055
726.473	0.0175457
726.551	0.0173664
726.629	0.0170843
726.707	0.0169025
726.785	0.0163946
726.863	0.0160677
726.942	0.0159981
727.020	0.0156641
727.098	0.0151496
727.176	0.0146648
727.254	0.0143913
727.332	0.0137071
727.410	0.0132510
727.488	0.0127364
727.567	0.0121049
727.645	0.0115285
727.723	0.0110773
727.801	0.0107023
727.879	0.0103668
727.957	0.0103461
728.035	0.0102289
728.113	0.0102882
728.192	0.0105795
728.270	0.0109483
728.348	0.0114778
728.426	0.0119426
728.504	0.0125715
728.582	0.0133200
728.660	0.0140903
728.738	0.0146613
728.817	0.0154118
728.895	0.0159682
728.973	0.0166408
729.051	0.0173166
729.129	0.0177978
729.207	0.0183117
729.285	0.0189062
729.363	0.0193572
729.442	0.0197892
729.520	0.0204037
729.598	0.0210056
729.676	0.0214185
729.754	0.0219017
729.832	0.0223518
729.910	0.0227946
729.988	0.0232114
730.067	0.0234695
730.145	0.0235490
730.223	0.0238404
730.301	0.0237399
730.379	0.0236545
730.457	0.0235456
730.535	0.0232146
730.613	0.0228828
730.692	0.0226472
730.770	0.0224825
730.848	0.0221629
730.926	0.0216839
731.004	0.0215798
731.082	0.0211636
731.160	0.0208891
731.238	0.0208674
731.317	0.0204904
731.395	0.0204831
731.473	0.0202085
731.551	0.0202251
731.629	0.0201662
731.707	0.0201193
731.785	0.0201148
731.863	0.0201524
731.942	0.0199938
732.020	0.0197007
732.098	0.0197666
732.176	0.0194362
732.254	0.0191679
732.332	0.0188660
732.410	0.0185059
732.488	0.0179411
732.567	0.0175161
732.645	0.0172102
732.723	0.0166586
732.801	0.0163596
732.879	0.0160261
732.957	0.0156892
733.035	0.0152615
733.113	0.0148306
733.192	0.0144717
733.270	0.0143070
733.348	0.0140290
733.426	0.0137080
733.504	0.0136900
733.582	0.0134842
733.660	0.0132420
733.738	0.0129990
733.817	0.0130806
733.895	0.0131010
733.973	0.0132760
734.051	0.0133002
734.129	0.0135581
734.207	0.0136906
734.285	0.0141470
734.363	0.0144535
734.442	0.0147359
734.520	0.0150058
734.598	0.0153230
734.676	0.0156716
734.754	0.0157950
734.832	0.0158038
734.910	0.0158932
734.988	0.0159090
735.067	0.0158727
735.145	0.0159508
735.223	0.0159028
735.301	0.0160441
735.379	0.0162283
735.457	0.0163016
735.535	0.0165625
735.613	0.0169011
735.692	0.0171828
735.770	0.0176488
735.848	0.0181527
735.926	0.0186903
736.004	0.0192645
736.082	0.0197564
736.160	0.0204753
736.238	0.0208607
736.317	0.0213390
736.395	0.0217296
736.473	0.0220808
736.551	0.0222988
736.629	0.0224203
736.707	0.0226022
736.785	0.0225094
736.863	0.0223875
736.942	0.0222662
737.020	0.0218247
737.098	0.0217468
737.176	0.0215083
737.254	0.0211566
737.332	0.0209567
737.410	0.0208965
737.488	0.0208011
737.567	0.0204946
737.645	0.0204837
737.723	0.0201762
737.801	0.0202349
737.879	0.0200815
737.957	0.0199091
738.035	0.0197421
738.113	0.0196142
738.192	0.0194160
738.270	0.0193187
738.348	0.0190758
738.426	0.0189389
738.504	0.0186963
738.582	0.0183346
738.660	0.0180649
738.738	0.0178091
738.817	0.0174339
738.895	0.0172113
738.973	0.0168892
739.051	0.0166445
739.129	0.0163329
739.207	0.0160735
739.285	0.0159020
739.363	0.0159792
739.442	0.0157979
739.520	0.0158160
739.598	0.0158392
739.676	0.0158112
739.754	0.0156853
739.832	0.0158717
739.910	0.0160483
739.988	0.0160603
740.067	0.0161149
740.145	0.0160896
740.223	0.0161963
740.301	0.0162012
740.379	0.0161745
740.457	0.0160629
740.535	0.0158804
740.613	0.0158506
740.692	0.0155314
740.770	0.0154955
740.848	0.0153596
740.926	0.0151731
741.004	0.0150999
741.082	0.0150209
741.160	0.0150771
741.238	0.0150972
741.317	0.0152011
741.395	0.0151463
741.473	0.0154256
741.551	0.0156709
741.629	0.0159161
741.707	0.0162792
741.785	0.0164509
741.863	0.0167610
741.942	0.0171210
742.020	0.0174262
742.098	0.0177551
742.176	0.0181588
742.254	0.0183737
742.332	0.0185677
742.410	0.0187324
742.488	0.0188320
742.567	0.0190224
742.645	0.0192831
742.723	0.0193539
742.801	0.0194167
742.879	0.0195501
742.957	0.0196400
743.035	0.0197503
743.113	0.0198312
743.192	0.0201042
743.270	0.0200142
743.348	0.0200404
743.426	0.0201588
743.504	0.0202030
743.582	0.0201025
743.660	0.0201183
743.738	0.0202114
743.817	0.0201039
743.895	0.0199464
743.973	0.0198602
744.051	0.0199145
744.129	0.0199032
744.207	0.0197950
744.285	0.0197961
744.363	0.0197057
744.442	0.0195530
744.520	0.0194514
744.598	0.0194609
744.676	0.0193764
744.754	0.0191991
744.832	0.0188965
744.910	0.0186587
744.988	0.0184785
745.067	0.0183226
745.145	0.0180592
745.223	0.0179346
745.301	0.0175004
745.379	0.0172536
745.457	0.0171818
745.535	0.0169465
745.613	0.0169246
745.692	0.0170049
745.770	0.0169907
745.848	0.0170143
745.926	0.0170787
746.004	0.0171851
746.082	0.0174333
746.160	0.0175378
746.238	0.0175195
746.317	0.0177853
746.395	0.0179510
746.473	0.0177953
746.551	0.0178282
746.629	0.0176502
746.707	0.0176371
746.785	0.0175471
746.863	0.0172771
746.942	0.0170717
747.020	0.0168539
747.098	0.0167315
747.176	0.0164091
747.254	0.0163213
747.332	0.0159933
747.410	0.0158578
747.488	0.0157657
747.567	0.0156398
747.645	0.0155427
747.723	0.0157468
747.801	0.0156454
747.879	0.0154523
747.957	0.0157778
748.035	0.0157368
748.113	0.0159334
748.192	0.0161570
748.270	0.0162704
748.348	0.0166891
748.426	0.0168405
748.504	0.0170046
748.582	0.0171980
748.660	0.0173745
748.738	0.0176825
748.817	0.0179766
748.895	0.0180164
748.973	0.0180039
749.051	0.0179573
749.129	0.0181442
749.207	0.0180214
749.285	0.0178577
749.363	0.0180051
749.442	0.0178886
749.520	0.0178759
749.598	0.0178671
749.676	0.0180267
749.754	0.0179952
749.832	0.0179678
749.910	0.0181860
749.988	0.0183984
750.067	0.0184925
750.145	0.0185844
750.223	0.0188656
750.301	0.0190447
750.379	0.0192931
750.457	0.0194533
750.535	0.0195206
750.613	0.0198689
750.692	0.0198293
750.770	0.0198994
750.848	0.0198054
750.926	0.0198930
751.004	0.0197006
751.082	0.0195092
751.160	0.0192604
751.238	0.0191019
751.317	0.0187685
751.395	0.0184603
751.473	0.0184566
751.551	0.0183101
751.629	0.0182104
751.707	0.0179854
751.785	0.0177905
751.863	0.0177094
751.942	0.0177185
752.020	0.0177625
752.098	0.0179662
752.176	0.0178753
752.254	0.0178858
752.332	0.0179820
752.410	0.0182840
752.488	0.0181865
752.567	0.0183097
752.645	0.0183369
752.723	0.0183661
752.801	0.0186043
752.879	0.0185497
752.957	0.0183860
753.035	0.0184408
753.113	0.0183962
753.192	0.0180824
753.270	0.0178915
753.348	0.0177155
753.426	0.0175389
753.504	0.0174313
753.582	0.0171043
753.660	0.0169947
753.738	0.0167611
753.817	0.0166830
753.895	0.0165782
753.973	0.0166270
754.051	0.0165392
754.129	0.0165459
754.207	0.0165583
754.285	0.0166015
754.363	0.0167176
754.442	0.0168330
754.520	0.0168060
754.598	0.0170639
754.676	0.0170303
754.754	0.0173151
754.832	0.0174136
754.910	0.0174283
754.988	0.0174043
755.067	0.0176312
755.145	0.0175955
755.223	0.0175235
755.301	0.0175478
755.379	0.0174973
755.457	0.0174256
755.535	0.0173305
755.613	0.0171685
755.692	0.0171508
755.770	0.0170453
755.848	0.0169904
755.926	0.0169505
756.004	0.0169176
756.082	0.0170181
756.160	0.0170784
756.238	0.0169782
756.317	0.0172146
756.395	0.0172504
756.473	0.0174804
756.551	0.0176999
756.629	0.0178055
756.707	0.0179842
756.785	0.0180791
756.863	0.0182410
756.942	0.0183277
757.020	0.0184666
757.098	0.0182304
757.176	0.0183610
757.254	0.0183627
757.332	0.0182722
757.410	0.0182145
757.488	0.0181033
757.567	0.0180067
757.645	0.0181167
757.723	0.0180756
757.801	0.0180493
757.879	0.0180265
757.957	0.0179979
758.035	0.0180607
758.113	0.0180508
758.192	0.0181777
758.270	0.0183864
758.348	0.0185026
758.426	0.0188787
758.504	0.0190714
758.582	0.0189606
758.660	0.0193060
758.738	0.0194074
758.817	0.0194395
758.895	0.0196879
758.973	0.0196387
759.051	0.0195755
759.129	0.0194712
759.207	0.0193710
759.285	0.0194227
759.363	0.0190564
759.442	0.0189584
759.520	0.0186104
759.598	0.0183607
759.676	0.0182840
759.754	0.0178965
759.832	0.0177104
759.910	0.0175882
759.988	0.0174070
760.067	0.0171498
760.145	0.0169567
760.223	0.0169244
760.301	0.0168774
760.379	0.0169472
760.457	0.0170557
760.535	0.0170993
760.613	0.0170817
760.692	0.0173639
760.770	0.0175349
760.848	0.0175785
760.926	0.0177687
761.004	0.0180114
761.082	0.0182257
761.160	0.0181905
761.238	0.0183533
761.317	0.0184071
761.395	0.0182625
761.473	0.0184157
761.551	0.0183955
761.629	0.0182239
761.707	0.0178708
761.785	0.0176772
761.863	0.0175756
761.942	0.0174312
762.020	0.0173316
762.098	0.0172728
762.176	0.0167849
762.254	0.0167684
762.332	0.0169209
762.410	0.0166315
762.488	0.0164722
762.567	0.0164989
762.645	0.0165570
762.723	0.0163868
762.801	0.0164399
762.879	0.0167850
762.957	0.0167761
763.035	0.0168143
763.113	0.0170599
763.192	0.0171787
763.270	0.0174076
763.348	0.0174357
763.426	0.0175563
763.504	0.0176570
763.582	0.0177804
763.660	0.0178384
763.738	0.0178160
763.817	0.0176713
763.895	0.0178441
763.973	0.0176571
764.051	0.0176887
764.129	0.0175702
764.207	0.0175608
764.285	0.0174249
764.363	0.0175771
764.442	0.0176054
764.520	0.0176547
764.598	0.0177023
764.676	0.0178006
764.754	0.0178907
764.832	0.0178820
764.910	0.0181054
764.988	0.0182494
765.067	0.0183092
765.145	0.0183565
765.223	0.0184793
765.301	0.0186956
765.379	0.0188041
765.457	0.0187183
765.535	0.0188456
765.613	0.0187973
765.692	0.0187934
765.770	0.0187862
765.848	0.0187059
765.926	0.0186715
766.004	0.0185986
766.082	0.0183346
766.160	0.0182614
766.238	0.0183057
766.317	0.0181855
766.395	0.0181034
766.473	0.0181215
766.551	0.0180248
766.629	0.0182430
766.707	0.0182787
766.785	0.0182648
766.863	0.0184239
766.942	0.0184768
767.020	0.0186932
767.098	0.0187878
767.176	0.0188660
767.254	0.0188124
767.332	0.0190791
767.410	0.0188939
767.488	0.0188597
767.567	0.0187981
767.645	0.0188335
767.723	0.0186516
767.801	0.0186260
767.879	0.0182603
767.957	0.0181004
768.035	0.0179799
768.113	0.0178107
768.192	0.0174523
768.270	0.0174384
768.348	0.0172124
768.426	0.0171570
768.504	0.0171182
768.582	0.0168623
768.660	0.0168538
768.738	0.0169116
768.817	0.0169473
768.895	0.0171069
768.973	0.0171275
769.051	0.0171507
769.129	0.0171940
769.207	0.0173191
769.285	0.0174561
769.363	0.0175315
769.442	0.0175034
769.520	0.0175820
769.598	0.0176318
769.676	0.0176320
769.754	0.0175903
769.832	0.0173223
769.910	0.0172856
769.988	0.0171718
770.067	0.0171270
770.145	0.0169530
770.223	0.0168789
770.301	0.0168832
770.379	0.0166620
770.457	0.0165810
770.535	0.0167311
770.613	0.0166197
770.692	0.0166918
770.770	0.0167908
770.848	0.0170225
770.926	0.0170552
771.004	0.0171616
771.082	0.0171233
771.160	0.0174187
771.238	0.0178448
771.317	0.0177802
771.395	0.0178269
771.473	0.0178972
771.551	0.0183852
771.629	0.0181641
771.707	0.0182136
771.785	0.0182527
771.863	0.0184167
771.942	0.0182544
772.020	0.0181143
772.098	0.0180678
772.176	0.0179737
772.254	0.0178551
772.332	0.0177969
772.410	0.0177478
772.488	0.0178783
772.567	0.0177700
772.645	0.0176958
772.723	0.0177931
772.801	0.0178997
772.879	0.0179707
772.957	0.0180342
773.035	0.0180824
773.113	0.0183671
773.192	0.0185608
773.270	0.0185549
773.348	0.0186674
773.426	0.0189776
773.504	0.0188775
773.582	0.0190376
773.660	0.0189579
773.738	0.0189424
773.817	0.0189797
773.895	0.0190928
773.973	0.0191003
774.051	0.0190284
774.129	0.0190012
774.207	0.0190340
774.285	0.0190218
774.363	0.0188744
774.442	0.0187611
774.520	0.0187057
774.598	0.0185670
774.676	0.0185868
774.754	0.0184087
774.832	0.0182244
774.910	0.0181840
774.988	0.0179901
775.067	0.0179400
775.145	0.0178633
775.223	0.0178191
775.301	0.0176450
775.379	0.0175909
775.457	0.0176552
775.535	0.0176281
775.613	0.0175105
775.692	0.0174587
775.770	0.0173840
775.848	0.0172778
775.926	0.0171540
776.004	0.0171242
776.082	0.0172563
776.160	0.0171319
776.238	0.0171465
776.317	0.0172112
776.395	0.0171829
776.473	0.0174064
776.551	0.0173820
776.629	0.0173737
776.707	0.0174803
776.785	0.0175378
776.863	0.0176765
776.942	0.0177988
777.020	0.0178112
777.098	0.0177818
777.176	0.0177784
777.254	0.0178909
777.332	0.0177687
777.410	0.0177648
777.488	0.0177634
777.567	0.0176442
777.645	0.0174843
777.723	0.0174352
777.801	0.0174265
777.879	0.0174773
777.957	0.0172076
778.035	0.0172249
778.113	0.0171123
778.192	0.0170395
778.270	0.0169833
778.348	0.0170264
778.426	0.0169733
778.504	0.0167965
778.582	0.0168919
778.660	0.0169381
778.738	0.0167976
778.817	0.0171070
778.895	0.0170007
778.973	0.0171321
779.051	0.0173192
779.129	0.0174325
779.207	0.0176173
779.285	0.0178674
779.363	0.0179227
779.442	0.0179781
779.520	0.0181834
779.598	0.0184322
779.676	0.0185270
779.754	0.0185072
779.832	0.0187294
779.910	0.0187958
779.988	0.0189452
780.067	0.0190368
780.145	0.0190076
780.223	0.0189498
780.301	0.0190657
780.379	0.0189709
780.457	0.0188435
780.535	0.0189441
780.613	0.0188435
780.692	0.0188656
780.770	0.0187057
780.848	0.0185633
780.926	0.0184696
781.004	0.0183000
781.082	0.0184206
781.160	0.0182860
781.238	0.0182603
781.317	0.0182972
781.395	0.0181553
781.473	0.0182041
781.551	0.0181199
781.629	0.0180811
781.707	0.0182375
781.785	0.0181454
781.863	0.0181579
781.942	0.0182600
782.020	0.0180919
782.098	0.0179883
782.176	0.0180968
782.254	0.0181187
782.332	0.0181784
782.410	0.0182095
782.488	0.0180673
782.567	0.0181527
782.645	0.0180778
782.723	0.0182099
782.801	0.0180303
782.879	0.0181389
782.957	0.0181180
783.035	0.0181770
783.113	0.0181702
783.192	0.0181147
783.270	0.0179770
783.348	0.0181313
783.426	0.0180299
783.504	0.0178732
783.582	0.0179772
783.660	0.0179198
783.738	0.0178847
783.817	0.0178693
783.895	0.0176202
783.973	0.0175843
784.051	0.0175342
784.129	0.0174184
784.207	0.0171062
784.285	0.0171873
784.363	0.0168395
784.442	0.0166956
784.520	0.0166040
784.598	0.0165729
784.676	0.0162975
784.754	0.0163898
784.832	0.0163703
784.910	0.0163056
784.988	0.0164107
785.067	0.0164445
785.145	0.0166891
785.223	0.0169756
785.301	0.0169357
785.379	0.0173182
785.457	0.0175506
785.535	0.0176820
785.613	0.0180045
785.692	0.0179665
785.770	0.0181879
785.848	0.0184415
785.926	0.0185372
786.004	0.0186317
786.082	0.0188206
786.160	0.0185461
786.238	0.0185130
786.317	0.0185381
786.395	0.0185426
786.473	0.0183692
786.551	0.0183546
786.629	0.0181107
786.707	0.0181961
786.785	0.0180487
786.863	0.0177355
786.942	0.0176605
787.020	0.0175933
787.098	0.0175124
787.176	0.0175195
787.254	0.0174264
787.332	0.0175210
787.410	0.0174583
787.488	0.0175828
787.567	0.0176622
787.645	0.0177616
787.723	0.0177718
787.801	0.0179058
787.879	0.0182339
787.957	0.0183167
788.035	0.0184439
788.113	0.0185223
788.192	0.0186802
788.270	0.0189467
788.348	0.0189368
788.426	0.0189677
788.504	0.0190231
788.582	0.0190276
788.660	0.0190587
788.738	0.0190208
788.817	0.0191038
788.895	0.0188413
788.973	0.0187038
789.051	0.0186884
789.129	0.0184600
789.207	0.0184468
789.285	0.0182510
789.363	0.0181677
789.442	0.0180363
789.520	0.0179494
789.598	0.0179623
789.676	0.0178515
789.754	0.0177506
789.832	0.0177534
789.910	0.0175727
789.988	0.0175510
790.067	0.0175957
790.145	0.0175490
790.223	0.0174438
790.301	0.0174285
790.379	0.0174443
790.457	0.0175137
790.535	0.0176442
790.613	0.0175671
790.692	0.0175552
790.770	0.0176407
790.848	0.0177112
790.926	0.0176459
791.004	0.0177906
791.082	0.0175919
791.160	0.0178088
791.238	0.0176176
791.317	0.0177157
791.395	0.0177339
791.473	0.0176269
791.551	0.0176949
791.629	0.0177240
791.707	0.0176514
791.785	0.0176788
791.863	0.0176780
791.942	0.0178026
792.020	0.0176266
792.098	0.0175541
792.176	0.0175805
792.254	0.0174929
792.332	0.0175506
792.410	0.0176189
792.488	0.0175436
792.567	0.0173917
792.645	0.0173774
792.723	0.0172767
792.801	0.0171984
792.879	0.0170994
792.957	0.0170800
793.035	0.0169447
793.113	0.0170642
793.192	0.0171021
793.270	0.0170647
793.348	0.0173213
793.426	0.0172987
793.504	0.0172535
793.582	0.0173735
793.660	0.0174503
793.738	0.0177588
793.817	0.0179671
793.895	0.0180956
793.973	0.0183678
794.051	0.0183430
794.129	0.0184778
794.207	0.0185790
794.285	0.0186698
794.363	0.0188139
794.442	0.0188830
794.520	0.0190183
794.598	0.0188914
794.676	0.0188266
794.754	0.0187669
794.832	0.0186003
794.910	0.0185237
794.988	0.0183338
795.067	0.0183205
795.145	0.0181650
795.223	0.0181022
795.301	0.0178086
795.379	0.0176247
795.457	0.0174693
795.535	0.0175197
795.613	0.0175689
795.692	0.0175003
795.770	0.0174492
795.848	0.0172979
795.926	0.0171835
796.004	0.0172549
796.082	0.0172630
796.160	0.0172523
796.238	0.0174234
796.317	0.0174599
796.395	0.0174474
796.473	0.0175274
796.551	0.0178507
796.629	0.0178636
796.707	0.0179302
796.785	0.0180365
796.863	0.0180553
796.942	0.0182269
797.020	0.0183355
797.098	0.0184442
797.176	0.0185153
797.254	0.0186128
797.332	0.0185511
797.410	0.0187090
797.488	0.0187689
797.567	0.0186737
797.645	0.0187209
797.723	0.0186971
797.801	0.0185068
797.879	0.0184860
797.957	0.0184751
798.035	0.0182726
798.113	0.0183986
798.192	0.0182197
798.270	0.0181373
798.348	0.0179359
798.426	0.0180282
798.504	0.0179472
798.582	0.0178858
798.660	0.0177425
798.738	0.0178567
798.817	0.0177566
798.895	0.0175002
798.973	0.0174760
799.051	0.0176857
799.129	0.0176067
799.207	0.0176351
799.285	0.0174828
799.363	0.0175382
799.442	0.0175912
799.520	0.0176440
799.598	0.0177807
799.676	0.0177638
799.754	0.0177444
799.832	0.0177254
799.910	0.0178609
799.988	0.0177181
800.067	0.0177742
800.145	0.0178175
800.223	0.0177684
800.301	0.0176476
800.379	0.0175728
800.457	0.0174994
800.535	0.0174671
800.613	0.0173177
800.692	0.0172819
800.770	0.0172149
800.848	0.0171098
800.926	0.0170102
801.004	0.0168749
801.082	0.0168829
801.160	0.0168182
801.238	0.0168893
801.317	0.0167167
801.395	0.0167287
801.473	0.0167932
801.551	0.0165972
801.629	0.0166491
801.707	0.0167828
801.785	0.0168236
801.863	0.0167757
801.942	0.0169054
802.020	0.0171013
802.098	0.0171720
802.176	0.0173780
802.254	0.0175074
802.332	0.0177961
802.410	0.0179964
802.488	0.0181275
802.567	0.0182410
802.645	0.0185651
802.723	0.0188717
802.801	0.0189912
802.879	0.0193050
802.957	0.0193883
803.035	0.0193872
803.113	0.0194475
803.192	0.0196594
803.270	0.0196908
803.348	0.0196691
803.426	0.0195986
803.504	0.0195905
803.582	0.0196297
803.660	0.0195670
803.738	0.0193002
803.817	0.0190546
803.895	0.0190723
803.973	0.0187972
804.051	0.0186529
804.129	0.0186196
804.207	0.0184448
804.285	0.0182867
804.363	0.0181078
804.442	0.0180560
804.520	0.0180186
804.598	0.0179723
804.676	0.0180602
804.754	0.0177935
804.832	0.0178209
804.910	0.0179465
804.988	0.0181123
805.067	0.0180053
805.145	0.0180130
805.223	0.0179073
805.301	0.0181229
805.379	0.0180155
805.457	0.0180584
805.535	0.0179250
805.613	0.0179778
805.692	0.0178777
805.770	0.0177313
805.848	0.0176739
805.926	0.0176173
806.004	0.0175754
806.082	0.0174660
806.160	0.0172749
806.238	0.0172458
806.317	0.0170649
806.395	0.0168699
806.473	0.0169096
806.551	0.0168244
806.629	0.0166019
806.707	0.0165363
806.785	0.0165968
806.863	0.0165054
806.942	0.0163150
807.020	0.0162951
807.098	0.0164067
807.176	0.0163284
807.254	0.0163481
807.332	0.0165002
807.410	0.0164350
807.488	0.0164832
807.567	0.0167123
807.645	0.0168565
807.723	0.0169619
807.801	0.0172172
807.879	0.0173671
807.957	0.0174188
808.035	0.0177399
808.113	0.0178387
808.192	0.0181970
808.270	0.0184046
808.348	0.0185428
808.426	0.0188346
808.504	0.0188146
808.582	0.0189923
808.660	0.0192781
808.738	0.0192591
808.817	0.0195200
808.895	0.0195485
808.973	0.0195908
809.051	0.0195424
809.129	0.0194257
809.207	0.0196371
809.285	0.0194563
809.363	0.0191618
809.442	0.0190788
809.520	0.0190762
809.598	0.0188074
809.676	0.0187500
809.754	0.0183143
809.832	0.0182612
809.910	0.0181760
809.988	0.0180451
810.067	0.0178519
810.145	0.0176681
810.223	0.0175417
810.301	0.0174269
810.379	0.0174226
810.457	0.0173516
810.535	0.0174505
810.613	0.0174861
810.692	0.0173112
810.770	0.0174525
810.848	0.0175225
810.926	0.0173900
811.004	0.0175703
811.082	0.0177933
811.160	0.0178453
811.238	0.0176067
811.317	0.0177693
811.395	0.0178483
811.473	0.0177731
811.551	0.0178113
811.629	0.0178059
811.707	0.0178309
811.785	0.0176526
811.863	0.0176255
811.942	0.0175909
812.020	0.0175565
812.098	0.0174092
812.176	0.0173918
812.254	0.0174181
812.332	0.0173711
812.410	0.0171799
812.488	0.0172290
812.567	0.0170949
812.645	0.0169145
812.723	0.0169906
812.801	0.0170348
812.879	0.0170620
812.957	0.0169677
813.035	0.0170815
813.113	0.0170737
813.192	0.0173362
813.270	0.0172990
813.348	0.0174762
813.426	0.0176015
813.504	0.0176315
813.582	0.0177640
813.660	0.0178387
813.738	0.0179917
813.817	0.0182048
813.895	0.0183509
813.973	0.0186373
814.051	0.0186221
814.129	0.0187751
814.207	0.0187891
814.285	0.0189317
814.363	0.0190437
814.442	0.0190808
814.520	0.0191526
814.598	0.0191351
814.676	0.0191039
814.754	0.0190483
814.832	0.0190080
814.910	0.0188785
814.988	0.0188342
815.067	0.0187748
815.145	0.0184645
815.223	0.0185284
815.301	0.0184413
815.379	0.0182272
815.457	0.0181647
815.535	0.0180157
815.613	0.0179924
815.692	0.0179133
815.770	0.0177870
815.848	0.0177214
815.926	0.0177237
816.004	0.0176529
816.082	0.0176977
816.160	0.0176183
816.238	0.0174905
816.317	0.0175668
816.395	0.0176576
816.473	0.0176546
816.551	0.0175108
816.629	0.0175812
816.707	0.0173901
816.785	0.0175848
816.863	0.0174205
816.942	0.0172884
817.020	0.0174511
817.098	0.0172504
817.176	0.0173119
817.254	0.0172338
817.332	0.0171017
817.410	0.0170071
817.488	0.0168217
817.567	0.0167993
817.645	0.0167867
817.723	0.0168359
817.801	0.0166624
817.879	0.0166617
817.957	0.0165687
818.035	0.0165571
818.113	0.0165205
818.192	0.0167712
818.270	0.0167817
818.348	0.0166389
818.426	0.0166434
818.504	0.0167464
818.582	0.0168920
818.660	0.0170325
818.738	0.0170753
818.817	0.0172371
818.895	0.0173897
818.973	0.0173908
819.051	0.0176316
819.129	0.0178262
819.207	0.0180731
819.285	0.0183038
819.363	0.0183697
819.442	0.0186246
819.520	0.0187933
819.598	0.0187834
819.676	0.0189889
819.754	0.0191303
819.832	0.0191586
819.910	0.0194344
819.988	0.0193707
820.067	0.0193891
820.145	0.0194611
820.223	0.0194736
820.301	0.0192873
820.379	0.0193804
820.457	0.0194082
820.535	0.0193378
820.613	0.0193560
820.692	0.0191071
820.770	0.0189963
820.848	0.0189931
820.926	0.0188609
821.004	0.0188044
821.082	0.0188157
821.160	0.0185851
821.238	0.0186346
821.317	0.0184908
821.395	0.0182720
821.473	0.0182277
821.551	0.0181378
821.629	0.0180991
821.707	0.0182278
821.785	0.0177888
821.863	0.0178889
821.942	0.0177143
822.020	0.0176250
822.098	0.0176431
822.176	0.0176291
822.254	0.0174729
822.332	0.0174935
822.410	0.0172445
822.488	0.0173824
822.567	0.0172964
822.645	0.0172104
822.723	0.0171928
822.801	0.0170204
822.879	0.0171506
822.957	0.0172083
823.035	0.0169868
823.113	0.0171065
823.192	0.0169577
823.270	0.0170887
823.348	0.0170793
823.426	0.0170512
823.504	0.0171909
823.582	0.0171332
823.660	0.0169685
823.738	0.0171513
823.817	0.0169549
823.895	0.0170007
823.973	0.0169502
824.051	0.0168463
824.129	0.0169799
824.207	0.0168742
824.285	0.0169776
824.363	0.0168346
824.442	0.0169277
824.520	0.0170212
824.598	0.0168610
824.676	0.0168996
824.754	0.0169225
824.832	0.0171837
824.910	0.0173050
824.988	0.0174259
825.067	0.0173277
825.145	0.0175203
825.223	0.0176810
825.301	0.0177233
825.379	0.0180338
825.457	0.0180154
825.535	0.0181822
825.613	0.0182732
825.692	0.0183319
825.770	0.0185469
825.848	0.0186288
825.926	0.0185530
826.004	0.0187048
826.082	0.0186633
826.160	0.0187683
826.238	0.0189274
826.317	0.0188088
826.395	0.0187273
826.473	0.0189079
826.551	0.0188917
826.629	0.0190402
826.707	0.0189532
826.785	0.0189667
826.863	0.0188569
826.942	0.0189649
827.020	0.0190821
827.098	0.0189208
827.176	0.0189195
827.254	0.0188924
827.332	0.0188192
827.410	0.0187415
827.488	0.0186410
827.567	0.0188218
827.645	0.0186095
827.723	0.0185337
827.801	0.0185316
827.879	0.0184897
827.957	0.0182977
828.035	0.0182877
828.113	0.0183107
828.192	0.0181976
828.270	0.0181313
828.348	0.0179626
828.426	0.0179858
828.504	0.0179223
828.582	0.0178525
828.660	0.0178215
828.738	0.0177719
828.817	0.0176691
828.895	0.0175446
828.973	0.0175226
829.051	0.0175490
829.129	0.0175379
829.207	0.0173853
829.285	0.0172890
829.363	0.0171752
829.442	0.0172308
829.520	0.0172564
829.598	0.0172424
829.676	0.0170902
829.754	0.0172157
829.832	0.0171045
829.910	0.0171799
829.988	0.0170943
830.067	0.0169250
830.145	0.0169363
830.223	0.0169848
830.301	0.0169342
830.379	0.0169340
830.457	0.0170431
830.535	0.0170463
830.613	0.0170818
830.692	0.0171018
830.770	0.0171516
830.848	0.0170435
830.926	0.0171452
831.004	0.0173485
831.082	0.0172764
831.160	0.0173174
831.238	0.0174427
831.317	0.0174830
831.395	0.0175090
831.473	0.0176170
831.551	0.0175707
831.629	0.0177011
831.707	0.0177772
831.785	0.0178594
831.863	0.0178587
831.942	0.0179230
832.020	0.0180177
832.098	0.0180527
832.176	0.0181275
832.254	0.0181967
832.332	0.0183228
832.410	0.0182129
832.488	0.0184634
832.567	0.0184893
832.645	0.0183884
832.723	0.0184789
832.801	0.0184660
832.879	0.0183630
832.957	0.0183887
833.035	0.0184628
833.113	0.0184361
833.192	0.0183271
833.270	0.0182354
833.348	0.0182565
833.426	0.0181809
833.504	0.0181729
833.582	0.0181914
833.660	0.0179768
833.738	0.0179887
833.817	0.0180427
833.895	0.0179111
833.973	0.0180038
834.051	0.0180084
834.129	0.0180328
834.207	0.0181033
834.285	0.0180842
834.363	0.0181136
834.442	0.0182915
834.520	0.0182663
834.598	0.0183044
834.676	0.0184184
834.754	0.0184299
834.832	0.0185115
834.910	0.0185010
834.988	0.0185225
835.067	0.0184113
835.145	0.0184884
835.223	0.0185403
835.301	0.0184441
835.379	0.0183160
835.457	0.0180853
835.535	0.0181589
835.613	0.0180092
835.692	0.0179012
835.770	0.0179315
835.848	0.0177657
835.926	0.0176738
836.004	0.0175399
836.082	0.0174709
836.160	0.0176492
836.238	0.0172500
836.317	0.0173083
836.395	0.0172256
836.473	0.0173657
836.551	0.0172786
836.629	0.0172589
836.707	0.0172285
836.785	0.0173694
836.863	0.0173546
836.942	0.0173991
837.020	0.0172372
837.098	0.0172835
837.176	0.0173153
837.254	0.0172633
837.332	0.0172730
837.410	0.0173723
837.488	0.0172575
837.567	0.0172417
837.645	0.0171392
837.723	0.0173715
837.801	0.0172621
837.879	0.0173129
837.957	0.0173730
838.035	0.0173831
838.113	0.0172354
838.192	0.0172955
838.270	0.0173692
838.348	0.0175818
838.426	0.0175200
838.504	0.0176148
838.582	0.0177713
838.660	0.0178371
838.738	0.0178011
838.817	0.0179792
838.895	0.0179523
838.973	0.0179806
839.051	0.0180602
839.129	0.0180225
839.207	0.0182192
839.285	0.0181481
839.363	0.0182475
839.442	0.0181982
839.520	0.0181914
839.598	0.0181159
839.676	0.0180703
839.754	0.0180294
839.832	0.0181446
839.910	0.0182206
839.988	0.0180067
840.067	0.0180157
840.145	0.0179729
840.223	0.0181883
840.301	0.0181369
840.379	0.0180847
840.457	0.0181343
840.535	0.0180996
840.613	0.0182040
840.692	0.0183100
840.770	0.0183456
840.848	0.0185052
840.926	0.0184528
841.004	0.0183934
841.082	0.0184963
841.160	0.0184238
841.238	0.0184053
841.317	0.0183949
841.395	0.0184302
841.473	0.0183234
841.551	0.0182163
841.629	0.0181955
841.707	0.0181243
841.785	0.0179364
841.863	0.0179430
841.942	0.0177191
842.020	0.0177061
842.098	0.0175079
842.176	0.0176785
842.254	0.0174210
842.332	0.0173297
842.410	0.0174081
842.488	0.0173770
842.567	0.0171947
842.645	0.0172820
842.723	0.0176223
842.801	0.0174883
842.879	0.0174599
842.957	0.0175032
843.035	0.0176226
843.113	0.0175874
843.192	0.0176271
843.270	0.0177816
843.348	0.0178172
843.426	0.0177229
843.504	0.0177916
843.582	0.0178452
843.660	0.0178080
843.738	0.0178658
843.817	0.0178807
843.895	0.0178642
843.973	0.0178863
844.051	0.0179913
844.129	0.0179218
844.207	0.0178575
844.285	0.0177472
844.363	0.0178201
844.442	0.0178118
844.520	0.0177882
844.598	0.0178851
844.676	0.0177573
844.754	0.0178151
844.832	0.0177277
844.910	0.0176979
844.988	0.0177700
845.067	0.0176314
845.145	0.0176904
845.223	0.0177187
845.301	0.0176497
845.379	0.0176796
845.457	0.0175863
845.535	0.0176849
845.613	0.0177090
845.692	0.0176961
845.770	0.0177471
845.848	0.0177171
845.926	0.0177059
846.004	0.0178786
846.082	0.0179889
846.160	0.0178805
846.238	0.0179659
846.317	0.0179186
846.395	0.0180105
846.473	0.0179453
846.551	0.0179488
846.629	0.0180414
846.707	0.0182554
846.785	0.0180775
846.863	0.0182323
846.942	0.0181244
847.020	0.0181744
847.098	0.0182683
847.176	0.0181851
847.254	0.0181986
847.332	0.0180196
847.410	0.0180285
847.488	0.0179036
847.567	0.0179665
847.645	0.0180291
847.723	0.0178036
847.801	0.0177934
847.879	0.0176025
847.957	0.0177376
848.035	0.0178048
848.113	0.0176671
848.192	0.0176595
848.270	0.0175143
848.348	0.0175043
848.426	0.0174284
848.504	0.0173973
848.582	0.0175510
848.660	0.0174578
848.738	0.0174631
848.817	0.0176079
848.895	0.0176501
848.973	0.0175163
849.051	0.0176210
849.129	0.0176872
849.207	0.0177130
849.285	0.0178187
849.363	0.0177455
849.442	0.0179768
849.520	0.0179963
849.598	0.0181542
849.676	0.0181101
849.754	0.0182512
849.832	0.0183083
849.910	0.0183183
849.988	0.0182986
850.067	0.0183145
850.145	0.0183464
850.223	0.0181477
850.301	0.0183071
850.379	0.0181848
850.457	0.0180943
850.535	0.0179458
850.613	0.0179791
850.692	0.0179726
850.770	0.0180953
850.848	0.0177190
850.926	0.0176779
851.004	0.0179079
851.082	0.0177720
851.160	0.0179086
851.238	0.0178960
851.317	0.0177092
851.395	0.0179168
851.473	0.0179567
851.551	0.0177737
851.629	0.0178841
851.707	0.0179717
851.785	0.0180166
851.863	0.0181656
851.942	0.0179150
852.020	0.0180240
852.098	0.0179943
852.176	0.0180097
852.254	0.0179554
852.332	0.0180628
852.410	0.0179749
852.488	0.0179775
852.567	0.0180081
852.645	0.0178941
852.723	0.0178698
852.801	0.0177361
852.879	0.0177448
852.957	0.0176814
853.035	0.0176554
853.113	0.0176730
853.192	0.0176278
853.270	0.0175613
853.348	0.0175661
853.426	0.0173345
853.504	0.0173520
853.582	0.0173875
853.660	0.0173788
853.738	0.0173787
853.817	0.0173801
853.895	0.0174168
853.973	0.0173911
854.051	0.0174674
854.129	0.0173492
854.207	0.0174528
854.285	0.0174599
854.363	0.0175446
854.442	0.0175844
854.520	0.0176746
854.598	0.0177258
854.676	0.0177115
854.754	0.0177873
854.832	0.0178540
854.910	0.0178104
854.988	0.0180132
855.067	0.0179898
855.145	0.0179961
855.223	0.0180579
855.301	0.0181430
855.379	0.0181081
855.457	0.0182803
855.535	0.0182716
855.613	0.0183058
855.692	0.0182903
855.770	0.0183228
855.848	0.0185012
855.926	0.0183596
856.004	0.0183526
856.082	0.0182396
856.160	0.0181697
856.238	0.0183824
856.317	0.0182022
856.395	0.0182241
856.473	0.0182343
856.551	0.0182439
856.629	0.0182211
856.707	0.0180977
856.785	0.0179147
856.863	0.0180003
856.942	0.0179076
857.020	0.0179510
857.098	0.0179552
857.176	0.0179388
857.254	0.0179202
857.332	0.0178722
857.410	0.0179819
857.488	0.0179565
857.567	0.0178917
857.645	0.0178617
857.723	0.0178377
857.801	0.0179389
857.879	0.0178979
857.957	0.0179958
858.035	0.0179445
858.113	0.0179819
858.192	0.0180278
858.270	0.0180041
858.348	0.0178257
858.426	0.0179992
858.504	0.0179582
858.582	0.0178051
858.660	0.0179039
858.738	0.0179077
858.817	0.0177689
858.895	0.0176426
858.973	0.0176391
859.051	0.0174789
859.129	0.0175594
859.207	0.0175247
859.285	0.0173743
859.363	0.0172989
859.442	0.0173327
859.520	0.0172952
859.598	0.0173441
859.676	0.0173323
859.754	0.0173718
859.832	0.0173014
859.910	0.0172804
859.988	0.0173637
860.067	0.0172900
860.145	0.0172948
860.223	0.0173951
860.301	0.0176743
860.379	0.0175636
860.457	0.0176021
860.535	0.0176830
860.613	0.0177895
860.692	0.0177132
860.770	0.0178262
860.848	0.0178880
860.926	0.0178334
861.004	0.0180154
861.082	0.0180214
861.160	0.0178854
861.238	0.0182749
861.317	0.0181374
861.395	0.0180500
861.473	0.0181753
861.551	0.0181316
861.629	0.0181108
861.707	0.0181429
861.785	0.0183405
861.863	0.0182698
861.942	0.0181955
862.020	0.0182117
862.098	0.0181580
862.176	0.0181528
862.254	0.0180856
862.332	0.0182657
862.410	0.0183239
862.488	0.0181841
862.567	0.0182468
862.645	0.0183294
862.723	0.0181519
862.801	0.0182055
862.879	0.0181712
862.957	0.0182323
863.035	0.0181547
863.113	0.0182407
863.192	0.0180341
863.270	0.0181165
863.348	0.0180153
863.426	0.0180657
863.504	0.0181094
863.582	0.0180041
863.660	0.0179333
863.738	0.0178454
863.817	0.0178986
863.895	0.0177538
863.973	0.0177032
864.051	0.0177545
864.129	0.0175537
864.207	0.0176189
864.285	0.0175852
864.363	0.0176472
864.442	0.0175125
864.520	0.0172746
864.598	0.0173583
864.676	0.0174703
864.754	0.0173767
864.832	0.0175068
864.910	0.0174407
864.988	0.0174306
865.067	0.0174332
865.145	0.0175069
865.223	0.0174693
865.301	0.0174773
865.379	0.0174030
865.457	0.0175533
865.535	0.0176198
865.613	0.0175748
865.692	0.0175261
865.770	0.0176425
865.848	0.0174635
865.926	0.0174940
866.004	0.0174949
866.082	0.0176167
866.160	0.0176409
866.238	0.0175185
866.317	0.0176499
866.395	0.0176784
866.473	0.0175987
866.551	0.0175370
866.629	0.0176376
866.707	0.0179137
866.785	0.0176388
866.863	0.0177589
866.942	0.0178749
867.020	0.0178562
867.098	0.0179212
867.176	0.0178849
867.254	0.0180286
867.332	0.0179135
867.410	0.0180004
867.488	0.0182286
867.567	0.0181115
867.645	0.0181525
867.723	0.0181301
867.801	0.0181334
867.879	0.0181994
867.957	0.0181677
868.035	0.0182263
868.113	0.0181647
868.192	0.0181493
868.270	0.0181808
868.348	0.0180779
868.426	0.0180489
868.504	0.0182310
868.582	0.0181164
868.660	0.0181648
868.738	0.0181544
868.817	0.0180764
868.895	0.0180695
868.973	0.0181598
869.051	0.0182627
869.129	0.0183867
869.207	0.0182442
869.285	0.0181227
869.363	0.0182323
869.442	0.0182266
869.520	0.0181944
869.598	0.0181095
869.676	0.0180704
869.754	0.0180153
869.832	0.0179345
869.910	0.0178798
869.988	0.0178030
870.067	0.0177781
870.145	0.0177053
870.223	0.0176126
870.301	0.0176153
870.379	0.0175713
870.457	0.0176362
870.535	0.0175716
870.613	0.0174760
870.692	0.0174966
870.770	0.0175578
870.848	0.0175359
870.926	0.0175314
871.004	0.0173671
871.082	0.0173127
871.160	0.0174660
871.238	0.0173887
871.317	0.0173181
871.395	0.0174316
871.473	0.0176261
871.551	0.0174253
871.629	0.0174329
871.707	0.0174606
871.785	0.0174676
871.863	0.0175256
871.942	0.0176707
872.020	0.0174571
872.098	0.0177548
872.176	0.0176553
872.254	0.0177180
872.332	0.0176961
872.410	0.0177005
872.488	0.0176977
872.567	0.0178199
872.645	0.0178654
872.723	0.0178168
872.801	0.0179201
872.879	0.0178716
872.957	0.0179153
873.035	0.0180485
873.113	0.0180054
873.192	0.0181147
873.270	0.0181066
873.348	0.0181255
873.426	0.0181258
873.504	0.0181138
873.582	0.0180939
873.660	0.0181258
873.738	0.0181185
873.817	0.0180866
873.895	0.0179872
873.973	0.0180334
874.051	0.0179681
874.129	0.0179520
874.207	0.0180365
874.285	0.0179565
874.363	0.0180073
874.442	0.0179855
874.520	0.0179514
874.598	0.0179793
874.676	0.0180301
874.754	0.0179469
874.832	0.0179033
874.910	0.0179847
874.988	0.0179299
875.067	0.0179563
875.145	0.0181192
875.223	0.0179520
875.301	0.0179576
875.379	0.0180698
875.457	0.0180002
875.535	0.0180186
875.613	0.0180084
875.692	0.0180054
875.770	0.0178175
875.848	0.0179395
875.926	0.0178370
876.004	0.0178273
876.082	0.0180211
876.160	0.0178131
876.238	0.0178448
876.317	0.0178368
876.395	0.0177901
876.473	0.0177024
876.551	0.0177719
876.629	0.0177078
876.707	0.0177148
876.785	0.0177410
876.863	0.0176508
876.942	0.0175388
877.020	0.0175944
877.098	0.0175933
877.176	0.0175237
877.254	0.0175655
877.332	0.0174867
877.410	0.0175018
877.488	0.0176063
877.567	0.0175571
877.645	0.0176179
877.723	0.0175903
877.801	0.0177326
877.879	0.0177412
877.957	0.0177545
878.035	0.0178292
878.113	0.0179573
878.192	0.0178680
878.270	0.0179163
878.348	0.0178841
878.426	0.0179655
878.504	0.0179214
878.582	0.0180522
878.660	0.0180161
878.738	0.0179270
878.817	0.0180193
878.895	0.0179808
878.973	0.0179569
879.051	0.0180632
879.129	0.0180222
879.207	0.0179717
879.285	0.0179617
879.363	0.0181197
879.442	0.0179935
879.520	0.0180254
879.598	0.0179380
879.676	0.0178913
879.754	0.0180278
879.832	0.0179514
879.910	0.0179545
879.988	0.0179292
880.067	0.0179597
880.145	0.0179086
880.223	0.0179659
880.301	0.0179512
880.379	0.0179510
880.457	0.0179252
880.535	0.0180328
880.613	0.0178598
880.692	0.0179302
880.770	0.0179091
880.848	0.0178769
880.926	0.0178076
881.004	0.0179643
881.082	0.0180116
881.160	0.0180058
881.238	0.0179156
881.317	0.0180291
881.395	0.0179216
881.473	0.0180044
881.551	0.0179498
881.629	0.0178702
881.707	0.0178999
881.785	0.0178423
881.863	0.0178905
881.942	0.0177448
882.020	0.0178280
882.098	0.0178570
882.176	0.0177020
882.254	0.0177654
882.332	0.0176392
882.410	0.0177093
882.488	0.0176818
882.567	0.0177103
882.645	0.0177525
882.723	0.0178346
882.801	0.0177234
882.879	0.0176992
882.957	0.0176981
883.035	0.0177327
883.113	0.0177040
883.192	0.0176360
883.270	0.0176537
883.348	0.0175491
883.426	0.0176971
883.504	0.0176215
883.582	0.0177833
883.660	0.0177164
883.738	0.0176771
883.817	0.0177743
883.895	0.0177415
883.973	0.0177675
884.051	0.0178059
884.129	0.0178712
884.207	0.0179801
884.285	0.0179335
884.363	0.0179231
884.442	0.0179329
884.520	0.0179995
884.598	0.0179289
884.676	0.0181170
884.754	0.0179982
884.832	0.0179488
884.910	0.0180424
884.988	0.0179399
885.067	0.0178579
885.145	0.0179934
885.223	0.0179920
885.301	0.0180277
885.379	0.0180909
885.457	0.0180157
885.535	0.0181783
885.613	0.0181555
885.692	0.0181561
885.770	0.0180296
885.848	0.0181598
885.926	0.0181310
886.004	0.0183107
886.082	0.0181843
886.160	0.0180251
886.238	0.0180963
886.317	0.0181937
886.395	0.0180558
886.473	0.0180333
886.551	0.0180447
886.629	0.0179578
886.707	0.0179579
886.785	0.0178181
886.863	0.0177620
886.942	0.0176122
887.020	0.0178507
887.098	0.0178960
887.176	0.0176525
887.254	0.0176550
887.332	0.0175160
887.410	0.0176414
887.488	0.0176186
887.567	0.0175494
887.645	0.0176971
887.723	0.0176807
887.801	0.0176865
887.879	0.0178315
887.957	0.0178089
888.035	0.0177583
888.113	0.0178563
888.192	0.0178976
888.270	0.0179191
888.348	0.0179682
888.426	0.0180946
888.504	0.0182076
888.582	0.0179355
888.660	0.0179487
888.738	0.0180737
888.817	0.0180479
888.895	0.0179460
888.973	0.0180753
889.051	0.0178693
889.129	0.0179180
889.207	0.0178793
889.285	0.0178918
889.363	0.0179880
889.442	0.0179405
889.520	0.0177810
889.598	0.0178242
889.676	0.0177708
889.754	0.0176689
889.832	0.0176066
889.910	0.0177182
889.988	0.0176126
890.067	0.0176019
890.145	0.0176077
890.223	0.0176084
890.301	0.0175426
890.379	0.0176099
890.457	0.0174856
890.535	0.0176898
890.613	0.0175328
890.692	0.0176527
890.770	0.0176627
890.848	0.0177001
890.926	0.0176881
891.004	0.0177994
891.082	0.0178416
891.160	0.0177229
891.238	0.0178084
891.317	0.0179205
891.395	0.0178973
891.473	0.0179715
891.551	0.0179128
891.629	0.0181312
891.707	0.0179212
891.785	0.0181485
891.863	0.0180653
891.942	0.0181219
892.020	0.0180334
892.098	0.0181544
892.176	0.0180196
892.254	0.0181575
892.332	0.0182243
892.410	0.0180074
892.488	0.0179966
892.567	0.0181280
892.645	0.0181009
892.723	0.0179814
892.801	0.0180212
892.879	0.0179897
892.957	0.0177695
893.035	0.0179038
893.113	0.0178898
893.192	0.0177827
893.270	0.0178505
893.348	0.0178316
893.426	0.0178780
893.504	0.0179357
893.582	0.0179093
893.660	0.0178652
893.738	0.0179905
893.817	0.0180553
893.895	0.0179792
893.973	0.0180663
894.051	0.0181013
894.129	0.0181421
894.207	0.0181360
894.285	0.0181434
894.363	0.0182140
894.442	0.0181879
894.520	0.0180834
894.598	0.0182868
894.676	0.0182005
894.754	0.0182806
894.832	0.0181232
894.910	0.0181704
894.988	0.0179268
895.067	0.0180411
895.145	0.0178917
895.223	0.0178339
895.301	0.0178828
895.379	0.0176631
895.457	0.0178130
895.535	0.0176083
895.613	0.0176489
895.692	0.0175271
895.770	0.0175798
895.848	0.0174722
895.926	0.0174622
896.004	0.0172720
896.082	0.0173217
896.160	0.0173808
896.238	0.0172701
896.317	0.0173769
896.395	0.0174139
896.473	0.0174244
896.551	0.0173528
896.629	0.0174085
896.707	0.0173409
896.785	0.0174909
896.863	0.0176472
896.942	0.0176326
897.020	0.0175505
897.098	0.0176811
897.176	0.0177604
897.254	0.0177947
897.332	0.0178191
897.410	0.0178667
897.488	0.0181052
897.567	0.0181413
897.645	0.0181843
897.723	0.0181060
897.801	0.0181404
897.879	0.0181494
897.957	0.0181033
898.035	0.0181554
898.113	0.0180889
898.192	0.0181992
898.270	0.0182175
898.348	0.0180163
898.426	0.0180519
898.504	0.0179119
898.582	0.0179609
898.660	0.0179031
898.738	0.0179018
898.817	0.0177014
898.895	0.0176761
898.973	0.0175939
899.051	0.0175962
899.129	0.0174403
899.207	0.0175694
899.285	0.0174718
899.363	0.0175542
899.442	0.0175167
899.520	0.0175038
899.598	0.0176575
899.676	0.0177038
899.754	0.0179197
899.832	0.0179663
899.910	0.0181930
899.988	0.0180930
900.067	0.0183139
900.145	0.0185349
900.223	0.0185465
900.301	0.0184223
900.379	0.0186249
900.457	0.0185698
900.535	0.0186924
900.613	0.0185706
900.692	0.0186552
900.770	0.0184862
900.848	0.0185920
900.926	0.0183069
901.004	0.0181395
901.082	0.0182628
901.160	0.0180722
901.238	0.0179169
901.317	0.0179437
901.395	0.0177763
901.473	0.0176615
901.551	0.0176965
901.629	0.0175966
901.707	0.0174392
901.785	0.0173187
901.863	0.0173529
901.942	0.0172836
902.020	0.0172549
902.098	0.0171175
902.176	0.0171571
902.254	0.0173080
902.332	0.0173680
902.410	0.0173505
902.488	0.0173438
902.567	0.0174960
902.645	0.0176077
902.723	0.0176331
902.801	0.0176970
902.879	0.0176199
902.957	0.0177444
903.035	0.0178754
903.113	0.0179606
903.192	0.0180303
903.270	0.0179577
903.348	0.0182194
903.426	0.0182205
903.504	0.0183385
903.582	0.0183032
903.660	0.0184741
903.738	0.0184525
903.817	0.0185378
903.895	0.0185147
903.973	0.0183673
904.051	0.0184129
904.129	0.0184853
904.207	0.0183134
904.285	0.0181947
904.363	0.0181883
904.442	0.0179070
904.520	0.0177470
904.598	0.0177634
904.676	0.0176669
904.754	0.0174624
904.832	0.0172875
904.910	0.0172157
904.988	0.0169646
905.067	0.0170318
905.145	0.0169669
905.223	0.0170122
905.301	0.0168592
905.379	0.0170132
905.457	0.0171575
905.535	0.0172984
905.613	0.0173265
905.692	0.0174602
905.770	0.0175577
905.848	0.0179067
905.926	0.0179234
906.004	0.0181449
906.082	0.0182368
906.160	0.0183278
906.238	0.0184333
906.317	0.0185972
906.395	0.0187842
906.473	0.0186572
906.551	0.0186301
906.629	0.0185915
906.707	0.0185503
906.785	0.0185928
906.863	0.0184526
906.942	0.0183823
907.020	0.0183112
907.098	0.0180949
907.176	0.0180443
907.254	0.0179590
907.332	0.0176955
907.410	0.0176723
907.488	0.0175024
907.567	0.0175553
907.645	0.0176268
907.723	0.0173955
907.801	0.0174554
907.879	0.0176435
907.957	0.0173846
908.035	0.0175523
908.113	0.0175531
908.192	0.0175536
908.270	0.0177514
908.348	0.0177342
908.426	0.0177242
908.504	0.0178664
908.582	0.0179055
908.660	0.0180263
908.738	0.0181515
908.817	0.0180519
908.895	0.0179112
908.973	0.0180410
909.051	0.0180695
909.129	0.0179695
909.207	0.0178880
909.285	0.0180383
909.363	0.0179307
909.442	0.0178561
909.520	0.0178350
909.598	0.0179250
909.676	0.0180010
909.754	0.0179588
909.832	0.0180486
909.910	0.0180717
909.988	0.0180818
910.067	0.0180832
910.145	0.0182088
910.223	0.0181255
910.301	0.0181302
910.379	0.0181392
910.457	0.0179725
910.535	0.0179331
910.613	0.0178302
910.692	0.0178643
910.770	0.0177673
910.848	0.0176952
910.926	0.0176688
911.004	0.0176470
911.082	0.0175640
911.160	0.0173701
911.238	0.0175456
911.317	0.0175471
911.395	0.0174461
911.473	0.0175420
911.551	0.0175161
911.629	0.0176064
911.707	0.0175813
911.785	0.0177908
911.863	0.0178233
911.942	0.0180245
912.020	0.0177965
912.098	0.0180259
912.176	0.0180474
912.254	0.0180191
912.332	0.0182008
912.410	0.0182050
912.488	0.0182131
912.567	0.0181348
912.645	0.0181483
912.723	0.0182339
912.801	0.0181617
912.879	0.0181284
912.957	0.0181805
913.035	0.0178629
913.113	0.0178300
913.192	0.0178717
913.270	0.0177921
913.348	0.0176885
913.426	0.0174203
913.504	0.0173804
913.582	0.0173618
913.660	0.0171565
913.738	0.0172878
913.817	0.0173379
913.895	0.0172285
913.973	0.0172748
914.051	0.0172800
914.129	0.0173668
914.207	0.0174879
914.285	0.0176342
914.363	0.0176164
914.442	0.0177042
914.520	0.0179340
914.598	0.0180003
914.676	0.0181225
914.754	0.0180331
914.832	0.0181112
914.910	0.0182143
914.988	0.0181065
915.067	0.0179785
915.145	0.0180299
915.223	0.0179675
915.301	0.0182381
915.379	0.0181377
915.457	0.0179253
915.535	0.0179588
915.613	0.0180926
915.692	0.0179411
915.770	0.0179574
915.848	0.0180737
915.926	0.0180330
916.004	0.0180436
916.082	0.0180980
916.160	0.0181227
916.238	0.0181047
916.317	0.0181782
916.395	0.0182085
916.473	0.0182942
916.551	0.0182664
916.629	0.0183138
916.707	0.0182320
916.785	0.0180692
916.863	0.0181593
916.942	0.0180514
917.020	0.0180974
917.098	0.0178808
917.176	0.0179195
917.254	0.0179312
917.332	0.0178799
917.410	0.0176958
917.488	0.0177159
917.567	0.0177471
917.645	0.0177514
917.723	0.0176424
917.801	0.0177153
917.879	0.0175936
917.957	0.0175079
918.035	0.0174862
918.113	0.0176694
918.192	0.0176736
918.270	0.0176675
918.348	0.0176243
918.426	0.0179399
918.504	0.0178637
918.582	0.0177898
918.660	0.0178353
918.738	0.0179083
918.817	0.0178211
918.895	0.0179597
918.973	0.0180384
919.051	0.0180668
919.129	0.0180212
919.207	0.0180992
919.285	0.0178059
919.363	0.0179091
919.442	0.0178365
919.520	0.0178238
919.598	0.0176991
919.676	0.0175932
919.754	0.0177182
919.832	0.0176012
919.910	0.0176313
