06/01/2022	21:47:33	Ver.	4.1	UNKNOWN
Optical Delay	599.988409	Delta X		0.078125	Sweeps	1	Scan Rate	0/0
Coordinates	Axis 1	NaN	Axis 2	NaN	Axis 3	NaN	Axis 4	NaN	Axis 5	NaN	Axis 6	0.000000
TX Power	0.000000	RX Power	0.000000

599.988	0.0174653
600.067	0.0173232
600.145	0.0174416
600.223	0.0173910
600.301	0.0173797
600.379	0.0172717
600.457	0.0174438
600.535	0.0172971
600.613	0.0174689
600.692	0.0173787
600.770	0.0174689
600.848	0.0175246
600.926	0.0174035
601.004	0.0174387
601.082	0.0174947
601.160	0.0173780
601.238	0.0174577
601.317	0.0174680
601.395	0.0174930
601.473	0.0175736
601.551	0.0175146
601.629	0.0175909
601.707	0.0174730
601.785	0.0175062
601.863	0.0174532
601.942	0.0175259
602.020	0.0174239
602.098	0.0173389
602.176	0.0175258
602.254	0.0174226
602.332	0.0173569
602.410	0.0174998
602.488	0.0174140
602.567	0.0174050
602.645	0.0173542
602.723	0.0174384
602.801	0.0173740
602.879	0.0173270
602.957	0.0174838
603.035	0.0174894
603.113	0.0174026
603.192	0.0175449
603.270	0.0174772
603.348	0.0176032
603.426	0.0174257
603.504	0.0174994
603.582	0.0174497
603.660	0.0174881
603.738	0.0174498
603.817	0.0173925
603.895	0.0173582
603.973	0.0174093
604.051	0.0173611
604.129	0.0174391
604.207	0.0174501
604.285	0.0174657
604.363	0.0174677
604.442	0.0174589
604.520	0.0175217
604.598	0.0173083
604.676	0.0175965
604.754	0.0174842
604.832	0.0173991
604.910	0.0174191
604.988	0.0175447
605.067	0.0175046
605.145	0.0174655
605.223	0.0173397
605.301	0.0174229
605.379	0.0176492
605.457	0.0175633
605.535	0.0174846
605.613	0.0175806
605.692	0.0174714
605.770	0.0174942
605.848	0.0173926
605.926	0.0174389
606.004	0.0174858
606.082	0.0175298
606.160	0.0174951
606.238	0.0173744
606.317	0.0174248
606.395	0.0174728
606.473	0.0174363
606.551	0.0173959
606.629	0.0173653
606.707	0.0174258
606.785	0.0174489
606.863	0.0175495
606.942	0.0174346
607.020	0.0173591
607.098	0.0174915
607.176	0.0175405
607.254	0.0174963
607.332	0.0173777
607.410	0.0174908
607.488	0.0174513
607.567	0.0174805
607.645	0.0174900
607.723	0.0174067
607.801	0.0174896
607.879	0.0175098
607.957	0.0175587
608.035	0.0174055
608.113	0.0174339
608.192	0.0172889
608.270	0.0172987
608.348	0.0173881
608.426	0.0174648
608.504	0.0173779
608.582	0.0175137
608.660	0.0175013
608.738	0.0174393
608.817	0.0174616
608.895	0.0173757
608.973	0.0174744
609.051	0.0174797
609.129	0.0174770
609.207	0.0173898
609.285	0.0174597
609.363	0.0173790
609.442	0.0174590
609.520	0.0174039
609.598	0.0173975
609.676	0.0173909
609.754	0.0173219
609.832	0.0174487
609.910	0.0174783
609.988	0.0175424
610.067	0.0175472
610.145	0.0173733
610.223	0.0173219
610.301	0.0174191
610.379	0.0175687
610.457	0.0174366
610.535	0.0173797
610.613	0.0173035
610.692	0.0174619
610.770	0.0173399
610.848	0.0174119
610.926	0.0175521
611.004	0.0173586
611.082	0.0174792
611.160	0.0175097
611.238	0.0173701
611.317	0.0174390
611.395	0.0174567
611.473	0.0173855
611.551	0.0174195
611.629	0.0173719
611.707	0.0174122
611.785	0.0173913
611.863	0.0175279
611.942	0.0174487
612.020	0.0175572
612.098	0.0174820
612.176	0.0174031
612.254	0.0173667
612.332	0.0174906
612.410	0.0174800
612.488	0.0172951
612.567	0.0174065
612.645	0.0174975
612.723	0.0173827
612.801	0.0173923
612.879	0.0174086
612.957	0.0174892
613.035	0.0173745
613.113	0.0174738
613.192	0.0174473
613.270	0.0173190
613.348	0.0173640
613.426	0.0174348
613.504	0.0174783
613.582	0.0173030
613.660	0.0174382
613.738	0.0174850
613.817	0.0173788
613.895	0.0174249
613.973	0.0174710
614.051	0.0174825
614.129	0.0175202
614.207	0.0172972
614.285	0.0173931
614.363	0.0175436
614.442	0.0174816
614.520	0.0175358
614.598	0.0173303
614.676	0.0173459
614.754	0.0174717
614.832	0.0175436
614.910	0.0174456
614.988	0.0174817
615.067	0.0175653
615.145	0.0174396
615.223	0.0175143
615.301	0.0174019
615.379	0.0173940
615.457	0.0175070
615.535	0.0174583
615.613	0.0175019
615.692	0.0173104
615.770	0.0175124
615.848	0.0175031
615.926	0.0175462
616.004	0.0174568
616.082	0.0175836
616.160	0.0175115
616.238	0.0173901
616.317	0.0174177
616.395	0.0174694
616.473	0.0174585
616.551	0.0174151
616.629	0.0175035
616.707	0.0174977
616.785	0.0173441
616.863	0.0174692
616.942	0.0175060
617.020	0.0175202
617.098	0.0173668
617.176	0.0173066
617.254	0.0174712
617.332	0.0175314
617.410	0.0175095
617.488	0.0174370
617.567	0.0173957
617.645	0.0174689
617.723	0.0174996
617.801	0.0176096
617.879	0.0174355
617.957	0.0173904
618.035	0.0175540
618.113	0.0172702
618.192	0.0174062
618.270	0.0176955
618.348	0.0174885
618.426	0.0174068
618.504	0.0173389
618.582	0.0174319
618.660	0.0173395
618.738	0.0174529
618.817	0.0175729
618.895	0.0175385
618.973	0.0173676
619.051	0.0175262
619.129	0.0173911
619.207	0.0174818
619.285	0.0175663
619.363	0.0173895
619.442	0.0174753
619.520	0.0173899
619.598	0.0174220
619.676	0.0175539
619.754	0.0173103
619.832	0.0174046
619.910	0.0175373
619.988	0.0175109
620.067	0.0175208
620.145	0.0173714
620.223	0.0173740
620.301	0.0175619
620.379	0.0174725
620.457	0.0171987
620.535	0.0173076
620.613	0.0174899
620.692	0.0174419
620.770	0.0175118
620.848	0.0174158
620.926	0.0173727
621.004	0.0175002
621.082	0.0175328
621.160	0.0175499
621.238	0.0176221
621.317	0.0174493
621.395	0.0174325
621.473	0.0173499
621.551	0.0174995
621.629	0.0174284
621.707	0.0174206
621.785	0.0174330
621.863	0.0174744
621.942	0.0174555
622.020	0.0174605
622.098	0.0175008
622.176	0.0173589
622.254	0.0175532
622.332	0.0173663
622.410	0.0173198
622.488	0.0174095
622.567	0.0174816
622.645	0.0174178
622.723	0.0173700
622.801	0.0173900
622.879	0.0174599
622.957	0.0174928
623.035	0.0174049
623.113	0.0174310
623.192	0.0175247
623.270	0.0174426
623.348	0.0173784
623.426	0.0175092
623.504	0.0175397
623.582	0.0174077
623.660	0.0174114
623.738	0.0175079
623.817	0.0174981
623.895	0.0174835
623.973	0.0174570
624.051	0.0173804
624.129	0.0174052
624.207	0.0173943
624.285	0.0174640
624.363	0.0174667
624.442	0.0174955
624.520	0.0175746
624.598	0.0174463
624.676	0.0174442
624.754	0.0174490
624.832	0.0174185
624.910	0.0174707
624.988	0.0173682
625.067	0.0173177
625.145	0.0173982
625.223	0.0173898
625.301	0.0174161
625.379	0.0175555
625.457	0.0175751
625.535	0.0174178
625.613	0.0173911
625.692	0.0173371
625.770	0.0175173
625.848	0.0175418
625.926	0.0173910
626.004	0.0173182
626.082	0.0174337
626.160	0.0174294
626.238	0.0173662
626.317	0.0176172
626.395	0.0175205
626.473	0.0174722
626.551	0.0174833
626.629	0.0175066
626.707	0.0173331
626.785	0.0174441
626.863	0.0174564
626.942	0.0174128
627.020	0.0175212
627.098	0.0175543
627.176	0.0175762
627.254	0.0174971
627.332	0.0174287
627.410	0.0175623
627.488	0.0174833
627.567	0.0174278
627.645	0.0174728
627.723	0.0175643
627.801	0.0175246
627.879	0.0174725
627.957	0.0174225
628.035	0.0174746
628.113	0.0174387
628.192	0.0175500
628.270	0.0174846
628.348	0.0174110
628.426	0.0174426
628.504	0.0174142
628.582	0.0174680
628.660	0.0173708
628.738	0.0175983
628.817	0.0173876
628.895	0.0174066
628.973	0.0174412
629.051	0.0174542
629.129	0.0173698
629.207	0.0174317
629.285	0.0173578
629.363	0.0174201
629.442	0.0174837
629.520	0.0173703
629.598	0.0174514
629.676	0.0175689
629.754	0.0174917
629.832	0.0174111
629.910	0.0173737
629.988	0.0175921
630.067	0.0174919
630.145	0.0174577
630.223	0.0174762
630.301	0.0175111
630.379	0.0175086
630.457	0.0174288
630.535	0.0174928
630.613	0.0174458
630.692	0.0176521
630.770	0.0174860
630.848	0.0175275
630.926	0.0174731
631.004	0.0175201
631.082	0.0175484
631.160	0.0174850
631.238	0.0173559
631.317	0.0175270
631.395	0.0173950
631.473	0.0173101
631.551	0.0175017
631.629	0.0174451
631.707	0.0175423
631.785	0.0175134
631.863	0.0175052
631.942	0.0174564
632.020	0.0173341
632.098	0.0174017
632.176	0.0176729
632.254	0.0174120
632.332	0.0174721
632.410	0.0174462
632.488	0.0174921
632.567	0.0175179
632.645	0.0175742
632.723	0.0174168
632.801	0.0173340
632.879	0.0175385
632.957	0.0176070
633.035	0.0175399
633.113	0.0174392
633.192	0.0174231
633.270	0.0174319
633.348	0.0176191
633.426	0.0175970
633.504	0.0175468
633.582	0.0175614
633.660	0.0175948
633.738	0.0175772
633.817	0.0174876
633.895	0.0175150
633.973	0.0175582
634.051	0.0174403
634.129	0.0175690
634.207	0.0174797
634.285	0.0174117
634.363	0.0175617
634.442	0.0175752
634.520	0.0175005
634.598	0.0175090
634.676	0.0175464
634.754	0.0174593
634.832	0.0175546
634.910	0.0175170
634.988	0.0174639
635.067	0.0174949
635.145	0.0173633
635.223	0.0173272
635.301	0.0175033
635.379	0.0174941
635.457	0.0174836
635.535	0.0175441
635.613	0.0174702
635.692	0.0174770
635.770	0.0174643
635.848	0.0176521
635.926	0.0174740
636.004	0.0174897
636.082	0.0175652
636.160	0.0173883
636.238	0.0175585
636.317	0.0175842
636.395	0.0174235
636.473	0.0173032
636.551	0.0174428
636.629	0.0174445
636.707	0.0173720
636.785	0.0175035
636.863	0.0174353
636.942	0.0174815
637.020	0.0173959
637.098	0.0174144
637.176	0.0175414
637.254	0.0174670
637.332	0.0175156
637.410	0.0174122
637.488	0.0174889
637.567	0.0175250
637.645	0.0176434
637.723	0.0175058
637.801	0.0174479
637.879	0.0174487
637.957	0.0174548
638.035	0.0174516
638.113	0.0175715
638.192	0.0174996
638.270	0.0174450
638.348	0.0175199
638.426	0.0174709
638.504	0.0174183
638.582	0.0174640
638.660	0.0175182
638.738	0.0175750
638.817	0.0174908
638.895	0.0175521
638.973	0.0176270
639.051	0.0173624
639.129	0.0174200
639.207	0.0174559
639.285	0.0176020
639.363	0.0175298
639.442	0.0176209
639.520	0.0174235
639.598	0.0175738
639.676	0.0174661
639.754	0.0176049
639.832	0.0174875
639.910	0.0175130
639.988	0.0175864
640.067	0.0175883
640.145	0.0174828
640.223	0.0173976
640.301	0.0173714
640.379	0.0174838
640.457	0.0174821
640.535	0.0173499
640.613	0.0174798
640.692	0.0175665
640.770	0.0173806
640.848	0.0174448
640.926	0.0175153
641.004	0.0174869
641.082	0.0175010
641.160	0.0174659
641.238	0.0174170
641.317	0.0173701
641.395	0.0175532
641.473	0.0174484
641.551	0.0176122
641.629	0.0174671
641.707	0.0176091
641.785	0.0174949
641.863	0.0174117
641.942	0.0174921
642.020	0.0174509
642.098	0.0173592
642.176	0.0174566
642.254	0.0173042
642.332	0.0174110
642.410	0.0175385
642.488	0.0175541
642.567	0.0173793
642.645	0.0174179
642.723	0.0173570
642.801	0.0174444
642.879	0.0174167
642.957	0.0173615
643.035	0.0173544
643.113	0.0174091
643.192	0.0175952
643.270	0.0173961
643.348	0.0173715
643.426	0.0173991
643.504	0.0174726
643.582	0.0173932
643.660	0.0175680
643.738	0.0175607
643.817	0.0174891
643.895	0.0174915
643.973	0.0176035
644.051	0.0173489
644.129	0.0174329
644.207	0.0175478
644.285	0.0174856
644.363	0.0173889
644.442	0.0175075
644.520	0.0175143
644.598	0.0174339
644.676	0.0174071
644.754	0.0174784
644.832	0.0174791
644.910	0.0175387
644.988	0.0175011
645.067	0.0175514
645.145	0.0173678
645.223	0.0174886
645.301	0.0174915
645.379	0.0174151
645.457	0.0174489
645.535	0.0173972
645.613	0.0174680
645.692	0.0174899
645.770	0.0174206
645.848	0.0173807
645.926	0.0175241
646.004	0.0173087
646.082	0.0174252
646.160	0.0175528
646.238	0.0175285
646.317	0.0176616
646.395	0.0174461
646.473	0.0175018
646.551	0.0173680
646.629	0.0174316
646.707	0.0175455
646.785	0.0174897
646.863	0.0174158
646.942	0.0173676
647.020	0.0173786
647.098	0.0173963
647.176	0.0175482
647.254	0.0174297
647.332	0.0175752
647.410	0.0173535
647.488	0.0174387
647.567	0.0174136
647.645	0.0174368
647.723	0.0175380
647.801	0.0174319
647.879	0.0175730
647.957	0.0174627
648.035	0.0174550
648.113	0.0173963
648.192	0.0175674
648.270	0.0174701
648.348	0.0173976
648.426	0.0174883
648.504	0.0175713
648.582	0.0173721
648.660	0.0173759
648.738	0.0173579
648.817	0.0173320
648.895	0.0173317
648.973	0.0174030
649.051	0.0175075
649.129	0.0174110
649.207	0.0174328
649.285	0.0173906
649.363	0.0173750
649.442	0.0174722
649.520	0.0174593
649.598	0.0173660
649.676	0.0174758
649.754	0.0175088
649.832	0.0173859
649.910	0.0174406
649.988	0.0175069
650.067	0.0174500
650.145	0.0173608
650.223	0.0175255
650.301	0.0174839
650.379	0.0173485
650.457	0.0173572
650.535	0.0174183
650.613	0.0174151
650.692	0.0174026
650.770	0.0174733
650.848	0.0175237
650.926	0.0175508
651.004	0.0176228
651.082	0.0176282
651.160	0.0175073
651.238	0.0174891
651.317	0.0176627
651.395	0.0175023
651.473	0.0175743
651.551	0.0174583
651.629	0.0175716
651.707	0.0175149
651.785	0.0175648
651.863	0.0173862
651.942	0.0174925
652.020	0.0173701
652.098	0.0172752
652.176	0.0173895
652.254	0.0174430
652.332	0.0174772
652.410	0.0173739
652.488	0.0175007
652.567	0.0174267
652.645	0.0174365
652.723	0.0175459
652.801	0.0175025
652.879	0.0175755
652.957	0.0176279
653.035	0.0176917
653.113	0.0175097
653.192	0.0176350
653.270	0.0177333
653.348	0.0174795
653.426	0.0175475
653.504	0.0175549
653.582	0.0175032
653.660	0.0174660
653.738	0.0174171
653.817	0.0173328
653.895	0.0173740
653.973	0.0173547
654.051	0.0173564
654.129	0.0173498
654.207	0.0173363
654.285	0.0173963
654.363	0.0173914
654.442	0.0174567
654.520	0.0175164
654.598	0.0176196
654.676	0.0175842
654.754	0.0176146
654.832	0.0175763
654.910	0.0176177
654.988	0.0177181
655.067	0.0174589
655.145	0.0174870
655.223	0.0175195
655.301	0.0174959
655.379	0.0175364
655.457	0.0174840
655.535	0.0174557
655.613	0.0172033
655.692	0.0172707
655.770	0.0173537
655.848	0.0173283
655.926	0.0174544
656.004	0.0173731
656.082	0.0173610
656.160	0.0174815
656.238	0.0175237
656.317	0.0173724
656.395	0.0172752
656.473	0.0173722
656.551	0.0176189
656.629	0.0176227
656.707	0.0175275
656.785	0.0175058
656.863	0.0176185
656.942	0.0174271
657.020	0.0175161
657.098	0.0176571
657.176	0.0174890
657.254	0.0174854
657.332	0.0174039
657.410	0.0173633
657.488	0.0174814
657.567	0.0173898
657.645	0.0174718
657.723	0.0174957
657.801	0.0174460
657.879	0.0174471
657.957	0.0173196
658.035	0.0173909
658.113	0.0174863
658.192	0.0174395
658.270	0.0174918
658.348	0.0173657
658.426	0.0174933
658.504	0.0176102
658.582	0.0175612
658.660	0.0175333
658.738	0.0175446
658.817	0.0175747
658.895	0.0176641
658.973	0.0175927
659.051	0.0177284
659.129	0.0175992
659.207	0.0176149
659.285	0.0175342
659.363	0.0176393
659.442	0.0176515
659.520	0.0176008
659.598	0.0172529
659.676	0.0173267
659.754	0.0174181
659.832	0.0173517
659.910	0.0173336
659.988	0.0172979
660.067	0.0174311
660.145	0.0174019
660.223	0.0174750
660.301	0.0175026
660.379	0.0174210
660.457	0.0175588
660.535	0.0175556
660.613	0.0176685
660.692	0.0176183
660.770	0.0176605
660.848	0.0175745
660.926	0.0175549
661.004	0.0175893
661.082	0.0175163
661.160	0.0174695
661.238	0.0174435
661.317	0.0173595
661.395	0.0173872
661.473	0.0172720
661.551	0.0173093
661.629	0.0172248
661.707	0.0172285
661.785	0.0173621
661.863	0.0174007
661.942	0.0174641
662.020	0.0173283
662.098	0.0174949
662.176	0.0175723
662.254	0.0174025
662.332	0.0173766
662.410	0.0176457
662.488	0.0175229
662.567	0.0176628
662.645	0.0176422
662.723	0.0176189
662.801	0.0175791
662.879	0.0175060
662.957	0.0175713
663.035	0.0174437
663.113	0.0175197
663.192	0.0173937
663.270	0.0175340
663.348	0.0173919
663.426	0.0173199
663.504	0.0174205
663.582	0.0173383
663.660	0.0174141
663.738	0.0174313
663.817	0.0172771
663.895	0.0173461
663.973	0.0174556
664.051	0.0174848
664.129	0.0175729
664.207	0.0175167
664.285	0.0174533
664.363	0.0173759
664.442	0.0174068
664.520	0.0173331
664.598	0.0174433
664.676	0.0175261
664.754	0.0175296
664.832	0.0175468
664.910	0.0175609
664.988	0.0175036
665.067	0.0174835
665.145	0.0175417
665.223	0.0175269
665.301	0.0174522
665.379	0.0176089
665.457	0.0174454
665.535	0.0173875
665.613	0.0174100
665.692	0.0173153
665.770	0.0175940
665.848	0.0173534
665.926	0.0173919
666.004	0.0174407
666.082	0.0174120
666.160	0.0174177
666.238	0.0174400
666.317	0.0175490
666.395	0.0175250
666.473	0.0173431
666.551	0.0173885
666.629	0.0172725
666.707	0.0173920
666.785	0.0172507
666.863	0.0172710
666.942	0.0173499
667.020	0.0174341
667.098	0.0174123
667.176	0.0174007
667.254	0.0174683
667.332	0.0176182
667.410	0.0174126
667.488	0.0176778
667.567	0.0175551
667.645	0.0175767
667.723	0.0176092
667.801	0.0175890
667.879	0.0175414
667.957	0.0176136
668.035	0.0176073
668.113	0.0174547
668.192	0.0174291
668.270	0.0174317
668.348	0.0172124
668.426	0.0172230
668.504	0.0171964
668.582	0.0172404
668.660	0.0172451
668.738	0.0172265
668.817	0.0171218
668.895	0.0171552
668.973	0.0171312
669.051	0.0171413
669.129	0.0172604
669.207	0.0173014
669.285	0.0174393
669.363	0.0174556
669.442	0.0174018
669.520	0.0173944
669.598	0.0173879
669.676	0.0174088
669.754	0.0175941
669.832	0.0176414
669.910	0.0176098
669.988	0.0175860
670.067	0.0175964
670.145	0.0174658
670.223	0.0176195
670.301	0.0174657
670.379	0.0173634
670.457	0.0174324
670.535	0.0173101
670.613	0.0171204
670.692	0.0173168
670.770	0.0172174
670.848	0.0171413
670.926	0.0173847
671.004	0.0173193
671.082	0.0172813
671.160	0.0172288
671.238	0.0173901
671.317	0.0173154
671.395	0.0173439
671.473	0.0174337
671.551	0.0176610
671.629	0.0175554
671.707	0.0176257
671.785	0.0176978
671.863	0.0175442
671.942	0.0176322
672.020	0.0175468
672.098	0.0175885
672.176	0.0176792
672.254	0.0175584
672.332	0.0174541
672.410	0.0174593
672.488	0.0173352
672.567	0.0172127
672.645	0.0172021
672.723	0.0171704
672.801	0.0171309
672.879	0.0170911
672.957	0.0171486
673.035	0.0171030
673.113	0.0170921
673.192	0.0171363
673.270	0.0172198
673.348	0.0172926
673.426	0.0174542
673.504	0.0174213
673.582	0.0174730
673.660	0.0173986
673.738	0.0174075
673.817	0.0175065
673.895	0.0177432
673.973	0.0176468
674.051	0.0174503
674.129	0.0176105
674.207	0.0177480
674.285	0.0176859
674.363	0.0176714
674.442	0.0176347
674.520	0.0175229
674.598	0.0176358
674.676	0.0174263
674.754	0.0174307
674.832	0.0174778
674.910	0.0174146
674.988	0.0172324
675.067	0.0174227
675.145	0.0173045
675.223	0.0172741
675.301	0.0173834
675.379	0.0172114
675.457	0.0173386
675.535	0.0174699
675.613	0.0174384
675.692	0.0175079
675.770	0.0174718
675.848	0.0177072
675.926	0.0176546
676.004	0.0178506
676.082	0.0177733
676.160	0.0177210
676.238	0.0177217
676.317	0.0177789
676.395	0.0178121
676.473	0.0176753
676.551	0.0176632
676.629	0.0176749
676.707	0.0175879
676.785	0.0176015
676.863	0.0173833
676.942	0.0174094
677.020	0.0173144
677.098	0.0173553
677.176	0.0172534
677.254	0.0170580
677.332	0.0171648
677.410	0.0170426
677.488	0.0169360
677.567	0.0170641
677.645	0.0170821
677.723	0.0170795
677.801	0.0172654
677.879	0.0172807
677.957	0.0173484
678.035	0.0173824
678.113	0.0174483
678.192	0.0174348
678.270	0.0174628
678.348	0.0175047
678.426	0.0175581
678.504	0.0175351
678.582	0.0175877
678.660	0.0177544
678.738	0.0176087
678.817	0.0177119
678.895	0.0177922
678.973	0.0177038
679.051	0.0177485
679.129	0.0176040
679.207	0.0177239
679.285	0.0178883
679.363	0.0178542
679.442	0.0178428
679.520	0.0176742
679.598	0.0177511
679.676	0.0179219
679.754	0.0178630
679.832	0.0179929
679.910	0.0177612
679.988	0.0177428
680.067	0.0176145
680.145	0.0175801
680.223	0.0173917
680.301	0.0171130
680.379	0.0172807
680.457	0.0170013
680.535	0.0168768
680.613	0.0168689
680.692	0.0167824
680.770	0.0167165
680.848	0.0166225
680.926	0.0169299
681.004	0.0169691
681.082	0.0169936
681.160	0.0171632
681.238	0.0172173
681.317	0.0174113
681.395	0.0176746
681.473	0.0177164
681.551	0.0179103
681.629	0.0181033
681.707	0.0182591
681.785	0.0184030
681.863	0.0184818
681.942	0.0185682
682.020	0.0184180
682.098	0.0183420
682.176	0.0183652
682.254	0.0182990
682.332	0.0179807
682.410	0.0178243
682.488	0.0175959
682.567	0.0173988
682.645	0.0172169
682.723	0.0169103
682.801	0.0167654
682.879	0.0165200
682.957	0.0163920
683.035	0.0163945
683.113	0.0163946
683.192	0.0164838
683.270	0.0164081
683.348	0.0165189
683.426	0.0167010
683.504	0.0168256
683.582	0.0169779
683.660	0.0169865
683.738	0.0172905
683.817	0.0174111
683.895	0.0176434
683.973	0.0178371
684.051	0.0179097
684.129	0.0182465
684.207	0.0182919
684.285	0.0182030
684.363	0.0182464
684.442	0.0182468
684.520	0.0181915
684.598	0.0182896
684.676	0.0183280
684.754	0.0182691
684.832	0.0181209
684.910	0.0181976
684.988	0.0181683
685.067	0.0179570
685.145	0.0178898
685.223	0.0178144
685.301	0.0175982
685.379	0.0174446
685.457	0.0172688
685.535	0.0168948
685.613	0.0168153
685.692	0.0165092
685.770	0.0163213
685.848	0.0159236
685.926	0.0156730
686.004	0.0156257
686.082	0.0157185
686.160	0.0157619
686.238	0.0157722
686.317	0.0160127
686.395	0.0162423
686.473	0.0163828
686.551	0.0168266
686.629	0.0171227
686.707	0.0174245
686.785	0.0178438
686.863	0.0181232
686.942	0.0184554
687.020	0.0187357
687.098	0.0190048
687.176	0.0191869
687.254	0.0192397
687.332	0.0193515
687.410	0.0194529
687.488	0.0193857
687.567	0.0192601
687.645	0.0192107
687.723	0.0190065
687.801	0.0188577
687.879	0.0186550
687.957	0.0184734
688.035	0.0181709
688.113	0.0180191
688.192	0.0177299
688.270	0.0172256
688.348	0.0170657
688.426	0.0169444
688.504	0.0164328
688.582	0.0161966
688.660	0.0161580
688.738	0.0161089
688.817	0.0158394
688.895	0.0154869
688.973	0.0155716
689.051	0.0155647
689.129	0.0155631
689.207	0.0155598
689.285	0.0156429
689.363	0.0157176
689.442	0.0157912
689.520	0.0157613
689.598	0.0157864
689.676	0.0160389
689.754	0.0161718
689.832	0.0163068
689.910	0.0164031
689.988	0.0166765
690.067	0.0170452
690.145	0.0172218
690.223	0.0175888
690.301	0.0180630
690.379	0.0183704
690.457	0.0186111
690.535	0.0189758
690.613	0.0193170
690.692	0.0195538
690.770	0.0196616
690.848	0.0198753
690.926	0.0199483
691.004	0.0198889
691.082	0.0200410
691.160	0.0198493
691.238	0.0197607
691.317	0.0194193
691.395	0.0191300
691.473	0.0187433
691.551	0.0184415
691.629	0.0178931
691.707	0.0175892
691.785	0.0173449
691.863	0.0170330
691.942	0.0168382
692.020	0.0165524
692.098	0.0163478
692.176	0.0160720
692.254	0.0158001
692.332	0.0158606
692.410	0.0156490
692.488	0.0156369
692.567	0.0153669
692.645	0.0153570
692.723	0.0152803
692.801	0.0154331
692.879	0.0155236
692.957	0.0158154
693.035	0.0158355
693.113	0.0161813
693.192	0.0165945
693.270	0.0167548
693.348	0.0171490
693.426	0.0173091
693.504	0.0178151
693.582	0.0180400
693.660	0.0181812
693.738	0.0183202
693.817	0.0183620
693.895	0.0185745
693.973	0.0185437
694.051	0.0186353
694.129	0.0185767
694.207	0.0185120
694.285	0.0185390
694.363	0.0185867
694.442	0.0185761
694.520	0.0185668
694.598	0.0185983
694.676	0.0186289
694.754	0.0184771
694.832	0.0184362
694.910	0.0183112
694.988	0.0179481
695.067	0.0178684
695.145	0.0177570
695.223	0.0173686
695.301	0.0170798
695.379	0.0169065
695.457	0.0167608
695.535	0.0165934
695.613	0.0163945
695.692	0.0163500
695.770	0.0164099
695.848	0.0162645
695.926	0.0161331
696.004	0.0160824
696.082	0.0160600
696.160	0.0161102
696.238	0.0161829
696.317	0.0161407
696.395	0.0159682
696.473	0.0163725
696.551	0.0166122
696.629	0.0166895
696.707	0.0168806
696.785	0.0171954
696.863	0.0175062
696.942	0.0177780
697.020	0.0179742
697.098	0.0182892
697.176	0.0184389
697.254	0.0187634
697.332	0.0190604
697.410	0.0191348
697.488	0.0190446
697.567	0.0191610
697.645	0.0194057
697.723	0.0194302
697.801	0.0193695
697.879	0.0195090
697.957	0.0192154
698.035	0.0191593
698.113	0.0190501
698.192	0.0187325
698.270	0.0186629
698.348	0.0183749
698.426	0.0182026
698.504	0.0178535
698.582	0.0175858
698.660	0.0174920
698.738	0.0171738
698.817	0.0169803
698.895	0.0167545
698.973	0.0163506
699.051	0.0160058
699.129	0.0159571
699.207	0.0158457
699.285	0.0156526
699.363	0.0157491
699.442	0.0156394
699.520	0.0156897
699.598	0.0155364
699.676	0.0156815
699.754	0.0159972
699.832	0.0160694
699.910	0.0160480
699.988	0.0161240
700.067	0.0161530
700.145	0.0161858
700.223	0.0162534
700.301	0.0163555
700.379	0.0164296
700.457	0.0166311
700.535	0.0167311
700.613	0.0170107
700.692	0.0171650
700.770	0.0173200
700.848	0.0175842
700.926	0.0178087
701.004	0.0179543
701.082	0.0182046
701.160	0.0182346
701.238	0.0182320
701.317	0.0183088
701.395	0.0182721
701.473	0.0183468
701.551	0.0184106
701.629	0.0181928
701.707	0.0183189
701.785	0.0183987
701.863	0.0182822
701.942	0.0185017
702.020	0.0184146
702.098	0.0184853
702.176	0.0186217
702.254	0.0187008
702.332	0.0187298
702.410	0.0186444
702.488	0.0188184
702.567	0.0190211
702.645	0.0189311
702.723	0.0189320
702.801	0.0191567
702.879	0.0193000
702.957	0.0191712
703.035	0.0191833
703.113	0.0192719
703.192	0.0191937
703.270	0.0192908
703.348	0.0192813
703.426	0.0190680
703.504	0.0188607
703.582	0.0188721
703.660	0.0185261
703.738	0.0183799
703.817	0.0181255
703.895	0.0179157
703.973	0.0176247
704.051	0.0173396
704.129	0.0169964
704.207	0.0167239
704.285	0.0165462
704.363	0.0160835
704.442	0.0156850
704.520	0.0151065
704.598	0.0145644
704.676	0.0143451
704.754	0.0139205
704.832	0.0132365
704.910	0.0130233
704.988	0.0127737
705.067	0.0124989
705.145	0.0123913
705.223	0.0123113
705.301	0.0123603
705.379	0.0125095
705.457	0.0126883
705.535	0.0130595
705.613	0.0134164
705.692	0.0139891
705.770	0.0146047
705.848	0.0152156
705.926	0.0158146
706.004	0.0165295
706.082	0.0173273
706.160	0.0181082
706.238	0.0189792
706.317	0.0196220
706.395	0.0205540
706.473	0.0211541
706.551	0.0217020
706.629	0.0221612
706.707	0.0224764
706.785	0.0227014
706.863	0.0227143
706.942	0.0227898
707.020	0.0226431
707.098	0.0223327
707.176	0.0220914
707.254	0.0216568
707.332	0.0214832
707.410	0.0209840
707.488	0.0205286
707.567	0.0202818
707.645	0.0197514
707.723	0.0193769
707.801	0.0190418
707.879	0.0186685
707.957	0.0183586
708.035	0.0180358
708.113	0.0178273
708.192	0.0177557
708.270	0.0175723
708.348	0.0173528
708.426	0.0174188
708.504	0.0173960
708.582	0.0173944
708.660	0.0176324
708.738	0.0177655
708.817	0.0177908
708.895	0.0180497
708.973	0.0181521
709.051	0.0182194
709.129	0.0183531
709.207	0.0183580
709.285	0.0181841
709.363	0.0180429
709.442	0.0179582
709.520	0.0176064
709.598	0.0172546
709.676	0.0168452
709.754	0.0162695
709.832	0.0157899
709.910	0.0150423
709.988	0.0143617
710.067	0.0138017
710.145	0.0130502
710.223	0.0125821
710.301	0.0121931
710.379	0.0120419
710.457	0.0115860
710.535	0.0112661
710.613	0.0113068
710.692	0.0113593
710.770	0.0113746
710.848	0.0118323
710.926	0.0120966
711.004	0.0124067
711.082	0.0129498
711.160	0.0133020
711.238	0.0136038
711.317	0.0141805
711.395	0.0145416
711.473	0.0152485
711.551	0.0155978
711.629	0.0161704
711.707	0.0167566
711.785	0.0173276
711.863	0.0178793
711.942	0.0185634
712.020	0.0192999
712.098	0.0200546
712.176	0.0209783
712.254	0.0218938
712.332	0.0227489
712.410	0.0234849
712.488	0.0241670
712.567	0.0248903
712.645	0.0253537
712.723	0.0255048
712.801	0.0256149
712.879	0.0256311
712.957	0.0254061
713.035	0.0248758
713.113	0.0244035
713.192	0.0235403
713.270	0.0227765
713.348	0.0219923
713.426	0.0212006
713.504	0.0203355
713.582	0.0195977
713.660	0.0188849
713.738	0.0180736
713.817	0.0176875
713.895	0.0171951
713.973	0.0167394
714.051	0.0165569
714.129	0.0161800
714.207	0.0159136
714.285	0.0155491
714.363	0.0154626
714.442	0.0155753
714.520	0.0155613
714.598	0.0156710
714.676	0.0159378
714.754	0.0161293
714.832	0.0165083
714.910	0.0169232
714.988	0.0171264
715.067	0.0174111
715.145	0.0176086
715.223	0.0177651
715.301	0.0176671
715.379	0.0172788
715.457	0.0171709
715.535	0.0166119
715.613	0.0159206
715.692	0.0154855
715.770	0.0147932
715.848	0.0139642
715.926	0.0133218
716.004	0.0129047
716.082	0.0123386
716.160	0.0118885
716.238	0.0114925
716.317	0.0113947
716.395	0.0112749
716.473	0.0111929
716.551	0.0111945
716.629	0.0114812
716.707	0.0116200
716.785	0.0119330
716.863	0.0123611
716.942	0.0126501
717.020	0.0131246
717.098	0.0135501
717.176	0.0140942
717.254	0.0144356
717.332	0.0148170
717.410	0.0153437
717.488	0.0159860
717.567	0.0164869
717.645	0.0169207
717.723	0.0174010
717.801	0.0179652
717.879	0.0187080
717.957	0.0195069
718.035	0.0200492
718.113	0.0208144
718.192	0.0215589
718.270	0.0223718
718.348	0.0230975
718.426	0.0240661
718.504	0.0248693
718.582	0.0255603
718.660	0.0261414
718.738	0.0264113
718.817	0.0269280
718.895	0.0270735
718.973	0.0269852
719.051	0.0266811
719.129	0.0261441
719.207	0.0253113
719.285	0.0244759
719.363	0.0234196
719.442	0.0222610
719.520	0.0210239
719.598	0.0199854
719.676	0.0187117
719.754	0.0178507
719.832	0.0168939
719.910	0.0162489
719.988	0.0155407
720.067	0.0149714
720.145	0.0148169
720.223	0.0146176
720.301	0.0147527
720.379	0.0150519
720.457	0.0150492
720.535	0.0153325
720.613	0.0158223
720.692	0.0163845
720.770	0.0168427
720.848	0.0172120
720.926	0.0175867
721.004	0.0181233
721.082	0.0183396
721.160	0.0182958
721.238	0.0181947
721.317	0.0180513
721.395	0.0178332
721.473	0.0171400
721.551	0.0163124
721.629	0.0154665
721.707	0.0147271
721.785	0.0135998
721.863	0.0124670
721.942	0.0116245
722.020	0.0107607
722.098	0.0100122
722.176	0.00952065
722.254	0.00906044
722.332	0.00887527
722.410	0.00901619
722.488	0.00917625
722.567	0.00961693
722.645	0.0101859
722.723	0.0107723
722.801	0.0116141
722.879	0.0124711
722.957	0.0133121
723.035	0.0141339
723.113	0.0149442
723.192	0.0156683
723.270	0.0163802
723.348	0.0169366
723.426	0.0174595
723.504	0.0178196
723.582	0.0182099
723.660	0.0184910
723.738	0.0187822
723.817	0.0190543
723.895	0.0194497
723.973	0.0198591
724.051	0.0204668
724.129	0.0207642
724.207	0.0214591
724.285	0.0221952
724.363	0.0226460
724.442	0.0232984
724.520	0.0238531
724.598	0.0242202
724.676	0.0247411
724.754	0.0251371
724.832	0.0252798
724.910	0.0253467
724.988	0.0251579
725.067	0.0248315
725.145	0.0244430
725.223	0.0239223
725.301	0.0232427
725.379	0.0226574
725.457	0.0218523
725.535	0.0211974
725.613	0.0205709
725.692	0.0197481
725.770	0.0191455
725.848	0.0186832
725.926	0.0182047
726.004	0.0176534
726.082	0.0174294
726.160	0.0173218
726.238	0.0169758
726.317	0.0167249
726.395	0.0166319
726.473	0.0167957
726.551	0.0166079
726.629	0.0167127
726.707	0.0167374
726.785	0.0170009
726.863	0.0169740
726.942	0.0169584
727.020	0.0171417
727.098	0.0173640
727.176	0.0174229
727.254	0.0171848
727.332	0.0171445
727.410	0.0168364
727.488	0.0164723
727.567	0.0161304
727.645	0.0155508
727.723	0.0149774
727.801	0.0142846
727.879	0.0135180
727.957	0.0126353
728.035	0.0118574
728.113	0.0111150
728.192	0.0105319
728.270	0.00999657
728.348	0.00965271
728.426	0.00933609
728.504	0.00930908
728.582	0.00936684
728.660	0.00981720
728.738	0.0102139
728.817	0.0107025
728.895	0.0113497
728.973	0.0121276
729.051	0.0128468
729.129	0.0135057
729.207	0.0141930
729.285	0.0149955
729.363	0.0157163
729.442	0.0162936
729.520	0.0169872
729.598	0.0176419
729.676	0.0181222
729.754	0.0187444
729.832	0.0192761
729.910	0.0198943
729.988	0.0204726
730.067	0.0209490
730.145	0.0212599
730.223	0.0218195
730.301	0.0222469
730.379	0.0226684
730.457	0.0227483
730.535	0.0231554
730.613	0.0230505
730.692	0.0233030
730.770	0.0232929
730.848	0.0231385
730.926	0.0231644
731.004	0.0229504
731.082	0.0227219
731.160	0.0223679
731.238	0.0220674
731.317	0.0216956
731.395	0.0210947
731.473	0.0208963
731.551	0.0206242
731.629	0.0202155
731.707	0.0200094
731.785	0.0198126
731.863	0.0197663
731.942	0.0196738
732.020	0.0198015
732.098	0.0195649
732.176	0.0195821
732.254	0.0194048
732.332	0.0192081
732.410	0.0191511
732.488	0.0190234
732.567	0.0189323
732.645	0.0185618
732.723	0.0182902
732.801	0.0181121
732.879	0.0177108
732.957	0.0173137
733.035	0.0172125
733.113	0.0168592
733.192	0.0165640
733.270	0.0162341
733.348	0.0159998
733.426	0.0158514
733.504	0.0155628
733.582	0.0154339
733.660	0.0151409
733.738	0.0148903
733.817	0.0146979
733.895	0.0142505
733.973	0.0139671
734.051	0.0137273
734.129	0.0134942
734.207	0.0130815
734.285	0.0129292
734.363	0.0127654
734.442	0.0126871
734.520	0.0124596
734.598	0.0124228
734.676	0.0125513
734.754	0.0126646
734.832	0.0127213
734.910	0.0129527
734.988	0.0131689
735.067	0.0132817
735.145	0.0134012
735.223	0.0138423
735.301	0.0139030
735.379	0.0139901
735.457	0.0140593
735.535	0.0143123
735.613	0.0146291
735.692	0.0148002
735.770	0.0152170
735.848	0.0155437
735.926	0.0160264
736.004	0.0165580
736.082	0.0171872
736.160	0.0178291
736.238	0.0186547
736.317	0.0193155
736.395	0.0200134
736.473	0.0207040
736.551	0.0213350
736.629	0.0216583
736.707	0.0221393
736.785	0.0223763
736.863	0.0225642
736.942	0.0228099
737.020	0.0225940
737.098	0.0222343
737.176	0.0220589
737.254	0.0218297
737.332	0.0213469
737.410	0.0210329
737.488	0.0207056
737.567	0.0202715
737.645	0.0200105
737.723	0.0197917
737.801	0.0196627
737.879	0.0196958
737.957	0.0195911
738.035	0.0195080
738.113	0.0197549
738.192	0.0198174
738.270	0.0198603
738.348	0.0198494
738.426	0.0199329
738.504	0.0199492
738.582	0.0198395
738.660	0.0197100
738.738	0.0195786
738.817	0.0194663
738.895	0.0190971
738.973	0.0187750
739.051	0.0182819
739.129	0.0181509
739.207	0.0177831
739.285	0.0174608
739.363	0.0171365
739.442	0.0168021
739.520	0.0166418
739.598	0.0164705
739.676	0.0162927
739.754	0.0162219
739.832	0.0159986
739.910	0.0158022
739.988	0.0157949
740.067	0.0156957
740.145	0.0155583
740.223	0.0154306
740.301	0.0152409
740.379	0.0149540
740.457	0.0150269
740.535	0.0149787
740.613	0.0147643
740.692	0.0147527
740.770	0.0144649
740.848	0.0145318
740.926	0.0143887
741.004	0.0142472
741.082	0.0142590
741.160	0.0143062
741.238	0.0142041
741.317	0.0140958
741.395	0.0141322
741.473	0.0142964
741.551	0.0141280
741.629	0.0141530
741.707	0.0142673
741.785	0.0144160
741.863	0.0145313
741.942	0.0146455
742.020	0.0148079
742.098	0.0152776
742.176	0.0154475
742.254	0.0157874
742.332	0.0162502
742.410	0.0166674
742.488	0.0170132
742.567	0.0173990
742.645	0.0178819
742.723	0.0182742
742.801	0.0184292
742.879	0.0187331
742.957	0.0190676
743.035	0.0193057
743.113	0.0195517
743.192	0.0197540
743.270	0.0197955
743.348	0.0198818
743.426	0.0197446
743.504	0.0198886
743.582	0.0199952
743.660	0.0200620
743.738	0.0201819
743.817	0.0202303
743.895	0.0201437
743.973	0.0202850
744.051	0.0202628
744.129	0.0203905
744.207	0.0204613
744.285	0.0204118
744.363	0.0202324
744.442	0.0203554
744.520	0.0203132
744.598	0.0204432
744.676	0.0203026
744.754	0.0200768
744.832	0.0198981
744.910	0.0197288
744.988	0.0192719
745.067	0.0191073
745.145	0.0188197
745.223	0.0183350
745.301	0.0180482
745.379	0.0179337
745.457	0.0175016
745.535	0.0174482
745.613	0.0171918
745.692	0.0169087
745.770	0.0166006
745.848	0.0167473
745.926	0.0164853
746.004	0.0163972
746.082	0.0164187
746.160	0.0165781
746.238	0.0167097
746.317	0.0167521
746.395	0.0169378
746.473	0.0171496
746.551	0.0173400
746.629	0.0173653
746.707	0.0174506
746.785	0.0174926
746.863	0.0174213
746.942	0.0174842
747.020	0.0173983
747.098	0.0170881
747.176	0.0168251
747.254	0.0165270
747.332	0.0161638
747.410	0.0157600
747.488	0.0153574
747.567	0.0151797
747.645	0.0148338
747.723	0.0145947
747.801	0.0145602
747.879	0.0143327
747.957	0.0143803
748.035	0.0142856
748.113	0.0142799
748.192	0.0144147
748.270	0.0145102
748.348	0.0149118
748.426	0.0153191
748.504	0.0155537
748.582	0.0159691
748.660	0.0162835
748.738	0.0164251
748.817	0.0169511
748.895	0.0171111
748.973	0.0172808
749.051	0.0173067
749.129	0.0173164
749.207	0.0173086
749.285	0.0174783
749.363	0.0173337
749.442	0.0171983
749.520	0.0173799
749.598	0.0171691
749.676	0.0171576
749.754	0.0171657
749.832	0.0171614
749.910	0.0174280
749.988	0.0176481
750.067	0.0177737
750.145	0.0180190
750.223	0.0182488
750.301	0.0186155
750.379	0.0188767
750.457	0.0193197
750.535	0.0194148
750.613	0.0197922
750.692	0.0200242
750.770	0.0201176
750.848	0.0202496
750.926	0.0201330
751.004	0.0202256
751.082	0.0200924
751.160	0.0197621
751.238	0.0196773
751.317	0.0194858
751.395	0.0192754
751.473	0.0189725
751.551	0.0187011
751.629	0.0184344
751.707	0.0182203
751.785	0.0179268
751.863	0.0178706
751.942	0.0177012
752.020	0.0175356
752.098	0.0174439
752.176	0.0176275
752.254	0.0176451
752.332	0.0177074
752.410	0.0176975
752.488	0.0177718
752.567	0.0180671
752.645	0.0181392
752.723	0.0182401
752.801	0.0183278
752.879	0.0184997
752.957	0.0184122
753.035	0.0184145
753.113	0.0184077
753.192	0.0183038
753.270	0.0180851
753.348	0.0178643
753.426	0.0177065
753.504	0.0174101
753.582	0.0170740
753.660	0.0168221
753.738	0.0164969
753.817	0.0162889
753.895	0.0162153
753.973	0.0159439
754.051	0.0156849
754.129	0.0157730
754.207	0.0156640
754.285	0.0157428
754.363	0.0159182
754.442	0.0159083
754.520	0.0160370
754.598	0.0160467
754.676	0.0163084
754.754	0.0162901
754.832	0.0164128
754.910	0.0166255
754.988	0.0165479
755.067	0.0166368
755.145	0.0167021
755.223	0.0167361
755.301	0.0168423
755.379	0.0166745
755.457	0.0168520
755.535	0.0169681
755.613	0.0168726
755.692	0.0167539
755.770	0.0165221
755.848	0.0165829
755.926	0.0165548
756.004	0.0163699
756.082	0.0163295
756.160	0.0163766
756.238	0.0164001
756.317	0.0163544
756.395	0.0164109
756.473	0.0166028
756.551	0.0166151
756.629	0.0167527
756.707	0.0170150
756.785	0.0173072
756.863	0.0175386
756.942	0.0176904
757.020	0.0179022
757.098	0.0181435
757.176	0.0182234
757.254	0.0185513
757.332	0.0185621
757.410	0.0184859
757.488	0.0186628
757.567	0.0185751
757.645	0.0184855
757.723	0.0183358
757.801	0.0183060
757.879	0.0180808
757.957	0.0181628
758.035	0.0179978
758.113	0.0177887
758.192	0.0177586
758.270	0.0177693
758.348	0.0177642
758.426	0.0178603
758.504	0.0180016
758.582	0.0181303
758.660	0.0183022
758.738	0.0186409
758.817	0.0188260
758.895	0.0190237
758.973	0.0192136
759.051	0.0193311
759.129	0.0195152
759.207	0.0196089
759.285	0.0195573
759.363	0.0196980
759.442	0.0194056
759.520	0.0190942
759.598	0.0189394
759.676	0.0187830
759.754	0.0183513
759.832	0.0181470
759.910	0.0177057
759.988	0.0173317
760.067	0.0170512
760.145	0.0166818
760.223	0.0164509
760.301	0.0162138
760.379	0.0162740
760.457	0.0162524
760.535	0.0161026
760.613	0.0161529
760.692	0.0161153
760.770	0.0163448
760.848	0.0164108
760.926	0.0167936
761.004	0.0169282
761.082	0.0171936
761.160	0.0173538
761.238	0.0175412
761.317	0.0177779
761.395	0.0178728
761.473	0.0181670
761.551	0.0179003
761.629	0.0180086
761.707	0.0178738
761.785	0.0179094
761.863	0.0177763
761.942	0.0174316
762.020	0.0172131
762.098	0.0169977
762.176	0.0166189
762.254	0.0164491
762.332	0.0163209
762.410	0.0161040
762.488	0.0160462
762.567	0.0158833
762.645	0.0158488
762.723	0.0155034
762.801	0.0155801
762.879	0.0158295
762.957	0.0160130
763.035	0.0160580
763.113	0.0163026
763.192	0.0164790
763.270	0.0165751
763.348	0.0169299
763.426	0.0171336
763.504	0.0173729
763.582	0.0173580
763.660	0.0173696
763.738	0.0175763
763.817	0.0176288
763.895	0.0174265
763.973	0.0172535
764.051	0.0173089
764.129	0.0172340
764.207	0.0171461
764.285	0.0171068
764.363	0.0169047
764.442	0.0168230
764.520	0.0168695
764.598	0.0169369
764.676	0.0168372
764.754	0.0170780
764.832	0.0172199
764.910	0.0174495
764.988	0.0175728
765.067	0.0177149
765.145	0.0179887
765.223	0.0182336
765.301	0.0184151
765.379	0.0186461
765.457	0.0187541
765.535	0.0188183
765.613	0.0188443
765.692	0.0189964
765.770	0.0191058
765.848	0.0191073
765.926	0.0189237
766.004	0.0188891
766.082	0.0186668
766.160	0.0183924
766.238	0.0182226
766.317	0.0179986
766.395	0.0177795
766.473	0.0175578
766.551	0.0174651
766.629	0.0172333
766.707	0.0173370
766.785	0.0171241
766.863	0.0172569
766.942	0.0173641
767.020	0.0175994
767.098	0.0176019
767.176	0.0178043
767.254	0.0180067
767.332	0.0182403
767.410	0.0182513
767.488	0.0184602
767.567	0.0187071
767.645	0.0187588
767.723	0.0187356
767.801	0.0187081
767.879	0.0187699
767.957	0.0186182
768.035	0.0184578
768.113	0.0182062
768.192	0.0181387
768.270	0.0178758
768.348	0.0176942
768.426	0.0173215
768.504	0.0171117
768.582	0.0169807
768.660	0.0167876
768.738	0.0165663
768.817	0.0164877
768.895	0.0162852
768.973	0.0162456
769.051	0.0160501
769.129	0.0161941
769.207	0.0162278
769.285	0.0162723
769.363	0.0164648
769.442	0.0165594
769.520	0.0168254
769.598	0.0167537
769.676	0.0169804
769.754	0.0168848
769.832	0.0169692
769.910	0.0170572
769.988	0.0171352
770.067	0.0170258
770.145	0.0168840
770.223	0.0168294
770.301	0.0167207
770.379	0.0167243
770.457	0.0165778
770.535	0.0165066
770.613	0.0165903
770.692	0.0162899
770.770	0.0163153
770.848	0.0163615
770.926	0.0163756
771.004	0.0163573
771.082	0.0164478
771.160	0.0165963
771.238	0.0166817
771.317	0.0168070
771.395	0.0170208
771.473	0.0171066
771.551	0.0172701
771.629	0.0173202
771.707	0.0175088
771.785	0.0178469
771.863	0.0179663
771.942	0.0179971
772.020	0.0179595
772.098	0.0181861
772.176	0.0182252
772.254	0.0180532
772.332	0.0178951
772.410	0.0180230
772.488	0.0178893
772.567	0.0176456
772.645	0.0177533
772.723	0.0175595
772.801	0.0176410
772.879	0.0174799
772.957	0.0175275
773.035	0.0176194
773.113	0.0175786
773.192	0.0176696
773.270	0.0177736
773.348	0.0178727
773.426	0.0179556
773.504	0.0180637
773.582	0.0182809
773.660	0.0184153
773.738	0.0185597
773.817	0.0185242
773.895	0.0188010
773.973	0.0188278
774.051	0.0188445
774.129	0.0191391
774.207	0.0191306
774.285	0.0189362
774.363	0.0189388
774.442	0.0189826
774.520	0.0187218
774.598	0.0185639
774.676	0.0184521
774.754	0.0184995
774.832	0.0182475
774.910	0.0181175
774.988	0.0178811
775.067	0.0178114
775.145	0.0175448
775.223	0.0174159
775.301	0.0172853
775.379	0.0171417
775.457	0.0169988
775.535	0.0170008
775.613	0.0168199
775.692	0.0169201
775.770	0.0168646
775.848	0.0168049
775.926	0.0168250
776.004	0.0169083
776.082	0.0167764
776.160	0.0170097
776.238	0.0169005
776.317	0.0168661
776.395	0.0170700
776.473	0.0169898
776.551	0.0170349
776.629	0.0172413
776.707	0.0170657
776.785	0.0171057
776.863	0.0171894
776.942	0.0170542
777.020	0.0170996
777.098	0.0170664
777.176	0.0170667
777.254	0.0171590
777.332	0.0169836
777.410	0.0169940
777.488	0.0170338
777.567	0.0169446
777.645	0.0168858
777.723	0.0168299
777.801	0.0167966
777.879	0.0169842
777.957	0.0168220
778.035	0.0167369
778.113	0.0167752
778.192	0.0168676
778.270	0.0167787
778.348	0.0166734
778.426	0.0167406
778.504	0.0167043
778.582	0.0167761
778.660	0.0165883
778.738	0.0165304
778.817	0.0167506
778.895	0.0166426
778.973	0.0164481
779.051	0.0166589
779.129	0.0167738
779.207	0.0167735
779.285	0.0168048
779.363	0.0171535
779.442	0.0171918
779.520	0.0174289
779.598	0.0175135
779.676	0.0176973
779.754	0.0178465
779.832	0.0177522
779.910	0.0180209
779.988	0.0180795
780.067	0.0180904
780.145	0.0183324
780.223	0.0183103
780.301	0.0183855
780.379	0.0185007
780.457	0.0186266
780.535	0.0185735
780.613	0.0185295
780.692	0.0186642
780.770	0.0185045
780.848	0.0185339
780.926	0.0185749
781.004	0.0185121
781.082	0.0181905
781.160	0.0182407
781.238	0.0183367
781.317	0.0181222
781.395	0.0180314
781.473	0.0181719
781.551	0.0180508
781.629	0.0179495
781.707	0.0180219
781.785	0.0179448
781.863	0.0180347
781.942	0.0178242
782.020	0.0180070
782.098	0.0178259
782.176	0.0177822
782.254	0.0179920
782.332	0.0179038
782.410	0.0178152
782.488	0.0177168
782.567	0.0176762
782.645	0.0176199
782.723	0.0175622
782.801	0.0174656
782.879	0.0174216
782.957	0.0173591
783.035	0.0174165
783.113	0.0175336
783.192	0.0174074
783.270	0.0172738
783.348	0.0172896
783.426	0.0173741
783.504	0.0174255
783.582	0.0173484
783.660	0.0174123
783.738	0.0172926
783.817	0.0173101
783.895	0.0173789
783.973	0.0173160
784.051	0.0174020
784.129	0.0172728
784.207	0.0171281
784.285	0.0171732
784.363	0.0170525
784.442	0.0169741
784.520	0.0168301
784.598	0.0167482
784.676	0.0166018
784.754	0.0166043
784.832	0.0163416
784.910	0.0160721
784.988	0.0160183
785.067	0.0161366
785.145	0.0160183
785.223	0.0158287
785.301	0.0159936
785.379	0.0160955
785.457	0.0162784
785.535	0.0163299
785.613	0.0164416
785.692	0.0166532
785.770	0.0168616
785.848	0.0170955
785.926	0.0171664
786.004	0.0172620
786.082	0.0174251
786.160	0.0175120
786.238	0.0176408
786.317	0.0177394
786.395	0.0178416
786.473	0.0178461
786.551	0.0179918
786.629	0.0178896
786.707	0.0178128
786.785	0.0177922
786.863	0.0178133
786.942	0.0176043
787.020	0.0176196
787.098	0.0175566
787.176	0.0174733
787.254	0.0174993
787.332	0.0175725
787.410	0.0174884
787.488	0.0174750
787.567	0.0172038
787.645	0.0174295
787.723	0.0174751
787.801	0.0175382
787.879	0.0176338
787.957	0.0177623
788.035	0.0178985
788.113	0.0178800
788.192	0.0180280
788.270	0.0181683
788.348	0.0182465
788.426	0.0183311
788.504	0.0183157
788.582	0.0184970
788.660	0.0184683
788.738	0.0185352
788.817	0.0184377
788.895	0.0184081
788.973	0.0184087
789.051	0.0183090
789.129	0.0182633
789.207	0.0180995
789.285	0.0179830
789.363	0.0178466
789.442	0.0180378
789.520	0.0178728
789.598	0.0178089
789.676	0.0176698
789.754	0.0176509
789.832	0.0176833
789.910	0.0176614
789.988	0.0174374
790.067	0.0174400
790.145	0.0174837
790.223	0.0173928
790.301	0.0173279
790.379	0.0174409
790.457	0.0174510
790.535	0.0173829
790.613	0.0172301
790.692	0.0172431
790.770	0.0173744
790.848	0.0172290
790.926	0.0170934
791.004	0.0170609
791.082	0.0170942
791.160	0.0170554
791.238	0.0169537
791.317	0.0168726
791.395	0.0168788
791.473	0.0167860
791.551	0.0167738
791.629	0.0167896
791.707	0.0169069
791.785	0.0169308
791.863	0.0170447
791.942	0.0171352
792.020	0.0172459
792.098	0.0174068
792.176	0.0172672
792.254	0.0175010
792.332	0.0175706
792.410	0.0175437
792.488	0.0175245
792.567	0.0174524
792.645	0.0174052
792.723	0.0174625
792.801	0.0173196
792.879	0.0173068
792.957	0.0172585
793.035	0.0169968
793.113	0.0168906
793.192	0.0169228
793.270	0.0168290
793.348	0.0166929
793.426	0.0165069
793.504	0.0164776
793.582	0.0164387
793.660	0.0165042
793.738	0.0165031
793.817	0.0165002
793.895	0.0166710
793.973	0.0165976
794.051	0.0170230
794.129	0.0169720
794.207	0.0171845
794.285	0.0174644
794.363	0.0175758
794.442	0.0176350
794.520	0.0179337
794.598	0.0179497
794.676	0.0181252
794.754	0.0180976
794.832	0.0182063
794.910	0.0181647
794.988	0.0183695
795.067	0.0182597
795.145	0.0181443
795.223	0.0181762
795.301	0.0181448
795.379	0.0180627
795.457	0.0181056
795.535	0.0178594
795.613	0.0177124
795.692	0.0177519
795.770	0.0178103
795.848	0.0176742
795.926	0.0176637
796.004	0.0175576
796.082	0.0175468
796.160	0.0174786
796.238	0.0175163
796.317	0.0174921
796.395	0.0174539
796.473	0.0175105
796.551	0.0175205
796.629	0.0173843
796.707	0.0176434
796.785	0.0175777
796.863	0.0175967
796.942	0.0176019
797.020	0.0175785
797.098	0.0174403
797.176	0.0177996
797.254	0.0176131
797.332	0.0175340
797.410	0.0175237
797.488	0.0177150
797.567	0.0177280
797.645	0.0178305
797.723	0.0177017
797.801	0.0175834
797.879	0.0177383
797.957	0.0178760
798.035	0.0179316
798.113	0.0180217
798.192	0.0178854
798.270	0.0179125
798.348	0.0179345
798.426	0.0179885
798.504	0.0180621
798.582	0.0181800
798.660	0.0180430
798.738	0.0177865
798.817	0.0179079
798.895	0.0178135
798.973	0.0175187
799.051	0.0174953
799.129	0.0173844
799.207	0.0173017
799.285	0.0171043
799.363	0.0168823
799.442	0.0168961
799.520	0.0168910
799.598	0.0167809
799.676	0.0165960
799.754	0.0165741
799.832	0.0166500
799.910	0.0167665
799.988	0.0165822
800.067	0.0166312
800.145	0.0167080
800.223	0.0167722
800.301	0.0168055
800.379	0.0168823
800.457	0.0169441
800.535	0.0169172
800.613	0.0171132
800.692	0.0172040
800.770	0.0172284
800.848	0.0171957
800.926	0.0171505
801.004	0.0170695
801.082	0.0170480
801.160	0.0170844
801.238	0.0169062
801.317	0.0168118
801.395	0.0168401
801.473	0.0169004
801.551	0.0168141
801.629	0.0166730
801.707	0.0165363
801.785	0.0167239
801.863	0.0166349
801.942	0.0166310
802.020	0.0166172
802.098	0.0166801
802.176	0.0167342
802.254	0.0168252
802.332	0.0170190
802.410	0.0170316
802.488	0.0172328
802.567	0.0174805
802.645	0.0174454
802.723	0.0176735
802.801	0.0177545
802.879	0.0179103
802.957	0.0180196
803.035	0.0183142
803.113	0.0184593
803.192	0.0185275
803.270	0.0187022
803.348	0.0188375
803.426	0.0187902
803.504	0.0188603
803.582	0.0188594
803.660	0.0188840
803.738	0.0189569
803.817	0.0188259
803.895	0.0188580
803.973	0.0187621
804.051	0.0187257
804.129	0.0186772
804.207	0.0184587
804.285	0.0184729
804.363	0.0182108
804.442	0.0181717
804.520	0.0179604
804.598	0.0179050
804.676	0.0177635
804.754	0.0177587
804.832	0.0177100
804.910	0.0176736
804.988	0.0174694
805.067	0.0174613
805.145	0.0175198
805.223	0.0174397
805.301	0.0173133
805.379	0.0174132
805.457	0.0173520
805.535	0.0172614
805.613	0.0171934
805.692	0.0172970
805.770	0.0173094
805.848	0.0171867
805.926	0.0171843
806.004	0.0171605
806.082	0.0170291
806.160	0.0169077
806.238	0.0169388
806.317	0.0169791
806.395	0.0168233
806.473	0.0168290
806.551	0.0166723
806.629	0.0166112
806.707	0.0166358
806.785	0.0163720
806.863	0.0163586
806.942	0.0163805
807.020	0.0162392
807.098	0.0161687
807.176	0.0162573
807.254	0.0161697
807.332	0.0160928
807.410	0.0162386
807.488	0.0161797
807.567	0.0162975
807.645	0.0161851
807.723	0.0163837
807.801	0.0163897
807.879	0.0163522
807.957	0.0166187
808.035	0.0167563
808.113	0.0168180
808.192	0.0169901
808.270	0.0170318
808.348	0.0172367
808.426	0.0173593
808.504	0.0176196
808.582	0.0177526
808.660	0.0179468
808.738	0.0181139
808.817	0.0181367
808.895	0.0182917
808.973	0.0185654
809.051	0.0184472
809.129	0.0186067
809.207	0.0187212
809.285	0.0188926
809.363	0.0188761
809.442	0.0188280
809.520	0.0188572
809.598	0.0187576
809.676	0.0187914
809.754	0.0185971
809.832	0.0185386
809.910	0.0184409
809.988	0.0182387
810.067	0.0181685
810.145	0.0181213
810.223	0.0177966
810.301	0.0178048
810.379	0.0174636
810.457	0.0174247
810.535	0.0172267
810.613	0.0172937
810.692	0.0171292
810.770	0.0170148
810.848	0.0169794
810.926	0.0169722
811.004	0.0170547
811.082	0.0169078
811.160	0.0168970
811.238	0.0169360
811.317	0.0169556
811.395	0.0170743
811.473	0.0170831
811.551	0.0171198
811.629	0.0171396
811.707	0.0173219
811.785	0.0172182
811.863	0.0171932
811.942	0.0172711
812.020	0.0173997
812.098	0.0173628
812.176	0.0171492
812.254	0.0171863
812.332	0.0172506
812.410	0.0170440
812.488	0.0169646
812.567	0.0168490
812.645	0.0169054
812.723	0.0167889
812.801	0.0168292
812.879	0.0167764
812.957	0.0167917
813.035	0.0167526
813.113	0.0167358
813.192	0.0167837
813.270	0.0167174
813.348	0.0166138
813.426	0.0167673
813.504	0.0168438
813.582	0.0170014
813.660	0.0171558
813.738	0.0170982
813.817	0.0172849
813.895	0.0173227
813.973	0.0175026
814.051	0.0177177
814.129	0.0177008
814.207	0.0179781
814.285	0.0178798
814.363	0.0180054
814.442	0.0179144
814.520	0.0180415
814.598	0.0180647
814.676	0.0182843
814.754	0.0182110
814.832	0.0181270
814.910	0.0182111
814.988	0.0184953
815.067	0.0183434
815.145	0.0183244
815.223	0.0181967
815.301	0.0182169
815.379	0.0182360
815.457	0.0182061
815.535	0.0182002
815.613	0.0180557
815.692	0.0178971
815.770	0.0178938
815.848	0.0178399
815.926	0.0178358
816.004	0.0178219
816.082	0.0176795
816.160	0.0174825
816.238	0.0174197
816.317	0.0174390
816.395	0.0173457
816.473	0.0173340
816.551	0.0172538
816.629	0.0172456
816.707	0.0171604
816.785	0.0169488
816.863	0.0170118
816.942	0.0170144
817.020	0.0169079
817.098	0.0169587
817.176	0.0169173
817.254	0.0170711
817.332	0.0169582
817.410	0.0168505
817.488	0.0169042
817.567	0.0166566
817.645	0.0168505
817.723	0.0166747
817.801	0.0166170
817.879	0.0166268
817.957	0.0166503
818.035	0.0164822
818.113	0.0164484
818.192	0.0163264
818.270	0.0164122
818.348	0.0163269
818.426	0.0163515
818.504	0.0163447
818.582	0.0164101
818.660	0.0164800
818.738	0.0165289
818.817	0.0165332
818.895	0.0167809
818.973	0.0168452
819.051	0.0169127
819.129	0.0170960
819.207	0.0171030
819.285	0.0172458
819.363	0.0175236
819.442	0.0174865
819.520	0.0175544
819.598	0.0177683
819.676	0.0177890
819.754	0.0179526
819.832	0.0179838
819.910	0.0180587
819.988	0.0181855
820.067	0.0181255
820.145	0.0183139
820.223	0.0184218
820.301	0.0185036
820.379	0.0185050
820.457	0.0186269
820.535	0.0184567
820.613	0.0186936
820.692	0.0186421
820.770	0.0185909
820.848	0.0184732
820.926	0.0185844
821.004	0.0186569
821.082	0.0185413
821.160	0.0184856
821.238	0.0183820
821.317	0.0183520
821.395	0.0182716
821.473	0.0182078
821.551	0.0181463
821.629	0.0181827
821.707	0.0180862
821.785	0.0180765
821.863	0.0179536
821.942	0.0177806
822.020	0.0177472
822.098	0.0176638
822.176	0.0176046
822.254	0.0172868
822.332	0.0172675
822.410	0.0172131
822.488	0.0171233
822.567	0.0169707
822.645	0.0170176
822.723	0.0169476
822.801	0.0168247
822.879	0.0168773
822.957	0.0169071
823.035	0.0168480
823.113	0.0167863
823.192	0.0166854
823.270	0.0167178
823.348	0.0169283
823.426	0.0167178
823.504	0.0167998
823.582	0.0167062
823.660	0.0167348
823.738	0.0168312
823.817	0.0168050
823.895	0.0165371
823.973	0.0166422
824.051	0.0167449
824.129	0.0166946
824.207	0.0167072
824.285	0.0166346
824.363	0.0164941
824.442	0.0164475
824.520	0.0164759
824.598	0.0165130
824.676	0.0163392
824.754	0.0164246
824.832	0.0164942
824.910	0.0164914
824.988	0.0164757
825.067	0.0165073
825.145	0.0165037
825.223	0.0166842
825.301	0.0166365
825.379	0.0168267
825.457	0.0169028
825.535	0.0170534
825.613	0.0171577
825.692	0.0171585
825.770	0.0174017
825.848	0.0173982
825.926	0.0177306
826.004	0.0178649
826.082	0.0178934
826.160	0.0179144
826.238	0.0179289
826.317	0.0179387
826.395	0.0181887
826.473	0.0181528
826.551	0.0181951
826.629	0.0183469
826.707	0.0184767
826.785	0.0183842
826.863	0.0183749
826.942	0.0184083
827.020	0.0184858
827.098	0.0183710
827.176	0.0185048
827.254	0.0184870
827.332	0.0184284
827.410	0.0183495
827.488	0.0185709
827.567	0.0184508
827.645	0.0183220
827.723	0.0184167
827.801	0.0183027
827.879	0.0181087
827.957	0.0182107
828.035	0.0182487
828.113	0.0181390
828.192	0.0181735
828.270	0.0181578
828.348	0.0180077
828.426	0.0179594
828.504	0.0180525
828.582	0.0178012
828.660	0.0177997
828.738	0.0177911
828.817	0.0176848
828.895	0.0176147
828.973	0.0176099
829.051	0.0174047
829.129	0.0173297
829.207	0.0173000
829.285	0.0173874
829.363	0.0171781
829.442	0.0172237
829.520	0.0169881
829.598	0.0170234
829.676	0.0168489
829.754	0.0169763
829.832	0.0169131
829.910	0.0169134
829.988	0.0166865
830.067	0.0167773
830.145	0.0167185
830.223	0.0166560
830.301	0.0166924
830.379	0.0165697
830.457	0.0164734
830.535	0.0165189
830.613	0.0164739
830.692	0.0163744
830.770	0.0163272
830.848	0.0163826
830.926	0.0162923
831.004	0.0162800
831.082	0.0164491
831.160	0.0164986
831.238	0.0163942
831.317	0.0163665
831.395	0.0163628
831.473	0.0165945
831.551	0.0166243
831.629	0.0167631
831.707	0.0168471
831.785	0.0168801
831.863	0.0169682
831.942	0.0170542
832.020	0.0171161
832.098	0.0172633
832.176	0.0174783
832.254	0.0174343
832.332	0.0175487
832.410	0.0177158
832.488	0.0177786
832.567	0.0178301
832.645	0.0178399
832.723	0.0178613
832.801	0.0178875
832.879	0.0178767
832.957	0.0179404
833.035	0.0179967
833.113	0.0180005
833.192	0.0179584
833.270	0.0180223
833.348	0.0178817
833.426	0.0177149
833.504	0.0178432
833.582	0.0178329
833.660	0.0177476
833.738	0.0177390
833.817	0.0176727
833.895	0.0177592
833.973	0.0177164
834.051	0.0176350
834.129	0.0177975
834.207	0.0177040
834.285	0.0177189
834.363	0.0177356
834.442	0.0179005
834.520	0.0177541
834.598	0.0179301
834.676	0.0179629
834.754	0.0180117
834.832	0.0182053
834.910	0.0181599
834.988	0.0182734
835.067	0.0182252
835.145	0.0181537
835.223	0.0182368
835.301	0.0182354
835.379	0.0181329
835.457	0.0180865
835.535	0.0179942
835.613	0.0179649
835.692	0.0177523
835.770	0.0177567
835.848	0.0176770
835.926	0.0175257
836.004	0.0174634
836.082	0.0173463
836.160	0.0171344
836.238	0.0171690
836.317	0.0172247
836.395	0.0171839
836.473	0.0169245
836.551	0.0169652
836.629	0.0169647
836.707	0.0168916
836.785	0.0167579
836.863	0.0168464
836.942	0.0167719
837.020	0.0167170
837.098	0.0166985
837.176	0.0168536
837.254	0.0167815
837.332	0.0166869
837.410	0.0168172
837.488	0.0167682
837.567	0.0167227
837.645	0.0167732
837.723	0.0168567
837.801	0.0167670
837.879	0.0168665
837.957	0.0167225
838.035	0.0167235
838.113	0.0167817
838.192	0.0168192
838.270	0.0170017
838.348	0.0168279
838.426	0.0167963
838.504	0.0169736
838.582	0.0170030
838.660	0.0170301
838.738	0.0170436
838.817	0.0169477
838.895	0.0173441
838.973	0.0172819
839.051	0.0173317
839.129	0.0175744
839.207	0.0176070
839.285	0.0176057
839.363	0.0176702
839.442	0.0178459
839.520	0.0177804
839.598	0.0179144
839.676	0.0178150
839.754	0.0178320
839.832	0.0177568
839.910	0.0177407
839.988	0.0177914
840.067	0.0177555
840.145	0.0176560
840.223	0.0176887
840.301	0.0176679
840.379	0.0177505
840.457	0.0177956
840.535	0.0177096
840.613	0.0177527
840.692	0.0178270
840.770	0.0178053
840.848	0.0177171
840.926	0.0177846
841.004	0.0177994
841.082	0.0179282
841.160	0.0178625
841.238	0.0179305
841.317	0.0179359
841.395	0.0179167
841.473	0.0180322
841.551	0.0179990
841.629	0.0179816
841.707	0.0180225
841.785	0.0178519
841.863	0.0178001
841.942	0.0177139
842.020	0.0177962
842.098	0.0177077
842.176	0.0175774
842.254	0.0175964
842.332	0.0173090
842.410	0.0173158
842.488	0.0172324
842.567	0.0173299
842.645	0.0170924
842.723	0.0171813
842.801	0.0170322
842.879	0.0170628
842.957	0.0170904
843.035	0.0170008
843.113	0.0170518
843.192	0.0170605
843.270	0.0171360
843.348	0.0171532
843.426	0.0171019
843.504	0.0173009
843.582	0.0174381
843.660	0.0172041
843.738	0.0172602
843.817	0.0173901
843.895	0.0172490
843.973	0.0173557
844.051	0.0173952
844.129	0.0173112
844.207	0.0174014
844.285	0.0172756
844.363	0.0174812
844.442	0.0173849
844.520	0.0172617
844.598	0.0174043
844.676	0.0173239
844.754	0.0174898
844.832	0.0172308
844.910	0.0171557
844.988	0.0172417
845.067	0.0173602
845.145	0.0174809
845.223	0.0174192
845.301	0.0173560
845.379	0.0173911
845.457	0.0173444
845.535	0.0173592
845.613	0.0174133
845.692	0.0174171
845.770	0.0173814
845.848	0.0173982
845.926	0.0173475
846.004	0.0173209
846.082	0.0173531
846.160	0.0175212
846.238	0.0175080
846.317	0.0174133
846.395	0.0174479
846.473	0.0175803
846.551	0.0174453
846.629	0.0172382
846.707	0.0174546
846.785	0.0176568
846.863	0.0175111
846.942	0.0175946
847.020	0.0175954
847.098	0.0176858
847.176	0.0175733
847.254	0.0178467
847.332	0.0178682
847.410	0.0177121
847.488	0.0176662
847.567	0.0177879
847.645	0.0176893
847.723	0.0177829
847.801	0.0177888
847.879	0.0176816
847.957	0.0177590
848.035	0.0177306
848.113	0.0175003
848.192	0.0175723
848.270	0.0176130
848.348	0.0173677
848.426	0.0172198
848.504	0.0173171
848.582	0.0172370
848.660	0.0172894
848.738	0.0171354
848.817	0.0170994
848.895	0.0171215
848.973	0.0168914
849.051	0.0168833
849.129	0.0169099
849.207	0.0170529
849.285	0.0171654
849.363	0.0172539
849.442	0.0171933
849.520	0.0173241
849.598	0.0174254
849.676	0.0175813
849.754	0.0173806
849.832	0.0175340
849.910	0.0177572
849.988	0.0176810
850.067	0.0177850
850.145	0.0177880
850.223	0.0177323
850.301	0.0178857
850.379	0.0178342
850.457	0.0177386
850.535	0.0177145
850.613	0.0177037
850.692	0.0176968
850.770	0.0176559
850.848	0.0174593
850.926	0.0174240
851.004	0.0174929
851.082	0.0174910
851.160	0.0173373
851.238	0.0173060
851.317	0.0173241
851.395	0.0173808
851.473	0.0173949
851.551	0.0172555
851.629	0.0173006
851.707	0.0173258
851.785	0.0173557
851.863	0.0173810
851.942	0.0173595
852.020	0.0174799
852.098	0.0174419
852.176	0.0174694
852.254	0.0174669
852.332	0.0174492
852.410	0.0174854
852.488	0.0174261
852.567	0.0175881
852.645	0.0174033
852.723	0.0174913
852.801	0.0174469
852.879	0.0174897
852.957	0.0173560
853.035	0.0173757
853.113	0.0174828
853.192	0.0174443
853.270	0.0173930
853.348	0.0174580
853.426	0.0172714
853.504	0.0171691
853.582	0.0173312
853.660	0.0172630
853.738	0.0170925
853.817	0.0170738
853.895	0.0171574
853.973	0.0170884
854.051	0.0171751
854.129	0.0171140
854.207	0.0170617
854.285	0.0171060
854.363	0.0171215
854.442	0.0171260
854.520	0.0171301
854.598	0.0170277
854.676	0.0171362
854.754	0.0170543
854.832	0.0171222
854.910	0.0173292
854.988	0.0172990
855.067	0.0172255
855.145	0.0172946
855.223	0.0173322
855.301	0.0173401
855.379	0.0174397
855.457	0.0175062
855.535	0.0175607
855.613	0.0175687
855.692	0.0174833
855.770	0.0176771
855.848	0.0175703
855.926	0.0176632
856.004	0.0177248
856.082	0.0177223
856.160	0.0177629
856.238	0.0176492
856.317	0.0177107
856.395	0.0177572
856.473	0.0178285
856.551	0.0176524
856.629	0.0177545
856.707	0.0176313
856.785	0.0177491
856.863	0.0177808
856.942	0.0175412
857.020	0.0177199
857.098	0.0176633
857.176	0.0175078
857.254	0.0175436
857.332	0.0176239
857.410	0.0175034
857.488	0.0173394
857.567	0.0175217
857.645	0.0174421
857.723	0.0174323
857.801	0.0174944
857.879	0.0174752
857.957	0.0174693
858.035	0.0175914
858.113	0.0175677
858.192	0.0174681
858.270	0.0175519
858.348	0.0175495
858.426	0.0175578
858.504	0.0175890
858.582	0.0174837
858.660	0.0174511
858.738	0.0175212
858.817	0.0174771
858.895	0.0175027
858.973	0.0174895
859.051	0.0174603
859.129	0.0173420
859.207	0.0174606
859.285	0.0174262
859.363	0.0172808
859.442	0.0173576
859.520	0.0173029
859.598	0.0171900
859.676	0.0173341
859.754	0.0172420
859.832	0.0171384
859.910	0.0171179
859.988	0.0169641
860.067	0.0171160
860.145	0.0168627
860.223	0.0170206
860.301	0.0169021
860.379	0.0170451
860.457	0.0170288
860.535	0.0169176
860.613	0.0170632
860.692	0.0169694
860.770	0.0169656
860.848	0.0169282
860.926	0.0171181
861.004	0.0170908
861.082	0.0172588
861.160	0.0171630
861.238	0.0172480
861.317	0.0173626
861.395	0.0173742
861.473	0.0175225
861.551	0.0173904
861.629	0.0176055
861.707	0.0176637
861.785	0.0176874
861.863	0.0175995
861.942	0.0177373
862.020	0.0176945
862.098	0.0178687
862.176	0.0178748
862.254	0.0176901
862.332	0.0176571
862.410	0.0178468
862.488	0.0178865
862.567	0.0177703
862.645	0.0178924
862.723	0.0178835
862.801	0.0178896
862.879	0.0180663
862.957	0.0179256
863.035	0.0179170
863.113	0.0179438
863.192	0.0177336
863.270	0.0176981
863.348	0.0177454
863.426	0.0176331
863.504	0.0176355
863.582	0.0176762
863.660	0.0176198
863.738	0.0174948
863.817	0.0176227
863.895	0.0175270
863.973	0.0174788
864.051	0.0174670
864.129	0.0173589
864.207	0.0171986
864.285	0.0170247
864.363	0.0172504
864.442	0.0171731
864.520	0.0171459
864.598	0.0171306
864.676	0.0171729
864.754	0.0172372
864.832	0.0172111
864.910	0.0172005
864.988	0.0170815
865.067	0.0171522
865.145	0.0172809
865.223	0.0173750
865.301	0.0173557
865.379	0.0173740
865.457	0.0173566
865.535	0.0172613
865.613	0.0175190
865.692	0.0174498
865.770	0.0173074
865.848	0.0174324
865.926	0.0173827
866.004	0.0173160
866.082	0.0173244
866.160	0.0173913
866.238	0.0173416
866.317	0.0173298
866.395	0.0171358
866.473	0.0172228
866.551	0.0172400
866.629	0.0173450
866.707	0.0173062
866.785	0.0172182
866.863	0.0173021
866.942	0.0174725
867.020	0.0173330
867.098	0.0172913
867.176	0.0174495
867.254	0.0173347
867.332	0.0174933
867.410	0.0174364
867.488	0.0174477
867.567	0.0176263
867.645	0.0175201
867.723	0.0177059
867.801	0.0176627
867.879	0.0176173
867.957	0.0176264
868.035	0.0176974
868.113	0.0175709
868.192	0.0176242
868.270	0.0176370
868.348	0.0176061
868.426	0.0177156
868.504	0.0175748
868.582	0.0176346
868.660	0.0176940
868.738	0.0174422
868.817	0.0175716
868.895	0.0176745
868.973	0.0175671
869.051	0.0176403
869.129	0.0176678
869.207	0.0175784
869.285	0.0177273
869.363	0.0176945
869.442	0.0176937
869.520	0.0176990
869.598	0.0178337
869.676	0.0177538
869.754	0.0176537
869.832	0.0178873
869.910	0.0176534
869.988	0.0175708
870.067	0.0174697
870.145	0.0176608
870.223	0.0175377
870.301	0.0175875
870.379	0.0174653
870.457	0.0175196
870.535	0.0174612
870.613	0.0174334
870.692	0.0174265
870.770	0.0172809
870.848	0.0171066
870.926	0.0172945
871.004	0.0174979
871.082	0.0173138
871.160	0.0172919
871.238	0.0174099
871.317	0.0174184
871.395	0.0171703
871.473	0.0172090
871.551	0.0172240
871.629	0.0172138
871.707	0.0172218
871.785	0.0172581
871.863	0.0173386
871.942	0.0171748
872.020	0.0172738
872.098	0.0172699
872.176	0.0172684
872.254	0.0171413
872.332	0.0171220
872.410	0.0170523
872.488	0.0173074
872.567	0.0173322
872.645	0.0173429
872.723	0.0172467
872.801	0.0173534
872.879	0.0172031
872.957	0.0173130
873.035	0.0174737
873.113	0.0175403
873.192	0.0174827
873.270	0.0176987
873.348	0.0176915
873.426	0.0176637
873.504	0.0176273
873.582	0.0177688
873.660	0.0178262
873.738	0.0177518
873.817	0.0179713
873.895	0.0177557
873.973	0.0176302
874.051	0.0176723
874.129	0.0177336
874.207	0.0176907
874.285	0.0176834
874.363	0.0177247
874.442	0.0176072
874.520	0.0175711
874.598	0.0175208
874.676	0.0175523
874.754	0.0174673
874.832	0.0174767
874.910	0.0175039
874.988	0.0174236
875.067	0.0173905
875.145	0.0174362
875.223	0.0173309
875.301	0.0174147
875.379	0.0175364
875.457	0.0174631
875.535	0.0174853
875.613	0.0175587
875.692	0.0176783
875.770	0.0175642
875.848	0.0174569
875.926	0.0175079
876.004	0.0174995
876.082	0.0174712
876.160	0.0173313
876.238	0.0174184
876.317	0.0173190
876.395	0.0174982
876.473	0.0174663
876.551	0.0173756
876.629	0.0173666
876.707	0.0174195
876.785	0.0173479
876.863	0.0173456
876.942	0.0175035
877.020	0.0175507
877.098	0.0172454
877.176	0.0173256
877.254	0.0175079
877.332	0.0173427
877.410	0.0173705
877.488	0.0172687
877.567	0.0173545
877.645	0.0172213
877.723	0.0173701
877.801	0.0172752
877.879	0.0173039
877.957	0.0171720
878.035	0.0171868
878.113	0.0172885
878.192	0.0173362
878.270	0.0172974
878.348	0.0173735
878.426	0.0173862
878.504	0.0174058
878.582	0.0174075
878.660	0.0174855
878.738	0.0173896
878.817	0.0174584
878.895	0.0176531
878.973	0.0175615
879.051	0.0174898
879.129	0.0177660
879.207	0.0177235
879.285	0.0175666
879.363	0.0174638
879.442	0.0175753
879.520	0.0176630
879.598	0.0177062
879.676	0.0176771
879.754	0.0176125
879.832	0.0176464
879.910	0.0176425
879.988	0.0175783
880.067	0.0176051
880.145	0.0175240
880.223	0.0175784
880.301	0.0174799
880.379	0.0175220
880.457	0.0175583
880.535	0.0176121
880.613	0.0174497
880.692	0.0174847
880.770	0.0174525
880.848	0.0173029
880.926	0.0173006
881.004	0.0173747
881.082	0.0173761
881.160	0.0175163
881.238	0.0174038
881.317	0.0173994
881.395	0.0172752
881.473	0.0173869
881.551	0.0175185
881.629	0.0174145
881.707	0.0174586
881.785	0.0175167
881.863	0.0173870
881.942	0.0173695
882.020	0.0174757
882.098	0.0174396
882.176	0.0174232
882.254	0.0175056
882.332	0.0174034
882.410	0.0175590
882.488	0.0173948
882.567	0.0172755
882.645	0.0173144
882.723	0.0173322
882.801	0.0171902
882.879	0.0173449
882.957	0.0173708
883.035	0.0172063
883.113	0.0172105
883.192	0.0173523
883.270	0.0170558
883.348	0.0171994
883.426	0.0172513
883.504	0.0171767
883.582	0.0172568
883.660	0.0173161
883.738	0.0173091
883.817	0.0172218
883.895	0.0172778
883.973	0.0172766
884.051	0.0173128
884.129	0.0172378
884.207	0.0173866
884.285	0.0174039
884.363	0.0173425
884.442	0.0173783
884.520	0.0174071
884.598	0.0174313
884.676	0.0175319
884.754	0.0174476
884.832	0.0175533
884.910	0.0176036
884.988	0.0175767
885.067	0.0176000
885.145	0.0175951
885.223	0.0175654
885.301	0.0175530
885.379	0.0175809
885.457	0.0175687
885.535	0.0175847
885.613	0.0177898
885.692	0.0177435
885.770	0.0176098
885.848	0.0177175
885.926	0.0177235
886.004	0.0177971
886.082	0.0177861
886.160	0.0178307
886.238	0.0178729
886.317	0.0177985
886.395	0.0178336
886.473	0.0177570
886.551	0.0178090
886.629	0.0177464
886.707	0.0175906
886.785	0.0175092
886.863	0.0175549
886.942	0.0175156
887.020	0.0173347
887.098	0.0173830
887.176	0.0174213
887.254	0.0172125
887.332	0.0173066
887.410	0.0173354
887.488	0.0172798
887.567	0.0172131
887.645	0.0171136
887.723	0.0172127
887.801	0.0172379
887.879	0.0172482
887.957	0.0172980
888.035	0.0173421
888.113	0.0172424
888.192	0.0174040
888.270	0.0173313
888.348	0.0173536
888.426	0.0172429
888.504	0.0174062
888.582	0.0174223
888.660	0.0174010
888.738	0.0174199
888.817	0.0175636
888.895	0.0174313
888.973	0.0175645
889.051	0.0174673
889.129	0.0175407
889.207	0.0175064
889.285	0.0175453
889.363	0.0174958
889.442	0.0175713
889.520	0.0173423
889.598	0.0173915
889.676	0.0173505
889.754	0.0172092
889.832	0.0174141
889.910	0.0173339
889.988	0.0173689
890.067	0.0171471
890.145	0.0171848
890.223	0.0172871
890.301	0.0172556
890.379	0.0173521
890.457	0.0173358
890.535	0.0172689
890.613	0.0172402
890.692	0.0173413
890.770	0.0173171
890.848	0.0173034
890.926	0.0172711
891.004	0.0172794
891.082	0.0173214
891.160	0.0173159
891.238	0.0172272
891.317	0.0172193
891.395	0.0172860
891.473	0.0173218
891.551	0.0173425
891.629	0.0173835
891.707	0.0173958
891.785	0.0173828
891.863	0.0174539
891.942	0.0174092
892.020	0.0177471
892.098	0.0175434
892.176	0.0175160
892.254	0.0176948
892.332	0.0178107
892.410	0.0176436
892.488	0.0177267
892.567	0.0177904
892.645	0.0179104
892.723	0.0178056
892.801	0.0177023
892.879	0.0178268
892.957	0.0179286
893.035	0.0177320
893.113	0.0177518
893.192	0.0177319
893.270	0.0175259
893.348	0.0176015
893.426	0.0177563
893.504	0.0175106
893.582	0.0173588
893.660	0.0174152
893.738	0.0173438
893.817	0.0173581
893.895	0.0173679
893.973	0.0173891
894.051	0.0173042
894.129	0.0173565
894.207	0.0173657
894.285	0.0174203
894.363	0.0175625
894.442	0.0176475
894.520	0.0176149
894.598	0.0175907
894.676	0.0175507
894.754	0.0177071
894.832	0.0176620
894.910	0.0179244
894.988	0.0177962
895.067	0.0177618
895.145	0.0175988
895.223	0.0176880
895.301	0.0175692
895.379	0.0177774
895.457	0.0176901
895.535	0.0174667
895.613	0.0174690
895.692	0.0173545
895.770	0.0173936
895.848	0.0173724
895.926	0.0173515
896.004	0.0173716
896.082	0.0171315
896.160	0.0170580
896.238	0.0169229
896.317	0.0169599
896.395	0.0169374
896.473	0.0170528
896.551	0.0168100
896.629	0.0167777
896.707	0.0169757
896.785	0.0168301
896.863	0.0168633
896.942	0.0169234
897.020	0.0170661
897.098	0.0172076
897.176	0.0171513
897.254	0.0172002
897.332	0.0171941
897.410	0.0173431
897.488	0.0174978
897.567	0.0174735
897.645	0.0176025
897.723	0.0174802
897.801	0.0176040
897.879	0.0174783
897.957	0.0176728
898.035	0.0176633
898.113	0.0175804
898.192	0.0174943
898.270	0.0176831
898.348	0.0176839
898.426	0.0175679
898.504	0.0174942
898.582	0.0175361
898.660	0.0174879
898.738	0.0175138
898.817	0.0173540
898.895	0.0173194
898.973	0.0173568
899.051	0.0173031
899.129	0.0172929
899.207	0.0173445
899.285	0.0172063
899.363	0.0171986
899.442	0.0171849
899.520	0.0172503
899.598	0.0171494
899.676	0.0172643
899.754	0.0174107
899.832	0.0173669
899.910	0.0174485
899.988	0.0175163
900.067	0.0174820
900.145	0.0175999
900.223	0.0177820
900.301	0.0177791
900.379	0.0179375
900.457	0.0179444
900.535	0.0180892
900.613	0.0182468
900.692	0.0181831
900.770	0.0181324
900.848	0.0182013
900.926	0.0180916
901.004	0.0182253
901.082	0.0181451
901.160	0.0178864
901.238	0.0179906
901.317	0.0180319
901.395	0.0177967
901.473	0.0176503
901.551	0.0175677
901.629	0.0174230
901.707	0.0172684
901.785	0.0171192
901.863	0.0169175
901.942	0.0170638
902.020	0.0168763
902.098	0.0167643
902.176	0.0167131
902.254	0.0166871
902.332	0.0168742
902.410	0.0167790
902.488	0.0166902
902.567	0.0168263
902.645	0.0169082
902.723	0.0169162
902.801	0.0170166
902.879	0.0170920
902.957	0.0170615
903.035	0.0170992
903.113	0.0172591
903.192	0.0173409
903.270	0.0174995
903.348	0.0174839
903.426	0.0176753
903.504	0.0175342
903.582	0.0174923
903.660	0.0177737
903.738	0.0176857
903.817	0.0178352
903.895	0.0178493
903.973	0.0179433
904.051	0.0178825
904.129	0.0179395
904.207	0.0179204
904.285	0.0179221
904.363	0.0177397
904.442	0.0177854
904.520	0.0177957
904.598	0.0176665
904.676	0.0174865
904.754	0.0173967
904.832	0.0173660
904.910	0.0171221
904.988	0.0170922
905.067	0.0169075
905.145	0.0169199
905.223	0.0169465
905.301	0.0168186
905.379	0.0166306
905.457	0.0165353
905.535	0.0167687
905.613	0.0166479
905.692	0.0167642
905.770	0.0168678
905.848	0.0169552
905.926	0.0170808
906.004	0.0171424
906.082	0.0172601
906.160	0.0173322
906.238	0.0174434
906.317	0.0175593
906.395	0.0177721
906.473	0.0177882
906.551	0.0179491
906.629	0.0179119
906.707	0.0180331
906.785	0.0180511
906.863	0.0182394
906.942	0.0180866
907.020	0.0181004
907.098	0.0180092
907.176	0.0179124
907.254	0.0179334
907.332	0.0179002
907.410	0.0177641
907.488	0.0176140
907.567	0.0175003
907.645	0.0173558
907.723	0.0173680
907.801	0.0170850
907.879	0.0171349
907.957	0.0171501
908.035	0.0171918
908.113	0.0171365
908.192	0.0171156
908.270	0.0171542
908.348	0.0171590
908.426	0.0172671
908.504	0.0172223
908.582	0.0173100
908.660	0.0173863
908.738	0.0174132
908.817	0.0173228
908.895	0.0174604
908.973	0.0175362
909.051	0.0176099
909.129	0.0175504
909.207	0.0175577
909.285	0.0175614
909.363	0.0175880
909.442	0.0174336
909.520	0.0175143
909.598	0.0174509
909.676	0.0173824
909.754	0.0174867
909.832	0.0174571
909.910	0.0174137
909.988	0.0175061
910.067	0.0175237
910.145	0.0174995
910.223	0.0176440
910.301	0.0176852
910.379	0.0175258
910.457	0.0176487
910.535	0.0177688
910.613	0.0177285
910.692	0.0176810
910.770	0.0176496
910.848	0.0175785
910.926	0.0175154
911.004	0.0174301
911.082	0.0173383
911.160	0.0173454
911.238	0.0173342
911.317	0.0172210
911.395	0.0170551
911.473	0.0171722
911.551	0.0170442
911.629	0.0169691
911.707	0.0171239
911.785	0.0170464
911.863	0.0171398
911.942	0.0171526
912.020	0.0172269
912.098	0.0173891
912.176	0.0173776
912.254	0.0174814
912.332	0.0174477
912.410	0.0176593
912.488	0.0176717
912.567	0.0177580
912.645	0.0178742
912.723	0.0179936
912.801	0.0180278
912.879	0.0180517
912.957	0.0179542
913.035	0.0178251
913.113	0.0179665
913.192	0.0178563
913.270	0.0178249
913.348	0.0176211
913.426	0.0174536
913.504	0.0174806
913.582	0.0174868
913.660	0.0173145
913.738	0.0170373
913.817	0.0171763
913.895	0.0171175
913.973	0.0170492
914.051	0.0169214
914.129	0.0168990
914.207	0.0170393
914.285	0.0169643
914.363	0.0169978
914.442	0.0169604
914.520	0.0171410
914.598	0.0171796
914.676	0.0172887
914.754	0.0172991
914.832	0.0174287
914.910	0.0173849
914.988	0.0172952
915.067	0.0174188
915.145	0.0175002
915.223	0.0175069
915.301	0.0174355
915.379	0.0175417
915.457	0.0176333
915.535	0.0175549
915.613	0.0173460
915.692	0.0175232
915.770	0.0175061
915.848	0.0174895
915.926	0.0174685
916.004	0.0176168
916.082	0.0174964
916.160	0.0175777
916.238	0.0176542
916.317	0.0177088
916.395	0.0178588
916.473	0.0179555
916.551	0.0180757
916.629	0.0180001
916.707	0.0179442
916.785	0.0181238
916.863	0.0179247
916.942	0.0180013
917.020	0.0178722
917.098	0.0178935
917.176	0.0178374
917.254	0.0177615
917.332	0.0177064
917.410	0.0176676
917.488	0.0174664
917.567	0.0174033
917.645	0.0173127
917.723	0.0173126
917.801	0.0172829
917.879	0.0173441
917.957	0.0172724
918.035	0.0171825
918.113	0.0172169
918.192	0.0171957
918.270	0.0173119
918.348	0.0172987
918.426	0.0173079
918.504	0.0173443
918.582	0.0173604
918.660	0.0174066
918.738	0.0174557
918.817	0.0173850
918.895	0.0174691
918.973	0.0174765
919.051	0.0175043
919.129	0.0175008
919.207	0.0176082
919.285	0.0174367
919.363	0.0175864
919.442	0.0176529
919.520	0.0174161
919.598	0.0175080
919.676	0.0174236
919.754	0.0173825
919.832	0.0174885
919.910	0.0173137
