06/01/2022	21:48:28	Ver.	4.1	UNKNOWN
Optical Delay	599.988409	Delta X		0.078125	Sweeps	1	Scan Rate	0/0
Coordinates	Axis 1	NaN	Axis 2	NaN	Axis 3	NaN	Axis 4	NaN	Axis 5	NaN	Axis 6	0.000000
TX Power	0.000000	RX Power	0.000000

599.988	0.0185027
600.067	0.0184643
600.145	0.0185640
600.223	0.0186786
600.301	0.0185663
600.379	0.0185857
600.457	0.0183600
600.535	0.0184628
600.613	0.0185075
600.692	0.0185717
600.770	0.0186037
600.848	0.0185348
600.926	0.0185915
601.004	0.0185795
601.082	0.0185536
601.160	0.0185947
601.238	0.0185034
601.317	0.0185152
601.395	0.0183910
601.473	0.0185563
601.551	0.0186122
601.629	0.0185352
601.707	0.0184896
601.785	0.0185036
601.863	0.0184812
601.942	0.0185840
602.020	0.0185003
602.098	0.0185970
602.176	0.0185290
602.254	0.0185424
602.332	0.0184797
602.410	0.0184311
602.488	0.0185003
602.567	0.0184870
602.645	0.0185199
602.723	0.0184802
602.801	0.0184993
602.879	0.0185942
602.957	0.0185953
603.035	0.0185744
603.113	0.0186431
603.192	0.0184386
603.270	0.0184376
603.348	0.0184928
603.426	0.0184910
603.504	0.0185312
603.582	0.0185862
603.660	0.0186635
603.738	0.0186277
603.817	0.0185915
603.895	0.0184452
603.973	0.0184885
604.051	0.0185802
604.129	0.0184104
604.207	0.0185200
604.285	0.0186356
604.363	0.0186191
604.442	0.0186192
604.520	0.0184461
604.598	0.0185029
604.676	0.0185918
604.754	0.0184534
604.832	0.0185237
604.910	0.0184496
604.988	0.0185828
605.067	0.0186024
605.145	0.0186282
605.223	0.0184647
605.301	0.0184934
605.379	0.0184838
605.457	0.0184886
605.535	0.0185080
605.613	0.0184509
605.692	0.0185353
605.770	0.0185708
605.848	0.0185149
605.926	0.0184898
606.004	0.0184370
606.082	0.0186090
606.160	0.0186502
606.238	0.0185279
606.317	0.0184651
606.395	0.0186036
606.473	0.0185431
606.551	0.0185374
606.629	0.0186134
606.707	0.0185498
606.785	0.0185101
606.863	0.0183829
606.942	0.0186588
607.020	0.0186745
607.098	0.0185995
607.176	0.0185886
607.254	0.0185262
607.332	0.0185607
607.410	0.0185603
607.488	0.0185963
607.567	0.0185841
607.645	0.0185808
607.723	0.0184723
607.801	0.0185863
607.879	0.0185733
607.957	0.0186147
608.035	0.0185810
608.113	0.0185402
608.192	0.0186388
608.270	0.0185677
608.348	0.0185318
608.426	0.0185391
608.504	0.0186339
608.582	0.0186071
608.660	0.0185521
608.738	0.0185009
608.817	0.0185631
608.895	0.0184134
608.973	0.0185166
609.051	0.0186970
609.129	0.0186164
609.207	0.0186343
609.285	0.0184978
609.363	0.0184707
609.442	0.0184723
609.520	0.0185668
609.598	0.0184954
609.676	0.0184712
609.754	0.0185683
609.832	0.0184937
609.910	0.0185228
609.988	0.0184177
610.067	0.0184834
610.145	0.0185776
610.223	0.0184432
610.301	0.0185017
610.379	0.0184795
610.457	0.0186039
610.535	0.0186088
610.613	0.0186217
610.692	0.0185982
610.770	0.0185474
610.848	0.0185332
610.926	0.0186564
611.004	0.0184708
611.082	0.0184741
611.160	0.0185748
611.238	0.0186239
611.317	0.0186197
611.395	0.0185575
611.473	0.0184647
611.551	0.0184617
611.629	0.0186523
611.707	0.0184528
611.785	0.0184820
611.863	0.0185659
611.942	0.0185256
612.020	0.0184940
612.098	0.0185146
612.176	0.0186131
612.254	0.0186994
612.332	0.0185987
612.410	0.0185600
612.488	0.0185188
612.567	0.0186248
612.645	0.0186492
612.723	0.0184983
612.801	0.0184372
612.879	0.0185321
612.957	0.0185709
613.035	0.0183414
613.113	0.0184679
613.192	0.0186257
613.270	0.0185107
613.348	0.0185995
613.426	0.0184967
613.504	0.0185642
613.582	0.0184791
613.660	0.0184220
613.738	0.0184937
613.817	0.0185343
613.895	0.0186566
613.973	0.0186156
614.051	0.0185431
614.129	0.0185412
614.207	0.0186137
614.285	0.0184554
614.363	0.0184899
614.442	0.0185530
614.520	0.0186187
614.598	0.0185197
614.676	0.0185931
614.754	0.0186491
614.832	0.0186456
614.910	0.0185168
614.988	0.0184733
615.067	0.0185235
615.145	0.0187566
615.223	0.0186040
615.301	0.0184984
615.379	0.0184506
615.457	0.0184479
615.535	0.0184704
615.613	0.0186539
615.692	0.0186273
615.770	0.0184947
615.848	0.0186048
615.926	0.0185362
616.004	0.0185416
616.082	0.0185082
616.160	0.0185412
616.238	0.0185084
616.317	0.0185886
616.395	0.0184435
616.473	0.0184501
616.551	0.0185394
616.629	0.0185384
616.707	0.0184228
616.785	0.0185371
616.863	0.0185729
616.942	0.0185410
617.020	0.0185205
617.098	0.0185866
617.176	0.0184792
617.254	0.0186655
617.332	0.0185834
617.410	0.0187454
617.488	0.0185609
617.567	0.0184952
617.645	0.0184531
617.723	0.0187054
617.801	0.0185249
617.879	0.0184797
617.957	0.0185566
618.035	0.0185407
618.113	0.0185612
618.192	0.0185160
618.270	0.0186942
618.348	0.0187213
618.426	0.0184964
618.504	0.0185294
618.582	0.0187218
618.660	0.0186131
618.738	0.0183865
618.817	0.0184016
618.895	0.0184766
618.973	0.0184528
619.051	0.0183411
619.129	0.0185664
619.207	0.0185008
619.285	0.0185247
619.363	0.0185321
619.442	0.0185350
619.520	0.0185248
619.598	0.0185101
619.676	0.0185202
619.754	0.0184377
619.832	0.0186330
619.910	0.0184777
619.988	0.0184784
620.067	0.0184142
620.145	0.0185333
620.223	0.0184730
620.301	0.0184544
620.379	0.0185551
620.457	0.0186154
620.535	0.0184110
620.613	0.0185445
620.692	0.0186242
620.770	0.0185301
620.848	0.0184200
620.926	0.0184275
621.004	0.0185973
621.082	0.0185566
621.160	0.0184566
621.238	0.0184841
621.317	0.0185628
621.395	0.0185037
621.473	0.0185203
621.551	0.0185738
621.629	0.0186240
621.707	0.0184972
621.785	0.0187156
621.863	0.0185014
621.942	0.0184240
622.020	0.0186266
622.098	0.0184849
622.176	0.0185054
622.254	0.0184985
622.332	0.0185282
622.410	0.0185143
622.488	0.0183691
622.567	0.0185724
622.645	0.0186329
622.723	0.0186407
622.801	0.0185998
622.879	0.0185265
622.957	0.0186119
623.035	0.0184328
623.113	0.0185345
623.192	0.0185361
623.270	0.0185624
623.348	0.0184625
623.426	0.0185867
623.504	0.0187228
623.582	0.0184904
623.660	0.0183987
623.738	0.0186220
623.817	0.0185445
623.895	0.0184849
623.973	0.0185480
624.051	0.0186736
624.129	0.0184962
624.207	0.0184238
624.285	0.0185935
624.363	0.0185358
624.442	0.0184707
624.520	0.0184480
624.598	0.0185495
624.676	0.0185379
624.754	0.0185487
624.832	0.0185971
624.910	0.0184372
624.988	0.0185305
625.067	0.0184693
625.145	0.0183675
625.223	0.0185234
625.301	0.0184155
625.379	0.0185341
625.457	0.0185099
625.535	0.0185236
625.613	0.0186220
625.692	0.0185926
625.770	0.0186448
625.848	0.0187444
625.926	0.0185892
626.004	0.0185040
626.082	0.0185018
626.160	0.0185526
626.238	0.0185503
626.317	0.0185435
626.395	0.0184561
626.473	0.0184874
626.551	0.0185982
626.629	0.0185955
626.707	0.0184862
626.785	0.0185736
626.863	0.0185934
626.942	0.0184113
627.020	0.0185381
627.098	0.0184801
627.176	0.0185511
627.254	0.0185241
627.332	0.0186721
627.410	0.0184161
627.488	0.0184896
627.567	0.0184528
627.645	0.0184848
627.723	0.0186331
627.801	0.0185696
627.879	0.0184859
627.957	0.0185403
628.035	0.0184258
628.113	0.0184719
628.192	0.0186305
628.270	0.0185475
628.348	0.0185760
628.426	0.0185551
628.504	0.0184393
628.582	0.0186971
628.660	0.0186230
628.738	0.0185020
628.817	0.0185541
628.895	0.0186159
628.973	0.0185422
629.051	0.0184710
629.129	0.0184395
629.207	0.0185314
629.285	0.0185620
629.363	0.0185844
629.442	0.0184373
629.520	0.0183931
629.598	0.0186082
629.676	0.0183965
629.754	0.0184767
629.832	0.0185954
629.910	0.0185576
629.988	0.0185874
630.067	0.0185415
630.145	0.0185181
630.223	0.0185730
630.301	0.0184856
630.379	0.0185365
630.457	0.0184552
630.535	0.0185840
630.613	0.0185460
630.692	0.0183439
630.770	0.0185020
630.848	0.0185174
630.926	0.0184632
631.004	0.0185700
631.082	0.0183664
631.160	0.0184629
631.238	0.0185939
631.317	0.0185168
631.395	0.0185764
631.473	0.0185029
631.551	0.0185529
631.629	0.0185152
631.707	0.0185332
631.785	0.0184497
631.863	0.0185416
631.942	0.0185529
632.020	0.0185429
632.098	0.0185522
632.176	0.0185627
632.254	0.0185314
632.332	0.0185122
632.410	0.0184916
632.488	0.0185153
632.567	0.0186552
632.645	0.0184461
632.723	0.0184499
632.801	0.0186269
632.879	0.0186110
632.957	0.0185862
633.035	0.0185457
633.113	0.0184264
633.192	0.0185883
633.270	0.0186308
633.348	0.0185460
633.426	0.0185760
633.504	0.0184347
633.582	0.0185922
633.660	0.0187331
633.738	0.0183380
633.817	0.0185764
633.895	0.0185085
633.973	0.0183949
634.051	0.0186021
634.129	0.0184917
634.207	0.0185386
634.285	0.0184985
634.363	0.0186161
634.442	0.0185787
634.520	0.0184464
634.598	0.0185747
634.676	0.0184721
634.754	0.0184311
634.832	0.0184934
634.910	0.0184900
634.988	0.0184734
635.067	0.0184297
635.145	0.0185001
635.223	0.0186373
635.301	0.0186697
635.379	0.0184838
635.457	0.0185355
635.535	0.0184214
635.613	0.0184657
635.692	0.0184925
635.770	0.0185573
635.848	0.0185248
635.926	0.0184171
636.004	0.0184235
636.082	0.0185766
636.160	0.0185152
636.238	0.0184767
636.317	0.0185610
636.395	0.0185960
636.473	0.0184534
636.551	0.0184713
636.629	0.0185028
636.707	0.0184629
636.785	0.0184690
636.863	0.0184253
636.942	0.0184632
637.020	0.0185044
637.098	0.0183775
637.176	0.0185970
637.254	0.0185062
637.332	0.0185646
637.410	0.0184042
637.488	0.0185128
637.567	0.0185384
637.645	0.0184411
637.723	0.0185291
637.801	0.0185633
637.879	0.0184789
637.957	0.0185970
638.035	0.0185177
638.113	0.0185429
638.192	0.0185376
638.270	0.0186311
638.348	0.0185754
638.426	0.0185791
638.504	0.0184460
638.582	0.0185039
638.660	0.0184557
638.738	0.0184558
638.817	0.0184153
638.895	0.0184565
638.973	0.0186324
639.051	0.0184327
639.129	0.0184135
639.207	0.0184547
639.285	0.0185235
639.363	0.0184182
639.442	0.0185826
639.520	0.0185376
639.598	0.0185036
639.676	0.0184491
639.754	0.0185052
639.832	0.0185017
639.910	0.0183494
639.988	0.0184158
640.067	0.0184467
640.145	0.0185048
640.223	0.0184727
640.301	0.0185181
640.379	0.0185088
640.457	0.0185104
640.535	0.0185275
640.613	0.0186647
640.692	0.0183928
640.770	0.0185358
640.848	0.0185511
640.926	0.0184975
641.004	0.0185250
641.082	0.0184033
641.160	0.0184865
641.238	0.0185699
641.317	0.0184798
641.395	0.0184341
641.473	0.0185626
641.551	0.0184223
641.629	0.0185261
641.707	0.0184483
641.785	0.0185551
641.863	0.0184166
641.942	0.0186017
642.020	0.0185854
642.098	0.0184940
642.176	0.0185146
642.254	0.0183485
642.332	0.0184695
642.410	0.0184511
642.488	0.0184741
642.567	0.0185896
642.645	0.0185622
642.723	0.0184682
642.801	0.0186079
642.879	0.0185369
642.957	0.0185932
643.035	0.0184538
643.113	0.0185721
643.192	0.0184396
643.270	0.0185174
643.348	0.0183722
643.426	0.0184921
643.504	0.0186410
643.582	0.0186768
643.660	0.0183772
643.738	0.0185728
643.817	0.0184643
643.895	0.0185242
643.973	0.0184324
644.051	0.0185394
644.129	0.0184425
644.207	0.0185317
644.285	0.0184953
644.363	0.0185303
644.442	0.0183080
644.520	0.0185303
644.598	0.0185204
644.676	0.0185255
644.754	0.0186446
644.832	0.0186334
644.910	0.0184521
644.988	0.0185580
645.067	0.0186109
645.145	0.0186370
645.223	0.0183917
645.301	0.0184550
645.379	0.0185839
645.457	0.0185216
645.535	0.0186160
645.613	0.0185572
645.692	0.0185917
645.770	0.0185648
645.848	0.0185439
645.926	0.0185555
646.004	0.0185236
646.082	0.0184773
646.160	0.0184902
646.238	0.0184592
646.317	0.0185799
646.395	0.0185017
646.473	0.0185640
646.551	0.0185072
646.629	0.0185259
646.707	0.0186470
646.785	0.0183787
646.863	0.0184277
646.942	0.0185690
647.020	0.0184807
647.098	0.0185417
647.176	0.0186682
647.254	0.0185681
647.332	0.0185835
647.410	0.0184806
647.488	0.0184786
647.567	0.0185320
647.645	0.0185510
647.723	0.0184445
647.801	0.0184719
647.879	0.0185944
647.957	0.0184850
648.035	0.0184316
648.113	0.0185094
648.192	0.0183907
648.270	0.0185085
648.348	0.0185648
648.426	0.0185097
648.504	0.0185668
648.582	0.0186354
648.660	0.0187652
648.738	0.0185793
648.817	0.0186480
648.895	0.0186543
648.973	0.0185200
649.051	0.0185504
649.129	0.0186002
649.207	0.0185401
649.285	0.0185004
649.363	0.0185432
649.442	0.0184634
649.520	0.0183426
649.598	0.0183360
649.676	0.0184299
649.754	0.0184107
649.832	0.0184949
649.910	0.0184570
649.988	0.0183716
650.067	0.0184303
650.145	0.0184390
650.223	0.0185838
650.301	0.0187698
650.379	0.0188319
650.457	0.0186263
650.535	0.0187167
650.613	0.0187141
650.692	0.0186463
650.770	0.0186469
650.848	0.0185599
650.926	0.0185957
651.004	0.0185804
651.082	0.0184648
651.160	0.0184175
651.238	0.0183020
651.317	0.0183634
651.395	0.0183961
651.473	0.0183670
651.551	0.0183859
651.629	0.0184323
651.707	0.0183246
651.785	0.0183781
651.863	0.0183074
651.942	0.0184539
652.020	0.0184152
652.098	0.0184599
652.176	0.0185147
652.254	0.0185692
652.332	0.0185305
652.410	0.0185374
652.488	0.0184887
652.567	0.0186240
652.645	0.0186089
652.723	0.0185024
652.801	0.0184414
652.879	0.0184959
652.957	0.0184742
653.035	0.0185065
653.113	0.0184264
653.192	0.0184747
653.270	0.0184022
653.348	0.0184039
653.426	0.0184235
653.504	0.0183489
653.582	0.0184534
653.660	0.0184025
653.738	0.0182876
653.817	0.0183025
653.895	0.0184130
653.973	0.0184801
654.051	0.0185894
654.129	0.0185155
654.207	0.0184087
654.285	0.0185106
654.363	0.0184568
654.442	0.0185498
654.520	0.0185603
654.598	0.0185741
654.676	0.0186791
654.754	0.0185007
654.832	0.0185406
654.910	0.0185567
654.988	0.0185285
655.067	0.0184710
655.145	0.0184457
655.223	0.0184550
655.301	0.0183888
655.379	0.0182816
655.457	0.0183051
655.535	0.0182816
655.613	0.0181988
655.692	0.0182283
655.770	0.0182986
655.848	0.0182545
655.926	0.0184088
656.004	0.0183709
656.082	0.0184373
656.160	0.0186156
656.238	0.0186629
656.317	0.0186349
656.395	0.0187010
656.473	0.0187651
656.551	0.0186156
656.629	0.0186330
656.707	0.0187163
656.785	0.0186391
656.863	0.0185297
656.942	0.0185516
657.020	0.0184569
657.098	0.0182484
657.176	0.0182497
657.254	0.0183363
657.332	0.0182716
657.410	0.0182656
657.488	0.0184137
657.567	0.0184093
657.645	0.0183363
657.723	0.0183285
657.801	0.0184019
657.879	0.0183961
657.957	0.0184657
658.035	0.0185009
658.113	0.0186018
658.192	0.0184560
658.270	0.0185538
658.348	0.0186961
658.426	0.0187410
658.504	0.0186549
658.582	0.0186617
658.660	0.0185496
658.738	0.0185581
658.817	0.0185559
658.895	0.0183853
658.973	0.0184859
659.051	0.0183710
659.129	0.0183706
659.207	0.0185675
659.285	0.0184909
659.363	0.0184244
659.442	0.0183131
659.520	0.0183099
659.598	0.0184987
659.676	0.0184520
659.754	0.0184934
659.832	0.0185158
659.910	0.0183578
659.988	0.0184682
660.067	0.0184911
660.145	0.0185255
660.223	0.0184640
660.301	0.0184321
660.379	0.0184396
660.457	0.0184695
660.535	0.0184969
660.613	0.0185760
660.692	0.0185870
660.770	0.0186371
660.848	0.0185768
660.926	0.0186588
661.004	0.0186550
661.082	0.0185761
661.160	0.0185791
661.238	0.0184806
661.317	0.0185536
661.395	0.0184052
661.473	0.0183179
661.551	0.0184685
661.629	0.0185118
661.707	0.0184886
661.785	0.0184319
661.863	0.0185397
661.942	0.0185073
662.020	0.0185358
662.098	0.0184518
662.176	0.0184776
662.254	0.0186647
662.332	0.0185441
662.410	0.0184737
662.488	0.0185130
662.567	0.0183159
662.645	0.0183764
662.723	0.0184533
662.801	0.0185219
662.879	0.0185153
662.957	0.0185442
663.035	0.0186011
663.113	0.0184869
663.192	0.0185504
663.270	0.0185476
663.348	0.0186039
663.426	0.0185265
663.504	0.0186261
663.582	0.0186791
663.660	0.0186343
663.738	0.0186937
663.817	0.0186104
663.895	0.0185389
663.973	0.0187493
664.051	0.0184837
664.129	0.0185170
664.207	0.0184113
664.285	0.0184880
664.363	0.0185469
664.442	0.0183707
664.520	0.0182947
664.598	0.0183723
664.676	0.0184039
664.754	0.0184155
664.832	0.0183169
664.910	0.0183612
664.988	0.0185036
665.067	0.0185963
665.145	0.0186248
665.223	0.0185884
665.301	0.0186942
665.379	0.0187390
665.457	0.0187266
665.535	0.0186604
665.613	0.0188281
665.692	0.0187983
665.770	0.0187669
665.848	0.0186463
665.926	0.0186164
666.004	0.0186362
666.082	0.0184975
666.160	0.0183549
666.238	0.0184512
666.317	0.0183711
666.395	0.0182269
666.473	0.0181877
666.551	0.0182148
666.629	0.0182406
666.707	0.0183443
666.785	0.0183589
666.863	0.0182932
666.942	0.0183068
667.020	0.0184303
667.098	0.0184364
667.176	0.0184669
667.254	0.0185783
667.332	0.0187274
667.410	0.0187949
667.488	0.0187918
667.567	0.0187888
667.645	0.0189511
667.723	0.0188795
667.801	0.0188740
667.879	0.0187936
667.957	0.0186359
668.035	0.0185284
668.113	0.0185265
668.192	0.0185722
668.270	0.0183981
668.348	0.0184844
668.426	0.0183387
668.504	0.0182065
668.582	0.0181226
668.660	0.0182260
668.738	0.0181528
668.817	0.0182703
668.895	0.0183769
668.973	0.0182460
669.051	0.0184182
669.129	0.0183508
669.207	0.0184693
669.285	0.0186866
669.363	0.0185117
669.442	0.0186875
669.520	0.0187909
669.598	0.0187540
669.676	0.0187679
669.754	0.0188600
669.832	0.0188118
669.910	0.0186535
669.988	0.0188133
670.067	0.0186976
670.145	0.0186658
670.223	0.0186028
670.301	0.0184886
670.379	0.0184827
670.457	0.0184869
670.535	0.0184219
670.613	0.0182630
670.692	0.0182388
670.770	0.0182685
670.848	0.0182555
670.926	0.0182941
671.004	0.0182793
671.082	0.0182732
671.160	0.0184273
671.238	0.0184369
671.317	0.0184814
671.395	0.0186849
671.473	0.0186027
671.551	0.0186739
671.629	0.0186322
671.707	0.0186484
671.785	0.0187395
671.863	0.0187994
671.942	0.0186738
672.020	0.0187945
672.098	0.0186319
672.176	0.0186430
672.254	0.0186282
672.332	0.0184873
672.410	0.0186743
672.488	0.0186098
672.567	0.0185415
672.645	0.0185014
672.723	0.0184484
672.801	0.0185188
672.879	0.0185777
672.957	0.0186073
673.035	0.0185835
673.113	0.0186137
673.192	0.0186699
673.270	0.0184533
673.348	0.0185024
673.426	0.0185911
673.504	0.0185537
673.582	0.0185380
673.660	0.0184657
673.738	0.0183558
673.817	0.0182981
673.895	0.0184409
673.973	0.0183939
674.051	0.0183835
674.129	0.0185049
674.207	0.0185698
674.285	0.0185561
674.363	0.0184333
674.442	0.0184067
674.520	0.0185327
674.598	0.0187380
674.676	0.0186906
674.754	0.0185859
674.832	0.0185404
674.910	0.0186241
674.988	0.0186624
675.067	0.0186710
675.145	0.0184889
675.223	0.0184984
675.301	0.0184413
675.379	0.0184332
675.457	0.0184184
675.535	0.0183073
675.613	0.0181468
675.692	0.0182139
675.770	0.0181901
675.848	0.0182428
675.926	0.0181408
676.004	0.0179980
676.082	0.0180736
676.160	0.0181075
676.238	0.0181744
676.317	0.0182502
676.395	0.0183863
676.473	0.0184749
676.551	0.0185130
676.629	0.0186786
676.707	0.0187939
676.785	0.0188010
676.863	0.0189634
676.942	0.0190659
677.020	0.0190553
677.098	0.0189604
677.176	0.0191453
677.254	0.0191414
677.332	0.0188192
677.410	0.0188362
677.488	0.0188461
677.567	0.0187461
677.645	0.0185578
677.723	0.0184966
677.801	0.0182953
677.879	0.0183342
677.957	0.0181554
678.035	0.0181345
678.113	0.0181998
678.192	0.0182427
678.270	0.0182044
678.348	0.0183723
678.426	0.0182532
678.504	0.0182401
678.582	0.0184687
678.660	0.0184375
678.738	0.0185185
678.817	0.0186578
678.895	0.0185884
678.973	0.0186694
679.051	0.0185879
679.129	0.0184663
679.207	0.0186196
679.285	0.0185482
679.363	0.0184727
679.442	0.0184460
679.520	0.0184051
679.598	0.0183282
679.676	0.0182583
679.754	0.0182742
679.832	0.0180799
679.910	0.0181062
679.988	0.0180972
680.067	0.0180247
680.145	0.0181108
680.223	0.0180702
680.301	0.0182053
680.379	0.0183096
680.457	0.0185109
680.535	0.0187930
680.613	0.0189403
680.692	0.0189940
680.770	0.0193666
680.848	0.0193673
680.926	0.0195113
681.004	0.0194218
681.082	0.0195139
681.160	0.0194230
681.238	0.0192882
681.317	0.0191672
681.395	0.0189765
681.473	0.0187503
681.551	0.0184308
681.629	0.0183243
681.707	0.0180820
681.785	0.0177815
681.863	0.0175763
681.942	0.0175278
682.020	0.0173104
682.098	0.0173116
682.176	0.0172313
682.254	0.0171638
682.332	0.0173787
682.410	0.0174184
682.488	0.0176160
682.567	0.0178056
682.645	0.0179089
682.723	0.0181945
682.801	0.0184979
682.879	0.0187525
682.957	0.0189725
683.035	0.0190861
683.113	0.0192390
683.192	0.0193622
683.270	0.0194411
683.348	0.0194145
683.426	0.0194534
683.504	0.0195302
683.582	0.0194327
683.660	0.0195305
683.738	0.0193856
683.817	0.0193665
683.895	0.0192935
683.973	0.0192632
684.051	0.0192447
684.129	0.0190703
684.207	0.0190630
684.285	0.0188464
684.363	0.0187178
684.442	0.0185081
684.520	0.0184315
684.598	0.0182136
684.676	0.0177663
684.754	0.0176592
684.832	0.0174068
684.910	0.0172783
684.988	0.0172686
685.067	0.0171750
685.145	0.0171410
685.223	0.0172137
685.301	0.0172296
685.379	0.0174430
685.457	0.0175738
685.535	0.0177924
685.613	0.0178468
685.692	0.0181477
685.770	0.0184259
685.848	0.0184647
685.926	0.0185722
686.004	0.0188114
686.082	0.0190041
686.160	0.0191026
686.238	0.0192609
686.317	0.0194485
686.395	0.0197218
686.473	0.0198483
686.551	0.0199335
686.629	0.0200169
686.707	0.0201084
686.785	0.0200512
686.863	0.0199874
686.942	0.0199810
687.020	0.0196604
687.098	0.0196438
687.176	0.0193882
687.254	0.0192909
687.332	0.0189389
687.410	0.0186864
687.488	0.0183959
687.567	0.0181081
687.645	0.0178551
687.723	0.0176456
687.801	0.0173795
687.879	0.0171324
687.957	0.0168910
688.035	0.0167625
688.113	0.0167770
688.192	0.0168901
688.270	0.0165922
688.348	0.0164681
688.426	0.0166478
688.504	0.0166560
688.582	0.0166935
688.660	0.0168095
688.738	0.0170455
688.817	0.0171888
688.895	0.0173762
688.973	0.0177370
689.051	0.0180169
689.129	0.0182851
689.207	0.0186058
689.285	0.0187716
689.363	0.0189867
689.442	0.0194211
689.520	0.0196008
689.598	0.0198679
689.676	0.0201271
689.754	0.0203256
689.832	0.0206215
689.910	0.0207699
689.988	0.0207967
690.067	0.0209297
690.145	0.0210328
690.223	0.0209669
690.301	0.0210396
690.379	0.0209007
690.457	0.0206874
690.535	0.0206282
690.613	0.0203517
690.692	0.0200384
690.770	0.0197409
690.848	0.0194935
690.926	0.0192119
691.004	0.0187504
691.082	0.0181075
691.160	0.0177700
691.238	0.0174413
691.317	0.0170667
691.395	0.0166550
691.473	0.0162816
691.551	0.0159436
691.629	0.0158120
691.707	0.0157568
691.785	0.0157356
691.863	0.0158010
691.942	0.0159007
692.020	0.0161845
692.098	0.0165087
692.176	0.0167185
692.254	0.0171014
692.332	0.0173018
692.410	0.0173951
692.488	0.0176484
692.567	0.0176629
692.645	0.0179147
692.723	0.0180959
692.801	0.0180579
692.879	0.0182127
692.957	0.0184181
693.035	0.0184007
693.113	0.0185331
693.192	0.0189465
693.270	0.0192064
693.348	0.0196164
693.426	0.0198703
693.504	0.0202950
693.582	0.0204608
693.660	0.0206946
693.738	0.0209631
693.817	0.0209595
693.895	0.0210194
693.973	0.0208768
694.051	0.0206716
694.129	0.0208001
694.207	0.0204282
694.285	0.0202748
694.363	0.0200237
694.442	0.0197971
694.520	0.0195641
694.598	0.0191571
694.676	0.0189598
694.754	0.0187998
694.832	0.0180911
694.910	0.0177485
694.988	0.0175702
695.067	0.0172083
695.145	0.0169776
695.223	0.0168042
695.301	0.0167161
695.379	0.0163958
695.457	0.0164862
695.535	0.0164709
695.613	0.0165060
695.692	0.0166292
695.770	0.0167754
695.848	0.0170221
695.926	0.0172262
696.004	0.0174930
696.082	0.0178262
696.160	0.0181013
696.238	0.0184164
696.317	0.0186702
696.395	0.0188714
696.473	0.0190318
696.551	0.0190979
696.629	0.0191203
696.707	0.0193352
696.785	0.0192740
696.863	0.0193031
696.942	0.0191669
697.020	0.0194135
697.098	0.0192438
697.176	0.0193576
697.254	0.0195482
697.332	0.0195778
697.410	0.0195990
697.488	0.0197586
697.567	0.0197853
697.645	0.0198049
697.723	0.0199120
697.801	0.0197421
697.879	0.0195937
697.957	0.0194579
698.035	0.0191319
698.113	0.0187484
698.192	0.0183060
698.270	0.0180593
698.348	0.0176061
698.426	0.0173466
698.504	0.0171275
698.582	0.0168945
698.660	0.0168270
698.738	0.0169666
698.817	0.0170136
698.895	0.0170276
698.973	0.0172261
699.051	0.0174432
699.129	0.0177982
699.207	0.0179640
699.285	0.0182076
699.363	0.0180325
699.442	0.0180727
699.520	0.0182030
699.598	0.0180328
699.676	0.0179912
699.754	0.0179325
699.832	0.0179443
699.910	0.0178028
699.988	0.0178324
700.067	0.0178390
700.145	0.0180917
700.223	0.0181390
700.301	0.0182667
700.379	0.0185870
700.457	0.0187678
700.535	0.0190158
700.613	0.0192866
700.692	0.0193748
700.770	0.0196564
700.848	0.0197700
700.926	0.0201144
701.004	0.0200919
701.082	0.0203971
701.160	0.0203498
701.238	0.0202240
701.317	0.0202716
701.395	0.0202330
701.473	0.0200165
701.551	0.0198837
701.629	0.0196857
701.707	0.0196133
701.785	0.0195737
701.863	0.0194624
701.942	0.0192281
702.020	0.0190857
702.098	0.0190501
702.176	0.0188949
702.254	0.0187355
702.332	0.0184791
702.410	0.0183745
702.488	0.0180435
702.567	0.0178291
702.645	0.0178647
702.723	0.0175193
702.801	0.0174147
702.879	0.0174007
702.957	0.0171786
703.035	0.0170766
703.113	0.0172248
703.192	0.0171523
703.270	0.0171879
703.348	0.0170714
703.426	0.0173314
703.504	0.0173201
703.582	0.0173840
703.660	0.0174765
703.738	0.0173715
703.817	0.0175436
703.895	0.0176201
703.973	0.0175726
704.051	0.0176371
704.129	0.0175677
704.207	0.0175937
704.285	0.0176579
704.363	0.0177885
704.442	0.0177701
704.520	0.0176389
704.598	0.0176048
704.676	0.0176895
704.754	0.0175766
704.832	0.0177809
704.910	0.0176768
704.988	0.0177420
705.067	0.0177840
705.145	0.0180441
705.223	0.0183887
705.301	0.0185984
705.379	0.0189288
705.457	0.0192822
705.535	0.0197481
705.613	0.0203351
705.692	0.0205914
705.770	0.0207479
705.848	0.0210462
705.926	0.0210503
706.004	0.0210481
706.082	0.0209144
706.160	0.0207425
706.238	0.0203876
706.317	0.0201299
706.395	0.0197421
706.473	0.0196407
706.551	0.0192853
706.629	0.0188909
706.707	0.0185757
706.785	0.0184760
706.863	0.0183862
706.942	0.0183272
707.020	0.0184056
707.098	0.0184542
707.176	0.0185194
707.254	0.0188454
707.332	0.0191065
707.410	0.0193849
707.488	0.0197686
707.567	0.0200083
707.645	0.0202675
707.723	0.0203749
707.801	0.0204881
707.879	0.0207312
707.957	0.0204233
708.035	0.0202792
708.113	0.0202004
708.192	0.0198975
708.270	0.0196162
708.348	0.0193004
708.426	0.0190085
708.504	0.0185155
708.582	0.0180309
708.660	0.0177208
708.738	0.0170773
708.817	0.0167037
708.895	0.0161539
708.973	0.0157661
709.051	0.0154884
709.129	0.0150034
709.207	0.0145983
709.285	0.0144728
709.363	0.0142524
709.442	0.0140240
709.520	0.0138301
709.598	0.0137737
709.676	0.0138412
709.754	0.0140741
709.832	0.0141577
709.910	0.0143389
709.988	0.0145229
710.067	0.0148238
710.145	0.0152849
710.223	0.0155216
710.301	0.0159769
710.379	0.0164394
710.457	0.0167742
710.535	0.0173885
710.613	0.0180964
710.692	0.0185187
710.770	0.0191277
710.848	0.0197650
710.926	0.0202957
711.004	0.0208387
711.082	0.0214280
711.160	0.0216656
711.238	0.0222449
711.317	0.0225869
711.395	0.0228247
711.473	0.0230335
711.551	0.0234178
711.629	0.0234063
711.707	0.0234721
711.785	0.0236269
711.863	0.0235963
711.942	0.0234521
712.020	0.0232930
712.098	0.0231591
712.176	0.0228747
712.254	0.0226385
712.332	0.0223588
712.410	0.0218874
712.488	0.0214506
712.567	0.0208910
712.645	0.0205165
712.723	0.0200997
712.801	0.0197501
712.879	0.0192669
712.957	0.0187453
713.035	0.0186843
713.113	0.0182398
713.192	0.0179982
713.270	0.0176395
713.348	0.0173618
713.426	0.0170103
713.504	0.0168472
713.582	0.0164902
713.660	0.0162139
713.738	0.0161711
713.817	0.0160464
713.895	0.0161191
713.973	0.0160605
714.051	0.0162150
714.129	0.0163525
714.207	0.0165089
714.285	0.0168159
714.363	0.0170021
714.442	0.0169648
714.520	0.0170598
714.598	0.0170006
714.676	0.0167791
714.754	0.0166888
714.832	0.0165170
714.910	0.0161444
714.988	0.0159470
715.067	0.0158794
715.145	0.0156229
715.223	0.0155508
715.301	0.0154750
715.379	0.0153905
715.457	0.0153609
715.535	0.0153917
715.613	0.0154591
715.692	0.0155000
715.770	0.0155720
715.848	0.0155242
715.926	0.0157675
716.004	0.0158018
716.082	0.0160039
716.160	0.0162292
716.238	0.0164289
716.317	0.0166297
716.395	0.0168488
716.473	0.0171526
716.551	0.0174654
716.629	0.0178281
716.707	0.0181752
716.785	0.0185591
716.863	0.0190582
716.942	0.0194975
717.020	0.0199702
717.098	0.0206733
717.176	0.0211960
717.254	0.0215927
717.332	0.0222932
717.410	0.0227917
717.488	0.0233490
717.567	0.0238741
717.645	0.0243195
717.723	0.0247152
717.801	0.0248067
717.879	0.0249474
717.957	0.0248678
718.035	0.0247076
718.113	0.0246111
718.192	0.0243192
718.270	0.0239784
718.348	0.0233764
718.426	0.0229690
718.504	0.0224630
718.582	0.0218353
718.660	0.0212444
718.738	0.0206524
718.817	0.0200346
718.895	0.0193713
718.973	0.0188896
719.051	0.0184540
719.129	0.0180305
719.207	0.0176431
719.285	0.0172191
719.363	0.0169392
719.442	0.0169344
719.520	0.0167860
719.598	0.0167776
719.676	0.0168946
719.754	0.0168661
719.832	0.0168848
719.910	0.0170520
719.988	0.0170253
720.067	0.0171278
720.145	0.0170352
720.223	0.0169347
720.301	0.0167960
720.379	0.0167599
720.457	0.0164162
720.535	0.0161144
720.613	0.0157520
720.692	0.0153501
720.770	0.0150951
720.848	0.0147829
720.926	0.0145380
721.004	0.0143438
721.082	0.0141039
721.160	0.0139413
721.238	0.0141026
721.317	0.0138436
721.395	0.0139450
721.473	0.0143628
721.551	0.0146450
721.629	0.0148235
721.707	0.0152220
721.785	0.0155706
721.863	0.0160236
721.942	0.0163840
722.020	0.0166198
722.098	0.0168948
722.176	0.0172096
722.254	0.0172589
722.332	0.0175139
722.410	0.0175791
722.488	0.0177731
722.567	0.0178468
722.645	0.0177722
722.723	0.0179607
722.801	0.0181765
722.879	0.0183225
722.957	0.0187385
723.035	0.0190112
723.113	0.0194126
723.192	0.0197906
723.270	0.0204236
723.348	0.0210041
723.426	0.0217548
723.504	0.0223059
723.582	0.0230134
723.660	0.0235918
723.738	0.0242303
723.817	0.0246430
723.895	0.0251157
723.973	0.0254170
724.051	0.0254490
724.129	0.0254973
724.207	0.0254198
724.285	0.0252589
724.363	0.0248685
724.442	0.0242792
724.520	0.0237680
724.598	0.0231776
724.676	0.0224239
724.754	0.0217582
724.832	0.0210807
724.910	0.0204245
724.988	0.0197353
725.067	0.0191685
725.145	0.0186686
725.223	0.0181624
725.301	0.0177940
725.379	0.0173995
725.457	0.0171028
725.535	0.0170866
725.613	0.0170095
725.692	0.0169936
725.770	0.0171404
725.848	0.0173584
725.926	0.0175724
726.004	0.0178709
726.082	0.0180093
726.160	0.0181141
726.238	0.0183644
726.317	0.0185622
726.395	0.0185399
726.473	0.0185166
726.551	0.0184605
726.629	0.0181606
726.707	0.0177142
726.785	0.0172327
726.863	0.0165826
726.942	0.0158356
727.020	0.0149236
727.098	0.0143304
727.176	0.0135899
727.254	0.0127867
727.332	0.0121219
727.410	0.0116387
727.488	0.0113599
727.567	0.0112261
727.645	0.0111119
727.723	0.0112181
727.801	0.0117681
727.879	0.0121399
727.957	0.0125918
728.035	0.0132846
728.113	0.0141965
728.192	0.0150044
728.270	0.0156838
728.348	0.0165237
728.426	0.0173320
728.504	0.0180235
728.582	0.0185496
728.660	0.0189793
728.738	0.0195519
728.817	0.0199842
728.895	0.0202044
728.973	0.0204417
729.051	0.0204992
729.129	0.0207110
729.207	0.0209740
729.285	0.0208458
729.363	0.0209963
729.442	0.0210572
729.520	0.0209924
729.598	0.0210614
729.676	0.0212619
729.754	0.0213680
729.832	0.0216757
729.910	0.0221121
729.988	0.0223422
730.067	0.0227964
730.145	0.0232236
730.223	0.0236345
730.301	0.0240185
730.379	0.0242903
730.457	0.0244432
730.535	0.0244715
730.613	0.0245992
730.692	0.0245270
730.770	0.0242535
730.848	0.0238046
730.926	0.0231908
731.004	0.0228074
731.082	0.0220642
731.160	0.0213203
731.238	0.0207107
731.317	0.0199576
731.395	0.0194131
731.473	0.0188747
731.551	0.0182894
731.629	0.0179990
731.707	0.0176014
731.785	0.0176129
731.863	0.0172756
731.942	0.0172720
732.020	0.0173125
732.098	0.0174446
732.176	0.0175978
732.254	0.0176980
732.332	0.0177435
732.410	0.0178167
732.488	0.0179452
732.567	0.0179932
732.645	0.0179300
732.723	0.0178132
732.801	0.0178410
732.879	0.0175725
732.957	0.0172125
733.035	0.0168982
733.113	0.0166473
733.192	0.0161066
733.270	0.0155322
733.348	0.0151858
733.426	0.0146781
733.504	0.0140945
733.582	0.0136243
733.660	0.0134106
733.738	0.0129726
733.817	0.0128628
733.895	0.0125674
733.973	0.0124733
734.051	0.0125713
734.129	0.0126643
734.207	0.0126463
734.285	0.0131007
734.363	0.0133477
734.442	0.0138387
734.520	0.0140430
734.598	0.0148603
734.676	0.0152806
734.754	0.0157748
734.832	0.0163226
734.910	0.0170673
734.988	0.0176925
735.067	0.0182631
735.145	0.0189335
735.223	0.0195292
735.301	0.0199191
735.379	0.0204520
735.457	0.0209363
735.535	0.0214917
735.613	0.0217458
735.692	0.0220699
735.770	0.0223106
735.848	0.0224471
735.926	0.0225514
736.004	0.0226220
736.082	0.0225402
736.160	0.0226341
736.238	0.0224918
736.317	0.0224884
736.395	0.0222757
736.473	0.0224358
736.551	0.0221931
736.629	0.0220609
736.707	0.0219544
736.785	0.0217288
736.863	0.0216271
736.942	0.0216451
737.020	0.0212686
737.098	0.0213044
737.176	0.0211513
737.254	0.0210498
737.332	0.0208221
737.410	0.0208415
737.488	0.0206253
737.567	0.0203602
737.645	0.0201906
737.723	0.0200715
737.801	0.0197902
737.879	0.0195959
737.957	0.0193526
738.035	0.0191911
738.113	0.0189772
738.192	0.0188046
738.270	0.0188306
738.348	0.0190771
738.426	0.0188904
738.504	0.0189487
738.582	0.0190752
738.660	0.0191731
738.738	0.0190578
738.817	0.0190303
738.895	0.0188689
738.973	0.0187061
739.051	0.0186395
739.129	0.0182153
739.207	0.0179267
739.285	0.0176512
739.363	0.0172346
739.442	0.0167195
739.520	0.0163927
739.598	0.0161450
739.676	0.0156946
739.754	0.0152704
739.832	0.0150375
739.910	0.0149927
739.988	0.0147716
740.067	0.0147654
740.145	0.0147371
740.223	0.0144463
740.301	0.0145689
740.379	0.0145974
740.457	0.0144912
740.535	0.0145164
740.613	0.0145667
740.692	0.0146085
740.770	0.0145369
740.848	0.0145243
740.926	0.0146152
741.004	0.0146843
741.082	0.0147906
741.160	0.0149413
741.238	0.0150912
741.317	0.0155139
741.395	0.0158401
741.473	0.0162747
741.551	0.0167874
741.629	0.0173014
741.707	0.0178269
741.785	0.0184557
741.863	0.0189982
741.942	0.0196196
742.020	0.0201335
742.098	0.0207600
742.176	0.0211600
742.254	0.0215530
742.332	0.0219875
742.410	0.0220978
742.488	0.0222134
742.567	0.0224535
742.645	0.0224157
742.723	0.0222820
742.801	0.0219411
742.879	0.0219283
742.957	0.0216612
743.035	0.0215730
743.113	0.0213125
743.192	0.0210280
743.270	0.0208000
743.348	0.0207777
743.426	0.0207816
743.504	0.0208089
743.582	0.0206066
743.660	0.0206033
743.738	0.0206924
743.817	0.0206886
743.895	0.0206264
743.973	0.0206158
744.051	0.0204361
744.129	0.0202629
744.207	0.0201346
744.285	0.0201303
744.363	0.0198744
744.442	0.0197228
744.520	0.0194875
744.598	0.0193726
744.676	0.0193868
744.754	0.0191466
744.832	0.0190955
744.910	0.0191880
744.988	0.0191266
745.067	0.0190884
745.145	0.0191287
745.223	0.0191747
745.301	0.0192046
745.379	0.0192541
745.457	0.0190089
745.535	0.0191750
745.613	0.0189043
745.692	0.0186343
745.770	0.0183990
745.848	0.0181595
745.926	0.0178824
746.004	0.0176765
746.082	0.0172871
746.160	0.0169661
746.238	0.0167213
746.317	0.0164798
746.395	0.0163239
746.473	0.0160918
746.551	0.0158170
746.629	0.0156675
746.707	0.0156379
746.785	0.0156586
746.863	0.0153827
746.942	0.0153012
747.020	0.0153013
747.098	0.0152481
747.176	0.0152068
747.254	0.0150158
747.332	0.0150606
747.410	0.0152500
747.488	0.0151291
747.567	0.0154607
747.645	0.0156653
747.723	0.0158291
747.801	0.0160290
747.879	0.0163923
747.957	0.0167654
748.035	0.0170910
748.113	0.0173621
748.192	0.0174638
748.270	0.0177755
748.348	0.0180885
748.426	0.0183746
748.504	0.0185135
748.582	0.0186205
748.660	0.0186619
748.738	0.0188640
748.817	0.0189883
748.895	0.0189439
748.973	0.0190617
749.051	0.0192701
749.129	0.0193216
749.207	0.0193726
749.285	0.0196385
749.363	0.0198249
749.442	0.0200669
749.520	0.0203466
749.598	0.0206539
749.676	0.0210072
749.754	0.0212517
749.832	0.0215693
749.910	0.0216340
749.988	0.0219917
750.067	0.0219381
750.145	0.0219645
750.223	0.0219711
750.301	0.0217283
750.379	0.0214957
750.457	0.0213306
750.535	0.0209776
750.613	0.0204507
750.692	0.0200678
750.770	0.0197919
750.848	0.0195087
750.926	0.0191321
751.004	0.0189108
751.082	0.0187367
751.160	0.0187438
751.238	0.0186060
751.317	0.0187338
751.395	0.0187985
751.473	0.0189497
751.551	0.0189883
751.629	0.0191834
751.707	0.0194587
751.785	0.0194408
751.863	0.0196371
751.942	0.0196597
752.020	0.0197132
752.098	0.0196335
752.176	0.0195486
752.254	0.0195428
752.332	0.0192050
752.410	0.0191177
752.488	0.0188017
752.567	0.0185461
752.645	0.0182507
752.723	0.0179142
752.801	0.0177296
752.879	0.0174879
752.957	0.0172648
753.035	0.0170002
753.113	0.0166924
753.192	0.0165373
753.270	0.0163183
753.348	0.0162740
753.426	0.0161002
753.504	0.0158592
753.582	0.0161503
753.660	0.0161250
753.738	0.0160332
753.817	0.0160837
753.895	0.0162870
753.973	0.0164116
754.051	0.0165219
754.129	0.0166537
754.207	0.0167616
754.285	0.0169717
754.363	0.0172119
754.442	0.0171964
754.520	0.0172494
754.598	0.0173357
754.676	0.0172981
754.754	0.0172957
754.832	0.0174450
754.910	0.0173328
754.988	0.0173494
755.067	0.0173679
755.145	0.0174319
755.223	0.0173786
755.301	0.0172939
755.379	0.0173201
755.457	0.0175478
755.535	0.0176823
755.613	0.0177695
755.692	0.0178365
755.770	0.0181420
755.848	0.0184336
755.926	0.0185862
756.004	0.0189486
756.082	0.0192535
756.160	0.0194217
756.238	0.0195688
756.317	0.0198690
756.395	0.0200999
756.473	0.0202269
756.551	0.0202287
756.629	0.0202579
756.707	0.0201161
756.785	0.0200374
756.863	0.0200383
756.942	0.0198964
757.020	0.0197268
757.098	0.0198092
757.176	0.0197411
757.254	0.0197477
757.332	0.0194966
757.410	0.0196108
757.488	0.0196875
757.567	0.0196961
757.645	0.0196685
757.723	0.0198129
757.801	0.0200876
757.879	0.0201686
757.957	0.0202917
758.035	0.0203944
758.113	0.0206639
758.192	0.0207292
758.270	0.0207005
758.348	0.0205630
758.426	0.0204881
758.504	0.0204023
758.582	0.0201762
758.660	0.0198686
758.738	0.0196135
758.817	0.0193925
758.895	0.0190741
758.973	0.0186343
759.051	0.0183755
759.129	0.0181089
759.207	0.0179800
759.285	0.0175809
759.363	0.0174516
759.442	0.0174211
759.520	0.0173261
759.598	0.0172599
759.676	0.0172316
759.754	0.0174186
759.832	0.0174277
759.910	0.0175212
759.988	0.0176551
760.067	0.0178503
760.145	0.0179323
760.223	0.0180788
760.301	0.0182365
760.379	0.0182556
760.457	0.0184867
760.535	0.0184536
760.613	0.0183288
760.692	0.0182636
760.770	0.0181253
760.848	0.0180577
760.926	0.0178089
761.004	0.0176326
761.082	0.0173236
761.160	0.0171204
761.238	0.0169398
761.317	0.0166807
761.395	0.0164569
761.473	0.0162341
761.551	0.0161899
761.629	0.0163506
761.707	0.0162439
761.785	0.0164623
761.863	0.0166802
761.942	0.0169612
762.020	0.0170430
762.098	0.0173252
762.176	0.0176905
762.254	0.0180325
762.332	0.0183028
762.410	0.0183595
762.488	0.0185133
762.567	0.0186575
762.645	0.0188496
762.723	0.0187912
762.801	0.0186590
762.879	0.0185867
762.957	0.0185749
763.035	0.0185282
763.113	0.0182730
763.192	0.0182719
763.270	0.0182447
763.348	0.0182565
763.426	0.0181753
763.504	0.0182377
763.582	0.0183040
763.660	0.0184344
763.738	0.0184126
763.817	0.0187151
763.895	0.0188743
763.973	0.0190639
764.051	0.0192901
764.129	0.0194869
764.207	0.0198097
764.285	0.0199725
764.363	0.0201932
764.442	0.0204450
764.520	0.0206689
764.598	0.0207752
764.676	0.0209100
764.754	0.0208469
764.832	0.0208501
764.910	0.0205077
764.988	0.0203575
765.067	0.0200667
765.145	0.0199928
765.223	0.0197166
765.301	0.0193410
765.379	0.0190044
765.457	0.0187451
765.535	0.0183723
765.613	0.0182204
765.692	0.0180714
765.770	0.0180386
765.848	0.0180523
765.926	0.0179636
766.004	0.0180758
766.082	0.0182516
766.160	0.0183889
766.238	0.0185951
766.317	0.0186639
766.395	0.0189685
766.473	0.0191821
766.551	0.0193651
766.629	0.0192593
766.707	0.0195126
766.785	0.0194537
766.863	0.0194898
766.942	0.0195307
767.020	0.0194012
767.098	0.0193558
767.176	0.0191229
767.254	0.0189022
767.332	0.0187579
767.410	0.0183941
767.488	0.0182852
767.567	0.0178200
767.645	0.0177547
767.723	0.0175329
767.801	0.0173200
767.879	0.0170903
767.957	0.0169531
768.035	0.0168069
768.113	0.0169086
768.192	0.0168444
768.270	0.0169372
768.348	0.0169633
768.426	0.0171802
768.504	0.0172834
768.582	0.0175194
768.660	0.0177259
768.738	0.0177013
768.817	0.0178725
768.895	0.0178617
768.973	0.0180486
769.051	0.0182084
769.129	0.0180017
769.207	0.0179082
769.285	0.0177174
769.363	0.0177230
769.442	0.0174798
769.520	0.0175259
769.598	0.0173104
769.676	0.0173524
769.754	0.0172891
769.832	0.0171341
769.910	0.0170168
769.988	0.0172314
770.067	0.0173549
770.145	0.0174220
770.223	0.0175921
770.301	0.0178557
770.379	0.0181046
770.457	0.0182596
770.535	0.0184736
770.613	0.0187057
770.692	0.0191517
770.770	0.0192932
770.848	0.0195203
770.926	0.0196954
771.004	0.0198538
771.082	0.0199934
771.160	0.0198523
771.238	0.0197588
771.317	0.0197965
771.395	0.0195043
771.473	0.0195359
771.551	0.0193585
771.629	0.0191702
771.707	0.0189325
771.785	0.0187753
771.863	0.0187527
771.942	0.0187212
772.020	0.0187531
772.098	0.0187247
772.176	0.0187174
772.254	0.0187678
772.332	0.0188602
772.410	0.0188126
772.488	0.0192429
772.567	0.0191944
772.645	0.0193931
772.723	0.0195476
772.801	0.0196140
772.879	0.0198493
772.957	0.0201677
773.035	0.0199997
773.113	0.0201086
773.192	0.0201035
773.270	0.0200451
773.348	0.0201149
773.426	0.0202699
773.504	0.0199721
773.582	0.0198179
773.660	0.0197350
773.738	0.0195506
773.817	0.0193437
773.895	0.0190446
773.973	0.0188554
774.051	0.0186456
774.129	0.0183451
774.207	0.0180724
774.285	0.0180318
774.363	0.0177090
774.442	0.0175781
774.520	0.0174348
774.598	0.0175364
774.676	0.0175056
774.754	0.0175244
774.832	0.0175886
774.910	0.0175548
774.988	0.0177692
775.067	0.0179575
775.145	0.0178669
775.223	0.0180331
775.301	0.0181796
775.379	0.0181284
775.457	0.0181930
775.535	0.0181995
775.613	0.0183596
775.692	0.0182285
775.770	0.0181958
775.848	0.0180496
775.926	0.0179774
776.004	0.0179457
776.082	0.0179280
776.160	0.0176688
776.238	0.0175706
776.317	0.0175497
776.395	0.0175279
776.473	0.0173456
776.551	0.0174339
776.629	0.0175614
776.707	0.0174889
776.785	0.0172927
776.863	0.0175005
776.942	0.0175615
777.020	0.0175795
777.098	0.0178989
777.176	0.0179443
777.254	0.0179732
777.332	0.0181120
777.410	0.0182007
777.488	0.0182471
777.567	0.0183393
777.645	0.0183076
777.723	0.0183429
777.801	0.0183697
777.879	0.0184166
777.957	0.0183836
778.035	0.0181596
778.113	0.0182291
778.192	0.0183401
778.270	0.0182544
778.348	0.0183064
778.426	0.0183099
778.504	0.0183308
778.582	0.0181885
778.660	0.0183055
778.738	0.0186152
778.817	0.0185905
778.895	0.0187567
778.973	0.0189578
779.051	0.0190678
779.129	0.0192416
779.207	0.0193956
779.285	0.0194168
779.363	0.0197395
779.442	0.0197097
779.520	0.0198020
779.598	0.0199870
779.676	0.0200264
779.754	0.0200991
779.832	0.0200574
779.910	0.0200832
779.988	0.0200110
780.067	0.0199406
780.145	0.0198239
780.223	0.0199132
780.301	0.0196760
780.379	0.0195453
780.457	0.0194915
780.535	0.0194725
780.613	0.0192001
780.692	0.0191545
780.770	0.0190823
780.848	0.0189717
780.926	0.0188114
781.004	0.0189611
781.082	0.0186637
781.160	0.0186857
781.238	0.0187619
781.317	0.0185876
781.395	0.0185861
781.473	0.0185914
781.551	0.0183908
781.629	0.0183736
781.707	0.0184174
781.785	0.0181853
781.863	0.0182014
781.942	0.0183625
782.020	0.0182539
782.098	0.0181599
782.176	0.0181872
782.254	0.0181167
782.332	0.0180426
782.410	0.0180730
782.488	0.0181236
782.567	0.0180329
782.645	0.0179697
782.723	0.0180192
782.801	0.0179964
782.879	0.0179150
782.957	0.0179933
783.035	0.0180582
783.113	0.0180148
783.192	0.0180585
783.270	0.0179184
783.348	0.0180630
783.426	0.0179062
783.504	0.0177914
783.582	0.0178677
783.660	0.0178514
783.738	0.0176173
783.817	0.0175453
783.895	0.0175610
783.973	0.0174908
784.051	0.0173006
784.129	0.0172739
784.207	0.0174187
784.285	0.0173418
784.363	0.0174529
784.442	0.0174967
784.520	0.0176286
784.598	0.0175301
784.676	0.0177282
784.754	0.0178822
784.832	0.0179221
784.910	0.0178624
784.988	0.0181289
785.067	0.0182456
785.145	0.0183815
785.223	0.0184148
785.301	0.0183497
785.379	0.0183717
785.457	0.0185316
785.535	0.0186004
785.613	0.0185708
785.692	0.0187693
785.770	0.0186256
785.848	0.0187671
785.926	0.0187744
786.004	0.0189668
786.082	0.0188206
786.160	0.0188099
786.238	0.0189142
786.317	0.0189091
786.395	0.0189651
786.473	0.0190910
786.551	0.0190632
786.629	0.0191322
786.707	0.0191798
786.785	0.0192908
786.863	0.0192312
786.942	0.0194268
787.020	0.0193341
787.098	0.0194651
787.176	0.0195617
787.254	0.0196352
787.332	0.0195081
787.410	0.0195202
787.488	0.0196231
787.567	0.0194225
787.645	0.0193812
787.723	0.0194809
787.801	0.0192605
787.879	0.0191563
787.957	0.0192579
788.035	0.0192352
788.113	0.0188840
788.192	0.0187826
788.270	0.0188448
788.348	0.0188220
788.426	0.0187535
788.504	0.0188051
788.582	0.0188630
788.660	0.0187895
788.738	0.0186124
788.817	0.0187133
788.895	0.0186867
788.973	0.0186671
789.051	0.0186847
789.129	0.0185766
789.207	0.0185577
789.285	0.0184409
789.363	0.0184443
789.442	0.0184740
789.520	0.0182355
789.598	0.0182368
789.676	0.0181725
789.754	0.0180813
789.832	0.0179436
789.910	0.0180181
789.988	0.0179212
790.067	0.0177552
790.145	0.0176952
790.223	0.0176482
790.301	0.0176334
790.379	0.0175945
790.457	0.0176541
790.535	0.0176109
790.613	0.0176472
790.692	0.0177579
790.770	0.0177422
790.848	0.0178121
790.926	0.0181411
791.004	0.0181387
791.082	0.0182626
791.160	0.0183955
791.238	0.0185162
791.317	0.0183687
791.395	0.0187292
791.473	0.0186839
791.551	0.0187347
791.629	0.0186679
791.707	0.0185403
791.785	0.0184630
791.863	0.0183569
791.942	0.0182306
792.020	0.0183378
792.098	0.0179552
792.176	0.0180380
792.254	0.0179025
792.332	0.0177103
792.410	0.0175939
792.488	0.0175763
792.567	0.0175726
792.645	0.0176133
792.723	0.0175287
792.801	0.0175180
792.879	0.0176961
792.957	0.0177469
793.035	0.0177305
793.113	0.0180169
793.192	0.0180621
793.270	0.0182713
793.348	0.0184624
793.426	0.0186249
793.504	0.0187399
793.582	0.0188534
793.660	0.0189796
793.738	0.0191354
793.817	0.0191742
793.895	0.0192368
793.973	0.0192451
794.051	0.0192721
794.129	0.0192927
794.207	0.0192551
794.285	0.0191483
794.363	0.0191223
794.442	0.0191965
794.520	0.0189304
794.598	0.0191582
794.676	0.0191950
794.754	0.0190888
794.832	0.0192170
794.910	0.0193176
794.988	0.0193511
795.067	0.0191183
795.145	0.0192085
795.223	0.0191891
795.301	0.0191977
795.379	0.0190821
795.457	0.0190292
795.535	0.0191432
795.613	0.0189506
795.692	0.0188400
795.770	0.0188398
795.848	0.0186213
795.926	0.0186742
796.004	0.0186800
796.082	0.0184093
796.160	0.0185123
796.238	0.0185922
796.317	0.0183762
796.395	0.0184474
796.473	0.0184795
796.551	0.0184222
796.629	0.0184500
796.707	0.0182343
796.785	0.0183178
796.863	0.0182912
796.942	0.0184531
797.020	0.0185283
797.098	0.0186028
797.176	0.0185405
797.254	0.0186010
797.332	0.0187055
797.410	0.0187231
797.488	0.0187624
797.567	0.0187392
797.645	0.0187398
797.723	0.0187607
797.801	0.0186650
797.879	0.0186616
797.957	0.0186440
798.035	0.0185266
798.113	0.0184472
798.192	0.0184171
798.270	0.0184451
798.348	0.0182581
798.426	0.0181449
798.504	0.0181560
798.582	0.0180838
798.660	0.0179589
798.738	0.0180649
798.817	0.0180154
798.895	0.0179607
798.973	0.0178639
799.051	0.0179119
799.129	0.0178635
799.207	0.0179100
799.285	0.0178116
799.363	0.0179855
799.442	0.0178779
799.520	0.0179542
799.598	0.0179077
799.676	0.0179748
799.754	0.0179482
799.832	0.0179844
799.910	0.0180688
799.988	0.0181259
800.067	0.0179736
800.145	0.0178784
800.223	0.0180082
800.301	0.0179782
800.379	0.0179752
800.457	0.0180108
800.535	0.0179079
800.613	0.0180107
800.692	0.0179082
800.770	0.0180116
800.848	0.0179127
800.926	0.0179301
801.004	0.0184657
801.082	0.0182463
801.160	0.0181157
801.238	0.0183223
801.317	0.0185419
801.395	0.0185633
801.473	0.0187140
801.551	0.0187815
801.629	0.0190631
801.707	0.0190464
801.785	0.0191814
801.863	0.0193962
801.942	0.0194242
802.020	0.0194211
802.098	0.0196094
802.176	0.0196008
802.254	0.0196477
802.332	0.0196394
802.410	0.0196221
802.488	0.0195315
802.567	0.0195261
802.645	0.0193841
802.723	0.0194756
802.801	0.0194964
802.879	0.0192600
802.957	0.0192139
803.035	0.0190910
803.113	0.0189909
803.192	0.0190578
803.270	0.0189860
803.348	0.0190304
803.426	0.0189665
803.504	0.0187725
803.582	0.0189098
803.660	0.0190338
803.738	0.0189445
803.817	0.0190115
803.895	0.0188330
803.973	0.0189309
804.051	0.0188319
804.129	0.0189977
804.207	0.0189320
804.285	0.0189527
804.363	0.0186284
804.442	0.0187794
804.520	0.0187214
804.598	0.0187598
804.676	0.0185849
804.754	0.0183804
804.832	0.0183700
804.910	0.0183803
804.988	0.0180008
805.067	0.0180292
805.145	0.0179750
805.223	0.0178101
805.301	0.0176865
805.379	0.0175655
805.457	0.0175978
805.535	0.0176020
805.613	0.0175179
805.692	0.0172621
805.770	0.0173832
805.848	0.0173690
805.926	0.0173240
806.004	0.0173759
806.082	0.0174006
806.160	0.0175865
806.238	0.0175589
806.317	0.0176191
806.395	0.0176742
806.473	0.0175555
806.551	0.0177590
806.629	0.0179628
806.707	0.0178700
806.785	0.0179204
806.863	0.0180450
806.942	0.0179390
807.020	0.0178925
807.098	0.0180440
807.176	0.0181667
807.254	0.0182887
807.332	0.0182772
807.410	0.0183772
807.488	0.0184908
807.567	0.0185552
807.645	0.0185130
807.723	0.0185871
807.801	0.0188347
807.879	0.0188557
807.957	0.0190696
808.035	0.0191106
808.113	0.0191547
808.192	0.0193391
808.270	0.0192495
808.348	0.0192464
808.426	0.0193928
808.504	0.0194485
808.582	0.0193111
808.660	0.0193528
808.738	0.0194245
808.817	0.0193516
808.895	0.0194032
808.973	0.0192740
809.051	0.0192219
809.129	0.0189700
809.207	0.0188601
809.285	0.0189575
809.363	0.0187039
809.442	0.0186113
809.520	0.0186658
809.598	0.0185207
809.676	0.0185098
809.754	0.0183705
809.832	0.0182835
809.910	0.0184046
809.988	0.0184377
810.067	0.0184743
810.145	0.0186301
810.223	0.0186347
810.301	0.0185392
810.379	0.0184729
810.457	0.0185015
810.535	0.0187415
810.613	0.0186330
810.692	0.0186337
810.770	0.0186957
810.848	0.0185355
810.926	0.0185657
811.004	0.0184566
811.082	0.0183025
811.160	0.0183157
811.238	0.0182925
811.317	0.0181735
811.395	0.0180782
811.473	0.0180869
811.551	0.0180682
811.629	0.0179582
811.707	0.0179916
811.785	0.0179189
811.863	0.0179980
811.942	0.0180029
812.020	0.0178896
812.098	0.0179417
812.176	0.0181278
812.254	0.0181294
812.332	0.0181649
812.410	0.0182537
812.488	0.0184172
812.567	0.0184818
812.645	0.0184966
812.723	0.0184971
812.801	0.0185938
812.879	0.0187016
812.957	0.0188172
813.035	0.0187575
813.113	0.0186692
813.192	0.0186179
813.270	0.0186913
813.348	0.0187748
813.426	0.0187073
813.504	0.0187125
813.582	0.0187735
813.660	0.0185704
813.738	0.0186124
813.817	0.0186111
813.895	0.0186622
813.973	0.0186762
814.051	0.0187326
814.129	0.0186906
814.207	0.0186864
814.285	0.0187002
814.363	0.0188073
814.442	0.0188417
814.520	0.0188957
814.598	0.0189191
814.676	0.0187886
814.754	0.0187904
814.832	0.0188963
814.910	0.0189393
814.988	0.0187200
815.067	0.0188903
815.145	0.0187140
815.223	0.0187552
815.301	0.0187746
815.379	0.0186617
815.457	0.0185490
815.535	0.0184101
815.613	0.0184387
815.692	0.0183125
815.770	0.0182231
815.848	0.0180387
815.926	0.0180786
816.004	0.0179685
816.082	0.0178068
816.160	0.0179829
816.238	0.0178133
816.317	0.0179112
816.395	0.0178975
816.473	0.0178526
816.551	0.0176829
816.629	0.0177468
816.707	0.0177574
816.785	0.0177751
816.863	0.0178928
816.942	0.0177803
817.020	0.0178319
817.098	0.0178741
817.176	0.0180109
817.254	0.0178841
817.332	0.0179447
817.410	0.0181548
817.488	0.0180597
817.567	0.0181953
817.645	0.0183659
817.723	0.0185539
817.801	0.0184732
817.879	0.0185209
817.957	0.0184723
818.035	0.0185780
818.113	0.0185382
818.192	0.0185216
818.270	0.0186552
818.348	0.0188177
818.426	0.0186022
818.504	0.0188382
818.582	0.0187270
818.660	0.0186284
818.738	0.0186788
818.817	0.0188321
818.895	0.0187247
818.973	0.0187595
819.051	0.0188802
819.129	0.0187804
819.207	0.0189619
819.285	0.0190610
819.363	0.0190348
819.442	0.0191257
819.520	0.0192213
819.598	0.0194079
819.676	0.0192066
819.754	0.0192401
819.832	0.0193333
819.910	0.0193495
819.988	0.0193996
820.067	0.0194547
820.145	0.0194704
820.223	0.0192577
820.301	0.0193054
820.379	0.0191599
820.457	0.0191614
820.535	0.0191975
820.613	0.0191350
820.692	0.0190745
820.770	0.0189803
820.848	0.0188839
820.926	0.0186939
821.004	0.0186028
821.082	0.0185856
821.160	0.0184855
821.238	0.0184108
821.317	0.0181731
821.395	0.0182851
821.473	0.0182542
821.551	0.0180097
821.629	0.0179700
821.707	0.0179417
821.785	0.0179556
821.863	0.0179011
821.942	0.0180470
822.020	0.0179855
822.098	0.0179678
822.176	0.0179598
822.254	0.0178886
822.332	0.0179774
822.410	0.0179774
822.488	0.0178960
822.567	0.0180321
822.645	0.0178946
822.723	0.0180354
822.801	0.0179934
822.879	0.0178861
822.957	0.0179545
823.035	0.0180082
823.113	0.0179904
823.192	0.0179020
823.270	0.0179507
823.348	0.0178427
823.426	0.0178015
823.504	0.0178774
823.582	0.0176682
823.660	0.0175330
823.738	0.0176173
823.817	0.0176892
823.895	0.0178259
823.973	0.0179350
824.051	0.0178389
824.129	0.0178592
824.207	0.0180053
824.285	0.0180161
824.363	0.0180493
824.442	0.0182395
824.520	0.0181969
824.598	0.0182485
824.676	0.0184246
824.754	0.0184635
824.832	0.0185177
824.910	0.0185512
824.988	0.0186163
825.067	0.0185983
825.145	0.0187934
825.223	0.0189022
825.301	0.0190057
825.379	0.0190074
825.457	0.0190230
825.535	0.0188814
825.613	0.0190707
825.692	0.0191321
825.770	0.0192018
825.848	0.0193346
825.926	0.0192960
826.004	0.0193054
826.082	0.0193317
826.160	0.0192958
826.238	0.0193516
826.317	0.0194553
826.395	0.0195573
826.473	0.0195894
826.551	0.0195409
826.629	0.0195787
826.707	0.0196211
826.785	0.0194746
826.863	0.0195065
826.942	0.0195203
827.020	0.0195085
827.098	0.0193819
827.176	0.0192243
827.254	0.0192854
827.332	0.0191941
827.410	0.0189822
827.488	0.0190443
827.567	0.0188084
827.645	0.0186987
827.723	0.0186147
827.801	0.0186778
827.879	0.0184795
827.957	0.0184910
828.035	0.0184402
828.113	0.0184322
828.192	0.0183327
828.270	0.0184396
828.348	0.0184297
828.426	0.0182442
828.504	0.0182702
828.582	0.0182321
828.660	0.0182052
828.738	0.0180743
828.817	0.0182515
828.895	0.0180399
828.973	0.0180037
829.051	0.0178792
829.129	0.0179680
829.207	0.0178196
829.285	0.0176918
829.363	0.0176228
829.442	0.0174976
829.520	0.0174532
829.598	0.0174226
829.676	0.0173564
829.754	0.0173051
829.832	0.0172451
829.910	0.0171969
829.988	0.0172921
830.067	0.0173438
830.145	0.0172647
830.223	0.0173182
830.301	0.0173946
830.379	0.0175761
830.457	0.0176194
830.535	0.0177279
830.613	0.0178002
830.692	0.0179086
830.770	0.0179677
830.848	0.0180939
830.926	0.0181533
831.004	0.0183133
831.082	0.0183564
831.160	0.0186036
831.238	0.0186028
831.317	0.0187714
831.395	0.0187797
831.473	0.0187597
831.551	0.0188365
831.629	0.0188375
831.707	0.0188017
831.785	0.0188428
831.863	0.0187533
831.942	0.0189507
832.020	0.0189728
832.098	0.0188390
832.176	0.0187181
832.254	0.0188034
832.332	0.0188845
832.410	0.0188239
832.488	0.0189126
832.567	0.0190818
832.645	0.0189198
832.723	0.0189318
832.801	0.0189746
832.879	0.0190430
832.957	0.0191899
833.035	0.0190653
833.113	0.0191869
833.192	0.0192149
833.270	0.0192168
833.348	0.0192977
833.426	0.0193980
833.504	0.0193892
833.582	0.0192919
833.660	0.0193579
833.738	0.0193204
833.817	0.0193987
833.895	0.0193094
833.973	0.0193318
834.051	0.0192664
834.129	0.0192931
834.207	0.0190437
834.285	0.0190038
834.363	0.0190198
834.442	0.0188028
834.520	0.0188084
834.598	0.0188552
834.676	0.0187758
834.754	0.0188174
834.832	0.0184847
834.910	0.0185054
834.988	0.0185181
835.067	0.0185398
835.145	0.0182498
835.223	0.0183990
835.301	0.0183437
835.379	0.0183241
835.457	0.0184000
835.535	0.0182365
835.613	0.0182158
835.692	0.0181286
835.770	0.0180630
835.848	0.0179344
835.926	0.0180112
836.004	0.0179493
836.082	0.0180246
836.160	0.0178607
836.238	0.0177470
836.317	0.0177551
836.395	0.0176241
836.473	0.0176244
836.551	0.0177946
836.629	0.0176633
836.707	0.0176302
836.785	0.0176402
836.863	0.0176112
836.942	0.0176492
837.020	0.0174892
837.098	0.0177770
837.176	0.0179026
837.254	0.0177761
837.332	0.0177840
837.410	0.0179297
837.488	0.0180407
837.567	0.0179932
837.645	0.0181702
837.723	0.0182702
837.801	0.0182787
837.879	0.0183201
837.957	0.0184590
838.035	0.0184518
838.113	0.0186932
838.192	0.0185840
838.270	0.0186973
838.348	0.0187754
838.426	0.0189016
838.504	0.0187946
838.582	0.0188905
838.660	0.0189125
838.738	0.0187906
838.817	0.0188499
838.895	0.0189555
838.973	0.0188087
839.051	0.0187959
839.129	0.0187122
839.207	0.0187148
839.285	0.0186813
839.363	0.0187037
839.442	0.0187624
839.520	0.0186957
839.598	0.0186771
839.676	0.0187798
839.754	0.0187379
839.832	0.0187505
839.910	0.0188351
839.988	0.0188507
840.067	0.0190336
840.145	0.0188908
840.223	0.0188904
840.301	0.0189115
840.379	0.0189599
840.457	0.0189588
840.535	0.0188035
840.613	0.0190038
840.692	0.0188972
840.770	0.0188431
840.848	0.0187734
840.926	0.0189831
841.004	0.0189131
841.082	0.0188677
841.160	0.0187239
841.238	0.0186140
841.317	0.0186652
841.395	0.0186991
841.473	0.0187102
841.551	0.0185854
841.629	0.0184858
841.707	0.0184251
841.785	0.0184901
841.863	0.0184409
841.942	0.0183725
842.020	0.0183819
842.098	0.0183533
842.176	0.0182327
842.254	0.0182922
842.332	0.0183754
842.410	0.0181738
842.488	0.0181924
842.567	0.0183051
842.645	0.0182691
842.723	0.0180868
842.801	0.0181037
842.879	0.0180656
842.957	0.0180538
843.035	0.0180914
843.113	0.0180253
843.192	0.0180693
843.270	0.0181068
843.348	0.0180378
843.426	0.0179963
843.504	0.0181564
843.582	0.0181424
843.660	0.0182365
843.738	0.0180966
843.817	0.0183115
843.895	0.0183782
843.973	0.0183845
844.051	0.0183588
844.129	0.0183061
844.207	0.0186069
844.285	0.0184335
844.363	0.0183970
844.442	0.0184145
844.520	0.0184499
844.598	0.0184785
844.676	0.0184375
844.754	0.0184163
844.832	0.0184007
844.910	0.0185038
844.988	0.0183548
845.067	0.0183429
845.145	0.0184063
845.223	0.0182575
845.301	0.0184392
845.379	0.0184122
845.457	0.0182888
845.535	0.0182477
845.613	0.0184313
845.692	0.0184243
845.770	0.0183889
845.848	0.0185129
845.926	0.0185876
846.004	0.0185649
846.082	0.0187250
846.160	0.0187347
846.238	0.0185841
846.317	0.0188155
846.395	0.0189841
846.473	0.0188765
846.551	0.0187758
846.629	0.0187339
846.707	0.0189178
846.785	0.0189115
846.863	0.0187545
846.942	0.0187284
847.020	0.0188241
847.098	0.0187733
847.176	0.0186582
847.254	0.0186747
847.332	0.0185897
847.410	0.0185368
847.488	0.0185490
847.567	0.0184875
847.645	0.0184219
847.723	0.0183855
847.801	0.0182772
847.879	0.0183028
847.957	0.0183647
848.035	0.0183839
848.113	0.0182755
848.192	0.0184334
848.270	0.0183614
848.348	0.0183404
848.426	0.0182760
848.504	0.0184286
848.582	0.0184619
848.660	0.0185288
848.738	0.0186166
848.817	0.0184745
848.895	0.0185550
848.973	0.0185529
849.051	0.0186733
849.129	0.0186152
849.207	0.0185928
849.285	0.0184542
849.363	0.0186314
849.442	0.0186816
849.520	0.0185935
849.598	0.0186286
849.676	0.0186663
849.754	0.0185507
849.832	0.0186359
849.910	0.0186019
849.988	0.0184527
850.067	0.0185354
850.145	0.0185856
850.223	0.0184695
850.301	0.0185620
850.379	0.0184116
850.457	0.0185053
850.535	0.0183685
850.613	0.0184713
850.692	0.0184054
850.770	0.0184842
850.848	0.0186720
850.926	0.0183775
851.004	0.0184565
851.082	0.0185815
851.160	0.0186019
851.238	0.0184074
851.317	0.0187638
851.395	0.0185705
851.473	0.0184557
851.551	0.0186247
851.629	0.0185072
851.707	0.0185142
851.785	0.0184396
851.863	0.0184536
851.942	0.0183965
852.020	0.0183430
852.098	0.0183463
852.176	0.0183493
852.254	0.0183969
852.332	0.0182162
852.410	0.0183762
852.488	0.0183431
852.567	0.0185175
852.645	0.0184326
852.723	0.0184882
852.801	0.0186382
852.879	0.0184899
852.957	0.0183340
853.035	0.0184368
853.113	0.0186463
853.192	0.0184823
853.270	0.0186131
853.348	0.0184968
853.426	0.0185175
853.504	0.0185767
853.582	0.0185862
853.660	0.0185263
853.738	0.0185880
853.817	0.0185535
853.895	0.0183603
853.973	0.0185061
854.051	0.0183370
854.129	0.0183884
854.207	0.0184410
854.285	0.0184869
854.363	0.0184660
854.442	0.0183849
854.520	0.0183942
854.598	0.0183951
854.676	0.0185152
854.754	0.0185587
854.832	0.0185281
854.910	0.0186593
854.988	0.0187541
855.067	0.0184873
855.145	0.0186866
855.223	0.0186970
855.301	0.0186358
855.379	0.0186995
855.457	0.0186961
855.535	0.0187028
855.613	0.0185816
855.692	0.0186432
855.770	0.0186050
855.848	0.0185576
855.926	0.0185701
856.004	0.0185867
856.082	0.0184803
856.160	0.0184824
856.238	0.0183439
856.317	0.0183871
856.395	0.0183865
856.473	0.0184854
856.551	0.0186298
856.629	0.0184531
856.707	0.0184940
856.785	0.0184900
856.863	0.0183552
856.942	0.0186195
857.020	0.0186968
857.098	0.0186240
857.176	0.0185772
857.254	0.0187379
857.332	0.0185302
857.410	0.0185664
857.488	0.0185961
857.567	0.0185313
857.645	0.0185633
857.723	0.0186090
857.801	0.0184804
857.879	0.0186112
857.957	0.0186118
858.035	0.0185119
858.113	0.0185257
858.192	0.0184099
858.270	0.0182803
858.348	0.0182633
858.426	0.0182880
858.504	0.0183640
858.582	0.0183656
858.660	0.0184026
858.738	0.0183317
858.817	0.0183278
858.895	0.0184058
858.973	0.0184969
859.051	0.0183737
859.129	0.0185000
859.207	0.0184764
859.285	0.0184882
859.363	0.0184819
859.442	0.0184340
859.520	0.0184917
859.598	0.0183975
859.676	0.0183742
859.754	0.0184700
859.832	0.0183876
859.910	0.0183882
859.988	0.0183890
860.067	0.0182251
860.145	0.0184082
860.223	0.0182355
860.301	0.0182520
860.379	0.0181798
860.457	0.0184124
860.535	0.0184115
860.613	0.0183534
860.692	0.0184265
860.770	0.0182987
860.848	0.0183791
860.926	0.0183875
861.004	0.0184587
861.082	0.0185600
861.160	0.0185477
861.238	0.0184882
861.317	0.0185822
861.395	0.0187125
861.473	0.0186967
861.551	0.0186674
861.629	0.0188152
861.707	0.0187974
861.785	0.0187492
861.863	0.0186009
861.942	0.0185971
862.020	0.0185163
862.098	0.0186070
862.176	0.0186549
862.254	0.0186128
862.332	0.0185402
862.410	0.0185141
862.488	0.0185475
862.567	0.0185668
862.645	0.0184120
862.723	0.0183635
862.801	0.0184266
862.879	0.0183415
862.957	0.0184261
863.035	0.0184617
863.113	0.0183649
863.192	0.0183800
863.270	0.0185405
863.348	0.0184404
863.426	0.0183234
863.504	0.0183624
863.582	0.0184010
863.660	0.0183192
863.738	0.0182723
863.817	0.0184548
863.895	0.0183509
863.973	0.0183949
864.051	0.0185691
864.129	0.0184586
864.207	0.0183036
864.285	0.0185828
864.363	0.0184654
864.442	0.0183970
864.520	0.0184672
864.598	0.0184167
864.676	0.0184595
864.754	0.0183261
864.832	0.0184209
864.910	0.0185056
864.988	0.0184267
865.067	0.0184045
865.145	0.0185874
865.223	0.0186787
865.301	0.0184769
865.379	0.0184718
865.457	0.0185398
865.535	0.0185849
865.613	0.0184846
865.692	0.0185109
865.770	0.0185760
865.848	0.0184743
865.926	0.0185764
866.004	0.0185677
866.082	0.0185446
866.160	0.0185173
866.238	0.0186471
866.317	0.0185819
866.395	0.0185118
866.473	0.0183943
866.551	0.0185303
866.629	0.0184993
866.707	0.0184786
866.785	0.0185166
866.863	0.0184634
866.942	0.0185119
867.020	0.0185181
867.098	0.0185290
867.176	0.0186343
867.254	0.0184554
867.332	0.0184569
867.410	0.0186282
867.488	0.0184476
867.567	0.0185300
867.645	0.0187561
867.723	0.0187111
867.801	0.0186460
867.879	0.0185292
867.957	0.0186427
868.035	0.0187141
868.113	0.0186720
868.192	0.0185172
868.270	0.0185596
868.348	0.0187849
868.426	0.0187352
868.504	0.0186320
868.582	0.0188598
868.660	0.0186902
868.738	0.0184958
868.817	0.0186173
868.895	0.0186887
868.973	0.0185857
869.051	0.0185623
869.129	0.0182595
869.207	0.0185358
869.285	0.0183752
869.363	0.0183755
869.442	0.0184203
869.520	0.0181903
869.598	0.0182994
869.676	0.0182629
869.754	0.0181386
869.832	0.0182349
869.910	0.0183012
869.988	0.0182917
870.067	0.0182971
870.145	0.0184103
870.223	0.0183385
870.301	0.0182494
870.379	0.0184155
870.457	0.0182686
870.535	0.0183201
870.613	0.0183972
870.692	0.0184008
870.770	0.0185147
870.848	0.0184931
870.926	0.0185701
871.004	0.0183710
871.082	0.0184020
871.160	0.0184286
871.238	0.0183643
871.317	0.0185201
871.395	0.0184921
871.473	0.0182730
871.551	0.0183956
871.629	0.0183974
871.707	0.0182475
871.785	0.0184049
871.863	0.0183048
871.942	0.0183177
872.020	0.0185431
872.098	0.0185567
872.176	0.0185227
872.254	0.0185421
872.332	0.0188145
872.410	0.0188130
872.488	0.0187441
872.567	0.0187057
872.645	0.0187724
872.723	0.0186685
872.801	0.0187090
872.879	0.0188435
872.957	0.0186871
873.035	0.0187138
873.113	0.0187476
873.192	0.0187315
873.270	0.0186489
873.348	0.0186164
873.426	0.0188014
873.504	0.0186741
873.582	0.0186388
873.660	0.0186420
873.738	0.0186259
873.817	0.0184815
873.895	0.0184570
873.973	0.0186269
874.051	0.0185572
874.129	0.0186536
874.207	0.0185374
874.285	0.0184880
874.363	0.0186230
874.442	0.0185608
874.520	0.0185287
874.598	0.0187265
874.676	0.0186947
874.754	0.0185558
874.832	0.0186101
874.910	0.0185851
874.988	0.0186599
875.067	0.0185648
875.145	0.0185645
875.223	0.0186150
875.301	0.0184975
875.379	0.0185928
875.457	0.0185194
875.535	0.0184351
875.613	0.0182947
875.692	0.0183598
875.770	0.0183167
875.848	0.0184671
875.926	0.0182465
876.004	0.0182330
876.082	0.0182768
876.160	0.0182299
876.238	0.0181876
876.317	0.0182702
876.395	0.0181657
876.473	0.0182410
876.551	0.0183257
876.629	0.0182066
876.707	0.0184293
876.785	0.0183646
876.863	0.0184325
876.942	0.0183825
877.020	0.0182973
877.098	0.0184420
877.176	0.0184180
877.254	0.0184169
877.332	0.0185622
877.410	0.0185485
877.488	0.0184707
877.567	0.0185892
877.645	0.0185635
877.723	0.0186542
877.801	0.0186395
877.879	0.0185641
877.957	0.0185223
878.035	0.0186153
878.113	0.0187077
878.192	0.0185289
878.270	0.0186788
878.348	0.0185895
878.426	0.0186729
878.504	0.0186853
878.582	0.0186217
878.660	0.0185838
878.738	0.0186086
878.817	0.0185467
878.895	0.0184473
878.973	0.0185081
879.051	0.0186286
879.129	0.0184876
879.207	0.0183772
879.285	0.0185297
879.363	0.0185081
879.442	0.0185641
879.520	0.0185464
879.598	0.0185568
879.676	0.0185075
879.754	0.0185269
879.832	0.0187125
879.910	0.0185297
879.988	0.0185463
880.067	0.0187344
880.145	0.0184784
880.223	0.0185522
880.301	0.0186706
880.379	0.0185727
880.457	0.0187350
880.535	0.0185764
880.613	0.0186555
880.692	0.0185826
880.770	0.0185697
880.848	0.0186761
880.926	0.0186682
881.004	0.0186700
881.082	0.0186686
881.160	0.0184924
881.238	0.0185406
881.317	0.0186270
881.395	0.0185039
881.473	0.0186475
881.551	0.0184457
881.629	0.0185489
881.707	0.0185213
881.785	0.0185207
881.863	0.0183221
881.942	0.0183978
882.020	0.0184832
882.098	0.0184885
882.176	0.0183450
882.254	0.0182610
882.332	0.0182133
882.410	0.0183409
882.488	0.0182172
882.567	0.0181761
882.645	0.0182304
882.723	0.0182891
882.801	0.0182085
882.879	0.0181754
882.957	0.0180661
883.035	0.0183010
883.113	0.0181202
883.192	0.0181796
883.270	0.0182519
883.348	0.0183260
883.426	0.0183591
883.504	0.0181557
883.582	0.0182526
883.660	0.0183184
883.738	0.0182809
883.817	0.0183731
883.895	0.0184370
883.973	0.0184269
884.051	0.0184332
884.129	0.0184114
884.207	0.0184892
884.285	0.0185650
884.363	0.0186480
884.442	0.0185932
884.520	0.0185601
884.598	0.0187006
884.676	0.0187347
884.754	0.0187337
884.832	0.0187525
884.910	0.0189323
884.988	0.0187865
885.067	0.0189008
885.145	0.0189478
885.223	0.0189770
885.301	0.0190494
885.379	0.0188547
885.457	0.0189425
885.535	0.0189812
885.613	0.0188382
885.692	0.0187742
885.770	0.0187579
885.848	0.0187435
885.926	0.0187000
886.004	0.0186649
886.082	0.0185831
886.160	0.0185006
886.238	0.0184400
886.317	0.0183674
886.395	0.0184265
886.473	0.0183521
886.551	0.0183800
886.629	0.0184418
886.707	0.0183815
886.785	0.0183679
886.863	0.0184008
886.942	0.0182619
887.020	0.0183791
887.098	0.0184173
887.176	0.0183609
887.254	0.0182933
887.332	0.0184122
887.410	0.0183948
887.488	0.0184422
887.567	0.0185056
887.645	0.0185139
887.723	0.0184375
887.801	0.0185718
887.879	0.0183990
887.957	0.0185087
888.035	0.0185322
888.113	0.0184227
888.192	0.0184897
888.270	0.0184985
888.348	0.0184995
888.426	0.0185383
888.504	0.0185355
888.582	0.0185178
888.660	0.0184454
888.738	0.0183732
888.817	0.0184944
888.895	0.0185011
888.973	0.0185039
889.051	0.0184180
889.129	0.0184814
889.207	0.0184474
889.285	0.0184916
889.363	0.0184258
889.442	0.0182059
889.520	0.0183139
889.598	0.0182882
889.676	0.0182251
889.754	0.0182407
889.832	0.0182803
889.910	0.0182087
889.988	0.0181851
890.067	0.0182502
890.145	0.0181379
890.223	0.0181397
890.301	0.0180595
890.379	0.0182166
890.457	0.0182887
890.535	0.0181785
890.613	0.0184141
890.692	0.0183177
890.770	0.0183486
890.848	0.0185187
890.926	0.0185495
891.004	0.0184200
891.082	0.0184155
891.160	0.0184821
891.238	0.0186465
891.317	0.0186092
891.395	0.0186820
891.473	0.0186639
891.551	0.0188280
891.629	0.0187188
891.707	0.0187546
891.785	0.0186768
891.863	0.0187856
891.942	0.0189406
892.020	0.0188400
892.098	0.0189217
892.176	0.0189101
892.254	0.0187881
892.332	0.0188550
892.410	0.0187988
892.488	0.0187056
892.567	0.0186979
892.645	0.0189361
892.723	0.0187982
892.801	0.0186319
892.879	0.0186745
892.957	0.0186880
893.035	0.0187360
893.113	0.0186834
893.192	0.0185585
893.270	0.0186341
893.348	0.0186695
893.426	0.0187955
893.504	0.0186281
893.582	0.0186739
893.660	0.0187629
893.738	0.0186013
893.817	0.0184884
893.895	0.0184986
893.973	0.0186408
894.051	0.0185047
894.129	0.0182603
894.207	0.0182727
894.285	0.0184056
894.363	0.0182619
894.442	0.0184460
894.520	0.0183109
894.598	0.0185229
894.676	0.0184447
894.754	0.0183764
894.832	0.0183374
894.910	0.0184764
894.988	0.0186148
895.067	0.0184003
895.145	0.0184624
895.223	0.0184608
895.301	0.0183980
895.379	0.0182893
895.457	0.0184168
895.535	0.0183485
895.613	0.0181941
895.692	0.0182202
895.770	0.0183545
895.848	0.0182513
895.926	0.0182932
896.004	0.0183116
896.082	0.0183548
896.160	0.0184039
896.238	0.0184748
896.317	0.0185799
896.395	0.0185705
896.473	0.0185378
896.551	0.0184462
896.629	0.0184769
896.707	0.0184995
896.785	0.0184467
896.863	0.0185345
896.942	0.0183592
897.020	0.0183297
897.098	0.0186286
897.176	0.0183667
897.254	0.0182430
897.332	0.0182494
897.410	0.0181626
897.488	0.0181770
897.567	0.0183047
897.645	0.0183805
897.723	0.0181876
897.801	0.0182595
897.879	0.0181158
897.957	0.0182376
898.035	0.0182159
898.113	0.0182338
898.192	0.0182214
898.270	0.0183002
898.348	0.0183627
898.426	0.0183737
898.504	0.0183636
898.582	0.0183456
898.660	0.0185381
898.738	0.0187005
898.817	0.0187460
898.895	0.0188425
898.973	0.0190037
899.051	0.0188971
899.129	0.0188965
899.207	0.0189257
899.285	0.0190318
899.363	0.0191382
899.442	0.0191029
899.520	0.0190061
899.598	0.0190749
899.676	0.0190060
899.754	0.0190292
899.832	0.0191517
899.910	0.0189835
899.988	0.0188786
900.067	0.0189156
900.145	0.0188953
900.223	0.0187608
900.301	0.0188390
900.379	0.0188866
900.457	0.0187663
900.535	0.0186356
900.613	0.0186725
900.692	0.0184087
900.770	0.0184361
900.848	0.0183399
900.926	0.0181841
901.004	0.0183150
901.082	0.0182744
901.160	0.0181333
901.238	0.0179811
901.317	0.0179215
901.395	0.0180726
901.473	0.0180016
901.551	0.0179630
901.629	0.0180096
901.707	0.0179977
901.785	0.0181154
901.863	0.0181554
901.942	0.0181581
902.020	0.0182713
902.098	0.0181692
902.176	0.0183754
902.254	0.0184998
902.332	0.0183945
902.410	0.0185593
902.488	0.0187034
902.567	0.0186714
902.645	0.0186818
902.723	0.0186778
902.801	0.0186948
902.879	0.0186907
902.957	0.0187883
903.035	0.0188303
903.113	0.0188239
903.192	0.0186980
903.270	0.0187289
903.348	0.0186448
903.426	0.0186002
903.504	0.0184618
903.582	0.0184690
903.660	0.0184197
903.738	0.0184346
903.817	0.0183306
903.895	0.0183675
903.973	0.0182401
904.051	0.0181610
904.129	0.0181107
904.207	0.0181034
904.285	0.0180024
904.363	0.0180280
904.442	0.0179280
904.520	0.0179083
904.598	0.0179674
904.676	0.0181173
904.754	0.0181173
904.832	0.0181623
904.910	0.0182898
904.988	0.0184388
905.067	0.0186113
905.145	0.0185452
905.223	0.0186390
905.301	0.0186250
905.379	0.0187351
905.457	0.0189279
905.535	0.0188866
905.613	0.0189117
905.692	0.0190015
905.770	0.0190814
905.848	0.0188722
905.926	0.0188926
906.004	0.0189268
906.082	0.0189381
906.160	0.0189086
906.238	0.0187811
906.317	0.0187333
906.395	0.0188091
906.473	0.0187424
906.551	0.0186137
906.629	0.0185129
906.707	0.0185198
906.785	0.0184702
906.863	0.0184953
906.942	0.0184888
907.020	0.0183981
907.098	0.0184135
907.176	0.0184635
907.254	0.0184139
907.332	0.0183279
907.410	0.0184686
907.488	0.0184476
907.567	0.0183930
907.645	0.0183463
907.723	0.0184534
907.801	0.0183997
907.879	0.0183564
907.957	0.0183853
908.035	0.0183734
908.113	0.0183537
908.192	0.0184087
908.270	0.0184509
908.348	0.0185703
908.426	0.0185246
908.504	0.0186047
908.582	0.0185989
908.660	0.0186470
908.738	0.0187667
908.817	0.0187117
908.895	0.0187408
908.973	0.0187813
909.051	0.0187754
909.129	0.0188338
909.207	0.0188576
909.285	0.0187943
909.363	0.0188443
909.442	0.0189275
909.520	0.0188037
909.598	0.0185999
909.676	0.0187014
909.754	0.0184922
909.832	0.0183061
909.910	0.0183201
909.988	0.0183720
910.067	0.0183749
910.145	0.0183121
910.223	0.0180836
910.301	0.0179291
910.379	0.0181136
910.457	0.0179205
910.535	0.0179891
910.613	0.0178952
910.692	0.0178217
910.770	0.0180170
910.848	0.0180115
910.926	0.0181564
911.004	0.0183071
911.082	0.0183884
911.160	0.0185539
911.238	0.0185722
911.317	0.0185135
911.395	0.0187209
911.473	0.0188202
911.551	0.0189088
911.629	0.0189140
911.707	0.0188602
911.785	0.0190782
911.863	0.0190159
911.942	0.0188980
912.020	0.0190376
912.098	0.0189453
912.176	0.0186877
912.254	0.0186684
912.332	0.0186634
912.410	0.0186747
912.488	0.0184777
912.567	0.0184345
912.645	0.0183270
912.723	0.0182468
912.801	0.0181730
912.879	0.0182637
912.957	0.0182536
913.035	0.0182237
913.113	0.0183210
913.192	0.0181957
913.270	0.0183937
913.348	0.0182922
913.426	0.0184132
913.504	0.0183211
913.582	0.0183139
913.660	0.0185127
913.738	0.0184372
913.817	0.0185442
913.895	0.0184760
913.973	0.0183707
914.051	0.0184775
914.129	0.0184238
914.207	0.0184934
914.285	0.0183755
914.363	0.0184040
914.442	0.0183399
914.520	0.0182575
914.598	0.0183481
914.676	0.0183261
914.754	0.0183968
914.832	0.0183704
914.910	0.0184428
914.988	0.0185462
915.067	0.0186392
915.145	0.0186645
915.223	0.0188419
915.301	0.0188008
915.379	0.0189202
915.457	0.0190391
915.535	0.0191669
915.613	0.0191392
915.692	0.0191122
915.770	0.0192729
915.848	0.0191016
915.926	0.0191063
916.004	0.0191106
916.082	0.0190562
916.160	0.0190335
916.238	0.0186389
916.317	0.0185795
916.395	0.0187547
916.473	0.0187231
916.551	0.0185442
916.629	0.0184252
916.707	0.0184166
916.785	0.0183196
916.863	0.0181962
916.942	0.0182433
917.020	0.0183000
917.098	0.0182476
917.176	0.0182923
917.254	0.0182150
917.332	0.0183288
917.410	0.0182648
917.488	0.0183793
917.567	0.0184087
917.645	0.0184170
917.723	0.0184543
917.801	0.0184734
917.879	0.0185168
917.957	0.0184956
918.035	0.0185515
918.113	0.0186695
918.192	0.0188134
918.270	0.0186453
918.348	0.0185933
918.426	0.0185743
918.504	0.0184779
918.582	0.0186961
918.660	0.0185043
918.738	0.0184412
918.817	0.0184048
918.895	0.0182957
918.973	0.0183695
919.051	0.0182775
919.129	0.0182701
919.207	0.0183218
919.285	0.0182276
919.363	0.0180891
919.442	0.0181250
919.520	0.0182983
919.598	0.0181143
919.676	0.0182500
919.754	0.0183813
919.832	0.0185397
919.910	0.0184764
