06/01/2022	21:29:47	Ver.	4.1	UNKNOWN
Optical Delay	599.988409	Delta X		0.078125	Sweeps	1	Scan Rate	0/0
Coordinates	Axis 1	NaN	Axis 2	NaN	Axis 3	NaN	Axis 4	NaN	Axis 5	NaN	Axis 6	0.000000
TX Power	0.000000	RX Power	0.000000

599.988	0.0180345
600.067	0.0180487
600.145	0.0180902
600.223	0.0181390
600.301	0.0180579
600.379	0.0180569
600.457	0.0179269
600.535	0.0179072
600.613	0.0180716
600.692	0.0179966
600.770	0.0179382
600.848	0.0180753
600.926	0.0178753
601.004	0.0180428
601.082	0.0180769
601.160	0.0178331
601.238	0.0181087
601.317	0.0180463
601.395	0.0180709
601.473	0.0181184
601.551	0.0179958
601.629	0.0180245
601.707	0.0179362
601.785	0.0181049
601.863	0.0179094
601.942	0.0178805
602.020	0.0180155
602.098	0.0179859
602.176	0.0179561
602.254	0.0179919
602.332	0.0180357
602.410	0.0180611
602.488	0.0179124
602.567	0.0179739
602.645	0.0179281
602.723	0.0179099
602.801	0.0179752
602.879	0.0180218
602.957	0.0178952
603.035	0.0180490
603.113	0.0180396
603.192	0.0179700
603.270	0.0180271
603.348	0.0179012
603.426	0.0179093
603.504	0.0181116
603.582	0.0180233
603.660	0.0179321
603.738	0.0180880
603.817	0.0180840
603.895	0.0180488
603.973	0.0180085
604.051	0.0180564
604.129	0.0179103
604.207	0.0180001
604.285	0.0180084
604.363	0.0180357
604.442	0.0180143
604.520	0.0180128
604.598	0.0180869
604.676	0.0180045
604.754	0.0179614
604.832	0.0180072
604.910	0.0180254
604.988	0.0179834
605.067	0.0179886
605.145	0.0180655
605.223	0.0179893
605.301	0.0178762
605.379	0.0180100
605.457	0.0179857
605.535	0.0179267
605.613	0.0180554
605.692	0.0180637
605.770	0.0179848
605.848	0.0179366
605.926	0.0180177
606.004	0.0180639
606.082	0.0179600
606.160	0.0180251
606.238	0.0180772
606.317	0.0179653
606.395	0.0179022
606.473	0.0177914
606.551	0.0179591
606.629	0.0181380
606.707	0.0179791
606.785	0.0179823
606.863	0.0178745
606.942	0.0179330
607.020	0.0178854
607.098	0.0178909
607.176	0.0180022
607.254	0.0179713
607.332	0.0180646
607.410	0.0180372
607.488	0.0181152
607.567	0.0179461
607.645	0.0180643
607.723	0.0180415
607.801	0.0179289
607.879	0.0180907
607.957	0.0180727
608.035	0.0178926
608.113	0.0179153
608.192	0.0180141
608.270	0.0180913
608.348	0.0179650
608.426	0.0178687
608.504	0.0180290
608.582	0.0180015
608.660	0.0181174
608.738	0.0179002
608.817	0.0178797
608.895	0.0178707
608.973	0.0179369
609.051	0.0179456
609.129	0.0178600
609.207	0.0180006
609.285	0.0179516
609.363	0.0179900
609.442	0.0179813
609.520	0.0180729
609.598	0.0179504
609.676	0.0179534
609.754	0.0180351
609.832	0.0180684
609.910	0.0180048
609.988	0.0180264
610.067	0.0178986
610.145	0.0179241
610.223	0.0180962
610.301	0.0181103
610.379	0.0180869
610.457	0.0180145
610.535	0.0180396
610.613	0.0178780
610.692	0.0180048
610.770	0.0180914
610.848	0.0180716
610.926	0.0178854
611.004	0.0178691
611.082	0.0178902
611.160	0.0179665
611.238	0.0179639
611.317	0.0180025
611.395	0.0179601
611.473	0.0179280
611.551	0.0180320
611.629	0.0179951
611.707	0.0178836
611.785	0.0179805
611.863	0.0179248
611.942	0.0179391
612.020	0.0179660
612.098	0.0178724
612.176	0.0179569
612.254	0.0180872
612.332	0.0179345
612.410	0.0179344
612.488	0.0181593
612.567	0.0180454
612.645	0.0179357
612.723	0.0180929
612.801	0.0179697
612.879	0.0179593
612.957	0.0181794
613.035	0.0181842
613.113	0.0180416
613.192	0.0180204
613.270	0.0179575
613.348	0.0180795
613.426	0.0179561
613.504	0.0180746
613.582	0.0180330
613.660	0.0179742
613.738	0.0179989
613.817	0.0180983
613.895	0.0180127
613.973	0.0179895
614.051	0.0179681
614.129	0.0179888
614.207	0.0179556
614.285	0.0179881
614.363	0.0180690
614.442	0.0180078
614.520	0.0181104
614.598	0.0179591
614.676	0.0179726
614.754	0.0179649
614.832	0.0178185
614.910	0.0180654
614.988	0.0180173
615.067	0.0180080
615.145	0.0180586
615.223	0.0179258
615.301	0.0180708
615.379	0.0180605
615.457	0.0180537
615.535	0.0180122
615.613	0.0181048
615.692	0.0179865
615.770	0.0180021
615.848	0.0180084
615.926	0.0180115
616.004	0.0179986
616.082	0.0179503
616.160	0.0180635
616.238	0.0180202
616.317	0.0180034
616.395	0.0180759
616.473	0.0180760
616.551	0.0179733
616.629	0.0179531
616.707	0.0178909
616.785	0.0179572
616.863	0.0180566
616.942	0.0180299
617.020	0.0179508
617.098	0.0180782
617.176	0.0180264
617.254	0.0180164
617.332	0.0180428
617.410	0.0180436
617.488	0.0180373
617.567	0.0179405
617.645	0.0178812
617.723	0.0178761
617.801	0.0179016
617.879	0.0179937
617.957	0.0179227
618.035	0.0179212
618.113	0.0179366
618.192	0.0178882
618.270	0.0179810
618.348	0.0180328
618.426	0.0180439
618.504	0.0180412
618.582	0.0179134
618.660	0.0181494
618.738	0.0180774
618.817	0.0181000
618.895	0.0179556
618.973	0.0179748
619.051	0.0179433
619.129	0.0179926
619.207	0.0180987
619.285	0.0178654
619.363	0.0180560
619.442	0.0180589
619.520	0.0178957
619.598	0.0179108
619.676	0.0179694
619.754	0.0179923
619.832	0.0179401
619.910	0.0179754
619.988	0.0180004
620.067	0.0181518
620.145	0.0179810
620.223	0.0179828
620.301	0.0180246
620.379	0.0180701
620.457	0.0179965
620.535	0.0180338
620.613	0.0179771
620.692	0.0179143
620.770	0.0181400
620.848	0.0180875
620.926	0.0178870
621.004	0.0179348
621.082	0.0179343
621.160	0.0180869
621.238	0.0179576
621.317	0.0178477
621.395	0.0180505
621.473	0.0180989
621.551	0.0179458
621.629	0.0179771
621.707	0.0178839
621.785	0.0179350
621.863	0.0179058
621.942	0.0179719
622.020	0.0180586
622.098	0.0179173
622.176	0.0178620
622.254	0.0180630
622.332	0.0177793
622.410	0.0178642
622.488	0.0180141
622.567	0.0178966
622.645	0.0180494
622.723	0.0178625
622.801	0.0181076
622.879	0.0181033
622.957	0.0180053
623.035	0.0178941
623.113	0.0179794
623.192	0.0179211
623.270	0.0181548
623.348	0.0179195
623.426	0.0179343
623.504	0.0179331
623.582	0.0180302
623.660	0.0179700
623.738	0.0179923
623.817	0.0179505
623.895	0.0179675
623.973	0.0179573
624.051	0.0180452
624.129	0.0179668
624.207	0.0180122
624.285	0.0179644
624.363	0.0180628
624.442	0.0180260
624.520	0.0179734
624.598	0.0179391
624.676	0.0179285
624.754	0.0179904
624.832	0.0179473
624.910	0.0179369
624.988	0.0179662
625.067	0.0179027
625.145	0.0180845
625.223	0.0181299
625.301	0.0179007
625.379	0.0179356
625.457	0.0179497
625.535	0.0179332
625.613	0.0178191
625.692	0.0179385
625.770	0.0180437
625.848	0.0180956
625.926	0.0179692
626.004	0.0178364
626.082	0.0180079
626.160	0.0181434
626.238	0.0179028
626.317	0.0179774
626.395	0.0178837
626.473	0.0179079
626.551	0.0180800
626.629	0.0179978
626.707	0.0180222
626.785	0.0178841
626.863	0.0180730
626.942	0.0180142
627.020	0.0180190
627.098	0.0179660
627.176	0.0180480
627.254	0.0181763
627.332	0.0180118
627.410	0.0179987
627.488	0.0179570
627.567	0.0179162
627.645	0.0179459
627.723	0.0179310
627.801	0.0179433
627.879	0.0180489
627.957	0.0178709
628.035	0.0178957
628.113	0.0179403
628.192	0.0179626
628.270	0.0180140
628.348	0.0180791
628.426	0.0179825
628.504	0.0178420
628.582	0.0180577
628.660	0.0180073
628.738	0.0181386
628.817	0.0178940
628.895	0.0179797
628.973	0.0179479
629.051	0.0179520
629.129	0.0180199
629.207	0.0180035
629.285	0.0180495
629.363	0.0179356
629.442	0.0179225
629.520	0.0180098
629.598	0.0180150
629.676	0.0180810
629.754	0.0180441
629.832	0.0180523
629.910	0.0180724
629.988	0.0180404
630.067	0.0179672
630.145	0.0179568
630.223	0.0178838
630.301	0.0180058
630.379	0.0179620
630.457	0.0179289
630.535	0.0179287
630.613	0.0180887
630.692	0.0181224
630.770	0.0181942
630.848	0.0178918
630.926	0.0179622
631.004	0.0179502
631.082	0.0179462
631.160	0.0180186
631.238	0.0179391
631.317	0.0179924
631.395	0.0179291
631.473	0.0179597
631.551	0.0180583
631.629	0.0179306
631.707	0.0179163
631.785	0.0181461
631.863	0.0181020
631.942	0.0179375
632.020	0.0179375
632.098	0.0179839
632.176	0.0179356
632.254	0.0179463
632.332	0.0180233
632.410	0.0181194
632.488	0.0179646
632.567	0.0180550
632.645	0.0178696
632.723	0.0180461
632.801	0.0179537
632.879	0.0180209
632.957	0.0179931
633.035	0.0181769
633.113	0.0179494
633.192	0.0180897
633.270	0.0180669
633.348	0.0180833
633.426	0.0180927
633.504	0.0180299
633.582	0.0179690
633.660	0.0179769
633.738	0.0179967
633.817	0.0178966
633.895	0.0180590
633.973	0.0179896
634.051	0.0180356
634.129	0.0179492
634.207	0.0180396
634.285	0.0180218
634.363	0.0179951
634.442	0.0180834
634.520	0.0179098
634.598	0.0179747
634.676	0.0180282
634.754	0.0178244
634.832	0.0180813
634.910	0.0181106
634.988	0.0179736
635.067	0.0179523
635.145	0.0178491
635.223	0.0181400
635.301	0.0180533
635.379	0.0179404
635.457	0.0179115
635.535	0.0179382
635.613	0.0179423
635.692	0.0179517
635.770	0.0178960
635.848	0.0180963
635.926	0.0180441
636.004	0.0179942
636.082	0.0180106
636.160	0.0179572
636.238	0.0178271
636.317	0.0179471
636.395	0.0180744
636.473	0.0180593
636.551	0.0180163
636.629	0.0180802
636.707	0.0180070
636.785	0.0180427
636.863	0.0179667
636.942	0.0179700
637.020	0.0179086
637.098	0.0179808
637.176	0.0180249
637.254	0.0178485
637.332	0.0181154
637.410	0.0179967
637.488	0.0181450
637.567	0.0179700
637.645	0.0180558
637.723	0.0179910
637.801	0.0181081
637.879	0.0179685
637.957	0.0179190
638.035	0.0179903
638.113	0.0179886
638.192	0.0180289
638.270	0.0180691
638.348	0.0179491
638.426	0.0180387
638.504	0.0181107
638.582	0.0179381
638.660	0.0180161
638.738	0.0179723
638.817	0.0180818
638.895	0.0181997
638.973	0.0179536
639.051	0.0180272
639.129	0.0180409
639.207	0.0180019
639.285	0.0178714
639.363	0.0179044
639.442	0.0179116
639.520	0.0179961
639.598	0.0180797
639.676	0.0179591
639.754	0.0179423
639.832	0.0179388
639.910	0.0179674
639.988	0.0180309
640.067	0.0180446
640.145	0.0179436
640.223	0.0180167
640.301	0.0181174
640.379	0.0178064
640.457	0.0179531
640.535	0.0179542
640.613	0.0180460
640.692	0.0179935
640.770	0.0178896
640.848	0.0180006
640.926	0.0181190
641.004	0.0181528
641.082	0.0179178
641.160	0.0179738
641.238	0.0180279
641.317	0.0179436
641.395	0.0179474
641.473	0.0180682
641.551	0.0179772
641.629	0.0181111
641.707	0.0179414
641.785	0.0180290
641.863	0.0181515
641.942	0.0181232
642.020	0.0181026
642.098	0.0181059
642.176	0.0179124
642.254	0.0179497
642.332	0.0179843
642.410	0.0181152
642.488	0.0180278
642.567	0.0179506
642.645	0.0179906
642.723	0.0179611
642.801	0.0180907
642.879	0.0181107
642.957	0.0180882
643.035	0.0179517
643.113	0.0179298
643.192	0.0178904
643.270	0.0179887
643.348	0.0179414
643.426	0.0179738
643.504	0.0179033
643.582	0.0179160
643.660	0.0179538
643.738	0.0180332
643.817	0.0179952
643.895	0.0180534
643.973	0.0180368
644.051	0.0179793
644.129	0.0179573
644.207	0.0180646
644.285	0.0181232
644.363	0.0179599
644.442	0.0180634
644.520	0.0179157
644.598	0.0179886
644.676	0.0180224
644.754	0.0179608
644.832	0.0179162
644.910	0.0181580
644.988	0.0179866
645.067	0.0179333
645.145	0.0180492
645.223	0.0179545
645.301	0.0179199
645.379	0.0180081
645.457	0.0180825
645.535	0.0179570
645.613	0.0179610
645.692	0.0180356
645.770	0.0179777
645.848	0.0181285
645.926	0.0179657
646.004	0.0177969
646.082	0.0180474
646.160	0.0179960
646.238	0.0178281
646.317	0.0180608
646.395	0.0181887
646.473	0.0181164
646.551	0.0179158
646.629	0.0180322
646.707	0.0180234
646.785	0.0180037
646.863	0.0179384
646.942	0.0180019
647.020	0.0181332
647.098	0.0179562
647.176	0.0179523
647.254	0.0180370
647.332	0.0180482
647.410	0.0181085
647.488	0.0180047
647.567	0.0179605
647.645	0.0180712
647.723	0.0180089
647.801	0.0179314
647.879	0.0181072
647.957	0.0179669
648.035	0.0178528
648.113	0.0179929
648.192	0.0180309
648.270	0.0179647
648.348	0.0180336
648.426	0.0179612
648.504	0.0179571
648.582	0.0180983
648.660	0.0180254
648.738	0.0178561
648.817	0.0178303
648.895	0.0179866
648.973	0.0179966
649.051	0.0180343
649.129	0.0181212
649.207	0.0179479
649.285	0.0180769
649.363	0.0181075
649.442	0.0179865
649.520	0.0179548
649.598	0.0179569
649.676	0.0179757
649.754	0.0180695
649.832	0.0181815
649.910	0.0179691
649.988	0.0179264
650.067	0.0180817
650.145	0.0180377
650.223	0.0179279
650.301	0.0180270
650.379	0.0180776
650.457	0.0180390
650.535	0.0179932
650.613	0.0179784
650.692	0.0179003
650.770	0.0180534
650.848	0.0180062
650.926	0.0179827
651.004	0.0179249
651.082	0.0180618
651.160	0.0180135
651.238	0.0180519
651.317	0.0179137
651.395	0.0180941
651.473	0.0179895
651.551	0.0178665
651.629	0.0180414
651.707	0.0179797
651.785	0.0179753
651.863	0.0180032
651.942	0.0179733
652.020	0.0180447
652.098	0.0180834
652.176	0.0180574
652.254	0.0180730
652.332	0.0181316
652.410	0.0180334
652.488	0.0180673
652.567	0.0179127
652.645	0.0180624
652.723	0.0181618
652.801	0.0180292
652.879	0.0180389
652.957	0.0181528
653.035	0.0180679
653.113	0.0180370
653.192	0.0180521
653.270	0.0179102
653.348	0.0180889
653.426	0.0180206
653.504	0.0179312
653.582	0.0179687
653.660	0.0179695
653.738	0.0178642
653.817	0.0179507
653.895	0.0179225
653.973	0.0179058
654.051	0.0180756
654.129	0.0179839
654.207	0.0180243
654.285	0.0180253
654.363	0.0179739
654.442	0.0179985
654.520	0.0180534
654.598	0.0180045
654.676	0.0180545
654.754	0.0179903
654.832	0.0180440
654.910	0.0180228
654.988	0.0179915
655.067	0.0180436
655.145	0.0179948
655.223	0.0180443
655.301	0.0180318
655.379	0.0178580
655.457	0.0178549
655.535	0.0179358
655.613	0.0180501
655.692	0.0180491
655.770	0.0179482
655.848	0.0179824
655.926	0.0180418
656.004	0.0179580
656.082	0.0179067
656.160	0.0181163
656.238	0.0180079
656.317	0.0180969
656.395	0.0180614
656.473	0.0179787
656.551	0.0179995
656.629	0.0180088
656.707	0.0179673
656.785	0.0179331
656.863	0.0178985
656.942	0.0180640
657.020	0.0179870
657.098	0.0179430
657.176	0.0179050
657.254	0.0179924
657.332	0.0180654
657.410	0.0180651
657.488	0.0179911
657.567	0.0179746
657.645	0.0180856
657.723	0.0180758
657.801	0.0180143
657.879	0.0178303
657.957	0.0181239
658.035	0.0180648
658.113	0.0180196
658.192	0.0180828
658.270	0.0180273
658.348	0.0180673
658.426	0.0181080
658.504	0.0180084
658.582	0.0179758
658.660	0.0181154
658.738	0.0180859
658.817	0.0180914
658.895	0.0180417
658.973	0.0179531
659.051	0.0180727
659.129	0.0179142
659.207	0.0180721
659.285	0.0179845
659.363	0.0180855
659.442	0.0180429
659.520	0.0179668
659.598	0.0179671
659.676	0.0180989
659.754	0.0181078
659.832	0.0180534
659.910	0.0180553
659.988	0.0179709
660.067	0.0180504
660.145	0.0182028
660.223	0.0180832
660.301	0.0180254
660.379	0.0180403
660.457	0.0180013
660.535	0.0179498
660.613	0.0181047
660.692	0.0180614
660.770	0.0180217
660.848	0.0181001
660.926	0.0180747
661.004	0.0180109
661.082	0.0180110
661.160	0.0180839
661.238	0.0181085
661.317	0.0180816
661.395	0.0180125
661.473	0.0179740
661.551	0.0179648
661.629	0.0178400
661.707	0.0180116
661.785	0.0180461
661.863	0.0180240
661.942	0.0178693
662.020	0.0179504
662.098	0.0178362
662.176	0.0180621
662.254	0.0182338
662.332	0.0180006
662.410	0.0179646
662.488	0.0179713
662.567	0.0180750
662.645	0.0179380
662.723	0.0179153
662.801	0.0179237
662.879	0.0181027
662.957	0.0181693
663.035	0.0179237
663.113	0.0180126
663.192	0.0180086
663.270	0.0180989
663.348	0.0180407
663.426	0.0179935
663.504	0.0179469
663.582	0.0180174
663.660	0.0180191
663.738	0.0180440
663.817	0.0179594
663.895	0.0181150
663.973	0.0179503
664.051	0.0179610
664.129	0.0179752
664.207	0.0180704
664.285	0.0180428
664.363	0.0180247
664.442	0.0180714
664.520	0.0179862
664.598	0.0181073
664.676	0.0180854
664.754	0.0181332
664.832	0.0179822
664.910	0.0179778
664.988	0.0179833
665.067	0.0180737
665.145	0.0180746
665.223	0.0179221
665.301	0.0179430
665.379	0.0179795
665.457	0.0180102
665.535	0.0179955
665.613	0.0179456
665.692	0.0179429
665.770	0.0180530
665.848	0.0179823
665.926	0.0180202
666.004	0.0179545
666.082	0.0178899
666.160	0.0180015
666.238	0.0180389
666.317	0.0180307
666.395	0.0180227
666.473	0.0179480
666.551	0.0179755
666.629	0.0179932
666.707	0.0179615
666.785	0.0180416
666.863	0.0180061
666.942	0.0180904
667.020	0.0179922
667.098	0.0179413
667.176	0.0180057
667.254	0.0179099
667.332	0.0179552
667.410	0.0181362
667.488	0.0180283
667.567	0.0180556
667.645	0.0179636
667.723	0.0180548
667.801	0.0178802
667.879	0.0181025
667.957	0.0179370
668.035	0.0179202
668.113	0.0180015
668.192	0.0179850
668.270	0.0180003
668.348	0.0180467
668.426	0.0179659
668.504	0.0179371
668.582	0.0179725
668.660	0.0179858
668.738	0.0179949
668.817	0.0180423
668.895	0.0179528
668.973	0.0179679
669.051	0.0180846
669.129	0.0180352
669.207	0.0181363
669.285	0.0180048
669.363	0.0178053
669.442	0.0181351
669.520	0.0179826
669.598	0.0179497
669.676	0.0179234
669.754	0.0179369
669.832	0.0179270
669.910	0.0181004
669.988	0.0180714
670.067	0.0180334
670.145	0.0180361
670.223	0.0179794
670.301	0.0180110
670.379	0.0180024
670.457	0.0180683
670.535	0.0180060
670.613	0.0179922
670.692	0.0179790
670.770	0.0180409
670.848	0.0179810
670.926	0.0179707
671.004	0.0178433
671.082	0.0179411
671.160	0.0179951
671.238	0.0179414
671.317	0.0180665
671.395	0.0180367
671.473	0.0179694
671.551	0.0180621
671.629	0.0180150
671.707	0.0179877
671.785	0.0179955
671.863	0.0180262
671.942	0.0179447
672.020	0.0181091
672.098	0.0181458
672.176	0.0180029
672.254	0.0180070
672.332	0.0180997
672.410	0.0181509
672.488	0.0179408
672.567	0.0178315
672.645	0.0179571
672.723	0.0180351
672.801	0.0180299
672.879	0.0179824
672.957	0.0179507
673.035	0.0180560
673.113	0.0181698
673.192	0.0180323
673.270	0.0179488
673.348	0.0179864
673.426	0.0180794
673.504	0.0180441
673.582	0.0181471
673.660	0.0180260
673.738	0.0180284
673.817	0.0180810
673.895	0.0179935
673.973	0.0181242
674.051	0.0180486
674.129	0.0180051
674.207	0.0180351
674.285	0.0181857
674.363	0.0181366
674.442	0.0180193
674.520	0.0179707
674.598	0.0180289
674.676	0.0180749
674.754	0.0180066
674.832	0.0180994
674.910	0.0180671
674.988	0.0180413
675.067	0.0179500
675.145	0.0180161
675.223	0.0181032
675.301	0.0179611
675.379	0.0180016
675.457	0.0181941
675.535	0.0180927
675.613	0.0180335
675.692	0.0180003
675.770	0.0180053
675.848	0.0180043
675.926	0.0178802
676.004	0.0179400
676.082	0.0178489
676.160	0.0180364
676.238	0.0180480
676.317	0.0180021
676.395	0.0180186
676.473	0.0179997
676.551	0.0179767
676.629	0.0179250
676.707	0.0179283
676.785	0.0179305
676.863	0.0178996
676.942	0.0179114
677.020	0.0178933
677.098	0.0180351
677.176	0.0180022
677.254	0.0179694
677.332	0.0179308
677.410	0.0179122
677.488	0.0181176
677.567	0.0179684
677.645	0.0179746
677.723	0.0180081
677.801	0.0180572
677.879	0.0180524
677.957	0.0180011
678.035	0.0179147
678.113	0.0180338
678.192	0.0179689
678.270	0.0179745
678.348	0.0179842
678.426	0.0180275
678.504	0.0180565
678.582	0.0180815
678.660	0.0179109
678.738	0.0179691
678.817	0.0179384
678.895	0.0178276
678.973	0.0179749
679.051	0.0181349
679.129	0.0180610
679.207	0.0179285
679.285	0.0179749
679.363	0.0179257
679.442	0.0180185
679.520	0.0180657
679.598	0.0178598
679.676	0.0179983
679.754	0.0179048
679.832	0.0180577
679.910	0.0179545
679.988	0.0180433
680.067	0.0179473
680.145	0.0179604
680.223	0.0180571
680.301	0.0179656
680.379	0.0179742
680.457	0.0180328
680.535	0.0179864
680.613	0.0180910
680.692	0.0180474
680.770	0.0180508
680.848	0.0180002
680.926	0.0180083
681.004	0.0181414
681.082	0.0178674
681.160	0.0179440
681.238	0.0179699
681.317	0.0179550
681.395	0.0180901
681.473	0.0180791
681.551	0.0179546
681.629	0.0180148
681.707	0.0181127
681.785	0.0180809
681.863	0.0180909
681.942	0.0182198
682.020	0.0180486
682.098	0.0179875
682.176	0.0179174
682.254	0.0179390
682.332	0.0181085
682.410	0.0180616
682.488	0.0180637
682.567	0.0181019
682.645	0.0180750
682.723	0.0181155
682.801	0.0180380
682.879	0.0179727
682.957	0.0179564
683.035	0.0182104
683.113	0.0181577
683.192	0.0181396
683.270	0.0181779
683.348	0.0181561
683.426	0.0180111
683.504	0.0180604
683.582	0.0180208
683.660	0.0180850
683.738	0.0180254
683.817	0.0179957
683.895	0.0180804
683.973	0.0180445
684.051	0.0178793
684.129	0.0179414
684.207	0.0181352
684.285	0.0182580
684.363	0.0180657
684.442	0.0179307
684.520	0.0181168
684.598	0.0181341
684.676	0.0179994
684.754	0.0180423
684.832	0.0180164
684.910	0.0181098
684.988	0.0180962
685.067	0.0180627
685.145	0.0180553
685.223	0.0181158
685.301	0.0179497
685.379	0.0180631
685.457	0.0179007
685.535	0.0179722
685.613	0.0181280
685.692	0.0180756
685.770	0.0180402
685.848	0.0180078
685.926	0.0180244
686.004	0.0179804
686.082	0.0180287
686.160	0.0178886
686.238	0.0180309
686.317	0.0180662
686.395	0.0179220
686.473	0.0179698
686.551	0.0179980
686.629	0.0180556
686.707	0.0179997
686.785	0.0179243
686.863	0.0179246
686.942	0.0178692
687.020	0.0178277
687.098	0.0179260
687.176	0.0180087
687.254	0.0178780
687.332	0.0179636
687.410	0.0179852
687.488	0.0180342
687.567	0.0178468
687.645	0.0180183
687.723	0.0179376
687.801	0.0179759
687.879	0.0178471
687.957	0.0179598
688.035	0.0179253
688.113	0.0179133
688.192	0.0180226
688.270	0.0179879
688.348	0.0179994
688.426	0.0180201
688.504	0.0179339
688.582	0.0178614
688.660	0.0179370
688.738	0.0179765
688.817	0.0179668
688.895	0.0179250
688.973	0.0177672
689.051	0.0178741
689.129	0.0179524
689.207	0.0179738
689.285	0.0179574
689.363	0.0179497
689.442	0.0179721
689.520	0.0179006
689.598	0.0180288
689.676	0.0179274
689.754	0.0178535
689.832	0.0178892
689.910	0.0180184
689.988	0.0180090
690.067	0.0179897
690.145	0.0178610
690.223	0.0179603
690.301	0.0178083
690.379	0.0179501
690.457	0.0179517
690.535	0.0179462
690.613	0.0177930
690.692	0.0180769
690.770	0.0181545
690.848	0.0178264
690.926	0.0179540
691.004	0.0180431
691.082	0.0179462
691.160	0.0180573
691.238	0.0179447
691.317	0.0179585
691.395	0.0180857
691.473	0.0180122
691.551	0.0177817
691.629	0.0179225
691.707	0.0179896
691.785	0.0179965
691.863	0.0178673
691.942	0.0180693
692.020	0.0179808
692.098	0.0178658
692.176	0.0180853
692.254	0.0178971
692.332	0.0180022
692.410	0.0180569
692.488	0.0180272
692.567	0.0179134
692.645	0.0180312
692.723	0.0178738
692.801	0.0178866
692.879	0.0179513
692.957	0.0179730
693.035	0.0179008
693.113	0.0179449
693.192	0.0182063
693.270	0.0182639
693.348	0.0182356
693.426	0.0181756
693.504	0.0182257
693.582	0.0181080
693.660	0.0180367
693.738	0.0177136
693.817	0.0177483
693.895	0.0176617
693.973	0.0173724
694.051	0.0174012
694.129	0.0174280
694.207	0.0173687
694.285	0.0175135
694.363	0.0177964
694.442	0.0180020
694.520	0.0182908
694.598	0.0186304
694.676	0.0187922
694.754	0.0190971
694.832	0.0191173
694.910	0.0191319
694.988	0.0190189
695.067	0.0189814
695.145	0.0187288
695.223	0.0183507
695.301	0.0180995
695.379	0.0176451
695.457	0.0174549
695.535	0.0172209
695.613	0.0170064
695.692	0.0168103
695.770	0.0168467
695.848	0.0168818
695.926	0.0169094
696.004	0.0170711
696.082	0.0174225
696.160	0.0176204
696.238	0.0179590
696.317	0.0182236
696.395	0.0185325
696.473	0.0186814
696.551	0.0186420
696.629	0.0187964
696.707	0.0188167
696.785	0.0188212
696.863	0.0187721
696.942	0.0188943
697.020	0.0188085
697.098	0.0186471
697.176	0.0185957
697.254	0.0183477
697.332	0.0182533
697.410	0.0182041
697.488	0.0180146
697.567	0.0180452
697.645	0.0179121
697.723	0.0177087
697.801	0.0176211
697.879	0.0175263
697.957	0.0174368
698.035	0.0173495
698.113	0.0171688
698.192	0.0170187
698.270	0.0169144
698.348	0.0168982
698.426	0.0170107
698.504	0.0170377
698.582	0.0171048
698.660	0.0172181
698.738	0.0175053
698.817	0.0174999
698.895	0.0177713
698.973	0.0180412
699.051	0.0181467
699.129	0.0182679
699.207	0.0184611
699.285	0.0187175
699.363	0.0188897
699.442	0.0191109
699.520	0.0191127
699.598	0.0191364
699.676	0.0192490
699.754	0.0192790
699.832	0.0191479
699.910	0.0190785
699.988	0.0191038
700.067	0.0188868
700.145	0.0187884
700.223	0.0185240
700.301	0.0184558
700.379	0.0181774
700.457	0.0178387
700.535	0.0176871
700.613	0.0174866
700.692	0.0174042
700.770	0.0172297
700.848	0.0171376
700.926	0.0170805
701.004	0.0170094
701.082	0.0168601
701.160	0.0170084
701.238	0.0169439
701.317	0.0170028
701.395	0.0170731
701.473	0.0171073
701.551	0.0170965
701.629	0.0170707
701.707	0.0171181
701.785	0.0171326
701.863	0.0172799
701.942	0.0174991
702.020	0.0175853
702.098	0.0178220
702.176	0.0181630
702.254	0.0183382
702.332	0.0185356
702.410	0.0188107
702.488	0.0188251
702.567	0.0191231
702.645	0.0191954
702.723	0.0192209
702.801	0.0191495
702.879	0.0193625
702.957	0.0192821
703.035	0.0191337
703.113	0.0191031
703.192	0.0188949
703.270	0.0188586
703.348	0.0187686
703.426	0.0185280
703.504	0.0182962
703.582	0.0179586
703.660	0.0179047
703.738	0.0179512
703.817	0.0177749
703.895	0.0175311
703.973	0.0173994
704.051	0.0173894
704.129	0.0173376
704.207	0.0172970
704.285	0.0173104
704.363	0.0172849
704.442	0.0174244
704.520	0.0172701
704.598	0.0175195
704.676	0.0172680
704.754	0.0173930
704.832	0.0174822
704.910	0.0175729
704.988	0.0175231
705.067	0.0173998
705.145	0.0174359
705.223	0.0174473
705.301	0.0173823
705.379	0.0176328
705.457	0.0175040
705.535	0.0174680
705.613	0.0174697
705.692	0.0176913
705.770	0.0175915
705.848	0.0178912
705.926	0.0179154
706.004	0.0179666
706.082	0.0181663
706.160	0.0181680
706.238	0.0184609
706.317	0.0185823
706.395	0.0186265
706.473	0.0188210
706.551	0.0186293
706.629	0.0189349
706.707	0.0189285
706.785	0.0189811
706.863	0.0190774
706.942	0.0190205
707.020	0.0189881
707.098	0.0188337
707.176	0.0188889
707.254	0.0187402
707.332	0.0187684
707.410	0.0187357
707.488	0.0187021
707.567	0.0184023
707.645	0.0181455
707.723	0.0180479
707.801	0.0177753
707.879	0.0177496
707.957	0.0174506
708.035	0.0174470
708.113	0.0173118
708.192	0.0173240
708.270	0.0172661
708.348	0.0172162
708.426	0.0171962
708.504	0.0171680
708.582	0.0170382
708.660	0.0172012
708.738	0.0173225
708.817	0.0173344
708.895	0.0172649
708.973	0.0173525
709.051	0.0174650
709.129	0.0174771
709.207	0.0175340
709.285	0.0177003
709.363	0.0178104
709.442	0.0177810
709.520	0.0178892
709.598	0.0178932
709.676	0.0181776
709.754	0.0181987
709.832	0.0181815
709.910	0.0183737
709.988	0.0184260
710.067	0.0185909
710.145	0.0185488
710.223	0.0185040
710.301	0.0186531
710.379	0.0186172
710.457	0.0186279
710.535	0.0186420
710.613	0.0185408
710.692	0.0185091
710.770	0.0184800
710.848	0.0184924
710.926	0.0183530
711.004	0.0183949
711.082	0.0182697
711.160	0.0183266
711.238	0.0181674
711.317	0.0182275
711.395	0.0181076
711.473	0.0180629
711.551	0.0183421
711.629	0.0181638
711.707	0.0182265
711.785	0.0181393
711.863	0.0181092
711.942	0.0181683
712.020	0.0180713
712.098	0.0179607
712.176	0.0178624
712.254	0.0180529
712.332	0.0177890
712.410	0.0177135
712.488	0.0177424
712.567	0.0176569
712.645	0.0177279
712.723	0.0177884
712.801	0.0175617
712.879	0.0175307
712.957	0.0175551
713.035	0.0175956
713.113	0.0175930
713.192	0.0176142
713.270	0.0176784
713.348	0.0177994
713.426	0.0177880
713.504	0.0178440
713.582	0.0176312
713.660	0.0178922
713.738	0.0179092
713.817	0.0179518
713.895	0.0180693
713.973	0.0181770
714.051	0.0179137
714.129	0.0181621
714.207	0.0180747
714.285	0.0179715
714.363	0.0180174
714.442	0.0180849
714.520	0.0181930
714.598	0.0181057
714.676	0.0180721
714.754	0.0179437
714.832	0.0180523
714.910	0.0180116
714.988	0.0179060
715.067	0.0180653
715.145	0.0180180
715.223	0.0181461
715.301	0.0179224
715.379	0.0180564
715.457	0.0180447
715.535	0.0180186
715.613	0.0181627
715.692	0.0181623
715.770	0.0180381
715.848	0.0180428
715.926	0.0180633
716.004	0.0182438
716.082	0.0179411
716.160	0.0179933
716.238	0.0180077
716.317	0.0181119
716.395	0.0180828
716.473	0.0179591
716.551	0.0180427
716.629	0.0181527
716.707	0.0182369
716.785	0.0180915
716.863	0.0182399
716.942	0.0181818
717.020	0.0182116
717.098	0.0180347
717.176	0.0179564
717.254	0.0183042
717.332	0.0183813
717.410	0.0181892
717.488	0.0179626
717.567	0.0180940
717.645	0.0180365
717.723	0.0180843
717.801	0.0180748
717.879	0.0177319
717.957	0.0177929
718.035	0.0179571
718.113	0.0177683
718.192	0.0176204
718.270	0.0176925
718.348	0.0178041
718.426	0.0176147
718.504	0.0175949
718.582	0.0176330
718.660	0.0176317
718.738	0.0176547
718.817	0.0176409
718.895	0.0176961
718.973	0.0175827
719.051	0.0176507
719.129	0.0177957
719.207	0.0178174
719.285	0.0179501
719.363	0.0179865
719.442	0.0181696
719.520	0.0180337
719.598	0.0181011
719.676	0.0181181
719.754	0.0183257
719.832	0.0182761
719.910	0.0183244
719.988	0.0185410
720.067	0.0183203
720.145	0.0185657
720.223	0.0183380
720.301	0.0184151
720.379	0.0183832
720.457	0.0183979
720.535	0.0184737
720.613	0.0184023
720.692	0.0183076
720.770	0.0181622
720.848	0.0182793
720.926	0.0182592
721.004	0.0180884
721.082	0.0179474
721.160	0.0180067
721.238	0.0180687
721.317	0.0180681
721.395	0.0179810
721.473	0.0179556
721.551	0.0179980
721.629	0.0179770
721.707	0.0181779
721.785	0.0181544
721.863	0.0180786
721.942	0.0180477
722.020	0.0181836
722.098	0.0182668
722.176	0.0181567
722.254	0.0180139
722.332	0.0181096
722.410	0.0181037
722.488	0.0178620
722.567	0.0177560
722.645	0.0180518
722.723	0.0179192
722.801	0.0179826
722.879	0.0179037
722.957	0.0176910
723.035	0.0177609
723.113	0.0177779
723.192	0.0177714
723.270	0.0176610
723.348	0.0176952
723.426	0.0177345
723.504	0.0177657
723.582	0.0177094
723.660	0.0176655
723.738	0.0176305
723.817	0.0177876
723.895	0.0176372
723.973	0.0178937
724.051	0.0179583
724.129	0.0180302
724.207	0.0181676
724.285	0.0180682
724.363	0.0180638
724.442	0.0181944
724.520	0.0181006
724.598	0.0180518
724.676	0.0182844
724.754	0.0184006
724.832	0.0181831
724.910	0.0182787
724.988	0.0181627
725.067	0.0181681
725.145	0.0181980
725.223	0.0182829
725.301	0.0181959
725.379	0.0180966
725.457	0.0182785
725.535	0.0181923
725.613	0.0181522
725.692	0.0181123
725.770	0.0180705
725.848	0.0180346
725.926	0.0179883
726.004	0.0180589
726.082	0.0180407
726.160	0.0179283
726.238	0.0180444
726.317	0.0179720
726.395	0.0179723
726.473	0.0177943
726.551	0.0178887
726.629	0.0178385
726.707	0.0179778
726.785	0.0179258
726.863	0.0179196
726.942	0.0179548
727.020	0.0179928
727.098	0.0179823
727.176	0.0179012
727.254	0.0179469
727.332	0.0181312
727.410	0.0181207
727.488	0.0181213
727.567	0.0181087
727.645	0.0182041
727.723	0.0180508
727.801	0.0180274
727.879	0.0180005
727.957	0.0181378
728.035	0.0180677
728.113	0.0179165
728.192	0.0179860
728.270	0.0178759
728.348	0.0178553
728.426	0.0178714
728.504	0.0178821
728.582	0.0178778
728.660	0.0179028
728.738	0.0179702
728.817	0.0178809
728.895	0.0178825
728.973	0.0178714
729.051	0.0180134
729.129	0.0179659
729.207	0.0179056
729.285	0.0179050
729.363	0.0180421
729.442	0.0179573
729.520	0.0179279
729.598	0.0179493
729.676	0.0180152
729.754	0.0181384
729.832	0.0180779
729.910	0.0180291
729.988	0.0180035
730.067	0.0180109
730.145	0.0180856
730.223	0.0181284
730.301	0.0179511
730.379	0.0180294
730.457	0.0180799
730.535	0.0178824
730.613	0.0179138
730.692	0.0180779
730.770	0.0178458
730.848	0.0179193
730.926	0.0179292
731.004	0.0180676
731.082	0.0180320
731.160	0.0180183
731.238	0.0180595
731.317	0.0181178
731.395	0.0181762
731.473	0.0181404
731.551	0.0181755
731.629	0.0181733
731.707	0.0181329
731.785	0.0181444
731.863	0.0181880
731.942	0.0183872
732.020	0.0182876
732.098	0.0182116
732.176	0.0181854
732.254	0.0181331
732.332	0.0180640
732.410	0.0180593
732.488	0.0180049
732.567	0.0177543
732.645	0.0178350
732.723	0.0178577
732.801	0.0177698
732.879	0.0177278
732.957	0.0178001
733.035	0.0178828
733.113	0.0175954
733.192	0.0176289
733.270	0.0177428
733.348	0.0178601
733.426	0.0178349
733.504	0.0179683
733.582	0.0179716
733.660	0.0179707
733.738	0.0181357
733.817	0.0181259
733.895	0.0181006
733.973	0.0180722
734.051	0.0180548
734.129	0.0180637
734.207	0.0181006
734.285	0.0180390
734.363	0.0181347
734.442	0.0181504
734.520	0.0180596
734.598	0.0183253
734.676	0.0180818
734.754	0.0180396
734.832	0.0181005
734.910	0.0181129
734.988	0.0180055
735.067	0.0180862
735.145	0.0181449
735.223	0.0183034
735.301	0.0183527
735.379	0.0181519
735.457	0.0180407
735.535	0.0182659
735.613	0.0182611
735.692	0.0181684
735.770	0.0180411
735.848	0.0179994
735.926	0.0181160
736.004	0.0180417
736.082	0.0180469
736.160	0.0179918
736.238	0.0180802
736.317	0.0180152
736.395	0.0181180
736.473	0.0180093
736.551	0.0180380
736.629	0.0182057
736.707	0.0181447
736.785	0.0180744
736.863	0.0182050
736.942	0.0180494
737.020	0.0179786
737.098	0.0180736
737.176	0.0180098
737.254	0.0178598
737.332	0.0178532
737.410	0.0180189
737.488	0.0179894
737.567	0.0179913
737.645	0.0178355
737.723	0.0178587
737.801	0.0179008
737.879	0.0180540
737.957	0.0177551
738.035	0.0179043
738.113	0.0180400
738.192	0.0180291
738.270	0.0179176
738.348	0.0179340
738.426	0.0178490
738.504	0.0179787
738.582	0.0179073
738.660	0.0179646
738.738	0.0177804
738.817	0.0179449
738.895	0.0178710
738.973	0.0179763
739.051	0.0179550
739.129	0.0178447
739.207	0.0179999
739.285	0.0179236
739.363	0.0179447
739.442	0.0178942
739.520	0.0179684
739.598	0.0180516
739.676	0.0179936
739.754	0.0181072
739.832	0.0178510
739.910	0.0179848
739.988	0.0181264
740.067	0.0180545
740.145	0.0179548
740.223	0.0179758
740.301	0.0180952
740.379	0.0182085
740.457	0.0180754
740.535	0.0182122
740.613	0.0181075
740.692	0.0180526
740.770	0.0181155
740.848	0.0180834
740.926	0.0180479
741.004	0.0180637
741.082	0.0181840
741.160	0.0181255
741.238	0.0180598
741.317	0.0179125
741.395	0.0180279
741.473	0.0179830
741.551	0.0179249
741.629	0.0179235
741.707	0.0179813
741.785	0.0179562
741.863	0.0181467
741.942	0.0180640
742.020	0.0180228
742.098	0.0181989
742.176	0.0180936
742.254	0.0182151
742.332	0.0181375
742.410	0.0181783
742.488	0.0181549
742.567	0.0181223
742.645	0.0180130
742.723	0.0181971
742.801	0.0180106
742.879	0.0179314
742.957	0.0179020
743.035	0.0180409
743.113	0.0179655
743.192	0.0179279
743.270	0.0180294
743.348	0.0178805
743.426	0.0179054
743.504	0.0180386
743.582	0.0179466
743.660	0.0179746
743.738	0.0179490
743.817	0.0181013
743.895	0.0181109
743.973	0.0180653
744.051	0.0180292
744.129	0.0180946
744.207	0.0180498
744.285	0.0180965
744.363	0.0182312
744.442	0.0181121
744.520	0.0181465
744.598	0.0180079
744.676	0.0180632
744.754	0.0179536
744.832	0.0179707
744.910	0.0179906
744.988	0.0179881
745.067	0.0179493
745.145	0.0177213
745.223	0.0178954
745.301	0.0178799
745.379	0.0178724
745.457	0.0178939
745.535	0.0178458
745.613	0.0177583
745.692	0.0178914
745.770	0.0177483
745.848	0.0178396
745.926	0.0178532
746.004	0.0179760
746.082	0.0179591
746.160	0.0179179
746.238	0.0180157
746.317	0.0177887
746.395	0.0180138
746.473	0.0179621
746.551	0.0180890
746.629	0.0180952
746.707	0.0181694
746.785	0.0180590
746.863	0.0179505
746.942	0.0180535
747.020	0.0180798
747.098	0.0181010
747.176	0.0180246
747.254	0.0180672
747.332	0.0182213
747.410	0.0180630
747.488	0.0180491
747.567	0.0179048
747.645	0.0179852
747.723	0.0179884
747.801	0.0179111
747.879	0.0179465
747.957	0.0179733
748.035	0.0179285
748.113	0.0179162
748.192	0.0178535
748.270	0.0179887
748.348	0.0179186
748.426	0.0180693
748.504	0.0180580
748.582	0.0180710
748.660	0.0179806
748.738	0.0181609
748.817	0.0180480
748.895	0.0180462
748.973	0.0180794
749.051	0.0181181
749.129	0.0181426
749.207	0.0181852
749.285	0.0181966
749.363	0.0180531
749.442	0.0180602
749.520	0.0180086
749.598	0.0179906
749.676	0.0181197
749.754	0.0180418
749.832	0.0179434
749.910	0.0179823
749.988	0.0180545
750.067	0.0179181
750.145	0.0178827
750.223	0.0178832
750.301	0.0179543
750.379	0.0180553
750.457	0.0179594
750.535	0.0180048
750.613	0.0179233
750.692	0.0177975
750.770	0.0179021
750.848	0.0180296
750.926	0.0181168
751.004	0.0179186
751.082	0.0180422
751.160	0.0179489
751.238	0.0181134
751.317	0.0180431
751.395	0.0179769
751.473	0.0178683
751.551	0.0179286
751.629	0.0181190
751.707	0.0180101
751.785	0.0180114
751.863	0.0180096
751.942	0.0179687
752.020	0.0179765
752.098	0.0179798
752.176	0.0178893
752.254	0.0179586
752.332	0.0179253
752.410	0.0178434
752.488	0.0178279
752.567	0.0179447
752.645	0.0180183
752.723	0.0179195
752.801	0.0180038
752.879	0.0180471
752.957	0.0180683
753.035	0.0178987
753.113	0.0180253
753.192	0.0179439
753.270	0.0179379
753.348	0.0180242
753.426	0.0180022
753.504	0.0180377
753.582	0.0179788
753.660	0.0180713
753.738	0.0180512
753.817	0.0180560
753.895	0.0179675
753.973	0.0179300
754.051	0.0180173
754.129	0.0179295
754.207	0.0178941
754.285	0.0179307
754.363	0.0179192
754.442	0.0177440
754.520	0.0178675
754.598	0.0179684
754.676	0.0179214
754.754	0.0179038
754.832	0.0179668
754.910	0.0179805
754.988	0.0181839
755.067	0.0180619
755.145	0.0180716
755.223	0.0181952
755.301	0.0181529
755.379	0.0181735
755.457	0.0181205
755.535	0.0182140
755.613	0.0180927
755.692	0.0180505
755.770	0.0181243
755.848	0.0181709
755.926	0.0180669
756.004	0.0180978
756.082	0.0181102
756.160	0.0180791
756.238	0.0181165
756.317	0.0181122
756.395	0.0178957
756.473	0.0180744
756.551	0.0181293
756.629	0.0180599
756.707	0.0180738
756.785	0.0180309
756.863	0.0180610
756.942	0.0181033
757.020	0.0179761
757.098	0.0180082
757.176	0.0179507
757.254	0.0179794
757.332	0.0180595
757.410	0.0180310
757.488	0.0179385
757.567	0.0179116
757.645	0.0180373
757.723	0.0181149
757.801	0.0179945
757.879	0.0178812
757.957	0.0180387
758.035	0.0180801
758.113	0.0180902
758.192	0.0180582
758.270	0.0181535
758.348	0.0181478
758.426	0.0181686
758.504	0.0180308
758.582	0.0180719
758.660	0.0180618
758.738	0.0179263
758.817	0.0179687
758.895	0.0180523
758.973	0.0179391
759.051	0.0180793
759.129	0.0180989
759.207	0.0180952
759.285	0.0180171
759.363	0.0179444
759.442	0.0181454
759.520	0.0180016
759.598	0.0181101
759.676	0.0180517
759.754	0.0181188
759.832	0.0180692
759.910	0.0180482
759.988	0.0180508
760.067	0.0180797
760.145	0.0180166
760.223	0.0181484
760.301	0.0181901
760.379	0.0180577
760.457	0.0179697
760.535	0.0180717
760.613	0.0181438
760.692	0.0181751
760.770	0.0180466
760.848	0.0179134
760.926	0.0180647
761.004	0.0180985
761.082	0.0179592
761.160	0.0180078
761.238	0.0179462
761.317	0.0179778
761.395	0.0179205
761.473	0.0179175
761.551	0.0179472
761.629	0.0180547
761.707	0.0178484
761.785	0.0179188
761.863	0.0178738
761.942	0.0180120
762.020	0.0179451
762.098	0.0181065
762.176	0.0180797
762.254	0.0180044
762.332	0.0181588
762.410	0.0179804
762.488	0.0180461
762.567	0.0178486
762.645	0.0180499
762.723	0.0180560
762.801	0.0180611
762.879	0.0181505
762.957	0.0180984
763.035	0.0180041
763.113	0.0181297
763.192	0.0181775
763.270	0.0181278
763.348	0.0180719
763.426	0.0181657
763.504	0.0180132
763.582	0.0180887
763.660	0.0180175
763.738	0.0178765
763.817	0.0179804
763.895	0.0179549
763.973	0.0180231
764.051	0.0181219
764.129	0.0178908
764.207	0.0179893
764.285	0.0179855
764.363	0.0179265
764.442	0.0179523
764.520	0.0180001
764.598	0.0179358
764.676	0.0177702
764.754	0.0179324
764.832	0.0181406
764.910	0.0181049
764.988	0.0178485
765.067	0.0180388
765.145	0.0181326
765.223	0.0181734
765.301	0.0181196
765.379	0.0179539
765.457	0.0180197
765.535	0.0180315
765.613	0.0180150
765.692	0.0180646
765.770	0.0179013
765.848	0.0178602
765.926	0.0179487
766.004	0.0180280
766.082	0.0180003
766.160	0.0179682
766.238	0.0180360
766.317	0.0179180
766.395	0.0180486
766.473	0.0179799
766.551	0.0179705
766.629	0.0179693
766.707	0.0179348
766.785	0.0180553
766.863	0.0178571
766.942	0.0180070
767.020	0.0181442
767.098	0.0180971
767.176	0.0180470
767.254	0.0180032
767.332	0.0178532
767.410	0.0180341
767.488	0.0179436
767.567	0.0179706
767.645	0.0179847
767.723	0.0180877
767.801	0.0179304
767.879	0.0178864
767.957	0.0179534
768.035	0.0179748
768.113	0.0179556
768.192	0.0179301
768.270	0.0179585
768.348	0.0179636
768.426	0.0180029
768.504	0.0180460
768.582	0.0180160
768.660	0.0180293
768.738	0.0181142
768.817	0.0180012
768.895	0.0179637
768.973	0.0181013
769.051	0.0179177
769.129	0.0178168
769.207	0.0179868
769.285	0.0181983
769.363	0.0180370
769.442	0.0179227
769.520	0.0179217
769.598	0.0180447
769.676	0.0180357
769.754	0.0180257
769.832	0.0180225
769.910	0.0179774
769.988	0.0179930
770.067	0.0180022
770.145	0.0179687
770.223	0.0180212
770.301	0.0179607
770.379	0.0179392
770.457	0.0179483
770.535	0.0179631
770.613	0.0179880
770.692	0.0180081
770.770	0.0179596
770.848	0.0180851
770.926	0.0178381
771.004	0.0181039
771.082	0.0181387
771.160	0.0179766
771.238	0.0179085
771.317	0.0180650
771.395	0.0180059
771.473	0.0180562
771.551	0.0179750
771.629	0.0180747
771.707	0.0179052
771.785	0.0180055
771.863	0.0179570
771.942	0.0181013
772.020	0.0180238
772.098	0.0179398
772.176	0.0181263
772.254	0.0180426
772.332	0.0180441
772.410	0.0180341
772.488	0.0179956
772.567	0.0180323
772.645	0.0180027
772.723	0.0179741
772.801	0.0180148
772.879	0.0179074
772.957	0.0180171
773.035	0.0179725
773.113	0.0179852
773.192	0.0180353
773.270	0.0180253
773.348	0.0179654
773.426	0.0178764
773.504	0.0179755
773.582	0.0178918
773.660	0.0180186
773.738	0.0178790
773.817	0.0179595
773.895	0.0179901
773.973	0.0180075
774.051	0.0178744
774.129	0.0179447
774.207	0.0178030
774.285	0.0180132
774.363	0.0179623
774.442	0.0179282
774.520	0.0179235
774.598	0.0180981
774.676	0.0179447
774.754	0.0178777
774.832	0.0180086
774.910	0.0180230
774.988	0.0179272
775.067	0.0178519
775.145	0.0179053
775.223	0.0179835
775.301	0.0179824
775.379	0.0180926
775.457	0.0180993
775.535	0.0179890
775.613	0.0180186
775.692	0.0180700
775.770	0.0180241
775.848	0.0180092
775.926	0.0180319
776.004	0.0179714
776.082	0.0179539
776.160	0.0178529
776.238	0.0179803
776.317	0.0179385
776.395	0.0180703
776.473	0.0179208
776.551	0.0179578
776.629	0.0179880
776.707	0.0179787
776.785	0.0180650
776.863	0.0180822
776.942	0.0179728
777.020	0.0179988
777.098	0.0180074
777.176	0.0178049
777.254	0.0180408
777.332	0.0180850
777.410	0.0181268
777.488	0.0179684
777.567	0.0178859
777.645	0.0180167
777.723	0.0180122
777.801	0.0178468
777.879	0.0180070
777.957	0.0179536
778.035	0.0179946
778.113	0.0180257
778.192	0.0179335
778.270	0.0179990
778.348	0.0179137
778.426	0.0180643
778.504	0.0179005
778.582	0.0179509
778.660	0.0179731
778.738	0.0181009
778.817	0.0180215
778.895	0.0179089
778.973	0.0180022
779.051	0.0180931
779.129	0.0179995
779.207	0.0179618
779.285	0.0180257
779.363	0.0180377
779.442	0.0181861
779.520	0.0179404
779.598	0.0179745
779.676	0.0181918
779.754	0.0180508
779.832	0.0180357
779.910	0.0181342
779.988	0.0181370
780.067	0.0180740
780.145	0.0178954
780.223	0.0179835
780.301	0.0180341
780.379	0.0180769
780.457	0.0180090
780.535	0.0180074
780.613	0.0179152
780.692	0.0179695
780.770	0.0180171
780.848	0.0178387
780.926	0.0179765
781.004	0.0178327
781.082	0.0177603
781.160	0.0179478
781.238	0.0178589
781.317	0.0179709
781.395	0.0179853
781.473	0.0180642
781.551	0.0180350
781.629	0.0179917
781.707	0.0181052
781.785	0.0179576
781.863	0.0179676
781.942	0.0179733
782.020	0.0180740
782.098	0.0180645
782.176	0.0180949
782.254	0.0180369
782.332	0.0181139
782.410	0.0179064
782.488	0.0179670
782.567	0.0180487
782.645	0.0180280
782.723	0.0180231
782.801	0.0180767
782.879	0.0181795
782.957	0.0181039
783.035	0.0180322
783.113	0.0180393
783.192	0.0179788
783.270	0.0180795
783.348	0.0181509
783.426	0.0180356
783.504	0.0180375
783.582	0.0181110
783.660	0.0180566
783.738	0.0179155
783.817	0.0180888
783.895	0.0180246
783.973	0.0180045
784.051	0.0181281
784.129	0.0180982
784.207	0.0179824
784.285	0.0179066
784.363	0.0181233
784.442	0.0180432
784.520	0.0179948
784.598	0.0180117
784.676	0.0181337
784.754	0.0181486
784.832	0.0181033
784.910	0.0180072
784.988	0.0180494
785.067	0.0179747
785.145	0.0180202
785.223	0.0177846
785.301	0.0179836
785.379	0.0181192
785.457	0.0179609
785.535	0.0178265
785.613	0.0179491
785.692	0.0178940
785.770	0.0177647
785.848	0.0179684
785.926	0.0180852
786.004	0.0181389
786.082	0.0180318
786.160	0.0180227
786.238	0.0179341
786.317	0.0179593
786.395	0.0179601
786.473	0.0179815
786.551	0.0180810
786.629	0.0180416
786.707	0.0180357
786.785	0.0181023
786.863	0.0182806
786.942	0.0181522
787.020	0.0181009
787.098	0.0181284
787.176	0.0180998
787.254	0.0179247
787.332	0.0179847
787.410	0.0177744
787.488	0.0179028
787.567	0.0178857
787.645	0.0179906
787.723	0.0179115
787.801	0.0177036
787.879	0.0178341
787.957	0.0179080
788.035	0.0178934
788.113	0.0178488
788.192	0.0179274
788.270	0.0179775
788.348	0.0179582
788.426	0.0179495
788.504	0.0178951
788.582	0.0178179
788.660	0.0179913
788.738	0.0179665
788.817	0.0179937
788.895	0.0180737
788.973	0.0180650
789.051	0.0180535
789.129	0.0180029
789.207	0.0179693
789.285	0.0180421
789.363	0.0178819
789.442	0.0179649
789.520	0.0179610
789.598	0.0178850
789.676	0.0179960
789.754	0.0180428
789.832	0.0178214
789.910	0.0178812
789.988	0.0178907
790.067	0.0180654
790.145	0.0179530
790.223	0.0180296
790.301	0.0180272
790.379	0.0179463
790.457	0.0181211
790.535	0.0180301
790.613	0.0179956
790.692	0.0180937
790.770	0.0182166
790.848	0.0181041
790.926	0.0181924
791.004	0.0182445
791.082	0.0181527
791.160	0.0181482
791.238	0.0182764
791.317	0.0181499
791.395	0.0181108
791.473	0.0181322
791.551	0.0181388
791.629	0.0180796
791.707	0.0180975
791.785	0.0181537
791.863	0.0180118
791.942	0.0180719
792.020	0.0178957
792.098	0.0179328
792.176	0.0180473
792.254	0.0179472
792.332	0.0179843
792.410	0.0179652
792.488	0.0178733
792.567	0.0180212
792.645	0.0181400
792.723	0.0179705
792.801	0.0178844
792.879	0.0180289
792.957	0.0180521
793.035	0.0179465
793.113	0.0179557
793.192	0.0180769
793.270	0.0180412
793.348	0.0179923
793.426	0.0180885
793.504	0.0180087
793.582	0.0179337
793.660	0.0179935
793.738	0.0180376
793.817	0.0180750
793.895	0.0180822
793.973	0.0179271
794.051	0.0180026
794.129	0.0181642
794.207	0.0179335
794.285	0.0178478
794.363	0.0179597
794.442	0.0180396
794.520	0.0179216
794.598	0.0179595
794.676	0.0179261
794.754	0.0179245
794.832	0.0178213
794.910	0.0176038
794.988	0.0178027
795.067	0.0178918
795.145	0.0177898
795.223	0.0179052
795.301	0.0177641
795.379	0.0179015
795.457	0.0179888
795.535	0.0179272
795.613	0.0177783
795.692	0.0179587
795.770	0.0179745
795.848	0.0179865
795.926	0.0180492
796.004	0.0180652
796.082	0.0179616
796.160	0.0181512
796.238	0.0182575
796.317	0.0181392
796.395	0.0180686
796.473	0.0182101
796.551	0.0180519
796.629	0.0179459
796.707	0.0179897
796.785	0.0180455
796.863	0.0180286
796.942	0.0181648
797.020	0.0179977
797.098	0.0180727
797.176	0.0180651
797.254	0.0180812
797.332	0.0180100
797.410	0.0178082
797.488	0.0178176
797.567	0.0178601
797.645	0.0179990
797.723	0.0178709
797.801	0.0178764
797.879	0.0178183
797.957	0.0179128
798.035	0.0177538
798.113	0.0178493
798.192	0.0177616
798.270	0.0178996
798.348	0.0179804
798.426	0.0180201
798.504	0.0179191
798.582	0.0179636
798.660	0.0178633
798.738	0.0178156
798.817	0.0181107
798.895	0.0179551
798.973	0.0180739
799.051	0.0180526
799.129	0.0179870
799.207	0.0182573
799.285	0.0181156
799.363	0.0181400
799.442	0.0181705
799.520	0.0182145
799.598	0.0182073
799.676	0.0181589
799.754	0.0182021
799.832	0.0182303
799.910	0.0181747
799.988	0.0181149
800.067	0.0181516
800.145	0.0181426
800.223	0.0181172
800.301	0.0180697
800.379	0.0180437
800.457	0.0180039
800.535	0.0179537
800.613	0.0179280
800.692	0.0180581
800.770	0.0179590
800.848	0.0179460
800.926	0.0178541
801.004	0.0179045
801.082	0.0178640
801.160	0.0176751
801.238	0.0176871
801.317	0.0179011
801.395	0.0178445
801.473	0.0177736
801.551	0.0178865
801.629	0.0178204
801.707	0.0177147
801.785	0.0179539
801.863	0.0179065
801.942	0.0177142
802.020	0.0178240
802.098	0.0178671
802.176	0.0179374
802.254	0.0177979
802.332	0.0178314
802.410	0.0179772
802.488	0.0180221
802.567	0.0179475
802.645	0.0180243
802.723	0.0179246
802.801	0.0178927
802.879	0.0179445
802.957	0.0181886
803.035	0.0180103
803.113	0.0180917
803.192	0.0181628
803.270	0.0181191
803.348	0.0182054
803.426	0.0181225
803.504	0.0182257
803.582	0.0182025
803.660	0.0180989
803.738	0.0180977
803.817	0.0179974
803.895	0.0181289
803.973	0.0180560
804.051	0.0179179
804.129	0.0180540
804.207	0.0179485
804.285	0.0178238
804.363	0.0179903
804.442	0.0179782
804.520	0.0179150
804.598	0.0178182
804.676	0.0179436
804.754	0.0179460
804.832	0.0178336
804.910	0.0180401
804.988	0.0179252
805.067	0.0179772
805.145	0.0179343
805.223	0.0179281
805.301	0.0176949
805.379	0.0178092
805.457	0.0179047
805.535	0.0177612
805.613	0.0178712
805.692	0.0178441
805.770	0.0178058
805.848	0.0179500
805.926	0.0179413
806.004	0.0177614
806.082	0.0180014
806.160	0.0179430
806.238	0.0179002
806.317	0.0179506
806.395	0.0179830
806.473	0.0179567
806.551	0.0179662
806.629	0.0180084
806.707	0.0180051
806.785	0.0179903
806.863	0.0179271
806.942	0.0180270
807.020	0.0181078
807.098	0.0179404
807.176	0.0181880
807.254	0.0181808
807.332	0.0181911
807.410	0.0182229
807.488	0.0182959
807.567	0.0181670
807.645	0.0180127
807.723	0.0182174
807.801	0.0181673
807.879	0.0181258
807.957	0.0180808
808.035	0.0181292
808.113	0.0180965
808.192	0.0181548
808.270	0.0179827
808.348	0.0179913
808.426	0.0179990
808.504	0.0179948
808.582	0.0179124
808.660	0.0178523
808.738	0.0179553
808.817	0.0179641
808.895	0.0179259
808.973	0.0177760
809.051	0.0180251
809.129	0.0179037
809.207	0.0178492
809.285	0.0178917
809.363	0.0179152
809.442	0.0179639
809.520	0.0177844
809.598	0.0178777
809.676	0.0179714
809.754	0.0179168
809.832	0.0179984
809.910	0.0180530
809.988	0.0179217
810.067	0.0179065
810.145	0.0178551
810.223	0.0179579
810.301	0.0177974
810.379	0.0177563
810.457	0.0178184
810.535	0.0177506
810.613	0.0177682
810.692	0.0179441
810.770	0.0178981
810.848	0.0178784
810.926	0.0179166
811.004	0.0179504
811.082	0.0178720
811.160	0.0179520
811.238	0.0180882
811.317	0.0179678
811.395	0.0180051
811.473	0.0178426
811.551	0.0180465
811.629	0.0179978
811.707	0.0180206
811.785	0.0178873
811.863	0.0180281
811.942	0.0181819
812.020	0.0178757
812.098	0.0180083
812.176	0.0180269
812.254	0.0178266
812.332	0.0179790
812.410	0.0180144
812.488	0.0181153
812.567	0.0177852
812.645	0.0180144
812.723	0.0179308
812.801	0.0179557
812.879	0.0180234
812.957	0.0178745
813.035	0.0180537
813.113	0.0179686
813.192	0.0179911
813.270	0.0181204
813.348	0.0181192
813.426	0.0181165
813.504	0.0179313
813.582	0.0181458
813.660	0.0182382
813.738	0.0181066
813.817	0.0180077
813.895	0.0181170
813.973	0.0181377
814.051	0.0181322
814.129	0.0180965
814.207	0.0178629
814.285	0.0179865
814.363	0.0179758
814.442	0.0178360
814.520	0.0177190
814.598	0.0178169
814.676	0.0178580
814.754	0.0179162
814.832	0.0179897
814.910	0.0178813
814.988	0.0178770
815.067	0.0178802
815.145	0.0179211
815.223	0.0179642
815.301	0.0178626
815.379	0.0179518
815.457	0.0179825
815.535	0.0180694
815.613	0.0180695
815.692	0.0181242
815.770	0.0180569
815.848	0.0180193
815.926	0.0179994
816.004	0.0180415
816.082	0.0181985
816.160	0.0180927
816.238	0.0180926
816.317	0.0181512
816.395	0.0179962
816.473	0.0180845
816.551	0.0180559
816.629	0.0180420
816.707	0.0180376
816.785	0.0179885
816.863	0.0180155
816.942	0.0179017
817.020	0.0178616
817.098	0.0178083
817.176	0.0178773
817.254	0.0179334
817.332	0.0178254
817.410	0.0179901
817.488	0.0180656
817.567	0.0180355
817.645	0.0180851
817.723	0.0179073
817.801	0.0179756
817.879	0.0180879
817.957	0.0180466
818.035	0.0181389
818.113	0.0180949
818.192	0.0179275
818.270	0.0179453
818.348	0.0179807
818.426	0.0181039
818.504	0.0180412
818.582	0.0180523
818.660	0.0178635
818.738	0.0179399
818.817	0.0179774
818.895	0.0179537
818.973	0.0178593
819.051	0.0178893
819.129	0.0179470
819.207	0.0179391
819.285	0.0180251
819.363	0.0178892
819.442	0.0178288
819.520	0.0177966
819.598	0.0178425
819.676	0.0179861
819.754	0.0179943
819.832	0.0180487
819.910	0.0179401
819.988	0.0179792
820.067	0.0180021
820.145	0.0179910
820.223	0.0179871
820.301	0.0179488
820.379	0.0179839
820.457	0.0179412
820.535	0.0178953
820.613	0.0180127
820.692	0.0179208
820.770	0.0179929
820.848	0.0180276
820.926	0.0180309
821.004	0.0180362
821.082	0.0180073
821.160	0.0179202
821.238	0.0178784
821.317	0.0179777
821.395	0.0180050
821.473	0.0180027
821.551	0.0180631
821.629	0.0179240
821.707	0.0180336
821.785	0.0180316
821.863	0.0180346
821.942	0.0179933
822.020	0.0179546
822.098	0.0179880
822.176	0.0179205
822.254	0.0180234
822.332	0.0180135
822.410	0.0179747
822.488	0.0179611
822.567	0.0180157
822.645	0.0180447
822.723	0.0179826
822.801	0.0180775
822.879	0.0180757
822.957	0.0180458
823.035	0.0180385
823.113	0.0180197
823.192	0.0180303
823.270	0.0180944
823.348	0.0180305
823.426	0.0180829
823.504	0.0180801
823.582	0.0181985
823.660	0.0181242
823.738	0.0178892
823.817	0.0180161
823.895	0.0180082
823.973	0.0179324
824.051	0.0179488
824.129	0.0179535
824.207	0.0179775
824.285	0.0180045
824.363	0.0179042
824.442	0.0179408
824.520	0.0177626
824.598	0.0179024
824.676	0.0180201
824.754	0.0177366
824.832	0.0180093
824.910	0.0180311
824.988	0.0178746
825.067	0.0178545
825.145	0.0177956
825.223	0.0179998
825.301	0.0180034
825.379	0.0178408
825.457	0.0177621
825.535	0.0179391
825.613	0.0178134
825.692	0.0178499
825.770	0.0180235
825.848	0.0180285
825.926	0.0182005
826.004	0.0180068
826.082	0.0180487
826.160	0.0179672
826.238	0.0180330
826.317	0.0180055
826.395	0.0179756
826.473	0.0180499
826.551	0.0180757
826.629	0.0179865
826.707	0.0180988
826.785	0.0180721
826.863	0.0179707
826.942	0.0180704
827.020	0.0180970
827.098	0.0180205
827.176	0.0180168
827.254	0.0180405
827.332	0.0180624
827.410	0.0180355
827.488	0.0179241
827.567	0.0180208
827.645	0.0179787
827.723	0.0178996
827.801	0.0179752
827.879	0.0178077
827.957	0.0180126
828.035	0.0179646
828.113	0.0180174
828.192	0.0178678
828.270	0.0179742
828.348	0.0179504
828.426	0.0179435
828.504	0.0180841
828.582	0.0180862
828.660	0.0180171
828.738	0.0179536
828.817	0.0181889
828.895	0.0179762
828.973	0.0180306
829.051	0.0180896
829.129	0.0180929
829.207	0.0179893
829.285	0.0181192
829.363	0.0179533
829.442	0.0179391
829.520	0.0179216
829.598	0.0180925
829.676	0.0180357
829.754	0.0180019
829.832	0.0180477
829.910	0.0180033
829.988	0.0181254
830.067	0.0180316
830.145	0.0180000
830.223	0.0180569
830.301	0.0180540
830.379	0.0180949
830.457	0.0181163
830.535	0.0180297
830.613	0.0179808
830.692	0.0181102
830.770	0.0181102
830.848	0.0180433
830.926	0.0180020
831.004	0.0180141
831.082	0.0180875
831.160	0.0179235
831.238	0.0178217
831.317	0.0178999
831.395	0.0179560
831.473	0.0177960
831.551	0.0178957
831.629	0.0180473
831.707	0.0180041
831.785	0.0180605
831.863	0.0179772
831.942	0.0179959
832.020	0.0180637
832.098	0.0180979
832.176	0.0179652
832.254	0.0179094
832.332	0.0180320
832.410	0.0180972
832.488	0.0180093
832.567	0.0180677
832.645	0.0180539
832.723	0.0179539
832.801	0.0180504
832.879	0.0180833
832.957	0.0179434
833.035	0.0179275
833.113	0.0179983
833.192	0.0180817
833.270	0.0180718
833.348	0.0179955
833.426	0.0180045
833.504	0.0180130
833.582	0.0180421
833.660	0.0181077
833.738	0.0179935
833.817	0.0179662
833.895	0.0179659
833.973	0.0179433
834.051	0.0179532
834.129	0.0180011
834.207	0.0179927
834.285	0.0179978
834.363	0.0177991
834.442	0.0179162
834.520	0.0177831
834.598	0.0180116
834.676	0.0178633
834.754	0.0178343
834.832	0.0180421
834.910	0.0179902
834.988	0.0179114
835.067	0.0179002
835.145	0.0179413
835.223	0.0179417
835.301	0.0179264
835.379	0.0180479
835.457	0.0179765
835.535	0.0179748
835.613	0.0179961
835.692	0.0180338
835.770	0.0181956
835.848	0.0180302
835.926	0.0180016
836.004	0.0179941
836.082	0.0179972
836.160	0.0179810
836.238	0.0181139
836.317	0.0181076
836.395	0.0180913
836.473	0.0180173
836.551	0.0180688
836.629	0.0179901
836.707	0.0179347
836.785	0.0178108
836.863	0.0180043
836.942	0.0180161
837.020	0.0180735
837.098	0.0180125
837.176	0.0180131
837.254	0.0180738
837.332	0.0180070
837.410	0.0179995
837.488	0.0180028
837.567	0.0180775
837.645	0.0181178
837.723	0.0179182
837.801	0.0179652
837.879	0.0180888
837.957	0.0181090
838.035	0.0180490
838.113	0.0180684
838.192	0.0181190
838.270	0.0179984
838.348	0.0180286
838.426	0.0179552
838.504	0.0181798
838.582	0.0180714
838.660	0.0180536
838.738	0.0180334
838.817	0.0180473
838.895	0.0179293
838.973	0.0181504
839.051	0.0180898
839.129	0.0180820
839.207	0.0179488
839.285	0.0179168
839.363	0.0179811
839.442	0.0180350
839.520	0.0179297
839.598	0.0180645
839.676	0.0178954
839.754	0.0180199
839.832	0.0179915
839.910	0.0179797
839.988	0.0180047
840.067	0.0178696
840.145	0.0179430
840.223	0.0179002
840.301	0.0180601
840.379	0.0179015
840.457	0.0180569
840.535	0.0179500
840.613	0.0180264
840.692	0.0179649
840.770	0.0180026
840.848	0.0180270
840.926	0.0180368
841.004	0.0179256
841.082	0.0180044
841.160	0.0180093
841.238	0.0179407
841.317	0.0181128
841.395	0.0179362
841.473	0.0178711
841.551	0.0179630
841.629	0.0178545
841.707	0.0179053
841.785	0.0179434
841.863	0.0179050
841.942	0.0177737
842.020	0.0179762
842.098	0.0180137
842.176	0.0178763
842.254	0.0180276
842.332	0.0179358
842.410	0.0178604
842.488	0.0179113
842.567	0.0178492
842.645	0.0179616
842.723	0.0180464
842.801	0.0179448
842.879	0.0179600
842.957	0.0179862
843.035	0.0180217
843.113	0.0179999
843.192	0.0181170
843.270	0.0180548
843.348	0.0179628
843.426	0.0180800
843.504	0.0180650
843.582	0.0180494
843.660	0.0180877
843.738	0.0179640
843.817	0.0181094
843.895	0.0179108
843.973	0.0180722
844.051	0.0181126
844.129	0.0179199
844.207	0.0180612
844.285	0.0181333
844.363	0.0182095
844.442	0.0180263
844.520	0.0182877
844.598	0.0181036
844.676	0.0182645
844.754	0.0182272
844.832	0.0181725
844.910	0.0181082
844.988	0.0181272
845.067	0.0181426
845.145	0.0181254
845.223	0.0180983
845.301	0.0180431
845.379	0.0179538
845.457	0.0179874
845.535	0.0179721
845.613	0.0180255
845.692	0.0179649
845.770	0.0180132
845.848	0.0180111
845.926	0.0178450
846.004	0.0178963
846.082	0.0178246
846.160	0.0177856
846.238	0.0178703
846.317	0.0179423
846.395	0.0178797
846.473	0.0178960
846.551	0.0179449
846.629	0.0178174
846.707	0.0179253
846.785	0.0179012
846.863	0.0178876
846.942	0.0179954
847.020	0.0178564
847.098	0.0179583
847.176	0.0178682
847.254	0.0179443
847.332	0.0179085
847.410	0.0179208
847.488	0.0181239
847.567	0.0180241
847.645	0.0180538
847.723	0.0180392
847.801	0.0181347
847.879	0.0178870
847.957	0.0179923
848.035	0.0181412
848.113	0.0181110
848.192	0.0180399
848.270	0.0179163
848.348	0.0182075
848.426	0.0180156
848.504	0.0180300
848.582	0.0181451
848.660	0.0180085
848.738	0.0180674
848.817	0.0180420
848.895	0.0180344
848.973	0.0180019
849.051	0.0180190
849.129	0.0181474
849.207	0.0181301
849.285	0.0180669
849.363	0.0180898
849.442	0.0180865
849.520	0.0180355
849.598	0.0179819
849.676	0.0179485
849.754	0.0179990
849.832	0.0180984
849.910	0.0179723
849.988	0.0178316
850.067	0.0180381
850.145	0.0179293
850.223	0.0178402
850.301	0.0180112
850.379	0.0179559
850.457	0.0178744
850.535	0.0178193
850.613	0.0178236
850.692	0.0179311
850.770	0.0179301
850.848	0.0178640
850.926	0.0180418
851.004	0.0180224
851.082	0.0178916
851.160	0.0179598
851.238	0.0181823
851.317	0.0181930
851.395	0.0180687
851.473	0.0180208
851.551	0.0181501
851.629	0.0182075
851.707	0.0181487
851.785	0.0181572
851.863	0.0181005
851.942	0.0181156
852.020	0.0181285
852.098	0.0180577
852.176	0.0180723
852.254	0.0180309
852.332	0.0180118
852.410	0.0181674
852.488	0.0181506
852.567	0.0181182
852.645	0.0180685
852.723	0.0180853
852.801	0.0180985
852.879	0.0180421
852.957	0.0179813
853.035	0.0181316
853.113	0.0180331
853.192	0.0178522
853.270	0.0180522
853.348	0.0181004
853.426	0.0180254
853.504	0.0180058
853.582	0.0179994
853.660	0.0179803
853.738	0.0178445
853.817	0.0179935
853.895	0.0180991
853.973	0.0180692
854.051	0.0180234
854.129	0.0180217
854.207	0.0179166
854.285	0.0180647
854.363	0.0182285
854.442	0.0180257
854.520	0.0180977
854.598	0.0182210
854.676	0.0180624
854.754	0.0181490
854.832	0.0181196
854.910	0.0181537
854.988	0.0181668
855.067	0.0180432
855.145	0.0180276
855.223	0.0180879
855.301	0.0180448
855.379	0.0179695
855.457	0.0179830
855.535	0.0178687
855.613	0.0179597
855.692	0.0179292
855.770	0.0179629
855.848	0.0180279
855.926	0.0178356
856.004	0.0180547
856.082	0.0179644
856.160	0.0179197
856.238	0.0178701
856.317	0.0179137
856.395	0.0178771
856.473	0.0179974
856.551	0.0179262
856.629	0.0178516
856.707	0.0179892
856.785	0.0178078
856.863	0.0177930
856.942	0.0178098
857.020	0.0179805
857.098	0.0178906
857.176	0.0178527
857.254	0.0177827
857.332	0.0177917
857.410	0.0177826
857.488	0.0178851
857.567	0.0177343
857.645	0.0178588
857.723	0.0180106
857.801	0.0179852
857.879	0.0179912
857.957	0.0180704
858.035	0.0180721
858.113	0.0179780
858.192	0.0180912
858.270	0.0181460
858.348	0.0181638
858.426	0.0182120
858.504	0.0181799
858.582	0.0182047
858.660	0.0182973
858.738	0.0182764
858.817	0.0183807
858.895	0.0182176
858.973	0.0181212
859.051	0.0182555
859.129	0.0182912
859.207	0.0182473
859.285	0.0182997
859.363	0.0182854
859.442	0.0182981
859.520	0.0183225
859.598	0.0181228
859.676	0.0179619
859.754	0.0180125
859.832	0.0181131
859.910	0.0181563
859.988	0.0181979
860.067	0.0181609
860.145	0.0180574
860.223	0.0180888
860.301	0.0180960
860.379	0.0180405
860.457	0.0180762
860.535	0.0180389
860.613	0.0179868
860.692	0.0181064
860.770	0.0179239
860.848	0.0180209
860.926	0.0179147
861.004	0.0178202
861.082	0.0179510
861.160	0.0178297
861.238	0.0178175
861.317	0.0178870
861.395	0.0178821
861.473	0.0178148
861.551	0.0177414
861.629	0.0179060
861.707	0.0177796
861.785	0.0178638
861.863	0.0179131
861.942	0.0178506
862.020	0.0179861
862.098	0.0178289
862.176	0.0180061
862.254	0.0178851
862.332	0.0181100
862.410	0.0179726
862.488	0.0180353
862.567	0.0180252
862.645	0.0180326
862.723	0.0180623
862.801	0.0180242
862.879	0.0180892
862.957	0.0180551
863.035	0.0180019
863.113	0.0179926
863.192	0.0178265
863.270	0.0180999
863.348	0.0180602
863.426	0.0179671
863.504	0.0179593
863.582	0.0178823
863.660	0.0179138
863.738	0.0177844
863.817	0.0178676
863.895	0.0180815
863.973	0.0178380
864.051	0.0179301
864.129	0.0180336
864.207	0.0181635
864.285	0.0180326
864.363	0.0180521
864.442	0.0181578
864.520	0.0182229
864.598	0.0182750
864.676	0.0182254
864.754	0.0181188
864.832	0.0182108
864.910	0.0181917
864.988	0.0181985
865.067	0.0181062
865.145	0.0181738
865.223	0.0182493
865.301	0.0183013
865.379	0.0182253
865.457	0.0181744
865.535	0.0181658
865.613	0.0181367
865.692	0.0182387
865.770	0.0181689
865.848	0.0181599
865.926	0.0180894
866.004	0.0181179
866.082	0.0182210
866.160	0.0183078
866.238	0.0180550
866.317	0.0180640
866.395	0.0180363
866.473	0.0179791
866.551	0.0178629
866.629	0.0179433
866.707	0.0179122
866.785	0.0178526
866.863	0.0178497
866.942	0.0176797
867.020	0.0177155
867.098	0.0177638
867.176	0.0177513
867.254	0.0176585
867.332	0.0176554
867.410	0.0177438
867.488	0.0176630
867.567	0.0176511
867.645	0.0175443
867.723	0.0176700
867.801	0.0177848
867.879	0.0176544
867.957	0.0177606
868.035	0.0179455
868.113	0.0179245
868.192	0.0179902
868.270	0.0179810
868.348	0.0179410
868.426	0.0179542
868.504	0.0180788
868.582	0.0178679
868.660	0.0180422
868.738	0.0180766
868.817	0.0182397
868.895	0.0181512
868.973	0.0180938
869.051	0.0180508
869.129	0.0182646
869.207	0.0181476
869.285	0.0182559
869.363	0.0182552
869.442	0.0181401
869.520	0.0181525
869.598	0.0182292
869.676	0.0181469
869.754	0.0181174
869.832	0.0181512
869.910	0.0181680
869.988	0.0180524
870.067	0.0180614
870.145	0.0182198
870.223	0.0180375
870.301	0.0181033
870.379	0.0181161
870.457	0.0181813
870.535	0.0180531
870.613	0.0181062
870.692	0.0181104
870.770	0.0179972
870.848	0.0180418
870.926	0.0181067
871.004	0.0180383
871.082	0.0180056
871.160	0.0179674
871.238	0.0181105
871.317	0.0179900
871.395	0.0180620
871.473	0.0180822
871.551	0.0181374
871.629	0.0180115
871.707	0.0182063
871.785	0.0179649
871.863	0.0181791
871.942	0.0180386
872.020	0.0180168
872.098	0.0179703
872.176	0.0180133
872.254	0.0179003
872.332	0.0178316
872.410	0.0179896
872.488	0.0178882
872.567	0.0178205
872.645	0.0177959
872.723	0.0178217
872.801	0.0178685
872.879	0.0179400
872.957	0.0178586
873.035	0.0177428
873.113	0.0178320
873.192	0.0178677
873.270	0.0179004
873.348	0.0178486
873.426	0.0178665
873.504	0.0180044
873.582	0.0179156
873.660	0.0178102
873.738	0.0177608
873.817	0.0178168
873.895	0.0179077
873.973	0.0178905
874.051	0.0180132
874.129	0.0178883
874.207	0.0178529
874.285	0.0178455
874.363	0.0179798
874.442	0.0179802
874.520	0.0180647
874.598	0.0181190
874.676	0.0179802
874.754	0.0179141
874.832	0.0179321
874.910	0.0180983
874.988	0.0180714
875.067	0.0180775
875.145	0.0180090
875.223	0.0180957
875.301	0.0180968
875.379	0.0180994
875.457	0.0182089
875.535	0.0181395
875.613	0.0182341
875.692	0.0182182
875.770	0.0182812
875.848	0.0182384
875.926	0.0182289
876.004	0.0181612
876.082	0.0181658
876.160	0.0181277
876.238	0.0182030
876.317	0.0181826
876.395	0.0182398
876.473	0.0180325
876.551	0.0181325
876.629	0.0179772
876.707	0.0180322
876.785	0.0179256
876.863	0.0180487
876.942	0.0180527
877.020	0.0179630
877.098	0.0179218
877.176	0.0181108
877.254	0.0180045
877.332	0.0180058
877.410	0.0179734
877.488	0.0178442
877.567	0.0178439
877.645	0.0179642
877.723	0.0180422
877.801	0.0179073
877.879	0.0178863
877.957	0.0178477
878.035	0.0179295
878.113	0.0179025
878.192	0.0181239
878.270	0.0180715
878.348	0.0181300
878.426	0.0180839
878.504	0.0181094
878.582	0.0180482
878.660	0.0180681
878.738	0.0180669
878.817	0.0180463
878.895	0.0180531
878.973	0.0181058
879.051	0.0181261
879.129	0.0179341
879.207	0.0180313
879.285	0.0181022
879.363	0.0179915
879.442	0.0180989
879.520	0.0179211
879.598	0.0179971
879.676	0.0180058
879.754	0.0180337
879.832	0.0181190
879.910	0.0180033
879.988	0.0179497
880.067	0.0180034
880.145	0.0180138
880.223	0.0179397
880.301	0.0179604
880.379	0.0179962
880.457	0.0179964
880.535	0.0180603
880.613	0.0180428
880.692	0.0179257
880.770	0.0179604
880.848	0.0179693
880.926	0.0179391
881.004	0.0178838
881.082	0.0178515
881.160	0.0179694
881.238	0.0180035
881.317	0.0179093
881.395	0.0178057
881.473	0.0179111
881.551	0.0179621
881.629	0.0179961
881.707	0.0180725
881.785	0.0178887
881.863	0.0179216
881.942	0.0179450
882.020	0.0179030
882.098	0.0179501
882.176	0.0179600
882.254	0.0178605
882.332	0.0179626
882.410	0.0180739
882.488	0.0179297
882.567	0.0179688
882.645	0.0180843
882.723	0.0181339
882.801	0.0179971
882.879	0.0182509
882.957	0.0180480
883.035	0.0179954
883.113	0.0181485
883.192	0.0181274
883.270	0.0180860
883.348	0.0181159
883.426	0.0179875
883.504	0.0180373
883.582	0.0181178
883.660	0.0182143
883.738	0.0181050
883.817	0.0180891
883.895	0.0180173
883.973	0.0180481
884.051	0.0180806
884.129	0.0180098
884.207	0.0181367
884.285	0.0179993
884.363	0.0180148
884.442	0.0180688
884.520	0.0181683
884.598	0.0180135
884.676	0.0180313
884.754	0.0180900
884.832	0.0182191
884.910	0.0180208
884.988	0.0181785
885.067	0.0180518
885.145	0.0180323
885.223	0.0181812
885.301	0.0180296
885.379	0.0180418
885.457	0.0179301
885.535	0.0179911
885.613	0.0179518
885.692	0.0178706
885.770	0.0177761
885.848	0.0178349
885.926	0.0178082
886.004	0.0178058
886.082	0.0178901
886.160	0.0178134
886.238	0.0178287
886.317	0.0179369
886.395	0.0179659
886.473	0.0179903
886.551	0.0179716
886.629	0.0181079
886.707	0.0179228
886.785	0.0179037
886.863	0.0179324
886.942	0.0178581
887.020	0.0178548
887.098	0.0178405
887.176	0.0177287
887.254	0.0177525
887.332	0.0176969
887.410	0.0176067
887.488	0.0177181
887.567	0.0178470
887.645	0.0178664
887.723	0.0179553
887.801	0.0177776
887.879	0.0179620
887.957	0.0180069
888.035	0.0181440
888.113	0.0181853
888.192	0.0181188
888.270	0.0180257
888.348	0.0181711
888.426	0.0181849
888.504	0.0180862
888.582	0.0181385
888.660	0.0180053
888.738	0.0179659
888.817	0.0178882
888.895	0.0179046
888.973	0.0180726
889.051	0.0179207
889.129	0.0179544
889.207	0.0180239
889.285	0.0179816
889.363	0.0178876
889.442	0.0180326
889.520	0.0180095
889.598	0.0180569
889.676	0.0181099
889.754	0.0180502
889.832	0.0182765
889.910	0.0180806
889.988	0.0182667
890.067	0.0181935
890.145	0.0182000
890.223	0.0180380
890.301	0.0181710
890.379	0.0181581
890.457	0.0181113
890.535	0.0180985
890.613	0.0181340
890.692	0.0181778
890.770	0.0182248
890.848	0.0181721
890.926	0.0181583
891.004	0.0180536
891.082	0.0180807
891.160	0.0181334
891.238	0.0181533
891.317	0.0181330
891.395	0.0181351
891.473	0.0181538
891.551	0.0182164
891.629	0.0181868
891.707	0.0179488
891.785	0.0181522
891.863	0.0180048
891.942	0.0180241
892.020	0.0180462
892.098	0.0178257
892.176	0.0179202
892.254	0.0179291
892.332	0.0177732
892.410	0.0178854
892.488	0.0178821
892.567	0.0177818
892.645	0.0177689
892.723	0.0178358
892.801	0.0178858
892.879	0.0176749
892.957	0.0177953
893.035	0.0178751
893.113	0.0178355
893.192	0.0178300
893.270	0.0177096
893.348	0.0178224
893.426	0.0178723
893.504	0.0178475
893.582	0.0177064
893.660	0.0178120
893.738	0.0177719
893.817	0.0176808
893.895	0.0177152
893.973	0.0176976
894.051	0.0179215
894.129	0.0178682
894.207	0.0177821
894.285	0.0178667
894.363	0.0179306
894.442	0.0178182
894.520	0.0178378
894.598	0.0179300
894.676	0.0179465
894.754	0.0180470
894.832	0.0178402
894.910	0.0178884
894.988	0.0180405
895.067	0.0179720
895.145	0.0180313
895.223	0.0179273
895.301	0.0179784
895.379	0.0180408
895.457	0.0180366
895.535	0.0179770
895.613	0.0182091
895.692	0.0180814
895.770	0.0181059
895.848	0.0181388
895.926	0.0181158
896.004	0.0182404
896.082	0.0181736
896.160	0.0182116
896.238	0.0183137
896.317	0.0183817
896.395	0.0181791
896.473	0.0183604
896.551	0.0184089
896.629	0.0181853
896.707	0.0182983
896.785	0.0182981
896.863	0.0182104
896.942	0.0182618
897.020	0.0184277
897.098	0.0181631
897.176	0.0182742
897.254	0.0183215
897.332	0.0182558
897.410	0.0181030
897.488	0.0180901
897.567	0.0180930
897.645	0.0181192
897.723	0.0180271
897.801	0.0179067
897.879	0.0179280
897.957	0.0179806
898.035	0.0179543
898.113	0.0179576
898.192	0.0178783
898.270	0.0177132
898.348	0.0178313
898.426	0.0177537
898.504	0.0176941
898.582	0.0176145
898.660	0.0177623
898.738	0.0177879
898.817	0.0178291
898.895	0.0176787
898.973	0.0175315
899.051	0.0176996
899.129	0.0175185
899.207	0.0175378
899.285	0.0176134
899.363	0.0175472
899.442	0.0177164
899.520	0.0176109
899.598	0.0177148
899.676	0.0176208
899.754	0.0178424
899.832	0.0177769
899.910	0.0177385
899.988	0.0178191
900.067	0.0178739
900.145	0.0178258
900.223	0.0178693
900.301	0.0179585
900.379	0.0180637
900.457	0.0179539
900.535	0.0180082
900.613	0.0179370
900.692	0.0180140
900.770	0.0179733
900.848	0.0180981
900.926	0.0181641
901.004	0.0181006
901.082	0.0180789
901.160	0.0181664
901.238	0.0181035
901.317	0.0181358
901.395	0.0181207
901.473	0.0181119
901.551	0.0182405
901.629	0.0180048
901.707	0.0181294
901.785	0.0181911
901.863	0.0182490
901.942	0.0181437
902.020	0.0180822
902.098	0.0179929
902.176	0.0179861
902.254	0.0179623
902.332	0.0180136
902.410	0.0180630
902.488	0.0181083
902.567	0.0181034
902.645	0.0180634
902.723	0.0179995
902.801	0.0180343
902.879	0.0182360
902.957	0.0181409
903.035	0.0181231
903.113	0.0180990
903.192	0.0182047
903.270	0.0182300
903.348	0.0181308
903.426	0.0181248
903.504	0.0179994
903.582	0.0181963
903.660	0.0180708
903.738	0.0180216
903.817	0.0180666
903.895	0.0181350
903.973	0.0180677
904.051	0.0180154
904.129	0.0180077
904.207	0.0180211
904.285	0.0179790
904.363	0.0179187
904.442	0.0178979
904.520	0.0178565
904.598	0.0180091
904.676	0.0178811
904.754	0.0179384
904.832	0.0179777
904.910	0.0177104
904.988	0.0179588
905.067	0.0180373
905.145	0.0178706
905.223	0.0178144
905.301	0.0179590
905.379	0.0179373
905.457	0.0178843
905.535	0.0178954
905.613	0.0179800
905.692	0.0179506
905.770	0.0179219
905.848	0.0180064
905.926	0.0180212
906.004	0.0178094
906.082	0.0178824
906.160	0.0178682
906.238	0.0178394
906.317	0.0179978
906.395	0.0180066
906.473	0.0178989
906.551	0.0178313
906.629	0.0178459
906.707	0.0177447
906.785	0.0179001
906.863	0.0178522
906.942	0.0180110
907.020	0.0179182
907.098	0.0179008
907.176	0.0178807
907.254	0.0179450
907.332	0.0180238
907.410	0.0179813
907.488	0.0178609
907.567	0.0179370
907.645	0.0179521
907.723	0.0180148
907.801	0.0178956
907.879	0.0180169
907.957	0.0179993
908.035	0.0180352
908.113	0.0179265
908.192	0.0179023
908.270	0.0178566
908.348	0.0180811
908.426	0.0180541
908.504	0.0180703
908.582	0.0180027
908.660	0.0181003
908.738	0.0179498
908.817	0.0180968
908.895	0.0182379
908.973	0.0182091
909.051	0.0181979
909.129	0.0181130
909.207	0.0181408
909.285	0.0182920
909.363	0.0182068
909.442	0.0181281
909.520	0.0182938
909.598	0.0182386
909.676	0.0181195
909.754	0.0180989
909.832	0.0181306
909.910	0.0181527
909.988	0.0179178
910.067	0.0180617
910.145	0.0179983
910.223	0.0179940
910.301	0.0180473
910.379	0.0180608
910.457	0.0178652
910.535	0.0179945
910.613	0.0180193
910.692	0.0178746
910.770	0.0178039
910.848	0.0178742
910.926	0.0178817
911.004	0.0179708
911.082	0.0180222
911.160	0.0178784
911.238	0.0178688
911.317	0.0180288
911.395	0.0180012
911.473	0.0180365
911.551	0.0178681
911.629	0.0179440
911.707	0.0180216
911.785	0.0179894
911.863	0.0179641
911.942	0.0180244
912.020	0.0179502
912.098	0.0178668
912.176	0.0179296
912.254	0.0179925
912.332	0.0179728
912.410	0.0180016
912.488	0.0180959
912.567	0.0180003
912.645	0.0178962
912.723	0.0177739
912.801	0.0178317
912.879	0.0178564
912.957	0.0179378
913.035	0.0178917
913.113	0.0180828
913.192	0.0179638
913.270	0.0179817
913.348	0.0180088
913.426	0.0181203
913.504	0.0180628
913.582	0.0181255
913.660	0.0181229
913.738	0.0179893
913.817	0.0181693
913.895	0.0181734
913.973	0.0180453
914.051	0.0180457
914.129	0.0182232
914.207	0.0180492
914.285	0.0179485
914.363	0.0180748
914.442	0.0179738
914.520	0.0179444
914.598	0.0180153
914.676	0.0177927
914.754	0.0179670
914.832	0.0179212
914.910	0.0179160
914.988	0.0178207
915.067	0.0177441
915.145	0.0178026
915.223	0.0178608
915.301	0.0180058
915.379	0.0179154
915.457	0.0179442
915.535	0.0179106
915.613	0.0179417
915.692	0.0179113
915.770	0.0180194
915.848	0.0178426
915.926	0.0179549
916.004	0.0179208
916.082	0.0179085
916.160	0.0179986
916.238	0.0181814
916.317	0.0181063
916.395	0.0180586
916.473	0.0181354
916.551	0.0180900
916.629	0.0181013
916.707	0.0180228
916.785	0.0180691
916.863	0.0181753
916.942	0.0180425
917.020	0.0181700
917.098	0.0181941
917.176	0.0181150
917.254	0.0180213
917.332	0.0179711
917.410	0.0181458
917.488	0.0180191
917.567	0.0179179
917.645	0.0177895
917.723	0.0179944
917.801	0.0179102
917.879	0.0178503
917.957	0.0179839
918.035	0.0180522
918.113	0.0178582
918.192	0.0179517
918.270	0.0179292
918.348	0.0180082
918.426	0.0178918
918.504	0.0179463
918.582	0.0179803
918.660	0.0180526
918.738	0.0181226
918.817	0.0179402
918.895	0.0180650
918.973	0.0180677
919.051	0.0181647
919.129	0.0180257
919.207	0.0180859
919.285	0.0180523
919.363	0.0180422
919.442	0.0180820
919.520	0.0180219
919.598	0.0180297
919.676	0.0179989
919.754	0.0178953
919.832	0.0179150
919.910	0.0180196
