06/01/2022	21:51:03	Ver.	4.1	UNKNOWN
Optical Delay	599.988409	Delta X		0.078125	Sweeps	1	Scan Rate	0/0
Coordinates	Axis 1	NaN	Axis 2	NaN	Axis 3	NaN	Axis 4	NaN	Axis 5	NaN	Axis 6	0.000000
TX Power	0.000000	RX Power	0.000000

599.988	0.0186043
600.067	0.0185519
600.145	0.0186150
600.223	0.0187144
600.301	0.0185419
600.379	0.0184412
600.457	0.0185423
600.535	0.0185458
600.613	0.0183707
600.692	0.0185123
600.770	0.0185027
600.848	0.0185292
600.926	0.0185551
601.004	0.0186743
601.082	0.0185473
601.160	0.0184966
601.238	0.0184566
601.317	0.0185278
601.395	0.0184467
601.473	0.0186275
601.551	0.0186424
601.629	0.0184280
601.707	0.0184879
601.785	0.0185995
601.863	0.0185937
601.942	0.0185511
602.020	0.0185011
602.098	0.0185381
602.176	0.0185104
602.254	0.0184767
602.332	0.0186187
602.410	0.0186014
602.488	0.0185748
602.567	0.0185566
602.645	0.0185445
602.723	0.0186028
602.801	0.0186319
602.879	0.0185579
602.957	0.0186138
603.035	0.0184889
603.113	0.0185862
603.192	0.0186028
603.270	0.0185137
603.348	0.0184678
603.426	0.0186613
603.504	0.0184698
603.582	0.0186013
603.660	0.0186700
603.738	0.0186049
603.817	0.0185587
603.895	0.0185739
603.973	0.0186106
604.051	0.0186021
604.129	0.0185667
604.207	0.0186172
604.285	0.0187032
604.363	0.0184014
604.442	0.0186805
604.520	0.0187400
604.598	0.0185820
604.676	0.0186309
604.754	0.0186856
604.832	0.0186070
604.910	0.0185320
604.988	0.0186539
605.067	0.0186273
605.145	0.0185831
605.223	0.0185105
605.301	0.0184455
605.379	0.0186271
605.457	0.0186631
605.535	0.0184978
605.613	0.0186469
605.692	0.0186353
605.770	0.0187167
605.848	0.0185035
605.926	0.0185886
606.004	0.0187298
606.082	0.0185759
606.160	0.0185103
606.238	0.0186458
606.317	0.0186003
606.395	0.0185046
606.473	0.0186324
606.551	0.0185810
606.629	0.0184141
606.707	0.0185688
606.785	0.0185621
606.863	0.0187059
606.942	0.0185806
607.020	0.0185684
607.098	0.0186690
607.176	0.0185098
607.254	0.0186386
607.332	0.0186105
607.410	0.0184765
607.488	0.0186421
607.567	0.0185503
607.645	0.0185432
607.723	0.0184993
607.801	0.0186372
607.879	0.0187639
607.957	0.0185291
608.035	0.0185838
608.113	0.0185182
608.192	0.0186718
608.270	0.0186098
608.348	0.0185394
608.426	0.0185551
608.504	0.0186240
608.582	0.0186023
608.660	0.0187009
608.738	0.0186970
608.817	0.0184931
608.895	0.0185583
608.973	0.0185951
609.051	0.0185191
609.129	0.0185921
609.207	0.0185270
609.285	0.0185836
609.363	0.0185999
609.442	0.0186020
609.520	0.0186354
609.598	0.0185882
609.676	0.0184988
609.754	0.0185923
609.832	0.0185718
609.910	0.0185616
609.988	0.0185196
610.067	0.0187106
610.145	0.0186908
610.223	0.0186547
610.301	0.0186255
610.379	0.0186620
610.457	0.0186080
610.535	0.0187124
610.613	0.0185849
610.692	0.0186461
610.770	0.0185815
610.848	0.0186248
610.926	0.0186619
611.004	0.0186520
611.082	0.0187447
611.160	0.0186885
611.238	0.0186938
611.317	0.0186804
611.395	0.0187039
611.473	0.0185339
611.551	0.0185323
611.629	0.0187231
611.707	0.0187021
611.785	0.0185092
611.863	0.0185834
611.942	0.0186921
612.020	0.0186297
612.098	0.0185643
612.176	0.0186501
612.254	0.0186318
612.332	0.0185690
612.410	0.0187981
612.488	0.0186463
612.567	0.0185487
612.645	0.0185020
612.723	0.0185579
612.801	0.0186531
612.879	0.0187083
612.957	0.0186034
613.035	0.0187452
613.113	0.0186561
613.192	0.0185609
613.270	0.0186355
613.348	0.0186206
613.426	0.0186304
613.504	0.0186711
613.582	0.0186574
613.660	0.0185643
613.738	0.0186105
613.817	0.0186941
613.895	0.0186369
613.973	0.0185902
614.051	0.0185928
614.129	0.0187104
614.207	0.0186919
614.285	0.0186771
614.363	0.0186144
614.442	0.0187412
614.520	0.0186458
614.598	0.0186529
614.676	0.0187747
614.754	0.0187447
614.832	0.0186227
614.910	0.0185670
614.988	0.0186653
615.067	0.0187461
615.145	0.0185786
615.223	0.0186514
615.301	0.0185755
615.379	0.0184535
615.457	0.0185934
615.535	0.0185962
615.613	0.0187229
615.692	0.0187996
615.770	0.0185104
615.848	0.0185314
615.926	0.0187043
616.004	0.0186086
616.082	0.0184598
616.160	0.0185773
616.238	0.0187272
616.317	0.0187912
616.395	0.0187087
616.473	0.0186188
616.551	0.0185567
616.629	0.0184592
616.707	0.0187154
616.785	0.0185632
616.863	0.0185600
616.942	0.0185278
617.020	0.0185495
617.098	0.0188013
617.176	0.0185723
617.254	0.0186550
617.332	0.0186828
617.410	0.0186005
617.488	0.0185265
617.567	0.0186351
617.645	0.0185473
617.723	0.0186609
617.801	0.0187516
617.879	0.0185450
617.957	0.0185993
618.035	0.0186234
618.113	0.0185442
618.192	0.0184856
618.270	0.0186970
618.348	0.0186472
618.426	0.0187419
618.504	0.0186413
618.582	0.0185602
618.660	0.0187008
618.738	0.0186091
618.817	0.0186941
618.895	0.0187124
618.973	0.0185999
619.051	0.0185515
619.129	0.0186340
619.207	0.0186802
619.285	0.0187076
619.363	0.0185759
619.442	0.0186428
619.520	0.0185960
619.598	0.0185600
619.676	0.0187891
619.754	0.0185915
619.832	0.0187098
619.910	0.0186479
619.988	0.0186568
620.067	0.0186072
620.145	0.0185314
620.223	0.0186761
620.301	0.0187243
620.379	0.0185963
620.457	0.0185162
620.535	0.0186140
620.613	0.0187013
620.692	0.0185958
620.770	0.0187443
620.848	0.0186417
620.926	0.0184380
621.004	0.0185838
621.082	0.0187325
621.160	0.0187100
621.238	0.0185825
621.317	0.0184967
621.395	0.0186930
621.473	0.0186600
621.551	0.0186018
621.629	0.0187174
621.707	0.0186466
621.785	0.0187053
621.863	0.0187799
621.942	0.0185512
622.020	0.0185808
622.098	0.0187698
622.176	0.0187120
622.254	0.0185500
622.332	0.0185773
622.410	0.0186737
622.488	0.0187165
622.567	0.0185699
622.645	0.0186884
622.723	0.0185863
622.801	0.0185961
622.879	0.0187315
622.957	0.0186405
623.035	0.0186893
623.113	0.0185944
623.192	0.0186764
623.270	0.0186187
623.348	0.0187429
623.426	0.0187235
623.504	0.0184653
623.582	0.0187236
623.660	0.0187090
623.738	0.0185731
623.817	0.0185217
623.895	0.0185593
623.973	0.0185927
624.051	0.0186125
624.129	0.0186769
624.207	0.0186162
624.285	0.0186721
624.363	0.0186015
624.442	0.0186467
624.520	0.0186874
624.598	0.0185789
624.676	0.0186630
624.754	0.0186802
624.832	0.0186095
624.910	0.0186711
624.988	0.0186975
625.067	0.0186720
625.145	0.0186970
625.223	0.0185910
625.301	0.0184915
625.379	0.0186282
625.457	0.0184940
625.535	0.0186005
625.613	0.0185639
625.692	0.0186404
625.770	0.0185300
625.848	0.0185234
625.926	0.0185686
626.004	0.0185730
626.082	0.0186284
626.160	0.0186271
626.238	0.0185264
626.317	0.0184494
626.395	0.0186932
626.473	0.0187229
626.551	0.0186213
626.629	0.0185062
626.707	0.0186613
626.785	0.0186339
626.863	0.0185219
626.942	0.0186534
627.020	0.0185323
627.098	0.0186087
627.176	0.0185943
627.254	0.0185615
627.332	0.0187057
627.410	0.0186456
627.488	0.0186118
627.567	0.0186307
627.645	0.0187402
627.723	0.0186684
627.801	0.0185539
627.879	0.0185831
627.957	0.0186565
628.035	0.0185065
628.113	0.0187035
628.192	0.0186533
628.270	0.0185661
628.348	0.0186312
628.426	0.0185895
628.504	0.0186562
628.582	0.0186356
628.660	0.0186348
628.738	0.0187482
628.817	0.0186773
628.895	0.0186319
628.973	0.0185572
629.051	0.0185699
629.129	0.0186867
629.207	0.0187083
629.285	0.0185339
629.363	0.0184629
629.442	0.0187249
629.520	0.0186144
629.598	0.0185717
629.676	0.0186880
629.754	0.0185709
629.832	0.0186186
629.910	0.0186953
629.988	0.0187784
630.067	0.0186291
630.145	0.0186149
630.223	0.0186099
630.301	0.0185356
630.379	0.0187295
630.457	0.0184805
630.535	0.0185805
630.613	0.0185605
630.692	0.0185017
630.770	0.0185695
630.848	0.0185685
630.926	0.0186436
631.004	0.0187421
631.082	0.0185510
631.160	0.0186131
631.238	0.0186140
631.317	0.0184333
631.395	0.0185480
631.473	0.0186105
631.551	0.0186082
631.629	0.0185991
631.707	0.0186773
631.785	0.0185452
631.863	0.0184478
631.942	0.0186079
632.020	0.0186824
632.098	0.0186143
632.176	0.0185614
632.254	0.0186454
632.332	0.0186452
632.410	0.0185910
632.488	0.0186736
632.567	0.0186060
632.645	0.0185221
632.723	0.0187029
632.801	0.0186698
632.879	0.0185896
632.957	0.0187088
633.035	0.0186390
633.113	0.0186872
633.192	0.0186264
633.270	0.0185750
633.348	0.0187010
633.426	0.0186211
633.504	0.0186296
633.582	0.0185820
633.660	0.0185574
633.738	0.0186244
633.817	0.0186266
633.895	0.0185542
633.973	0.0185292
634.051	0.0186179
634.129	0.0185173
634.207	0.0185895
634.285	0.0186135
634.363	0.0186189
634.442	0.0185332
634.520	0.0184834
634.598	0.0185572
634.676	0.0183624
634.754	0.0186008
634.832	0.0185283
634.910	0.0185560
634.988	0.0185548
635.067	0.0184882
635.145	0.0184304
635.223	0.0185586
635.301	0.0185468
635.379	0.0186227
635.457	0.0184692
635.535	0.0185804
635.613	0.0184252
635.692	0.0184356
635.770	0.0186138
635.848	0.0186486
635.926	0.0185226
636.004	0.0184927
636.082	0.0184960
636.160	0.0184422
636.238	0.0185649
636.317	0.0184928
636.395	0.0184897
636.473	0.0185188
636.551	0.0184753
636.629	0.0184656
636.707	0.0185728
636.785	0.0185231
636.863	0.0185400
636.942	0.0186140
637.020	0.0186410
637.098	0.0185658
637.176	0.0184795
637.254	0.0186398
637.332	0.0185658
637.410	0.0185464
637.488	0.0185230
637.567	0.0185160
637.645	0.0186303
637.723	0.0185188
637.801	0.0184789
637.879	0.0185542
637.957	0.0185107
638.035	0.0185316
638.113	0.0185134
638.192	0.0187204
638.270	0.0186977
638.348	0.0185397
638.426	0.0185658
638.504	0.0185579
638.582	0.0186358
638.660	0.0185296
638.738	0.0186120
638.817	0.0186530
638.895	0.0184844
638.973	0.0186437
639.051	0.0185508
639.129	0.0186443
639.207	0.0185774
639.285	0.0185641
639.363	0.0186111
639.442	0.0186058
639.520	0.0186941
639.598	0.0185931
639.676	0.0185578
639.754	0.0186093
639.832	0.0186401
639.910	0.0186695
639.988	0.0186201
640.067	0.0185059
640.145	0.0185947
640.223	0.0186124
640.301	0.0185457
640.379	0.0185815
640.457	0.0185136
640.535	0.0186732
640.613	0.0185742
640.692	0.0186519
640.770	0.0186365
640.848	0.0186376
640.926	0.0186456
641.004	0.0185600
641.082	0.0186347
641.160	0.0185354
641.238	0.0187068
641.317	0.0184931
641.395	0.0186492
641.473	0.0186129
641.551	0.0184441
641.629	0.0185433
641.707	0.0184055
641.785	0.0184779
641.863	0.0186045
641.942	0.0184520
642.020	0.0185193
642.098	0.0185996
642.176	0.0185783
642.254	0.0185506
642.332	0.0186297
642.410	0.0186609
642.488	0.0185719
642.567	0.0187776
642.645	0.0187748
642.723	0.0186763
642.801	0.0186292
642.879	0.0186214
642.957	0.0186803
643.035	0.0186555
643.113	0.0186809
643.192	0.0184830
643.270	0.0185959
643.348	0.0185342
643.426	0.0185516
643.504	0.0184523
643.582	0.0185406
643.660	0.0185281
643.738	0.0186194
643.817	0.0186302
643.895	0.0185205
643.973	0.0186497
644.051	0.0185284
644.129	0.0186538
644.207	0.0187711
644.285	0.0186652
644.363	0.0185998
644.442	0.0188258
644.520	0.0188251
644.598	0.0188448
644.676	0.0187688
644.754	0.0186808
644.832	0.0185608
644.910	0.0186711
644.988	0.0186660
645.067	0.0185303
645.145	0.0186093
645.223	0.0184980
645.301	0.0183127
645.379	0.0184269
645.457	0.0184936
645.535	0.0185339
645.613	0.0184354
645.692	0.0186008
645.770	0.0185781
645.848	0.0185520
645.926	0.0185851
646.004	0.0186549
646.082	0.0187389
646.160	0.0185327
646.238	0.0186506
646.317	0.0186285
646.395	0.0186825
646.473	0.0187745
646.551	0.0187451
646.629	0.0187260
646.707	0.0186918
646.785	0.0187412
646.863	0.0188239
646.942	0.0186093
647.020	0.0186854
647.098	0.0185863
647.176	0.0184734
647.254	0.0184473
647.332	0.0183734
647.410	0.0185020
647.488	0.0185798
647.567	0.0184791
647.645	0.0186197
647.723	0.0185961
647.801	0.0184811
647.879	0.0186359
647.957	0.0186089
648.035	0.0185558
648.113	0.0186109
648.192	0.0186671
648.270	0.0185867
648.348	0.0187654
648.426	0.0186846
648.504	0.0187881
648.582	0.0188176
648.660	0.0187288
648.738	0.0186818
648.817	0.0188500
648.895	0.0187343
648.973	0.0186561
649.051	0.0186388
649.129	0.0185391
649.207	0.0186329
649.285	0.0185242
649.363	0.0185328
649.442	0.0183786
649.520	0.0183636
649.598	0.0184588
649.676	0.0183672
649.754	0.0184330
649.832	0.0185645
649.910	0.0186851
649.988	0.0187096
650.067	0.0186777
650.145	0.0187585
650.223	0.0188276
650.301	0.0188163
650.379	0.0188045
650.457	0.0189574
650.535	0.0187453
650.613	0.0187344
650.692	0.0187925
650.770	0.0186832
650.848	0.0186143
650.926	0.0184451
651.004	0.0186901
651.082	0.0185788
651.160	0.0183541
651.238	0.0183308
651.317	0.0183740
651.395	0.0185180
651.473	0.0184782
651.551	0.0184821
651.629	0.0186429
651.707	0.0185185
651.785	0.0184809
651.863	0.0186271
651.942	0.0187771
652.020	0.0186034
652.098	0.0187008
652.176	0.0187247
652.254	0.0186945
652.332	0.0188136
652.410	0.0187421
652.488	0.0186976
652.567	0.0186699
652.645	0.0187328
652.723	0.0186480
652.801	0.0187031
652.879	0.0185860
652.957	0.0184683
653.035	0.0185246
653.113	0.0186076
653.192	0.0184755
653.270	0.0184688
653.348	0.0185015
653.426	0.0185279
653.504	0.0184762
653.582	0.0185087
653.660	0.0187326
653.738	0.0186115
653.817	0.0185715
653.895	0.0185634
653.973	0.0184982
654.051	0.0185889
654.129	0.0185912
654.207	0.0186096
654.285	0.0186672
654.363	0.0186186
654.442	0.0186837
654.520	0.0186943
654.598	0.0185487
654.676	0.0186478
654.754	0.0187218
654.832	0.0186227
654.910	0.0186607
654.988	0.0186319
655.067	0.0185709
655.145	0.0187832
655.223	0.0186761
655.301	0.0185312
655.379	0.0185621
655.457	0.0185246
655.535	0.0185912
655.613	0.0184917
655.692	0.0186075
655.770	0.0188015
655.848	0.0186940
655.926	0.0184817
656.004	0.0186205
656.082	0.0186719
656.160	0.0185663
656.238	0.0185338
656.317	0.0186312
656.395	0.0184479
656.473	0.0185458
656.551	0.0185378
656.629	0.0186722
656.707	0.0185931
656.785	0.0185040
656.863	0.0185767
656.942	0.0186127
657.020	0.0186400
657.098	0.0184602
657.176	0.0186781
657.254	0.0185648
657.332	0.0186866
657.410	0.0186900
657.488	0.0186704
657.567	0.0188804
657.645	0.0187132
657.723	0.0186467
657.801	0.0186732
657.879	0.0186427
657.957	0.0186256
658.035	0.0187401
658.113	0.0186264
658.192	0.0185146
658.270	0.0185377
658.348	0.0185773
658.426	0.0184184
658.504	0.0184712
658.582	0.0184054
658.660	0.0182600
658.738	0.0184036
658.817	0.0184859
658.895	0.0185030
658.973	0.0184338
659.051	0.0187077
659.129	0.0186102
659.207	0.0185246
659.285	0.0187093
659.363	0.0187479
659.442	0.0188327
659.520	0.0188683
659.598	0.0187666
659.676	0.0188190
659.754	0.0188425
659.832	0.0186201
659.910	0.0186007
659.988	0.0186830
660.067	0.0186234
660.145	0.0185464
660.223	0.0184129
660.301	0.0183761
660.379	0.0182961
660.457	0.0182471
660.535	0.0183726
660.613	0.0184339
660.692	0.0182769
660.770	0.0182198
660.848	0.0183694
660.926	0.0183263
661.004	0.0183037
661.082	0.0185368
661.160	0.0185036
661.238	0.0185227
661.317	0.0187816
661.395	0.0188516
661.473	0.0189352
661.551	0.0190282
661.629	0.0189109
661.707	0.0189266
661.785	0.0188122
661.863	0.0187179
661.942	0.0188316
662.020	0.0187528
662.098	0.0185548
662.176	0.0183704
662.254	0.0184184
662.332	0.0182816
662.410	0.0182765
662.488	0.0182961
662.567	0.0182188
662.645	0.0182484
662.723	0.0180077
662.801	0.0182236
662.879	0.0183144
662.957	0.0182759
663.035	0.0183530
663.113	0.0185087
663.192	0.0184528
663.270	0.0186633
663.348	0.0187527
663.426	0.0187996
663.504	0.0188941
663.582	0.0187634
663.660	0.0188507
663.738	0.0189289
663.817	0.0189458
663.895	0.0190329
663.973	0.0189958
664.051	0.0188467
664.129	0.0188387
664.207	0.0187826
664.285	0.0185635
664.363	0.0186349
664.442	0.0186430
664.520	0.0186503
664.598	0.0183816
664.676	0.0183454
664.754	0.0184071
664.832	0.0182674
664.910	0.0183545
664.988	0.0183168
665.067	0.0183853
665.145	0.0184104
665.223	0.0185804
665.301	0.0185709
665.379	0.0186787
665.457	0.0188472
665.535	0.0187528
665.613	0.0189863
665.692	0.0187521
665.770	0.0187911
665.848	0.0188674
665.926	0.0188499
666.004	0.0188189
666.082	0.0187756
666.160	0.0187643
666.238	0.0186423
666.317	0.0186928
666.395	0.0185516
666.473	0.0186097
666.551	0.0184686
666.629	0.0185191
666.707	0.0185427
666.785	0.0186638
666.863	0.0186655
666.942	0.0184003
667.020	0.0185551
667.098	0.0186904
667.176	0.0185751
667.254	0.0185804
667.332	0.0186586
667.410	0.0186047
667.488	0.0187018
667.567	0.0185693
667.645	0.0184462
667.723	0.0186323
667.801	0.0186989
667.879	0.0186755
667.957	0.0185556
668.035	0.0186270
668.113	0.0185226
668.192	0.0185748
668.270	0.0185882
668.348	0.0186534
668.426	0.0185188
668.504	0.0185611
668.582	0.0187067
668.660	0.0186647
668.738	0.0187405
668.817	0.0185546
668.895	0.0186385
668.973	0.0186200
669.051	0.0185398
669.129	0.0188561
669.207	0.0186141
669.285	0.0186687
669.363	0.0188062
669.442	0.0186911
669.520	0.0186215
669.598	0.0186123
669.676	0.0185786
669.754	0.0187112
669.832	0.0186887
669.910	0.0187262
669.988	0.0186162
670.067	0.0185336
670.145	0.0186222
670.223	0.0186475
670.301	0.0185488
670.379	0.0185364
670.457	0.0186454
670.535	0.0185695
670.613	0.0187355
670.692	0.0186874
670.770	0.0186913
670.848	0.0188677
670.926	0.0187408
671.004	0.0188134
671.082	0.0189452
671.160	0.0188816
671.238	0.0189314
671.317	0.0187837
671.395	0.0186828
671.473	0.0187119
671.551	0.0186791
671.629	0.0185912
671.707	0.0185475
671.785	0.0186156
671.863	0.0184715
671.942	0.0183582
672.020	0.0182987
672.098	0.0184526
672.176	0.0184804
672.254	0.0184620
672.332	0.0184233
672.410	0.0183075
672.488	0.0184024
672.567	0.0182525
672.645	0.0184468
672.723	0.0184972
672.801	0.0186220
672.879	0.0185678
672.957	0.0185604
673.035	0.0187738
673.113	0.0189240
673.192	0.0187388
673.270	0.0187357
673.348	0.0188409
673.426	0.0190022
673.504	0.0188058
673.582	0.0188419
673.660	0.0187313
673.738	0.0188557
673.817	0.0187153
673.895	0.0187721
673.973	0.0185271
674.051	0.0184896
674.129	0.0183862
674.207	0.0184358
674.285	0.0183654
674.363	0.0182712
674.442	0.0183926
674.520	0.0183800
674.598	0.0183477
674.676	0.0183715
674.754	0.0184735
674.832	0.0184727
674.910	0.0186963
674.988	0.0186684
675.067	0.0186386
675.145	0.0187375
675.223	0.0188875
675.301	0.0188032
675.379	0.0188918
675.457	0.0189975
675.535	0.0189565
675.613	0.0189970
675.692	0.0187437
675.770	0.0188253
675.848	0.0188197
675.926	0.0187733
676.004	0.0188636
676.082	0.0187611
676.160	0.0187871
676.238	0.0188009
676.317	0.0187865
676.395	0.0187090
676.473	0.0186503
676.551	0.0187592
676.629	0.0185150
676.707	0.0184869
676.785	0.0184448
676.863	0.0183400
676.942	0.0182593
677.020	0.0182287
677.098	0.0180940
677.176	0.0180154
677.254	0.0179756
677.332	0.0179714
677.410	0.0181828
677.488	0.0181533
677.567	0.0182835
677.645	0.0184427
677.723	0.0185358
677.801	0.0187068
677.879	0.0187353
677.957	0.0188341
678.035	0.0188337
678.113	0.0189439
678.192	0.0190978
678.270	0.0190905
678.348	0.0190417
678.426	0.0190170
678.504	0.0190742
678.582	0.0189204
678.660	0.0189446
678.738	0.0189951
678.817	0.0188715
678.895	0.0187566
678.973	0.0187780
679.051	0.0185830
679.129	0.0185350
679.207	0.0185741
679.285	0.0185130
679.363	0.0183773
679.442	0.0183041
679.520	0.0182437
679.598	0.0180554
679.676	0.0180326
679.754	0.0180653
679.832	0.0179835
679.910	0.0180258
679.988	0.0182141
680.067	0.0182869
680.145	0.0185561
680.223	0.0186221
680.301	0.0189120
680.379	0.0190115
680.457	0.0191140
680.535	0.0193231
680.613	0.0193757
680.692	0.0194531
680.770	0.0195224
680.848	0.0193925
680.926	0.0193822
681.004	0.0192352
681.082	0.0189260
681.160	0.0188428
681.238	0.0186151
681.317	0.0183802
681.395	0.0182187
681.473	0.0179865
681.551	0.0180042
681.629	0.0178229
681.707	0.0176133
681.785	0.0175379
681.863	0.0176192
681.942	0.0176144
682.020	0.0174648
682.098	0.0176524
682.176	0.0179362
682.254	0.0180133
682.332	0.0181918
682.410	0.0182885
682.488	0.0185316
682.567	0.0185844
682.645	0.0186628
682.723	0.0189429
682.801	0.0190414
682.879	0.0192854
682.957	0.0193967
683.035	0.0196012
683.113	0.0196694
683.192	0.0196852
683.270	0.0196708
683.348	0.0197617
683.426	0.0198151
683.504	0.0196018
683.582	0.0195438
683.660	0.0195648
683.738	0.0193382
683.817	0.0192139
683.895	0.0189730
683.973	0.0188184
684.051	0.0185728
684.129	0.0183147
684.207	0.0181719
684.285	0.0178785
684.363	0.0179160
684.442	0.0175319
684.520	0.0175263
684.598	0.0174146
684.676	0.0174625
684.754	0.0173760
684.832	0.0173951
684.910	0.0173248
684.988	0.0174274
685.067	0.0173185
685.145	0.0173791
685.223	0.0173845
685.301	0.0175998
685.379	0.0178508
685.457	0.0179382
685.535	0.0180595
685.613	0.0182063
685.692	0.0184293
685.770	0.0186637
685.848	0.0189060
685.926	0.0192207
686.004	0.0194982
686.082	0.0195835
686.160	0.0200003
686.238	0.0200140
686.317	0.0200888
686.395	0.0202936
686.473	0.0201715
686.551	0.0200779
686.629	0.0201460
686.707	0.0199700
686.785	0.0197600
686.863	0.0195769
686.942	0.0194365
687.020	0.0194630
687.098	0.0190414
687.176	0.0190063
687.254	0.0187695
687.332	0.0186523
687.410	0.0184443
687.488	0.0184131
687.567	0.0182350
687.645	0.0181439
687.723	0.0180235
687.801	0.0180273
687.879	0.0179354
687.957	0.0176012
688.035	0.0174422
688.113	0.0173344
688.192	0.0173499
688.270	0.0173150
688.348	0.0170954
688.426	0.0169135
688.504	0.0168417
688.582	0.0170281
688.660	0.0169744
688.738	0.0169386
688.817	0.0172241
688.895	0.0171707
688.973	0.0173905
689.051	0.0176802
689.129	0.0178176
689.207	0.0181004
689.285	0.0184048
689.363	0.0186511
689.442	0.0190127
689.520	0.0192823
689.598	0.0196059
689.676	0.0199350
689.754	0.0201148
689.832	0.0205546
689.910	0.0207185
689.988	0.0209282
690.067	0.0212191
690.145	0.0212040
690.223	0.0212361
690.301	0.0212358
690.379	0.0211340
690.457	0.0209825
690.535	0.0207765
690.613	0.0203677
690.692	0.0202612
690.770	0.0198796
690.848	0.0195030
690.926	0.0191750
691.004	0.0188808
691.082	0.0185142
691.160	0.0181067
691.238	0.0177306
691.317	0.0173834
691.395	0.0172368
691.473	0.0170740
691.551	0.0169805
691.629	0.0167514
691.707	0.0165888
691.785	0.0165245
691.863	0.0164017
691.942	0.0163502
692.020	0.0162882
692.098	0.0161522
692.176	0.0161037
692.254	0.0159797
692.332	0.0159750
692.410	0.0160250
692.488	0.0160435
692.567	0.0161896
692.645	0.0165379
692.723	0.0165009
692.801	0.0167868
692.879	0.0172129
692.957	0.0178562
693.035	0.0183926
693.113	0.0187585
693.192	0.0192871
693.270	0.0198263
693.348	0.0204279
693.426	0.0207912
693.504	0.0212065
693.582	0.0213699
693.660	0.0217139
693.738	0.0219961
693.817	0.0220808
693.895	0.0222321
693.973	0.0222799
694.051	0.0222744
694.129	0.0220311
694.207	0.0219025
694.285	0.0217378
694.363	0.0215738
694.442	0.0213966
694.520	0.0208794
694.598	0.0206051
694.676	0.0201918
694.754	0.0197020
694.832	0.0195676
694.910	0.0190505
694.988	0.0185892
695.067	0.0181485
695.145	0.0179866
695.223	0.0174841
695.301	0.0172343
695.379	0.0169608
695.457	0.0167979
695.535	0.0166635
695.613	0.0164140
695.692	0.0160553
695.770	0.0159478
695.848	0.0158092
695.926	0.0158105
696.004	0.0156136
696.082	0.0153958
696.160	0.0155104
696.238	0.0155125
696.317	0.0154745
696.395	0.0157169
696.473	0.0158528
696.551	0.0160368
696.629	0.0164935
696.707	0.0169315
696.785	0.0170905
696.863	0.0173133
696.942	0.0177673
697.020	0.0181339
697.098	0.0185264
697.176	0.0187491
697.254	0.0193471
697.332	0.0196022
697.410	0.0198668
697.488	0.0201381
697.567	0.0203181
697.645	0.0203345
697.723	0.0207486
697.801	0.0208825
697.879	0.0209309
697.957	0.0209628
698.035	0.0213273
698.113	0.0212748
698.192	0.0211420
698.270	0.0212024
698.348	0.0213158
698.426	0.0213876
698.504	0.0212769
698.582	0.0212540
698.660	0.0210353
698.738	0.0210488
698.817	0.0208739
698.895	0.0206370
698.973	0.0202059
699.051	0.0198811
699.129	0.0193150
699.207	0.0187539
699.285	0.0184385
699.363	0.0178040
699.442	0.0171879
699.520	0.0166623
699.598	0.0162505
699.676	0.0156673
699.754	0.0151870
699.832	0.0151291
699.910	0.0149142
699.988	0.0147917
700.067	0.0149494
700.145	0.0151193
700.223	0.0154401
700.301	0.0158582
700.379	0.0161821
700.457	0.0167818
700.535	0.0172591
700.613	0.0176180
700.692	0.0181640
700.770	0.0185375
700.848	0.0191135
700.926	0.0194678
701.004	0.0198502
701.082	0.0201363
701.160	0.0202265
701.238	0.0205576
701.317	0.0205354
701.395	0.0206616
701.473	0.0206889
701.551	0.0207929
701.629	0.0207849
701.707	0.0206298
701.785	0.0206290
701.863	0.0204491
701.942	0.0202714
702.020	0.0200773
702.098	0.0197905
702.176	0.0196133
702.254	0.0193241
702.332	0.0190710
702.410	0.0187038
702.488	0.0182652
702.567	0.0179100
702.645	0.0177928
702.723	0.0175719
702.801	0.0173115
702.879	0.0171257
702.957	0.0169933
703.035	0.0169884
703.113	0.0170164
703.192	0.0171865
703.270	0.0172250
703.348	0.0173525
703.426	0.0174889
703.504	0.0175871
703.582	0.0178278
703.660	0.0181850
703.738	0.0181976
703.817	0.0183545
703.895	0.0186383
703.973	0.0187234
704.051	0.0188197
704.129	0.0188090
704.207	0.0188732
704.285	0.0190313
704.363	0.0191045
704.442	0.0190746
704.520	0.0191250
704.598	0.0190615
704.676	0.0190818
704.754	0.0189182
704.832	0.0188765
704.910	0.0188115
704.988	0.0185462
705.067	0.0185155
705.145	0.0182824
705.223	0.0184573
705.301	0.0183356
705.379	0.0183330
705.457	0.0186110
705.535	0.0187090
705.613	0.0189273
705.692	0.0192012
705.770	0.0194261
705.848	0.0197214
705.926	0.0198526
706.004	0.0200047
706.082	0.0200700
706.160	0.0199822
706.238	0.0198757
706.317	0.0196819
706.395	0.0194580
706.473	0.0189521
706.551	0.0188197
706.629	0.0183794
706.707	0.0181434
706.785	0.0178799
706.863	0.0176302
706.942	0.0173929
707.020	0.0174574
707.098	0.0176195
707.176	0.0174751
707.254	0.0176520
707.332	0.0179358
707.410	0.0180119
707.488	0.0179810
707.567	0.0182306
707.645	0.0183482
707.723	0.0183881
707.801	0.0183537
707.879	0.0185187
707.957	0.0186797
708.035	0.0187636
708.113	0.0189016
708.192	0.0189249
708.270	0.0191778
708.348	0.0191373
708.426	0.0193656
708.504	0.0193809
708.582	0.0193697
708.660	0.0193090
708.738	0.0192210
708.817	0.0193692
708.895	0.0190821
708.973	0.0190957
709.051	0.0189109
709.129	0.0187527
709.207	0.0185951
709.285	0.0183676
709.363	0.0183841
709.442	0.0180077
709.520	0.0178556
709.598	0.0175242
709.676	0.0172764
709.754	0.0170101
709.832	0.0170547
709.910	0.0166885
709.988	0.0165920
710.067	0.0165409
710.145	0.0164085
710.223	0.0163740
710.301	0.0165340
710.379	0.0166974
710.457	0.0169067
710.535	0.0171419
710.613	0.0175827
710.692	0.0178687
710.770	0.0179304
710.848	0.0184569
710.926	0.0189205
711.004	0.0190677
711.082	0.0195270
711.160	0.0197499
711.238	0.0201492
711.317	0.0205532
711.395	0.0209240
711.473	0.0210776
711.551	0.0213598
711.629	0.0216393
711.707	0.0216747
711.785	0.0218574
711.863	0.0217178
711.942	0.0216443
712.020	0.0215750
712.098	0.0213371
712.176	0.0209457
712.254	0.0204848
712.332	0.0200121
712.410	0.0194967
712.488	0.0191222
712.567	0.0187187
712.645	0.0183174
712.723	0.0181248
712.801	0.0179411
712.879	0.0177577
712.957	0.0176533
713.035	0.0176546
713.113	0.0177293
713.192	0.0178004
713.270	0.0179732
713.348	0.0182008
713.426	0.0182436
713.504	0.0182184
713.582	0.0185892
713.660	0.0184931
713.738	0.0183816
713.817	0.0184090
713.895	0.0185309
713.973	0.0183607
714.051	0.0183042
714.129	0.0182143
714.207	0.0181454
714.285	0.0180597
714.363	0.0178729
714.442	0.0176867
714.520	0.0173936
714.598	0.0172952
714.676	0.0170934
714.754	0.0166778
714.832	0.0163696
714.910	0.0160885
714.988	0.0160408
715.067	0.0159333
715.145	0.0158224
715.223	0.0156828
715.301	0.0157752
715.379	0.0158435
715.457	0.0159806
715.535	0.0163197
715.613	0.0165929
715.692	0.0169265
715.770	0.0171777
715.848	0.0173721
715.926	0.0178049
716.004	0.0181082
716.082	0.0183174
716.160	0.0183363
716.238	0.0187739
716.317	0.0191769
716.395	0.0194289
716.473	0.0196292
716.551	0.0199471
716.629	0.0201024
716.707	0.0203397
716.785	0.0206457
716.863	0.0207253
716.942	0.0211464
717.020	0.0215253
717.098	0.0216270
717.176	0.0216894
717.254	0.0217588
717.332	0.0219063
717.410	0.0219437
717.488	0.0216274
717.567	0.0215844
717.645	0.0215343
717.723	0.0213502
717.801	0.0210249
717.879	0.0209181
717.957	0.0207813
718.035	0.0204150
718.113	0.0203175
718.192	0.0201355
718.270	0.0199500
718.348	0.0200079
718.426	0.0198602
718.504	0.0198370
718.582	0.0197736
718.660	0.0197269
718.738	0.0196937
718.817	0.0194467
718.895	0.0193990
718.973	0.0192052
719.051	0.0190398
719.129	0.0186330
719.207	0.0183785
719.285	0.0181822
719.363	0.0177018
719.442	0.0172147
719.520	0.0168494
719.598	0.0165274
719.676	0.0159689
719.754	0.0155187
719.832	0.0154481
719.910	0.0152734
719.988	0.0151598
720.067	0.0150568
720.145	0.0150842
720.223	0.0154449
720.301	0.0154556
720.379	0.0156937
720.457	0.0162508
720.535	0.0163763
720.613	0.0167093
720.692	0.0171233
720.770	0.0173997
720.848	0.0176519
720.926	0.0178644
721.004	0.0180318
721.082	0.0179913
721.160	0.0180209
721.238	0.0182008
721.317	0.0178305
721.395	0.0178311
721.473	0.0178489
721.551	0.0176054
721.629	0.0176278
721.707	0.0175777
721.785	0.0172993
721.863	0.0173556
721.942	0.0172998
722.020	0.0173019
722.098	0.0173589
722.176	0.0175517
722.254	0.0176390
722.332	0.0178799
722.410	0.0182127
722.488	0.0186679
722.567	0.0187833
722.645	0.0191027
722.723	0.0194157
722.801	0.0197829
722.879	0.0201105
722.957	0.0203255
723.035	0.0204452
723.113	0.0208185
723.192	0.0210513
723.270	0.0211678
723.348	0.0213650
723.426	0.0215813
723.504	0.0217406
723.582	0.0217817
723.660	0.0219053
723.738	0.0220273
723.817	0.0220605
723.895	0.0219293
723.973	0.0221234
724.051	0.0219355
724.129	0.0218335
724.207	0.0217651
724.285	0.0214877
724.363	0.0210446
724.442	0.0209134
724.520	0.0206090
724.598	0.0203323
724.676	0.0201122
724.754	0.0198574
724.832	0.0198100
724.910	0.0195899
724.988	0.0194336
725.067	0.0194132
725.145	0.0191454
725.223	0.0191080
725.301	0.0191244
725.379	0.0189013
725.457	0.0187677
725.535	0.0187526
725.613	0.0185529
725.692	0.0183347
725.770	0.0181383
725.848	0.0179175
725.926	0.0177555
726.004	0.0172740
726.082	0.0169762
726.160	0.0165385
726.238	0.0162991
726.317	0.0157061
726.395	0.0152399
726.473	0.0149800
726.551	0.0145435
726.629	0.0141147
726.707	0.0140266
726.785	0.0137776
726.863	0.0136130
726.942	0.0136607
727.020	0.0138413
727.098	0.0140392
727.176	0.0142518
727.254	0.0147307
727.332	0.0152023
727.410	0.0157492
727.488	0.0162472
727.567	0.0167191
727.645	0.0174782
727.723	0.0179797
727.801	0.0185909
727.879	0.0189229
727.957	0.0191511
728.035	0.0195047
728.113	0.0198182
728.192	0.0199052
728.270	0.0196723
728.348	0.0195672
728.426	0.0193383
728.504	0.0191670
728.582	0.0190216
728.660	0.0187111
728.738	0.0184779
728.817	0.0183125
728.895	0.0182955
728.973	0.0183776
729.051	0.0182490
729.129	0.0184643
729.207	0.0186687
729.285	0.0188904
729.363	0.0191995
729.442	0.0195876
729.520	0.0199108
729.598	0.0204060
729.676	0.0205879
729.754	0.0208531
729.832	0.0212828
729.910	0.0216232
729.988	0.0218027
730.067	0.0221179
730.145	0.0222173
730.223	0.0224088
730.301	0.0225745
730.379	0.0227057
730.457	0.0226273
730.535	0.0227560
730.613	0.0225935
730.692	0.0224344
730.770	0.0220559
730.848	0.0219132
730.926	0.0217443
731.004	0.0212284
731.082	0.0207343
731.160	0.0203282
731.238	0.0198711
731.317	0.0194843
731.395	0.0190539
731.473	0.0188712
731.551	0.0186512
731.629	0.0183821
731.707	0.0180856
731.785	0.0182191
731.863	0.0181142
731.942	0.0181342
732.020	0.0182910
732.098	0.0183397
732.176	0.0183710
732.254	0.0185820
732.332	0.0185758
732.410	0.0183700
732.488	0.0185052
732.567	0.0185008
732.645	0.0180544
732.723	0.0179420
732.801	0.0173901
732.879	0.0170259
732.957	0.0167332
733.035	0.0160218
733.113	0.0156821
733.192	0.0150629
733.270	0.0145309
733.348	0.0140135
733.426	0.0136851
733.504	0.0131762
733.582	0.0128648
733.660	0.0128458
733.738	0.0128288
733.817	0.0129967
733.895	0.0130461
733.973	0.0135304
734.051	0.0137792
734.129	0.0144025
734.207	0.0150710
734.285	0.0157375
734.363	0.0164365
734.442	0.0169887
734.520	0.0177586
734.598	0.0183788
734.676	0.0190675
734.754	0.0193122
734.832	0.0198194
734.910	0.0202213
734.988	0.0202480
735.067	0.0205637
735.145	0.0206438
735.223	0.0207058
735.301	0.0207169
735.379	0.0206093
735.457	0.0205246
735.535	0.0204066
735.613	0.0202710
735.692	0.0201893
735.770	0.0199567
735.848	0.0200297
735.926	0.0197725
736.004	0.0198049
736.082	0.0197771
736.160	0.0198064
736.238	0.0199171
736.317	0.0200250
736.395	0.0203175
736.473	0.0204246
736.551	0.0207491
736.629	0.0210636
736.707	0.0211890
736.785	0.0214733
736.863	0.0218127
736.942	0.0220547
737.020	0.0222731
737.098	0.0223326
737.176	0.0225147
737.254	0.0224567
737.332	0.0224239
737.410	0.0222507
737.488	0.0219178
737.567	0.0214957
737.645	0.0211806
737.723	0.0208955
737.801	0.0203447
737.879	0.0199180
737.957	0.0194131
738.035	0.0191530
738.113	0.0187337
738.192	0.0184865
738.270	0.0180709
738.348	0.0178668
738.426	0.0180930
738.504	0.0179417
738.582	0.0180200
738.660	0.0180024
738.738	0.0181778
738.817	0.0181497
738.895	0.0182422
738.973	0.0182941
739.051	0.0182372
739.129	0.0183794
739.207	0.0184466
739.285	0.0182323
739.363	0.0180089
739.442	0.0178249
739.520	0.0176019
739.598	0.0171792
739.676	0.0170636
739.754	0.0165858
739.832	0.0162589
739.910	0.0158101
739.988	0.0153526
740.067	0.0149171
740.145	0.0145834
740.223	0.0141262
740.301	0.0136892
740.379	0.0134147
740.457	0.0130971
740.535	0.0129912
740.613	0.0129661
740.692	0.0131277
740.770	0.0132850
740.848	0.0136915
740.926	0.0142619
741.004	0.0147550
741.082	0.0153973
741.160	0.0162753
741.238	0.0169592
741.317	0.0176913
741.395	0.0185063
741.473	0.0192095
741.551	0.0197855
741.629	0.0202419
741.707	0.0206435
741.785	0.0209716
741.863	0.0210928
741.942	0.0212309
742.020	0.0212273
742.098	0.0211305
742.176	0.0211282
742.254	0.0209398
742.332	0.0209035
742.410	0.0206598
742.488	0.0204491
742.567	0.0204688
742.645	0.0201800
742.723	0.0201812
742.801	0.0203153
742.879	0.0202201
742.957	0.0201945
743.035	0.0202685
743.113	0.0202334
743.192	0.0204893
743.270	0.0204794
743.348	0.0205819
743.426	0.0206270
743.504	0.0208153
743.582	0.0208527
743.660	0.0208700
743.738	0.0209908
743.817	0.0211647
743.895	0.0210155
743.973	0.0209279
744.051	0.0208391
744.129	0.0207951
744.207	0.0206583
744.285	0.0204620
744.363	0.0204016
744.442	0.0203125
744.520	0.0200996
744.598	0.0200436
744.676	0.0198132
744.754	0.0197548
744.832	0.0197484
744.910	0.0196147
744.988	0.0194385
745.067	0.0195155
745.145	0.0194088
745.223	0.0192912
745.301	0.0191328
745.379	0.0191473
745.457	0.0190601
745.535	0.0188242
745.613	0.0186060
745.692	0.0185854
745.770	0.0185011
745.848	0.0181882
745.926	0.0180143
746.004	0.0178874
746.082	0.0178239
746.160	0.0177132
746.238	0.0174039
746.317	0.0171684
746.395	0.0170142
746.473	0.0168079
746.551	0.0165353
746.629	0.0161787
746.707	0.0159193
746.785	0.0157403
746.863	0.0153558
746.942	0.0152106
747.020	0.0149075
747.098	0.0148058
747.176	0.0144711
747.254	0.0142879
747.332	0.0142286
747.410	0.0142959
747.488	0.0143693
747.567	0.0144476
747.645	0.0146423
747.723	0.0149179
747.801	0.0152866
747.879	0.0156821
747.957	0.0161323
748.035	0.0166953
748.113	0.0172794
748.192	0.0175307
748.270	0.0181164
748.348	0.0186974
748.426	0.0188978
748.504	0.0191893
748.582	0.0196711
748.660	0.0197499
748.738	0.0198942
748.817	0.0198386
748.895	0.0201325
748.973	0.0200896
749.051	0.0204067
749.129	0.0202680
749.207	0.0204282
749.285	0.0204016
749.363	0.0206090
749.442	0.0207723
749.520	0.0207824
749.598	0.0208557
749.676	0.0210168
749.754	0.0210085
749.832	0.0209991
749.910	0.0209087
749.988	0.0209245
750.067	0.0208652
750.145	0.0207957
750.223	0.0206750
750.301	0.0205972
750.379	0.0204333
750.457	0.0204570
750.535	0.0201619
750.613	0.0201451
750.692	0.0200336
750.770	0.0199087
750.848	0.0198833
750.926	0.0195468
751.004	0.0195692
751.082	0.0195522
751.160	0.0195129
751.238	0.0195310
751.317	0.0196023
751.395	0.0195344
751.473	0.0196269
751.551	0.0198471
751.629	0.0198868
751.707	0.0199832
751.785	0.0200362
751.863	0.0202110
751.942	0.0201001
752.020	0.0202702
752.098	0.0201287
752.176	0.0200374
752.254	0.0199250
752.332	0.0197483
752.410	0.0196245
752.488	0.0193143
752.567	0.0191042
752.645	0.0188938
752.723	0.0186138
752.801	0.0184564
752.879	0.0181512
752.957	0.0178481
753.035	0.0175261
753.113	0.0172255
753.192	0.0169962
753.270	0.0168308
753.348	0.0164671
753.426	0.0162901
753.504	0.0160273
753.582	0.0158873
753.660	0.0156398
753.738	0.0154369
753.817	0.0153057
753.895	0.0151829
753.973	0.0150485
754.051	0.0151538
754.129	0.0151096
754.207	0.0151305
754.285	0.0152676
754.363	0.0154669
754.442	0.0156450
754.520	0.0158209
754.598	0.0159005
754.676	0.0161827
754.754	0.0163247
754.832	0.0167053
754.910	0.0169969
754.988	0.0170925
755.067	0.0173760
755.145	0.0178611
755.223	0.0180909
755.301	0.0180643
755.379	0.0181702
755.457	0.0184332
755.535	0.0186230
755.613	0.0188155
755.692	0.0189651
755.770	0.0190191
755.848	0.0191261
755.926	0.0192943
756.004	0.0193874
756.082	0.0197309
756.160	0.0198543
756.238	0.0200900
756.317	0.0201627
756.395	0.0202235
756.473	0.0203216
756.551	0.0205636
756.629	0.0208094
756.707	0.0207808
756.785	0.0207917
756.863	0.0206782
756.942	0.0207710
757.020	0.0206139
757.098	0.0206916
757.176	0.0205121
757.254	0.0204470
757.332	0.0203476
757.410	0.0199485
757.488	0.0199823
757.567	0.0198430
757.645	0.0199471
757.723	0.0197667
757.801	0.0196185
757.879	0.0196766
757.957	0.0196983
758.035	0.0196925
758.113	0.0196883
758.192	0.0197987
758.270	0.0198330
758.348	0.0198772
758.426	0.0200127
758.504	0.0199343
758.582	0.0199911
758.660	0.0201456
758.738	0.0201822
758.817	0.0202684
758.895	0.0201805
758.973	0.0201040
759.051	0.0199090
759.129	0.0198971
759.207	0.0196706
759.285	0.0196253
759.363	0.0195757
759.442	0.0191569
759.520	0.0189988
759.598	0.0188000
759.676	0.0184995
759.754	0.0183144
759.832	0.0180590
759.910	0.0177264
759.988	0.0175934
760.067	0.0175505
760.145	0.0171341
760.223	0.0171426
760.301	0.0168826
760.379	0.0167476
760.457	0.0165938
760.535	0.0165799
760.613	0.0163468
760.692	0.0162443
760.770	0.0163480
760.848	0.0162123
760.926	0.0161433
761.004	0.0160269
761.082	0.0160419
761.160	0.0160789
761.238	0.0162006
761.317	0.0162243
761.395	0.0162450
761.473	0.0164075
761.551	0.0165834
761.629	0.0166344
761.707	0.0168851
761.785	0.0169394
761.863	0.0173158
761.942	0.0172919
762.020	0.0172392
762.098	0.0174355
762.176	0.0175038
762.254	0.0175005
762.332	0.0177522
762.410	0.0178170
762.488	0.0178906
762.567	0.0179980
762.645	0.0181546
762.723	0.0183030
762.801	0.0185548
762.879	0.0185899
762.957	0.0187679
763.035	0.0190426
763.113	0.0192970
763.192	0.0192911
763.270	0.0194934
763.348	0.0198585
763.426	0.0197269
763.504	0.0198425
763.582	0.0200500
763.660	0.0202243
763.738	0.0201235
763.817	0.0202834
763.895	0.0202632
763.973	0.0202652
764.051	0.0204385
764.129	0.0204545
764.207	0.0205116
764.285	0.0205443
764.363	0.0204913
764.442	0.0205987
764.520	0.0206982
764.598	0.0206584
764.676	0.0206437
764.754	0.0204527
764.832	0.0203175
764.910	0.0203226
764.988	0.0201199
765.067	0.0199641
765.145	0.0198108
765.223	0.0198277
765.301	0.0196186
765.379	0.0193137
765.457	0.0192802
765.535	0.0191615
765.613	0.0191853
765.692	0.0191444
765.770	0.0191878
765.848	0.0191523
765.926	0.0190525
766.004	0.0192194
766.082	0.0192554
766.160	0.0193231
766.238	0.0193886
766.317	0.0194314
766.395	0.0194898
766.473	0.0194114
766.551	0.0193677
766.629	0.0193382
766.707	0.0193174
766.785	0.0189675
766.863	0.0189433
766.942	0.0187450
767.020	0.0183849
767.098	0.0181704
767.176	0.0178628
767.254	0.0177360
767.332	0.0175909
767.410	0.0172935
767.488	0.0171033
767.567	0.0168770
767.645	0.0167810
767.723	0.0167022
767.801	0.0166745
767.879	0.0167378
767.957	0.0168217
768.035	0.0166606
768.113	0.0166891
768.192	0.0167552
768.270	0.0168623
768.348	0.0170837
768.426	0.0169734
768.504	0.0171068
768.582	0.0172498
768.660	0.0171550
768.738	0.0171361
768.817	0.0170094
768.895	0.0170029
768.973	0.0171014
769.051	0.0168900
769.129	0.0170477
769.207	0.0171880
769.285	0.0170238
769.363	0.0171387
769.442	0.0172681
769.520	0.0174570
769.598	0.0174265
769.676	0.0175577
769.754	0.0177841
769.832	0.0179617
769.910	0.0180778
769.988	0.0183719
770.067	0.0184087
770.145	0.0185706
770.223	0.0187095
770.301	0.0190089
770.379	0.0191312
770.457	0.0192004
770.535	0.0192603
770.613	0.0194013
770.692	0.0194910
770.770	0.0194478
770.848	0.0196701
770.926	0.0197106
771.004	0.0199191
771.082	0.0199928
771.160	0.0202133
771.238	0.0202981
771.317	0.0203945
771.395	0.0204680
771.473	0.0205526
771.551	0.0203365
771.629	0.0205128
771.707	0.0204887
771.785	0.0204739
771.863	0.0203745
771.942	0.0201506
772.020	0.0201174
772.098	0.0200340
772.176	0.0199203
772.254	0.0199173
772.332	0.0197553
772.410	0.0196396
772.488	0.0196688
772.567	0.0195799
772.645	0.0195393
772.723	0.0195252
772.801	0.0195160
772.879	0.0195522
772.957	0.0194257
773.035	0.0195856
773.113	0.0196488
773.192	0.0194155
773.270	0.0195751
773.348	0.0196178
773.426	0.0195436
773.504	0.0192890
773.582	0.0192062
773.660	0.0190058
773.738	0.0189963
773.817	0.0189362
773.895	0.0186930
773.973	0.0184550
774.051	0.0182450
774.129	0.0180037
774.207	0.0179408
774.285	0.0177086
774.363	0.0176897
774.442	0.0175382
774.520	0.0176122
774.598	0.0176288
774.676	0.0175833
774.754	0.0174957
774.832	0.0176592
774.910	0.0176691
774.988	0.0176350
775.067	0.0176621
775.145	0.0177438
775.223	0.0178167
775.301	0.0176955
775.379	0.0176633
775.457	0.0175744
775.535	0.0176700
775.613	0.0174296
775.692	0.0173844
775.770	0.0171317
775.848	0.0171058
775.926	0.0170119
776.004	0.0169902
776.082	0.0169922
776.160	0.0169872
776.238	0.0168179
776.317	0.0169522
776.395	0.0171194
776.473	0.0170175
776.551	0.0171407
776.629	0.0173542
776.707	0.0174493
776.785	0.0176780
776.863	0.0177563
776.942	0.0178965
777.020	0.0181049
777.098	0.0181415
777.176	0.0184496
777.254	0.0184472
777.332	0.0187220
777.410	0.0187531
777.488	0.0188937
777.567	0.0191235
777.645	0.0190426
777.723	0.0192840
777.801	0.0193043
777.879	0.0192724
777.957	0.0193522
778.035	0.0195004
778.113	0.0192356
778.192	0.0191852
778.270	0.0193937
778.348	0.0191444
778.426	0.0192020
778.504	0.0191705
778.582	0.0189703
778.660	0.0190948
778.738	0.0192590
778.817	0.0191811
778.895	0.0192854
778.973	0.0194446
779.051	0.0195676
779.129	0.0195343
779.207	0.0197199
779.285	0.0199946
779.363	0.0200838
779.442	0.0202307
779.520	0.0203996
779.598	0.0203449
779.676	0.0205434
779.754	0.0206486
779.832	0.0206089
779.910	0.0204512
779.988	0.0204963
780.067	0.0204423
780.145	0.0203241
780.223	0.0200472
780.301	0.0198903
780.379	0.0196667
780.457	0.0195381
780.535	0.0192915
780.613	0.0190226
780.692	0.0187183
780.770	0.0187539
780.848	0.0185450
780.926	0.0183167
781.004	0.0183559
781.082	0.0183372
781.160	0.0180247
781.238	0.0180534
781.317	0.0181883
781.395	0.0180984
781.473	0.0181441
781.551	0.0182565
781.629	0.0183236
781.707	0.0183554
781.785	0.0184093
781.863	0.0185551
781.942	0.0186597
782.020	0.0185662
782.098	0.0185172
782.176	0.0185487
782.254	0.0183752
782.332	0.0182339
782.410	0.0179877
782.488	0.0178387
782.567	0.0176951
782.645	0.0174329
782.723	0.0173530
782.801	0.0171901
782.879	0.0169242
782.957	0.0168271
783.035	0.0167729
783.113	0.0166956
783.192	0.0169181
783.270	0.0168106
783.348	0.0168974
783.426	0.0171571
783.504	0.0171433
783.582	0.0173299
783.660	0.0176656
783.738	0.0179384
783.817	0.0179342
783.895	0.0180179
783.973	0.0181615
784.051	0.0183881
784.129	0.0185645
784.207	0.0184186
784.285	0.0183599
784.363	0.0185163
784.442	0.0185724
784.520	0.0185561
784.598	0.0184163
784.676	0.0182342
784.754	0.0182691
784.832	0.0181651
784.910	0.0179767
784.988	0.0179932
785.067	0.0180425
785.145	0.0181064
785.223	0.0181369
785.301	0.0180785
785.379	0.0180916
785.457	0.0184657
785.535	0.0186060
785.613	0.0188408
785.692	0.0189355
785.770	0.0192923
785.848	0.0196059
785.926	0.0197965
786.004	0.0198457
786.082	0.0200282
786.160	0.0203046
786.238	0.0204737
786.317	0.0202245
786.395	0.0203485
786.473	0.0204727
786.551	0.0203771
786.629	0.0202613
786.707	0.0203458
786.785	0.0201072
786.863	0.0200919
786.942	0.0199851
787.020	0.0196947
787.098	0.0195074
787.176	0.0195508
787.254	0.0193746
787.332	0.0193611
787.410	0.0192582
787.488	0.0192579
787.567	0.0190501
787.645	0.0190572
787.723	0.0191276
787.801	0.0191942
787.879	0.0189600
787.957	0.0191604
788.035	0.0190830
788.113	0.0193207
788.192	0.0190833
788.270	0.0191217
788.348	0.0192693
788.426	0.0190865
788.504	0.0190788
788.582	0.0189489
788.660	0.0189523
788.738	0.0187248
788.817	0.0185598
788.895	0.0184960
788.973	0.0182118
789.051	0.0181013
789.129	0.0181601
789.207	0.0177818
789.285	0.0177341
789.363	0.0173962
789.442	0.0173650
789.520	0.0172488
789.598	0.0170931
789.676	0.0171950
789.754	0.0170895
789.832	0.0173007
789.910	0.0173639
789.988	0.0173105
790.067	0.0174869
790.145	0.0176752
790.223	0.0176954
790.301	0.0179379
790.379	0.0182563
790.457	0.0183159
790.535	0.0184891
790.613	0.0185738
790.692	0.0186703
790.770	0.0186917
790.848	0.0188033
790.926	0.0187440
791.004	0.0188222
791.082	0.0186819
791.160	0.0185941
791.238	0.0184705
791.317	0.0183122
791.395	0.0183068
791.473	0.0180603
791.551	0.0178932
791.629	0.0178444
791.707	0.0176167
791.785	0.0174825
791.863	0.0174341
791.942	0.0176198
792.020	0.0175394
792.098	0.0176980
792.176	0.0176795
792.254	0.0177510
792.332	0.0177567
792.410	0.0180238
792.488	0.0181190
792.567	0.0182793
792.645	0.0183641
792.723	0.0184260
792.801	0.0185659
792.879	0.0187602
792.957	0.0187851
793.035	0.0188947
793.113	0.0190782
793.192	0.0190382
793.270	0.0190231
793.348	0.0191035
793.426	0.0192545
793.504	0.0191248
793.582	0.0191576
793.660	0.0193269
793.738	0.0193452
793.817	0.0193006
793.895	0.0194001
793.973	0.0194245
794.051	0.0194035
794.129	0.0195338
794.207	0.0194555
794.285	0.0195814
794.363	0.0195503
794.442	0.0196267
794.520	0.0197790
794.598	0.0198250
794.676	0.0199011
794.754	0.0199345
794.832	0.0199453
794.910	0.0200774
794.988	0.0200603
795.067	0.0200616
795.145	0.0199287
795.223	0.0198929
795.301	0.0197588
795.379	0.0198076
795.457	0.0197095
795.535	0.0193790
795.613	0.0192400
795.692	0.0192164
795.770	0.0190723
795.848	0.0188515
795.926	0.0185643
796.004	0.0184695
796.082	0.0184996
796.160	0.0183381
796.238	0.0182212
796.317	0.0182238
796.395	0.0181938
796.473	0.0180315
796.551	0.0179777
796.629	0.0179380
796.707	0.0178844
796.785	0.0177998
796.863	0.0179233
796.942	0.0179278
797.020	0.0177642
797.098	0.0177844
797.176	0.0178631
797.254	0.0177534
797.332	0.0179005
797.410	0.0179436
797.488	0.0179237
797.567	0.0179557
797.645	0.0181326
797.723	0.0180544
797.801	0.0181003
797.879	0.0182092
797.957	0.0181595
798.035	0.0182053
798.113	0.0181982
798.192	0.0182696
798.270	0.0182177
798.348	0.0182465
798.426	0.0181207
798.504	0.0179572
798.582	0.0181281
798.660	0.0181258
798.738	0.0180945
798.817	0.0180769
798.895	0.0180041
798.973	0.0179982
799.051	0.0180537
799.129	0.0180027
799.207	0.0180645
799.285	0.0181210
799.363	0.0180335
799.442	0.0182458
799.520	0.0182091
799.598	0.0182288
799.676	0.0181386
799.754	0.0182458
799.832	0.0183282
799.910	0.0183129
799.988	0.0183531
800.067	0.0184536
800.145	0.0184613
800.223	0.0183575
800.301	0.0181902
800.379	0.0185069
800.457	0.0185252
800.535	0.0185003
800.613	0.0184406
800.692	0.0187524
800.770	0.0186230
800.848	0.0186705
800.926	0.0186057
801.004	0.0187466
801.082	0.0190021
801.160	0.0189445
801.238	0.0190493
801.317	0.0191094
801.395	0.0194619
801.473	0.0193895
801.551	0.0195246
801.629	0.0195543
801.707	0.0196738
801.785	0.0197543
801.863	0.0196035
801.942	0.0196649
802.020	0.0197150
802.098	0.0197684
802.176	0.0195953
802.254	0.0196088
802.332	0.0195463
802.410	0.0195058
802.488	0.0194884
802.567	0.0193759
802.645	0.0192103
802.723	0.0192934
802.801	0.0192877
802.879	0.0190845
802.957	0.0191284
803.035	0.0190940
803.113	0.0189928
803.192	0.0190064
803.270	0.0189762
803.348	0.0189132
803.426	0.0189458
803.504	0.0188629
803.582	0.0190002
803.660	0.0189061
803.738	0.0188770
803.817	0.0187914
803.895	0.0189550
803.973	0.0187742
804.051	0.0186256
804.129	0.0185299
804.207	0.0185509
804.285	0.0184883
804.363	0.0183780
804.442	0.0181905
804.520	0.0182687
804.598	0.0182473
804.676	0.0181414
804.754	0.0179867
804.832	0.0179623
804.910	0.0178344
804.988	0.0178071
805.067	0.0179645
805.145	0.0178587
805.223	0.0178268
805.301	0.0179210
805.379	0.0178005
805.457	0.0178280
805.535	0.0178204
805.613	0.0178752
805.692	0.0180404
805.770	0.0179469
805.848	0.0180312
805.926	0.0180825
806.004	0.0180260
806.082	0.0181306
806.160	0.0181123
806.238	0.0181355
806.317	0.0182009
806.395	0.0181570
806.473	0.0182597
806.551	0.0181196
806.629	0.0181643
806.707	0.0180958
806.785	0.0181587
806.863	0.0181591
806.942	0.0181853
807.020	0.0181675
807.098	0.0182848
807.176	0.0182668
807.254	0.0182272
807.332	0.0183444
807.410	0.0184615
807.488	0.0185188
807.567	0.0186310
807.645	0.0186380
807.723	0.0185425
807.801	0.0187960
807.879	0.0187854
807.957	0.0188879
808.035	0.0188878
808.113	0.0192255
808.192	0.0191591
808.270	0.0192329
808.348	0.0192603
808.426	0.0193217
808.504	0.0193413
808.582	0.0192180
808.660	0.0192384
808.738	0.0192973
808.817	0.0191759
808.895	0.0192594
808.973	0.0192664
809.051	0.0192958
809.129	0.0191953
809.207	0.0192075
809.285	0.0191989
809.363	0.0191236
809.442	0.0189929
809.520	0.0190836
809.598	0.0190369
809.676	0.0189127
809.754	0.0190383
809.832	0.0190274
809.910	0.0190025
809.988	0.0189581
810.067	0.0190397
810.145	0.0189217
810.223	0.0190260
810.301	0.0189690
810.379	0.0188455
810.457	0.0188072
810.535	0.0188300
810.613	0.0188486
810.692	0.0186654
810.770	0.0186697
810.848	0.0186797
810.926	0.0186617
811.004	0.0185284
811.082	0.0185268
811.160	0.0186070
811.238	0.0186090
811.317	0.0186483
811.395	0.0184697
811.473	0.0185691
811.551	0.0186031
811.629	0.0185336
811.707	0.0184788
811.785	0.0185259
811.863	0.0185408
811.942	0.0183917
812.020	0.0185156
812.098	0.0183600
812.176	0.0184700
812.254	0.0185137
812.332	0.0183427
812.410	0.0183080
812.488	0.0182708
812.567	0.0181865
812.645	0.0183237
812.723	0.0181699
812.801	0.0181992
812.879	0.0184276
812.957	0.0183257
813.035	0.0183654
813.113	0.0183424
813.192	0.0184836
813.270	0.0185206
813.348	0.0186347
813.426	0.0185067
813.504	0.0186202
813.582	0.0187005
813.660	0.0188088
813.738	0.0188365
813.817	0.0187769
813.895	0.0187199
813.973	0.0187614
814.051	0.0187594
814.129	0.0188138
814.207	0.0187077
814.285	0.0187715
814.363	0.0186051
814.442	0.0185990
814.520	0.0186725
814.598	0.0185552
814.676	0.0185998
814.754	0.0185528
814.832	0.0185174
814.910	0.0185454
814.988	0.0184476
815.067	0.0185466
815.145	0.0185331
815.223	0.0184144
815.301	0.0183640
815.379	0.0183983
815.457	0.0183836
815.535	0.0182664
815.613	0.0181980
815.692	0.0182119
815.770	0.0181516
815.848	0.0182122
815.926	0.0183006
816.004	0.0183376
816.082	0.0182525
816.160	0.0183476
816.238	0.0183410
816.317	0.0183650
816.395	0.0183698
816.473	0.0185276
816.551	0.0186068
816.629	0.0185419
816.707	0.0186279
816.785	0.0186132
816.863	0.0187238
816.942	0.0188221
817.020	0.0188232
817.098	0.0189676
817.176	0.0189355
817.254	0.0188478
817.332	0.0189501
817.410	0.0190973
817.488	0.0189292
817.567	0.0188404
817.645	0.0188216
817.723	0.0189198
817.801	0.0188241
817.879	0.0186481
817.957	0.0187210
818.035	0.0187247
818.113	0.0188564
818.192	0.0187370
818.270	0.0186265
818.348	0.0185914
818.426	0.0186225
818.504	0.0186304
818.582	0.0187286
818.660	0.0187437
818.738	0.0188856
818.817	0.0189505
818.895	0.0190915
818.973	0.0191351
819.051	0.0192390
819.129	0.0192294
819.207	0.0193732
819.285	0.0193278
819.363	0.0193041
819.442	0.0194314
819.520	0.0194913
819.598	0.0194772
819.676	0.0192456
819.754	0.0192763
819.832	0.0191341
819.910	0.0190370
819.988	0.0189084
820.067	0.0188581
820.145	0.0189001
820.223	0.0186261
820.301	0.0187443
820.379	0.0186671
820.457	0.0185346
820.535	0.0185771
820.613	0.0184358
820.692	0.0183718
820.770	0.0183790
820.848	0.0183825
820.926	0.0184647
821.004	0.0184228
821.082	0.0183736
821.160	0.0184499
821.238	0.0185176
821.317	0.0183540
821.395	0.0184467
821.473	0.0185310
821.551	0.0185084
821.629	0.0183866
821.707	0.0184100
821.785	0.0184560
821.863	0.0184410
821.942	0.0182665
822.020	0.0181686
822.098	0.0181123
822.176	0.0181673
822.254	0.0179966
822.332	0.0180010
822.410	0.0180136
822.488	0.0178059
822.567	0.0176215
822.645	0.0177861
822.723	0.0176833
822.801	0.0176685
822.879	0.0176952
822.957	0.0177667
823.035	0.0178961
823.113	0.0178905
823.192	0.0178726
823.270	0.0180770
823.348	0.0180569
823.426	0.0182379
823.504	0.0181736
823.582	0.0181711
823.660	0.0183282
823.738	0.0183886
823.817	0.0186126
823.895	0.0186627
823.973	0.0184692
824.051	0.0186196
824.129	0.0186672
824.207	0.0187493
824.285	0.0187231
824.363	0.0188879
824.442	0.0189343
824.520	0.0189568
824.598	0.0189137
824.676	0.0189413
824.754	0.0188821
824.832	0.0188416
824.910	0.0190319
824.988	0.0190006
825.067	0.0190144
825.145	0.0191495
825.223	0.0190588
825.301	0.0193183
825.379	0.0191508
825.457	0.0192612
825.535	0.0193057
825.613	0.0192832
825.692	0.0192699
825.770	0.0193478
825.848	0.0193843
825.926	0.0193845
826.004	0.0194221
826.082	0.0194846
826.160	0.0193938
826.238	0.0193983
826.317	0.0192757
826.395	0.0192315
826.473	0.0192570
826.551	0.0192047
826.629	0.0193600
826.707	0.0192535
826.785	0.0190570
826.863	0.0191473
826.942	0.0191792
827.020	0.0192450
827.098	0.0192024
827.176	0.0192295
827.254	0.0191902
827.332	0.0190405
827.410	0.0189322
827.488	0.0189166
827.567	0.0189467
827.645	0.0190081
827.723	0.0188241
827.801	0.0188403
827.879	0.0188624
827.957	0.0186641
828.035	0.0185063
828.113	0.0186069
828.192	0.0184197
828.270	0.0184577
828.348	0.0183411
828.426	0.0183233
828.504	0.0182640
828.582	0.0180222
828.660	0.0181563
828.738	0.0179888
828.817	0.0178841
828.895	0.0180708
828.973	0.0180777
829.051	0.0178630
829.129	0.0177161
829.207	0.0178187
829.285	0.0177769
829.363	0.0178125
829.442	0.0178033
829.520	0.0178315
829.598	0.0177633
829.676	0.0177660
829.754	0.0177499
829.832	0.0179458
829.910	0.0178101
829.988	0.0178663
830.067	0.0180031
830.145	0.0180296
830.223	0.0182851
830.301	0.0180984
830.379	0.0182289
830.457	0.0182910
830.535	0.0183366
830.613	0.0183263
830.692	0.0185052
830.770	0.0184808
830.848	0.0184140
830.926	0.0186607
831.004	0.0185365
831.082	0.0184695
831.160	0.0186159
831.238	0.0185959
831.317	0.0186270
831.395	0.0184100
831.473	0.0186656
831.551	0.0185142
831.629	0.0186485
831.707	0.0186080
831.785	0.0186086
831.863	0.0186423
831.942	0.0187337
832.020	0.0186594
832.098	0.0187199
832.176	0.0189567
832.254	0.0189906
832.332	0.0191271
832.410	0.0190579
832.488	0.0191405
832.567	0.0192692
832.645	0.0192438
832.723	0.0193166
832.801	0.0192976
832.879	0.0192812
832.957	0.0193649
833.035	0.0194347
833.113	0.0193871
833.192	0.0194364
833.270	0.0193544
833.348	0.0193575
833.426	0.0192702
833.504	0.0191947
833.582	0.0192126
833.660	0.0192063
833.738	0.0191109
833.817	0.0191257
833.895	0.0190328
833.973	0.0189572
834.051	0.0188824
834.129	0.0187220
834.207	0.0189336
834.285	0.0188520
834.363	0.0189319
834.442	0.0189563
834.520	0.0188947
834.598	0.0188117
834.676	0.0188867
834.754	0.0187334
834.832	0.0188469
834.910	0.0189175
834.988	0.0188625
835.067	0.0188494
835.145	0.0187704
835.223	0.0188946
835.301	0.0188365
835.379	0.0186499
835.457	0.0186813
835.535	0.0186118
835.613	0.0184592
835.692	0.0183241
835.770	0.0183028
835.848	0.0180571
835.926	0.0179800
836.004	0.0180102
836.082	0.0178461
836.160	0.0177215
836.238	0.0177948
836.317	0.0175983
836.395	0.0175719
836.473	0.0176637
836.551	0.0176292
836.629	0.0174507
836.707	0.0175773
836.785	0.0176707
836.863	0.0176872
836.942	0.0177447
837.020	0.0178320
837.098	0.0180363
837.176	0.0179899
837.254	0.0180493
837.332	0.0183239
837.410	0.0182722
837.488	0.0182655
837.567	0.0185840
837.645	0.0185898
837.723	0.0187352
837.801	0.0186233
837.879	0.0186401
837.957	0.0187367
838.035	0.0186948
838.113	0.0186529
838.192	0.0185278
838.270	0.0185604
838.348	0.0184700
838.426	0.0184908
838.504	0.0184133
838.582	0.0185563
838.660	0.0183167
838.738	0.0184740
838.817	0.0184884
838.895	0.0183597
838.973	0.0182939
839.051	0.0185078
839.129	0.0186713
839.207	0.0186719
839.285	0.0185850
839.363	0.0185343
839.442	0.0188247
839.520	0.0190186
839.598	0.0190853
839.676	0.0190046
839.754	0.0191346
839.832	0.0191029
839.910	0.0192441
839.988	0.0194790
840.067	0.0193246
840.145	0.0193516
840.223	0.0193811
840.301	0.0192195
840.379	0.0193131
840.457	0.0192767
840.535	0.0191959
840.613	0.0191119
840.692	0.0192007
840.770	0.0192058
840.848	0.0191151
840.926	0.0190932
841.004	0.0190616
841.082	0.0191402
841.160	0.0191615
841.238	0.0189941
841.317	0.0190766
841.395	0.0190862
841.473	0.0189773
841.551	0.0189038
841.629	0.0188636
841.707	0.0189052
841.785	0.0188381
841.863	0.0186971
841.942	0.0187010
842.020	0.0185969
842.098	0.0186544
842.176	0.0184406
842.254	0.0184083
842.332	0.0183355
842.410	0.0182858
842.488	0.0183920
842.567	0.0182933
842.645	0.0182268
842.723	0.0182606
842.801	0.0182929
842.879	0.0180872
842.957	0.0180013
843.035	0.0181511
843.113	0.0181796
843.192	0.0182479
843.270	0.0181122
843.348	0.0181302
843.426	0.0181770
843.504	0.0182392
843.582	0.0180022
843.660	0.0181194
843.738	0.0181891
843.817	0.0180984
843.895	0.0181875
843.973	0.0182302
844.051	0.0182060
844.129	0.0182410
844.207	0.0184750
844.285	0.0183823
844.363	0.0182730
844.442	0.0183759
844.520	0.0183429
844.598	0.0184016
844.676	0.0184717
844.754	0.0185355
844.832	0.0184430
844.910	0.0184059
844.988	0.0184658
845.067	0.0185193
845.145	0.0183774
845.223	0.0185479
845.301	0.0185492
845.379	0.0185710
845.457	0.0184483
845.535	0.0186018
845.613	0.0186251
845.692	0.0185429
845.770	0.0186220
845.848	0.0186844
845.926	0.0187794
846.004	0.0188492
846.082	0.0186478
846.160	0.0188332
846.238	0.0188758
846.317	0.0189749
846.395	0.0188370
846.473	0.0189621
846.551	0.0187605
846.629	0.0187968
846.707	0.0189610
846.785	0.0188718
846.863	0.0187840
846.942	0.0188377
847.020	0.0188623
847.098	0.0188676
847.176	0.0188009
847.254	0.0187729
847.332	0.0187868
847.410	0.0188136
847.488	0.0187001
847.567	0.0187451
847.645	0.0187043
847.723	0.0188408
847.801	0.0188483
847.879	0.0187850
847.957	0.0189983
848.035	0.0187949
848.113	0.0187929
848.192	0.0188891
848.270	0.0189780
848.348	0.0189806
848.426	0.0190407
848.504	0.0190139
848.582	0.0190812
848.660	0.0190414
848.738	0.0190849
848.817	0.0189517
848.895	0.0189738
848.973	0.0190899
849.051	0.0190366
849.129	0.0188621
849.207	0.0190058
849.285	0.0189154
849.363	0.0188178
849.442	0.0186089
849.520	0.0186376
849.598	0.0185717
849.676	0.0184216
849.754	0.0184678
849.832	0.0183949
849.910	0.0183447
849.988	0.0182486
850.067	0.0182928
850.145	0.0182860
850.223	0.0181632
850.301	0.0181949
850.379	0.0181812
850.457	0.0182781
850.535	0.0183112
850.613	0.0183184
850.692	0.0182030
850.770	0.0184320
850.848	0.0184727
850.926	0.0185828
851.004	0.0186021
851.082	0.0185770
851.160	0.0187234
851.238	0.0187448
851.317	0.0186404
851.395	0.0186931
851.473	0.0187145
851.551	0.0187816
851.629	0.0186141
851.707	0.0185514
851.785	0.0184970
851.863	0.0185376
851.942	0.0185230
852.020	0.0183961
852.098	0.0183920
852.176	0.0182984
852.254	0.0184423
852.332	0.0182772
852.410	0.0185001
852.488	0.0183213
852.567	0.0183038
852.645	0.0185091
852.723	0.0185116
852.801	0.0185204
852.879	0.0186329
852.957	0.0187410
853.035	0.0186981
853.113	0.0186807
853.192	0.0187734
853.270	0.0187527
853.348	0.0187114
853.426	0.0187642
853.504	0.0188375
853.582	0.0188709
853.660	0.0188841
853.738	0.0187361
853.817	0.0187580
853.895	0.0186412
853.973	0.0186906
854.051	0.0187277
854.129	0.0186378
854.207	0.0186979
854.285	0.0188020
854.363	0.0186253
854.442	0.0187396
854.520	0.0187025
854.598	0.0187643
854.676	0.0187159
854.754	0.0186536
854.832	0.0186169
854.910	0.0186865
854.988	0.0187012
855.067	0.0188663
855.145	0.0187366
855.223	0.0186893
855.301	0.0187558
855.379	0.0186933
855.457	0.0189230
855.535	0.0187749
855.613	0.0186840
855.692	0.0184547
855.770	0.0187428
855.848	0.0187238
855.926	0.0185871
856.004	0.0187181
856.082	0.0187250
856.160	0.0186874
856.238	0.0186748
856.317	0.0185950
856.395	0.0187106
856.473	0.0187053
856.551	0.0187907
856.629	0.0186682
856.707	0.0188029
856.785	0.0186407
856.863	0.0187643
856.942	0.0187996
857.020	0.0186318
857.098	0.0186358
857.176	0.0186348
857.254	0.0187640
857.332	0.0186094
857.410	0.0186279
857.488	0.0186448
857.567	0.0186475
857.645	0.0185095
857.723	0.0185159
857.801	0.0184933
857.879	0.0184609
857.957	0.0186130
858.035	0.0185256
858.113	0.0183420
858.192	0.0183984
858.270	0.0183673
858.348	0.0183163
858.426	0.0184448
858.504	0.0183612
858.582	0.0183226
858.660	0.0182194
858.738	0.0182881
858.817	0.0183578
858.895	0.0183881
858.973	0.0184000
859.051	0.0185657
859.129	0.0184411
859.207	0.0184403
859.285	0.0185374
859.363	0.0185797
859.442	0.0185027
859.520	0.0186711
859.598	0.0185875
859.676	0.0187914
859.754	0.0187406
859.832	0.0187189
859.910	0.0187509
859.988	0.0187528
860.067	0.0188355
860.145	0.0186760
860.223	0.0188380
860.301	0.0188200
860.379	0.0187773
860.457	0.0187495
860.535	0.0188699
860.613	0.0188061
860.692	0.0187337
860.770	0.0187933
860.848	0.0186553
860.926	0.0188497
861.004	0.0187562
861.082	0.0186160
861.160	0.0187492
861.238	0.0188324
861.317	0.0187717
861.395	0.0187547
861.473	0.0189408
861.551	0.0187315
861.629	0.0185809
861.707	0.0186359
861.785	0.0187226
861.863	0.0187426
861.942	0.0187898
862.020	0.0186253
862.098	0.0186712
862.176	0.0185284
862.254	0.0186543
862.332	0.0185307
862.410	0.0185661
862.488	0.0184708
862.567	0.0184576
862.645	0.0185558
862.723	0.0184839
862.801	0.0184270
862.879	0.0184317
862.957	0.0186155
863.035	0.0185360
863.113	0.0186370
863.192	0.0186065
863.270	0.0186082
863.348	0.0185230
863.426	0.0185704
863.504	0.0186936
863.582	0.0186324
863.660	0.0185619
863.738	0.0186502
863.817	0.0186484
863.895	0.0185441
863.973	0.0185979
864.051	0.0184628
864.129	0.0185908
864.207	0.0186623
864.285	0.0185625
864.363	0.0185709
864.442	0.0186555
864.520	0.0186040
864.598	0.0186156
864.676	0.0186034
864.754	0.0186694
864.832	0.0186762
864.910	0.0187945
864.988	0.0186514
865.067	0.0186129
865.145	0.0185480
865.223	0.0186472
865.301	0.0186226
865.379	0.0187306
865.457	0.0185524
865.535	0.0185387
865.613	0.0184700
865.692	0.0185655
865.770	0.0184674
865.848	0.0184376
865.926	0.0185743
866.004	0.0185145
866.082	0.0184886
866.160	0.0186599
866.238	0.0184734
866.317	0.0187930
866.395	0.0186308
866.473	0.0186049
866.551	0.0186014
866.629	0.0188136
866.707	0.0186092
866.785	0.0188195
866.863	0.0187462
866.942	0.0188086
867.020	0.0188351
867.098	0.0189191
867.176	0.0190137
867.254	0.0188951
867.332	0.0188275
867.410	0.0188110
867.488	0.0188691
867.567	0.0189529
867.645	0.0187904
867.723	0.0188371
867.801	0.0186980
867.879	0.0188097
867.957	0.0187540
868.035	0.0187785
868.113	0.0187357
868.192	0.0186707
868.270	0.0186190
868.348	0.0186622
868.426	0.0186246
868.504	0.0186419
868.582	0.0186076
868.660	0.0185353
868.738	0.0185485
868.817	0.0184590
868.895	0.0185352
868.973	0.0185039
869.051	0.0184132
869.129	0.0184822
869.207	0.0185432
869.285	0.0184953
869.363	0.0183790
869.442	0.0185082
869.520	0.0185099
869.598	0.0186034
869.676	0.0185334
869.754	0.0186040
869.832	0.0184476
869.910	0.0184628
869.988	0.0186465
870.067	0.0186626
870.145	0.0187370
870.223	0.0185579
870.301	0.0186947
870.379	0.0187037
870.457	0.0184881
870.535	0.0185838
870.613	0.0186260
870.692	0.0185312
870.770	0.0185480
870.848	0.0184778
870.926	0.0186185
871.004	0.0186607
871.082	0.0185756
871.160	0.0184194
871.238	0.0184528
871.317	0.0185383
871.395	0.0184993
871.473	0.0185069
871.551	0.0185607
871.629	0.0187224
871.707	0.0185596
871.785	0.0186050
871.863	0.0186576
871.942	0.0186661
872.020	0.0186839
872.098	0.0186671
872.176	0.0188486
872.254	0.0186681
872.332	0.0187522
872.410	0.0188011
872.488	0.0189436
872.567	0.0188554
872.645	0.0186872
872.723	0.0185560
872.801	0.0186308
872.879	0.0185361
872.957	0.0186310
873.035	0.0185859
873.113	0.0183997
873.192	0.0185062
873.270	0.0185689
873.348	0.0185027
873.426	0.0186766
873.504	0.0185488
873.582	0.0185918
873.660	0.0186346
873.738	0.0187381
873.817	0.0187208
873.895	0.0187074
873.973	0.0187230
874.051	0.0188588
874.129	0.0189552
874.207	0.0188963
874.285	0.0190215
874.363	0.0191711
874.442	0.0189948
874.520	0.0189993
874.598	0.0189266
874.676	0.0189364
874.754	0.0190093
874.832	0.0190733
874.910	0.0189338
874.988	0.0189333
875.067	0.0189228
875.145	0.0188284
875.223	0.0187386
875.301	0.0187071
875.379	0.0187028
875.457	0.0186695
875.535	0.0185256
875.613	0.0185038
875.692	0.0184306
875.770	0.0183283
875.848	0.0182810
875.926	0.0181515
876.004	0.0182117
876.082	0.0183485
876.160	0.0181880
876.238	0.0182415
876.317	0.0183015
876.395	0.0182944
876.473	0.0182898
876.551	0.0184296
876.629	0.0184184
876.707	0.0183862
876.785	0.0185814
876.863	0.0185998
876.942	0.0186137
877.020	0.0187587
877.098	0.0186412
877.176	0.0185700
877.254	0.0187378
877.332	0.0187849
877.410	0.0186905
877.488	0.0186601
877.567	0.0185997
877.645	0.0186336
877.723	0.0186800
877.801	0.0186362
877.879	0.0188999
877.957	0.0186620
878.035	0.0186230
878.113	0.0185172
878.192	0.0186259
878.270	0.0188071
878.348	0.0186255
878.426	0.0185815
878.504	0.0186827
878.582	0.0185303
878.660	0.0185388
878.738	0.0186028
878.817	0.0186437
878.895	0.0186339
878.973	0.0186483
879.051	0.0186263
879.129	0.0187198
879.207	0.0186729
879.285	0.0187884
879.363	0.0187449
879.442	0.0185320
879.520	0.0187297
879.598	0.0187099
879.676	0.0187472
879.754	0.0186726
879.832	0.0185464
879.910	0.0186221
879.988	0.0186273
880.067	0.0185293
880.145	0.0185387
880.223	0.0185126
880.301	0.0186134
880.379	0.0185751
880.457	0.0186429
880.535	0.0185378
880.613	0.0185814
880.692	0.0187610
880.770	0.0187096
880.848	0.0188663
880.926	0.0188849
881.004	0.0188873
881.082	0.0189204
881.160	0.0187846
881.238	0.0189806
881.317	0.0189779
881.395	0.0189062
881.473	0.0188532
881.551	0.0187847
881.629	0.0187998
881.707	0.0188184
881.785	0.0188380
881.863	0.0187247
881.942	0.0189172
882.020	0.0188130
882.098	0.0187363
882.176	0.0187519
882.254	0.0188852
882.332	0.0187683
882.410	0.0187302
882.488	0.0186552
882.567	0.0185007
882.645	0.0185032
882.723	0.0184991
882.801	0.0185300
882.879	0.0183581
882.957	0.0184358
883.035	0.0184828
883.113	0.0184739
883.192	0.0184789
883.270	0.0184393
883.348	0.0184709
883.426	0.0184204
883.504	0.0184238
883.582	0.0184547
883.660	0.0184012
883.738	0.0184736
883.817	0.0184071
883.895	0.0185141
883.973	0.0186178
884.051	0.0184959
884.129	0.0184792
884.207	0.0185526
884.285	0.0184394
884.363	0.0184393
884.442	0.0186218
884.520	0.0185619
884.598	0.0186371
884.676	0.0186472
884.754	0.0187244
884.832	0.0186387
884.910	0.0187724
884.988	0.0187963
885.067	0.0187363
885.145	0.0189299
885.223	0.0189635
885.301	0.0188575
885.379	0.0190208
885.457	0.0188874
885.535	0.0188857
885.613	0.0189317
885.692	0.0189119
885.770	0.0188258
885.848	0.0187915
885.926	0.0187587
886.004	0.0187357
886.082	0.0185513
886.160	0.0186922
886.238	0.0186224
886.317	0.0185903
886.395	0.0184712
886.473	0.0185519
886.551	0.0185628
886.629	0.0185247
886.707	0.0183557
886.785	0.0183669
886.863	0.0184733
886.942	0.0184659
887.020	0.0183450
887.098	0.0183767
887.176	0.0183881
887.254	0.0184351
887.332	0.0185311
887.410	0.0184319
887.488	0.0185136
887.567	0.0183044
887.645	0.0184975
887.723	0.0185783
887.801	0.0185199
887.879	0.0183627
887.957	0.0187721
888.035	0.0185563
888.113	0.0185023
888.192	0.0187144
888.270	0.0186613
888.348	0.0186644
888.426	0.0187692
888.504	0.0188015
888.582	0.0188225
888.660	0.0188001
888.738	0.0188522
888.817	0.0187946
888.895	0.0188401
888.973	0.0188662
889.051	0.0187939
889.129	0.0187281
889.207	0.0186826
889.285	0.0185984
889.363	0.0185796
889.442	0.0185696
889.520	0.0185394
889.598	0.0186561
889.676	0.0185207
889.754	0.0185431
889.832	0.0185207
889.910	0.0185515
889.988	0.0185666
890.067	0.0185474
890.145	0.0186055
890.223	0.0185773
890.301	0.0185144
890.379	0.0186314
890.457	0.0185932
890.535	0.0186409
890.613	0.0186362
890.692	0.0185815
890.770	0.0186835
890.848	0.0188519
890.926	0.0186815
891.004	0.0185364
891.082	0.0187045
891.160	0.0187402
891.238	0.0185754
891.317	0.0186202
891.395	0.0186783
891.473	0.0187933
891.551	0.0186325
891.629	0.0186766
891.707	0.0187554
891.785	0.0186314
891.863	0.0186337
891.942	0.0186599
892.020	0.0186104
892.098	0.0186963
892.176	0.0187167
892.254	0.0186766
892.332	0.0187689
892.410	0.0188097
892.488	0.0187205
892.567	0.0188206
892.645	0.0188481
892.723	0.0186315
892.801	0.0187217
892.879	0.0189404
892.957	0.0188038
893.035	0.0187214
893.113	0.0187132
893.192	0.0185941
893.270	0.0185973
893.348	0.0185440
893.426	0.0185655
893.504	0.0185397
893.582	0.0184162
893.660	0.0185351
893.738	0.0186214
893.817	0.0184676
893.895	0.0184646
893.973	0.0185994
894.051	0.0184058
894.129	0.0184982
894.207	0.0185251
894.285	0.0184050
894.363	0.0185605
894.442	0.0185585
894.520	0.0185722
894.598	0.0186759
894.676	0.0186805
894.754	0.0185937
894.832	0.0185595
894.910	0.0186018
894.988	0.0186654
895.067	0.0187133
895.145	0.0186043
895.223	0.0186192
895.301	0.0187147
895.379	0.0187451
895.457	0.0186554
895.535	0.0187090
895.613	0.0187295
895.692	0.0187329
895.770	0.0186575
895.848	0.0187474
895.926	0.0185593
896.004	0.0186192
896.082	0.0187109
896.160	0.0185813
896.238	0.0186344
896.317	0.0185847
896.395	0.0185450
896.473	0.0186017
896.551	0.0185587
896.629	0.0185139
896.707	0.0184401
896.785	0.0183949
896.863	0.0184929
896.942	0.0183980
897.020	0.0184560
897.098	0.0183676
897.176	0.0184344
897.254	0.0183898
897.332	0.0184918
897.410	0.0185069
897.488	0.0186096
897.567	0.0184961
897.645	0.0185103
897.723	0.0186218
897.801	0.0186165
897.879	0.0187366
897.957	0.0188188
898.035	0.0188050
898.113	0.0186871
898.192	0.0187588
898.270	0.0188121
898.348	0.0187729
898.426	0.0188408
898.504	0.0188319
898.582	0.0187579
898.660	0.0188213
898.738	0.0188422
898.817	0.0187930
898.895	0.0188300
898.973	0.0187607
899.051	0.0189175
899.129	0.0188656
899.207	0.0189352
899.285	0.0188084
899.363	0.0189231
899.442	0.0189040
899.520	0.0187991
899.598	0.0187092
899.676	0.0185798
899.754	0.0187711
899.832	0.0187454
899.910	0.0186103
899.988	0.0186275
900.067	0.0186551
900.145	0.0185783
900.223	0.0187249
900.301	0.0186472
900.379	0.0185361
900.457	0.0185073
900.535	0.0186226
900.613	0.0184046
900.692	0.0184112
900.770	0.0183963
900.848	0.0184965
900.926	0.0186398
901.004	0.0184654
901.082	0.0184921
901.160	0.0185314
901.238	0.0184175
901.317	0.0185555
901.395	0.0186089
901.473	0.0182206
901.551	0.0184503
901.629	0.0184996
901.707	0.0185323
901.785	0.0184105
901.863	0.0184446
901.942	0.0183125
902.020	0.0184460
902.098	0.0184460
902.176	0.0185782
902.254	0.0185468
902.332	0.0188128
902.410	0.0186674
902.488	0.0186985
902.567	0.0187559
902.645	0.0186945
902.723	0.0185893
902.801	0.0187310
902.879	0.0187603
902.957	0.0187224
903.035	0.0187779
903.113	0.0188232
903.192	0.0188133
903.270	0.0186533
903.348	0.0187625
903.426	0.0186972
903.504	0.0186581
903.582	0.0187331
903.660	0.0187077
903.738	0.0185831
903.817	0.0186373
903.895	0.0185864
903.973	0.0184023
904.051	0.0184342
904.129	0.0184052
904.207	0.0184724
904.285	0.0183379
904.363	0.0184100
904.442	0.0185233
904.520	0.0185841
904.598	0.0184052
904.676	0.0184827
904.754	0.0185745
904.832	0.0186887
904.910	0.0186777
904.988	0.0188132
905.067	0.0188663
905.145	0.0188538
905.223	0.0187562
905.301	0.0189634
905.379	0.0189049
905.457	0.0188663
905.535	0.0189058
905.613	0.0189915
905.692	0.0189733
905.770	0.0189633
905.848	0.0188491
905.926	0.0188069
906.004	0.0187466
906.082	0.0187467
906.160	0.0186334
906.238	0.0186340
906.317	0.0185432
906.395	0.0185435
906.473	0.0185057
906.551	0.0185837
906.629	0.0185741
906.707	0.0185555
906.785	0.0184329
906.863	0.0184684
906.942	0.0183375
907.020	0.0183478
907.098	0.0184270
907.176	0.0183933
907.254	0.0182969
907.332	0.0185059
907.410	0.0183928
907.488	0.0184042
907.567	0.0183790
907.645	0.0184753
907.723	0.0185359
907.801	0.0186759
907.879	0.0185244
907.957	0.0186384
908.035	0.0186470
908.113	0.0187261
908.192	0.0187453
908.270	0.0187825
908.348	0.0188181
908.426	0.0188378
908.504	0.0189184
908.582	0.0188764
908.660	0.0187603
908.738	0.0189423
908.817	0.0190336
908.895	0.0187519
908.973	0.0187892
909.051	0.0186926
909.129	0.0187881
909.207	0.0187518
909.285	0.0187618
909.363	0.0187022
909.442	0.0186700
909.520	0.0185481
909.598	0.0185948
909.676	0.0185262
909.754	0.0186106
909.832	0.0186378
909.910	0.0185205
909.988	0.0184752
910.067	0.0185734
910.145	0.0185895
910.223	0.0185777
910.301	0.0185435
910.379	0.0184686
910.457	0.0184694
910.535	0.0186003
910.613	0.0186661
910.692	0.0186408
910.770	0.0185676
910.848	0.0186772
910.926	0.0186510
911.004	0.0187262
911.082	0.0185628
911.160	0.0186086
911.238	0.0185736
911.317	0.0183782
911.395	0.0185819
911.473	0.0184027
911.551	0.0185862
911.629	0.0186894
911.707	0.0186673
911.785	0.0186367
911.863	0.0186600
911.942	0.0187529
912.020	0.0186536
912.098	0.0186140
912.176	0.0186895
912.254	0.0186781
912.332	0.0186651
912.410	0.0187099
912.488	0.0187877
912.567	0.0188152
912.645	0.0186047
912.723	0.0186406
912.801	0.0186067
912.879	0.0184264
912.957	0.0185605
913.035	0.0185873
913.113	0.0184403
913.192	0.0183720
913.270	0.0183749
913.348	0.0184836
913.426	0.0183369
913.504	0.0182914
913.582	0.0183245
913.660	0.0183363
913.738	0.0184686
913.817	0.0184819
913.895	0.0184270
913.973	0.0184777
914.051	0.0184802
914.129	0.0185482
914.207	0.0185449
914.285	0.0187505
914.363	0.0187202
914.442	0.0185644
914.520	0.0185808
914.598	0.0186791
914.676	0.0187686
914.754	0.0186936
914.832	0.0185538
914.910	0.0186544
914.988	0.0187824
915.067	0.0188591
915.145	0.0189728
915.223	0.0188833
915.301	0.0187692
915.379	0.0188376
915.457	0.0190092
915.535	0.0189721
915.613	0.0189558
915.692	0.0189624
915.770	0.0190156
915.848	0.0189195
915.926	0.0187564
916.004	0.0188351
916.082	0.0189646
916.160	0.0188335
916.238	0.0187604
916.317	0.0186799
916.395	0.0186609
916.473	0.0186043
916.551	0.0185493
916.629	0.0185859
916.707	0.0185423
916.785	0.0185254
916.863	0.0186452
916.942	0.0186111
917.020	0.0184906
917.098	0.0184916
917.176	0.0185600
917.254	0.0186782
917.332	0.0186600
917.410	0.0186296
917.488	0.0186501
917.567	0.0186710
917.645	0.0187292
917.723	0.0185949
917.801	0.0186978
917.879	0.0185106
917.957	0.0184958
918.035	0.0183527
918.113	0.0184268
918.192	0.0183456
918.270	0.0184019
918.348	0.0184138
918.426	0.0183304
918.504	0.0183833
918.582	0.0181950
918.660	0.0182813
918.738	0.0182181
918.817	0.0181915
918.895	0.0184321
918.973	0.0184077
919.051	0.0184696
919.129	0.0183750
919.207	0.0185810
919.285	0.0187138
919.363	0.0186127
919.442	0.0186348
919.520	0.0188056
919.598	0.0188203
919.676	0.0187669
919.754	0.0187833
919.832	0.0188201
919.910	0.0187414
