06/01/2022	21:51:18	Ver.	4.1	UNKNOWN
Optical Delay	599.988409	Delta X		0.078125	Sweeps	1	Scan Rate	0/0
Coordinates	Axis 1	NaN	Axis 2	NaN	Axis 3	NaN	Axis 4	NaN	Axis 5	NaN	Axis 6	0.000000
TX Power	0.000000	RX Power	0.000000

599.988	0.0183591
600.067	0.0183186
600.145	0.0183566
600.223	0.0183791
600.301	0.0183773
600.379	0.0184890
600.457	0.0183296
600.535	0.0184122
600.613	0.0182768
600.692	0.0183379
600.770	0.0185081
600.848	0.0183082
600.926	0.0183403
601.004	0.0182841
601.082	0.0183416
601.160	0.0183741
601.238	0.0184562
601.317	0.0183203
601.395	0.0183520
601.473	0.0182877
601.551	0.0183406
601.629	0.0182738
601.707	0.0183633
601.785	0.0184026
601.863	0.0183430
601.942	0.0182326
602.020	0.0183449
602.098	0.0183088
602.176	0.0184520
602.254	0.0184126
602.332	0.0182816
602.410	0.0185389
602.488	0.0182774
602.567	0.0183802
602.645	0.0183422
602.723	0.0181600
602.801	0.0183219
602.879	0.0183995
602.957	0.0182748
603.035	0.0182941
603.113	0.0183132
603.192	0.0183772
603.270	0.0183764
603.348	0.0182969
603.426	0.0183180
603.504	0.0183824
603.582	0.0182578
603.660	0.0182748
603.738	0.0184113
603.817	0.0183566
603.895	0.0183081
603.973	0.0182293
604.051	0.0181822
604.129	0.0182935
604.207	0.0183738
604.285	0.0183135
604.363	0.0183461
604.442	0.0182886
604.520	0.0182533
604.598	0.0184142
604.676	0.0184861
604.754	0.0183636
604.832	0.0184400
604.910	0.0183469
604.988	0.0183038
605.067	0.0182738
605.145	0.0183725
605.223	0.0183405
605.301	0.0183542
605.379	0.0182497
605.457	0.0182089
605.535	0.0184338
605.613	0.0183001
605.692	0.0183267
605.770	0.0183360
605.848	0.0182598
605.926	0.0182825
606.004	0.0181975
606.082	0.0182834
606.160	0.0182123
606.238	0.0183945
606.317	0.0183396
606.395	0.0183133
606.473	0.0183382
606.551	0.0182129
606.629	0.0181725
606.707	0.0184005
606.785	0.0183354
606.863	0.0182944
606.942	0.0182440
607.020	0.0184210
607.098	0.0182421
607.176	0.0182333
607.254	0.0182915
607.332	0.0183626
607.410	0.0181861
607.488	0.0183562
607.567	0.0184493
607.645	0.0184526
607.723	0.0183599
607.801	0.0184163
607.879	0.0183001
607.957	0.0183154
608.035	0.0182525
608.113	0.0183076
608.192	0.0183958
608.270	0.0183488
608.348	0.0183027
608.426	0.0182337
608.504	0.0182108
608.582	0.0182506
608.660	0.0183331
608.738	0.0182145
608.817	0.0182388
608.895	0.0182011
608.973	0.0183097
609.051	0.0183543
609.129	0.0183775
609.207	0.0182102
609.285	0.0183334
609.363	0.0183368
609.442	0.0182587
609.520	0.0183198
609.598	0.0183392
609.676	0.0183532
609.754	0.0182976
609.832	0.0182738
609.910	0.0183296
609.988	0.0183405
610.067	0.0184657
610.145	0.0182009
610.223	0.0182671
610.301	0.0183728
610.379	0.0183476
610.457	0.0184838
610.535	0.0183482
610.613	0.0182014
610.692	0.0183228
610.770	0.0182807
610.848	0.0184368
610.926	0.0181765
611.004	0.0183222
611.082	0.0183520
611.160	0.0182951
611.238	0.0183208
611.317	0.0183450
611.395	0.0183123
611.473	0.0183372
611.551	0.0182738
611.629	0.0181862
611.707	0.0182551
611.785	0.0183890
611.863	0.0183469
611.942	0.0183336
612.020	0.0183601
612.098	0.0182517
612.176	0.0183375
612.254	0.0183129
612.332	0.0183567
612.410	0.0183288
612.488	0.0184354
612.567	0.0183849
612.645	0.0183194
612.723	0.0182564
612.801	0.0183561
612.879	0.0183265
612.957	0.0182970
613.035	0.0182112
613.113	0.0183392
613.192	0.0184244
613.270	0.0182782
613.348	0.0184019
613.426	0.0182340
613.504	0.0183610
613.582	0.0184023
613.660	0.0183148
613.738	0.0182373
613.817	0.0182151
613.895	0.0182436
613.973	0.0184189
614.051	0.0182006
614.129	0.0183302
614.207	0.0183838
614.285	0.0183878
614.363	0.0183547
614.442	0.0182750
614.520	0.0183177
614.598	0.0184451
614.676	0.0183542
614.754	0.0182318
614.832	0.0183376
614.910	0.0183692
614.988	0.0182713
615.067	0.0183376
615.145	0.0182346
615.223	0.0182703
615.301	0.0182667
615.379	0.0183808
615.457	0.0183710
615.535	0.0184093
615.613	0.0183787
615.692	0.0181710
615.770	0.0182156
615.848	0.0182815
615.926	0.0182669
616.004	0.0183209
616.082	0.0182598
616.160	0.0184019
616.238	0.0183884
616.317	0.0182851
616.395	0.0183426
616.473	0.0184240
616.551	0.0184196
616.629	0.0182961
616.707	0.0182715
616.785	0.0184106
616.863	0.0183217
616.942	0.0183196
617.020	0.0184323
617.098	0.0183864
617.176	0.0183775
617.254	0.0183602
617.332	0.0182997
617.410	0.0183259
617.488	0.0184741
617.567	0.0184268
617.645	0.0183704
617.723	0.0183177
617.801	0.0184499
617.879	0.0183080
617.957	0.0182618
618.035	0.0182779
618.113	0.0182947
618.192	0.0183673
618.270	0.0182691
618.348	0.0183797
618.426	0.0184227
618.504	0.0182703
618.582	0.0184185
618.660	0.0182562
618.738	0.0182623
618.817	0.0183234
618.895	0.0185345
618.973	0.0182578
619.051	0.0182852
619.129	0.0183984
619.207	0.0183356
619.285	0.0184589
619.363	0.0183727
619.442	0.0183526
619.520	0.0182361
619.598	0.0183718
619.676	0.0183761
619.754	0.0184874
619.832	0.0184146
619.910	0.0183073
619.988	0.0183616
620.067	0.0183757
620.145	0.0184438
620.223	0.0183417
620.301	0.0182184
620.379	0.0183073
620.457	0.0184140
620.535	0.0184420
620.613	0.0183157
620.692	0.0185374
620.770	0.0184358
620.848	0.0183089
620.926	0.0184578
621.004	0.0184063
621.082	0.0184583
621.160	0.0183456
621.238	0.0184478
621.317	0.0183916
621.395	0.0184200
621.473	0.0184218
621.551	0.0183829
621.629	0.0183428
621.707	0.0184869
621.785	0.0183799
621.863	0.0184048
621.942	0.0183677
622.020	0.0184267
622.098	0.0183443
622.176	0.0182605
622.254	0.0182230
622.332	0.0183855
622.410	0.0184653
622.488	0.0182704
622.567	0.0182948
622.645	0.0183118
622.723	0.0182447
622.801	0.0184220
622.879	0.0183990
622.957	0.0184024
623.035	0.0183529
623.113	0.0183360
623.192	0.0183390
623.270	0.0183404
623.348	0.0183237
623.426	0.0183897
623.504	0.0183308
623.582	0.0184491
623.660	0.0182706
623.738	0.0183345
623.817	0.0181694
623.895	0.0183047
623.973	0.0183351
624.051	0.0183505
624.129	0.0183018
624.207	0.0182773
624.285	0.0183708
624.363	0.0183127
624.442	0.0183193
624.520	0.0183314
624.598	0.0182523
624.676	0.0183374
624.754	0.0182224
624.832	0.0183768
624.910	0.0183908
624.988	0.0182774
625.067	0.0183790
625.145	0.0183553
625.223	0.0184609
625.301	0.0182630
625.379	0.0183631
625.457	0.0184216
625.535	0.0184187
625.613	0.0182336
625.692	0.0182813
625.770	0.0183676
625.848	0.0183141
625.926	0.0181593
626.004	0.0182013
626.082	0.0182468
626.160	0.0183057
626.238	0.0182773
626.317	0.0184205
626.395	0.0183556
626.473	0.0183357
626.551	0.0183516
626.629	0.0182748
626.707	0.0184562
626.785	0.0183575
626.863	0.0182076
626.942	0.0183408
627.020	0.0183829
627.098	0.0182932
627.176	0.0183585
627.254	0.0183208
627.332	0.0183550
627.410	0.0182594
627.488	0.0182601
627.567	0.0181719
627.645	0.0183521
627.723	0.0184090
627.801	0.0183398
627.879	0.0183043
627.957	0.0181805
628.035	0.0184204
628.113	0.0183312
628.192	0.0183765
628.270	0.0185444
628.348	0.0184071
628.426	0.0182124
628.504	0.0184346
628.582	0.0183903
628.660	0.0183931
628.738	0.0184380
628.817	0.0183405
628.895	0.0183987
628.973	0.0183077
629.051	0.0184171
629.129	0.0183424
629.207	0.0183585
629.285	0.0182337
629.363	0.0183714
629.442	0.0183270
629.520	0.0181980
629.598	0.0182977
629.676	0.0182818
629.754	0.0184089
629.832	0.0183442
629.910	0.0182558
629.988	0.0183442
630.067	0.0184163
630.145	0.0184356
630.223	0.0183274
630.301	0.0182049
630.379	0.0183781
630.457	0.0184168
630.535	0.0182317
630.613	0.0182147
630.692	0.0181966
630.770	0.0184788
630.848	0.0182767
630.926	0.0182524
631.004	0.0183167
631.082	0.0182249
631.160	0.0181625
631.238	0.0183264
631.317	0.0183112
631.395	0.0183485
631.473	0.0181886
631.551	0.0184882
631.629	0.0185386
631.707	0.0182314
631.785	0.0181590
631.863	0.0181277
631.942	0.0182838
632.020	0.0183485
632.098	0.0185303
632.176	0.0183594
632.254	0.0183171
632.332	0.0182476
632.410	0.0183125
632.488	0.0183605
632.567	0.0182727
632.645	0.0182821
632.723	0.0184022
632.801	0.0183294
632.879	0.0183268
632.957	0.0182167
633.035	0.0181483
633.113	0.0183472
633.192	0.0182711
633.270	0.0182577
633.348	0.0182763
633.426	0.0182916
633.504	0.0182426
633.582	0.0183126
633.660	0.0183874
633.738	0.0184058
633.817	0.0182830
633.895	0.0182623
633.973	0.0183716
634.051	0.0182961
634.129	0.0183002
634.207	0.0183498
634.285	0.0182220
634.363	0.0183053
634.442	0.0184225
634.520	0.0181626
634.598	0.0181686
634.676	0.0181847
634.754	0.0183838
634.832	0.0182185
634.910	0.0182484
634.988	0.0184909
635.067	0.0183844
635.145	0.0181367
635.223	0.0183376
635.301	0.0184002
635.379	0.0183556
635.457	0.0182413
635.535	0.0181950
635.613	0.0183026
635.692	0.0182803
635.770	0.0183851
635.848	0.0182479
635.926	0.0183472
636.004	0.0183057
636.082	0.0182928
636.160	0.0181913
636.238	0.0182852
636.317	0.0184267
636.395	0.0183536
636.473	0.0184045
636.551	0.0183089
636.629	0.0183685
636.707	0.0183768
636.785	0.0182648
636.863	0.0182720
636.942	0.0182680
637.020	0.0182702
637.098	0.0182158
637.176	0.0182747
637.254	0.0183553
637.332	0.0183096
637.410	0.0182334
637.488	0.0182253
637.567	0.0182700
637.645	0.0182917
637.723	0.0182999
637.801	0.0182818
637.879	0.0183604
637.957	0.0181905
638.035	0.0182204
638.113	0.0182602
638.192	0.0184022
638.270	0.0182825
638.348	0.0183160
638.426	0.0184783
638.504	0.0183774
638.582	0.0182163
638.660	0.0183023
638.738	0.0184116
638.817	0.0184129
638.895	0.0184523
638.973	0.0183791
639.051	0.0184541
639.129	0.0183015
639.207	0.0184794
639.285	0.0183440
639.363	0.0183393
639.442	0.0184827
639.520	0.0184427
639.598	0.0182880
639.676	0.0183418
639.754	0.0182589
639.832	0.0182297
639.910	0.0183316
639.988	0.0181993
640.067	0.0182534
640.145	0.0183465
640.223	0.0183443
640.301	0.0182678
640.379	0.0183285
640.457	0.0184687
640.535	0.0184930
640.613	0.0183720
640.692	0.0183312
640.770	0.0184161
640.848	0.0184960
640.926	0.0184843
641.004	0.0183480
641.082	0.0185275
641.160	0.0183962
641.238	0.0183338
641.317	0.0184132
641.395	0.0184403
641.473	0.0183329
641.551	0.0183026
641.629	0.0182621
641.707	0.0181812
641.785	0.0182056
641.863	0.0183397
641.942	0.0182372
642.020	0.0182130
642.098	0.0183318
642.176	0.0183881
642.254	0.0184219
642.332	0.0183595
642.410	0.0184734
642.488	0.0184628
642.567	0.0185110
642.645	0.0183566
642.723	0.0184454
642.801	0.0184925
642.879	0.0183991
642.957	0.0184161
643.035	0.0182184
643.113	0.0184863
643.192	0.0181881
643.270	0.0181943
643.348	0.0181168
643.426	0.0181928
643.504	0.0182997
643.582	0.0183768
643.660	0.0182818
643.738	0.0183634
643.817	0.0183223
643.895	0.0182766
643.973	0.0184879
644.051	0.0182275
644.129	0.0184103
644.207	0.0182867
644.285	0.0183700
644.363	0.0184313
644.442	0.0183315
644.520	0.0185296
644.598	0.0186329
644.676	0.0184280
644.754	0.0183712
644.832	0.0183709
644.910	0.0185307
644.988	0.0183912
645.067	0.0182818
645.145	0.0182672
645.223	0.0184216
645.301	0.0182549
645.379	0.0181770
645.457	0.0182000
645.535	0.0182233
645.613	0.0183659
645.692	0.0183492
645.770	0.0182101
645.848	0.0183254
645.926	0.0182598
646.004	0.0181905
646.082	0.0183662
646.160	0.0182836
646.238	0.0182162
646.317	0.0183156
646.395	0.0184053
646.473	0.0183196
646.551	0.0184067
646.629	0.0184035
646.707	0.0185384
646.785	0.0185320
646.863	0.0186471
646.942	0.0185139
647.020	0.0185059
647.098	0.0185564
647.176	0.0184387
647.254	0.0183014
647.332	0.0181641
647.410	0.0182851
647.488	0.0180769
647.567	0.0179784
647.645	0.0179790
647.723	0.0181543
647.801	0.0181464
647.879	0.0181062
647.957	0.0183427
648.035	0.0183969
648.113	0.0183614
648.192	0.0184447
648.270	0.0184607
648.348	0.0185789
648.426	0.0187083
648.504	0.0185827
648.582	0.0185737
648.660	0.0185710
648.738	0.0184920
648.817	0.0184055
648.895	0.0184210
648.973	0.0181720
649.051	0.0180263
649.129	0.0179849
649.207	0.0182018
649.285	0.0182877
649.363	0.0181690
649.442	0.0179752
649.520	0.0182053
649.598	0.0181177
649.676	0.0182877
649.754	0.0182455
649.832	0.0182007
649.910	0.0180933
649.988	0.0182509
650.067	0.0184222
650.145	0.0183800
650.223	0.0182891
650.301	0.0184203
650.379	0.0185324
650.457	0.0184661
650.535	0.0185368
650.613	0.0184727
650.692	0.0184532
650.770	0.0184719
650.848	0.0183647
650.926	0.0183208
651.004	0.0183869
651.082	0.0183497
651.160	0.0181765
651.238	0.0183473
651.317	0.0182552
651.395	0.0181709
651.473	0.0182618
651.551	0.0182724
651.629	0.0181720
651.707	0.0182500
651.785	0.0183218
651.863	0.0182790
651.942	0.0183583
652.020	0.0184141
652.098	0.0184042
652.176	0.0182650
652.254	0.0182598
652.332	0.0183467
652.410	0.0182449
652.488	0.0183813
652.567	0.0182704
652.645	0.0184403
652.723	0.0184173
652.801	0.0183935
652.879	0.0183560
652.957	0.0183192
653.035	0.0182992
653.113	0.0182840
653.192	0.0183411
653.270	0.0182567
653.348	0.0182490
653.426	0.0183573
653.504	0.0183466
653.582	0.0180974
653.660	0.0180795
653.738	0.0180759
653.817	0.0182430
653.895	0.0183602
653.973	0.0182390
654.051	0.0182925
654.129	0.0183765
654.207	0.0183096
654.285	0.0182845
654.363	0.0183296
654.442	0.0183852
654.520	0.0181923
654.598	0.0182581
654.676	0.0181976
654.754	0.0182597
654.832	0.0182264
654.910	0.0183546
654.988	0.0184068
655.067	0.0184771
655.145	0.0184906
655.223	0.0183703
655.301	0.0183864
655.379	0.0184333
655.457	0.0183398
655.535	0.0182651
655.613	0.0182811
655.692	0.0183769
655.770	0.0183451
655.848	0.0184315
655.926	0.0182017
656.004	0.0184406
656.082	0.0182863
656.160	0.0183059
656.238	0.0182524
656.317	0.0183076
656.395	0.0181415
656.473	0.0181779
656.551	0.0182402
656.629	0.0182040
656.707	0.0180399
656.785	0.0181225
656.863	0.0182590
656.942	0.0181145
657.020	0.0181749
657.098	0.0182921
657.176	0.0183428
657.254	0.0183386
657.332	0.0183071
657.410	0.0183765
657.488	0.0185826
657.567	0.0186067
657.645	0.0185564
657.723	0.0184716
657.801	0.0184954
657.879	0.0185004
657.957	0.0185188
658.035	0.0184859
658.113	0.0185130
658.192	0.0183940
658.270	0.0183360
658.348	0.0182985
658.426	0.0181485
658.504	0.0181757
658.582	0.0179315
658.660	0.0178944
658.738	0.0180043
658.817	0.0179819
658.895	0.0180568
658.973	0.0180767
659.051	0.0181271
659.129	0.0182517
659.207	0.0182335
659.285	0.0182194
659.363	0.0182580
659.442	0.0184431
659.520	0.0186573
659.598	0.0184967
659.676	0.0186151
659.754	0.0186874
659.832	0.0186015
659.910	0.0185979
659.988	0.0186176
660.067	0.0186109
660.145	0.0184719
660.223	0.0184615
660.301	0.0183028
660.379	0.0183199
660.457	0.0181066
660.535	0.0180875
660.613	0.0181444
660.692	0.0179717
660.770	0.0178699
660.848	0.0180178
660.926	0.0180176
661.004	0.0179288
661.082	0.0179620
661.160	0.0182024
661.238	0.0181402
661.317	0.0181467
661.395	0.0183617
661.473	0.0182774
661.551	0.0185303
661.629	0.0184048
661.707	0.0184099
661.785	0.0184167
661.863	0.0186359
661.942	0.0185164
662.020	0.0186322
662.098	0.0186069
662.176	0.0185461
662.254	0.0183432
662.332	0.0184328
662.410	0.0183216
662.488	0.0183319
662.567	0.0182443
662.645	0.0182713
662.723	0.0181695
662.801	0.0181487
662.879	0.0182246
662.957	0.0181192
663.035	0.0180802
663.113	0.0180645
663.192	0.0182157
663.270	0.0183593
663.348	0.0182731
663.426	0.0184034
663.504	0.0185265
663.582	0.0184431
663.660	0.0185896
663.738	0.0185961
663.817	0.0185140
663.895	0.0185601
663.973	0.0185410
664.051	0.0185765
664.129	0.0185278
664.207	0.0182837
664.285	0.0183959
664.363	0.0184024
664.442	0.0183688
664.520	0.0182802
664.598	0.0181141
664.676	0.0182394
664.754	0.0181744
664.832	0.0182791
664.910	0.0182889
664.988	0.0181178
665.067	0.0182877
665.145	0.0184534
665.223	0.0182643
665.301	0.0183699
665.379	0.0183013
665.457	0.0185211
665.535	0.0184936
665.613	0.0183463
665.692	0.0183319
665.770	0.0184093
665.848	0.0183134
665.926	0.0183049
666.004	0.0182729
666.082	0.0182739
666.160	0.0183401
666.238	0.0182806
666.317	0.0184861
666.395	0.0183159
666.473	0.0183619
666.551	0.0184444
666.629	0.0184317
666.707	0.0184685
666.785	0.0182439
666.863	0.0184155
666.942	0.0184678
667.020	0.0183840
667.098	0.0184047
667.176	0.0182037
667.254	0.0182764
667.332	0.0182648
667.410	0.0183160
667.488	0.0182957
667.567	0.0182933
667.645	0.0182188
667.723	0.0182262
667.801	0.0182487
667.879	0.0181812
667.957	0.0182201
668.035	0.0180901
668.113	0.0181179
668.192	0.0181837
668.270	0.0181754
668.348	0.0181728
668.426	0.0182359
668.504	0.0181438
668.582	0.0182922
668.660	0.0184731
668.738	0.0183853
668.817	0.0182927
668.895	0.0184968
668.973	0.0185587
669.051	0.0186302
669.129	0.0187325
669.207	0.0185944
669.285	0.0184397
669.363	0.0185711
669.442	0.0186350
669.520	0.0186200
669.598	0.0186613
669.676	0.0183802
669.754	0.0183457
669.832	0.0183410
669.910	0.0180329
669.988	0.0181662
670.067	0.0181876
670.145	0.0181356
670.223	0.0181973
670.301	0.0181149
670.379	0.0181010
670.457	0.0181107
670.535	0.0183458
670.613	0.0182719
670.692	0.0183177
670.770	0.0181601
670.848	0.0183135
670.926	0.0183649
671.004	0.0185548
671.082	0.0185122
671.160	0.0185099
671.238	0.0185238
671.317	0.0184772
671.395	0.0186270
671.473	0.0185410
671.551	0.0185516
671.629	0.0187039
671.707	0.0184406
671.785	0.0184945
671.863	0.0183799
671.942	0.0183393
672.020	0.0182575
672.098	0.0181926
672.176	0.0181117
672.254	0.0180033
672.332	0.0180969
672.410	0.0180096
672.488	0.0179987
672.567	0.0180180
672.645	0.0181488
672.723	0.0181472
672.801	0.0180650
672.879	0.0182304
672.957	0.0184789
673.035	0.0184223
673.113	0.0185116
673.192	0.0186292
673.270	0.0186861
673.348	0.0186336
673.426	0.0186893
673.504	0.0186088
673.582	0.0185818
673.660	0.0184709
673.738	0.0184977
673.817	0.0184948
673.895	0.0183819
673.973	0.0182918
674.051	0.0182956
674.129	0.0180312
674.207	0.0181010
674.285	0.0178989
674.363	0.0180236
674.442	0.0180055
674.520	0.0181424
674.598	0.0181053
674.676	0.0181127
674.754	0.0181514
674.832	0.0183582
674.910	0.0182504
674.988	0.0182205
675.067	0.0183997
675.145	0.0185457
675.223	0.0185217
675.301	0.0186097
675.379	0.0184903
675.457	0.0183848
675.535	0.0185815
675.613	0.0185934
675.692	0.0186023
675.770	0.0186095
675.848	0.0186539
675.926	0.0185490
676.004	0.0186686
676.082	0.0185040
676.160	0.0183313
676.238	0.0183214
676.317	0.0182211
676.395	0.0180570
676.473	0.0179639
676.551	0.0176743
676.629	0.0175659
676.707	0.0177380
676.785	0.0175161
676.863	0.0175957
676.942	0.0175970
677.020	0.0176781
677.098	0.0180585
677.176	0.0180216
677.254	0.0181344
677.332	0.0183057
677.410	0.0183338
677.488	0.0186145
677.567	0.0189258
677.645	0.0189586
677.723	0.0190539
677.801	0.0191165
677.879	0.0191856
677.957	0.0188905
678.035	0.0190285
678.113	0.0189804
678.192	0.0189137
678.270	0.0187025
678.348	0.0186507
678.426	0.0187169
678.504	0.0184625
678.582	0.0182496
678.660	0.0182987
678.738	0.0181236
678.817	0.0179196
678.895	0.0180785
678.973	0.0179391
679.051	0.0178033
679.129	0.0176321
679.207	0.0176710
679.285	0.0177991
679.363	0.0176820
679.442	0.0177883
679.520	0.0178148
679.598	0.0180479
679.676	0.0180293
679.754	0.0182877
679.832	0.0184980
679.910	0.0186627
679.988	0.0189565
680.067	0.0188715
680.145	0.0191407
680.223	0.0193032
680.301	0.0192739
680.379	0.0192256
680.457	0.0193410
680.535	0.0190213
680.613	0.0189155
680.692	0.0187688
680.770	0.0185724
680.848	0.0183140
680.926	0.0181769
681.004	0.0179755
681.082	0.0177013
681.160	0.0177240
681.238	0.0176223
681.317	0.0174706
681.395	0.0173665
681.473	0.0172197
681.551	0.0171904
681.629	0.0173154
681.707	0.0174329
681.785	0.0175388
681.863	0.0177344
681.942	0.0177888
682.020	0.0178529
682.098	0.0182159
682.176	0.0182594
682.254	0.0183933
682.332	0.0186251
682.410	0.0187849
682.488	0.0188765
682.567	0.0191154
682.645	0.0191405
682.723	0.0193677
682.801	0.0194556
682.879	0.0196105
682.957	0.0195533
683.035	0.0195409
683.113	0.0195480
683.192	0.0194159
683.270	0.0194244
683.348	0.0193103
683.426	0.0191566
683.504	0.0190093
683.582	0.0188084
683.660	0.0186325
683.738	0.0182784
683.817	0.0178983
683.895	0.0177149
683.973	0.0175473
684.051	0.0174275
684.129	0.0172054
684.207	0.0170639
684.285	0.0170375
684.363	0.0170445
684.442	0.0168902
684.520	0.0169908
684.598	0.0169567
684.676	0.0171613
684.754	0.0170686
684.832	0.0171941
684.910	0.0173361
684.988	0.0176772
685.067	0.0178698
685.145	0.0178677
685.223	0.0181953
685.301	0.0183398
685.379	0.0185100
685.457	0.0187011
685.535	0.0189781
685.613	0.0192851
685.692	0.0193104
685.770	0.0194331
685.848	0.0197240
685.926	0.0197428
686.004	0.0197339
686.082	0.0199755
686.160	0.0198870
686.238	0.0198409
686.317	0.0197239
686.395	0.0197430
686.473	0.0194841
686.551	0.0193295
686.629	0.0192567
686.707	0.0191716
686.785	0.0188400
686.863	0.0187414
686.942	0.0186016
687.020	0.0184739
687.098	0.0180545
687.176	0.0180461
687.254	0.0179509
687.332	0.0176376
687.410	0.0175436
687.488	0.0174982
687.567	0.0174612
687.645	0.0173402
687.723	0.0173910
687.801	0.0172068
687.879	0.0172392
687.957	0.0170676
688.035	0.0171841
688.113	0.0170052
688.192	0.0170786
688.270	0.0169754
688.348	0.0168991
688.426	0.0170274
688.504	0.0170053
688.582	0.0169212
688.660	0.0170385
688.738	0.0171788
688.817	0.0173534
688.895	0.0177032
688.973	0.0178642
689.051	0.0180853
689.129	0.0184496
689.207	0.0187351
689.285	0.0190634
689.363	0.0192878
689.442	0.0196245
689.520	0.0199937
689.598	0.0201512
689.676	0.0204176
689.754	0.0207559
689.832	0.0207803
689.910	0.0208459
689.988	0.0209494
690.067	0.0210160
690.145	0.0209585
690.223	0.0209329
690.301	0.0205556
690.379	0.0203365
690.457	0.0201639
690.535	0.0198118
690.613	0.0194352
690.692	0.0190891
690.770	0.0187544
690.848	0.0181893
690.926	0.0179134
691.004	0.0176686
691.082	0.0172031
691.160	0.0169728
691.238	0.0166992
691.317	0.0162677
691.395	0.0160391
691.473	0.0156653
691.551	0.0156860
691.629	0.0154760
691.707	0.0152788
691.785	0.0151368
691.863	0.0151750
691.942	0.0152123
692.020	0.0151948
692.098	0.0152493
692.176	0.0155796
692.254	0.0157732
692.332	0.0161620
692.410	0.0165732
692.488	0.0170965
692.567	0.0174199
692.645	0.0181003
692.723	0.0186354
692.801	0.0191167
692.879	0.0194784
692.957	0.0198241
693.035	0.0202411
693.113	0.0205789
693.192	0.0208958
693.270	0.0211463
693.348	0.0211860
693.426	0.0213167
693.504	0.0214436
693.582	0.0214700
693.660	0.0215087
693.738	0.0214508
693.817	0.0214541
693.895	0.0214000
693.973	0.0212054
694.051	0.0212094
694.129	0.0208539
694.207	0.0206193
694.285	0.0201862
694.363	0.0198374
694.442	0.0196202
694.520	0.0192184
694.598	0.0188023
694.676	0.0184386
694.754	0.0182772
694.832	0.0179367
694.910	0.0176850
694.988	0.0174241
695.067	0.0170357
695.145	0.0169602
695.223	0.0165797
695.301	0.0161846
695.379	0.0161912
695.457	0.0158977
695.535	0.0156133
695.613	0.0156615
695.692	0.0153028
695.770	0.0152072
695.848	0.0150626
695.926	0.0149963
696.004	0.0150481
696.082	0.0152620
696.160	0.0151157
696.238	0.0154117
696.317	0.0155232
696.395	0.0158855
696.473	0.0161182
696.551	0.0164301
696.629	0.0168344
696.707	0.0172363
696.785	0.0176808
696.863	0.0181679
696.942	0.0185333
697.020	0.0190311
697.098	0.0193961
697.176	0.0197756
697.254	0.0200459
697.332	0.0205035
697.410	0.0207001
697.488	0.0207712
697.567	0.0209280
697.645	0.0210419
697.723	0.0210290
697.801	0.0212226
697.879	0.0213139
697.957	0.0213248
698.035	0.0213383
698.113	0.0212601
698.192	0.0214140
698.270	0.0213161
698.348	0.0212509
698.426	0.0211714
698.504	0.0210621
698.582	0.0206625
698.660	0.0204844
698.738	0.0201034
698.817	0.0197102
698.895	0.0194559
698.973	0.0189054
699.051	0.0182420
699.129	0.0178271
699.207	0.0171409
699.285	0.0166728
699.363	0.0161643
699.442	0.0157613
699.520	0.0153066
699.598	0.0150189
699.676	0.0147929
699.754	0.0147610
699.832	0.0145499
699.910	0.0145867
699.988	0.0147675
700.067	0.0151478
700.145	0.0153091
700.223	0.0157944
700.301	0.0162558
700.379	0.0167062
700.457	0.0170813
700.535	0.0174798
700.613	0.0179787
700.692	0.0184724
700.770	0.0188092
700.848	0.0191661
700.926	0.0193084
701.004	0.0196960
701.082	0.0200596
701.160	0.0202889
701.238	0.0203085
701.317	0.0204097
701.395	0.0204551
701.473	0.0204298
701.551	0.0202235
701.629	0.0201880
701.707	0.0200286
701.785	0.0197961
701.863	0.0196192
701.942	0.0194762
702.020	0.0191055
702.098	0.0189497
702.176	0.0188156
702.254	0.0186201
702.332	0.0185426
702.410	0.0183903
702.488	0.0182858
702.567	0.0182742
702.645	0.0180653
702.723	0.0180936
702.801	0.0181055
702.879	0.0179103
702.957	0.0180228
703.035	0.0179174
703.113	0.0178349
703.192	0.0179131
703.270	0.0175829
703.348	0.0177658
703.426	0.0178938
703.504	0.0176721
703.582	0.0176999
703.660	0.0177236
703.738	0.0178648
703.817	0.0178060
703.895	0.0180272
703.973	0.0180096
704.051	0.0182357
704.129	0.0182998
704.207	0.0183022
704.285	0.0185737
704.363	0.0185302
704.442	0.0182963
704.520	0.0183453
704.598	0.0180933
704.676	0.0180185
704.754	0.0179854
704.832	0.0180557
704.910	0.0177665
704.988	0.0177974
705.067	0.0178968
705.145	0.0179431
705.223	0.0181297
705.301	0.0182564
705.379	0.0184785
705.457	0.0187894
705.535	0.0189307
705.613	0.0191026
705.692	0.0195164
705.770	0.0196779
705.848	0.0198270
705.926	0.0200369
706.004	0.0200412
706.082	0.0198447
706.160	0.0198034
706.238	0.0195176
706.317	0.0191379
706.395	0.0190343
706.473	0.0185502
706.551	0.0183774
706.629	0.0180160
706.707	0.0178261
706.785	0.0176809
706.863	0.0173656
706.942	0.0171667
707.020	0.0170859
707.098	0.0167799
707.176	0.0169176
707.254	0.0168913
707.332	0.0168832
707.410	0.0169930
707.488	0.0170734
707.567	0.0172135
707.645	0.0174139
707.723	0.0178141
707.801	0.0180222
707.879	0.0182131
707.957	0.0185688
708.035	0.0187945
708.113	0.0190105
708.192	0.0194140
708.270	0.0195243
708.348	0.0197434
708.426	0.0196368
708.504	0.0196451
708.582	0.0196008
708.660	0.0194632
708.738	0.0192625
708.817	0.0191640
708.895	0.0188724
708.973	0.0186826
709.051	0.0183987
709.129	0.0182770
709.207	0.0179591
709.285	0.0175713
709.363	0.0174205
709.442	0.0172859
709.520	0.0170573
709.598	0.0168864
709.676	0.0168684
709.754	0.0169162
709.832	0.0168077
709.910	0.0168780
709.988	0.0169291
710.067	0.0168224
710.145	0.0168970
710.223	0.0170542
710.301	0.0171789
710.379	0.0173554
710.457	0.0174606
710.535	0.0176984
710.613	0.0178533
710.692	0.0180524
710.770	0.0182378
710.848	0.0187058
710.926	0.0190558
711.004	0.0192606
711.082	0.0198056
711.160	0.0200032
711.238	0.0203385
711.317	0.0206552
711.395	0.0208621
711.473	0.0210144
711.551	0.0210853
711.629	0.0209898
711.707	0.0208080
711.785	0.0207558
711.863	0.0204888
711.942	0.0202175
712.020	0.0197878
712.098	0.0194498
712.176	0.0189593
712.254	0.0185812
712.332	0.0181155
712.410	0.0178445
712.488	0.0176256
712.567	0.0172995
712.645	0.0172261
712.723	0.0172706
712.801	0.0173080
712.879	0.0174339
712.957	0.0175201
713.035	0.0175715
713.113	0.0178665
713.192	0.0181039
713.270	0.0180878
713.348	0.0183952
713.426	0.0184037
713.504	0.0185606
713.582	0.0185948
713.660	0.0185757
713.738	0.0184268
713.817	0.0181906
713.895	0.0180629
713.973	0.0179729
714.051	0.0179852
714.129	0.0176781
714.207	0.0175153
714.285	0.0174209
714.363	0.0172073
714.442	0.0169204
714.520	0.0168996
714.598	0.0166006
714.676	0.0164291
714.754	0.0163017
714.832	0.0160715
714.910	0.0159023
714.988	0.0160230
715.067	0.0159034
715.145	0.0159010
715.223	0.0159801
715.301	0.0162434
715.379	0.0164047
715.457	0.0168571
715.535	0.0169747
715.613	0.0170856
715.692	0.0176469
715.770	0.0181454
715.848	0.0184257
715.926	0.0189178
716.004	0.0190089
716.082	0.0194176
716.160	0.0195141
716.238	0.0197981
716.317	0.0201242
716.395	0.0202570
716.473	0.0204742
716.551	0.0205460
716.629	0.0206689
716.707	0.0207832
716.785	0.0207725
716.863	0.0208950
716.942	0.0209337
717.020	0.0208761
717.098	0.0209512
717.176	0.0206726
717.254	0.0205421
717.332	0.0203425
717.410	0.0203003
717.488	0.0203036
717.567	0.0201459
717.645	0.0199023
717.723	0.0196462
717.801	0.0196407
717.879	0.0195752
717.957	0.0194572
718.035	0.0195618
718.113	0.0194490
718.192	0.0194219
718.270	0.0193258
718.348	0.0194002
718.426	0.0194151
718.504	0.0191528
718.582	0.0189162
718.660	0.0187873
718.738	0.0184817
718.817	0.0183306
718.895	0.0178929
718.973	0.0176733
719.051	0.0174815
719.129	0.0171767
719.207	0.0167851
719.285	0.0164376
719.363	0.0161707
719.442	0.0160281
719.520	0.0156265
719.598	0.0154744
719.676	0.0154120
719.754	0.0154070
719.832	0.0154592
719.910	0.0154671
719.988	0.0157749
720.067	0.0160220
720.145	0.0162739
720.223	0.0165646
720.301	0.0168036
720.379	0.0170126
720.457	0.0174274
720.535	0.0175706
720.613	0.0176563
720.692	0.0177161
720.770	0.0178951
720.848	0.0177946
720.926	0.0176340
721.004	0.0175615
721.082	0.0176087
721.160	0.0174903
721.238	0.0173090
721.317	0.0171745
721.395	0.0173200
721.473	0.0171488
721.551	0.0171362
721.629	0.0172589
721.707	0.0173843
721.785	0.0174860
721.863	0.0175857
721.942	0.0179102
722.020	0.0180962
722.098	0.0184491
722.176	0.0185293
722.254	0.0187161
722.332	0.0192252
722.410	0.0193409
722.488	0.0196478
722.567	0.0198931
722.645	0.0200410
722.723	0.0202357
722.801	0.0204989
722.879	0.0206845
722.957	0.0207663
723.035	0.0208149
723.113	0.0210618
723.192	0.0213468
723.270	0.0212412
723.348	0.0211907
723.426	0.0213828
723.504	0.0213334
723.582	0.0214484
723.660	0.0211652
723.738	0.0211650
723.817	0.0208765
723.895	0.0206638
723.973	0.0206046
724.051	0.0203184
724.129	0.0197823
724.207	0.0197159
724.285	0.0194136
724.363	0.0192391
724.442	0.0190379
724.520	0.0190248
724.598	0.0188860
724.676	0.0187676
724.754	0.0188262
724.832	0.0186277
724.910	0.0187460
724.988	0.0187322
725.067	0.0185908
725.145	0.0186933
725.223	0.0184182
725.301	0.0183315
725.379	0.0181564
725.457	0.0179927
725.535	0.0175896
725.613	0.0171245
725.692	0.0166451
725.770	0.0163087
725.848	0.0159371
725.926	0.0156151
726.004	0.0150719
726.082	0.0146964
726.160	0.0143623
726.238	0.0141911
726.317	0.0139572
726.395	0.0138504
726.473	0.0139661
726.551	0.0140211
726.629	0.0141422
726.707	0.0144665
726.785	0.0147488
726.863	0.0151373
726.942	0.0155343
727.020	0.0160461
727.098	0.0165796
727.176	0.0171278
727.254	0.0174796
727.332	0.0180279
727.410	0.0183421
727.488	0.0186494
727.567	0.0189631
727.645	0.0192280
727.723	0.0193218
727.801	0.0194486
727.879	0.0194703
727.957	0.0192785
728.035	0.0193414
728.113	0.0190135
728.192	0.0187435
728.270	0.0185128
728.348	0.0183353
728.426	0.0182950
728.504	0.0179247
728.582	0.0179076
728.660	0.0179238
728.738	0.0179701
728.817	0.0180470
728.895	0.0184200
728.973	0.0185986
729.051	0.0188231
729.129	0.0192416
729.207	0.0196533
729.285	0.0200039
729.363	0.0204659
729.442	0.0207772
729.520	0.0210363
729.598	0.0213491
729.676	0.0213938
729.754	0.0216296
729.832	0.0218569
729.910	0.0219086
729.988	0.0219423
730.067	0.0218443
730.145	0.0218278
730.223	0.0217169
730.301	0.0214694
730.379	0.0212836
730.457	0.0210777
730.535	0.0208547
730.613	0.0204664
730.692	0.0201385
730.770	0.0199820
730.848	0.0196951
730.926	0.0193152
731.004	0.0190513
731.082	0.0186612
731.160	0.0183807
731.238	0.0182269
731.317	0.0180177
731.395	0.0178372
731.473	0.0179043
731.551	0.0179780
731.629	0.0178183
731.707	0.0180477
731.785	0.0180182
731.863	0.0180724
731.942	0.0180504
732.020	0.0179452
732.098	0.0180365
732.176	0.0179171
732.254	0.0178085
732.332	0.0176007
732.410	0.0172202
732.488	0.0169228
732.567	0.0165046
732.645	0.0161052
732.723	0.0156814
732.801	0.0150789
732.879	0.0145848
732.957	0.0141448
733.035	0.0138461
733.113	0.0133649
733.192	0.0131587
733.270	0.0130951
733.348	0.0129726
733.426	0.0131025
733.504	0.0133543
733.582	0.0136298
733.660	0.0140507
733.738	0.0145974
733.817	0.0151335
733.895	0.0160258
733.973	0.0163914
734.051	0.0171363
734.129	0.0178849
734.207	0.0184143
734.285	0.0189050
734.363	0.0194380
734.442	0.0196983
734.520	0.0200673
734.598	0.0200923
734.676	0.0201831
734.754	0.0203458
734.832	0.0204421
734.910	0.0203365
734.988	0.0203455
735.067	0.0201121
735.145	0.0200015
735.223	0.0198288
735.301	0.0197269
735.379	0.0195543
735.457	0.0193900
735.535	0.0194118
735.613	0.0193968
735.692	0.0192377
735.770	0.0192245
735.848	0.0193163
735.926	0.0192119
736.004	0.0194900
736.082	0.0195966
736.160	0.0198980
736.238	0.0202222
736.317	0.0204217
736.395	0.0206885
736.473	0.0209896
736.551	0.0211657
736.629	0.0213537
736.707	0.0216680
736.785	0.0217907
736.863	0.0218472
736.942	0.0219186
737.020	0.0218189
737.098	0.0215319
737.176	0.0214844
737.254	0.0211395
737.332	0.0206646
737.410	0.0204160
737.488	0.0200588
737.567	0.0195496
737.645	0.0191747
737.723	0.0187057
737.801	0.0184719
737.879	0.0180030
737.957	0.0177550
738.035	0.0177329
738.113	0.0174352
738.192	0.0174151
738.270	0.0174112
738.348	0.0174665
738.426	0.0175896
738.504	0.0178136
738.582	0.0180271
738.660	0.0181433
738.738	0.0183012
738.817	0.0185445
738.895	0.0184350
738.973	0.0184473
739.051	0.0182880
739.129	0.0178580
739.207	0.0177518
739.285	0.0173296
739.363	0.0169756
739.442	0.0164507
739.520	0.0160529
739.598	0.0155701
739.676	0.0150820
739.754	0.0145428
739.832	0.0143483
739.910	0.0139070
739.988	0.0133602
740.067	0.0131932
740.145	0.0129460
740.223	0.0129874
740.301	0.0130330
740.379	0.0131930
740.457	0.0134976
740.535	0.0138748
740.613	0.0144439
740.692	0.0150574
740.770	0.0157165
740.848	0.0164947
740.926	0.0171515
741.004	0.0178508
741.082	0.0184412
741.160	0.0191316
741.238	0.0197120
741.317	0.0201309
741.395	0.0203358
741.473	0.0206605
741.551	0.0208393
741.629	0.0207668
741.707	0.0208858
741.785	0.0207312
741.863	0.0205738
741.942	0.0202943
742.020	0.0201836
742.098	0.0201715
742.176	0.0198131
742.254	0.0198185
742.332	0.0197832
742.410	0.0196370
742.488	0.0194960
742.567	0.0196106
742.645	0.0196377
742.723	0.0196978
742.801	0.0196112
742.879	0.0197931
742.957	0.0199246
743.035	0.0200591
743.113	0.0201626
743.192	0.0202355
743.270	0.0203693
743.348	0.0205909
743.426	0.0206254
743.504	0.0207669
743.582	0.0208183
743.660	0.0208546
743.738	0.0208887
743.817	0.0208961
743.895	0.0208727
743.973	0.0207836
744.051	0.0205207
744.129	0.0205187
744.207	0.0202957
744.285	0.0199633
744.363	0.0198679
744.442	0.0198173
744.520	0.0197560
744.598	0.0193397
744.676	0.0192898
744.754	0.0189553
744.832	0.0186000
744.910	0.0185300
744.988	0.0182896
745.067	0.0181715
745.145	0.0179723
745.223	0.0180460
745.301	0.0178579
745.379	0.0177191
745.457	0.0177663
745.535	0.0177895
745.613	0.0178419
745.692	0.0178380
745.770	0.0178250
745.848	0.0178151
745.926	0.0175678
746.004	0.0174473
746.082	0.0171794
746.160	0.0170295
746.238	0.0167114
746.317	0.0163015
746.395	0.0160587
746.473	0.0156784
746.551	0.0152465
746.629	0.0149792
746.707	0.0147294
746.785	0.0142483
746.863	0.0140464
746.942	0.0138152
747.020	0.0137063
747.098	0.0136990
747.176	0.0138271
747.254	0.0138514
747.332	0.0142027
747.410	0.0145451
747.488	0.0149802
747.567	0.0153091
747.645	0.0158864
747.723	0.0165192
747.801	0.0170917
747.879	0.0175617
747.957	0.0181515
748.035	0.0186195
748.113	0.0190788
748.192	0.0193869
748.270	0.0195779
748.348	0.0198769
748.426	0.0199542
748.504	0.0201040
748.582	0.0201817
748.660	0.0201968
748.738	0.0201073
748.817	0.0200300
748.895	0.0201653
748.973	0.0200841
749.051	0.0200400
749.129	0.0201575
749.207	0.0201183
749.285	0.0199612
749.363	0.0198816
749.442	0.0201366
749.520	0.0200029
749.598	0.0197907
749.676	0.0199506
749.754	0.0198232
749.832	0.0198940
749.910	0.0199728
749.988	0.0198752
750.067	0.0200779
750.145	0.0201302
750.223	0.0200674
750.301	0.0200821
750.379	0.0198842
750.457	0.0199475
750.535	0.0199808
750.613	0.0198260
750.692	0.0198376
750.770	0.0197481
750.848	0.0196341
750.926	0.0195741
751.004	0.0196204
751.082	0.0196770
751.160	0.0197025
751.238	0.0197514
751.317	0.0196510
751.395	0.0196301
751.473	0.0197355
751.551	0.0198766
751.629	0.0198489
751.707	0.0196705
751.785	0.0194626
751.863	0.0194570
751.942	0.0193285
752.020	0.0192451
752.098	0.0190932
752.176	0.0188590
752.254	0.0188033
752.332	0.0185520
752.410	0.0184516
752.488	0.0182449
752.567	0.0180231
752.645	0.0178568
752.723	0.0176882
752.801	0.0174026
752.879	0.0170373
752.957	0.0167845
753.035	0.0164066
753.113	0.0161264
753.192	0.0158482
753.270	0.0156938
753.348	0.0153873
753.426	0.0150754
753.504	0.0149151
753.582	0.0147498
753.660	0.0146871
753.738	0.0146291
753.817	0.0146441
753.895	0.0145745
753.973	0.0146279
754.051	0.0149030
754.129	0.0149829
754.207	0.0153271
754.285	0.0155979
754.363	0.0157471
754.442	0.0160577
754.520	0.0163527
754.598	0.0167294
754.676	0.0170282
754.754	0.0172050
754.832	0.0175509
754.910	0.0178885
754.988	0.0180510
755.067	0.0182835
755.145	0.0184031
755.223	0.0185292
755.301	0.0188023
755.379	0.0188750
755.457	0.0191190
755.535	0.0190883
755.613	0.0192850
755.692	0.0193489
755.770	0.0194300
755.848	0.0197095
755.926	0.0200299
756.004	0.0201280
756.082	0.0202347
756.160	0.0202386
756.238	0.0203596
756.317	0.0203451
756.395	0.0202625
756.473	0.0203194
756.551	0.0201433
756.629	0.0200345
756.707	0.0199462
756.785	0.0197797
756.863	0.0197894
756.942	0.0198332
757.020	0.0196387
757.098	0.0195022
757.176	0.0193365
757.254	0.0194533
757.332	0.0193925
757.410	0.0194315
757.488	0.0194632
757.567	0.0193587
757.645	0.0193743
757.723	0.0193803
757.801	0.0194193
757.879	0.0194535
757.957	0.0195673
758.035	0.0195821
758.113	0.0196130
758.192	0.0197340
758.270	0.0197490
758.348	0.0199313
758.426	0.0198096
758.504	0.0199052
758.582	0.0199119
758.660	0.0199802
758.738	0.0198127
758.817	0.0198191
758.895	0.0197116
758.973	0.0195596
759.051	0.0194781
759.129	0.0193549
759.207	0.0191503
759.285	0.0188647
759.363	0.0187679
759.442	0.0185574
759.520	0.0182716
759.598	0.0181067
759.676	0.0178597
759.754	0.0174904
759.832	0.0171964
759.910	0.0169098
759.988	0.0167351
760.067	0.0165722
760.145	0.0163121
760.223	0.0161790
760.301	0.0159747
760.379	0.0157634
760.457	0.0155504
760.535	0.0157460
760.613	0.0156698
760.692	0.0155708
760.770	0.0155392
760.848	0.0155334
760.926	0.0156182
761.004	0.0157446
761.082	0.0156625
761.160	0.0157412
761.238	0.0160011
761.317	0.0161625
761.395	0.0160748
761.473	0.0164147
761.551	0.0165758
761.629	0.0166959
761.707	0.0168616
761.785	0.0170196
761.863	0.0171556
761.942	0.0172260
762.020	0.0174448
762.098	0.0176579
762.176	0.0176886
762.254	0.0176882
762.332	0.0180550
762.410	0.0182111
762.488	0.0182809
762.567	0.0184933
762.645	0.0186411
762.723	0.0188324
762.801	0.0189939
762.879	0.0193745
762.957	0.0194262
763.035	0.0196155
763.113	0.0198751
763.192	0.0198759
763.270	0.0199306
763.348	0.0198449
763.426	0.0199556
763.504	0.0200788
763.582	0.0201465
763.660	0.0201035
763.738	0.0200820
763.817	0.0200375
763.895	0.0200029
763.973	0.0200797
764.051	0.0199976
764.129	0.0199245
764.207	0.0200157
764.285	0.0198708
764.363	0.0198875
764.442	0.0197792
764.520	0.0197254
764.598	0.0197388
764.676	0.0195377
764.754	0.0196125
764.832	0.0196760
764.910	0.0194590
764.988	0.0195407
765.067	0.0194734
765.145	0.0193118
765.223	0.0193067
765.301	0.0194225
765.379	0.0194270
765.457	0.0192429
765.535	0.0192906
765.613	0.0193139
765.692	0.0192966
765.770	0.0193122
765.848	0.0192960
765.926	0.0193436
766.004	0.0192958
766.082	0.0193098
766.160	0.0192307
766.238	0.0192180
766.317	0.0191836
766.395	0.0190388
766.473	0.0188383
766.551	0.0186926
766.629	0.0184592
766.707	0.0182262
766.785	0.0180851
766.863	0.0177936
766.942	0.0173923
767.020	0.0172048
767.098	0.0168591
767.176	0.0167528
767.254	0.0167223
767.332	0.0165802
767.410	0.0162245
767.488	0.0163054
767.567	0.0162985
767.645	0.0162057
767.723	0.0163397
767.801	0.0162703
767.879	0.0165163
767.957	0.0164534
768.035	0.0166077
768.113	0.0166717
768.192	0.0165781
768.270	0.0166534
768.348	0.0166823
768.426	0.0167195
768.504	0.0166717
768.582	0.0165067
768.660	0.0165912
768.738	0.0165400
768.817	0.0166381
768.895	0.0164488
768.973	0.0165067
769.051	0.0165929
769.129	0.0168407
769.207	0.0170042
769.285	0.0171613
769.363	0.0174791
769.442	0.0175152
769.520	0.0177374
769.598	0.0179888
769.676	0.0183679
769.754	0.0185280
769.832	0.0186469
769.910	0.0187531
769.988	0.0189042
770.067	0.0191578
770.145	0.0191518
770.223	0.0191446
770.301	0.0191760
770.379	0.0193030
770.457	0.0193571
770.535	0.0193980
770.613	0.0193812
770.692	0.0193838
770.770	0.0195790
770.848	0.0195799
770.926	0.0197295
771.004	0.0199184
771.082	0.0198350
771.160	0.0200195
771.238	0.0200601
771.317	0.0201346
771.395	0.0202145
771.473	0.0200909
771.551	0.0201576
771.629	0.0202776
771.707	0.0202036
771.785	0.0199887
771.863	0.0197073
771.942	0.0199448
772.020	0.0197877
772.098	0.0197192
772.176	0.0194839
772.254	0.0193643
772.332	0.0193434
772.410	0.0193330
772.488	0.0190933
772.567	0.0191019
772.645	0.0191082
772.723	0.0191219
772.801	0.0190530
772.879	0.0191579
772.957	0.0191518
773.035	0.0191396
773.113	0.0190791
773.192	0.0189758
773.270	0.0188667
773.348	0.0190885
773.426	0.0187749
773.504	0.0186633
773.582	0.0184978
773.660	0.0183601
773.738	0.0183060
773.817	0.0180755
773.895	0.0179260
773.973	0.0178030
774.051	0.0175143
774.129	0.0174143
774.207	0.0173856
774.285	0.0171516
774.363	0.0170530
774.442	0.0171650
774.520	0.0172403
774.598	0.0170446
774.676	0.0171336
774.754	0.0172301
774.832	0.0171558
774.910	0.0170734
774.988	0.0170660
775.067	0.0170365
775.145	0.0169371
775.223	0.0170168
775.301	0.0167912
775.379	0.0167269
775.457	0.0166081
775.535	0.0165780
775.613	0.0165271
775.692	0.0164790
775.770	0.0164091
775.848	0.0164885
775.926	0.0165771
776.004	0.0165398
776.082	0.0167841
776.160	0.0168997
776.238	0.0170802
776.317	0.0170039
776.395	0.0173322
776.473	0.0174501
776.551	0.0176786
776.629	0.0177815
776.707	0.0178821
776.785	0.0182272
776.863	0.0181891
776.942	0.0182231
777.020	0.0183365
777.098	0.0185668
777.176	0.0186545
777.254	0.0186953
777.332	0.0187325
777.410	0.0189282
777.488	0.0189082
777.567	0.0189587
777.645	0.0190871
777.723	0.0190711
777.801	0.0190659
777.879	0.0191158
777.957	0.0191480
778.035	0.0190930
778.113	0.0189394
778.192	0.0190060
778.270	0.0190522
778.348	0.0192000
778.426	0.0192249
778.504	0.0191903
778.582	0.0192649
778.660	0.0193247
778.738	0.0194398
778.817	0.0195667
778.895	0.0196819
778.973	0.0197455
779.051	0.0197536
779.129	0.0198798
779.207	0.0198856
779.285	0.0200332
779.363	0.0202612
779.442	0.0201931
779.520	0.0200837
779.598	0.0200764
779.676	0.0200264
779.754	0.0197823
779.832	0.0198340
779.910	0.0195856
779.988	0.0193126
780.067	0.0192458
780.145	0.0190959
780.223	0.0189719
780.301	0.0186756
780.379	0.0183553
780.457	0.0184163
780.535	0.0181886
780.613	0.0181599
780.692	0.0180743
780.770	0.0180236
780.848	0.0179819
780.926	0.0179410
781.004	0.0179884
781.082	0.0180481
781.160	0.0179090
781.238	0.0181361
781.317	0.0180363
781.395	0.0182634
781.473	0.0182943
781.551	0.0183197
781.629	0.0183376
781.707	0.0183704
781.785	0.0181816
781.863	0.0180376
781.942	0.0179979
782.020	0.0178161
782.098	0.0176556
782.176	0.0172844
782.254	0.0171574
782.332	0.0170991
782.410	0.0169193
782.488	0.0167954
782.567	0.0166728
782.645	0.0165716
782.723	0.0165132
782.801	0.0165003
782.879	0.0164630
782.957	0.0165162
783.035	0.0166027
783.113	0.0168299
783.192	0.0170746
783.270	0.0171284
783.348	0.0171709
783.426	0.0174358
783.504	0.0176920
783.582	0.0176669
783.660	0.0177245
783.738	0.0178351
783.817	0.0179646
783.895	0.0180360
783.973	0.0179706
784.051	0.0179736
784.129	0.0180660
784.207	0.0180717
784.285	0.0180746
784.363	0.0179379
784.442	0.0178808
784.520	0.0178104
784.598	0.0178513
784.676	0.0177557
784.754	0.0177529
784.832	0.0178743
784.910	0.0178470
784.988	0.0179771
785.067	0.0181680
785.145	0.0181798
785.223	0.0183779
785.301	0.0185535
785.379	0.0188013
785.457	0.0188952
785.535	0.0192344
785.613	0.0192789
785.692	0.0194885
785.770	0.0198250
785.848	0.0198962
785.926	0.0199362
786.004	0.0200723
786.082	0.0201238
786.160	0.0203101
786.238	0.0201734
786.317	0.0202966
786.395	0.0202090
786.473	0.0200282
786.551	0.0199239
786.629	0.0199184
786.707	0.0199312
786.785	0.0196598
786.863	0.0194156
786.942	0.0195247
787.020	0.0194805
787.098	0.0191973
787.176	0.0191064
787.254	0.0189768
787.332	0.0189534
787.410	0.0188039
787.488	0.0188551
787.567	0.0187003
787.645	0.0186739
787.723	0.0186958
787.801	0.0187942
787.879	0.0186198
787.957	0.0186705
788.035	0.0186901
788.113	0.0186367
788.192	0.0186975
788.270	0.0185810
788.348	0.0184895
788.426	0.0184898
788.504	0.0182980
788.582	0.0184255
788.660	0.0182910
788.738	0.0179053
788.817	0.0177003
788.895	0.0176328
788.973	0.0174532
789.051	0.0174532
789.129	0.0170850
789.207	0.0170860
789.285	0.0169713
789.363	0.0168257
789.442	0.0167953
789.520	0.0167905
789.598	0.0168172
789.676	0.0168534
789.754	0.0169390
789.832	0.0171634
789.910	0.0170603
789.988	0.0174595
790.067	0.0175949
790.145	0.0177657
790.223	0.0178419
790.301	0.0180387
790.379	0.0181654
790.457	0.0183012
790.535	0.0183582
790.613	0.0183968
790.692	0.0184319
790.770	0.0183511
790.848	0.0182655
790.926	0.0183120
791.004	0.0182379
791.082	0.0180306
791.160	0.0177354
791.238	0.0177602
791.317	0.0175701
791.395	0.0173349
791.473	0.0173772
791.551	0.0173232
791.629	0.0171629
791.707	0.0172512
791.785	0.0173239
791.863	0.0174143
791.942	0.0173323
792.020	0.0174684
792.098	0.0175470
792.176	0.0177159
792.254	0.0178121
792.332	0.0180619
792.410	0.0182133
792.488	0.0183817
792.567	0.0185430
792.645	0.0186208
792.723	0.0186169
792.801	0.0188610
792.879	0.0189292
792.957	0.0189955
793.035	0.0190444
793.113	0.0191898
793.192	0.0193254
793.270	0.0192997
793.348	0.0192023
793.426	0.0192619
793.504	0.0192923
793.582	0.0192596
793.660	0.0191589
793.738	0.0192059
793.817	0.0192597
793.895	0.0192564
793.973	0.0193377
794.051	0.0192374
794.129	0.0192252
794.207	0.0193629
794.285	0.0194360
794.363	0.0194740
794.442	0.0194176
794.520	0.0195377
794.598	0.0195898
794.676	0.0197298
794.754	0.0195913
794.832	0.0196838
794.910	0.0197079
794.988	0.0196909
795.067	0.0197292
795.145	0.0195731
795.223	0.0196220
795.301	0.0193204
795.379	0.0192622
795.457	0.0191196
795.535	0.0190480
795.613	0.0188261
795.692	0.0185114
795.770	0.0183340
795.848	0.0181337
795.926	0.0179610
796.004	0.0178674
796.082	0.0177486
796.160	0.0175397
796.238	0.0174621
796.317	0.0172969
796.395	0.0172256
796.473	0.0172919
796.551	0.0172423
796.629	0.0171786
796.707	0.0172665
796.785	0.0173031
796.863	0.0173119
796.942	0.0173737
797.020	0.0176492
797.098	0.0175497
797.176	0.0176962
797.254	0.0177628
797.332	0.0177048
797.410	0.0179147
797.488	0.0178127
797.567	0.0178265
797.645	0.0178160
797.723	0.0178429
797.801	0.0177880
797.879	0.0177087
797.957	0.0177508
798.035	0.0176479
798.113	0.0176106
798.192	0.0175454
798.270	0.0174323
798.348	0.0174832
798.426	0.0176036
798.504	0.0175595
798.582	0.0174363
798.660	0.0176499
798.738	0.0178223
798.817	0.0177567
798.895	0.0178317
798.973	0.0179002
799.051	0.0179823
799.129	0.0180965
799.207	0.0182052
799.285	0.0181909
799.363	0.0183102
799.442	0.0182759
799.520	0.0183120
799.598	0.0185116
799.676	0.0183717
799.754	0.0184074
799.832	0.0183434
799.910	0.0184642
799.988	0.0183341
800.067	0.0182702
800.145	0.0183065
800.223	0.0184313
800.301	0.0184627
800.379	0.0185035
800.457	0.0185058
800.535	0.0184991
800.613	0.0186351
800.692	0.0187267
800.770	0.0186658
800.848	0.0187112
800.926	0.0188638
801.004	0.0190659
801.082	0.0190299
801.160	0.0191472
801.238	0.0192113
801.317	0.0192800
801.395	0.0192813
801.473	0.0192518
801.551	0.0193822
801.629	0.0194831
801.707	0.0193676
801.785	0.0193024
801.863	0.0194115
801.942	0.0193977
802.020	0.0193614
802.098	0.0190678
802.176	0.0192006
802.254	0.0191565
802.332	0.0190285
802.410	0.0190830
802.488	0.0189097
802.567	0.0188535
802.645	0.0188687
802.723	0.0187711
802.801	0.0188328
802.879	0.0187487
802.957	0.0186706
803.035	0.0187408
803.113	0.0187658
803.192	0.0184552
803.270	0.0185427
803.348	0.0184673
803.426	0.0185294
803.504	0.0185355
803.582	0.0185122
803.660	0.0182829
803.738	0.0182732
803.817	0.0180879
803.895	0.0180537
803.973	0.0180138
804.051	0.0179267
804.129	0.0178120
804.207	0.0178143
804.285	0.0177675
804.363	0.0176440
804.442	0.0176163
804.520	0.0176936
804.598	0.0175863
804.676	0.0175057
804.754	0.0175187
804.832	0.0176239
804.910	0.0174920
804.988	0.0175141
805.067	0.0174802
805.145	0.0173839
805.223	0.0175321
805.301	0.0176053
805.379	0.0175988
805.457	0.0177505
805.535	0.0177174
805.613	0.0177644
805.692	0.0176874
805.770	0.0177532
805.848	0.0178265
805.926	0.0179517
806.004	0.0178175
806.082	0.0178722
806.160	0.0179132
806.238	0.0179880
806.317	0.0179700
806.395	0.0178338
806.473	0.0179073
806.551	0.0178571
806.629	0.0178513
806.707	0.0180392
806.785	0.0179481
806.863	0.0177700
806.942	0.0178391
807.020	0.0180347
807.098	0.0179784
807.176	0.0180966
807.254	0.0182281
807.332	0.0182940
807.410	0.0184444
807.488	0.0185230
807.567	0.0186990
807.645	0.0187224
807.723	0.0188834
807.801	0.0190196
807.879	0.0190217
807.957	0.0189983
808.035	0.0190655
808.113	0.0191212
808.192	0.0191273
808.270	0.0190753
808.348	0.0191507
808.426	0.0190997
808.504	0.0190965
808.582	0.0190348
808.660	0.0189655
808.738	0.0189997
808.817	0.0188944
808.895	0.0189106
808.973	0.0188741
809.051	0.0189307
809.129	0.0187461
809.207	0.0187643
809.285	0.0188202
809.363	0.0188148
809.442	0.0186458
809.520	0.0186283
809.598	0.0186314
809.676	0.0187714
809.754	0.0186837
809.832	0.0186862
809.910	0.0186335
809.988	0.0186587
810.067	0.0185316
810.145	0.0185822
810.223	0.0185234
810.301	0.0182986
810.379	0.0185013
810.457	0.0183393
810.535	0.0184648
810.613	0.0183454
810.692	0.0183752
810.770	0.0182747
810.848	0.0183311
810.926	0.0182658
811.004	0.0183523
811.082	0.0182477
811.160	0.0181158
811.238	0.0181670
811.317	0.0181127
811.395	0.0181501
811.473	0.0183120
811.551	0.0180836
811.629	0.0180212
811.707	0.0181179
811.785	0.0179984
811.863	0.0179305
811.942	0.0179671
812.020	0.0179748
812.098	0.0179778
812.176	0.0179157
812.254	0.0177005
812.332	0.0179119
812.410	0.0178815
812.488	0.0178615
812.567	0.0179567
812.645	0.0179475
812.723	0.0180255
812.801	0.0180223
812.879	0.0180172
812.957	0.0181544
813.035	0.0182360
813.113	0.0183148
813.192	0.0183157
813.270	0.0182468
813.348	0.0184015
813.426	0.0183894
813.504	0.0183715
813.582	0.0184620
813.660	0.0184605
813.738	0.0183656
813.817	0.0182323
813.895	0.0183476
813.973	0.0184006
814.051	0.0183935
814.129	0.0181028
814.207	0.0182694
814.285	0.0181638
814.363	0.0183753
814.442	0.0180882
814.520	0.0180753
814.598	0.0181550
814.676	0.0180684
814.754	0.0180824
814.832	0.0180956
814.910	0.0180827
814.988	0.0180675
815.067	0.0180682
815.145	0.0181863
815.223	0.0181737
815.301	0.0181478
815.379	0.0180941
815.457	0.0180309
815.535	0.0178812
815.613	0.0180589
815.692	0.0181169
815.770	0.0180582
815.848	0.0181231
815.926	0.0182053
816.004	0.0183154
816.082	0.0182939
816.160	0.0182784
816.238	0.0183343
816.317	0.0184702
816.395	0.0185329
816.473	0.0184936
816.551	0.0186045
816.629	0.0186981
816.707	0.0187579
816.785	0.0188322
816.863	0.0188261
816.942	0.0188095
817.020	0.0188380
817.098	0.0189235
817.176	0.0187742
817.254	0.0187371
817.332	0.0186237
817.410	0.0185618
817.488	0.0185645
817.567	0.0185243
817.645	0.0185313
817.723	0.0184346
817.801	0.0184058
817.879	0.0183363
817.957	0.0182658
818.035	0.0183044
818.113	0.0184212
818.192	0.0182559
818.270	0.0184904
818.348	0.0185100
818.426	0.0186670
818.504	0.0188132
818.582	0.0188484
818.660	0.0187451
818.738	0.0188723
818.817	0.0191132
818.895	0.0189603
818.973	0.0192133
819.051	0.0190617
819.129	0.0189609
819.207	0.0191441
819.285	0.0189491
819.363	0.0189335
819.442	0.0188935
819.520	0.0186970
819.598	0.0185252
819.676	0.0186602
819.754	0.0184533
819.832	0.0183498
819.910	0.0182585
819.988	0.0182545
820.067	0.0181186
820.145	0.0181702
820.223	0.0181232
820.301	0.0181733
820.379	0.0181718
820.457	0.0180155
820.535	0.0181631
820.613	0.0180756
820.692	0.0181801
820.770	0.0183133
820.848	0.0183482
820.926	0.0181680
821.004	0.0181826
821.082	0.0181789
821.160	0.0181943
821.238	0.0181243
821.317	0.0182397
821.395	0.0181024
821.473	0.0180963
821.551	0.0181256
821.629	0.0179388
821.707	0.0179865
821.785	0.0177622
821.863	0.0177110
821.942	0.0176379
822.020	0.0176055
822.098	0.0174870
822.176	0.0173361
822.254	0.0174433
822.332	0.0173115
822.410	0.0172983
822.488	0.0172253
822.567	0.0174825
822.645	0.0174754
822.723	0.0175612
822.801	0.0176077
822.879	0.0177283
822.957	0.0175843
823.035	0.0178841
823.113	0.0179211
823.192	0.0179955
823.270	0.0181478
823.348	0.0183184
823.426	0.0182744
823.504	0.0183363
823.582	0.0184756
823.660	0.0185934
823.738	0.0186835
823.817	0.0187831
823.895	0.0188640
823.973	0.0188625
824.051	0.0187991
824.129	0.0189696
824.207	0.0187540
824.285	0.0188118
824.363	0.0188531
824.442	0.0188704
824.520	0.0187894
824.598	0.0187423
824.676	0.0188379
824.754	0.0189233
824.832	0.0188023
824.910	0.0188546
824.988	0.0187697
825.067	0.0188098
825.145	0.0187955
825.223	0.0188997
825.301	0.0189565
825.379	0.0188776
825.457	0.0189149
825.535	0.0188716
825.613	0.0190209
825.692	0.0189854
825.770	0.0189843
825.848	0.0189672
825.926	0.0189533
826.004	0.0189805
826.082	0.0188409
826.160	0.0188496
826.238	0.0188294
826.317	0.0188722
826.395	0.0188171
826.473	0.0188620
826.551	0.0188379
826.629	0.0188231
826.707	0.0188393
826.785	0.0187965
826.863	0.0186230
826.942	0.0186710
827.020	0.0186329
827.098	0.0186691
827.176	0.0186058
827.254	0.0185689
827.332	0.0186894
827.410	0.0184914
827.488	0.0184869
827.567	0.0183817
827.645	0.0181999
827.723	0.0183600
827.801	0.0183530
827.879	0.0181784
827.957	0.0179608
828.035	0.0180057
828.113	0.0179991
828.192	0.0180399
828.270	0.0178081
828.348	0.0178458
828.426	0.0177901
828.504	0.0178445
828.582	0.0175735
828.660	0.0176326
828.738	0.0177562
828.817	0.0175858
828.895	0.0174786
828.973	0.0175048
829.051	0.0174333
829.129	0.0175064
829.207	0.0174826
829.285	0.0174866
829.363	0.0174900
829.442	0.0174438
829.520	0.0175297
829.598	0.0176698
829.676	0.0176579
829.754	0.0178765
829.832	0.0178313
829.910	0.0178922
829.988	0.0179881
830.067	0.0180187
830.145	0.0181383
830.223	0.0182597
830.301	0.0182381
830.379	0.0182555
830.457	0.0183183
830.535	0.0184756
830.613	0.0184322
830.692	0.0184234
830.770	0.0184348
830.848	0.0185528
830.926	0.0185172
831.004	0.0184181
831.082	0.0183662
831.160	0.0183949
831.238	0.0184805
831.317	0.0185758
831.395	0.0184826
831.473	0.0184705
831.551	0.0183528
831.629	0.0184427
831.707	0.0184398
831.785	0.0186768
831.863	0.0185161
831.942	0.0185643
832.020	0.0187402
832.098	0.0188444
832.176	0.0188912
832.254	0.0188902
832.332	0.0189374
832.410	0.0190929
832.488	0.0189339
832.567	0.0190372
832.645	0.0191172
832.723	0.0190149
832.801	0.0191049
832.879	0.0188801
832.957	0.0189014
833.035	0.0188191
833.113	0.0188586
833.192	0.0187281
833.270	0.0186816
833.348	0.0187767
833.426	0.0186954
833.504	0.0185257
833.582	0.0186801
833.660	0.0186237
833.738	0.0186266
833.817	0.0185124
833.895	0.0187431
833.973	0.0186121
834.051	0.0184951
834.129	0.0187209
834.207	0.0186700
834.285	0.0186963
834.363	0.0187177
834.442	0.0186951
834.520	0.0188806
834.598	0.0187950
834.676	0.0186845
834.754	0.0187857
834.832	0.0186361
834.910	0.0186727
834.988	0.0184348
835.067	0.0182801
835.145	0.0183112
835.223	0.0183060
835.301	0.0181927
835.379	0.0179674
835.457	0.0180202
835.535	0.0180128
835.613	0.0176701
835.692	0.0177483
835.770	0.0175961
835.848	0.0174878
835.926	0.0174897
836.004	0.0173805
836.082	0.0175307
836.160	0.0173840
836.238	0.0173743
836.317	0.0175381
836.395	0.0175060
836.473	0.0176188
836.551	0.0176912
836.629	0.0175986
836.707	0.0176268
836.785	0.0178336
836.863	0.0178536
836.942	0.0178688
837.020	0.0180416
837.098	0.0181125
837.176	0.0181398
837.254	0.0182576
837.332	0.0183087
837.410	0.0184218
837.488	0.0184570
837.567	0.0183411
837.645	0.0183720
837.723	0.0184391
837.801	0.0184532
837.879	0.0183690
837.957	0.0182262
838.035	0.0181132
838.113	0.0183439
838.192	0.0183239
838.270	0.0182018
838.348	0.0182023
838.426	0.0181586
838.504	0.0181330
838.582	0.0180436
838.660	0.0181882
838.738	0.0182873
838.817	0.0181704
838.895	0.0183511
838.973	0.0184193
839.051	0.0182786
839.129	0.0184021
839.207	0.0187205
839.285	0.0187006
839.363	0.0187762
839.442	0.0189009
839.520	0.0189354
839.598	0.0190007
839.676	0.0189317
839.754	0.0190134
839.832	0.0190415
839.910	0.0191114
839.988	0.0191676
840.067	0.0190603
840.145	0.0189690
840.223	0.0191975
840.301	0.0190137
840.379	0.0188492
840.457	0.0187769
840.535	0.0188632
840.613	0.0188587
840.692	0.0188300
840.770	0.0187913
840.848	0.0187984
840.926	0.0188276
841.004	0.0187190
841.082	0.0186412
841.160	0.0186197
841.238	0.0185941
841.317	0.0185828
841.395	0.0186389
841.473	0.0184474
841.551	0.0186271
841.629	0.0184828
841.707	0.0183889
841.785	0.0183181
841.863	0.0183154
841.942	0.0182816
842.020	0.0182144
842.098	0.0182734
842.176	0.0182043
842.254	0.0182462
842.332	0.0182432
842.410	0.0181084
842.488	0.0179960
842.567	0.0180113
842.645	0.0180543
842.723	0.0180060
842.801	0.0179587
842.879	0.0178816
842.957	0.0178803
843.035	0.0178563
843.113	0.0178743
843.192	0.0178647
843.270	0.0179268
843.348	0.0177597
843.426	0.0176753
843.504	0.0178909
843.582	0.0178975
843.660	0.0179826
843.738	0.0180030
843.817	0.0179635
843.895	0.0180000
843.973	0.0182394
844.051	0.0180665
844.129	0.0180830
844.207	0.0179375
844.285	0.0181527
844.363	0.0181920
844.442	0.0182693
844.520	0.0182809
844.598	0.0184333
844.676	0.0181733
844.754	0.0182840
844.832	0.0182420
844.910	0.0182735
844.988	0.0184054
845.067	0.0183062
845.145	0.0184328
845.223	0.0182500
845.301	0.0183440
845.379	0.0183945
845.457	0.0184488
845.535	0.0183178
845.613	0.0185172
845.692	0.0183878
845.770	0.0185001
845.848	0.0184574
845.926	0.0184247
846.004	0.0184440
846.082	0.0184728
846.160	0.0185742
846.238	0.0185844
846.317	0.0185843
846.395	0.0184252
846.473	0.0185819
846.551	0.0186092
846.629	0.0184935
846.707	0.0185712
846.785	0.0184052
846.863	0.0183951
846.942	0.0185500
847.020	0.0184019
847.098	0.0184533
847.176	0.0184859
847.254	0.0184281
847.332	0.0183738
847.410	0.0183067
847.488	0.0184779
847.567	0.0185532
847.645	0.0184612
847.723	0.0186501
847.801	0.0185597
847.879	0.0185368
847.957	0.0186582
848.035	0.0186641
848.113	0.0186068
848.192	0.0187528
848.270	0.0187803
848.348	0.0186909
848.426	0.0187481
848.504	0.0187039
848.582	0.0186366
848.660	0.0188168
848.738	0.0187618
848.817	0.0186131
848.895	0.0185837
848.973	0.0183736
849.051	0.0184226
849.129	0.0184058
849.207	0.0182709
849.285	0.0181822
849.363	0.0181389
849.442	0.0180758
849.520	0.0180625
849.598	0.0180509
849.676	0.0180378
849.754	0.0179377
849.832	0.0180424
849.910	0.0180900
849.988	0.0180621
850.067	0.0180919
850.145	0.0178458
850.223	0.0181116
850.301	0.0179764
850.379	0.0181190
850.457	0.0182606
850.535	0.0181577
850.613	0.0182027
850.692	0.0182094
850.770	0.0184457
850.848	0.0183517
850.926	0.0182815
851.004	0.0182460
851.082	0.0183720
851.160	0.0184432
851.238	0.0183333
851.317	0.0182423
851.395	0.0182652
851.473	0.0183609
851.551	0.0182716
851.629	0.0182482
851.707	0.0183110
851.785	0.0183209
851.863	0.0181621
851.942	0.0181659
852.020	0.0181943
852.098	0.0181091
852.176	0.0183338
852.254	0.0181630
852.332	0.0182123
852.410	0.0182450
852.488	0.0184208
852.567	0.0183575
852.645	0.0182915
852.723	0.0185716
852.801	0.0184537
852.879	0.0183909
852.957	0.0186005
853.035	0.0184602
853.113	0.0184601
853.192	0.0185560
853.270	0.0184737
853.348	0.0184379
853.426	0.0184815
853.504	0.0183920
853.582	0.0182483
853.660	0.0183595
853.738	0.0184026
853.817	0.0184430
853.895	0.0183114
853.973	0.0183130
854.051	0.0182835
854.129	0.0183301
854.207	0.0182076
854.285	0.0183609
854.363	0.0183255
854.442	0.0183407
854.520	0.0183015
854.598	0.0183702
854.676	0.0183157
854.754	0.0182848
854.832	0.0182891
854.910	0.0183857
854.988	0.0184573
855.067	0.0184431
855.145	0.0183690
855.223	0.0184953
855.301	0.0185027
855.379	0.0185651
855.457	0.0184698
855.535	0.0185504
855.613	0.0185629
855.692	0.0184740
855.770	0.0186044
855.848	0.0185217
855.926	0.0185658
856.004	0.0185257
856.082	0.0185490
856.160	0.0184770
856.238	0.0183904
856.317	0.0184277
856.395	0.0184226
856.473	0.0183373
856.551	0.0183944
856.629	0.0184718
856.707	0.0181906
856.785	0.0183358
856.863	0.0184656
856.942	0.0184637
857.020	0.0184808
857.098	0.0182761
857.176	0.0183557
857.254	0.0183208
857.332	0.0184052
857.410	0.0182578
857.488	0.0183734
857.567	0.0183816
857.645	0.0182858
857.723	0.0183791
857.801	0.0181868
857.879	0.0181584
857.957	0.0184227
858.035	0.0183080
858.113	0.0183702
858.192	0.0181222
858.270	0.0184083
858.348	0.0182137
858.426	0.0182463
858.504	0.0183868
858.582	0.0183253
858.660	0.0181640
858.738	0.0182724
858.817	0.0182957
858.895	0.0182874
858.973	0.0182941
859.051	0.0184085
859.129	0.0182793
859.207	0.0183532
859.285	0.0183157
859.363	0.0182783
859.442	0.0185383
859.520	0.0183676
859.598	0.0183872
859.676	0.0185332
859.754	0.0184906
859.832	0.0186396
859.910	0.0185452
859.988	0.0186223
860.067	0.0186049
860.145	0.0186054
860.223	0.0186053
860.301	0.0187234
860.379	0.0186308
860.457	0.0186234
860.535	0.0184483
860.613	0.0185452
860.692	0.0185748
860.770	0.0184811
860.848	0.0185854
860.926	0.0186160
861.004	0.0184919
861.082	0.0184179
861.160	0.0183809
861.238	0.0184292
861.317	0.0182712
861.395	0.0184738
861.473	0.0183296
861.551	0.0183731
861.629	0.0182128
861.707	0.0182253
861.785	0.0182875
861.863	0.0181861
861.942	0.0181956
862.020	0.0183318
862.098	0.0182097
862.176	0.0181534
862.254	0.0182195
862.332	0.0181187
862.410	0.0183014
862.488	0.0183215
862.567	0.0181696
862.645	0.0182402
862.723	0.0182931
862.801	0.0182167
862.879	0.0182567
862.957	0.0183976
863.035	0.0184864
863.113	0.0183630
863.192	0.0184719
863.270	0.0183868
863.348	0.0184281
863.426	0.0184408
863.504	0.0184522
863.582	0.0184320
863.660	0.0184196
863.738	0.0184090
863.817	0.0184097
863.895	0.0184586
863.973	0.0184563
864.051	0.0184023
864.129	0.0183671
864.207	0.0184093
864.285	0.0184309
864.363	0.0186371
864.442	0.0183600
864.520	0.0182662
864.598	0.0183401
864.676	0.0183633
864.754	0.0185198
864.832	0.0184818
864.910	0.0184314
864.988	0.0184232
865.067	0.0184120
865.145	0.0183767
865.223	0.0183987
865.301	0.0182584
865.379	0.0182439
865.457	0.0182323
865.535	0.0183515
865.613	0.0183393
865.692	0.0182358
865.770	0.0182487
865.848	0.0183436
865.926	0.0182859
866.004	0.0184346
866.082	0.0184193
866.160	0.0182784
866.238	0.0184928
866.317	0.0186045
866.395	0.0185445
866.473	0.0184345
866.551	0.0185123
866.629	0.0187170
866.707	0.0186502
866.785	0.0184854
866.863	0.0186152
866.942	0.0186173
867.020	0.0185426
867.098	0.0186441
867.176	0.0186444
867.254	0.0186331
867.332	0.0185571
867.410	0.0186089
867.488	0.0186040
867.567	0.0184541
867.645	0.0185352
867.723	0.0183010
867.801	0.0184200
867.879	0.0184074
867.957	0.0183018
868.035	0.0182596
868.113	0.0181985
868.192	0.0181784
868.270	0.0182916
868.348	0.0182490
868.426	0.0181456
868.504	0.0180556
868.582	0.0181303
868.660	0.0181515
868.738	0.0181355
868.817	0.0179384
868.895	0.0180544
868.973	0.0182192
869.051	0.0180747
869.129	0.0182312
869.207	0.0182044
869.285	0.0181582
869.363	0.0182715
869.442	0.0181982
869.520	0.0181651
869.598	0.0182130
869.676	0.0182766
869.754	0.0181961
869.832	0.0182098
869.910	0.0182346
869.988	0.0182943
870.067	0.0181339
870.145	0.0181376
870.223	0.0183017
870.301	0.0181699
870.379	0.0182190
870.457	0.0181473
870.535	0.0180428
870.613	0.0183002
870.692	0.0181337
870.770	0.0182339
870.848	0.0183714
870.926	0.0181808
871.004	0.0182877
871.082	0.0183299
871.160	0.0184876
871.238	0.0184166
871.317	0.0183562
871.395	0.0185043
871.473	0.0185741
871.551	0.0184274
871.629	0.0186705
871.707	0.0185564
871.785	0.0186671
871.863	0.0185883
871.942	0.0186122
872.020	0.0186521
872.098	0.0186343
872.176	0.0185542
872.254	0.0184966
872.332	0.0186015
872.410	0.0184370
872.488	0.0184443
872.567	0.0182202
872.645	0.0182525
872.723	0.0182401
872.801	0.0181625
872.879	0.0180867
872.957	0.0182747
873.035	0.0182165
873.113	0.0182671
873.192	0.0181444
873.270	0.0183028
873.348	0.0180968
873.426	0.0182700
873.504	0.0183302
873.582	0.0184260
873.660	0.0184839
873.738	0.0185022
873.817	0.0185976
873.895	0.0184563
873.973	0.0186834
874.051	0.0186321
874.129	0.0186706
874.207	0.0186613
874.285	0.0187490
874.363	0.0187528
874.442	0.0188101
874.520	0.0187720
874.598	0.0185354
874.676	0.0185437
874.754	0.0185502
874.832	0.0184160
874.910	0.0183752
874.988	0.0183740
875.067	0.0182968
875.145	0.0181870
875.223	0.0181719
875.301	0.0181284
875.379	0.0180834
875.457	0.0179564
875.535	0.0179341
875.613	0.0179581
875.692	0.0178284
875.770	0.0177895
875.848	0.0178822
875.926	0.0178387
876.004	0.0179032
876.082	0.0178761
876.160	0.0180716
876.238	0.0180803
876.317	0.0181880
876.395	0.0182332
876.473	0.0182776
876.551	0.0182437
876.629	0.0182382
876.707	0.0182545
876.785	0.0183236
876.863	0.0181928
876.942	0.0183538
877.020	0.0184180
877.098	0.0183621
877.176	0.0182578
877.254	0.0182563
877.332	0.0184503
877.410	0.0183655
877.488	0.0183342
877.567	0.0183183
877.645	0.0183217
877.723	0.0185333
877.801	0.0185274
877.879	0.0184927
877.957	0.0183999
878.035	0.0184125
878.113	0.0184771
878.192	0.0185279
878.270	0.0184113
878.348	0.0183488
878.426	0.0184983
878.504	0.0184826
878.582	0.0183963
878.660	0.0183784
878.738	0.0185365
878.817	0.0184229
878.895	0.0184143
878.973	0.0182715
879.051	0.0183520
879.129	0.0184482
879.207	0.0185066
879.285	0.0184739
879.363	0.0184140
879.442	0.0182574
879.520	0.0182652
879.598	0.0183291
879.676	0.0183367
879.754	0.0183365
879.832	0.0183886
879.910	0.0182771
879.988	0.0182290
880.067	0.0182948
880.145	0.0184171
880.223	0.0183469
880.301	0.0183524
880.379	0.0183449
880.457	0.0184545
880.535	0.0183378
880.613	0.0184709
880.692	0.0183345
880.770	0.0185265
880.848	0.0184513
880.926	0.0185271
881.004	0.0186338
881.082	0.0184914
881.160	0.0187141
881.238	0.0186324
881.317	0.0185888
881.395	0.0186111
881.473	0.0183974
881.551	0.0184893
881.629	0.0186425
881.707	0.0184969
881.785	0.0184746
881.863	0.0184721
881.942	0.0184240
882.020	0.0183740
882.098	0.0184057
882.176	0.0185053
882.254	0.0184275
882.332	0.0182726
882.410	0.0181591
882.488	0.0183321
882.567	0.0181015
882.645	0.0182587
882.723	0.0182507
882.801	0.0181875
882.879	0.0180774
882.957	0.0182410
883.035	0.0181414
883.113	0.0181316
883.192	0.0181067
883.270	0.0181258
883.348	0.0181455
883.426	0.0182275
883.504	0.0182990
883.582	0.0182910
883.660	0.0183606
883.738	0.0181142
883.817	0.0181403
883.895	0.0183205
883.973	0.0182568
884.051	0.0182598
884.129	0.0183041
884.207	0.0183324
884.285	0.0183244
884.363	0.0184409
884.442	0.0184150
884.520	0.0184721
884.598	0.0184670
884.676	0.0185165
884.754	0.0186139
884.832	0.0186230
884.910	0.0185038
884.988	0.0184549
885.067	0.0185697
885.145	0.0186665
885.223	0.0187627
885.301	0.0188246
885.379	0.0187543
885.457	0.0186341
885.535	0.0187312
885.613	0.0187612
885.692	0.0187479
885.770	0.0184276
885.848	0.0184863
885.926	0.0183459
886.004	0.0183953
886.082	0.0184355
886.160	0.0182927
886.238	0.0182339
886.317	0.0181371
886.395	0.0181392
886.473	0.0179856
886.551	0.0180605
886.629	0.0180426
886.707	0.0179663
886.785	0.0180162
886.863	0.0180666
886.942	0.0181333
887.020	0.0181105
887.098	0.0181496
887.176	0.0182680
887.254	0.0182226
887.332	0.0182232
887.410	0.0182444
887.488	0.0183723
887.567	0.0182472
887.645	0.0183408
887.723	0.0183781
887.801	0.0184061
887.879	0.0184449
887.957	0.0184558
888.035	0.0184954
888.113	0.0184620
888.192	0.0185088
888.270	0.0186405
888.348	0.0185474
888.426	0.0182975
888.504	0.0184718
888.582	0.0186427
888.660	0.0184031
888.738	0.0184863
888.817	0.0183339
888.895	0.0184753
888.973	0.0183916
889.051	0.0182681
889.129	0.0183486
889.207	0.0183376
889.285	0.0183466
889.363	0.0184485
889.442	0.0183168
889.520	0.0182623
889.598	0.0182732
889.676	0.0185162
889.754	0.0182533
889.832	0.0184675
889.910	0.0184033
889.988	0.0184866
890.067	0.0185668
890.145	0.0184383
890.223	0.0184081
890.301	0.0183173
890.379	0.0183634
890.457	0.0184899
890.535	0.0183263
890.613	0.0183685
890.692	0.0183284
890.770	0.0183034
890.848	0.0183308
890.926	0.0183147
891.004	0.0182867
891.082	0.0183107
891.160	0.0183279
891.238	0.0182571
891.317	0.0182918
891.395	0.0182932
891.473	0.0183952
891.551	0.0183868
891.629	0.0182359
891.707	0.0182148
891.785	0.0183482
891.863	0.0183254
891.942	0.0184886
892.020	0.0184908
892.098	0.0183672
892.176	0.0183765
892.254	0.0183623
892.332	0.0184986
892.410	0.0184192
892.488	0.0183698
892.567	0.0185636
892.645	0.0185566
892.723	0.0183834
892.801	0.0183324
892.879	0.0184518
892.957	0.0184093
893.035	0.0182894
893.113	0.0181821
893.192	0.0183142
893.270	0.0182732
893.348	0.0182529
893.426	0.0181054
893.504	0.0181626
893.582	0.0180944
893.660	0.0181509
893.738	0.0183250
893.817	0.0182496
893.895	0.0181624
893.973	0.0181347
894.051	0.0182333
894.129	0.0182879
894.207	0.0183319
894.285	0.0183571
894.363	0.0184583
894.442	0.0185584
894.520	0.0183820
894.598	0.0184242
894.676	0.0184466
894.754	0.0182505
894.832	0.0183664
894.910	0.0184130
894.988	0.0183266
895.067	0.0182890
895.145	0.0182790
895.223	0.0182913
895.301	0.0182711
895.379	0.0183568
895.457	0.0183038
895.535	0.0181764
895.613	0.0181768
895.692	0.0183205
895.770	0.0183051
895.848	0.0181412
895.926	0.0181532
896.004	0.0182229
896.082	0.0181374
896.160	0.0181379
896.238	0.0181298
896.317	0.0181742
896.395	0.0179974
896.473	0.0180656
896.551	0.0181354
896.629	0.0180344
896.707	0.0180892
896.785	0.0180508
896.863	0.0180432
896.942	0.0180836
897.020	0.0181065
897.098	0.0181759
897.176	0.0182642
897.254	0.0183649
897.332	0.0184591
897.410	0.0182928
897.488	0.0185352
897.567	0.0185391
897.645	0.0184616
897.723	0.0185705
897.801	0.0186070
897.879	0.0185358
897.957	0.0185439
898.035	0.0185342
898.113	0.0185635
898.192	0.0185322
898.270	0.0184046
898.348	0.0185699
898.426	0.0184737
898.504	0.0183786
898.582	0.0186004
898.660	0.0183900
898.738	0.0184949
898.817	0.0185097
898.895	0.0185411
898.973	0.0187018
899.051	0.0185553
899.129	0.0185294
899.207	0.0186750
899.285	0.0185128
899.363	0.0184676
899.442	0.0182869
899.520	0.0184176
899.598	0.0184090
899.676	0.0184264
899.754	0.0183130
899.832	0.0183217
899.910	0.0183627
899.988	0.0182353
900.067	0.0182592
900.145	0.0182267
900.223	0.0182991
900.301	0.0181714
900.379	0.0182537
900.457	0.0181065
900.535	0.0181389
900.613	0.0182038
900.692	0.0181342
900.770	0.0182521
900.848	0.0181190
900.926	0.0181652
901.004	0.0182156
901.082	0.0182776
901.160	0.0182137
901.238	0.0181609
901.317	0.0182773
901.395	0.0181808
901.473	0.0182066
901.551	0.0182088
901.629	0.0182042
901.707	0.0181315
901.785	0.0183257
901.863	0.0183247
901.942	0.0183686
902.020	0.0183082
902.098	0.0183067
902.176	0.0183510
902.254	0.0183808
902.332	0.0181931
902.410	0.0182883
902.488	0.0183276
902.567	0.0183942
902.645	0.0185356
902.723	0.0184666
902.801	0.0184096
902.879	0.0183882
902.957	0.0182871
903.035	0.0183861
903.113	0.0183701
903.192	0.0184197
903.270	0.0184770
903.348	0.0183919
903.426	0.0183679
903.504	0.0181307
903.582	0.0183087
903.660	0.0181819
903.738	0.0181047
903.817	0.0182642
903.895	0.0180887
903.973	0.0181669
904.051	0.0182220
904.129	0.0181754
904.207	0.0182895
904.285	0.0181188
904.363	0.0182866
904.442	0.0182724
904.520	0.0183591
904.598	0.0184298
904.676	0.0184920
904.754	0.0184518
904.832	0.0185190
904.910	0.0185641
904.988	0.0185576
905.067	0.0187340
905.145	0.0186854
905.223	0.0187322
905.301	0.0186643
905.379	0.0186322
905.457	0.0186069
905.535	0.0184976
905.613	0.0184344
905.692	0.0184560
905.770	0.0184710
905.848	0.0185659
905.926	0.0183658
906.004	0.0184188
906.082	0.0183991
906.160	0.0183921
906.238	0.0182715
906.317	0.0183377
906.395	0.0183479
906.473	0.0182449
906.551	0.0181375
906.629	0.0182235
906.707	0.0181375
906.785	0.0180781
906.863	0.0180344
906.942	0.0180634
907.020	0.0181873
907.098	0.0180428
907.176	0.0181281
907.254	0.0181259
907.332	0.0181559
907.410	0.0182685
907.488	0.0183582
907.567	0.0183434
907.645	0.0186029
907.723	0.0184150
907.801	0.0184863
907.879	0.0184367
907.957	0.0183681
908.035	0.0185810
908.113	0.0184890
908.192	0.0185864
908.270	0.0185342
908.348	0.0185921
908.426	0.0184348
908.504	0.0184785
908.582	0.0185284
908.660	0.0186733
908.738	0.0185059
908.817	0.0184947
908.895	0.0185075
908.973	0.0183316
909.051	0.0185447
909.129	0.0184005
909.207	0.0181679
909.285	0.0182079
909.363	0.0181413
909.442	0.0181779
909.520	0.0181039
909.598	0.0181393
909.676	0.0180988
909.754	0.0181798
909.832	0.0182507
909.910	0.0181950
909.988	0.0181986
910.067	0.0182118
910.145	0.0181891
910.223	0.0181792
910.301	0.0183184
910.379	0.0183207
910.457	0.0181995
910.535	0.0182217
910.613	0.0182095
910.692	0.0181897
910.770	0.0181568
910.848	0.0181628
910.926	0.0182777
911.004	0.0181883
911.082	0.0184219
911.160	0.0181331
911.238	0.0183849
911.317	0.0184730
911.395	0.0183550
911.473	0.0183224
911.551	0.0183473
911.629	0.0183237
911.707	0.0183372
911.785	0.0184400
911.863	0.0184004
911.942	0.0186053
912.020	0.0182810
912.098	0.0183457
912.176	0.0184619
912.254	0.0183548
912.332	0.0184712
912.410	0.0185025
912.488	0.0184129
912.567	0.0182765
912.645	0.0182778
912.723	0.0183402
912.801	0.0181942
912.879	0.0182539
912.957	0.0183460
913.035	0.0180949
913.113	0.0179807
913.192	0.0181565
913.270	0.0181760
913.348	0.0179671
913.426	0.0182130
913.504	0.0181410
913.582	0.0180754
913.660	0.0181165
913.738	0.0182144
913.817	0.0181757
913.895	0.0182332
913.973	0.0183698
914.051	0.0182659
914.129	0.0181703
914.207	0.0183559
914.285	0.0183891
914.363	0.0183523
914.442	0.0182255
914.520	0.0184013
914.598	0.0184364
914.676	0.0184767
914.754	0.0184549
914.832	0.0184386
914.910	0.0184421
914.988	0.0185376
915.067	0.0186221
915.145	0.0185409
915.223	0.0184989
915.301	0.0186720
915.379	0.0185270
915.457	0.0186018
915.535	0.0185399
915.613	0.0186200
915.692	0.0185449
915.770	0.0184022
915.848	0.0184409
915.926	0.0185253
916.004	0.0183162
916.082	0.0184081
916.160	0.0185525
916.238	0.0182932
916.317	0.0183976
916.395	0.0183150
916.473	0.0183168
916.551	0.0183051
916.629	0.0182828
916.707	0.0184097
916.785	0.0184949
916.863	0.0182313
916.942	0.0184008
917.020	0.0183106
917.098	0.0183958
917.176	0.0183537
917.254	0.0184309
917.332	0.0185178
917.410	0.0183662
917.488	0.0181602
917.567	0.0183189
917.645	0.0183981
917.723	0.0180941
917.801	0.0182648
917.879	0.0181487
917.957	0.0180561
918.035	0.0181363
918.113	0.0179185
918.192	0.0181451
918.270	0.0180125
918.348	0.0180418
918.426	0.0181410
918.504	0.0178877
918.582	0.0181481
918.660	0.0182361
918.738	0.0182230
918.817	0.0182379
918.895	0.0183978
918.973	0.0183295
919.051	0.0183270
919.129	0.0183088
919.207	0.0183580
919.285	0.0185099
919.363	0.0183913
919.442	0.0183221
919.520	0.0183476
919.598	0.0184377
919.676	0.0183533
919.754	0.0183982
919.832	0.0183532
919.910	0.0182952
