06/01/2022	21:51:33	Ver.	4.1	UNKNOWN
Optical Delay	599.988409	Delta X		0.078125	Sweeps	1	Scan Rate	0/0
Coordinates	Axis 1	NaN	Axis 2	NaN	Axis 3	NaN	Axis 4	NaN	Axis 5	NaN	Axis 6	0.000000
TX Power	0.000000	RX Power	0.000000

599.988	0.0182157
600.067	0.0181040
600.145	0.0182361
600.223	0.0181565
600.301	0.0181647
600.379	0.0183138
600.457	0.0181778
600.535	0.0181108
600.613	0.0182260
600.692	0.0182877
600.770	0.0182457
600.848	0.0182287
600.926	0.0183043
601.004	0.0182058
601.082	0.0182781
601.160	0.0181604
601.238	0.0181739
601.317	0.0181769
601.395	0.0182181
601.473	0.0182419
601.551	0.0181588
601.629	0.0182610
601.707	0.0182050
601.785	0.0182784
601.863	0.0182571
601.942	0.0181821
602.020	0.0182014
602.098	0.0183493
602.176	0.0180788
602.254	0.0182401
602.332	0.0181551
602.410	0.0181982
602.488	0.0181989
602.567	0.0182654
602.645	0.0181664
602.723	0.0181760
602.801	0.0182298
602.879	0.0181675
602.957	0.0182346
603.035	0.0182986
603.113	0.0181693
603.192	0.0181419
603.270	0.0182738
603.348	0.0181239
603.426	0.0182282
603.504	0.0182854
603.582	0.0182089
603.660	0.0180656
603.738	0.0182374
603.817	0.0182636
603.895	0.0181686
603.973	0.0182586
604.051	0.0183138
604.129	0.0182005
604.207	0.0182561
604.285	0.0182556
604.363	0.0181546
604.442	0.0182069
604.520	0.0181004
604.598	0.0181940
604.676	0.0182102
604.754	0.0182318
604.832	0.0181843
604.910	0.0181709
604.988	0.0182335
605.067	0.0182334
605.145	0.0181367
605.223	0.0181889
605.301	0.0181097
605.379	0.0181277
605.457	0.0183115
605.535	0.0182834
605.613	0.0180404
605.692	0.0181805
605.770	0.0182511
605.848	0.0181393
605.926	0.0182320
606.004	0.0182172
606.082	0.0181445
606.160	0.0181299
606.238	0.0181594
606.317	0.0182766
606.395	0.0181535
606.473	0.0181854
606.551	0.0181973
606.629	0.0182484
606.707	0.0181767
606.785	0.0183470
606.863	0.0181921
606.942	0.0181689
607.020	0.0181320
607.098	0.0181573
607.176	0.0180996
607.254	0.0180904
607.332	0.0182717
607.410	0.0180759
607.488	0.0181191
607.567	0.0181670
607.645	0.0182883
607.723	0.0181165
607.801	0.0182223
607.879	0.0181992
607.957	0.0182138
608.035	0.0182457
608.113	0.0182689
608.192	0.0181802
608.270	0.0181040
608.348	0.0182162
608.426	0.0181528
608.504	0.0182506
608.582	0.0182626
608.660	0.0181818
608.738	0.0181942
608.817	0.0180818
608.895	0.0181006
608.973	0.0182043
609.051	0.0182223
609.129	0.0182316
609.207	0.0182000
609.285	0.0183015
609.363	0.0181332
609.442	0.0182018
609.520	0.0181773
609.598	0.0181477
609.676	0.0180842
609.754	0.0182513
609.832	0.0181815
609.910	0.0182275
609.988	0.0181485
610.067	0.0182091
610.145	0.0182687
610.223	0.0182111
610.301	0.0181873
610.379	0.0183073
610.457	0.0182776
610.535	0.0181554
610.613	0.0181180
610.692	0.0182202
610.770	0.0182594
610.848	0.0181546
610.926	0.0182798
611.004	0.0181958
611.082	0.0181535
611.160	0.0182500
611.238	0.0180680
611.317	0.0181249
611.395	0.0181280
611.473	0.0182385
611.551	0.0181711
611.629	0.0181511
611.707	0.0181139
611.785	0.0181197
611.863	0.0181115
611.942	0.0182392
612.020	0.0181660
612.098	0.0180811
612.176	0.0180147
612.254	0.0182256
612.332	0.0180952
612.410	0.0180777
612.488	0.0181826
612.567	0.0181709
612.645	0.0181801
612.723	0.0181723
612.801	0.0180255
612.879	0.0182109
612.957	0.0182085
613.035	0.0181261
613.113	0.0181224
613.192	0.0182631
613.270	0.0181297
613.348	0.0181298
613.426	0.0182601
613.504	0.0181275
613.582	0.0182253
613.660	0.0181589
613.738	0.0182833
613.817	0.0181891
613.895	0.0181994
613.973	0.0182185
614.051	0.0183033
614.129	0.0182537
614.207	0.0181255
614.285	0.0183177
614.363	0.0182458
614.442	0.0182565
614.520	0.0183546
614.598	0.0181430
614.676	0.0181612
614.754	0.0182313
614.832	0.0181818
614.910	0.0181477
614.988	0.0182398
615.067	0.0183085
615.145	0.0182021
615.223	0.0182140
615.301	0.0181409
615.379	0.0181667
615.457	0.0182149
615.535	0.0182281
615.613	0.0181573
615.692	0.0182069
615.770	0.0181814
615.848	0.0183137
615.926	0.0181799
616.004	0.0181587
616.082	0.0182385
616.160	0.0181921
616.238	0.0182101
616.317	0.0182219
616.395	0.0182522
616.473	0.0182634
616.551	0.0182100
616.629	0.0181943
616.707	0.0182191
616.785	0.0183148
616.863	0.0182260
616.942	0.0180507
617.020	0.0182029
617.098	0.0181871
617.176	0.0181922
617.254	0.0181966
617.332	0.0182382
617.410	0.0181528
617.488	0.0182296
617.567	0.0181575
617.645	0.0180737
617.723	0.0181865
617.801	0.0181752
617.879	0.0181763
617.957	0.0181689
618.035	0.0182816
618.113	0.0183068
618.192	0.0183291
618.270	0.0182810
618.348	0.0181534
618.426	0.0181866
618.504	0.0182355
618.582	0.0182182
618.660	0.0182782
618.738	0.0181876
618.817	0.0182420
618.895	0.0181760
618.973	0.0180974
619.051	0.0182539
619.129	0.0182571
619.207	0.0182145
619.285	0.0181994
619.363	0.0182671
619.442	0.0182190
619.520	0.0182720
619.598	0.0182790
619.676	0.0181902
619.754	0.0181519
619.832	0.0181792
619.910	0.0183194
619.988	0.0182768
620.067	0.0181348
620.145	0.0182330
620.223	0.0182001
620.301	0.0183185
620.379	0.0182175
620.457	0.0182072
620.535	0.0182618
620.613	0.0182336
620.692	0.0181541
620.770	0.0182019
620.848	0.0182740
620.926	0.0181832
621.004	0.0182066
621.082	0.0183190
621.160	0.0182718
621.238	0.0180965
621.317	0.0182076
621.395	0.0182667
621.473	0.0181567
621.551	0.0181774
621.629	0.0183158
621.707	0.0181947
621.785	0.0181564
621.863	0.0182242
621.942	0.0182922
622.020	0.0181378
622.098	0.0182949
622.176	0.0182682
622.254	0.0183262
622.332	0.0181962
622.410	0.0182956
622.488	0.0182122
622.567	0.0181668
622.645	0.0182467
622.723	0.0184454
622.801	0.0184440
622.879	0.0183359
622.957	0.0181402
623.035	0.0181956
623.113	0.0182706
623.192	0.0183232
623.270	0.0182975
623.348	0.0182180
623.426	0.0181666
623.504	0.0181424
623.582	0.0182407
623.660	0.0182687
623.738	0.0182482
623.817	0.0180737
623.895	0.0182541
623.973	0.0183326
624.051	0.0182678
624.129	0.0182344
624.207	0.0183916
624.285	0.0182615
624.363	0.0182872
624.442	0.0182129
624.520	0.0181731
624.598	0.0182022
624.676	0.0182397
624.754	0.0182514
624.832	0.0181664
624.910	0.0180979
624.988	0.0182758
625.067	0.0182165
625.145	0.0184161
625.223	0.0182023
625.301	0.0181609
625.379	0.0182413
625.457	0.0181566
625.535	0.0183338
625.613	0.0182050
625.692	0.0181902
625.770	0.0182482
625.848	0.0182384
625.926	0.0181853
626.004	0.0181897
626.082	0.0182681
626.160	0.0182185
626.238	0.0180383
626.317	0.0182095
626.395	0.0181369
626.473	0.0181400
626.551	0.0181770
626.629	0.0182092
626.707	0.0183276
626.785	0.0181437
626.863	0.0181187
626.942	0.0182764
627.020	0.0181743
627.098	0.0181360
627.176	0.0182436
627.254	0.0182536
627.332	0.0181763
627.410	0.0181655
627.488	0.0181427
627.567	0.0181384
627.645	0.0181209
627.723	0.0181948
627.801	0.0182377
627.879	0.0180631
627.957	0.0181436
628.035	0.0181627
628.113	0.0181673
628.192	0.0181544
628.270	0.0182491
628.348	0.0181656
628.426	0.0182461
628.504	0.0182572
628.582	0.0181745
628.660	0.0180003
628.738	0.0181007
628.817	0.0181156
628.895	0.0181693
628.973	0.0181611
629.051	0.0181874
629.129	0.0182063
629.207	0.0181838
629.285	0.0181259
629.363	0.0182639
629.442	0.0183270
629.520	0.0182380
629.598	0.0181328
629.676	0.0181223
629.754	0.0183701
629.832	0.0182135
629.910	0.0180548
629.988	0.0181917
630.067	0.0181304
630.145	0.0181670
630.223	0.0181595
630.301	0.0181419
630.379	0.0180653
630.457	0.0180048
630.535	0.0181958
630.613	0.0182226
630.692	0.0181961
630.770	0.0182394
630.848	0.0181155
630.926	0.0181716
631.004	0.0181541
631.082	0.0183028
631.160	0.0182606
631.238	0.0180325
631.317	0.0181528
631.395	0.0182587
631.473	0.0180715
631.551	0.0181424
631.629	0.0181300
631.707	0.0181892
631.785	0.0182303
631.863	0.0181419
631.942	0.0181329
632.020	0.0181011
632.098	0.0181911
632.176	0.0181164
632.254	0.0182639
632.332	0.0182198
632.410	0.0180940
632.488	0.0181391
632.567	0.0182227
632.645	0.0181488
632.723	0.0182987
632.801	0.0180898
632.879	0.0181594
632.957	0.0181722
633.035	0.0182554
633.113	0.0182396
633.192	0.0183271
633.270	0.0182578
633.348	0.0182542
633.426	0.0182076
633.504	0.0183477
633.582	0.0182374
633.660	0.0181567
633.738	0.0181269
633.817	0.0182458
633.895	0.0182317
633.973	0.0182108
634.051	0.0181364
634.129	0.0181252
634.207	0.0181964
634.285	0.0180769
634.363	0.0182062
634.442	0.0182794
634.520	0.0182147
634.598	0.0180864
634.676	0.0180951
634.754	0.0181553
634.832	0.0183252
634.910	0.0181600
634.988	0.0182101
635.067	0.0181898
635.145	0.0182026
635.223	0.0181022
635.301	0.0180984
635.379	0.0182970
635.457	0.0181937
635.535	0.0181763
635.613	0.0181353
635.692	0.0182088
635.770	0.0181287
635.848	0.0181081
635.926	0.0180984
636.004	0.0181577
636.082	0.0182372
636.160	0.0181876
636.238	0.0183843
636.317	0.0182420
636.395	0.0182181
636.473	0.0181537
636.551	0.0182278
636.629	0.0181680
636.707	0.0182603
636.785	0.0181315
636.863	0.0181950
636.942	0.0181554
637.020	0.0181747
637.098	0.0182053
637.176	0.0181911
637.254	0.0182163
637.332	0.0182246
637.410	0.0183014
637.488	0.0181890
637.567	0.0180932
637.645	0.0182465
637.723	0.0182146
637.801	0.0181574
637.879	0.0182248
637.957	0.0182645
638.035	0.0183229
638.113	0.0183313
638.192	0.0181924
638.270	0.0182413
638.348	0.0181808
638.426	0.0183622
638.504	0.0182812
638.582	0.0181921
638.660	0.0182306
638.738	0.0182178
638.817	0.0182216
638.895	0.0182674
638.973	0.0180241
639.051	0.0181217
639.129	0.0181020
639.207	0.0181351
639.285	0.0181303
639.363	0.0179994
639.442	0.0181406
639.520	0.0180433
639.598	0.0183258
639.676	0.0183797
639.754	0.0183436
639.832	0.0183561
639.910	0.0184171
639.988	0.0183990
640.067	0.0183788
640.145	0.0182930
640.223	0.0182663
640.301	0.0182738
640.379	0.0184862
640.457	0.0183593
640.535	0.0181744
640.613	0.0182563
640.692	0.0182585
640.770	0.0182553
640.848	0.0181705
640.926	0.0180765
641.004	0.0181504
641.082	0.0180562
641.160	0.0180239
641.238	0.0181731
641.317	0.0182772
641.395	0.0182570
641.473	0.0182348
641.551	0.0183491
641.629	0.0183319
641.707	0.0183428
641.785	0.0183690
641.863	0.0185091
641.942	0.0184326
642.020	0.0183081
642.098	0.0184209
642.176	0.0183270
642.254	0.0182229
642.332	0.0182932
642.410	0.0181184
642.488	0.0180364
642.567	0.0181486
642.645	0.0180569
642.723	0.0180892
642.801	0.0182729
642.879	0.0181262
642.957	0.0181826
643.035	0.0182182
643.113	0.0181721
643.192	0.0181373
643.270	0.0181126
643.348	0.0182072
643.426	0.0181881
643.504	0.0181503
643.582	0.0182155
643.660	0.0181534
643.738	0.0183289
643.817	0.0183485
643.895	0.0183630
643.973	0.0183611
644.051	0.0184444
644.129	0.0183260
644.207	0.0181377
644.285	0.0182099
644.363	0.0182294
644.442	0.0182049
644.520	0.0182188
644.598	0.0182081
644.676	0.0181727
644.754	0.0180477
644.832	0.0182079
644.910	0.0180274
644.988	0.0182427
645.067	0.0180365
645.145	0.0181237
645.223	0.0182630
645.301	0.0182853
645.379	0.0183154
645.457	0.0180584
645.535	0.0181432
645.613	0.0182726
645.692	0.0182344
645.770	0.0182629
645.848	0.0183556
645.926	0.0183573
646.004	0.0182962
646.082	0.0183050
646.160	0.0183936
646.238	0.0181551
646.317	0.0183090
646.395	0.0182664
646.473	0.0184254
646.551	0.0180712
646.629	0.0182362
646.707	0.0180463
646.785	0.0180502
646.863	0.0179938
646.942	0.0179530
647.020	0.0179097
647.098	0.0181281
647.176	0.0178677
647.254	0.0180285
647.332	0.0181511
647.410	0.0181458
647.488	0.0182630
647.567	0.0183255
647.645	0.0183587
647.723	0.0183107
647.801	0.0184634
647.879	0.0184146
647.957	0.0183428
648.035	0.0182781
648.113	0.0183304
648.192	0.0181898
648.270	0.0180775
648.348	0.0179408
648.426	0.0179921
648.504	0.0179607
648.582	0.0179813
648.660	0.0180228
648.738	0.0180587
648.817	0.0179346
648.895	0.0180371
648.973	0.0181064
649.051	0.0180582
649.129	0.0181980
649.207	0.0181104
649.285	0.0181056
649.363	0.0183542
649.442	0.0183015
649.520	0.0181654
649.598	0.0182940
649.676	0.0184544
649.754	0.0184537
649.832	0.0182790
649.910	0.0183573
649.988	0.0182668
650.067	0.0183663
650.145	0.0182336
650.223	0.0181969
650.301	0.0182043
650.379	0.0180888
650.457	0.0180813
650.535	0.0181610
650.613	0.0181146
650.692	0.0181400
650.770	0.0180670
650.848	0.0181557
650.926	0.0179921
651.004	0.0181732
651.082	0.0183043
651.160	0.0181800
651.238	0.0181590
651.317	0.0182414
651.395	0.0182727
651.473	0.0182110
651.551	0.0183408
651.629	0.0182449
651.707	0.0181238
651.785	0.0183623
651.863	0.0183720
651.942	0.0181594
652.020	0.0182616
652.098	0.0183781
652.176	0.0183207
652.254	0.0183100
652.332	0.0183106
652.410	0.0183256
652.488	0.0183432
652.567	0.0182339
652.645	0.0181859
652.723	0.0181769
652.801	0.0181289
652.879	0.0182211
652.957	0.0181499
653.035	0.0180995
653.113	0.0181298
653.192	0.0181824
653.270	0.0180612
653.348	0.0182317
653.426	0.0181503
653.504	0.0182137
653.582	0.0181881
653.660	0.0181275
653.738	0.0182760
653.817	0.0181738
653.895	0.0180415
653.973	0.0180893
654.051	0.0183436
654.129	0.0181801
654.207	0.0182320
654.285	0.0183041
654.363	0.0182848
654.442	0.0182248
654.520	0.0182667
654.598	0.0180850
654.676	0.0183199
654.754	0.0182629
654.832	0.0182197
654.910	0.0182018
654.988	0.0182759
655.067	0.0182026
655.145	0.0183278
655.223	0.0183671
655.301	0.0183013
655.379	0.0183810
655.457	0.0182272
655.535	0.0182424
655.613	0.0181774
655.692	0.0181538
655.770	0.0181013
655.848	0.0182415
655.926	0.0181423
656.004	0.0179583
656.082	0.0179815
656.160	0.0181127
656.238	0.0180906
656.317	0.0182360
656.395	0.0182501
656.473	0.0182253
656.551	0.0181664
656.629	0.0183715
656.707	0.0184448
656.785	0.0184675
656.863	0.0184052
656.942	0.0184226
657.020	0.0185385
657.098	0.0184647
657.176	0.0184911
657.254	0.0185055
657.332	0.0184526
657.410	0.0182815
657.488	0.0182059
657.567	0.0182148
657.645	0.0181332
657.723	0.0181228
657.801	0.0179678
657.879	0.0180141
657.957	0.0180228
658.035	0.0177862
658.113	0.0179642
658.192	0.0180503
658.270	0.0180861
658.348	0.0181156
658.426	0.0180288
658.504	0.0182285
658.582	0.0183214
658.660	0.0180867
658.738	0.0183731
658.817	0.0184895
658.895	0.0184198
658.973	0.0185141
659.051	0.0185194
659.129	0.0185145
659.207	0.0185382
659.285	0.0184460
659.363	0.0184969
659.442	0.0183429
659.520	0.0183472
659.598	0.0181533
659.676	0.0181781
659.754	0.0181096
659.832	0.0179420
659.910	0.0180306
659.988	0.0179620
660.067	0.0180861
660.145	0.0179507
660.223	0.0178087
660.301	0.0179532
660.379	0.0179070
660.457	0.0179897
660.535	0.0179170
660.613	0.0183589
660.692	0.0181745
660.770	0.0182576
660.848	0.0182537
660.926	0.0184090
661.004	0.0183825
661.082	0.0183067
661.160	0.0185100
661.238	0.0183897
661.317	0.0183610
661.395	0.0185419
661.473	0.0184027
661.551	0.0183555
661.629	0.0182248
661.707	0.0181994
661.785	0.0181299
661.863	0.0181070
661.942	0.0180310
662.020	0.0179995
662.098	0.0180304
662.176	0.0180806
662.254	0.0179456
662.332	0.0180405
662.410	0.0181398
662.488	0.0182498
662.567	0.0181154
662.645	0.0181959
662.723	0.0184131
662.801	0.0184663
662.879	0.0185295
662.957	0.0185076
663.035	0.0185442
663.113	0.0186684
663.192	0.0184138
663.270	0.0185051
663.348	0.0184787
663.426	0.0183900
663.504	0.0184031
663.582	0.0183604
663.660	0.0182211
663.738	0.0181726
663.817	0.0181224
663.895	0.0181582
663.973	0.0180361
664.051	0.0180334
664.129	0.0182505
664.207	0.0181687
664.285	0.0180579
664.363	0.0181108
664.442	0.0180358
664.520	0.0182848
664.598	0.0181686
664.676	0.0182481
664.754	0.0183344
664.832	0.0182088
664.910	0.0183437
664.988	0.0182441
665.067	0.0183198
665.145	0.0182939
665.223	0.0180567
665.301	0.0182434
665.379	0.0184986
665.457	0.0183920
665.535	0.0182159
665.613	0.0183887
665.692	0.0182487
665.770	0.0182380
665.848	0.0184537
665.926	0.0182791
666.004	0.0183769
666.082	0.0182793
666.160	0.0183583
666.238	0.0184189
666.317	0.0181853
666.395	0.0182755
666.473	0.0183381
666.551	0.0183932
666.629	0.0183344
666.707	0.0182155
666.785	0.0181618
666.863	0.0181649
666.942	0.0181738
667.020	0.0180563
667.098	0.0180731
667.176	0.0181544
667.254	0.0180408
667.332	0.0180492
667.410	0.0180608
667.488	0.0179926
667.567	0.0180074
667.645	0.0181142
667.723	0.0180737
667.801	0.0179847
667.879	0.0182325
667.957	0.0182083
668.035	0.0182765
668.113	0.0182404
668.192	0.0181550
668.270	0.0183503
668.348	0.0184562
668.426	0.0184740
668.504	0.0185018
668.582	0.0185081
668.660	0.0184895
668.738	0.0184952
668.817	0.0185272
668.895	0.0184229
668.973	0.0181566
669.051	0.0182487
669.129	0.0183610
669.207	0.0180806
669.285	0.0181903
669.363	0.0180919
669.442	0.0180266
669.520	0.0181201
669.598	0.0179657
669.676	0.0179091
669.754	0.0179441
669.832	0.0180117
669.910	0.0179716
669.988	0.0180110
670.067	0.0181662
670.145	0.0183257
670.223	0.0182042
670.301	0.0183504
670.379	0.0183940
670.457	0.0184132
670.535	0.0183954
670.613	0.0184103
670.692	0.0183970
670.770	0.0184445
670.848	0.0182085
670.926	0.0182470
671.004	0.0182808
671.082	0.0182823
671.160	0.0182114
671.238	0.0181757
671.317	0.0180576
671.395	0.0181316
671.473	0.0179639
671.551	0.0180500
671.629	0.0179586
671.707	0.0178208
671.785	0.0177601
671.863	0.0178403
671.942	0.0178937
672.020	0.0180550
672.098	0.0182207
672.176	0.0180596
672.254	0.0181493
672.332	0.0182746
672.410	0.0183191
672.488	0.0184069
672.567	0.0184859
672.645	0.0184779
672.723	0.0184396
672.801	0.0183855
672.879	0.0186079
672.957	0.0184518
673.035	0.0184466
673.113	0.0184317
673.192	0.0183589
673.270	0.0182922
673.348	0.0183194
673.426	0.0183091
673.504	0.0181672
673.582	0.0181030
673.660	0.0179945
673.738	0.0182066
673.817	0.0178902
673.895	0.0179814
673.973	0.0179475
674.051	0.0177960
674.129	0.0178573
674.207	0.0178857
674.285	0.0179847
674.363	0.0180003
674.442	0.0179527
674.520	0.0179528
674.598	0.0182256
674.676	0.0181071
674.754	0.0181647
674.832	0.0184394
674.910	0.0183158
674.988	0.0183575
675.067	0.0184444
675.145	0.0184468
675.223	0.0185085
675.301	0.0183980
675.379	0.0183917
675.457	0.0185279
675.535	0.0184261
675.613	0.0183602
675.692	0.0183273
675.770	0.0182835
675.848	0.0182018
675.926	0.0181761
676.004	0.0181110
676.082	0.0180727
676.160	0.0181857
676.238	0.0179200
676.317	0.0178371
676.395	0.0179832
676.473	0.0178458
676.551	0.0177470
676.629	0.0176795
676.707	0.0176389
676.785	0.0176880
676.863	0.0176476
676.942	0.0177762
677.020	0.0178967
677.098	0.0178755
677.176	0.0181171
677.254	0.0182449
677.332	0.0182345
677.410	0.0184798
677.488	0.0185517
677.567	0.0185606
677.645	0.0186683
677.723	0.0187672
677.801	0.0188702
677.879	0.0188055
677.957	0.0187030
678.035	0.0187311
678.113	0.0186893
678.192	0.0185925
678.270	0.0184295
678.348	0.0185142
678.426	0.0185352
678.504	0.0182653
678.582	0.0181284
678.660	0.0180338
678.738	0.0180499
678.817	0.0179160
678.895	0.0177579
678.973	0.0177432
679.051	0.0175911
679.129	0.0176630
679.207	0.0176643
679.285	0.0175215
679.363	0.0176453
679.442	0.0176444
679.520	0.0177763
679.598	0.0179103
679.676	0.0180390
679.754	0.0180870
679.832	0.0183340
679.910	0.0184756
679.988	0.0185727
680.067	0.0187988
680.145	0.0190143
680.223	0.0190215
680.301	0.0191270
680.379	0.0189820
680.457	0.0189550
680.535	0.0188954
680.613	0.0188408
680.692	0.0188261
680.770	0.0185602
680.848	0.0183294
680.926	0.0182232
681.004	0.0180560
681.082	0.0178366
681.160	0.0177551
681.238	0.0175496
681.317	0.0174463
681.395	0.0172414
681.473	0.0172217
681.551	0.0171598
681.629	0.0171317
681.707	0.0171200
681.785	0.0171106
681.863	0.0173093
681.942	0.0173830
682.020	0.0177129
682.098	0.0178555
682.176	0.0179596
682.254	0.0181184
682.332	0.0184568
682.410	0.0185022
682.488	0.0186938
682.567	0.0188319
682.645	0.0190186
682.723	0.0192038
682.801	0.0195155
682.879	0.0194930
682.957	0.0197498
683.035	0.0196266
683.113	0.0196091
683.192	0.0196336
683.270	0.0193876
683.348	0.0193378
683.426	0.0194350
683.504	0.0190121
683.582	0.0186192
683.660	0.0184756
683.738	0.0180599
683.817	0.0176265
683.895	0.0175200
683.973	0.0172769
684.051	0.0170148
684.129	0.0166452
684.207	0.0167229
684.285	0.0165938
684.363	0.0165347
684.442	0.0166473
684.520	0.0167607
684.598	0.0167774
684.676	0.0167856
684.754	0.0170368
684.832	0.0172259
684.910	0.0173917
684.988	0.0176022
685.067	0.0178796
685.145	0.0180985
685.223	0.0182940
685.301	0.0185202
685.379	0.0187231
685.457	0.0189328
685.535	0.0190938
685.613	0.0193003
685.692	0.0193243
685.770	0.0193684
685.848	0.0194138
685.926	0.0196040
686.004	0.0195951
686.082	0.0196817
686.160	0.0196028
686.238	0.0195229
686.317	0.0194445
686.395	0.0193835
686.473	0.0193166
686.551	0.0190064
686.629	0.0189550
686.707	0.0188151
686.785	0.0185690
686.863	0.0184238
686.942	0.0183171
687.020	0.0182143
687.098	0.0180129
687.176	0.0177760
687.254	0.0176842
687.332	0.0176865
687.410	0.0174264
687.488	0.0173599
687.567	0.0172883
687.645	0.0172890
687.723	0.0172948
687.801	0.0172195
687.879	0.0170885
687.957	0.0169942
688.035	0.0170441
688.113	0.0170598
688.192	0.0169372
688.270	0.0168567
688.348	0.0166360
688.426	0.0167051
688.504	0.0166320
688.582	0.0166784
688.660	0.0168604
688.738	0.0170030
688.817	0.0170519
688.895	0.0172456
688.973	0.0177814
689.051	0.0179701
689.129	0.0182687
689.207	0.0185520
689.285	0.0188332
689.363	0.0192194
689.442	0.0196355
689.520	0.0197797
689.598	0.0199599
689.676	0.0202748
689.754	0.0205539
689.832	0.0205324
689.910	0.0206523
689.988	0.0207835
690.067	0.0208743
690.145	0.0207882
690.223	0.0206449
690.301	0.0203677
690.379	0.0202534
690.457	0.0201367
690.535	0.0198231
690.613	0.0193489
690.692	0.0191380
690.770	0.0187649
690.848	0.0184478
690.926	0.0179980
691.004	0.0175611
691.082	0.0173103
691.160	0.0168729
691.238	0.0164236
691.317	0.0161364
691.395	0.0158746
691.473	0.0157108
691.551	0.0154512
691.629	0.0152480
691.707	0.0150405
691.785	0.0149562
691.863	0.0150034
691.942	0.0150401
692.020	0.0150122
692.098	0.0149880
692.176	0.0153613
692.254	0.0155621
692.332	0.0159490
692.410	0.0162461
692.488	0.0167316
692.567	0.0173097
692.645	0.0178347
692.723	0.0184560
692.801	0.0189482
692.879	0.0194088
692.957	0.0199054
693.035	0.0203059
693.113	0.0206232
693.192	0.0209137
693.270	0.0210645
693.348	0.0211116
693.426	0.0214973
693.504	0.0214160
693.582	0.0212657
693.660	0.0213892
693.738	0.0213623
693.817	0.0211154
693.895	0.0211778
693.973	0.0209580
694.051	0.0208947
694.129	0.0207302
694.207	0.0202838
694.285	0.0200876
694.363	0.0197490
694.442	0.0193642
694.520	0.0191473
694.598	0.0186798
694.676	0.0184138
694.754	0.0181364
694.832	0.0176528
694.910	0.0174891
694.988	0.0170873
695.067	0.0170022
695.145	0.0167533
695.223	0.0164661
695.301	0.0162632
695.379	0.0161267
695.457	0.0159420
695.535	0.0157672
695.613	0.0155567
695.692	0.0154837
695.770	0.0154028
695.848	0.0151481
695.926	0.0149567
696.004	0.0150342
696.082	0.0149778
696.160	0.0151571
696.238	0.0152955
696.317	0.0153214
696.395	0.0154449
696.473	0.0158492
696.551	0.0161790
696.629	0.0164977
696.707	0.0167371
696.785	0.0172063
696.863	0.0175632
696.942	0.0180356
697.020	0.0186163
697.098	0.0189034
697.176	0.0193218
697.254	0.0198200
697.332	0.0202096
697.410	0.0205946
697.488	0.0208001
697.567	0.0210045
697.645	0.0211675
697.723	0.0212509
697.801	0.0214291
697.879	0.0216195
697.957	0.0214986
698.035	0.0215910
698.113	0.0215553
698.192	0.0215227
698.270	0.0213074
698.348	0.0212264
698.426	0.0211697
698.504	0.0209170
698.582	0.0206615
698.660	0.0204263
698.738	0.0201045
698.817	0.0197429
698.895	0.0193373
698.973	0.0187383
699.051	0.0181933
699.129	0.0177250
699.207	0.0171493
699.285	0.0166715
699.363	0.0161689
699.442	0.0158512
699.520	0.0153588
699.598	0.0150779
699.676	0.0147345
699.754	0.0145347
699.832	0.0145746
699.910	0.0145143
699.988	0.0145527
700.067	0.0147151
700.145	0.0152215
700.223	0.0154398
700.301	0.0157745
700.379	0.0162076
700.457	0.0165273
700.535	0.0168494
700.613	0.0172956
700.692	0.0177105
700.770	0.0180732
700.848	0.0183123
700.926	0.0187301
701.004	0.0189866
701.082	0.0192500
701.160	0.0195918
701.238	0.0197533
701.317	0.0197940
701.395	0.0199038
701.473	0.0199892
701.551	0.0199189
701.629	0.0200221
701.707	0.0199572
701.785	0.0197446
701.863	0.0196088
701.942	0.0193564
702.020	0.0191196
702.098	0.0189272
702.176	0.0189426
702.254	0.0188033
702.332	0.0187027
702.410	0.0185622
702.488	0.0185836
702.567	0.0186247
702.645	0.0186256
702.723	0.0185847
702.801	0.0184976
702.879	0.0184998
702.957	0.0183999
703.035	0.0181818
703.113	0.0182223
703.192	0.0180266
703.270	0.0179259
703.348	0.0179354
703.426	0.0177167
703.504	0.0174798
703.582	0.0176122
703.660	0.0175131
703.738	0.0174581
703.817	0.0173906
703.895	0.0174296
703.973	0.0175519
704.051	0.0175785
704.129	0.0176920
704.207	0.0176929
704.285	0.0178956
704.363	0.0178381
704.442	0.0177374
704.520	0.0179403
704.598	0.0178259
704.676	0.0176693
704.754	0.0176089
704.832	0.0175578
704.910	0.0175897
704.988	0.0174535
705.067	0.0175206
705.145	0.0176299
705.223	0.0177789
705.301	0.0180072
705.379	0.0181705
705.457	0.0184415
705.535	0.0187411
705.613	0.0191145
705.692	0.0193070
705.770	0.0194943
705.848	0.0195255
705.926	0.0197046
706.004	0.0198354
706.082	0.0197978
706.160	0.0196486
706.238	0.0194542
706.317	0.0194122
706.395	0.0189738
706.473	0.0186649
706.551	0.0185020
706.629	0.0182108
706.707	0.0181890
706.785	0.0179238
706.863	0.0177417
706.942	0.0173506
707.020	0.0171311
707.098	0.0170538
707.176	0.0170020
707.254	0.0167088
707.332	0.0167378
707.410	0.0166566
707.488	0.0167051
707.567	0.0168524
707.645	0.0170652
707.723	0.0171607
707.801	0.0175015
707.879	0.0176471
707.957	0.0179822
708.035	0.0183785
708.113	0.0185709
708.192	0.0187868
708.270	0.0189338
708.348	0.0191981
708.426	0.0194124
708.504	0.0193942
708.582	0.0194158
708.660	0.0195535
708.738	0.0193610
708.817	0.0193774
708.895	0.0192216
708.973	0.0190694
709.051	0.0188972
709.129	0.0185478
709.207	0.0183615
709.285	0.0179902
709.363	0.0176064
709.442	0.0174407
709.520	0.0171812
709.598	0.0169073
709.676	0.0168627
709.754	0.0167503
709.832	0.0166927
709.910	0.0165816
709.988	0.0164032
710.067	0.0165055
710.145	0.0167477
710.223	0.0168489
710.301	0.0169090
710.379	0.0171009
710.457	0.0173765
710.535	0.0175590
710.613	0.0176717
710.692	0.0178551
710.770	0.0182110
710.848	0.0185937
710.926	0.0187871
711.004	0.0192477
711.082	0.0195648
711.160	0.0199089
711.238	0.0201650
711.317	0.0202772
711.395	0.0206269
711.473	0.0206578
711.551	0.0207135
711.629	0.0206983
711.707	0.0205206
711.785	0.0202841
711.863	0.0199715
711.942	0.0198164
712.020	0.0193605
712.098	0.0189594
712.176	0.0186089
712.254	0.0182662
712.332	0.0177857
712.410	0.0174239
712.488	0.0174032
712.567	0.0172865
712.645	0.0171259
712.723	0.0170744
712.801	0.0172409
712.879	0.0172993
712.957	0.0175497
713.035	0.0176691
713.113	0.0179001
713.192	0.0182070
713.270	0.0183170
713.348	0.0183304
713.426	0.0184954
713.504	0.0186321
713.582	0.0186588
713.660	0.0185217
713.738	0.0184101
713.817	0.0182944
713.895	0.0182285
713.973	0.0180381
714.051	0.0178073
714.129	0.0177026
714.207	0.0173506
714.285	0.0172852
714.363	0.0171065
714.442	0.0170024
714.520	0.0167273
714.598	0.0164867
714.676	0.0165414
714.754	0.0164110
714.832	0.0162119
714.910	0.0162460
714.988	0.0161712
715.067	0.0160746
715.145	0.0161907
715.223	0.0162114
715.301	0.0163629
715.379	0.0165133
715.457	0.0168316
715.535	0.0170954
715.613	0.0173906
715.692	0.0175637
715.770	0.0179949
715.848	0.0182222
715.926	0.0185046
716.004	0.0188026
716.082	0.0189722
716.160	0.0193150
716.238	0.0195626
716.317	0.0197239
716.395	0.0199483
716.473	0.0201606
716.551	0.0201298
716.629	0.0204203
716.707	0.0205091
716.785	0.0204567
716.863	0.0205035
716.942	0.0204741
717.020	0.0205075
717.098	0.0203972
717.176	0.0202303
717.254	0.0200335
717.332	0.0200130
717.410	0.0199384
717.488	0.0197464
717.567	0.0195188
717.645	0.0196240
717.723	0.0194843
717.801	0.0194003
717.879	0.0194905
717.957	0.0193646
718.035	0.0193684
718.113	0.0194256
718.192	0.0192255
718.270	0.0192737
718.348	0.0191011
718.426	0.0189871
718.504	0.0187557
718.582	0.0186672
718.660	0.0183662
718.738	0.0181591
718.817	0.0180833
718.895	0.0177535
718.973	0.0174763
719.051	0.0171999
719.129	0.0170736
719.207	0.0167057
719.285	0.0166748
719.363	0.0163584
719.442	0.0162276
719.520	0.0160966
719.598	0.0159319
719.676	0.0157613
719.754	0.0157474
719.832	0.0158617
719.910	0.0157655
719.988	0.0159562
720.067	0.0161033
720.145	0.0163480
720.223	0.0164344
720.301	0.0168226
720.379	0.0169720
720.457	0.0170941
720.535	0.0172356
720.613	0.0174283
720.692	0.0175038
720.770	0.0173671
720.848	0.0174426
720.926	0.0172209
721.004	0.0173412
721.082	0.0172355
721.160	0.0170949
721.238	0.0169370
721.317	0.0169853
721.395	0.0169212
721.473	0.0170546
721.551	0.0171927
721.629	0.0171802
721.707	0.0172375
721.785	0.0177363
721.863	0.0177917
721.942	0.0181358
722.020	0.0183510
722.098	0.0186253
722.176	0.0188029
722.254	0.0190651
722.332	0.0192432
722.410	0.0195122
722.488	0.0195930
722.567	0.0198052
722.645	0.0200618
722.723	0.0201340
722.801	0.0202692
722.879	0.0203196
722.957	0.0204218
723.035	0.0206045
723.113	0.0207677
723.192	0.0207745
723.270	0.0209029
723.348	0.0210224
723.426	0.0209534
723.504	0.0210924
723.582	0.0210606
723.660	0.0210352
723.738	0.0210164
723.817	0.0207073
723.895	0.0205534
723.973	0.0202802
724.051	0.0199918
724.129	0.0197794
724.207	0.0194003
724.285	0.0191766
724.363	0.0189518
724.442	0.0188150
724.520	0.0186485
724.598	0.0186596
724.676	0.0184982
724.754	0.0183903
724.832	0.0184586
724.910	0.0184361
724.988	0.0184517
725.067	0.0184806
725.145	0.0182870
725.223	0.0182605
725.301	0.0180978
725.379	0.0178904
725.457	0.0175372
725.535	0.0173486
725.613	0.0168868
725.692	0.0163815
725.770	0.0159335
725.848	0.0155340
725.926	0.0151552
726.004	0.0149529
726.082	0.0144447
726.160	0.0141842
726.238	0.0139459
726.317	0.0139637
726.395	0.0139452
726.473	0.0142472
726.551	0.0143568
726.629	0.0145486
726.707	0.0148578
726.785	0.0153029
726.863	0.0157794
726.942	0.0162003
727.020	0.0166865
727.098	0.0171396
727.176	0.0174643
727.254	0.0179234
727.332	0.0183293
727.410	0.0186137
727.488	0.0187875
727.567	0.0189930
727.645	0.0190617
727.723	0.0191148
727.801	0.0190765
727.879	0.0190250
727.957	0.0190959
728.035	0.0187733
728.113	0.0185740
728.192	0.0185190
728.270	0.0182658
728.348	0.0180757
728.426	0.0178799
728.504	0.0177374
728.582	0.0177124
728.660	0.0176167
728.738	0.0179974
728.817	0.0181920
728.895	0.0183032
728.973	0.0187437
729.051	0.0190726
729.129	0.0193604
729.207	0.0198167
729.285	0.0201745
729.363	0.0205079
729.442	0.0207937
729.520	0.0210339
729.598	0.0212215
729.676	0.0215427
729.754	0.0215472
729.832	0.0214733
729.910	0.0215437
729.988	0.0214960
730.067	0.0212063
730.145	0.0212714
730.223	0.0211027
730.301	0.0209730
730.379	0.0207293
730.457	0.0204744
730.535	0.0202699
730.613	0.0202261
730.692	0.0198923
730.770	0.0196783
730.848	0.0194265
730.926	0.0190845
731.004	0.0187261
731.082	0.0187156
731.160	0.0186085
731.238	0.0183208
731.317	0.0182838
731.395	0.0181568
731.473	0.0180082
731.551	0.0180942
731.629	0.0179392
731.707	0.0179021
731.785	0.0178844
731.863	0.0178144
731.942	0.0179153
732.020	0.0178185
732.098	0.0176104
732.176	0.0175418
732.254	0.0173225
732.332	0.0171199
732.410	0.0167376
732.488	0.0164132
732.567	0.0157738
732.645	0.0155756
732.723	0.0152365
732.801	0.0147051
732.879	0.0144945
732.957	0.0139056
733.035	0.0135143
733.113	0.0134380
733.192	0.0133177
733.270	0.0132446
733.348	0.0133993
733.426	0.0134301
733.504	0.0137730
733.582	0.0140894
733.660	0.0145445
733.738	0.0153838
733.817	0.0159163
733.895	0.0164742
733.973	0.0171909
734.051	0.0178544
734.129	0.0182691
734.207	0.0188438
734.285	0.0191867
734.363	0.0194927
734.442	0.0196470
734.520	0.0200230
734.598	0.0201026
734.676	0.0201017
734.754	0.0200751
734.832	0.0200239
734.910	0.0198992
734.988	0.0197477
735.067	0.0196250
735.145	0.0195388
735.223	0.0194025
735.301	0.0192983
735.379	0.0192790
735.457	0.0191484
735.535	0.0191000
735.613	0.0189891
735.692	0.0190388
735.770	0.0192286
735.848	0.0192643
735.926	0.0194096
736.004	0.0194511
736.082	0.0197032
736.160	0.0197215
736.238	0.0201512
736.317	0.0202702
736.395	0.0205366
736.473	0.0208750
736.551	0.0210595
736.629	0.0211814
736.707	0.0212170
736.785	0.0215285
736.863	0.0213410
736.942	0.0213623
737.020	0.0213087
737.098	0.0210652
737.176	0.0209832
737.254	0.0207686
737.332	0.0204941
737.410	0.0201889
737.488	0.0198646
737.567	0.0192764
737.645	0.0190395
737.723	0.0184884
737.801	0.0181397
737.879	0.0180679
737.957	0.0176016
738.035	0.0174198
738.113	0.0174110
738.192	0.0173327
738.270	0.0173109
738.348	0.0174927
738.426	0.0175848
738.504	0.0176479
738.582	0.0178539
738.660	0.0180809
738.738	0.0181861
738.817	0.0183359
738.895	0.0182651
738.973	0.0182146
739.051	0.0181886
739.129	0.0180273
739.207	0.0176764
739.285	0.0172520
739.363	0.0169329
739.442	0.0163535
739.520	0.0159842
739.598	0.0153182
739.676	0.0147131
739.754	0.0144779
739.832	0.0140648
739.910	0.0135488
739.988	0.0131023
740.067	0.0130738
740.145	0.0128835
740.223	0.0128282
740.301	0.0131313
740.379	0.0134217
740.457	0.0137325
740.535	0.0142844
740.613	0.0148287
740.692	0.0154210
740.770	0.0160963
740.848	0.0167092
740.926	0.0176014
741.004	0.0182885
741.082	0.0189117
741.160	0.0193474
741.238	0.0199171
741.317	0.0201151
741.395	0.0204624
741.473	0.0206718
741.551	0.0207444
741.629	0.0205995
741.707	0.0204799
741.785	0.0203932
741.863	0.0202502
741.942	0.0200073
742.020	0.0199026
742.098	0.0197381
742.176	0.0195189
742.254	0.0193977
742.332	0.0194131
742.410	0.0192317
742.488	0.0190536
742.567	0.0192376
742.645	0.0192462
742.723	0.0192281
742.801	0.0193934
742.879	0.0194844
742.957	0.0194314
743.035	0.0197463
743.113	0.0197949
743.192	0.0201324
743.270	0.0203127
743.348	0.0204383
743.426	0.0205473
743.504	0.0205317
743.582	0.0206258
743.660	0.0206769
743.738	0.0207095
743.817	0.0207589
743.895	0.0207041
743.973	0.0205345
744.051	0.0204542
744.129	0.0203992
744.207	0.0203330
744.285	0.0200415
744.363	0.0199606
744.442	0.0197741
744.520	0.0194991
744.598	0.0193385
744.676	0.0189050
744.754	0.0188467
744.832	0.0185094
744.910	0.0181509
744.988	0.0181335
745.067	0.0181042
745.145	0.0176978
745.223	0.0176797
745.301	0.0175795
745.379	0.0175386
745.457	0.0176138
745.535	0.0175580
745.613	0.0176988
745.692	0.0176289
745.770	0.0175567
745.848	0.0176221
745.926	0.0174212
746.004	0.0172070
746.082	0.0171685
746.160	0.0169289
746.238	0.0167847
746.317	0.0164332
746.395	0.0159895
746.473	0.0155107
746.551	0.0151264
746.629	0.0148259
746.707	0.0143995
746.785	0.0139973
746.863	0.0137110
746.942	0.0135091
747.020	0.0133355
747.098	0.0132045
747.176	0.0133701
747.254	0.0135677
747.332	0.0138187
747.410	0.0141541
747.488	0.0147434
747.567	0.0153178
747.645	0.0160058
747.723	0.0165643
747.801	0.0172193
747.879	0.0178434
747.957	0.0183547
748.035	0.0189993
748.113	0.0191927
748.192	0.0195357
748.270	0.0198324
748.348	0.0200188
748.426	0.0200257
748.504	0.0201332
748.582	0.0201021
748.660	0.0200141
748.738	0.0201277
748.817	0.0200107
748.895	0.0198563
748.973	0.0198313
749.051	0.0197181
749.129	0.0197427
749.207	0.0196163
749.285	0.0197034
749.363	0.0195578
749.442	0.0195832
749.520	0.0194798
749.598	0.0195877
749.676	0.0196326
749.754	0.0196578
749.832	0.0195892
749.910	0.0198060
749.988	0.0197824
750.067	0.0198113
750.145	0.0199155
750.223	0.0200348
750.301	0.0200864
750.379	0.0200352
750.457	0.0199772
750.535	0.0199421
750.613	0.0200885
750.692	0.0197349
750.770	0.0198305
750.848	0.0197004
750.926	0.0195688
751.004	0.0195648
751.082	0.0194600
751.160	0.0195264
751.238	0.0194659
751.317	0.0194086
751.395	0.0194573
751.473	0.0193578
751.551	0.0193925
751.629	0.0192937
751.707	0.0193342
751.785	0.0193118
751.863	0.0191554
751.942	0.0190694
752.020	0.0190939
752.098	0.0188715
752.176	0.0188737
752.254	0.0185984
752.332	0.0185791
752.410	0.0183216
752.488	0.0182488
752.567	0.0180411
752.645	0.0178011
752.723	0.0176189
752.801	0.0172694
752.879	0.0171262
752.957	0.0168844
753.035	0.0165317
753.113	0.0161958
753.192	0.0157986
753.270	0.0154913
753.348	0.0152742
753.426	0.0150735
753.504	0.0148482
753.582	0.0145126
753.660	0.0142995
753.738	0.0142664
753.817	0.0143512
753.895	0.0142293
753.973	0.0143703
754.051	0.0145169
754.129	0.0146943
754.207	0.0150333
754.285	0.0153671
754.363	0.0156617
754.442	0.0158444
754.520	0.0162695
754.598	0.0166579
754.676	0.0170052
754.754	0.0171704
754.832	0.0176292
754.910	0.0178456
754.988	0.0180013
755.067	0.0182998
755.145	0.0184300
755.223	0.0186088
755.301	0.0186552
755.379	0.0188712
755.457	0.0189481
755.535	0.0190327
755.613	0.0190977
755.692	0.0192152
755.770	0.0194339
755.848	0.0194422
755.926	0.0196863
756.004	0.0199129
756.082	0.0199388
756.160	0.0200005
756.238	0.0201243
756.317	0.0200079
756.395	0.0200526
756.473	0.0201000
756.551	0.0200922
756.629	0.0200260
756.707	0.0196442
756.785	0.0197392
756.863	0.0195024
756.942	0.0195184
757.020	0.0195242
757.098	0.0193019
757.176	0.0193954
757.254	0.0194533
757.332	0.0192333
757.410	0.0193366
757.488	0.0193267
757.567	0.0192146
757.645	0.0192345
757.723	0.0191934
757.801	0.0191599
757.879	0.0194138
757.957	0.0195615
758.035	0.0196671
758.113	0.0195004
758.192	0.0196653
758.270	0.0196379
758.348	0.0197038
758.426	0.0197884
758.504	0.0198904
758.582	0.0199301
758.660	0.0197642
758.738	0.0197034
758.817	0.0195753
758.895	0.0194801
758.973	0.0195331
759.051	0.0193047
759.129	0.0191183
759.207	0.0188209
759.285	0.0186932
759.363	0.0184161
759.442	0.0182052
759.520	0.0179973
759.598	0.0178188
759.676	0.0175510
759.754	0.0173560
759.832	0.0170210
759.910	0.0167467
759.988	0.0165221
760.067	0.0163754
760.145	0.0161868
760.223	0.0159682
760.301	0.0157333
760.379	0.0156849
760.457	0.0155334
760.535	0.0155373
760.613	0.0154947
760.692	0.0153357
760.770	0.0153561
760.848	0.0153162
760.926	0.0152409
761.004	0.0153850
761.082	0.0155079
761.160	0.0154582
761.238	0.0155781
761.317	0.0158761
761.395	0.0159635
761.473	0.0161498
761.551	0.0162448
761.629	0.0165560
761.707	0.0167285
761.785	0.0167846
761.863	0.0169945
761.942	0.0173115
762.020	0.0172929
762.098	0.0175985
762.176	0.0177377
762.254	0.0177943
762.332	0.0179262
762.410	0.0180355
762.488	0.0183806
762.567	0.0184499
762.645	0.0185922
762.723	0.0187826
762.801	0.0190110
762.879	0.0193474
762.957	0.0193990
763.035	0.0194340
763.113	0.0197499
763.192	0.0200253
763.270	0.0201211
763.348	0.0199941
763.426	0.0199958
763.504	0.0199681
763.582	0.0200568
763.660	0.0200648
763.738	0.0199931
763.817	0.0199309
763.895	0.0197675
763.973	0.0198038
764.051	0.0196982
764.129	0.0196256
764.207	0.0194051
764.285	0.0194530
764.363	0.0193382
764.442	0.0191341
764.520	0.0192101
764.598	0.0190944
764.676	0.0192071
764.754	0.0192688
764.832	0.0192495
764.910	0.0191692
764.988	0.0192722
765.067	0.0192959
765.145	0.0193191
765.223	0.0194034
765.301	0.0194714
765.379	0.0193389
765.457	0.0193584
765.535	0.0194277
765.613	0.0194995
765.692	0.0194833
765.770	0.0193735
765.848	0.0193018
765.926	0.0192688
766.004	0.0191948
766.082	0.0190389
766.160	0.0191053
766.238	0.0190668
766.317	0.0189016
766.395	0.0186253
766.473	0.0185512
766.551	0.0185918
766.629	0.0182022
766.707	0.0180551
766.785	0.0178008
766.863	0.0176469
766.942	0.0173406
767.020	0.0170691
767.098	0.0168639
767.176	0.0167693
767.254	0.0165351
767.332	0.0163654
767.410	0.0164745
767.488	0.0160895
767.567	0.0161543
767.645	0.0161061
767.723	0.0161378
767.801	0.0159372
767.879	0.0159616
767.957	0.0160693
768.035	0.0162172
768.113	0.0162533
768.192	0.0162267
768.270	0.0162251
768.348	0.0162228
768.426	0.0162331
768.504	0.0162148
768.582	0.0162106
768.660	0.0163493
768.738	0.0164642
768.817	0.0164274
768.895	0.0164038
768.973	0.0165696
769.051	0.0166988
769.129	0.0167397
769.207	0.0171512
769.285	0.0171221
769.363	0.0173180
769.442	0.0176528
769.520	0.0178405
769.598	0.0178520
769.676	0.0180408
769.754	0.0184601
769.832	0.0187811
769.910	0.0187337
769.988	0.0188132
770.067	0.0187713
770.145	0.0188520
770.223	0.0189334
770.301	0.0189864
770.379	0.0188834
770.457	0.0190701
770.535	0.0191498
770.613	0.0190812
770.692	0.0192569
770.770	0.0193333
770.848	0.0195634
770.926	0.0196166
771.004	0.0197783
771.082	0.0197539
771.160	0.0200246
771.238	0.0200153
771.317	0.0201270
771.395	0.0200842
771.473	0.0200145
771.551	0.0201730
771.629	0.0201607
771.707	0.0201527
771.785	0.0199580
771.863	0.0197260
771.942	0.0197511
772.020	0.0198019
772.098	0.0195009
772.176	0.0194620
772.254	0.0193977
772.332	0.0192239
772.410	0.0192329
772.488	0.0191544
772.567	0.0189799
772.645	0.0188724
772.723	0.0189063
772.801	0.0189006
772.879	0.0188719
772.957	0.0187927
773.035	0.0188213
773.113	0.0188628
773.192	0.0188673
773.270	0.0187092
773.348	0.0188519
773.426	0.0187899
773.504	0.0186450
773.582	0.0185020
773.660	0.0184491
773.738	0.0180905
773.817	0.0180654
773.895	0.0178841
773.973	0.0174506
774.051	0.0174109
774.129	0.0173996
774.207	0.0171790
774.285	0.0170200
774.363	0.0170070
774.442	0.0167744
774.520	0.0167644
774.598	0.0168467
774.676	0.0167284
774.754	0.0168707
774.832	0.0168250
774.910	0.0167717
774.988	0.0167815
775.067	0.0166024
775.145	0.0167088
775.223	0.0165416
775.301	0.0165054
775.379	0.0166320
775.457	0.0166475
775.535	0.0163940
775.613	0.0164293
775.692	0.0162270
775.770	0.0165192
775.848	0.0165311
775.926	0.0166339
776.004	0.0166129
776.082	0.0166303
776.160	0.0170220
776.238	0.0170985
776.317	0.0170811
776.395	0.0173489
776.473	0.0174632
776.551	0.0176379
776.629	0.0175747
776.707	0.0177705
776.785	0.0179263
776.863	0.0179349
776.942	0.0181343
777.020	0.0182674
777.098	0.0184397
777.176	0.0182648
777.254	0.0185573
777.332	0.0186845
777.410	0.0185795
777.488	0.0186298
777.567	0.0187473
777.645	0.0188395
777.723	0.0188181
777.801	0.0188246
777.879	0.0188685
777.957	0.0190107
778.035	0.0189973
778.113	0.0190135
778.192	0.0190156
778.270	0.0189497
778.348	0.0190569
778.426	0.0191600
778.504	0.0192542
778.582	0.0193800
778.660	0.0193678
778.738	0.0194745
778.817	0.0195734
778.895	0.0196397
778.973	0.0197104
779.051	0.0197890
779.129	0.0198949
779.207	0.0199442
779.285	0.0200020
779.363	0.0201860
779.442	0.0200742
779.520	0.0201093
779.598	0.0199255
779.676	0.0198677
779.754	0.0196768
779.832	0.0193707
779.910	0.0193410
779.988	0.0193204
780.067	0.0191775
780.145	0.0188712
780.223	0.0186353
780.301	0.0184946
780.379	0.0184035
780.457	0.0182135
780.535	0.0181915
780.613	0.0180157
780.692	0.0179957
780.770	0.0179245
780.848	0.0179806
780.926	0.0178676
781.004	0.0180206
781.082	0.0180362
781.160	0.0179900
781.238	0.0179967
781.317	0.0180638
781.395	0.0180416
781.473	0.0180769
781.551	0.0179903
781.629	0.0179626
781.707	0.0178568
781.785	0.0179805
781.863	0.0177318
781.942	0.0175844
782.020	0.0173697
782.098	0.0172734
782.176	0.0171262
782.254	0.0170032
782.332	0.0167873
782.410	0.0166089
782.488	0.0164689
782.567	0.0164751
782.645	0.0163283
782.723	0.0163168
782.801	0.0163265
782.879	0.0164636
782.957	0.0165961
783.035	0.0167673
783.113	0.0168417
783.192	0.0168250
783.270	0.0171182
783.348	0.0173528
783.426	0.0172502
783.504	0.0174715
783.582	0.0175430
783.660	0.0176527
783.738	0.0176658
783.817	0.0177015
783.895	0.0177838
783.973	0.0176684
784.051	0.0176585
784.129	0.0178306
784.207	0.0179575
784.285	0.0176596
784.363	0.0177638
784.442	0.0178111
784.520	0.0177358
784.598	0.0176665
784.676	0.0178185
784.754	0.0178773
784.832	0.0177619
784.910	0.0180070
784.988	0.0181163
785.067	0.0182390
785.145	0.0181934
785.223	0.0184677
785.301	0.0185889
785.379	0.0186760
785.457	0.0188737
785.535	0.0190523
785.613	0.0192178
785.692	0.0194424
785.770	0.0195992
785.848	0.0197732
785.926	0.0196927
786.004	0.0198329
786.082	0.0200940
786.160	0.0200230
786.238	0.0201202
786.317	0.0200075
786.395	0.0198705
786.473	0.0199294
786.551	0.0197330
786.629	0.0197930
786.707	0.0196062
786.785	0.0195584
786.863	0.0193717
786.942	0.0193345
787.020	0.0190858
787.098	0.0189970
787.176	0.0189399
787.254	0.0187398
787.332	0.0187474
787.410	0.0186825
787.488	0.0187115
787.567	0.0186534
787.645	0.0187771
787.723	0.0186797
787.801	0.0185246
787.879	0.0186053
787.957	0.0184233
788.035	0.0185595
788.113	0.0184682
788.192	0.0185075
788.270	0.0183846
788.348	0.0184348
788.426	0.0184067
788.504	0.0182774
788.582	0.0180956
788.660	0.0179784
788.738	0.0177367
788.817	0.0176723
788.895	0.0174021
788.973	0.0172507
789.051	0.0171103
789.129	0.0170412
789.207	0.0168752
789.285	0.0168199
789.363	0.0167561
789.442	0.0166040
789.520	0.0165752
789.598	0.0165678
789.676	0.0166608
789.754	0.0169320
789.832	0.0169579
789.910	0.0170835
789.988	0.0173490
790.067	0.0173853
790.145	0.0175838
790.223	0.0178299
790.301	0.0178610
790.379	0.0179201
790.457	0.0181681
790.535	0.0180851
790.613	0.0179855
790.692	0.0181849
790.770	0.0181496
790.848	0.0179951
790.926	0.0179452
791.004	0.0178460
791.082	0.0177392
791.160	0.0176738
791.238	0.0174339
791.317	0.0174196
791.395	0.0172702
791.473	0.0171848
791.551	0.0171451
791.629	0.0171830
791.707	0.0171537
791.785	0.0171539
791.863	0.0171314
791.942	0.0172047
792.020	0.0173734
792.098	0.0174373
792.176	0.0175115
792.254	0.0178053
792.332	0.0178650
792.410	0.0180576
792.488	0.0181937
792.567	0.0183468
792.645	0.0184966
792.723	0.0185745
792.801	0.0186922
792.879	0.0189696
792.957	0.0191505
793.035	0.0190577
793.113	0.0190074
793.192	0.0191496
793.270	0.0192593
793.348	0.0194180
793.426	0.0192374
793.504	0.0193305
793.582	0.0191928
793.660	0.0192662
793.738	0.0193439
793.817	0.0191975
793.895	0.0192086
793.973	0.0192555
794.051	0.0191605
794.129	0.0191377
794.207	0.0191706
794.285	0.0193057
794.363	0.0193508
794.442	0.0193091
794.520	0.0194702
794.598	0.0193291
794.676	0.0195206
794.754	0.0195528
794.832	0.0196228
794.910	0.0194848
794.988	0.0194666
795.067	0.0194780
795.145	0.0194450
795.223	0.0193194
795.301	0.0192159
795.379	0.0189780
795.457	0.0188824
795.535	0.0187612
795.613	0.0184687
795.692	0.0183167
795.770	0.0181772
795.848	0.0179964
795.926	0.0178751
796.004	0.0177032
796.082	0.0174577
796.160	0.0173039
796.238	0.0170962
796.317	0.0170372
796.395	0.0170334
796.473	0.0168730
796.551	0.0169500
796.629	0.0169615
796.707	0.0168825
796.785	0.0170247
796.863	0.0171323
796.942	0.0171682
797.020	0.0172288
797.098	0.0174854
797.176	0.0174152
797.254	0.0175365
797.332	0.0177005
797.410	0.0176856
797.488	0.0176985
797.567	0.0176198
797.645	0.0176945
797.723	0.0176273
797.801	0.0174934
797.879	0.0174736
797.957	0.0174454
798.035	0.0173802
798.113	0.0173805
798.192	0.0172961
798.270	0.0173304
798.348	0.0172114
798.426	0.0173264
798.504	0.0173528
798.582	0.0173919
798.660	0.0175388
798.738	0.0175536
798.817	0.0176466
798.895	0.0177195
798.973	0.0177985
799.051	0.0178284
799.129	0.0180668
799.207	0.0180116
799.285	0.0182594
799.363	0.0180850
799.442	0.0182304
799.520	0.0182819
799.598	0.0183245
799.676	0.0183137
799.754	0.0184053
799.832	0.0183456
799.910	0.0183574
799.988	0.0183884
800.067	0.0183109
800.145	0.0183341
800.223	0.0183884
800.301	0.0182959
800.379	0.0182402
800.457	0.0183161
800.535	0.0185310
800.613	0.0185320
800.692	0.0185703
800.770	0.0185890
800.848	0.0186494
800.926	0.0188390
801.004	0.0186900
801.082	0.0189362
801.160	0.0190405
801.238	0.0190637
801.317	0.0192272
801.395	0.0192094
801.473	0.0192928
801.551	0.0190815
801.629	0.0190321
801.707	0.0192368
801.785	0.0193564
801.863	0.0191335
801.942	0.0191013
802.020	0.0191378
802.098	0.0191206
802.176	0.0192015
802.254	0.0189325
802.332	0.0190678
802.410	0.0188578
802.488	0.0186272
802.567	0.0188181
802.645	0.0187962
802.723	0.0187457
802.801	0.0186175
802.879	0.0186356
802.957	0.0185762
803.035	0.0184280
803.113	0.0182974
803.192	0.0183961
803.270	0.0184039
803.348	0.0183564
803.426	0.0183507
803.504	0.0181686
803.582	0.0180906
803.660	0.0180242
803.738	0.0180324
803.817	0.0178534
803.895	0.0178727
803.973	0.0177893
804.051	0.0178060
804.129	0.0175907
804.207	0.0176851
804.285	0.0176183
804.363	0.0174057
804.442	0.0174184
804.520	0.0174364
804.598	0.0174751
804.676	0.0174091
804.754	0.0173716
804.832	0.0174053
804.910	0.0174931
804.988	0.0174622
805.067	0.0173213
805.145	0.0174882
805.223	0.0174430
805.301	0.0174666
805.379	0.0175786
805.457	0.0174791
805.535	0.0175876
805.613	0.0176115
805.692	0.0176862
805.770	0.0175492
805.848	0.0175523
805.926	0.0176958
806.004	0.0176920
806.082	0.0175555
806.160	0.0177075
806.238	0.0177021
806.317	0.0175681
806.395	0.0176600
806.473	0.0176647
806.551	0.0175941
806.629	0.0176162
806.707	0.0175558
806.785	0.0177987
806.863	0.0178200
806.942	0.0178458
807.020	0.0178046
807.098	0.0180523
807.176	0.0181053
807.254	0.0181367
807.332	0.0183121
807.410	0.0182478
807.488	0.0183619
807.567	0.0186021
807.645	0.0185812
807.723	0.0187609
807.801	0.0186171
807.879	0.0186340
807.957	0.0189023
808.035	0.0189063
808.113	0.0189560
808.192	0.0189005
808.270	0.0189812
808.348	0.0191457
808.426	0.0189366
808.504	0.0190434
808.582	0.0190226
808.660	0.0189655
808.738	0.0188810
808.817	0.0188432
808.895	0.0190456
808.973	0.0187669
809.051	0.0187081
809.129	0.0186734
809.207	0.0187836
809.285	0.0186499
809.363	0.0187015
809.442	0.0186190
809.520	0.0185423
809.598	0.0185310
809.676	0.0186209
809.754	0.0186505
809.832	0.0185949
809.910	0.0185025
809.988	0.0183482
810.067	0.0183401
810.145	0.0183894
810.223	0.0184750
810.301	0.0184222
810.379	0.0183118
810.457	0.0182604
810.535	0.0182765
810.613	0.0183291
810.692	0.0183044
810.770	0.0182906
810.848	0.0181966
810.926	0.0181723
811.004	0.0181974
811.082	0.0180621
811.160	0.0181453
811.238	0.0180827
811.317	0.0181141
811.395	0.0180613
811.473	0.0179855
811.551	0.0178193
811.629	0.0178711
811.707	0.0178683
811.785	0.0176269
811.863	0.0177438
811.942	0.0177459
812.020	0.0177068
812.098	0.0176078
812.176	0.0177144
812.254	0.0176733
812.332	0.0176888
812.410	0.0177715
812.488	0.0178152
812.567	0.0177882
812.645	0.0179196
812.723	0.0178504
812.801	0.0180490
812.879	0.0180158
812.957	0.0181103
813.035	0.0180471
813.113	0.0182874
813.192	0.0182054
813.270	0.0182657
813.348	0.0181201
813.426	0.0182756
813.504	0.0183006
813.582	0.0181996
813.660	0.0181101
813.738	0.0181495
813.817	0.0182022
813.895	0.0182568
813.973	0.0181319
814.051	0.0181023
814.129	0.0179726
814.207	0.0179868
814.285	0.0180215
814.363	0.0180267
814.442	0.0179512
814.520	0.0178845
814.598	0.0180004
814.676	0.0179031
814.754	0.0180701
814.832	0.0180850
814.910	0.0181003
814.988	0.0179912
815.067	0.0180074
815.145	0.0179848
815.223	0.0181542
815.301	0.0180766
815.379	0.0181242
815.457	0.0180461
815.535	0.0182047
815.613	0.0179913
815.692	0.0181198
815.770	0.0181902
815.848	0.0181071
815.926	0.0181519
816.004	0.0182755
816.082	0.0182395
816.160	0.0183450
816.238	0.0185253
816.317	0.0183729
816.395	0.0184812
816.473	0.0185121
816.551	0.0184716
816.629	0.0186831
816.707	0.0185468
816.785	0.0185476
816.863	0.0186816
816.942	0.0185367
817.020	0.0187207
817.098	0.0186328
817.176	0.0184254
817.254	0.0184754
817.332	0.0184636
817.410	0.0183635
817.488	0.0184181
817.567	0.0183363
817.645	0.0182316
817.723	0.0181115
817.801	0.0183569
817.879	0.0183853
817.957	0.0181916
818.035	0.0182867
818.113	0.0182738
818.192	0.0184434
818.270	0.0183729
818.348	0.0184103
818.426	0.0185523
818.504	0.0185041
818.582	0.0186446
818.660	0.0188036
818.738	0.0187894
818.817	0.0188860
818.895	0.0187330
818.973	0.0188248
819.051	0.0187940
819.129	0.0187440
819.207	0.0186771
819.285	0.0185097
819.363	0.0186546
819.442	0.0185270
819.520	0.0185314
819.598	0.0184425
819.676	0.0182373
819.754	0.0180833
819.832	0.0180160
819.910	0.0182018
819.988	0.0180529
820.067	0.0181267
820.145	0.0181070
820.223	0.0178982
820.301	0.0179710
820.379	0.0180107
820.457	0.0179829
820.535	0.0179474
820.613	0.0178709
820.692	0.0180323
820.770	0.0179687
820.848	0.0178330
820.926	0.0179965
821.004	0.0179537
821.082	0.0179704
821.160	0.0179139
821.238	0.0179907
821.317	0.0181103
821.395	0.0177261
821.473	0.0178041
821.551	0.0177296
821.629	0.0178199
821.707	0.0176541
821.785	0.0174632
821.863	0.0175741
821.942	0.0174734
822.020	0.0173253
822.098	0.0173344
822.176	0.0174147
822.254	0.0174164
822.332	0.0171732
822.410	0.0173396
822.488	0.0173184
822.567	0.0172092
822.645	0.0172645
822.723	0.0174429
822.801	0.0175014
822.879	0.0176799
822.957	0.0176783
823.035	0.0177216
823.113	0.0178812
823.192	0.0179124
823.270	0.0179494
823.348	0.0180234
823.426	0.0182685
823.504	0.0182872
823.582	0.0182852
823.660	0.0183896
823.738	0.0185082
823.817	0.0185896
823.895	0.0186127
823.973	0.0184894
824.051	0.0187679
824.129	0.0186044
824.207	0.0188091
824.285	0.0186831
824.363	0.0185245
824.442	0.0185903
824.520	0.0187492
824.598	0.0187919
824.676	0.0185484
824.754	0.0187338
824.832	0.0186548
824.910	0.0186154
824.988	0.0186800
825.067	0.0186069
825.145	0.0185415
825.223	0.0186536
825.301	0.0186671
825.379	0.0186782
825.457	0.0184551
825.535	0.0186218
825.613	0.0187090
825.692	0.0186100
825.770	0.0185223
825.848	0.0186148
825.926	0.0187119
826.004	0.0186026
826.082	0.0187633
826.160	0.0185837
826.238	0.0186237
826.317	0.0186856
826.395	0.0186472
826.473	0.0187035
826.551	0.0186904
826.629	0.0187312
826.707	0.0187413
826.785	0.0185947
826.863	0.0185813
826.942	0.0185641
827.020	0.0184517
827.098	0.0184187
827.176	0.0184212
827.254	0.0183942
827.332	0.0182901
827.410	0.0181455
827.488	0.0181283
827.567	0.0179871
827.645	0.0180089
827.723	0.0179892
827.801	0.0179246
827.879	0.0179904
827.957	0.0179765
828.035	0.0178558
828.113	0.0176939
828.192	0.0177842
828.270	0.0177776
828.348	0.0175026
828.426	0.0177055
828.504	0.0176158
828.582	0.0174929
828.660	0.0175758
828.738	0.0174489
828.817	0.0173476
828.895	0.0174038
828.973	0.0174287
829.051	0.0173484
829.129	0.0172365
829.207	0.0173040
829.285	0.0172681
829.363	0.0173077
829.442	0.0173113
829.520	0.0173282
829.598	0.0173248
829.676	0.0173991
829.754	0.0174295
829.832	0.0176113
829.910	0.0176164
829.988	0.0178473
830.067	0.0178603
830.145	0.0179270
830.223	0.0180454
830.301	0.0180553
830.379	0.0180668
830.457	0.0182769
830.535	0.0183176
830.613	0.0182926
830.692	0.0183186
830.770	0.0183660
830.848	0.0184515
830.926	0.0183846
831.004	0.0183413
831.082	0.0185287
831.160	0.0183577
831.238	0.0183902
831.317	0.0184283
831.395	0.0182182
831.473	0.0183073
831.551	0.0182828
831.629	0.0183540
831.707	0.0184882
831.785	0.0186043
831.863	0.0184531
831.942	0.0185026
832.020	0.0185221
832.098	0.0186674
832.176	0.0188321
832.254	0.0187434
832.332	0.0188832
832.410	0.0188168
832.488	0.0188043
832.567	0.0187659
832.645	0.0190121
832.723	0.0187663
832.801	0.0187614
832.879	0.0187676
832.957	0.0189442
833.035	0.0186610
833.113	0.0186015
833.192	0.0185763
833.270	0.0183649
833.348	0.0184716
833.426	0.0183876
833.504	0.0184172
833.582	0.0184503
833.660	0.0183195
833.738	0.0182613
833.817	0.0182992
833.895	0.0183709
833.973	0.0183419
834.051	0.0184569
834.129	0.0184825
834.207	0.0184003
834.285	0.0186187
834.363	0.0186153
834.442	0.0186413
834.520	0.0185255
834.598	0.0187056
834.676	0.0186028
834.754	0.0186219
834.832	0.0186182
834.910	0.0184016
834.988	0.0184937
835.067	0.0182831
835.145	0.0181889
835.223	0.0180530
835.301	0.0181438
835.379	0.0179186
835.457	0.0177589
835.535	0.0176083
835.613	0.0177106
835.692	0.0175078
835.770	0.0171706
835.848	0.0172012
835.926	0.0173223
836.004	0.0172853
836.082	0.0170961
836.160	0.0172710
836.238	0.0172115
836.317	0.0172984
836.395	0.0171094
836.473	0.0172263
836.551	0.0174449
836.629	0.0176518
836.707	0.0175710
836.785	0.0177422
836.863	0.0179005
836.942	0.0179507
837.020	0.0181111
837.098	0.0181955
837.176	0.0181631
837.254	0.0182871
837.332	0.0183640
837.410	0.0183966
837.488	0.0182164
837.567	0.0181893
837.645	0.0182180
837.723	0.0182700
837.801	0.0181315
837.879	0.0181607
837.957	0.0180629
838.035	0.0179322
838.113	0.0178933
838.192	0.0178297
838.270	0.0179272
838.348	0.0177377
838.426	0.0179968
838.504	0.0178573
838.582	0.0179085
838.660	0.0179169
838.738	0.0180148
838.817	0.0180507
838.895	0.0182487
838.973	0.0181809
839.051	0.0183986
839.129	0.0183884
839.207	0.0185168
839.285	0.0185870
839.363	0.0186844
839.442	0.0188261
839.520	0.0188174
839.598	0.0189456
839.676	0.0188837
839.754	0.0188987
839.832	0.0188752
839.910	0.0190641
839.988	0.0189734
840.067	0.0188626
840.145	0.0188092
840.223	0.0189174
840.301	0.0187174
840.379	0.0187051
840.457	0.0187157
840.535	0.0187520
840.613	0.0186499
840.692	0.0185873
840.770	0.0186885
840.848	0.0185101
840.926	0.0184434
841.004	0.0185134
841.082	0.0185065
841.160	0.0185713
841.238	0.0183218
841.317	0.0182571
841.395	0.0185176
841.473	0.0183932
841.551	0.0183369
841.629	0.0182610
841.707	0.0182195
841.785	0.0181192
841.863	0.0181506
841.942	0.0182189
842.020	0.0180920
842.098	0.0179888
842.176	0.0180682
842.254	0.0180624
842.332	0.0180178
842.410	0.0179038
842.488	0.0178577
842.567	0.0179246
842.645	0.0177948
842.723	0.0178605
842.801	0.0176478
842.879	0.0176805
842.957	0.0177468
843.035	0.0176444
843.113	0.0175169
843.192	0.0175680
843.270	0.0177084
843.348	0.0175737
843.426	0.0176563
843.504	0.0176814
843.582	0.0177187
843.660	0.0177767
843.738	0.0177985
843.817	0.0178152
843.895	0.0179415
843.973	0.0178880
844.051	0.0179021
844.129	0.0179931
844.207	0.0179623
844.285	0.0179220
844.363	0.0180212
844.442	0.0180186
844.520	0.0180457
844.598	0.0181150
844.676	0.0180345
844.754	0.0180602
844.832	0.0182551
844.910	0.0182231
844.988	0.0180813
845.067	0.0182391
845.145	0.0180556
845.223	0.0183197
845.301	0.0180559
845.379	0.0182020
845.457	0.0182053
845.535	0.0181827
845.613	0.0180894
845.692	0.0180652
845.770	0.0181859
845.848	0.0182230
845.926	0.0183196
846.004	0.0182250
846.082	0.0182569
846.160	0.0181664
846.238	0.0182295
846.317	0.0184180
846.395	0.0183013
846.473	0.0181654
846.551	0.0183795
846.629	0.0182828
846.707	0.0183101
846.785	0.0184375
846.863	0.0183187
846.942	0.0181651
847.020	0.0182917
847.098	0.0182274
847.176	0.0182960
847.254	0.0183187
847.332	0.0183084
847.410	0.0183438
847.488	0.0182989
847.567	0.0182712
847.645	0.0183573
847.723	0.0183091
847.801	0.0185529
847.879	0.0183924
847.957	0.0184454
848.035	0.0185747
848.113	0.0185380
848.192	0.0184814
848.270	0.0186127
848.348	0.0186281
848.426	0.0186197
848.504	0.0185540
848.582	0.0186485
848.660	0.0185937
848.738	0.0184281
848.817	0.0185098
848.895	0.0184161
848.973	0.0183405
849.051	0.0181821
849.129	0.0180961
849.207	0.0182277
849.285	0.0179485
849.363	0.0178923
849.442	0.0178279
849.520	0.0178158
849.598	0.0177911
849.676	0.0178494
849.754	0.0178515
849.832	0.0177727
849.910	0.0178277
849.988	0.0178419
850.067	0.0178622
850.145	0.0179238
850.223	0.0179501
850.301	0.0179826
850.379	0.0179448
850.457	0.0180992
850.535	0.0181986
850.613	0.0182487
850.692	0.0182295
850.770	0.0181863
850.848	0.0182726
850.926	0.0182372
851.004	0.0182958
851.082	0.0182821
851.160	0.0183492
851.238	0.0182543
851.317	0.0181597
851.395	0.0181151
851.473	0.0180676
851.551	0.0179453
851.629	0.0180554
851.707	0.0179270
851.785	0.0180037
851.863	0.0180541
851.942	0.0178968
852.020	0.0179743
852.098	0.0181536
852.176	0.0179589
852.254	0.0180540
852.332	0.0181118
852.410	0.0179556
852.488	0.0182217
852.567	0.0182649
852.645	0.0181506
852.723	0.0182093
852.801	0.0183666
852.879	0.0183216
852.957	0.0182154
853.035	0.0181886
853.113	0.0181401
853.192	0.0182651
853.270	0.0183865
853.348	0.0181994
853.426	0.0182878
853.504	0.0182495
853.582	0.0182623
853.660	0.0180806
853.738	0.0181583
853.817	0.0180994
853.895	0.0181320
853.973	0.0182308
854.051	0.0180212
854.129	0.0181395
854.207	0.0182308
854.285	0.0182151
854.363	0.0181125
854.442	0.0181438
854.520	0.0182374
854.598	0.0182277
854.676	0.0182352
854.754	0.0181824
854.832	0.0182827
854.910	0.0182526
854.988	0.0182424
855.067	0.0182109
855.145	0.0181534
855.223	0.0182884
855.301	0.0183096
855.379	0.0184262
855.457	0.0184464
855.535	0.0185103
855.613	0.0183106
855.692	0.0184573
855.770	0.0184250
855.848	0.0183676
855.926	0.0183488
856.004	0.0183808
856.082	0.0182691
856.160	0.0182724
856.238	0.0182034
856.317	0.0183067
856.395	0.0184130
856.473	0.0182145
856.551	0.0181567
856.629	0.0181187
856.707	0.0181674
856.785	0.0181925
856.863	0.0180851
856.942	0.0181832
857.020	0.0181368
857.098	0.0181615
857.176	0.0181915
857.254	0.0181610
857.332	0.0181402
857.410	0.0183321
857.488	0.0181792
857.567	0.0180253
857.645	0.0182481
857.723	0.0181499
857.801	0.0181059
857.879	0.0180197
857.957	0.0182864
858.035	0.0181300
858.113	0.0180944
858.192	0.0182311
858.270	0.0181297
858.348	0.0180643
858.426	0.0182352
858.504	0.0182394
858.582	0.0181838
858.660	0.0181810
858.738	0.0182006
858.817	0.0182404
858.895	0.0181841
858.973	0.0182655
859.051	0.0181483
859.129	0.0181933
859.207	0.0181786
859.285	0.0182434
859.363	0.0183121
859.442	0.0181193
859.520	0.0182673
859.598	0.0183151
859.676	0.0183802
859.754	0.0184859
859.832	0.0183960
859.910	0.0184432
859.988	0.0184276
860.067	0.0184729
860.145	0.0184426
860.223	0.0185313
860.301	0.0184150
860.379	0.0184447
860.457	0.0183575
860.535	0.0184271
860.613	0.0182844
860.692	0.0182812
860.770	0.0181972
860.848	0.0183133
860.926	0.0182384
861.004	0.0183040
861.082	0.0180759
861.160	0.0181905
861.238	0.0181577
861.317	0.0180877
861.395	0.0181170
861.473	0.0180167
861.551	0.0181698
861.629	0.0180862
861.707	0.0181351
861.785	0.0180418
861.863	0.0180337
861.942	0.0180167
862.020	0.0180765
862.098	0.0180029
862.176	0.0180643
862.254	0.0180963
862.332	0.0179609
862.410	0.0179041
862.488	0.0180373
862.567	0.0179781
862.645	0.0180499
862.723	0.0182850
862.801	0.0180604
862.879	0.0181004
862.957	0.0180465
863.035	0.0181708
863.113	0.0181524
863.192	0.0181738
863.270	0.0182767
863.348	0.0182671
863.426	0.0181390
863.504	0.0182670
863.582	0.0180786
863.660	0.0181396
863.738	0.0183056
863.817	0.0181281
863.895	0.0183250
863.973	0.0181374
864.051	0.0183050
864.129	0.0183404
864.207	0.0183178
864.285	0.0183301
864.363	0.0182898
864.442	0.0183132
864.520	0.0182103
864.598	0.0183652
864.676	0.0181994
864.754	0.0183601
864.832	0.0181278
864.910	0.0182356
864.988	0.0181647
865.067	0.0182280
865.145	0.0182348
865.223	0.0180916
865.301	0.0180939
865.379	0.0180486
865.457	0.0180671
865.535	0.0181503
865.613	0.0181297
865.692	0.0180923
865.770	0.0181740
865.848	0.0181037
865.926	0.0180389
866.004	0.0182069
866.082	0.0183291
866.160	0.0183962
866.238	0.0183649
866.317	0.0184787
866.395	0.0184812
866.473	0.0185213
866.551	0.0184684
866.629	0.0184815
866.707	0.0184697
866.785	0.0184651
866.863	0.0184804
866.942	0.0185336
867.020	0.0185552
867.098	0.0185146
867.176	0.0184728
867.254	0.0184391
867.332	0.0183119
867.410	0.0182253
867.488	0.0184552
867.567	0.0182718
867.645	0.0181900
867.723	0.0182549
867.801	0.0180895
867.879	0.0180437
867.957	0.0180576
868.035	0.0180758
868.113	0.0180732
868.192	0.0180374
868.270	0.0178456
868.348	0.0180093
868.426	0.0178672
868.504	0.0178379
868.582	0.0181070
868.660	0.0179684
868.738	0.0178800
868.817	0.0179013
868.895	0.0179369
868.973	0.0179717
869.051	0.0179948
869.129	0.0179207
869.207	0.0178145
869.285	0.0179488
869.363	0.0180140
869.442	0.0179350
869.520	0.0180360
869.598	0.0179631
869.676	0.0179287
869.754	0.0178919
869.832	0.0180560
869.910	0.0180276
869.988	0.0178596
870.067	0.0179134
870.145	0.0181339
870.223	0.0179514
870.301	0.0180919
870.379	0.0180145
870.457	0.0179797
870.535	0.0180878
870.613	0.0179606
870.692	0.0181395
870.770	0.0181371
870.848	0.0179906
870.926	0.0181738
871.004	0.0182684
871.082	0.0181982
871.160	0.0182771
871.238	0.0183391
871.317	0.0183443
871.395	0.0184302
871.473	0.0185346
871.551	0.0182899
871.629	0.0185571
871.707	0.0185537
871.785	0.0186176
871.863	0.0184605
871.942	0.0184105
872.020	0.0184522
872.098	0.0184649
872.176	0.0184473
872.254	0.0182961
872.332	0.0182633
872.410	0.0181264
872.488	0.0182467
872.567	0.0183498
872.645	0.0180787
872.723	0.0180373
872.801	0.0180711
872.879	0.0180579
872.957	0.0179458
873.035	0.0181470
873.113	0.0181183
873.192	0.0179932
873.270	0.0180583
873.348	0.0182420
873.426	0.0181817
873.504	0.0183288
873.582	0.0181874
873.660	0.0183012
873.738	0.0183790
873.817	0.0183144
873.895	0.0185207
873.973	0.0186341
874.051	0.0185555
874.129	0.0184860
874.207	0.0186616
874.285	0.0185973
874.363	0.0184946
874.442	0.0185905
874.520	0.0186081
874.598	0.0185634
874.676	0.0184566
874.754	0.0184592
874.832	0.0184660
874.910	0.0183176
874.988	0.0184518
875.067	0.0183003
875.145	0.0181385
875.223	0.0179558
875.301	0.0180629
875.379	0.0178081
875.457	0.0177901
875.535	0.0175544
875.613	0.0176765
875.692	0.0177443
875.770	0.0176728
875.848	0.0177283
875.926	0.0176817
876.004	0.0177052
876.082	0.0178207
876.160	0.0178658
876.238	0.0178855
876.317	0.0180027
876.395	0.0179455
876.473	0.0180441
876.551	0.0182192
876.629	0.0182444
876.707	0.0182082
876.785	0.0181830
876.863	0.0181652
876.942	0.0183975
877.020	0.0183023
877.098	0.0182162
877.176	0.0182583
877.254	0.0182615
877.332	0.0182072
877.410	0.0182516
877.488	0.0182352
877.567	0.0182236
877.645	0.0181979
877.723	0.0182951
877.801	0.0183027
877.879	0.0182692
877.957	0.0183173
878.035	0.0182201
878.113	0.0182222
878.192	0.0182177
878.270	0.0182049
878.348	0.0182092
878.426	0.0182539
878.504	0.0182010
878.582	0.0183149
878.660	0.0182960
878.738	0.0182339
878.817	0.0182688
878.895	0.0181829
878.973	0.0182374
879.051	0.0182420
879.129	0.0182011
879.207	0.0182201
879.285	0.0181007
879.363	0.0182037
879.442	0.0182883
879.520	0.0183568
879.598	0.0182344
879.676	0.0181403
879.754	0.0181217
879.832	0.0183059
879.910	0.0181953
879.988	0.0181670
880.067	0.0182243
880.145	0.0183257
880.223	0.0180547
880.301	0.0180897
880.379	0.0182299
880.457	0.0183065
880.535	0.0182238
880.613	0.0183319
880.692	0.0182948
880.770	0.0182422
880.848	0.0184421
880.926	0.0184982
881.004	0.0183781
881.082	0.0183488
881.160	0.0184397
881.238	0.0185659
881.317	0.0184021
881.395	0.0183521
881.473	0.0184516
881.551	0.0184779
881.629	0.0184642
881.707	0.0184071
881.785	0.0182486
881.863	0.0182796
881.942	0.0183062
882.020	0.0183253
882.098	0.0181451
882.176	0.0182617
882.254	0.0183182
882.332	0.0180540
882.410	0.0179655
882.488	0.0179922
882.567	0.0181966
882.645	0.0180319
882.723	0.0181422
882.801	0.0180713
882.879	0.0180797
882.957	0.0179919
883.035	0.0179769
883.113	0.0180290
883.192	0.0180412
883.270	0.0179218
883.348	0.0180386
883.426	0.0180193
883.504	0.0179247
883.582	0.0180191
883.660	0.0181355
883.738	0.0180614
883.817	0.0180695
883.895	0.0180116
883.973	0.0180602
884.051	0.0181364
884.129	0.0180598
884.207	0.0180909
884.285	0.0181983
884.363	0.0182599
884.442	0.0183096
884.520	0.0182283
884.598	0.0182478
884.676	0.0183213
884.754	0.0182692
884.832	0.0183086
884.910	0.0182642
884.988	0.0184463
885.067	0.0184557
885.145	0.0183648
885.223	0.0183038
885.301	0.0182730
885.379	0.0183413
885.457	0.0184721
885.535	0.0184759
885.613	0.0184902
885.692	0.0183700
885.770	0.0183064
885.848	0.0183537
885.926	0.0182566
886.004	0.0182523
886.082	0.0181784
886.160	0.0181173
886.238	0.0180507
886.317	0.0179637
886.395	0.0179702
886.473	0.0179703
886.551	0.0179232
886.629	0.0179462
886.707	0.0179559
886.785	0.0179055
886.863	0.0178882
886.942	0.0180231
887.020	0.0180323
887.098	0.0179917
887.176	0.0179757
887.254	0.0182022
887.332	0.0180513
887.410	0.0179920
887.488	0.0181342
887.567	0.0182491
887.645	0.0181808
887.723	0.0181611
887.801	0.0182127
887.879	0.0182495
887.957	0.0182012
888.035	0.0182060
888.113	0.0183652
888.192	0.0183134
888.270	0.0182410
888.348	0.0182661
888.426	0.0183649
888.504	0.0182642
888.582	0.0184406
888.660	0.0183405
888.738	0.0182433
888.817	0.0183256
888.895	0.0183500
888.973	0.0183621
889.051	0.0181419
889.129	0.0181477
889.207	0.0182225
889.285	0.0181107
889.363	0.0180469
889.442	0.0181149
889.520	0.0181586
889.598	0.0179719
889.676	0.0181106
889.754	0.0182079
889.832	0.0182741
889.910	0.0181668
889.988	0.0182179
890.067	0.0182944
890.145	0.0182781
890.223	0.0183009
890.301	0.0184924
890.379	0.0183327
890.457	0.0182262
890.535	0.0182640
890.613	0.0183855
890.692	0.0182454
890.770	0.0181453
890.848	0.0182199
890.926	0.0181512
891.004	0.0179322
891.082	0.0179955
891.160	0.0181030
891.238	0.0180602
891.317	0.0181165
891.395	0.0180940
891.473	0.0181815
891.551	0.0180994
891.629	0.0182067
891.707	0.0181230
891.785	0.0181040
891.863	0.0182343
891.942	0.0182839
892.020	0.0181338
892.098	0.0182235
892.176	0.0182710
892.254	0.0182738
892.332	0.0183302
892.410	0.0183466
892.488	0.0184227
892.567	0.0182598
892.645	0.0182420
892.723	0.0181702
892.801	0.0183327
892.879	0.0182452
892.957	0.0180843
893.035	0.0182216
893.113	0.0181461
893.192	0.0180663
893.270	0.0180540
893.348	0.0179202
893.426	0.0178960
893.504	0.0181333
893.582	0.0180832
893.660	0.0180281
893.738	0.0180788
893.817	0.0180084
893.895	0.0181010
893.973	0.0179415
894.051	0.0181060
894.129	0.0180427
894.207	0.0182451
894.285	0.0181909
894.363	0.0181544
894.442	0.0182065
894.520	0.0182176
894.598	0.0181757
894.676	0.0182892
894.754	0.0182023
894.832	0.0180672
894.910	0.0181979
894.988	0.0182816
895.067	0.0182623
895.145	0.0182389
895.223	0.0181451
895.301	0.0181537
895.379	0.0182068
895.457	0.0182352
895.535	0.0181950
895.613	0.0182261
895.692	0.0181559
895.770	0.0181905
895.848	0.0182668
895.926	0.0180764
896.004	0.0181219
896.082	0.0181478
896.160	0.0181074
896.238	0.0180912
896.317	0.0180516
896.395	0.0180240
896.473	0.0179729
896.551	0.0179684
896.629	0.0178078
896.707	0.0178315
896.785	0.0179552
896.863	0.0181177
896.942	0.0179946
897.020	0.0178571
897.098	0.0180192
897.176	0.0181333
897.254	0.0181497
897.332	0.0181773
897.410	0.0182200
897.488	0.0183987
897.567	0.0183376
897.645	0.0183517
897.723	0.0182571
897.801	0.0184196
897.879	0.0183459
897.957	0.0184476
898.035	0.0184934
898.113	0.0183025
898.192	0.0183033
898.270	0.0185204
898.348	0.0183651
898.426	0.0183975
898.504	0.0184921
898.582	0.0183834
898.660	0.0183890
898.738	0.0184371
898.817	0.0183120
898.895	0.0183728
898.973	0.0183372
899.051	0.0183473
899.129	0.0183954
899.207	0.0183162
899.285	0.0183383
899.363	0.0183596
899.442	0.0181552
899.520	0.0181084
899.598	0.0180719
899.676	0.0181422
899.754	0.0183466
899.832	0.0181386
899.910	0.0181664
899.988	0.0181442
900.067	0.0182218
900.145	0.0181356
900.223	0.0180862
900.301	0.0181000
900.379	0.0182037
900.457	0.0181723
900.535	0.0180988
900.613	0.0181110
900.692	0.0181336
900.770	0.0180635
900.848	0.0179819
900.926	0.0181226
901.004	0.0180908
901.082	0.0181028
901.160	0.0180349
901.238	0.0179593
901.317	0.0179144
901.395	0.0179294
901.473	0.0180479
901.551	0.0181349
901.629	0.0179482
901.707	0.0180804
901.785	0.0180323
901.863	0.0181464
901.942	0.0181837
902.020	0.0181369
902.098	0.0181776
902.176	0.0181408
902.254	0.0182899
902.332	0.0181387
902.410	0.0181744
902.488	0.0182061
902.567	0.0182154
902.645	0.0181756
902.723	0.0182013
902.801	0.0181990
902.879	0.0182866
902.957	0.0183250
903.035	0.0183029
903.113	0.0182475
903.192	0.0183372
903.270	0.0182189
903.348	0.0182892
903.426	0.0181731
903.504	0.0181090
903.582	0.0181689
903.660	0.0181364
903.738	0.0180438
903.817	0.0180676
903.895	0.0181715
903.973	0.0180465
904.051	0.0179903
904.129	0.0180485
904.207	0.0180647
904.285	0.0180375
904.363	0.0183212
904.442	0.0182058
904.520	0.0181896
904.598	0.0182099
904.676	0.0182919
904.754	0.0183498
904.832	0.0181953
904.910	0.0183936
904.988	0.0183459
905.067	0.0185023
905.145	0.0184773
905.223	0.0183253
905.301	0.0184190
905.379	0.0184634
905.457	0.0183157
905.535	0.0184142
905.613	0.0184361
905.692	0.0184032
905.770	0.0182598
905.848	0.0183191
905.926	0.0182833
906.004	0.0182968
906.082	0.0183712
906.160	0.0181242
906.238	0.0181637
906.317	0.0181538
906.395	0.0179327
906.473	0.0181530
906.551	0.0180704
906.629	0.0178959
906.707	0.0179400
906.785	0.0181533
906.863	0.0180718
906.942	0.0178886
907.020	0.0180567
907.098	0.0181802
907.176	0.0180577
907.254	0.0181020
907.332	0.0180737
907.410	0.0180792
907.488	0.0181945
907.567	0.0182290
907.645	0.0181641
907.723	0.0181826
907.801	0.0182358
907.879	0.0182651
907.957	0.0183327
908.035	0.0183174
908.113	0.0182545
908.192	0.0183491
908.270	0.0183006
908.348	0.0183388
908.426	0.0183649
908.504	0.0182683
908.582	0.0182684
908.660	0.0184552
908.738	0.0182552
908.817	0.0182542
908.895	0.0182759
908.973	0.0182698
909.051	0.0182605
909.129	0.0182281
909.207	0.0181945
909.285	0.0181404
909.363	0.0182221
909.442	0.0181813
909.520	0.0182672
909.598	0.0182307
909.676	0.0182250
909.754	0.0183024
909.832	0.0182916
909.910	0.0180997
909.988	0.0181937
910.067	0.0181914
910.145	0.0180315
910.223	0.0182305
910.301	0.0180666
910.379	0.0179980
910.457	0.0180181
910.535	0.0181116
910.613	0.0179716
910.692	0.0179869
910.770	0.0178345
910.848	0.0179182
910.926	0.0180479
911.004	0.0179678
911.082	0.0180860
911.160	0.0181907
911.238	0.0180886
911.317	0.0181661
911.395	0.0181682
911.473	0.0181338
911.551	0.0182610
911.629	0.0181676
911.707	0.0182404
911.785	0.0182738
911.863	0.0182595
911.942	0.0183858
912.020	0.0182947
912.098	0.0182842
912.176	0.0184022
912.254	0.0182481
912.332	0.0182610
912.410	0.0181854
912.488	0.0182655
912.567	0.0182335
912.645	0.0180317
912.723	0.0180537
912.801	0.0180382
912.879	0.0181270
912.957	0.0180664
913.035	0.0178323
913.113	0.0180389
913.192	0.0180593
913.270	0.0179533
913.348	0.0179641
913.426	0.0179583
913.504	0.0180072
913.582	0.0181023
913.660	0.0181028
913.738	0.0182234
913.817	0.0181949
913.895	0.0181155
913.973	0.0182198
914.051	0.0181092
914.129	0.0182731
914.207	0.0182545
914.285	0.0182968
914.363	0.0183375
914.442	0.0182108
914.520	0.0181673
914.598	0.0182676
914.676	0.0182952
914.754	0.0180759
914.832	0.0182483
914.910	0.0183574
914.988	0.0182867
915.067	0.0183949
915.145	0.0184624
915.223	0.0183846
915.301	0.0184701
915.379	0.0185104
915.457	0.0184911
915.535	0.0183204
915.613	0.0186063
915.692	0.0184422
915.770	0.0184303
915.848	0.0183403
915.926	0.0183612
916.004	0.0181079
916.082	0.0182047
916.160	0.0182569
916.238	0.0181477
916.317	0.0181530
916.395	0.0181910
916.473	0.0182166
916.551	0.0181839
916.629	0.0183133
916.707	0.0181699
916.785	0.0181392
916.863	0.0182566
916.942	0.0181206
917.020	0.0182849
917.098	0.0183565
917.176	0.0181834
917.254	0.0181371
917.332	0.0180387
917.410	0.0181262
917.488	0.0180230
917.567	0.0180110
917.645	0.0179697
917.723	0.0179981
917.801	0.0178239
917.879	0.0179975
917.957	0.0178673
918.035	0.0178538
918.113	0.0179125
918.192	0.0178933
918.270	0.0179717
918.348	0.0180766
918.426	0.0179566
918.504	0.0180138
918.582	0.0180515
918.660	0.0179186
918.738	0.0181464
918.817	0.0181866
918.895	0.0182124
918.973	0.0181343
919.051	0.0181409
919.129	0.0182774
919.207	0.0181796
919.285	0.0182463
919.363	0.0182172
919.442	0.0181789
919.520	0.0182458
919.598	0.0183285
919.676	0.0182712
919.754	0.0182487
919.832	0.0182359
919.910	0.0182063
