06/01/2022	21:52:23	Ver.	4.1	UNKNOWN
Optical Delay	599.988409	Delta X		0.078125	Sweeps	1	Scan Rate	0/0
Coordinates	Axis 1	NaN	Axis 2	NaN	Axis 3	NaN	Axis 4	NaN	Axis 5	NaN	Axis 6	0.000000
TX Power	0.000000	RX Power	0.000000

599.988	0.0177971
600.067	0.0178337
600.145	0.0178130
600.223	0.0177614
600.301	0.0178391
600.379	0.0178798
600.457	0.0178548
600.535	0.0180182
600.613	0.0178753
600.692	0.0176963
600.770	0.0177537
600.848	0.0178400
600.926	0.0177703
601.004	0.0177117
601.082	0.0177374
601.160	0.0178378
601.238	0.0178151
601.317	0.0178218
601.395	0.0178654
601.473	0.0178046
601.551	0.0178197
601.629	0.0177538
601.707	0.0178866
601.785	0.0178117
601.863	0.0178584
601.942	0.0178576
602.020	0.0178273
602.098	0.0177565
602.176	0.0179129
602.254	0.0177855
602.332	0.0177466
602.410	0.0179457
602.488	0.0177831
602.567	0.0178027
602.645	0.0177973
602.723	0.0178824
602.801	0.0177914
602.879	0.0177089
602.957	0.0176529
603.035	0.0178261
603.113	0.0178427
603.192	0.0177599
603.270	0.0177813
603.348	0.0177607
603.426	0.0179507
603.504	0.0178042
603.582	0.0177250
603.660	0.0178369
603.738	0.0177691
603.817	0.0178212
603.895	0.0177791
603.973	0.0178218
604.051	0.0177060
604.129	0.0176591
604.207	0.0178367
604.285	0.0178544
604.363	0.0177583
604.442	0.0177721
604.520	0.0178001
604.598	0.0176694
604.676	0.0177895
604.754	0.0177290
604.832	0.0177875
604.910	0.0178630
604.988	0.0178113
605.067	0.0177336
605.145	0.0177458
605.223	0.0179294
605.301	0.0178041
605.379	0.0176907
605.457	0.0177621
605.535	0.0179229
605.613	0.0177612
605.692	0.0177202
605.770	0.0179334
605.848	0.0177781
605.926	0.0177239
606.004	0.0178482
606.082	0.0177628
606.160	0.0176519
606.238	0.0178183
606.317	0.0177577
606.395	0.0178189
606.473	0.0178212
606.551	0.0176329
606.629	0.0178359
606.707	0.0178696
606.785	0.0178573
606.863	0.0178054
606.942	0.0177637
607.020	0.0179642
607.098	0.0178147
607.176	0.0178276
607.254	0.0177421
607.332	0.0178501
607.410	0.0177827
607.488	0.0177891
607.567	0.0177670
607.645	0.0177177
607.723	0.0178934
607.801	0.0178078
607.879	0.0177557
607.957	0.0179318
608.035	0.0178208
608.113	0.0179018
608.192	0.0179073
608.270	0.0177851
608.348	0.0178735
608.426	0.0178999
608.504	0.0178339
608.582	0.0177715
608.660	0.0178030
608.738	0.0177592
608.817	0.0177784
608.895	0.0178070
608.973	0.0178271
609.051	0.0178828
609.129	0.0177998
609.207	0.0177119
609.285	0.0179070
609.363	0.0177842
609.442	0.0177039
609.520	0.0178129
609.598	0.0178387
609.676	0.0177261
609.754	0.0178552
609.832	0.0179566
609.910	0.0177425
609.988	0.0179709
610.067	0.0178122
610.145	0.0178145
610.223	0.0178042
610.301	0.0178326
610.379	0.0178783
610.457	0.0178179
610.535	0.0177959
610.613	0.0179982
610.692	0.0178038
610.770	0.0179036
610.848	0.0179446
610.926	0.0177901
611.004	0.0177981
611.082	0.0178982
611.160	0.0178465
611.238	0.0179148
611.317	0.0179894
611.395	0.0178316
611.473	0.0178125
611.551	0.0177625
611.629	0.0179362
611.707	0.0180025
611.785	0.0178850
611.863	0.0176997
611.942	0.0178634
612.020	0.0180059
612.098	0.0178265
612.176	0.0178344
612.254	0.0178279
612.332	0.0178863
612.410	0.0179658
612.488	0.0178435
612.567	0.0178413
612.645	0.0177677
612.723	0.0177691
612.801	0.0179037
612.879	0.0177337
612.957	0.0178262
613.035	0.0178898
613.113	0.0178304
613.192	0.0178432
613.270	0.0177132
613.348	0.0178158
613.426	0.0178861
613.504	0.0177470
613.582	0.0176810
613.660	0.0176382
613.738	0.0178205
613.817	0.0178077
613.895	0.0176588
613.973	0.0178629
614.051	0.0178032
614.129	0.0178759
614.207	0.0177493
614.285	0.0176990
614.363	0.0179615
614.442	0.0178841
614.520	0.0178794
614.598	0.0177140
614.676	0.0179141
614.754	0.0177558
614.832	0.0178220
614.910	0.0178249
614.988	0.0178567
615.067	0.0176906
615.145	0.0177764
615.223	0.0178049
615.301	0.0178831
615.379	0.0175935
615.457	0.0177606
615.535	0.0177990
615.613	0.0176847
615.692	0.0177365
615.770	0.0178513
615.848	0.0179153
615.926	0.0177406
616.004	0.0177902
616.082	0.0178413
616.160	0.0178909
616.238	0.0177707
616.317	0.0177297
616.395	0.0179340
616.473	0.0178159
616.551	0.0176865
616.629	0.0176933
616.707	0.0178770
616.785	0.0176689
616.863	0.0176957
616.942	0.0177700
617.020	0.0177975
617.098	0.0178099
617.176	0.0178320
617.254	0.0177338
617.332	0.0178600
617.410	0.0178726
617.488	0.0177606
617.567	0.0178082
617.645	0.0177484
617.723	0.0176571
617.801	0.0177809
617.879	0.0178377
617.957	0.0179034
618.035	0.0178043
618.113	0.0178866
618.192	0.0178550
618.270	0.0177693
618.348	0.0177137
618.426	0.0178773
618.504	0.0178233
618.582	0.0177271
618.660	0.0178048
618.738	0.0178134
618.817	0.0178485
618.895	0.0178371
618.973	0.0177061
619.051	0.0176196
619.129	0.0177438
619.207	0.0178459
619.285	0.0179115
619.363	0.0179517
619.442	0.0177870
619.520	0.0177863
619.598	0.0178183
619.676	0.0178003
619.754	0.0178563
619.832	0.0179339
619.910	0.0178218
619.988	0.0178275
620.067	0.0175906
620.145	0.0178682
620.223	0.0177206
620.301	0.0177732
620.379	0.0177091
620.457	0.0177857
620.535	0.0177956
620.613	0.0177574
620.692	0.0178055
620.770	0.0177966
620.848	0.0178085
620.926	0.0178815
621.004	0.0177379
621.082	0.0178201
621.160	0.0177158
621.238	0.0177574
621.317	0.0178315
621.395	0.0176855
621.473	0.0178047
621.551	0.0177731
621.629	0.0178516
621.707	0.0177473
621.785	0.0178103
621.863	0.0178198
621.942	0.0178363
622.020	0.0176899
622.098	0.0177967
622.176	0.0178281
622.254	0.0179191
622.332	0.0178087
622.410	0.0177488
622.488	0.0178484
622.567	0.0177174
622.645	0.0178084
622.723	0.0177924
622.801	0.0177993
622.879	0.0176740
622.957	0.0177747
623.035	0.0177960
623.113	0.0178492
623.192	0.0177492
623.270	0.0177709
623.348	0.0178678
623.426	0.0179068
623.504	0.0178160
623.582	0.0177959
623.660	0.0178439
623.738	0.0178767
623.817	0.0177125
623.895	0.0177026
623.973	0.0177505
624.051	0.0176985
624.129	0.0179137
624.207	0.0178510
624.285	0.0177737
624.363	0.0179446
624.442	0.0177159
624.520	0.0178445
624.598	0.0178242
624.676	0.0178204
624.754	0.0178979
624.832	0.0177863
624.910	0.0177193
624.988	0.0179681
625.067	0.0177838
625.145	0.0177764
625.223	0.0176759
625.301	0.0176527
625.379	0.0178938
625.457	0.0177874
625.535	0.0178714
625.613	0.0177502
625.692	0.0178120
625.770	0.0178260
625.848	0.0178089
625.926	0.0177330
626.004	0.0177797
626.082	0.0177413
626.160	0.0177443
626.238	0.0177216
626.317	0.0178535
626.395	0.0177920
626.473	0.0178260
626.551	0.0177650
626.629	0.0177885
626.707	0.0177689
626.785	0.0178273
626.863	0.0176460
626.942	0.0177650
627.020	0.0178342
627.098	0.0179021
627.176	0.0177692
627.254	0.0177516
627.332	0.0177330
627.410	0.0178581
627.488	0.0177258
627.567	0.0177390
627.645	0.0179537
627.723	0.0179215
627.801	0.0179259
627.879	0.0177947
627.957	0.0176690
628.035	0.0178198
628.113	0.0178537
628.192	0.0178928
628.270	0.0177237
628.348	0.0177471
628.426	0.0177911
628.504	0.0177411
628.582	0.0177062
628.660	0.0177876
628.738	0.0178247
628.817	0.0178525
628.895	0.0177289
628.973	0.0177978
629.051	0.0179021
629.129	0.0179651
629.207	0.0178439
629.285	0.0177462
629.363	0.0176820
629.442	0.0177312
629.520	0.0178139
629.598	0.0178839
629.676	0.0178379
629.754	0.0177467
629.832	0.0179467
629.910	0.0178360
629.988	0.0177451
630.067	0.0179234
630.145	0.0178047
630.223	0.0178546
630.301	0.0178394
630.379	0.0176571
630.457	0.0177913
630.535	0.0178575
630.613	0.0177888
630.692	0.0177868
630.770	0.0178068
630.848	0.0178403
630.926	0.0177051
631.004	0.0177990
631.082	0.0178128
631.160	0.0176535
631.238	0.0177415
631.317	0.0177473
631.395	0.0177843
631.473	0.0178596
631.551	0.0178407
631.629	0.0177725
631.707	0.0177803
631.785	0.0177357
631.863	0.0178519
631.942	0.0178725
632.020	0.0178362
632.098	0.0178137
632.176	0.0178107
632.254	0.0178598
632.332	0.0178197
632.410	0.0178237
632.488	0.0178337
632.567	0.0179202
632.645	0.0178815
632.723	0.0177860
632.801	0.0178207
632.879	0.0178510
632.957	0.0178233
633.035	0.0178702
633.113	0.0179497
633.192	0.0177576
633.270	0.0177688
633.348	0.0177811
633.426	0.0178154
633.504	0.0178350
633.582	0.0177746
633.660	0.0178453
633.738	0.0179266
633.817	0.0178432
633.895	0.0178841
633.973	0.0178452
634.051	0.0177748
634.129	0.0178935
634.207	0.0178254
634.285	0.0177988
634.363	0.0178541
634.442	0.0179235
634.520	0.0177903
634.598	0.0179651
634.676	0.0180042
634.754	0.0177857
634.832	0.0177766
634.910	0.0177567
634.988	0.0177641
635.067	0.0178245
635.145	0.0177585
635.223	0.0178664
635.301	0.0178091
635.379	0.0177766
635.457	0.0177785
635.535	0.0178363
635.613	0.0178894
635.692	0.0178133
635.770	0.0177763
635.848	0.0178359
635.926	0.0178932
636.004	0.0178711
636.082	0.0177956
636.160	0.0178471
636.238	0.0178005
636.317	0.0178262
636.395	0.0178590
636.473	0.0178477
636.551	0.0178503
636.629	0.0177467
636.707	0.0176984
636.785	0.0177568
636.863	0.0177287
636.942	0.0176637
637.020	0.0177740
637.098	0.0177873
637.176	0.0177807
637.254	0.0176672
637.332	0.0176392
637.410	0.0177801
637.488	0.0178501
637.567	0.0179159
637.645	0.0178715
637.723	0.0177174
637.801	0.0179080
637.879	0.0178561
637.957	0.0178709
638.035	0.0178364
638.113	0.0179424
638.192	0.0178014
638.270	0.0177946
638.348	0.0178352
638.426	0.0178072
638.504	0.0177439
638.582	0.0177686
638.660	0.0176650
638.738	0.0177199
638.817	0.0178223
638.895	0.0178150
638.973	0.0176626
639.051	0.0177856
639.129	0.0178076
639.207	0.0177792
639.285	0.0178042
639.363	0.0177752
639.442	0.0178584
639.520	0.0178576
639.598	0.0178354
639.676	0.0177543
639.754	0.0177976
639.832	0.0178514
639.910	0.0177831
639.988	0.0178384
640.067	0.0177992
640.145	0.0178085
640.223	0.0178421
640.301	0.0177512
640.379	0.0177385
640.457	0.0177369
640.535	0.0177881
640.613	0.0176741
640.692	0.0177420
640.770	0.0178239
640.848	0.0177519
640.926	0.0176806
641.004	0.0176525
641.082	0.0177769
641.160	0.0178754
641.238	0.0177706
641.317	0.0177140
641.395	0.0178791
641.473	0.0177095
641.551	0.0177882
641.629	0.0178962
641.707	0.0178474
641.785	0.0177112
641.863	0.0176980
641.942	0.0177562
642.020	0.0178191
642.098	0.0178146
642.176	0.0177775
642.254	0.0177964
642.332	0.0179523
642.410	0.0178164
642.488	0.0176871
642.567	0.0177880
642.645	0.0177021
642.723	0.0177354
642.801	0.0177039
642.879	0.0177003
642.957	0.0176132
643.035	0.0176569
643.113	0.0176159
643.192	0.0177613
643.270	0.0176788
643.348	0.0176196
643.426	0.0178824
643.504	0.0176748
643.582	0.0177396
643.660	0.0179317
643.738	0.0179496
643.817	0.0180069
643.895	0.0179289
643.973	0.0181038
644.051	0.0180128
644.129	0.0178404
644.207	0.0177457
644.285	0.0177811
644.363	0.0176431
644.442	0.0177168
644.520	0.0177362
644.598	0.0177155
644.676	0.0178180
644.754	0.0176563
644.832	0.0177814
644.910	0.0177743
644.988	0.0176894
645.067	0.0178017
645.145	0.0176926
645.223	0.0177543
645.301	0.0177734
645.379	0.0178522
645.457	0.0178554
645.535	0.0178045
645.613	0.0178559
645.692	0.0178884
645.770	0.0179027
645.848	0.0178349
645.926	0.0178788
646.004	0.0178861
646.082	0.0176881
646.160	0.0178242
646.238	0.0177316
646.317	0.0177673
646.395	0.0178426
646.473	0.0177637
646.551	0.0177622
646.629	0.0177539
646.707	0.0177637
646.785	0.0178281
646.863	0.0177792
646.942	0.0177428
647.020	0.0178152
647.098	0.0178342
647.176	0.0178236
647.254	0.0178802
647.332	0.0179147
647.410	0.0179256
647.488	0.0178341
647.567	0.0179308
647.645	0.0178197
647.723	0.0178306
647.801	0.0179268
647.879	0.0178559
647.957	0.0177805
648.035	0.0178098
648.113	0.0178159
648.192	0.0178280
648.270	0.0178791
648.348	0.0178970
648.426	0.0179184
648.504	0.0179401
648.582	0.0178632
648.660	0.0178841
648.738	0.0178996
648.817	0.0177481
648.895	0.0177360
648.973	0.0177944
649.051	0.0178879
649.129	0.0177589
649.207	0.0177496
649.285	0.0177602
649.363	0.0177177
649.442	0.0178748
649.520	0.0178662
649.598	0.0177202
649.676	0.0178738
649.754	0.0178053
649.832	0.0179607
649.910	0.0179003
649.988	0.0177792
650.067	0.0178264
650.145	0.0177554
650.223	0.0178476
650.301	0.0179142
650.379	0.0178222
650.457	0.0178555
650.535	0.0177837
650.613	0.0179028
650.692	0.0177474
650.770	0.0178004
650.848	0.0178641
650.926	0.0176976
651.004	0.0177945
651.082	0.0178387
651.160	0.0179089
651.238	0.0177693
651.317	0.0177866
651.395	0.0178664
651.473	0.0177129
651.551	0.0177892
651.629	0.0178747
651.707	0.0177843
651.785	0.0177712
651.863	0.0178102
651.942	0.0178708
652.020	0.0177676
652.098	0.0178690
652.176	0.0177906
652.254	0.0178400
652.332	0.0178133
652.410	0.0176903
652.488	0.0177586
652.567	0.0177492
652.645	0.0177753
652.723	0.0178821
652.801	0.0178440
652.879	0.0179916
652.957	0.0180152
653.035	0.0178500
653.113	0.0177886
653.192	0.0179294
653.270	0.0179559
653.348	0.0178877
653.426	0.0179141
653.504	0.0179424
653.582	0.0177943
653.660	0.0178613
653.738	0.0177609
653.817	0.0177464
653.895	0.0177293
653.973	0.0177070
654.051	0.0175738
654.129	0.0176737
654.207	0.0178118
654.285	0.0176571
654.363	0.0177244
654.442	0.0176963
654.520	0.0177749
654.598	0.0177869
654.676	0.0178828
654.754	0.0179014
654.832	0.0179516
654.910	0.0179652
654.988	0.0178943
655.067	0.0180299
655.145	0.0180630
655.223	0.0179360
655.301	0.0178725
655.379	0.0179330
655.457	0.0178976
655.535	0.0178464
655.613	0.0177525
655.692	0.0177314
655.770	0.0177471
655.848	0.0176406
655.926	0.0175784
656.004	0.0177734
656.082	0.0177544
656.160	0.0175944
656.238	0.0177765
656.317	0.0177197
656.395	0.0177515
656.473	0.0177219
656.551	0.0177682
656.629	0.0178304
656.707	0.0178976
656.785	0.0178269
656.863	0.0177535
656.942	0.0179415
657.020	0.0178544
657.098	0.0179169
657.176	0.0181136
657.254	0.0179098
657.332	0.0180148
657.410	0.0178358
657.488	0.0178738
657.567	0.0179492
657.645	0.0178585
657.723	0.0178442
657.801	0.0178602
657.879	0.0177538
657.957	0.0176774
658.035	0.0176067
658.113	0.0177584
658.192	0.0176141
658.270	0.0177785
658.348	0.0177293
658.426	0.0177939
658.504	0.0177638
658.582	0.0177131
658.660	0.0177569
658.738	0.0178699
658.817	0.0178609
658.895	0.0178462
658.973	0.0177775
659.051	0.0178559
659.129	0.0178354
659.207	0.0178345
659.285	0.0178130
659.363	0.0178515
659.442	0.0178715
659.520	0.0177520
659.598	0.0176131
659.676	0.0177541
659.754	0.0176524
659.832	0.0176761
659.910	0.0178026
659.988	0.0178931
660.067	0.0178614
660.145	0.0175822
660.223	0.0176376
660.301	0.0176938
660.379	0.0178516
660.457	0.0178881
660.535	0.0178690
660.613	0.0178103
660.692	0.0178651
660.770	0.0179275
660.848	0.0180605
660.926	0.0179919
661.004	0.0177394
661.082	0.0178647
661.160	0.0177435
661.238	0.0178365
661.317	0.0178817
661.395	0.0179191
661.473	0.0178368
661.551	0.0176563
661.629	0.0177831
661.707	0.0178025
661.785	0.0178199
661.863	0.0177905
661.942	0.0177321
662.020	0.0177850
662.098	0.0178473
662.176	0.0177719
662.254	0.0177877
662.332	0.0179417
662.410	0.0177425
662.488	0.0176144
662.567	0.0177904
662.645	0.0177486
662.723	0.0176987
662.801	0.0177957
662.879	0.0177276
662.957	0.0178036
663.035	0.0178172
663.113	0.0178035
663.192	0.0177605
663.270	0.0178455
663.348	0.0178056
663.426	0.0177647
663.504	0.0178532
663.582	0.0178309
663.660	0.0177752
663.738	0.0178432
663.817	0.0179079
663.895	0.0179636
663.973	0.0177457
664.051	0.0177818
664.129	0.0179234
664.207	0.0179372
664.285	0.0181017
664.363	0.0179225
664.442	0.0180203
664.520	0.0181347
664.598	0.0177931
664.676	0.0179076
664.754	0.0178935
664.832	0.0179387
664.910	0.0179247
664.988	0.0178955
665.067	0.0179345
665.145	0.0179181
665.223	0.0178457
665.301	0.0176506
665.379	0.0177452
665.457	0.0177927
665.535	0.0176411
665.613	0.0177750
665.692	0.0177977
665.770	0.0175980
665.848	0.0176590
665.926	0.0177199
666.004	0.0177083
666.082	0.0177083
666.160	0.0178189
666.238	0.0177246
666.317	0.0177821
666.395	0.0178600
666.473	0.0178249
666.551	0.0179652
666.629	0.0179466
666.707	0.0179449
666.785	0.0178938
666.863	0.0179150
666.942	0.0178781
667.020	0.0180003
667.098	0.0180405
667.176	0.0179557
667.254	0.0179816
667.332	0.0178094
667.410	0.0177632
667.488	0.0177382
667.567	0.0177639
667.645	0.0176859
667.723	0.0178663
667.801	0.0177302
667.879	0.0177132
667.957	0.0177187
668.035	0.0177771
668.113	0.0177113
668.192	0.0178276
668.270	0.0177934
668.348	0.0179053
668.426	0.0178880
668.504	0.0178600
668.582	0.0177975
668.660	0.0179099
668.738	0.0178879
668.817	0.0179059
668.895	0.0178500
668.973	0.0179424
669.051	0.0177928
669.129	0.0178697
669.207	0.0176787
669.285	0.0176591
669.363	0.0179074
669.442	0.0176663
669.520	0.0176839
669.598	0.0176349
669.676	0.0175942
669.754	0.0177576
669.832	0.0178549
669.910	0.0176198
669.988	0.0177332
670.067	0.0178201
670.145	0.0178064
670.223	0.0177552
670.301	0.0178134
670.379	0.0178052
670.457	0.0179424
670.535	0.0179492
670.613	0.0177708
670.692	0.0177996
670.770	0.0178444
670.848	0.0177350
670.926	0.0179423
671.004	0.0178828
671.082	0.0179095
671.160	0.0177979
671.238	0.0178342
671.317	0.0178582
671.395	0.0179267
671.473	0.0178651
671.551	0.0179362
671.629	0.0178741
671.707	0.0178200
671.785	0.0179493
671.863	0.0178318
671.942	0.0177729
672.020	0.0177658
672.098	0.0179323
672.176	0.0178407
672.254	0.0177673
672.332	0.0179488
672.410	0.0178780
672.488	0.0178577
672.567	0.0179917
672.645	0.0179201
672.723	0.0178459
672.801	0.0179005
672.879	0.0178946
672.957	0.0179242
673.035	0.0179143
673.113	0.0178035
673.192	0.0178335
673.270	0.0176861
673.348	0.0175477
673.426	0.0175398
673.504	0.0176389
673.582	0.0175060
673.660	0.0175349
673.738	0.0174759
673.817	0.0175643
673.895	0.0176667
673.973	0.0176379
674.051	0.0176228
674.129	0.0178511
674.207	0.0178667
674.285	0.0178919
674.363	0.0178950
674.442	0.0178281
674.520	0.0177805
674.598	0.0179507
674.676	0.0180266
674.754	0.0178813
674.832	0.0179541
674.910	0.0180455
674.988	0.0178245
675.067	0.0177768
675.145	0.0179016
675.223	0.0177686
675.301	0.0178110
675.379	0.0178134
675.457	0.0177866
675.535	0.0177955
675.613	0.0178035
675.692	0.0175510
675.770	0.0176508
675.848	0.0176408
675.926	0.0176196
676.004	0.0174448
676.082	0.0174438
676.160	0.0173965
676.238	0.0173717
676.317	0.0174001
676.395	0.0171579
676.473	0.0175349
676.551	0.0174126
676.629	0.0174836
676.707	0.0174174
676.785	0.0177040
676.863	0.0178774
676.942	0.0178286
677.020	0.0181741
677.098	0.0183351
677.176	0.0183582
677.254	0.0184598
677.332	0.0185292
677.410	0.0186988
677.488	0.0187914
677.567	0.0185911
677.645	0.0187366
677.723	0.0186704
677.801	0.0185354
677.879	0.0184058
677.957	0.0181379
678.035	0.0180496
678.113	0.0180663
678.192	0.0178365
678.270	0.0177532
678.348	0.0177056
678.426	0.0175440
678.504	0.0173937
678.582	0.0172366
678.660	0.0171537
678.738	0.0171986
678.817	0.0171347
678.895	0.0170638
678.973	0.0169196
679.051	0.0171390
679.129	0.0170615
679.207	0.0172318
679.285	0.0171740
679.363	0.0174540
679.442	0.0176603
679.520	0.0177761
679.598	0.0179008
679.676	0.0181389
679.754	0.0183398
679.832	0.0185452
679.910	0.0185825
679.988	0.0187501
680.067	0.0189052
680.145	0.0188525
680.223	0.0191094
680.301	0.0188474
680.379	0.0186804
680.457	0.0187052
680.535	0.0185132
680.613	0.0183923
680.692	0.0181197
680.770	0.0178318
680.848	0.0177299
680.926	0.0175316
681.004	0.0172157
681.082	0.0171622
681.160	0.0169116
681.238	0.0167290
681.317	0.0165405
681.395	0.0165121
681.473	0.0165732
681.551	0.0165030
681.629	0.0166844
681.707	0.0167323
681.785	0.0168777
681.863	0.0169537
681.942	0.0171085
682.020	0.0174226
682.098	0.0177067
682.176	0.0178780
682.254	0.0180357
682.332	0.0183783
682.410	0.0185655
682.488	0.0188235
682.567	0.0189845
682.645	0.0192517
682.723	0.0194266
682.801	0.0196961
682.879	0.0196311
682.957	0.0196078
683.035	0.0195481
683.113	0.0193832
683.192	0.0191720
683.270	0.0190215
683.348	0.0187286
683.426	0.0184716
683.504	0.0179328
683.582	0.0177744
683.660	0.0173408
683.738	0.0170561
683.817	0.0167498
683.895	0.0164536
683.973	0.0163040
684.051	0.0162212
684.129	0.0160020
684.207	0.0159067
684.285	0.0158553
684.363	0.0157980
684.442	0.0158243
684.520	0.0159747
684.598	0.0162366
684.676	0.0163879
684.754	0.0165916
684.832	0.0169314
684.910	0.0173914
684.988	0.0176212
685.067	0.0179118
685.145	0.0184155
685.223	0.0186809
685.301	0.0189677
685.379	0.0190919
685.457	0.0193817
685.535	0.0194936
685.613	0.0195985
685.692	0.0196142
685.770	0.0196253
685.848	0.0194964
685.926	0.0193832
686.004	0.0191756
686.082	0.0192204
686.160	0.0190456
686.238	0.0189006
686.317	0.0187067
686.395	0.0186155
686.473	0.0185033
686.551	0.0181449
686.629	0.0180351
686.707	0.0178770
686.785	0.0177805
686.863	0.0176295
686.942	0.0175393
687.020	0.0174155
687.098	0.0172552
687.176	0.0171458
687.254	0.0169057
687.332	0.0168096
687.410	0.0166858
687.488	0.0167305
687.567	0.0165178
687.645	0.0165210
687.723	0.0164571
687.801	0.0164307
687.879	0.0165707
687.957	0.0165370
688.035	0.0166167
688.113	0.0166106
688.192	0.0167207
688.270	0.0166335
688.348	0.0167604
688.426	0.0168438
688.504	0.0167919
688.582	0.0169420
688.660	0.0172051
688.738	0.0172295
688.817	0.0174026
688.895	0.0174513
688.973	0.0177655
689.051	0.0179277
689.129	0.0180604
689.207	0.0181517
689.285	0.0184507
689.363	0.0186836
689.442	0.0188772
689.520	0.0191895
689.598	0.0193159
689.676	0.0195578
689.754	0.0200214
689.832	0.0199683
689.910	0.0199610
689.988	0.0201321
690.067	0.0201290
690.145	0.0200249
690.223	0.0201326
690.301	0.0198644
690.379	0.0197202
690.457	0.0193343
690.535	0.0191735
690.613	0.0189481
690.692	0.0185754
690.770	0.0183186
690.848	0.0181140
690.926	0.0178157
691.004	0.0175467
691.082	0.0171635
691.160	0.0168731
691.238	0.0164912
691.317	0.0162309
691.395	0.0159982
691.473	0.0154807
691.551	0.0152352
691.629	0.0150017
691.707	0.0148307
691.785	0.0145374
691.863	0.0144273
691.942	0.0141622
692.020	0.0142428
692.098	0.0143560
692.176	0.0144495
692.254	0.0148331
692.332	0.0151958
692.410	0.0157131
692.488	0.0161235
692.567	0.0167278
692.645	0.0175190
692.723	0.0180746
692.801	0.0187681
692.879	0.0193120
692.957	0.0198920
693.035	0.0204072
693.113	0.0209335
693.192	0.0210870
693.270	0.0213059
693.348	0.0212569
693.426	0.0213577
693.504	0.0212164
693.582	0.0211442
693.660	0.0210318
693.738	0.0206962
693.817	0.0206623
693.895	0.0202983
693.973	0.0200502
694.051	0.0198423
694.129	0.0194183
694.207	0.0191088
694.285	0.0188634
694.363	0.0185737
694.442	0.0183051
694.520	0.0180251
694.598	0.0178790
694.676	0.0176743
694.754	0.0175330
694.832	0.0173244
694.910	0.0170115
694.988	0.0169241
695.067	0.0167495
695.145	0.0165590
695.223	0.0164460
695.301	0.0161837
695.379	0.0160908
695.457	0.0160974
695.535	0.0159519
695.613	0.0156026
695.692	0.0154574
695.770	0.0154093
695.848	0.0153994
695.926	0.0151427
696.004	0.0150629
696.082	0.0150536
696.160	0.0150369
696.238	0.0150039
696.317	0.0150475
696.395	0.0150393
696.473	0.0152862
696.551	0.0153365
696.629	0.0155196
696.707	0.0157586
696.785	0.0161845
696.863	0.0165410
696.942	0.0169662
697.020	0.0175318
697.098	0.0179279
697.176	0.0184557
697.254	0.0188967
697.332	0.0194207
697.410	0.0200456
697.488	0.0204250
697.567	0.0206963
697.645	0.0210358
697.723	0.0213738
697.801	0.0215804
697.879	0.0217303
697.957	0.0217633
698.035	0.0218050
698.113	0.0217513
698.192	0.0216867
698.270	0.0217029
698.348	0.0214839
698.426	0.0211236
698.504	0.0208667
698.582	0.0204768
698.660	0.0202631
698.738	0.0197992
698.817	0.0193563
698.895	0.0190289
698.973	0.0185768
699.051	0.0181707
699.129	0.0176830
699.207	0.0171569
699.285	0.0167962
699.363	0.0163136
699.442	0.0159307
699.520	0.0156287
699.598	0.0153399
699.676	0.0148519
699.754	0.0146422
699.832	0.0144372
699.910	0.0143064
699.988	0.0142455
700.067	0.0142546
700.145	0.0142010
700.223	0.0143593
700.301	0.0144786
700.379	0.0146274
700.457	0.0149770
700.535	0.0152129
700.613	0.0155184
700.692	0.0158309
700.770	0.0161404
700.848	0.0164405
700.926	0.0167155
701.004	0.0170248
701.082	0.0173041
701.160	0.0175137
701.238	0.0178490
701.317	0.0179404
701.395	0.0182587
701.473	0.0185339
701.551	0.0187074
701.629	0.0188886
701.707	0.0190823
701.785	0.0193112
701.863	0.0194209
701.942	0.0195147
702.020	0.0197956
702.098	0.0198331
702.176	0.0199438
702.254	0.0199875
702.332	0.0201094
702.410	0.0200734
702.488	0.0202199
702.567	0.0199666
702.645	0.0198921
702.723	0.0198164
702.801	0.0198948
702.879	0.0198076
702.957	0.0197338
703.035	0.0196069
703.113	0.0193404
703.192	0.0192377
703.270	0.0189124
703.348	0.0188215
703.426	0.0185486
703.504	0.0184670
703.582	0.0181905
703.660	0.0179960
703.738	0.0176965
703.817	0.0172600
703.895	0.0170807
703.973	0.0169293
704.051	0.0165453
704.129	0.0163586
704.207	0.0160675
704.285	0.0158555
704.363	0.0157549
704.442	0.0155126
704.520	0.0153235
704.598	0.0152119
704.676	0.0152509
704.754	0.0152870
704.832	0.0153071
704.910	0.0154994
704.988	0.0155691
705.067	0.0156404
705.145	0.0161127
705.223	0.0163118
705.301	0.0167714
705.379	0.0172623
705.457	0.0175718
705.535	0.0178649
705.613	0.0185035
705.692	0.0186948
705.770	0.0189484
705.848	0.0193788
705.926	0.0195934
706.004	0.0197292
706.082	0.0199078
706.160	0.0199539
706.238	0.0198077
706.317	0.0196745
706.395	0.0195702
706.473	0.0195240
706.551	0.0193898
706.629	0.0189373
706.707	0.0187948
706.785	0.0185278
706.863	0.0182822
706.942	0.0179995
707.020	0.0177325
707.098	0.0175065
707.176	0.0172083
707.254	0.0168655
707.332	0.0167839
707.410	0.0165524
707.488	0.0166243
707.567	0.0165824
707.645	0.0164710
707.723	0.0165287
707.801	0.0166940
707.879	0.0169714
707.957	0.0172773
708.035	0.0174946
708.113	0.0176913
708.192	0.0177349
708.270	0.0180062
708.348	0.0182742
708.426	0.0184296
708.504	0.0185950
708.582	0.0186988
708.660	0.0188052
708.738	0.0188171
708.817	0.0188566
708.895	0.0188853
708.973	0.0189085
709.051	0.0188039
709.129	0.0186467
709.207	0.0184320
709.285	0.0181712
709.363	0.0182541
709.442	0.0177976
709.520	0.0176146
709.598	0.0174344
709.676	0.0170951
709.754	0.0169675
709.832	0.0167023
709.910	0.0164876
709.988	0.0163113
710.067	0.0161771
710.145	0.0162730
710.223	0.0163623
710.301	0.0163369
710.379	0.0164374
710.457	0.0166682
710.535	0.0169147
710.613	0.0171143
710.692	0.0175204
710.770	0.0177550
710.848	0.0179919
710.926	0.0183188
711.004	0.0185939
711.082	0.0187411
711.160	0.0191531
711.238	0.0191646
711.317	0.0194022
711.395	0.0193451
711.473	0.0193655
711.551	0.0193411
711.629	0.0192111
711.707	0.0189491
711.785	0.0188294
711.863	0.0185071
711.942	0.0182989
712.020	0.0181721
712.098	0.0178368
712.176	0.0175526
712.254	0.0174685
712.332	0.0173816
712.410	0.0172779
712.488	0.0172095
712.567	0.0171206
712.645	0.0171972
712.723	0.0171308
712.801	0.0171549
712.879	0.0173948
712.957	0.0175594
713.035	0.0174857
713.113	0.0176032
713.192	0.0178287
713.270	0.0180365
713.348	0.0180421
713.426	0.0181980
713.504	0.0181649
713.582	0.0180485
713.660	0.0180698
713.738	0.0181052
713.817	0.0180344
713.895	0.0180265
713.973	0.0178403
714.051	0.0177655
714.129	0.0176057
714.207	0.0176171
714.285	0.0176862
714.363	0.0176792
714.442	0.0174090
714.520	0.0174792
714.598	0.0173032
714.676	0.0172412
714.754	0.0172457
714.832	0.0170950
714.910	0.0168839
714.988	0.0166940
715.067	0.0165257
715.145	0.0164776
715.223	0.0166029
715.301	0.0165258
715.379	0.0165103
715.457	0.0165314
715.535	0.0165753
715.613	0.0168623
715.692	0.0168944
715.770	0.0170855
715.848	0.0171685
715.926	0.0175314
716.004	0.0177208
716.082	0.0179379
716.160	0.0181239
716.238	0.0184936
716.317	0.0185081
716.395	0.0185401
716.473	0.0188522
716.551	0.0188787
716.629	0.0191379
716.707	0.0190939
716.785	0.0191054
716.863	0.0192664
716.942	0.0194145
717.020	0.0193471
717.098	0.0193208
717.176	0.0193475
717.254	0.0192991
717.332	0.0192268
717.410	0.0191309
717.488	0.0190224
717.567	0.0190179
717.645	0.0187104
717.723	0.0187291
717.801	0.0185879
717.879	0.0185109
717.957	0.0184505
718.035	0.0181822
718.113	0.0180791
718.192	0.0179602
718.270	0.0177898
718.348	0.0177339
718.426	0.0175227
718.504	0.0171878
718.582	0.0171749
718.660	0.0170753
718.738	0.0170221
718.817	0.0170214
718.895	0.0168348
718.973	0.0167568
719.051	0.0166839
719.129	0.0169207
719.207	0.0166861
719.285	0.0169080
719.363	0.0169415
719.442	0.0170663
719.520	0.0170583
719.598	0.0170744
719.676	0.0173061
719.754	0.0173788
719.832	0.0173605
719.910	0.0175586
719.988	0.0174449
720.067	0.0175473
720.145	0.0175228
720.223	0.0173119
720.301	0.0173761
720.379	0.0172942
720.457	0.0169609
720.535	0.0168208
720.613	0.0166628
720.692	0.0162981
720.770	0.0163466
720.848	0.0159243
720.926	0.0159344
721.004	0.0160615
721.082	0.0159290
721.160	0.0159106
721.238	0.0161752
721.317	0.0161980
721.395	0.0164900
721.473	0.0166058
721.551	0.0170845
721.629	0.0174063
721.707	0.0176365
721.785	0.0179922
721.863	0.0182699
721.942	0.0186873
722.020	0.0189325
722.098	0.0191788
722.176	0.0192904
722.254	0.0194291
722.332	0.0194130
722.410	0.0196149
722.488	0.0194837
722.567	0.0193987
722.645	0.0192508
722.723	0.0193770
722.801	0.0192927
722.879	0.0192850
722.957	0.0193177
723.035	0.0192596
723.113	0.0193495
723.192	0.0193562
723.270	0.0193940
723.348	0.0196277
723.426	0.0195345
723.504	0.0196412
723.582	0.0197210
723.660	0.0196922
723.738	0.0197418
723.817	0.0195298
723.895	0.0193407
723.973	0.0191560
724.051	0.0190836
724.129	0.0189400
724.207	0.0188551
724.285	0.0186443
724.363	0.0182558
724.442	0.0181476
724.520	0.0179798
724.598	0.0178757
724.676	0.0177101
724.754	0.0176376
724.832	0.0174841
724.910	0.0174165
724.988	0.0173849
725.067	0.0172501
725.145	0.0171645
725.223	0.0170021
725.301	0.0170284
725.379	0.0166302
725.457	0.0163566
725.535	0.0161997
725.613	0.0160399
725.692	0.0157930
725.770	0.0156291
725.848	0.0153794
725.926	0.0153086
726.004	0.0150144
726.082	0.0149949
726.160	0.0150127
726.238	0.0149128
726.317	0.0150545
726.395	0.0150490
726.473	0.0153135
726.551	0.0156034
726.629	0.0158520
726.707	0.0160635
726.785	0.0164874
726.863	0.0166695
726.942	0.0171706
727.020	0.0173843
727.098	0.0176199
727.176	0.0179128
727.254	0.0181101
727.332	0.0182263
727.410	0.0183394
727.488	0.0185344
727.567	0.0183817
727.645	0.0185500
727.723	0.0183712
727.801	0.0182467
727.879	0.0183997
727.957	0.0180068
728.035	0.0179691
728.113	0.0178828
728.192	0.0178625
728.270	0.0177045
728.348	0.0176461
728.426	0.0176691
728.504	0.0177182
728.582	0.0180152
728.660	0.0180141
728.738	0.0182837
728.817	0.0184151
728.895	0.0185642
728.973	0.0190706
729.051	0.0193284
729.129	0.0196158
729.207	0.0199565
729.285	0.0200156
729.363	0.0202107
729.442	0.0203214
729.520	0.0204575
729.598	0.0204485
729.676	0.0203399
729.754	0.0202155
729.832	0.0200352
729.910	0.0199687
729.988	0.0198354
730.067	0.0196301
730.145	0.0193766
730.223	0.0191919
730.301	0.0189307
730.379	0.0187258
730.457	0.0186263
730.535	0.0186065
730.613	0.0184322
730.692	0.0183923
730.770	0.0182979
730.848	0.0181583
730.926	0.0180963
731.004	0.0181564
731.082	0.0180884
731.160	0.0178083
731.238	0.0178687
731.317	0.0177334
731.395	0.0177635
731.473	0.0175983
731.551	0.0174042
731.629	0.0176620
731.707	0.0172160
731.785	0.0172897
731.863	0.0169592
731.942	0.0168794
732.020	0.0167171
732.098	0.0165842
732.176	0.0162812
732.254	0.0161865
732.332	0.0156771
732.410	0.0156126
732.488	0.0152737
732.567	0.0150596
732.645	0.0148392
732.723	0.0144710
732.801	0.0143073
732.879	0.0140811
732.957	0.0140394
733.035	0.0141385
733.113	0.0140977
733.192	0.0143066
733.270	0.0146793
733.348	0.0148270
733.426	0.0154271
733.504	0.0158179
733.582	0.0162466
733.660	0.0166490
733.738	0.0170823
733.817	0.0177491
733.895	0.0182224
733.973	0.0185401
734.051	0.0187266
734.129	0.0191580
734.207	0.0194035
734.285	0.0195107
734.363	0.0193995
734.442	0.0193142
734.520	0.0193606
734.598	0.0193111
734.676	0.0191646
734.754	0.0188977
734.832	0.0186688
734.910	0.0187095
734.988	0.0184776
735.067	0.0183309
735.145	0.0183327
735.223	0.0182345
735.301	0.0182242
735.379	0.0183054
735.457	0.0184193
735.535	0.0184006
735.613	0.0185879
735.692	0.0187371
735.770	0.0188421
735.848	0.0191113
735.926	0.0192728
736.004	0.0194817
736.082	0.0198118
736.160	0.0198078
736.238	0.0198717
736.317	0.0200745
736.395	0.0202313
736.473	0.0201874
736.551	0.0202226
736.629	0.0199487
736.707	0.0198991
736.785	0.0198046
736.863	0.0195815
736.942	0.0194585
737.020	0.0192420
737.098	0.0191431
737.176	0.0190370
737.254	0.0187427
737.332	0.0186507
737.410	0.0183901
737.488	0.0184076
737.567	0.0181844
737.645	0.0181779
737.723	0.0178259
737.801	0.0177342
737.879	0.0177892
737.957	0.0176710
738.035	0.0173675
738.113	0.0174199
738.192	0.0174245
738.270	0.0173271
738.348	0.0172243
738.426	0.0173186
738.504	0.0173389
738.582	0.0172369
738.660	0.0172176
738.738	0.0171886
738.817	0.0171103
738.895	0.0171418
738.973	0.0169069
739.051	0.0168563
739.129	0.0165912
739.207	0.0162652
739.285	0.0159659
739.363	0.0155991
739.442	0.0152467
739.520	0.0150095
739.598	0.0146561
739.676	0.0143189
739.754	0.0140164
739.832	0.0139382
739.910	0.0137452
739.988	0.0136961
740.067	0.0137568
740.145	0.0141497
740.223	0.0143173
740.301	0.0146019
740.379	0.0151096
740.457	0.0156387
740.535	0.0161343
740.613	0.0167037
740.692	0.0173091
740.770	0.0178447
740.848	0.0184028
740.926	0.0188677
741.004	0.0193192
741.082	0.0196362
741.160	0.0197379
741.238	0.0199946
741.317	0.0200297
741.395	0.0198949
741.473	0.0199531
741.551	0.0197947
741.629	0.0196436
741.707	0.0194702
741.785	0.0192138
741.863	0.0190047
741.942	0.0189213
742.020	0.0187357
742.098	0.0186083
742.176	0.0184036
742.254	0.0182855
742.332	0.0182663
742.410	0.0182767
742.488	0.0181582
742.567	0.0181581
742.645	0.0181430
742.723	0.0182999
742.801	0.0184582
742.879	0.0184895
742.957	0.0186697
743.035	0.0190080
743.113	0.0191985
743.192	0.0193946
743.270	0.0196321
743.348	0.0198342
743.426	0.0199816
743.504	0.0201044
743.582	0.0202599
743.660	0.0201712
743.738	0.0201994
743.817	0.0201350
743.895	0.0201169
743.973	0.0199321
744.051	0.0197536
744.129	0.0196024
744.207	0.0195171
744.285	0.0192706
744.363	0.0189729
744.442	0.0186251
744.520	0.0183926
744.598	0.0182458
744.676	0.0180765
744.754	0.0178674
744.832	0.0176482
744.910	0.0174208
744.988	0.0172963
745.067	0.0174030
745.145	0.0174086
745.223	0.0174161
745.301	0.0174742
745.379	0.0173981
745.457	0.0173802
745.535	0.0175514
745.613	0.0174826
745.692	0.0175137
745.770	0.0174869
745.848	0.0173660
745.926	0.0172169
746.004	0.0168990
746.082	0.0166864
746.160	0.0162507
746.238	0.0161781
746.317	0.0155474
746.395	0.0151650
746.473	0.0147007
746.551	0.0144009
746.629	0.0139545
746.707	0.0136301
746.785	0.0133194
746.863	0.0131255
746.942	0.0129086
747.020	0.0129451
747.098	0.0130164
747.176	0.0133755
747.254	0.0136794
747.332	0.0141176
747.410	0.0146011
747.488	0.0151610
747.567	0.0158962
747.645	0.0167912
747.723	0.0172523
747.801	0.0179469
747.879	0.0185379
747.957	0.0192152
748.035	0.0196683
748.113	0.0200771
748.192	0.0203601
748.270	0.0203938
748.348	0.0205101
748.426	0.0205369
748.504	0.0204080
748.582	0.0201077
748.660	0.0198679
748.738	0.0197305
748.817	0.0194493
748.895	0.0191354
748.973	0.0188468
749.051	0.0186373
749.129	0.0185593
749.207	0.0183722
749.285	0.0183681
749.363	0.0182883
749.442	0.0181733
749.520	0.0182286
749.598	0.0182181
749.676	0.0185931
749.754	0.0186513
749.832	0.0186656
749.910	0.0188204
749.988	0.0191103
750.067	0.0191698
750.145	0.0193107
750.223	0.0195309
750.301	0.0196041
750.379	0.0196110
750.457	0.0197375
750.535	0.0198635
750.613	0.0197651
750.692	0.0197537
750.770	0.0197571
750.848	0.0196700
750.926	0.0197156
751.004	0.0195308
751.082	0.0196010
751.160	0.0194294
751.238	0.0191817
751.317	0.0190189
751.395	0.0190103
751.473	0.0188010
751.551	0.0185595
751.629	0.0184296
751.707	0.0181827
751.785	0.0180406
751.863	0.0179756
751.942	0.0177577
752.020	0.0177431
752.098	0.0176514
752.176	0.0176684
752.254	0.0174888
752.332	0.0174377
752.410	0.0175296
752.488	0.0175535
752.567	0.0175267
752.645	0.0175851
752.723	0.0174385
752.801	0.0172556
752.879	0.0171214
752.957	0.0169285
753.035	0.0166119
753.113	0.0164923
753.192	0.0161840
753.270	0.0157610
753.348	0.0154910
753.426	0.0150417
753.504	0.0146831
753.582	0.0141747
753.660	0.0140908
753.738	0.0138926
753.817	0.0136542
753.895	0.0134773
753.973	0.0134816
754.051	0.0135557
754.129	0.0137680
754.207	0.0140549
754.285	0.0141816
754.363	0.0146614
754.442	0.0152960
754.520	0.0156180
754.598	0.0162308
754.676	0.0166438
754.754	0.0172552
754.832	0.0176893
754.910	0.0181474
754.988	0.0186218
755.067	0.0189989
755.145	0.0193029
755.223	0.0193901
755.301	0.0197243
755.379	0.0198618
755.457	0.0199099
755.535	0.0198035
755.613	0.0197954
755.692	0.0199261
755.770	0.0199235
755.848	0.0195572
755.926	0.0194414
756.004	0.0192547
756.082	0.0191727
756.160	0.0190784
756.238	0.0188184
756.317	0.0187671
756.395	0.0185085
756.473	0.0183619
756.551	0.0180353
756.629	0.0181406
756.707	0.0182684
756.785	0.0183038
756.863	0.0182622
756.942	0.0183727
757.020	0.0184742
757.098	0.0186434
757.176	0.0187845
757.254	0.0189119
757.332	0.0190598
757.410	0.0191602
757.488	0.0193714
757.567	0.0195515
757.645	0.0195428
757.723	0.0195189
757.801	0.0197075
757.879	0.0197463
757.957	0.0197486
758.035	0.0198536
758.113	0.0197665
758.192	0.0196896
758.270	0.0197469
758.348	0.0195619
758.426	0.0194798
758.504	0.0193936
758.582	0.0192584
758.660	0.0191013
758.738	0.0189174
758.817	0.0186649
758.895	0.0186451
758.973	0.0183763
759.051	0.0182767
759.129	0.0182931
759.207	0.0181617
759.285	0.0180338
759.363	0.0179422
759.442	0.0178324
759.520	0.0178259
759.598	0.0174487
759.676	0.0174298
759.754	0.0171257
759.832	0.0170959
759.910	0.0167809
759.988	0.0165217
760.067	0.0162056
760.145	0.0160180
760.223	0.0157012
760.301	0.0155347
760.379	0.0154250
760.457	0.0151550
760.535	0.0149757
760.613	0.0147611
760.692	0.0146821
760.770	0.0146059
760.848	0.0144545
760.926	0.0145391
761.004	0.0145161
761.082	0.0145337
761.160	0.0147031
761.238	0.0148523
761.317	0.0150847
761.395	0.0151843
761.473	0.0155202
761.551	0.0157690
761.629	0.0159624
761.707	0.0163540
761.785	0.0166116
761.863	0.0169357
761.942	0.0171572
762.020	0.0174559
762.098	0.0176321
762.176	0.0178836
762.254	0.0180254
762.332	0.0182866
762.410	0.0184628
762.488	0.0184794
762.567	0.0186185
762.645	0.0188057
762.723	0.0189949
762.801	0.0191029
762.879	0.0192114
762.957	0.0193258
763.035	0.0194228
763.113	0.0194911
763.192	0.0195326
763.270	0.0194694
763.348	0.0196692
763.426	0.0196564
763.504	0.0194804
763.582	0.0193529
763.660	0.0193113
763.738	0.0192846
763.817	0.0191554
763.895	0.0190802
763.973	0.0191063
764.051	0.0189214
764.129	0.0187469
764.207	0.0188080
764.285	0.0185880
764.363	0.0185451
764.442	0.0185249
764.520	0.0184245
764.598	0.0185423
764.676	0.0184905
764.754	0.0183430
764.832	0.0185326
764.910	0.0186177
764.988	0.0186575
765.067	0.0187946
765.145	0.0187853
765.223	0.0189806
765.301	0.0190098
765.379	0.0193030
765.457	0.0194397
765.535	0.0193381
765.613	0.0194865
765.692	0.0194488
765.770	0.0194726
765.848	0.0194545
765.926	0.0193480
766.004	0.0192097
766.082	0.0192502
766.160	0.0189318
766.238	0.0188283
766.317	0.0185573
766.395	0.0185732
766.473	0.0181221
766.551	0.0180566
766.629	0.0178345
766.707	0.0176501
766.785	0.0174589
766.863	0.0172189
766.942	0.0170901
767.020	0.0167515
767.098	0.0165052
767.176	0.0163250
767.254	0.0161946
767.332	0.0160345
767.410	0.0158060
767.488	0.0157243
767.567	0.0156596
767.645	0.0154289
767.723	0.0153872
767.801	0.0152515
767.879	0.0150742
767.957	0.0151526
768.035	0.0149844
768.113	0.0151890
768.192	0.0151538
768.270	0.0152490
768.348	0.0154669
768.426	0.0156252
768.504	0.0155996
768.582	0.0156841
768.660	0.0160021
768.738	0.0162428
768.817	0.0162568
768.895	0.0164347
768.973	0.0165750
769.051	0.0167004
769.129	0.0168865
769.207	0.0169551
769.285	0.0171620
769.363	0.0175270
769.442	0.0174147
769.520	0.0176263
769.598	0.0177057
769.676	0.0178975
769.754	0.0181930
769.832	0.0181660
769.910	0.0183373
769.988	0.0184638
770.067	0.0184908
770.145	0.0185266
770.223	0.0186324
770.301	0.0187634
770.379	0.0188614
770.457	0.0190159
770.535	0.0190950
770.613	0.0191055
770.692	0.0191624
770.770	0.0193634
770.848	0.0192379
770.926	0.0193186
771.004	0.0193342
771.082	0.0193643
771.160	0.0193995
771.238	0.0191495
771.317	0.0192352
771.395	0.0191715
771.473	0.0192002
771.551	0.0191226
771.629	0.0190648
771.707	0.0190839
771.785	0.0189401
771.863	0.0190717
771.942	0.0190765
772.020	0.0190018
772.098	0.0188965
772.176	0.0188900
772.254	0.0189630
772.332	0.0188821
772.410	0.0189518
772.488	0.0190430
772.567	0.0188504
772.645	0.0187029
772.723	0.0188243
772.801	0.0190340
772.879	0.0188706
772.957	0.0188957
773.035	0.0189319
773.113	0.0189631
773.192	0.0189319
773.270	0.0188669
773.348	0.0188178
773.426	0.0188544
773.504	0.0186769
773.582	0.0185036
773.660	0.0181709
773.738	0.0179942
773.817	0.0179881
773.895	0.0177018
773.973	0.0175484
774.051	0.0171694
774.129	0.0169290
774.207	0.0166894
774.285	0.0165382
774.363	0.0163558
774.442	0.0161626
774.520	0.0160857
774.598	0.0160265
774.676	0.0159143
774.754	0.0157220
774.832	0.0158189
774.910	0.0158492
774.988	0.0159007
775.067	0.0158174
775.145	0.0158464
775.223	0.0156425
775.301	0.0156367
775.379	0.0156158
775.457	0.0156195
775.535	0.0157707
775.613	0.0158551
775.692	0.0157170
775.770	0.0157253
775.848	0.0157506
775.926	0.0160045
776.004	0.0160889
776.082	0.0163251
776.160	0.0163016
776.238	0.0166040
776.317	0.0167889
776.395	0.0170162
776.473	0.0171928
776.551	0.0175367
776.629	0.0175855
776.707	0.0177967
776.785	0.0179311
776.863	0.0181539
776.942	0.0181638
777.020	0.0182915
777.098	0.0183337
777.176	0.0184418
777.254	0.0183365
777.332	0.0183817
777.410	0.0183656
777.488	0.0183826
777.567	0.0183298
777.645	0.0183609
777.723	0.0183213
777.801	0.0184417
777.879	0.0184483
777.957	0.0185086
778.035	0.0186027
778.113	0.0186504
778.192	0.0186963
778.270	0.0188985
778.348	0.0190206
778.426	0.0189203
778.504	0.0191433
778.582	0.0192372
778.660	0.0192904
778.738	0.0192686
778.817	0.0193911
778.895	0.0194390
778.973	0.0193417
779.051	0.0193837
779.129	0.0195341
779.207	0.0194759
779.285	0.0193581
779.363	0.0192885
779.442	0.0191154
779.520	0.0191195
779.598	0.0190346
779.676	0.0188617
779.754	0.0188549
779.832	0.0187450
779.910	0.0186156
779.988	0.0184740
780.067	0.0186656
780.145	0.0185331
780.223	0.0184599
780.301	0.0184850
780.379	0.0184392
780.457	0.0182413
780.535	0.0183295
780.613	0.0182415
780.692	0.0181664
780.770	0.0180165
780.848	0.0181018
780.926	0.0179688
781.004	0.0177963
781.082	0.0174970
781.160	0.0177052
781.238	0.0174876
781.317	0.0173941
781.395	0.0173090
781.473	0.0170483
781.551	0.0170200
781.629	0.0170136
781.707	0.0169133
781.785	0.0168439
781.863	0.0166759
781.942	0.0165341
782.020	0.0166350
782.098	0.0164558
782.176	0.0164552
782.254	0.0163107
782.332	0.0162418
782.410	0.0160857
782.488	0.0161721
782.567	0.0162515
782.645	0.0161680
782.723	0.0161205
782.801	0.0160824
782.879	0.0162260
782.957	0.0161814
783.035	0.0163332
783.113	0.0163417
783.192	0.0166286
783.270	0.0166391
783.348	0.0167184
783.426	0.0167667
783.504	0.0169028
783.582	0.0169051
783.660	0.0170818
783.738	0.0170121
783.817	0.0171108
783.895	0.0171244
783.973	0.0170523
784.051	0.0170687
784.129	0.0172116
784.207	0.0171230
784.285	0.0171687
784.363	0.0171047
784.442	0.0171640
784.520	0.0174277
784.598	0.0174874
784.676	0.0174749
784.754	0.0176701
784.832	0.0177034
784.910	0.0178413
784.988	0.0180087
785.067	0.0180688
785.145	0.0182936
785.223	0.0183974
785.301	0.0186435
785.379	0.0186478
785.457	0.0189005
785.535	0.0188953
785.613	0.0189521
785.692	0.0191084
785.770	0.0192745
785.848	0.0193790
785.926	0.0195065
786.004	0.0195750
786.082	0.0196309
786.160	0.0195399
786.238	0.0196660
786.317	0.0196651
786.395	0.0194929
786.473	0.0193161
786.551	0.0195381
786.629	0.0193640
786.707	0.0192832
786.785	0.0190591
786.863	0.0189533
786.942	0.0189610
787.020	0.0187024
787.098	0.0186371
787.176	0.0185662
787.254	0.0184653
787.332	0.0183536
787.410	0.0182381
787.488	0.0181626
787.567	0.0182478
787.645	0.0181182
787.723	0.0180766
787.801	0.0180971
787.879	0.0180441
787.957	0.0179372
788.035	0.0180067
788.113	0.0180909
788.192	0.0179253
788.270	0.0177490
788.348	0.0177310
788.426	0.0177001
788.504	0.0175957
788.582	0.0173854
788.660	0.0173478
788.738	0.0173057
788.817	0.0171947
788.895	0.0170499
788.973	0.0168757
789.051	0.0168131
789.129	0.0166929
789.207	0.0166522
789.285	0.0165166
789.363	0.0165591
789.442	0.0162533
789.520	0.0164011
789.598	0.0164522
789.676	0.0163840
789.754	0.0164811
789.832	0.0166270
789.910	0.0166700
789.988	0.0167207
790.067	0.0168332
790.145	0.0169861
790.223	0.0170203
790.301	0.0171014
790.379	0.0172404
790.457	0.0174106
790.535	0.0174382
790.613	0.0174360
790.692	0.0174163
790.770	0.0172803
790.848	0.0173959
790.926	0.0173823
791.004	0.0172856
791.082	0.0171868
791.160	0.0169723
791.238	0.0169837
791.317	0.0171080
791.395	0.0170194
791.473	0.0169340
791.551	0.0169007
791.629	0.0169728
791.707	0.0168762
791.785	0.0168906
791.863	0.0169134
791.942	0.0171337
792.020	0.0173164
792.098	0.0172472
792.176	0.0174706
792.254	0.0174718
792.332	0.0175851
792.410	0.0177216
792.488	0.0177581
792.567	0.0179934
792.645	0.0182574
792.723	0.0182361
792.801	0.0184460
792.879	0.0186098
792.957	0.0186733
793.035	0.0187466
793.113	0.0188906
793.192	0.0190088
793.270	0.0190693
793.348	0.0191946
793.426	0.0192992
793.504	0.0192110
793.582	0.0191566
793.660	0.0191247
793.738	0.0192591
793.817	0.0192884
793.895	0.0190082
793.973	0.0191794
794.051	0.0191039
794.129	0.0191035
794.207	0.0190952
794.285	0.0189984
794.363	0.0190794
794.442	0.0191147
794.520	0.0189500
794.598	0.0190231
794.676	0.0191045
794.754	0.0190812
794.832	0.0191205
794.910	0.0191605
794.988	0.0191531
795.067	0.0190835
795.145	0.0189207
795.223	0.0187862
795.301	0.0187055
795.379	0.0186322
795.457	0.0184348
795.535	0.0182874
795.613	0.0180656
795.692	0.0178916
795.770	0.0177425
795.848	0.0175227
795.926	0.0172538
796.004	0.0169454
796.082	0.0168094
796.160	0.0168353
796.238	0.0164663
796.317	0.0165752
796.395	0.0162902
796.473	0.0162109
796.551	0.0163280
796.629	0.0163347
796.707	0.0163053
796.785	0.0163339
796.863	0.0163983
796.942	0.0166098
797.020	0.0166451
797.098	0.0167680
797.176	0.0167728
797.254	0.0170069
797.332	0.0168671
797.410	0.0167471
797.488	0.0169537
797.567	0.0171750
797.645	0.0169620
797.723	0.0168569
797.801	0.0169077
797.879	0.0168287
797.957	0.0167686
798.035	0.0167815
798.113	0.0167017
798.192	0.0167395
798.270	0.0166732
798.348	0.0167882
798.426	0.0169791
798.504	0.0169707
798.582	0.0170566
798.660	0.0171647
798.738	0.0172857
798.817	0.0174655
798.895	0.0174577
798.973	0.0176804
799.051	0.0178482
799.129	0.0177988
799.207	0.0178749
799.285	0.0178565
799.363	0.0181330
799.442	0.0181443
799.520	0.0181303
799.598	0.0183715
799.676	0.0181961
799.754	0.0183533
799.832	0.0183156
799.910	0.0186116
799.988	0.0185558
800.067	0.0186034
800.145	0.0185450
800.223	0.0186433
800.301	0.0186551
800.379	0.0184792
800.457	0.0185823
800.535	0.0186342
800.613	0.0183453
800.692	0.0183614
800.770	0.0183524
800.848	0.0182447
800.926	0.0181921
801.004	0.0182880
801.082	0.0182056
801.160	0.0180228
801.238	0.0182253
801.317	0.0183891
801.395	0.0183112
801.473	0.0183229
801.551	0.0184448
801.629	0.0184007
801.707	0.0185010
801.785	0.0186220
801.863	0.0186225
801.942	0.0187165
802.020	0.0187955
802.098	0.0187816
802.176	0.0188599
802.254	0.0188790
802.332	0.0188530
802.410	0.0189106
802.488	0.0187957
802.567	0.0186663
802.645	0.0185897
802.723	0.0184107
802.801	0.0184058
802.879	0.0182697
802.957	0.0180812
803.035	0.0179884
803.113	0.0177498
803.192	0.0176591
803.270	0.0174433
803.348	0.0173254
803.426	0.0173174
803.504	0.0173615
803.582	0.0171601
803.660	0.0173232
803.738	0.0171909
803.817	0.0171663
803.895	0.0173052
803.973	0.0173038
804.051	0.0173628
804.129	0.0173254
804.207	0.0174400
804.285	0.0174409
804.363	0.0173090
804.442	0.0173712
804.520	0.0174018
804.598	0.0173439
804.676	0.0172109
804.754	0.0172381
804.832	0.0173661
804.910	0.0170759
804.988	0.0169109
805.067	0.0169205
805.145	0.0168551
805.223	0.0167943
805.301	0.0168699
805.379	0.0167503
805.457	0.0167590
805.535	0.0167958
805.613	0.0168472
805.692	0.0168144
805.770	0.0167771
805.848	0.0169524
805.926	0.0169463
806.004	0.0170901
806.082	0.0169719
806.160	0.0172432
806.238	0.0172544
806.317	0.0172579
806.395	0.0172415
806.473	0.0174368
806.551	0.0173938
806.629	0.0174687
806.707	0.0175081
806.785	0.0176408
806.863	0.0177454
806.942	0.0176964
807.020	0.0178526
807.098	0.0177091
807.176	0.0179766
807.254	0.0179543
807.332	0.0180309
807.410	0.0180795
807.488	0.0182166
807.567	0.0182187
807.645	0.0182843
807.723	0.0183094
807.801	0.0183543
807.879	0.0184164
807.957	0.0183409
808.035	0.0183979
808.113	0.0183350
808.192	0.0186018
808.270	0.0185611
808.348	0.0184798
808.426	0.0184420
808.504	0.0185877
808.582	0.0186343
808.660	0.0186448
808.738	0.0185593
808.817	0.0186103
808.895	0.0185314
808.973	0.0186178
809.051	0.0186526
809.129	0.0185145
809.207	0.0184538
809.285	0.0184605
809.363	0.0184263
809.442	0.0184698
809.520	0.0183573
809.598	0.0183576
809.676	0.0182565
809.754	0.0183243
809.832	0.0182047
809.910	0.0181177
809.988	0.0181776
810.067	0.0181429
810.145	0.0183060
810.223	0.0182047
810.301	0.0180672
810.379	0.0180505
810.457	0.0181438
810.535	0.0181322
810.613	0.0180003
810.692	0.0178731
810.770	0.0178548
810.848	0.0179413
810.926	0.0179163
811.004	0.0178286
811.082	0.0177715
811.160	0.0176502
811.238	0.0175868
811.317	0.0175623
811.395	0.0174347
811.473	0.0173642
811.551	0.0174002
811.629	0.0171676
811.707	0.0170345
811.785	0.0171093
811.863	0.0170113
811.942	0.0170974
812.020	0.0170685
812.098	0.0170610
812.176	0.0170480
812.254	0.0170718
812.332	0.0171410
812.410	0.0171085
812.488	0.0171912
812.567	0.0171748
812.645	0.0172704
812.723	0.0172800
812.801	0.0175550
812.879	0.0175294
812.957	0.0174837
813.035	0.0175897
813.113	0.0176206
813.192	0.0176984
813.270	0.0176424
813.348	0.0175889
813.426	0.0175951
813.504	0.0176911
813.582	0.0175501
813.660	0.0174749
813.738	0.0174751
813.817	0.0173930
813.895	0.0175267
813.973	0.0174944
814.051	0.0176382
814.129	0.0174539
814.207	0.0176206
814.285	0.0176250
814.363	0.0175146
814.442	0.0177065
814.520	0.0176693
814.598	0.0176486
814.676	0.0178335
814.754	0.0178040
814.832	0.0178185
814.910	0.0179491
814.988	0.0177462
815.067	0.0179536
815.145	0.0178471
815.223	0.0179398
815.301	0.0179681
815.379	0.0180275
815.457	0.0180904
815.535	0.0181330
815.613	0.0180658
815.692	0.0180846
815.770	0.0181958
815.848	0.0181143
815.926	0.0181448
816.004	0.0182603
816.082	0.0182587
816.160	0.0183229
816.238	0.0183859
816.317	0.0183565
816.395	0.0182780
816.473	0.0182218
816.551	0.0181984
816.629	0.0183206
816.707	0.0181161
816.785	0.0181018
816.863	0.0181384
816.942	0.0180363
817.020	0.0180366
817.098	0.0181447
817.176	0.0179530
817.254	0.0179027
817.332	0.0178712
817.410	0.0179832
817.488	0.0180820
817.567	0.0180779
817.645	0.0180226
817.723	0.0180724
817.801	0.0181349
817.879	0.0180511
817.957	0.0182655
818.035	0.0182932
818.113	0.0181733
818.192	0.0182421
818.270	0.0182315
818.348	0.0182469
818.426	0.0182294
818.504	0.0182491
818.582	0.0181548
818.660	0.0180370
818.738	0.0180624
818.817	0.0179631
818.895	0.0179700
818.973	0.0179903
819.051	0.0178233
819.129	0.0178371
819.207	0.0178319
819.285	0.0177660
819.363	0.0177892
819.442	0.0176215
819.520	0.0177180
819.598	0.0176622
819.676	0.0176367
819.754	0.0176914
819.832	0.0176086
819.910	0.0175391
819.988	0.0174096
820.067	0.0176342
820.145	0.0175790
820.223	0.0176172
820.301	0.0175922
820.379	0.0175875
820.457	0.0175249
820.535	0.0176301
820.613	0.0175440
820.692	0.0174801
820.770	0.0175512
820.848	0.0176254
820.926	0.0175033
821.004	0.0175326
821.082	0.0173510
821.160	0.0175422
821.238	0.0175600
821.317	0.0174237
821.395	0.0174915
821.473	0.0173945
821.551	0.0173386
821.629	0.0172057
821.707	0.0173430
821.785	0.0172978
821.863	0.0171458
821.942	0.0172803
822.020	0.0171893
822.098	0.0170750
822.176	0.0170933
822.254	0.0170384
822.332	0.0171565
822.410	0.0171907
822.488	0.0172896
822.567	0.0173454
822.645	0.0174173
822.723	0.0173761
822.801	0.0174586
822.879	0.0176638
822.957	0.0177589
823.035	0.0177528
823.113	0.0178198
823.192	0.0178282
823.270	0.0180897
823.348	0.0181706
823.426	0.0182205
823.504	0.0182475
823.582	0.0182904
823.660	0.0183611
823.738	0.0183447
823.817	0.0184324
823.895	0.0184444
823.973	0.0183353
824.051	0.0183564
824.129	0.0183197
824.207	0.0183903
824.285	0.0182822
824.363	0.0183895
824.442	0.0182961
824.520	0.0183956
824.598	0.0184320
824.676	0.0184274
824.754	0.0183221
824.832	0.0183479
824.910	0.0183218
824.988	0.0184186
825.067	0.0183917
825.145	0.0184711
825.223	0.0185412
825.301	0.0184220
825.379	0.0184140
825.457	0.0183900
825.535	0.0184672
825.613	0.0183215
825.692	0.0183324
825.770	0.0183093
825.848	0.0183266
825.926	0.0182807
826.004	0.0182275
826.082	0.0181388
826.160	0.0180476
826.238	0.0181059
826.317	0.0180780
826.395	0.0180148
826.473	0.0180022
826.551	0.0179034
826.629	0.0179375
826.707	0.0178292
826.785	0.0178162
826.863	0.0178561
826.942	0.0175945
827.020	0.0174944
827.098	0.0176230
827.176	0.0175174
827.254	0.0174890
827.332	0.0174202
827.410	0.0173228
827.488	0.0173666
827.567	0.0173105
827.645	0.0173259
827.723	0.0174101
827.801	0.0173148
827.879	0.0172433
827.957	0.0173616
828.035	0.0172717
828.113	0.0174229
828.192	0.0172153
828.270	0.0174171
828.348	0.0174401
828.426	0.0172285
828.504	0.0172133
828.582	0.0173167
828.660	0.0172939
828.738	0.0171451
828.817	0.0173074
828.895	0.0171161
828.973	0.0170639
829.051	0.0171384
829.129	0.0171806
829.207	0.0169876
829.285	0.0169444
829.363	0.0170253
829.442	0.0171404
829.520	0.0171075
829.598	0.0170466
829.676	0.0170921
829.754	0.0173416
829.832	0.0173121
829.910	0.0173442
829.988	0.0174026
830.067	0.0174841
830.145	0.0175242
830.223	0.0174860
830.301	0.0176929
830.379	0.0178585
830.457	0.0178973
830.535	0.0178820
830.613	0.0180342
830.692	0.0180894
830.770	0.0180758
830.848	0.0180677
830.926	0.0181882
831.004	0.0181425
831.082	0.0182578
831.160	0.0182086
831.238	0.0182535
831.317	0.0182652
831.395	0.0182576
831.473	0.0181208
831.551	0.0182602
831.629	0.0182076
831.707	0.0183674
831.785	0.0183105
831.863	0.0182895
831.942	0.0184657
832.020	0.0185106
832.098	0.0183315
832.176	0.0183688
832.254	0.0183920
832.332	0.0184153
832.410	0.0182234
832.488	0.0183907
832.567	0.0182937
832.645	0.0183794
832.723	0.0182355
832.801	0.0182157
832.879	0.0181964
832.957	0.0180853
833.035	0.0180169
833.113	0.0179859
833.192	0.0179559
833.270	0.0179534
833.348	0.0178046
833.426	0.0178612
833.504	0.0178532
833.582	0.0178850
833.660	0.0179611
833.738	0.0178700
833.817	0.0178259
833.895	0.0178356
833.973	0.0179558
834.051	0.0180457
834.129	0.0179653
834.207	0.0178853
834.285	0.0179242
834.363	0.0180138
834.442	0.0178944
834.520	0.0178638
834.598	0.0177583
834.676	0.0179106
834.754	0.0179578
834.832	0.0176784
834.910	0.0176704
834.988	0.0175742
835.067	0.0175454
835.145	0.0175205
835.223	0.0174423
835.301	0.0173918
835.379	0.0173666
835.457	0.0172529
835.535	0.0172391
835.613	0.0172668
835.692	0.0171635
835.770	0.0171712
835.848	0.0170532
835.926	0.0169421
836.004	0.0169493
836.082	0.0170639
836.160	0.0170464
836.238	0.0170695
836.317	0.0172027
836.395	0.0171764
836.473	0.0173622
836.551	0.0174551
836.629	0.0175137
836.707	0.0174668
836.785	0.0176732
836.863	0.0175928
836.942	0.0177613
837.020	0.0178146
837.098	0.0175954
837.176	0.0177740
837.254	0.0176659
837.332	0.0176674
837.410	0.0177955
837.488	0.0175989
837.567	0.0175415
837.645	0.0175870
837.723	0.0175527
837.801	0.0174490
837.879	0.0175343
837.957	0.0174495
838.035	0.0174037
838.113	0.0172868
838.192	0.0174104
838.270	0.0173408
838.348	0.0173977
838.426	0.0175382
838.504	0.0175875
838.582	0.0175509
838.660	0.0176784
838.738	0.0178168
838.817	0.0178830
838.895	0.0179888
838.973	0.0180214
839.051	0.0180843
839.129	0.0181393
839.207	0.0183556
839.285	0.0183154
839.363	0.0182814
839.442	0.0185027
839.520	0.0186309
839.598	0.0183832
839.676	0.0185443
839.754	0.0183663
839.832	0.0185150
839.910	0.0185070
839.988	0.0185797
840.067	0.0184834
840.145	0.0182739
840.223	0.0181642
840.301	0.0183243
840.379	0.0181554
840.457	0.0182878
840.535	0.0182132
840.613	0.0180012
840.692	0.0179174
840.770	0.0179668
840.848	0.0180620
840.926	0.0179197
841.004	0.0179939
841.082	0.0178735
841.160	0.0178322
841.238	0.0179399
841.317	0.0178606
841.395	0.0179195
841.473	0.0179751
841.551	0.0178220
841.629	0.0180502
841.707	0.0178951
841.785	0.0178477
841.863	0.0178493
841.942	0.0176319
842.020	0.0176473
842.098	0.0177608
842.176	0.0176368
842.254	0.0174138
842.332	0.0175877
842.410	0.0175100
842.488	0.0173552
842.567	0.0173239
842.645	0.0173088
842.723	0.0170721
842.801	0.0172420
842.879	0.0172194
842.957	0.0170914
843.035	0.0170640
843.113	0.0170203
843.192	0.0169698
843.270	0.0170376
843.348	0.0171622
843.426	0.0171912
843.504	0.0174596
843.582	0.0172207
843.660	0.0174084
843.738	0.0175520
843.817	0.0176541
843.895	0.0176548
843.973	0.0176930
844.051	0.0178599
844.129	0.0179292
844.207	0.0179563
844.285	0.0181098
844.363	0.0179459
844.442	0.0179404
844.520	0.0179603
844.598	0.0179195
844.676	0.0178631
844.754	0.0179532
844.832	0.0178120
844.910	0.0176629
844.988	0.0176936
845.067	0.0176533
845.145	0.0176382
845.223	0.0176098
845.301	0.0176862
845.379	0.0176310
845.457	0.0175234
845.535	0.0176623
845.613	0.0176670
845.692	0.0177952
845.770	0.0178158
845.848	0.0178496
845.926	0.0177308
846.004	0.0179378
846.082	0.0179167
846.160	0.0179794
846.238	0.0182509
846.317	0.0180917
846.395	0.0180824
846.473	0.0181092
846.551	0.0181551
846.629	0.0180042
846.707	0.0181580
846.785	0.0182785
846.863	0.0180687
846.942	0.0179903
847.020	0.0180013
847.098	0.0179735
847.176	0.0179306
847.254	0.0179804
847.332	0.0179810
847.410	0.0180551
847.488	0.0180553
847.567	0.0179832
847.645	0.0179730
847.723	0.0179222
847.801	0.0180038
847.879	0.0179908
847.957	0.0179520
848.035	0.0181129
848.113	0.0179792
848.192	0.0180032
848.270	0.0181362
848.348	0.0181290
848.426	0.0180692
848.504	0.0179939
848.582	0.0180910
848.660	0.0181482
848.738	0.0179404
848.817	0.0178876
848.895	0.0179001
848.973	0.0178369
849.051	0.0178790
849.129	0.0177810
849.207	0.0176949
849.285	0.0176643
849.363	0.0176612
849.442	0.0176994
849.520	0.0176081
849.598	0.0174161
849.676	0.0174086
849.754	0.0174973
849.832	0.0174963
849.910	0.0174397
849.988	0.0173232
850.067	0.0174988
850.145	0.0175195
850.223	0.0175763
850.301	0.0174599
850.379	0.0175515
850.457	0.0175208
850.535	0.0174737
850.613	0.0175581
850.692	0.0176994
850.770	0.0177215
850.848	0.0176225
850.926	0.0177460
851.004	0.0177174
851.082	0.0178105
851.160	0.0177210
851.238	0.0177037
851.317	0.0177598
851.395	0.0176529
851.473	0.0176955
851.551	0.0176415
851.629	0.0176659
851.707	0.0177795
851.785	0.0176422
851.863	0.0175382
851.942	0.0177477
852.020	0.0178012
852.098	0.0176675
852.176	0.0177718
852.254	0.0177820
852.332	0.0177343
852.410	0.0178719
852.488	0.0178755
852.567	0.0178075
852.645	0.0177952
852.723	0.0179775
852.801	0.0178065
852.879	0.0178119
852.957	0.0179866
853.035	0.0179648
853.113	0.0179599
853.192	0.0178728
853.270	0.0179756
853.348	0.0180633
853.426	0.0179025
853.504	0.0179056
853.582	0.0179392
853.660	0.0179289
853.738	0.0179068
853.817	0.0178166
853.895	0.0177370
853.973	0.0177887
854.051	0.0178727
854.129	0.0177173
854.207	0.0177393
854.285	0.0177804
854.363	0.0176925
854.442	0.0178648
854.520	0.0177825
854.598	0.0177579
854.676	0.0179824
854.754	0.0178771
854.832	0.0179118
854.910	0.0180450
854.988	0.0179904
855.067	0.0180101
855.145	0.0180472
855.223	0.0180946
855.301	0.0182305
855.379	0.0180495
855.457	0.0181782
855.535	0.0179898
855.613	0.0179367
855.692	0.0180386
855.770	0.0178415
855.848	0.0179353
855.926	0.0178402
856.004	0.0176627
856.082	0.0178140
856.160	0.0178167
856.238	0.0176920
856.317	0.0177565
856.395	0.0175394
856.473	0.0174677
856.551	0.0175142
856.629	0.0176111
856.707	0.0176794
856.785	0.0175956
856.863	0.0175964
856.942	0.0175948
857.020	0.0175887
857.098	0.0174886
857.176	0.0176752
857.254	0.0175998
857.332	0.0176200
857.410	0.0176257
857.488	0.0178749
857.567	0.0178105
857.645	0.0176348
857.723	0.0176757
857.801	0.0179474
857.879	0.0178848
857.957	0.0178533
858.035	0.0178349
858.113	0.0177383
858.192	0.0177664
858.270	0.0178863
858.348	0.0177934
858.426	0.0178407
858.504	0.0178131
858.582	0.0177939
858.660	0.0177651
858.738	0.0177644
858.817	0.0176885
858.895	0.0176679
858.973	0.0176476
859.051	0.0177779
859.129	0.0177885
859.207	0.0179809
859.285	0.0178230
859.363	0.0177370
859.442	0.0177917
859.520	0.0179083
859.598	0.0180406
859.676	0.0178579
859.754	0.0180242
859.832	0.0180823
859.910	0.0179861
859.988	0.0179710
860.067	0.0179904
860.145	0.0179936
860.223	0.0179761
860.301	0.0180672
860.379	0.0179449
860.457	0.0178983
860.535	0.0179318
860.613	0.0177759
860.692	0.0178621
860.770	0.0177708
860.848	0.0177464
860.926	0.0177633
861.004	0.0177981
861.082	0.0177695
861.160	0.0177406
861.238	0.0176943
861.317	0.0176747
861.395	0.0178312
861.473	0.0177985
861.551	0.0176398
861.629	0.0177838
861.707	0.0175775
861.785	0.0175139
861.863	0.0176945
861.942	0.0177634
862.020	0.0176383
862.098	0.0177141
862.176	0.0178160
862.254	0.0178306
862.332	0.0177725
862.410	0.0178631
862.488	0.0179484
862.567	0.0179499
862.645	0.0177968
862.723	0.0178161
862.801	0.0178040
862.879	0.0178723
862.957	0.0177818
863.035	0.0178194
863.113	0.0177554
863.192	0.0176879
863.270	0.0177628
863.348	0.0177564
863.426	0.0178170
863.504	0.0177898
863.582	0.0177298
863.660	0.0176151
863.738	0.0178225
863.817	0.0175840
863.895	0.0175504
863.973	0.0177489
864.051	0.0177351
864.129	0.0176269
864.207	0.0177819
864.285	0.0178218
864.363	0.0178208
864.442	0.0178310
864.520	0.0177956
864.598	0.0176936
864.676	0.0178139
864.754	0.0177711
864.832	0.0178215
864.910	0.0176790
864.988	0.0177190
865.067	0.0177953
865.145	0.0177338
865.223	0.0174918
865.301	0.0177823
865.379	0.0179085
865.457	0.0178492
865.535	0.0178867
865.613	0.0178804
865.692	0.0177856
865.770	0.0178493
865.848	0.0179826
865.926	0.0179321
866.004	0.0181047
866.082	0.0180810
866.160	0.0180134
866.238	0.0181128
866.317	0.0181691
866.395	0.0181888
866.473	0.0181557
866.551	0.0182922
866.629	0.0182697
866.707	0.0180571
866.785	0.0181345
866.863	0.0181853
866.942	0.0179884
867.020	0.0180796
867.098	0.0181686
867.176	0.0180151
867.254	0.0178349
867.332	0.0179386
867.410	0.0178699
867.488	0.0178718
867.567	0.0178486
867.645	0.0177496
867.723	0.0177148
867.801	0.0177722
867.879	0.0176889
867.957	0.0174860
868.035	0.0176429
868.113	0.0177354
868.192	0.0175670
868.270	0.0177253
868.348	0.0176160
868.426	0.0176271
868.504	0.0178443
868.582	0.0177558
868.660	0.0177435
868.738	0.0176797
868.817	0.0178352
868.895	0.0177510
868.973	0.0177923
869.051	0.0177440
869.129	0.0178738
869.207	0.0178233
869.285	0.0178876
869.363	0.0177911
869.442	0.0177995
869.520	0.0176329
869.598	0.0176353
869.676	0.0176760
869.754	0.0177406
869.832	0.0177319
869.910	0.0175191
869.988	0.0176937
870.067	0.0176353
870.145	0.0174915
870.223	0.0175628
870.301	0.0176031
870.379	0.0175633
870.457	0.0175511
870.535	0.0174905
870.613	0.0175314
870.692	0.0176462
870.770	0.0175870
870.848	0.0176325
870.926	0.0176376
871.004	0.0177035
871.082	0.0177974
871.160	0.0176842
871.238	0.0178055
871.317	0.0179253
871.395	0.0179178
871.473	0.0179995
871.551	0.0179635
871.629	0.0178965
871.707	0.0179350
871.785	0.0178783
871.863	0.0178274
871.942	0.0179173
872.020	0.0179258
872.098	0.0179329
872.176	0.0179173
872.254	0.0177656
872.332	0.0178146
872.410	0.0177271
872.488	0.0177401
872.567	0.0177531
872.645	0.0176898
872.723	0.0177157
872.801	0.0176686
872.879	0.0176949
872.957	0.0177113
873.035	0.0177699
873.113	0.0178500
873.192	0.0178409
873.270	0.0179628
873.348	0.0179572
873.426	0.0179422
873.504	0.0180256
873.582	0.0181236
873.660	0.0181770
873.738	0.0182427
873.817	0.0182955
873.895	0.0182875
873.973	0.0182434
874.051	0.0183968
874.129	0.0183402
874.207	0.0182635
874.285	0.0184118
874.363	0.0183409
874.442	0.0181322
874.520	0.0183404
874.598	0.0182443
874.676	0.0180499
874.754	0.0178912
874.832	0.0179543
874.910	0.0179308
874.988	0.0178002
875.067	0.0176083
875.145	0.0175862
875.223	0.0176000
875.301	0.0175571
875.379	0.0173363
875.457	0.0174837
875.535	0.0175078
875.613	0.0173191
875.692	0.0174081
875.770	0.0173738
875.848	0.0173740
875.926	0.0173287
876.004	0.0174725
876.082	0.0174409
876.160	0.0176528
876.238	0.0176201
876.317	0.0175645
876.395	0.0176573
876.473	0.0175763
876.551	0.0177300
876.629	0.0178320
876.707	0.0178238
876.785	0.0178082
876.863	0.0178638
876.942	0.0177869
877.020	0.0178521
877.098	0.0178149
877.176	0.0178577
877.254	0.0178510
877.332	0.0178143
877.410	0.0177925
877.488	0.0178176
877.567	0.0177419
877.645	0.0177523
877.723	0.0177119
877.801	0.0176641
877.879	0.0177642
877.957	0.0177339
878.035	0.0176988
878.113	0.0177554
878.192	0.0177886
878.270	0.0177199
878.348	0.0177879
878.426	0.0177512
878.504	0.0177398
878.582	0.0176288
878.660	0.0177561
878.738	0.0176033
878.817	0.0176715
878.895	0.0179132
878.973	0.0177592
879.051	0.0176184
879.129	0.0176751
879.207	0.0177991
879.285	0.0177998
879.363	0.0176900
879.442	0.0177052
879.520	0.0176730
879.598	0.0175819
879.676	0.0176091
879.754	0.0177393
879.832	0.0178108
879.910	0.0176552
879.988	0.0177205
880.067	0.0178383
880.145	0.0178162
880.223	0.0179469
880.301	0.0178719
880.379	0.0179319
880.457	0.0179639
880.535	0.0179561
880.613	0.0179002
880.692	0.0180430
880.770	0.0179485
880.848	0.0180368
880.926	0.0180604
881.004	0.0180276
881.082	0.0179628
881.160	0.0180781
881.238	0.0180679
881.317	0.0179742
881.395	0.0180888
881.473	0.0182840
881.551	0.0182336
881.629	0.0181377
881.707	0.0181468
881.785	0.0180777
881.863	0.0181368
881.942	0.0181519
882.020	0.0179152
882.098	0.0180065
882.176	0.0178334
882.254	0.0179292
882.332	0.0179602
882.410	0.0177946
882.488	0.0176192
882.567	0.0177006
882.645	0.0177067
882.723	0.0178761
882.801	0.0178098
882.879	0.0178410
882.957	0.0175990
883.035	0.0176739
883.113	0.0176174
883.192	0.0176142
883.270	0.0177331
883.348	0.0174207
883.426	0.0174866
883.504	0.0175036
883.582	0.0175351
883.660	0.0173733
883.738	0.0174579
883.817	0.0173762
883.895	0.0175034
883.973	0.0175957
884.051	0.0174998
884.129	0.0174997
884.207	0.0175966
884.285	0.0176958
884.363	0.0177157
884.442	0.0178584
884.520	0.0178165
884.598	0.0178742
884.676	0.0179051
884.754	0.0178399
884.832	0.0179314
884.910	0.0179164
884.988	0.0180018
885.067	0.0179336
885.145	0.0179852
885.223	0.0178830
885.301	0.0179884
885.379	0.0178755
885.457	0.0178885
885.535	0.0177486
885.613	0.0178097
885.692	0.0178303
885.770	0.0177562
885.848	0.0176889
885.926	0.0177180
886.004	0.0177044
886.082	0.0178386
886.160	0.0177053
886.238	0.0176396
886.317	0.0176177
886.395	0.0175636
886.473	0.0176215
886.551	0.0175656
886.629	0.0175179
886.707	0.0174593
886.785	0.0173713
886.863	0.0176514
886.942	0.0175439
887.020	0.0175945
887.098	0.0175954
887.176	0.0177087
887.254	0.0175578
887.332	0.0176646
887.410	0.0178152
887.488	0.0177283
887.567	0.0177434
887.645	0.0177258
887.723	0.0178693
887.801	0.0178887
887.879	0.0179458
887.957	0.0178732
888.035	0.0178825
888.113	0.0179041
888.192	0.0178899
888.270	0.0179771
888.348	0.0178031
888.426	0.0179893
888.504	0.0179578
888.582	0.0178701
888.660	0.0178605
888.738	0.0180756
888.817	0.0179945
888.895	0.0178729
888.973	0.0179808
889.051	0.0179202
889.129	0.0177923
889.207	0.0177975
889.285	0.0178375
889.363	0.0178808
889.442	0.0178281
889.520	0.0177992
889.598	0.0179610
889.676	0.0179263
889.754	0.0179469
889.832	0.0177769
889.910	0.0178658
889.988	0.0179604
890.067	0.0179237
890.145	0.0180415
890.223	0.0180970
890.301	0.0179108
890.379	0.0179328
890.457	0.0179753
890.535	0.0180341
890.613	0.0178085
890.692	0.0180276
890.770	0.0178160
890.848	0.0178616
890.926	0.0177637
891.004	0.0177066
891.082	0.0177529
891.160	0.0176740
891.238	0.0176482
891.317	0.0175909
891.395	0.0175503
891.473	0.0175159
891.551	0.0175537
891.629	0.0175604
891.707	0.0176080
891.785	0.0175633
891.863	0.0176524
891.942	0.0176157
892.020	0.0175771
892.098	0.0176756
892.176	0.0176558
892.254	0.0175281
892.332	0.0176863
892.410	0.0177071
892.488	0.0177117
892.567	0.0178103
892.645	0.0176525
892.723	0.0177801
892.801	0.0177605
892.879	0.0177599
892.957	0.0177118
893.035	0.0178033
893.113	0.0177486
893.192	0.0176347
893.270	0.0177307
893.348	0.0176022
893.426	0.0176285
893.504	0.0175312
893.582	0.0176410
893.660	0.0176000
893.738	0.0176752
893.817	0.0176144
893.895	0.0176664
893.973	0.0176781
894.051	0.0178303
894.129	0.0178434
894.207	0.0179192
894.285	0.0178651
894.363	0.0179067
894.442	0.0179232
894.520	0.0179247
894.598	0.0179423
894.676	0.0181149
894.754	0.0180824
894.832	0.0178390
894.910	0.0178863
894.988	0.0179053
895.067	0.0179993
895.145	0.0180018
895.223	0.0178654
895.301	0.0177850
895.379	0.0179053
895.457	0.0178491
895.535	0.0177499
895.613	0.0177240
895.692	0.0179317
895.770	0.0178930
895.848	0.0178284
895.926	0.0177575
896.004	0.0177641
896.082	0.0177750
896.160	0.0176287
896.238	0.0177747
896.317	0.0177750
896.395	0.0179230
896.473	0.0176598
896.551	0.0178736
896.629	0.0178005
896.707	0.0176227
896.785	0.0177985
896.863	0.0177950
896.942	0.0176833
897.020	0.0177280
897.098	0.0178935
897.176	0.0178795
897.254	0.0178132
897.332	0.0177932
897.410	0.0179054
897.488	0.0178402
897.567	0.0179958
897.645	0.0179169
897.723	0.0178645
897.801	0.0179617
897.879	0.0179353
897.957	0.0179736
898.035	0.0180637
898.113	0.0179269
898.192	0.0179729
898.270	0.0178928
898.348	0.0179477
898.426	0.0178947
898.504	0.0179976
898.582	0.0179974
898.660	0.0179992
898.738	0.0179229
898.817	0.0179571
898.895	0.0178729
898.973	0.0179432
899.051	0.0179564
899.129	0.0180670
899.207	0.0179652
899.285	0.0178537
899.363	0.0179506
899.442	0.0178800
899.520	0.0178146
899.598	0.0177218
899.676	0.0177967
899.754	0.0178362
899.832	0.0177702
899.910	0.0177548
899.988	0.0177663
900.067	0.0176849
900.145	0.0178050
900.223	0.0176163
900.301	0.0175735
900.379	0.0176603
900.457	0.0176895
900.535	0.0176007
900.613	0.0175153
900.692	0.0175457
900.770	0.0176589
900.848	0.0174620
900.926	0.0175137
901.004	0.0175496
901.082	0.0175137
901.160	0.0175071
901.238	0.0176520
901.317	0.0176251
901.395	0.0175717
901.473	0.0177402
901.551	0.0176319
901.629	0.0177446
901.707	0.0176772
901.785	0.0177341
901.863	0.0175874
901.942	0.0177425
902.020	0.0178265
902.098	0.0177856
902.176	0.0176817
902.254	0.0177774
902.332	0.0177927
902.410	0.0178645
902.488	0.0178838
902.567	0.0178014
902.645	0.0178929
902.723	0.0177953
902.801	0.0178287
902.879	0.0178278
902.957	0.0178227
903.035	0.0179462
903.113	0.0179557
903.192	0.0179123
903.270	0.0178614
903.348	0.0178279
903.426	0.0177702
903.504	0.0178604
903.582	0.0178937
903.660	0.0177494
903.738	0.0178555
903.817	0.0179087
903.895	0.0177719
903.973	0.0178825
904.051	0.0178358
904.129	0.0179583
904.207	0.0178537
904.285	0.0180247
904.363	0.0179227
904.442	0.0178204
904.520	0.0179001
904.598	0.0178695
904.676	0.0178626
904.754	0.0178624
904.832	0.0179015
904.910	0.0178465
904.988	0.0179610
905.067	0.0178657
905.145	0.0177451
905.223	0.0177789
905.301	0.0177329
905.379	0.0177569
905.457	0.0177831
905.535	0.0179252
905.613	0.0176772
905.692	0.0177026
905.770	0.0177859
905.848	0.0177181
905.926	0.0177943
906.004	0.0177254
906.082	0.0177755
906.160	0.0177925
906.238	0.0177562
906.317	0.0178118
906.395	0.0176588
906.473	0.0178455
906.551	0.0177389
906.629	0.0176740
906.707	0.0178696
906.785	0.0178178
906.863	0.0178506
906.942	0.0178433
907.020	0.0176517
907.098	0.0177250
907.176	0.0178133
907.254	0.0176702
907.332	0.0177390
907.410	0.0177119
907.488	0.0175536
907.567	0.0177587
907.645	0.0176697
907.723	0.0177799
907.801	0.0176008
907.879	0.0178476
907.957	0.0177995
908.035	0.0177515
908.113	0.0178349
908.192	0.0177892
908.270	0.0177736
908.348	0.0177834
908.426	0.0178279
908.504	0.0176810
908.582	0.0175889
908.660	0.0176787
908.738	0.0177151
908.817	0.0177294
908.895	0.0177910
908.973	0.0177367
909.051	0.0176015
909.129	0.0175890
909.207	0.0176437
909.285	0.0177985
909.363	0.0176305
909.442	0.0177539
909.520	0.0176086
909.598	0.0176750
909.676	0.0177151
909.754	0.0178139
909.832	0.0176595
909.910	0.0177389
909.988	0.0177302
910.067	0.0176385
910.145	0.0177606
910.223	0.0175944
910.301	0.0175591
910.379	0.0177730
910.457	0.0176997
910.535	0.0175839
910.613	0.0175866
910.692	0.0177231
910.770	0.0176295
910.848	0.0176691
910.926	0.0178323
911.004	0.0176761
911.082	0.0176524
911.160	0.0179278
911.238	0.0178888
911.317	0.0180257
911.395	0.0178753
911.473	0.0179514
911.551	0.0179165
911.629	0.0179599
911.707	0.0178835
911.785	0.0178744
911.863	0.0178889
911.942	0.0178115
912.020	0.0179749
912.098	0.0178000
912.176	0.0178264
912.254	0.0179201
912.332	0.0178202
912.410	0.0177789
912.488	0.0177225
912.567	0.0176941
912.645	0.0179662
912.723	0.0177529
912.801	0.0176949
912.879	0.0177809
912.957	0.0177277
913.035	0.0176439
913.113	0.0175946
913.192	0.0177630
913.270	0.0176622
913.348	0.0176866
913.426	0.0176729
913.504	0.0176409
913.582	0.0177261
913.660	0.0177982
913.738	0.0177801
913.817	0.0178661
913.895	0.0178232
913.973	0.0179307
914.051	0.0177682
914.129	0.0177366
914.207	0.0179258
914.285	0.0178702
914.363	0.0178301
914.442	0.0178227
914.520	0.0178612
914.598	0.0177341
914.676	0.0177866
914.754	0.0180050
914.832	0.0179237
914.910	0.0178976
914.988	0.0178057
915.067	0.0179105
915.145	0.0179959
915.223	0.0179727
915.301	0.0180470
915.379	0.0180135
915.457	0.0179244
915.535	0.0179036
915.613	0.0179387
915.692	0.0179700
915.770	0.0179922
915.848	0.0179322
915.926	0.0178963
916.004	0.0179308
916.082	0.0179266
916.160	0.0178458
916.238	0.0175784
916.317	0.0178854
916.395	0.0177998
916.473	0.0177148
916.551	0.0178517
916.629	0.0177696
916.707	0.0175311
916.785	0.0176476
916.863	0.0178105
916.942	0.0177629
917.020	0.0178115
917.098	0.0176077
917.176	0.0175296
917.254	0.0176667
917.332	0.0175912
917.410	0.0176300
917.488	0.0177139
917.567	0.0175079
917.645	0.0176257
917.723	0.0175416
917.801	0.0175364
917.879	0.0176133
917.957	0.0174590
918.035	0.0175501
918.113	0.0175424
918.192	0.0176620
918.270	0.0177292
918.348	0.0176216
918.426	0.0176297
918.504	0.0177032
918.582	0.0177296
918.660	0.0178983
918.738	0.0177447
918.817	0.0178605
918.895	0.0179156
918.973	0.0178378
919.051	0.0178644
919.129	0.0178587
919.207	0.0178270
919.285	0.0177645
919.363	0.0178133
919.442	0.0179018
919.520	0.0177434
919.598	0.0177867
919.676	0.0178815
919.754	0.0177837
919.832	0.0178467
919.910	0.0178103
