06/01/2022	21:30:12	Ver.	4.1	UNKNOWN
Optical Delay	599.988409	Delta X		0.078125	Sweeps	1	Scan Rate	0/0
Coordinates	Axis 1	NaN	Axis 2	NaN	Axis 3	NaN	Axis 4	NaN	Axis 5	NaN	Axis 6	0.000000
TX Power	0.000000	RX Power	0.000000

599.988	0.0179868
600.067	0.0179663
600.145	0.0180346
600.223	0.0179926
600.301	0.0179092
600.379	0.0180043
600.457	0.0180357
600.535	0.0181045
600.613	0.0179600
600.692	0.0179022
600.770	0.0180120
600.848	0.0178613
600.926	0.0179385
601.004	0.0179147
601.082	0.0180494
601.160	0.0179025
601.238	0.0180160
601.317	0.0179490
601.395	0.0179208
601.473	0.0180819
601.551	0.0180907
601.629	0.0181036
601.707	0.0179878
601.785	0.0179661
601.863	0.0180614
601.942	0.0181415
602.020	0.0181092
602.098	0.0180485
602.176	0.0180049
602.254	0.0180332
602.332	0.0180363
602.410	0.0180130
602.488	0.0180994
602.567	0.0179987
602.645	0.0180043
602.723	0.0178773
602.801	0.0181265
602.879	0.0178451
602.957	0.0179688
603.035	0.0179565
603.113	0.0179396
603.192	0.0179767
603.270	0.0180633
603.348	0.0180937
603.426	0.0180296
603.504	0.0178547
603.582	0.0180709
603.660	0.0179714
603.738	0.0180725
603.817	0.0179237
603.895	0.0178865
603.973	0.0180972
604.051	0.0179671
604.129	0.0180145
604.207	0.0179024
604.285	0.0179903
604.363	0.0179845
604.442	0.0179652
604.520	0.0181094
604.598	0.0179971
604.676	0.0180939
604.754	0.0179972
604.832	0.0179843
604.910	0.0180917
604.988	0.0179446
605.067	0.0179182
605.145	0.0180978
605.223	0.0180030
605.301	0.0179948
605.379	0.0180082
605.457	0.0180443
605.535	0.0179066
605.613	0.0179671
605.692	0.0180886
605.770	0.0180746
605.848	0.0181091
605.926	0.0179834
606.004	0.0179781
606.082	0.0180177
606.160	0.0180171
606.238	0.0179244
606.317	0.0179506
606.395	0.0179990
606.473	0.0179535
606.551	0.0178820
606.629	0.0180886
606.707	0.0179237
606.785	0.0177494
606.863	0.0179953
606.942	0.0180055
607.020	0.0179826
607.098	0.0180411
607.176	0.0180120
607.254	0.0179986
607.332	0.0179317
607.410	0.0180061
607.488	0.0179102
607.567	0.0179858
607.645	0.0180078
607.723	0.0181017
607.801	0.0179703
607.879	0.0180309
607.957	0.0179614
608.035	0.0180276
608.113	0.0179166
608.192	0.0180145
608.270	0.0179804
608.348	0.0180204
608.426	0.0181058
608.504	0.0179829
608.582	0.0179446
608.660	0.0179141
608.738	0.0179950
608.817	0.0179900
608.895	0.0180972
608.973	0.0178100
609.051	0.0179744
609.129	0.0179144
609.207	0.0180660
609.285	0.0179137
609.363	0.0179344
609.442	0.0179672
609.520	0.0181063
609.598	0.0179459
609.676	0.0179168
609.754	0.0180665
609.832	0.0179453
609.910	0.0179430
609.988	0.0180611
610.067	0.0180479
610.145	0.0178558
610.223	0.0179574
610.301	0.0180511
610.379	0.0180231
610.457	0.0179498
610.535	0.0180615
610.613	0.0180297
610.692	0.0180170
610.770	0.0180179
610.848	0.0180352
610.926	0.0180997
611.004	0.0180602
611.082	0.0179193
611.160	0.0180045
611.238	0.0180778
611.317	0.0178423
611.395	0.0179606
611.473	0.0179539
611.551	0.0179939
611.629	0.0181133
611.707	0.0180058
611.785	0.0180040
611.863	0.0179205
611.942	0.0180359
612.020	0.0181216
612.098	0.0180305
612.176	0.0178886
612.254	0.0179548
612.332	0.0180338
612.410	0.0180379
612.488	0.0180583
612.567	0.0180654
612.645	0.0179231
612.723	0.0179340
612.801	0.0181119
612.879	0.0180417
612.957	0.0179272
613.035	0.0179238
613.113	0.0180605
613.192	0.0180917
613.270	0.0179198
613.348	0.0180298
613.426	0.0180280
613.504	0.0180839
613.582	0.0180318
613.660	0.0179932
613.738	0.0180438
613.817	0.0178949
613.895	0.0180466
613.973	0.0180542
614.051	0.0179462
614.129	0.0180121
614.207	0.0179626
614.285	0.0179279
614.363	0.0180190
614.442	0.0179824
614.520	0.0180289
614.598	0.0180068
614.676	0.0180231
614.754	0.0179384
614.832	0.0178665
614.910	0.0179317
614.988	0.0180473
615.067	0.0180663
615.145	0.0181237
615.223	0.0179681
615.301	0.0178988
615.379	0.0180302
615.457	0.0180744
615.535	0.0178376
615.613	0.0180204
615.692	0.0179623
615.770	0.0179578
615.848	0.0180531
615.926	0.0179803
616.004	0.0180082
616.082	0.0180331
616.160	0.0180048
616.238	0.0179958
616.317	0.0180122
616.395	0.0179875
616.473	0.0181553
616.551	0.0180073
616.629	0.0180582
616.707	0.0179500
616.785	0.0178461
616.863	0.0178883
616.942	0.0180139
617.020	0.0180035
617.098	0.0179579
617.176	0.0180732
617.254	0.0179977
617.332	0.0178311
617.410	0.0179800
617.488	0.0179299
617.567	0.0179768
617.645	0.0179479
617.723	0.0179852
617.801	0.0180685
617.879	0.0178910
617.957	0.0180134
618.035	0.0179634
618.113	0.0179810
618.192	0.0179118
618.270	0.0178448
618.348	0.0179424
618.426	0.0179646
618.504	0.0179024
618.582	0.0179261
618.660	0.0179576
618.738	0.0180031
618.817	0.0178848
618.895	0.0179245
618.973	0.0179503
619.051	0.0180314
619.129	0.0179902
619.207	0.0178511
619.285	0.0179677
619.363	0.0179153
619.442	0.0179164
619.520	0.0180508
619.598	0.0180896
619.676	0.0181449
619.754	0.0180227
619.832	0.0179566
619.910	0.0180433
619.988	0.0179870
620.067	0.0179274
620.145	0.0179809
620.223	0.0180125
620.301	0.0179468
620.379	0.0180431
620.457	0.0180154
620.535	0.0180225
620.613	0.0179707
620.692	0.0178607
620.770	0.0179392
620.848	0.0179888
620.926	0.0178652
621.004	0.0181169
621.082	0.0180547
621.160	0.0179158
621.238	0.0178843
621.317	0.0177441
621.395	0.0179325
621.473	0.0179704
621.551	0.0180173
621.629	0.0180235
621.707	0.0179132
621.785	0.0180585
621.863	0.0180714
621.942	0.0180127
622.020	0.0179651
622.098	0.0179217
622.176	0.0179929
622.254	0.0180856
622.332	0.0178986
622.410	0.0180816
622.488	0.0179675
622.567	0.0180825
622.645	0.0179261
622.723	0.0179747
622.801	0.0179539
622.879	0.0179475
622.957	0.0180278
623.035	0.0179247
623.113	0.0179951
623.192	0.0180830
623.270	0.0179232
623.348	0.0179349
623.426	0.0180283
623.504	0.0179671
623.582	0.0180994
623.660	0.0179606
623.738	0.0179269
623.817	0.0180265
623.895	0.0180849
623.973	0.0179681
624.051	0.0178722
624.129	0.0179474
624.207	0.0178866
624.285	0.0180046
624.363	0.0179645
624.442	0.0180028
624.520	0.0179440
624.598	0.0180051
624.676	0.0178772
624.754	0.0179460
624.832	0.0180760
624.910	0.0179549
624.988	0.0179286
625.067	0.0181123
625.145	0.0181244
625.223	0.0181025
625.301	0.0179895
625.379	0.0179820
625.457	0.0178734
625.535	0.0178655
625.613	0.0179725
625.692	0.0179115
625.770	0.0179900
625.848	0.0179507
625.926	0.0179321
626.004	0.0179787
626.082	0.0179567
626.160	0.0180035
626.238	0.0178979
626.317	0.0179951
626.395	0.0179041
626.473	0.0179517
626.551	0.0177850
626.629	0.0180775
626.707	0.0178752
626.785	0.0179713
626.863	0.0179316
626.942	0.0180000
627.020	0.0179008
627.098	0.0180309
627.176	0.0180216
627.254	0.0179639
627.332	0.0181762
627.410	0.0179814
627.488	0.0177886
627.567	0.0178284
627.645	0.0179877
627.723	0.0179485
627.801	0.0179765
627.879	0.0178722
627.957	0.0180890
628.035	0.0179564
628.113	0.0179835
628.192	0.0180150
628.270	0.0179716
628.348	0.0179572
628.426	0.0180069
628.504	0.0181243
628.582	0.0179341
628.660	0.0180940
628.738	0.0180083
628.817	0.0180511
628.895	0.0180568
628.973	0.0179414
629.051	0.0177908
629.129	0.0180964
629.207	0.0180400
629.285	0.0179131
629.363	0.0180398
629.442	0.0180198
629.520	0.0179778
629.598	0.0179131
629.676	0.0180063
629.754	0.0178381
629.832	0.0180040
629.910	0.0179046
629.988	0.0179238
630.067	0.0179105
630.145	0.0179261
630.223	0.0179318
630.301	0.0180004
630.379	0.0180754
630.457	0.0180585
630.535	0.0181198
630.613	0.0180262
630.692	0.0179645
630.770	0.0179583
630.848	0.0179813
630.926	0.0179995
631.004	0.0179726
631.082	0.0180017
631.160	0.0180072
631.238	0.0179567
631.317	0.0180464
631.395	0.0180016
631.473	0.0179728
631.551	0.0179874
631.629	0.0179776
631.707	0.0179283
631.785	0.0179630
631.863	0.0180003
631.942	0.0178874
632.020	0.0179800
632.098	0.0180014
632.176	0.0179607
632.254	0.0180608
632.332	0.0180631
632.410	0.0180101
632.488	0.0178518
632.567	0.0179928
632.645	0.0179093
632.723	0.0179582
632.801	0.0180092
632.879	0.0180059
632.957	0.0179339
633.035	0.0178931
633.113	0.0178629
633.192	0.0180276
633.270	0.0180088
633.348	0.0179114
633.426	0.0179539
633.504	0.0178687
633.582	0.0179784
633.660	0.0178654
633.738	0.0179345
633.817	0.0179749
633.895	0.0178522
633.973	0.0179214
634.051	0.0180678
634.129	0.0179551
634.207	0.0180006
634.285	0.0179677
634.363	0.0179570
634.442	0.0179857
634.520	0.0180774
634.598	0.0178794
634.676	0.0180002
634.754	0.0180349
634.832	0.0178598
634.910	0.0180070
634.988	0.0179395
635.067	0.0179301
635.145	0.0181387
635.223	0.0180627
635.301	0.0180209
635.379	0.0179298
635.457	0.0179773
635.535	0.0180308
635.613	0.0179637
635.692	0.0179675
635.770	0.0180029
635.848	0.0179018
635.926	0.0178914
636.004	0.0179956
636.082	0.0180449
636.160	0.0181345
636.238	0.0178465
636.317	0.0179608
636.395	0.0181272
636.473	0.0179955
636.551	0.0180736
636.629	0.0179308
636.707	0.0180489
636.785	0.0180423
636.863	0.0180985
636.942	0.0179765
637.020	0.0179185
637.098	0.0181087
637.176	0.0181184
637.254	0.0180188
637.332	0.0179839
637.410	0.0180491
637.488	0.0179780
637.567	0.0180743
637.645	0.0180679
637.723	0.0179292
637.801	0.0178191
637.879	0.0179579
637.957	0.0181300
638.035	0.0181030
638.113	0.0179617
638.192	0.0179683
638.270	0.0180423
638.348	0.0179115
638.426	0.0180178
638.504	0.0180211
638.582	0.0179729
638.660	0.0179167
638.738	0.0178458
638.817	0.0179777
638.895	0.0179875
638.973	0.0180751
639.051	0.0180772
639.129	0.0180438
639.207	0.0179179
639.285	0.0178823
639.363	0.0177566
639.442	0.0179422
639.520	0.0180292
639.598	0.0179376
639.676	0.0179930
639.754	0.0180283
639.832	0.0178925
639.910	0.0178907
639.988	0.0180920
640.067	0.0180345
640.145	0.0179992
640.223	0.0179514
640.301	0.0180631
640.379	0.0179601
640.457	0.0180596
640.535	0.0180047
640.613	0.0180389
640.692	0.0179747
640.770	0.0179768
640.848	0.0180106
640.926	0.0181526
641.004	0.0179687
641.082	0.0180066
641.160	0.0180797
641.238	0.0179724
641.317	0.0179608
641.395	0.0179220
641.473	0.0181176
641.551	0.0180036
641.629	0.0179459
641.707	0.0181419
641.785	0.0180744
641.863	0.0180731
641.942	0.0180264
642.020	0.0179413
642.098	0.0180019
642.176	0.0179366
642.254	0.0178981
642.332	0.0180434
642.410	0.0180943
642.488	0.0179230
642.567	0.0178544
642.645	0.0181139
642.723	0.0180309
642.801	0.0180293
642.879	0.0177828
642.957	0.0179858
643.035	0.0180853
643.113	0.0180858
643.192	0.0178645
643.270	0.0180513
643.348	0.0180722
643.426	0.0179814
643.504	0.0179860
643.582	0.0179986
643.660	0.0179002
643.738	0.0180444
643.817	0.0179007
643.895	0.0180213
643.973	0.0179343
644.051	0.0179515
644.129	0.0180740
644.207	0.0179886
644.285	0.0181100
644.363	0.0179201
644.442	0.0178487
644.520	0.0181210
644.598	0.0179073
644.676	0.0177534
644.754	0.0179083
644.832	0.0177910
644.910	0.0180272
644.988	0.0180119
645.067	0.0179961
645.145	0.0179445
645.223	0.0180232
645.301	0.0179533
645.379	0.0178541
645.457	0.0180066
645.535	0.0179346
645.613	0.0179395
645.692	0.0179118
645.770	0.0179074
645.848	0.0180464
645.926	0.0179847
646.004	0.0178941
646.082	0.0180629
646.160	0.0178551
646.238	0.0178681
646.317	0.0180770
646.395	0.0180720
646.473	0.0179816
646.551	0.0180962
646.629	0.0178850
646.707	0.0178542
646.785	0.0179355
646.863	0.0180509
646.942	0.0180950
647.020	0.0179509
647.098	0.0180625
647.176	0.0181342
647.254	0.0179750
647.332	0.0178487
647.410	0.0178959
647.488	0.0179709
647.567	0.0180012
647.645	0.0179263
647.723	0.0180025
647.801	0.0179869
647.879	0.0180448
647.957	0.0179179
648.035	0.0179064
648.113	0.0179910
648.192	0.0179730
648.270	0.0179642
648.348	0.0179180
648.426	0.0180946
648.504	0.0180981
648.582	0.0180248
648.660	0.0179690
648.738	0.0179996
648.817	0.0179263
648.895	0.0178065
648.973	0.0178841
649.051	0.0180305
649.129	0.0179767
649.207	0.0180101
649.285	0.0180051
649.363	0.0179430
649.442	0.0179894
649.520	0.0180370
649.598	0.0179575
649.676	0.0180135
649.754	0.0179210
649.832	0.0179913
649.910	0.0180001
649.988	0.0179857
650.067	0.0179118
650.145	0.0179056
650.223	0.0179578
650.301	0.0180253
650.379	0.0178790
650.457	0.0180212
650.535	0.0179089
650.613	0.0180900
650.692	0.0180827
650.770	0.0179528
650.848	0.0180096
650.926	0.0180801
651.004	0.0179011
651.082	0.0180571
651.160	0.0180933
651.238	0.0180206
651.317	0.0180222
651.395	0.0178969
651.473	0.0178188
651.551	0.0180556
651.629	0.0179877
651.707	0.0179154
651.785	0.0180235
651.863	0.0179185
651.942	0.0180538
652.020	0.0180402
652.098	0.0180363
652.176	0.0179491
652.254	0.0179837
652.332	0.0179131
652.410	0.0181329
652.488	0.0179782
652.567	0.0179762
652.645	0.0179552
652.723	0.0178654
652.801	0.0178934
652.879	0.0179546
652.957	0.0179504
653.035	0.0180080
653.113	0.0181288
653.192	0.0179829
653.270	0.0180224
653.348	0.0180499
653.426	0.0179163
653.504	0.0178934
653.582	0.0180407
653.660	0.0179982
653.738	0.0178964
653.817	0.0179506
653.895	0.0180413
653.973	0.0179456
654.051	0.0180460
654.129	0.0180095
654.207	0.0181638
654.285	0.0180105
654.363	0.0177963
654.442	0.0181809
654.520	0.0180993
654.598	0.0180148
654.676	0.0180209
654.754	0.0179532
654.832	0.0180175
654.910	0.0178861
654.988	0.0179021
655.067	0.0179147
655.145	0.0180896
655.223	0.0180562
655.301	0.0178835
655.379	0.0179925
655.457	0.0179332
655.535	0.0179684
655.613	0.0179867
655.692	0.0179472
655.770	0.0179318
655.848	0.0180281
655.926	0.0180671
656.004	0.0181241
656.082	0.0178699
656.160	0.0180537
656.238	0.0181509
656.317	0.0180097
656.395	0.0179592
656.473	0.0180171
656.551	0.0179022
656.629	0.0181868
656.707	0.0179451
656.785	0.0179371
656.863	0.0178555
656.942	0.0179532
657.020	0.0179489
657.098	0.0180071
657.176	0.0179765
657.254	0.0181676
657.332	0.0179442
657.410	0.0178970
657.488	0.0181079
657.567	0.0179028
657.645	0.0179170
657.723	0.0180221
657.801	0.0178305
657.879	0.0179897
657.957	0.0179966
658.035	0.0179935
658.113	0.0179475
658.192	0.0179372
658.270	0.0179723
658.348	0.0179858
658.426	0.0180936
658.504	0.0181122
658.582	0.0179192
658.660	0.0180421
658.738	0.0180357
658.817	0.0179758
658.895	0.0177724
658.973	0.0177978
659.051	0.0180801
659.129	0.0180989
659.207	0.0180170
659.285	0.0179625
659.363	0.0179421
659.442	0.0179844
659.520	0.0178656
659.598	0.0178735
659.676	0.0179326
659.754	0.0180613
659.832	0.0180244
659.910	0.0180370
659.988	0.0177847
660.067	0.0180030
660.145	0.0180047
660.223	0.0180745
660.301	0.0179800
660.379	0.0179599
660.457	0.0181039
660.535	0.0180141
660.613	0.0179056
660.692	0.0179855
660.770	0.0180416
660.848	0.0179969
660.926	0.0178755
661.004	0.0180679
661.082	0.0180441
661.160	0.0179220
661.238	0.0179054
661.317	0.0180099
661.395	0.0178671
661.473	0.0179724
661.551	0.0179625
661.629	0.0179563
661.707	0.0180061
661.785	0.0179360
661.863	0.0179831
661.942	0.0179440
662.020	0.0180235
662.098	0.0179854
662.176	0.0180606
662.254	0.0180306
662.332	0.0180553
662.410	0.0178983
662.488	0.0178289
662.567	0.0178892
662.645	0.0179648
662.723	0.0180946
662.801	0.0179568
662.879	0.0180170
662.957	0.0178544
663.035	0.0180482
663.113	0.0179733
663.192	0.0180083
663.270	0.0180557
663.348	0.0179888
663.426	0.0179279
663.504	0.0179945
663.582	0.0180334
663.660	0.0180853
663.738	0.0181359
663.817	0.0180936
663.895	0.0179407
663.973	0.0178736
664.051	0.0180567
664.129	0.0179909
664.207	0.0179016
664.285	0.0180104
664.363	0.0180049
664.442	0.0181023
664.520	0.0180515
664.598	0.0179453
664.676	0.0180714
664.754	0.0180374
664.832	0.0180121
664.910	0.0180122
664.988	0.0179495
665.067	0.0181054
665.145	0.0181193
665.223	0.0179411
665.301	0.0180314
665.379	0.0179957
665.457	0.0181808
665.535	0.0180106
665.613	0.0178336
665.692	0.0180988
665.770	0.0179927
665.848	0.0179784
665.926	0.0179714
666.004	0.0180275
666.082	0.0179531
666.160	0.0180864
666.238	0.0179630
666.317	0.0180538
666.395	0.0179360
666.473	0.0178924
666.551	0.0179742
666.629	0.0178040
666.707	0.0180207
666.785	0.0180688
666.863	0.0178516
666.942	0.0179273
667.020	0.0180817
667.098	0.0179061
667.176	0.0181166
667.254	0.0179417
667.332	0.0179998
667.410	0.0180006
667.488	0.0179922
667.567	0.0179511
667.645	0.0179504
667.723	0.0180711
667.801	0.0180170
667.879	0.0179903
667.957	0.0179633
668.035	0.0179397
668.113	0.0181029
668.192	0.0180303
668.270	0.0179933
668.348	0.0180421
668.426	0.0180019
668.504	0.0180372
668.582	0.0179215
668.660	0.0179745
668.738	0.0179815
668.817	0.0179628
668.895	0.0178486
668.973	0.0178230
669.051	0.0177692
669.129	0.0179957
669.207	0.0180860
669.285	0.0179182
669.363	0.0179582
669.442	0.0180338
669.520	0.0180550
669.598	0.0180943
669.676	0.0179545
669.754	0.0179430
669.832	0.0180450
669.910	0.0180192
669.988	0.0180061
670.067	0.0180457
670.145	0.0180771
670.223	0.0179507
670.301	0.0180270
670.379	0.0179672
670.457	0.0179961
670.535	0.0180045
670.613	0.0180218
670.692	0.0180269
670.770	0.0179949
670.848	0.0179086
670.926	0.0180402
671.004	0.0180311
671.082	0.0180886
671.160	0.0179237
671.238	0.0179425
671.317	0.0179952
671.395	0.0180579
671.473	0.0179931
671.551	0.0180959
671.629	0.0180679
671.707	0.0180091
671.785	0.0180912
671.863	0.0180054
671.942	0.0178389
672.020	0.0180040
672.098	0.0180693
672.176	0.0180289
672.254	0.0179679
672.332	0.0179671
672.410	0.0180491
672.488	0.0181226
672.567	0.0179250
672.645	0.0179854
672.723	0.0180289
672.801	0.0180542
672.879	0.0180721
672.957	0.0178573
673.035	0.0179945
673.113	0.0180367
673.192	0.0179613
673.270	0.0179963
673.348	0.0181268
673.426	0.0179321
673.504	0.0180612
673.582	0.0180241
673.660	0.0179417
673.738	0.0180462
673.817	0.0179936
673.895	0.0179314
673.973	0.0180007
674.051	0.0179932
674.129	0.0180062
674.207	0.0179195
674.285	0.0179272
674.363	0.0181323
674.442	0.0180827
674.520	0.0180883
674.598	0.0179922
674.676	0.0179757
674.754	0.0179677
674.832	0.0180019
674.910	0.0179581
674.988	0.0180620
675.067	0.0179843
675.145	0.0178512
675.223	0.0179805
675.301	0.0180441
675.379	0.0180116
675.457	0.0180206
675.535	0.0179937
675.613	0.0180102
675.692	0.0179278
675.770	0.0180077
675.848	0.0178191
675.926	0.0179098
676.004	0.0180360
676.082	0.0179738
676.160	0.0179922
676.238	0.0179504
676.317	0.0180795
676.395	0.0178994
676.473	0.0179507
676.551	0.0180175
676.629	0.0179401
676.707	0.0179059
676.785	0.0180440
676.863	0.0180258
676.942	0.0178957
677.020	0.0180137
677.098	0.0180052
677.176	0.0181253
677.254	0.0180180
677.332	0.0178857
677.410	0.0179487
677.488	0.0178380
677.567	0.0179111
677.645	0.0179084
677.723	0.0178819
677.801	0.0179137
677.879	0.0178616
677.957	0.0180421
678.035	0.0180227
678.113	0.0180022
678.192	0.0178772
678.270	0.0178777
678.348	0.0180000
678.426	0.0178754
678.504	0.0180218
678.582	0.0178139
678.660	0.0179159
678.738	0.0179268
678.817	0.0179965
678.895	0.0179287
678.973	0.0179980
679.051	0.0181047
679.129	0.0179723
679.207	0.0179755
679.285	0.0178804
679.363	0.0180468
679.442	0.0179725
679.520	0.0179519
679.598	0.0180442
679.676	0.0179448
679.754	0.0178291
679.832	0.0179218
679.910	0.0180512
679.988	0.0179082
680.067	0.0179956
680.145	0.0181047
680.223	0.0179929
680.301	0.0180284
680.379	0.0179817
680.457	0.0179924
680.535	0.0179826
680.613	0.0179118
680.692	0.0180723
680.770	0.0179743
680.848	0.0181074
680.926	0.0180740
681.004	0.0179407
681.082	0.0179906
681.160	0.0178042
681.238	0.0179446
681.317	0.0180698
681.395	0.0181319
681.473	0.0180505
681.551	0.0180058
681.629	0.0179733
681.707	0.0180552
681.785	0.0179730
681.863	0.0180852
681.942	0.0180816
682.020	0.0179475
682.098	0.0180052
682.176	0.0180201
682.254	0.0180547
682.332	0.0179852
682.410	0.0180533
682.488	0.0180743
682.567	0.0180054
682.645	0.0181132
682.723	0.0181065
682.801	0.0179332
682.879	0.0180814
682.957	0.0180883
683.035	0.0179974
683.113	0.0180016
683.192	0.0181150
683.270	0.0179492
683.348	0.0179939
683.426	0.0181905
683.504	0.0179549
683.582	0.0180070
683.660	0.0180163
683.738	0.0180431
683.817	0.0179269
683.895	0.0182155
683.973	0.0180386
684.051	0.0179745
684.129	0.0180556
684.207	0.0179456
684.285	0.0179696
684.363	0.0180159
684.442	0.0179646
684.520	0.0180431
684.598	0.0179950
684.676	0.0181218
684.754	0.0180073
684.832	0.0180424
684.910	0.0181158
684.988	0.0180605
685.067	0.0180229
685.145	0.0180636
685.223	0.0179935
685.301	0.0179616
685.379	0.0180051
685.457	0.0179759
685.535	0.0180563
685.613	0.0181257
685.692	0.0180619
685.770	0.0180103
685.848	0.0179364
685.926	0.0181013
686.004	0.0180370
686.082	0.0179559
686.160	0.0182220
686.238	0.0179046
686.317	0.0179710
686.395	0.0181008
686.473	0.0179709
686.551	0.0179463
686.629	0.0181316
686.707	0.0179755
686.785	0.0180378
686.863	0.0179817
686.942	0.0178651
687.020	0.0179568
687.098	0.0179451
687.176	0.0180341
687.254	0.0180152
687.332	0.0180196
687.410	0.0179669
687.488	0.0178918
687.567	0.0179510
687.645	0.0180827
687.723	0.0180175
687.801	0.0178978
687.879	0.0180395
687.957	0.0180360
688.035	0.0179793
688.113	0.0179296
688.192	0.0180714
688.270	0.0180385
688.348	0.0179265
688.426	0.0179679
688.504	0.0179771
688.582	0.0179305
688.660	0.0179498
688.738	0.0178876
688.817	0.0180328
688.895	0.0179972
688.973	0.0178281
689.051	0.0179720
689.129	0.0179999
689.207	0.0179659
689.285	0.0178284
689.363	0.0179494
689.442	0.0180824
689.520	0.0179080
689.598	0.0178362
689.676	0.0180270
689.754	0.0179548
689.832	0.0179163
689.910	0.0179974
689.988	0.0179908
690.067	0.0180116
690.145	0.0178864
690.223	0.0177950
690.301	0.0179034
690.379	0.0179227
690.457	0.0179041
690.535	0.0179168
690.613	0.0179784
690.692	0.0180046
690.770	0.0179403
690.848	0.0180602
690.926	0.0180360
691.004	0.0179556
691.082	0.0180556
691.160	0.0180042
691.238	0.0178529
691.317	0.0179877
691.395	0.0179330
691.473	0.0180156
691.551	0.0180164
691.629	0.0180479
691.707	0.0179654
691.785	0.0179694
691.863	0.0181380
691.942	0.0178537
692.020	0.0179222
692.098	0.0179539
692.176	0.0179082
692.254	0.0178687
692.332	0.0179371
692.410	0.0180035
692.488	0.0182338
692.567	0.0181390
692.645	0.0181367
692.723	0.0183788
692.801	0.0184589
692.879	0.0184568
692.957	0.0184893
693.035	0.0182567
693.113	0.0181252
693.192	0.0180030
693.270	0.0177991
693.348	0.0175560
693.426	0.0173770
693.504	0.0174106
693.582	0.0171648
693.660	0.0171044
693.738	0.0173224
693.817	0.0176542
693.895	0.0178672
693.973	0.0182767
694.051	0.0185397
694.129	0.0188520
694.207	0.0192165
694.285	0.0194112
694.363	0.0195980
694.442	0.0196028
694.520	0.0193195
694.598	0.0190454
694.676	0.0187988
694.754	0.0184022
694.832	0.0179786
694.910	0.0174332
694.988	0.0169984
695.067	0.0166282
695.145	0.0165611
695.223	0.0163786
695.301	0.0163752
695.379	0.0165757
695.457	0.0167838
695.535	0.0169894
695.613	0.0172032
695.692	0.0177391
695.770	0.0181696
695.848	0.0184824
695.926	0.0189037
696.004	0.0190504
696.082	0.0192306
696.160	0.0193479
696.238	0.0194856
696.317	0.0192294
696.395	0.0190883
696.473	0.0191276
696.551	0.0190596
696.629	0.0188636
696.707	0.0186624
696.785	0.0183600
696.863	0.0182685
696.942	0.0181946
697.020	0.0179207
697.098	0.0176155
697.176	0.0175335
697.254	0.0174104
697.332	0.0173175
697.410	0.0170676
697.488	0.0170603
697.567	0.0168874
697.645	0.0168895
697.723	0.0166700
697.801	0.0166986
697.879	0.0168618
697.957	0.0167081
698.035	0.0170103
698.113	0.0170500
698.192	0.0172092
698.270	0.0174027
698.348	0.0177224
698.426	0.0179461
698.504	0.0181762
698.582	0.0184709
698.660	0.0187039
698.738	0.0191178
698.817	0.0191653
698.895	0.0193981
698.973	0.0195078
699.051	0.0194713
699.129	0.0195109
699.207	0.0196220
699.285	0.0195966
699.363	0.0193143
699.442	0.0192043
699.520	0.0192367
699.598	0.0190263
699.676	0.0184941
699.754	0.0182531
699.832	0.0180761
699.910	0.0177351
699.988	0.0175795
700.067	0.0173250
700.145	0.0170868
700.223	0.0169847
700.301	0.0170875
700.379	0.0167984
700.457	0.0168272
700.535	0.0166502
700.613	0.0167782
700.692	0.0166879
700.770	0.0166477
700.848	0.0167332
700.926	0.0167970
701.004	0.0167943
701.082	0.0167811
701.160	0.0169809
701.238	0.0170657
701.317	0.0171773
701.395	0.0173308
701.473	0.0176102
701.551	0.0177463
701.629	0.0179871
701.707	0.0182242
701.785	0.0186065
701.863	0.0188262
701.942	0.0191984
702.020	0.0194093
702.098	0.0195403
702.176	0.0196337
702.254	0.0197055
702.332	0.0198336
702.410	0.0198141
702.488	0.0196485
702.567	0.0196084
702.645	0.0195538
702.723	0.0190660
702.801	0.0187904
702.879	0.0186820
702.957	0.0184415
703.035	0.0182813
703.113	0.0179872
703.192	0.0175763
703.270	0.0174641
703.348	0.0173000
703.426	0.0170280
703.504	0.0170926
703.582	0.0169076
703.660	0.0170248
703.738	0.0170042
703.817	0.0170437
703.895	0.0170414
703.973	0.0170872
704.051	0.0172571
704.129	0.0173035
704.207	0.0174593
704.285	0.0175186
704.363	0.0175554
704.442	0.0177440
704.520	0.0176289
704.598	0.0175867
704.676	0.0176939
704.754	0.0175813
704.832	0.0174989
704.910	0.0175410
704.988	0.0174448
705.067	0.0174541
705.145	0.0175356
705.223	0.0175443
705.301	0.0175787
705.379	0.0179765
705.457	0.0180159
705.535	0.0179786
705.613	0.0182792
705.692	0.0184005
705.770	0.0185589
705.848	0.0186479
705.926	0.0186990
706.004	0.0188216
706.082	0.0188705
706.160	0.0190788
706.238	0.0190995
706.317	0.0191679
706.395	0.0191985
706.473	0.0191891
706.551	0.0191421
706.629	0.0191351
706.707	0.0191610
706.785	0.0191241
706.863	0.0189327
706.942	0.0185336
707.020	0.0185771
707.098	0.0184328
707.176	0.0180117
707.254	0.0178159
707.332	0.0178010
707.410	0.0175285
707.488	0.0174354
707.567	0.0171709
707.645	0.0170391
707.723	0.0169408
707.801	0.0169971
707.879	0.0168945
707.957	0.0169169
708.035	0.0169181
708.113	0.0169933
708.192	0.0169456
708.270	0.0170814
708.348	0.0172770
708.426	0.0171338
708.504	0.0173882
708.582	0.0173036
708.660	0.0174167
708.738	0.0176589
708.817	0.0177366
708.895	0.0175867
708.973	0.0177971
709.051	0.0180804
709.129	0.0180871
709.207	0.0180676
709.285	0.0182941
709.363	0.0186083
709.442	0.0186525
709.520	0.0185841
709.598	0.0185751
709.676	0.0186938
709.754	0.0188972
709.832	0.0188204
709.910	0.0189332
709.988	0.0186535
710.067	0.0188708
710.145	0.0186735
710.223	0.0186914
710.301	0.0185366
710.379	0.0183492
710.457	0.0184064
710.535	0.0182493
710.613	0.0181381
710.692	0.0181350
710.770	0.0182288
710.848	0.0181446
710.926	0.0181082
711.004	0.0181039
711.082	0.0181500
711.160	0.0181020
711.238	0.0180138
711.317	0.0182245
711.395	0.0181634
711.473	0.0181353
711.551	0.0180596
711.629	0.0181617
711.707	0.0179946
711.785	0.0178034
711.863	0.0179144
711.942	0.0177906
712.020	0.0177728
712.098	0.0177547
712.176	0.0175613
712.254	0.0175450
712.332	0.0175314
712.410	0.0174680
712.488	0.0175685
712.567	0.0175519
712.645	0.0174739
712.723	0.0174244
712.801	0.0175457
712.879	0.0177030
712.957	0.0177423
713.035	0.0176789
713.113	0.0178110
713.192	0.0178746
713.270	0.0179241
713.348	0.0179293
713.426	0.0179371
713.504	0.0180743
713.582	0.0181253
713.660	0.0180997
713.738	0.0180609
713.817	0.0181411
713.895	0.0181924
713.973	0.0181995
714.051	0.0179622
714.129	0.0179880
714.207	0.0181089
714.285	0.0181315
714.363	0.0179569
714.442	0.0180324
714.520	0.0179914
714.598	0.0180685
714.676	0.0181449
714.754	0.0181004
714.832	0.0180983
714.910	0.0181799
714.988	0.0181265
715.067	0.0181045
715.145	0.0182017
715.223	0.0182346
715.301	0.0180092
715.379	0.0180540
715.457	0.0180444
715.535	0.0180864
715.613	0.0180322
715.692	0.0180972
715.770	0.0180698
715.848	0.0181046
715.926	0.0181245
716.004	0.0180992
716.082	0.0181017
716.160	0.0180103
716.238	0.0181750
716.317	0.0181985
716.395	0.0181163
716.473	0.0182635
716.551	0.0182499
716.629	0.0182826
716.707	0.0182410
716.785	0.0181458
716.863	0.0182118
716.942	0.0181261
717.020	0.0182082
717.098	0.0182304
717.176	0.0181615
717.254	0.0179885
717.332	0.0179144
717.410	0.0178957
717.488	0.0178418
717.567	0.0177068
717.645	0.0176308
717.723	0.0175152
717.801	0.0175631
717.879	0.0175270
717.957	0.0175685
718.035	0.0175529
718.113	0.0172571
718.192	0.0174566
718.270	0.0175216
718.348	0.0175854
718.426	0.0176792
718.504	0.0176961
718.582	0.0176266
718.660	0.0177666
718.738	0.0178947
718.817	0.0179900
718.895	0.0181890
718.973	0.0181506
719.051	0.0182007
719.129	0.0182155
719.207	0.0182923
719.285	0.0184933
719.363	0.0185001
719.442	0.0184978
719.520	0.0183910
719.598	0.0185019
719.676	0.0185762
719.754	0.0184363
719.832	0.0184161
719.910	0.0183612
719.988	0.0183662
720.067	0.0183089
720.145	0.0182162
720.223	0.0180973
720.301	0.0180981
720.379	0.0180864
720.457	0.0180633
720.535	0.0179697
720.613	0.0179318
720.692	0.0179528
720.770	0.0181016
720.848	0.0180943
720.926	0.0180627
721.004	0.0179412
721.082	0.0180092
721.160	0.0180379
721.238	0.0181380
721.317	0.0182024
721.395	0.0181734
721.473	0.0181245
721.551	0.0180801
721.629	0.0181538
721.707	0.0181925
721.785	0.0182108
721.863	0.0179459
721.942	0.0180009
722.020	0.0180275
722.098	0.0178528
722.176	0.0177294
722.254	0.0178685
722.332	0.0177518
722.410	0.0175350
722.488	0.0176338
722.567	0.0175752
722.645	0.0175965
722.723	0.0175983
722.801	0.0176060
722.879	0.0176057
722.957	0.0175419
723.035	0.0175305
723.113	0.0174605
723.192	0.0177584
723.270	0.0176392
723.348	0.0177534
723.426	0.0176479
723.504	0.0178561
723.582	0.0179496
723.660	0.0179298
723.738	0.0179956
723.817	0.0180805
723.895	0.0180781
723.973	0.0180902
724.051	0.0181994
724.129	0.0181863
724.207	0.0181814
724.285	0.0183247
724.363	0.0181747
724.442	0.0182245
724.520	0.0182467
724.598	0.0182105
724.676	0.0182677
724.754	0.0182335
724.832	0.0181482
724.910	0.0181593
724.988	0.0181369
725.067	0.0181264
725.145	0.0181190
725.223	0.0181989
725.301	0.0180754
725.379	0.0179567
725.457	0.0180840
725.535	0.0179539
725.613	0.0178648
725.692	0.0179426
725.770	0.0179230
725.848	0.0178412
725.926	0.0178516
726.004	0.0179460
726.082	0.0177184
726.160	0.0177811
726.238	0.0178129
726.317	0.0178691
726.395	0.0178250
726.473	0.0179025
726.551	0.0179432
726.629	0.0180399
726.707	0.0180925
726.785	0.0180714
726.863	0.0181320
726.942	0.0180953
727.020	0.0180958
727.098	0.0181040
727.176	0.0180752
727.254	0.0179967
727.332	0.0180805
727.410	0.0179382
727.488	0.0179719
727.567	0.0178705
727.645	0.0177944
727.723	0.0179876
727.801	0.0178230
727.879	0.0177756
727.957	0.0178532
728.035	0.0177836
728.113	0.0178390
728.192	0.0178049
728.270	0.0179116
728.348	0.0176212
728.426	0.0179007
728.504	0.0178019
728.582	0.0176253
728.660	0.0179559
728.738	0.0180082
728.817	0.0179098
728.895	0.0180686
728.973	0.0181434
729.051	0.0182293
729.129	0.0180966
729.207	0.0179686
729.285	0.0181321
729.363	0.0181128
729.442	0.0179979
729.520	0.0179208
729.598	0.0181168
729.676	0.0180473
729.754	0.0178261
729.832	0.0178597
729.910	0.0179485
729.988	0.0179569
730.067	0.0177197
730.145	0.0178289
730.223	0.0179961
730.301	0.0177628
730.379	0.0177285
730.457	0.0178519
730.535	0.0179469
730.613	0.0180044
730.692	0.0180710
730.770	0.0181990
730.848	0.0180437
730.926	0.0182249
731.004	0.0181297
731.082	0.0182398
731.160	0.0182877
731.238	0.0183089
731.317	0.0183083
731.395	0.0183132
731.473	0.0182315
731.551	0.0182656
731.629	0.0181956
731.707	0.0181134
731.785	0.0180139
731.863	0.0179544
731.942	0.0179751
732.020	0.0178926
732.098	0.0178681
732.176	0.0176694
732.254	0.0177134
732.332	0.0176630
732.410	0.0176854
732.488	0.0177629
732.567	0.0177448
732.645	0.0177010
732.723	0.0177344
732.801	0.0177502
732.879	0.0178226
732.957	0.0180439
733.035	0.0178492
733.113	0.0180422
733.192	0.0181716
733.270	0.0180866
733.348	0.0179945
733.426	0.0181952
733.504	0.0182245
733.582	0.0180949
733.660	0.0180949
733.738	0.0181213
733.817	0.0181374
733.895	0.0180470
733.973	0.0179587
734.051	0.0179508
734.129	0.0178885
734.207	0.0180854
734.285	0.0180427
734.363	0.0180589
734.442	0.0180574
734.520	0.0182100
734.598	0.0181427
734.676	0.0180629
734.754	0.0181070
734.832	0.0182195
734.910	0.0181719
734.988	0.0181078
735.067	0.0179590
735.145	0.0181029
735.223	0.0180804
735.301	0.0179940
735.379	0.0180192
735.457	0.0179819
735.535	0.0180929
735.613	0.0179714
735.692	0.0180981
735.770	0.0181002
735.848	0.0179414
735.926	0.0180952
736.004	0.0179762
736.082	0.0180918
736.160	0.0179521
736.238	0.0179844
736.317	0.0181406
736.395	0.0179230
736.473	0.0179191
736.551	0.0179969
736.629	0.0178596
736.707	0.0178831
736.785	0.0178735
736.863	0.0178036
736.942	0.0179430
737.020	0.0177823
737.098	0.0177419
737.176	0.0179539
737.254	0.0179979
737.332	0.0178593
737.410	0.0178648
737.488	0.0179390
737.567	0.0178313
737.645	0.0180344
737.723	0.0179620
737.801	0.0181131
737.879	0.0178814
737.957	0.0178535
738.035	0.0179530
738.113	0.0178555
738.192	0.0177514
738.270	0.0179134
738.348	0.0178887
738.426	0.0178168
738.504	0.0178197
738.582	0.0176836
738.660	0.0178542
738.738	0.0179924
738.817	0.0179799
738.895	0.0178101
738.973	0.0179387
739.051	0.0179762
739.129	0.0178114
739.207	0.0178514
739.285	0.0180602
739.363	0.0179908
739.442	0.0178596
739.520	0.0178975
739.598	0.0178391
739.676	0.0180434
739.754	0.0180647
739.832	0.0179996
739.910	0.0178952
739.988	0.0178533
740.067	0.0179062
740.145	0.0180070
740.223	0.0179941
740.301	0.0180888
740.379	0.0179050
740.457	0.0180195
740.535	0.0180159
740.613	0.0178967
740.692	0.0178899
740.770	0.0178917
740.848	0.0179005
740.926	0.0180142
741.004	0.0178360
741.082	0.0178667
741.160	0.0179035
741.238	0.0178798
741.317	0.0180976
741.395	0.0180515
741.473	0.0180569
741.551	0.0181010
741.629	0.0180901
741.707	0.0180402
741.785	0.0180022
741.863	0.0181190
741.942	0.0179968
742.020	0.0180194
742.098	0.0180973
742.176	0.0180184
742.254	0.0179559
742.332	0.0179580
742.410	0.0179745
742.488	0.0179440
742.567	0.0179860
742.645	0.0179022
742.723	0.0177839
742.801	0.0177784
742.879	0.0177997
742.957	0.0178495
743.035	0.0177900
743.113	0.0178973
743.192	0.0177502
743.270	0.0178386
743.348	0.0179588
743.426	0.0179440
743.504	0.0180329
743.582	0.0180019
743.660	0.0181329
743.738	0.0180929
743.817	0.0180467
743.895	0.0179437
743.973	0.0179123
744.051	0.0181503
744.129	0.0179621
744.207	0.0178455
744.285	0.0178689
744.363	0.0177818
744.442	0.0178285
744.520	0.0178568
744.598	0.0177901
744.676	0.0178823
744.754	0.0177837
744.832	0.0177064
744.910	0.0177311
744.988	0.0178069
745.067	0.0177789
745.145	0.0176662
745.223	0.0179112
745.301	0.0178448
745.379	0.0177581
745.457	0.0178803
745.535	0.0179809
745.613	0.0181324
745.692	0.0179351
745.770	0.0179968
745.848	0.0178899
745.926	0.0179071
746.004	0.0179945
746.082	0.0180383
746.160	0.0179707
746.238	0.0179658
746.317	0.0181705
746.395	0.0181877
746.473	0.0180405
746.551	0.0180157
746.629	0.0181927
746.707	0.0181099
746.785	0.0179262
746.863	0.0181238
746.942	0.0180386
747.020	0.0179308
747.098	0.0179626
747.176	0.0179417
747.254	0.0180540
747.332	0.0180328
747.410	0.0177729
747.488	0.0179167
747.567	0.0180488
747.645	0.0180353
747.723	0.0179013
747.801	0.0179663
747.879	0.0179834
747.957	0.0180545
748.035	0.0180325
748.113	0.0178905
748.192	0.0180210
748.270	0.0180510
748.348	0.0180807
748.426	0.0179755
748.504	0.0182581
748.582	0.0180515
748.660	0.0180679
748.738	0.0179696
748.817	0.0180447
748.895	0.0180057
748.973	0.0180875
749.051	0.0181868
749.129	0.0180951
749.207	0.0179665
749.285	0.0178827
749.363	0.0179586
749.442	0.0178915
749.520	0.0180200
749.598	0.0178307
749.676	0.0179450
749.754	0.0178983
749.832	0.0178458
749.910	0.0179132
749.988	0.0179201
750.067	0.0178280
750.145	0.0178357
750.223	0.0178857
750.301	0.0178318
750.379	0.0178142
750.457	0.0179041
750.535	0.0179839
750.613	0.0178896
750.692	0.0178403
750.770	0.0178481
750.848	0.0180412
750.926	0.0179443
751.004	0.0179046
751.082	0.0179427
751.160	0.0179353
751.238	0.0179486
751.317	0.0180219
751.395	0.0179482
751.473	0.0178743
751.551	0.0178795
751.629	0.0179621
751.707	0.0177541
751.785	0.0179065
751.863	0.0179359
751.942	0.0176868
752.020	0.0178692
752.098	0.0179551
752.176	0.0178848
752.254	0.0179259
752.332	0.0179218
752.410	0.0179459
752.488	0.0179749
752.567	0.0179549
752.645	0.0179049
752.723	0.0180332
752.801	0.0181181
752.879	0.0179819
752.957	0.0180380
753.035	0.0179040
753.113	0.0180432
753.192	0.0179507
753.270	0.0179589
753.348	0.0179659
753.426	0.0179414
753.504	0.0179218
753.582	0.0178353
753.660	0.0179108
753.738	0.0179137
753.817	0.0180727
753.895	0.0179305
753.973	0.0179346
754.051	0.0178316
754.129	0.0179387
754.207	0.0179730
754.285	0.0179652
754.363	0.0180421
754.442	0.0179556
754.520	0.0178729
754.598	0.0180235
754.676	0.0180002
754.754	0.0180139
754.832	0.0182040
754.910	0.0181098
754.988	0.0180219
755.067	0.0181261
755.145	0.0181541
755.223	0.0181606
755.301	0.0180801
755.379	0.0181351
755.457	0.0179218
755.535	0.0180805
755.613	0.0181155
755.692	0.0180309
755.770	0.0180123
755.848	0.0181261
755.926	0.0180456
756.004	0.0179877
756.082	0.0181345
756.160	0.0182362
756.238	0.0179342
756.317	0.0180204
756.395	0.0180974
756.473	0.0179991
756.551	0.0181310
756.629	0.0179753
756.707	0.0179268
756.785	0.0180296
756.863	0.0180060
756.942	0.0178861
757.020	0.0179883
757.098	0.0179842
757.176	0.0179669
757.254	0.0180115
757.332	0.0179533
757.410	0.0180151
757.488	0.0179794
757.567	0.0179709
757.645	0.0179585
757.723	0.0180129
757.801	0.0181061
757.879	0.0181866
757.957	0.0180746
758.035	0.0180653
758.113	0.0180420
758.192	0.0179003
758.270	0.0178625
758.348	0.0180909
758.426	0.0179568
758.504	0.0179482
758.582	0.0179169
758.660	0.0178436
758.738	0.0179179
758.817	0.0181223
758.895	0.0179984
758.973	0.0179464
759.051	0.0179678
759.129	0.0178578
759.207	0.0180748
759.285	0.0181727
759.363	0.0179819
759.442	0.0179597
759.520	0.0179414
759.598	0.0180844
759.676	0.0182372
759.754	0.0181380
759.832	0.0180596
759.910	0.0180853
759.988	0.0181059
760.067	0.0180359
760.145	0.0180027
760.223	0.0181288
760.301	0.0179385
760.379	0.0179729
760.457	0.0180120
760.535	0.0179156
760.613	0.0178766
760.692	0.0180179
760.770	0.0179082
760.848	0.0178692
760.926	0.0177686
761.004	0.0179688
761.082	0.0180341
761.160	0.0179974
761.238	0.0178237
761.317	0.0179238
761.395	0.0178725
761.473	0.0179898
761.551	0.0179657
761.629	0.0180576
761.707	0.0180753
761.785	0.0181032
761.863	0.0181751
761.942	0.0180716
762.020	0.0181176
762.098	0.0180528
762.176	0.0180653
762.254	0.0181037
762.332	0.0179610
762.410	0.0181889
762.488	0.0181254
762.567	0.0181699
762.645	0.0181149
762.723	0.0181917
762.801	0.0180424
762.879	0.0179929
762.957	0.0180627
763.035	0.0181361
763.113	0.0180451
763.192	0.0178819
763.270	0.0180412
763.348	0.0180046
763.426	0.0181538
763.504	0.0180260
763.582	0.0179683
763.660	0.0178004
763.738	0.0178827
763.817	0.0180650
763.895	0.0179908
763.973	0.0179434
764.051	0.0180563
764.129	0.0179397
764.207	0.0179878
764.285	0.0179525
764.363	0.0179991
764.442	0.0180535
764.520	0.0179288
764.598	0.0180264
764.676	0.0178886
764.754	0.0180420
764.832	0.0179795
764.910	0.0179781
764.988	0.0179802
765.067	0.0180727
765.145	0.0180446
765.223	0.0179819
765.301	0.0179308
765.379	0.0179646
765.457	0.0180974
765.535	0.0178635
765.613	0.0179921
765.692	0.0180744
765.770	0.0180061
765.848	0.0178548
765.926	0.0178621
766.004	0.0180381
766.082	0.0179500
766.160	0.0179625
766.238	0.0180054
766.317	0.0180327
766.395	0.0180661
766.473	0.0180799
766.551	0.0179084
766.629	0.0180468
766.707	0.0179340
766.785	0.0178257
766.863	0.0178860
766.942	0.0179119
767.020	0.0179482
767.098	0.0180376
767.176	0.0179176
767.254	0.0178397
767.332	0.0179911
767.410	0.0178612
767.488	0.0178974
767.567	0.0179420
767.645	0.0178925
767.723	0.0180571
767.801	0.0179910
767.879	0.0179187
767.957	0.0181203
768.035	0.0179302
768.113	0.0179089
768.192	0.0180275
768.270	0.0180750
768.348	0.0180056
768.426	0.0179846
768.504	0.0179361
768.582	0.0180550
768.660	0.0179749
768.738	0.0177462
768.817	0.0179883
768.895	0.0179044
768.973	0.0180763
769.051	0.0180154
769.129	0.0179541
769.207	0.0179558
769.285	0.0178986
769.363	0.0179443
769.442	0.0179854
769.520	0.0179358
769.598	0.0179382
769.676	0.0181326
769.754	0.0179141
769.832	0.0180528
769.910	0.0179121
769.988	0.0180046
770.067	0.0180705
770.145	0.0178973
770.223	0.0180083
770.301	0.0180505
770.379	0.0179872
770.457	0.0178642
770.535	0.0179742
770.613	0.0181133
770.692	0.0180267
770.770	0.0178519
770.848	0.0179079
770.926	0.0179377
771.004	0.0180954
771.082	0.0178632
771.160	0.0180263
771.238	0.0178704
771.317	0.0179753
771.395	0.0179509
771.473	0.0179075
771.551	0.0179952
771.629	0.0179519
771.707	0.0180301
771.785	0.0179891
771.863	0.0180769
771.942	0.0179184
772.020	0.0179776
772.098	0.0178399
772.176	0.0181064
772.254	0.0180815
772.332	0.0179029
772.410	0.0180422
772.488	0.0180997
772.567	0.0178887
772.645	0.0179579
772.723	0.0180431
772.801	0.0179189
772.879	0.0178445
772.957	0.0179374
773.035	0.0178682
773.113	0.0178569
773.192	0.0178595
773.270	0.0180736
773.348	0.0179424
773.426	0.0178824
773.504	0.0178941
773.582	0.0179353
773.660	0.0178709
773.738	0.0178268
773.817	0.0178136
773.895	0.0180018
773.973	0.0179844
774.051	0.0177883
774.129	0.0180202
774.207	0.0178889
774.285	0.0178735
774.363	0.0179933
774.442	0.0179148
774.520	0.0177528
774.598	0.0178480
774.676	0.0179581
774.754	0.0179482
774.832	0.0179519
774.910	0.0179324
774.988	0.0180077
775.067	0.0179324
775.145	0.0178694
775.223	0.0179648
775.301	0.0178886
775.379	0.0179715
775.457	0.0179262
775.535	0.0181012
775.613	0.0181090
775.692	0.0179316
775.770	0.0179963
775.848	0.0178847
775.926	0.0179658
776.004	0.0179922
776.082	0.0180524
776.160	0.0179487
776.238	0.0180014
776.317	0.0179620
776.395	0.0179556
776.473	0.0179585
776.551	0.0180379
776.629	0.0180276
776.707	0.0179636
776.785	0.0179052
776.863	0.0180313
776.942	0.0179346
777.020	0.0179192
777.098	0.0179615
777.176	0.0179246
777.254	0.0179681
777.332	0.0179757
777.410	0.0180265
777.488	0.0179144
777.567	0.0179917
777.645	0.0180536
777.723	0.0180253
777.801	0.0178771
777.879	0.0179509
777.957	0.0177613
778.035	0.0180097
778.113	0.0181436
778.192	0.0178917
778.270	0.0179398
778.348	0.0178098
778.426	0.0179153
778.504	0.0179807
778.582	0.0179326
778.660	0.0179028
778.738	0.0180124
778.817	0.0178912
778.895	0.0181029
778.973	0.0179298
779.051	0.0180151
779.129	0.0179959
779.207	0.0178922
779.285	0.0180199
779.363	0.0179244
779.442	0.0179536
779.520	0.0180716
779.598	0.0179305
779.676	0.0179402
779.754	0.0179642
779.832	0.0178540
779.910	0.0178223
779.988	0.0178728
780.067	0.0178506
780.145	0.0177995
780.223	0.0178190
780.301	0.0178261
780.379	0.0178692
780.457	0.0178803
780.535	0.0180083
780.613	0.0178805
780.692	0.0178548
780.770	0.0180763
780.848	0.0180492
780.926	0.0180376
781.004	0.0179472
781.082	0.0178935
781.160	0.0179850
781.238	0.0180588
781.317	0.0180892
781.395	0.0179474
781.473	0.0181135
781.551	0.0180875
781.629	0.0179211
781.707	0.0180292
781.785	0.0180351
781.863	0.0181441
781.942	0.0179034
782.020	0.0180164
782.098	0.0179678
782.176	0.0179906
782.254	0.0179974
782.332	0.0180373
782.410	0.0179749
782.488	0.0178699
782.567	0.0180862
782.645	0.0181576
782.723	0.0180088
782.801	0.0180389
782.879	0.0180006
782.957	0.0179508
783.035	0.0179829
783.113	0.0179187
783.192	0.0179634
783.270	0.0181609
783.348	0.0178576
783.426	0.0177858
783.504	0.0178832
783.582	0.0181270
783.660	0.0181521
783.738	0.0180076
783.817	0.0181050
783.895	0.0181043
783.973	0.0180203
784.051	0.0180338
784.129	0.0179343
784.207	0.0179800
784.285	0.0181310
784.363	0.0180868
784.442	0.0180266
784.520	0.0179913
784.598	0.0180148
784.676	0.0180649
784.754	0.0177982
784.832	0.0179835
784.910	0.0180022
784.988	0.0177981
785.067	0.0178450
785.145	0.0178230
785.223	0.0179422
785.301	0.0179131
785.379	0.0177866
785.457	0.0178546
785.535	0.0179252
785.613	0.0178570
785.692	0.0181289
785.770	0.0180756
785.848	0.0179642
785.926	0.0180550
786.004	0.0179453
786.082	0.0180994
786.160	0.0181648
786.238	0.0181956
786.317	0.0180133
786.395	0.0181079
786.473	0.0180407
786.551	0.0181360
786.629	0.0180799
786.707	0.0179970
786.785	0.0179295
786.863	0.0179710
786.942	0.0178647
787.020	0.0179482
787.098	0.0179076
787.176	0.0178025
787.254	0.0179586
787.332	0.0177438
787.410	0.0178635
787.488	0.0179194
787.567	0.0178296
787.645	0.0178463
787.723	0.0179401
787.801	0.0179739
787.879	0.0181029
787.957	0.0180061
788.035	0.0181336
788.113	0.0179392
788.192	0.0179797
788.270	0.0180907
788.348	0.0180715
788.426	0.0179617
788.504	0.0180550
788.582	0.0179622
788.660	0.0178881
788.738	0.0178992
788.817	0.0178405
788.895	0.0180033
788.973	0.0178996
789.051	0.0179027
789.129	0.0180160
789.207	0.0178952
789.285	0.0178426
789.363	0.0179405
789.442	0.0179712
789.520	0.0179067
789.598	0.0179099
789.676	0.0179474
789.754	0.0180533
789.832	0.0180672
789.910	0.0180603
789.988	0.0180449
790.067	0.0180019
790.145	0.0181676
790.223	0.0181289
790.301	0.0180465
790.379	0.0181659
790.457	0.0182457
790.535	0.0181842
790.613	0.0181412
790.692	0.0180260
790.770	0.0182603
790.848	0.0182058
790.926	0.0180911
791.004	0.0181715
791.082	0.0181417
791.160	0.0181538
791.238	0.0181089
791.317	0.0180880
791.395	0.0180357
791.473	0.0179993
791.551	0.0180258
791.629	0.0179572
791.707	0.0179887
791.785	0.0178671
791.863	0.0177881
791.942	0.0179677
792.020	0.0179089
792.098	0.0178593
792.176	0.0178962
792.254	0.0179266
792.332	0.0178741
792.410	0.0180033
792.488	0.0180744
792.567	0.0179812
792.645	0.0179182
792.723	0.0179083
792.801	0.0180557
792.879	0.0181162
792.957	0.0181609
793.035	0.0180477
793.113	0.0181010
793.192	0.0182055
793.270	0.0181627
793.348	0.0180587
793.426	0.0180505
793.504	0.0180602
793.582	0.0179662
793.660	0.0178409
793.738	0.0178680
793.817	0.0178630
793.895	0.0178575
793.973	0.0179240
794.051	0.0178333
794.129	0.0177711
794.207	0.0178235
794.285	0.0177209
794.363	0.0177167
794.442	0.0178394
794.520	0.0177638
794.598	0.0176681
794.676	0.0178035
794.754	0.0179179
794.832	0.0178026
794.910	0.0177785
794.988	0.0178807
795.067	0.0178310
795.145	0.0180418
795.223	0.0179287
795.301	0.0179626
795.379	0.0180274
795.457	0.0180511
795.535	0.0180508
795.613	0.0181469
795.692	0.0180594
795.770	0.0181165
795.848	0.0179951
795.926	0.0182444
796.004	0.0181829
796.082	0.0181712
796.160	0.0180640
796.238	0.0181544
796.317	0.0181467
796.395	0.0181136
796.473	0.0180740
796.551	0.0180878
796.629	0.0179413
796.707	0.0180141
796.785	0.0181882
796.863	0.0179195
796.942	0.0177765
797.020	0.0177609
797.098	0.0176447
797.176	0.0177647
797.254	0.0178223
797.332	0.0176836
797.410	0.0178092
797.488	0.0176788
797.567	0.0176772
797.645	0.0177543
797.723	0.0178094
797.801	0.0178878
797.879	0.0179454
797.957	0.0180844
798.035	0.0179398
798.113	0.0180141
798.192	0.0180166
798.270	0.0180592
798.348	0.0181202
798.426	0.0181892
798.504	0.0180436
798.582	0.0180946
798.660	0.0181221
798.738	0.0180801
798.817	0.0182352
798.895	0.0182333
798.973	0.0180726
799.051	0.0180591
799.129	0.0181509
799.207	0.0181688
799.285	0.0181168
799.363	0.0182204
799.442	0.0181164
799.520	0.0180580
799.598	0.0181392
799.676	0.0181266
799.754	0.0180303
799.832	0.0179696
799.910	0.0180215
799.988	0.0179588
800.067	0.0179273
800.145	0.0179102
800.223	0.0177928
800.301	0.0178095
800.379	0.0177306
800.457	0.0176444
800.535	0.0178102
800.613	0.0177033
800.692	0.0176787
800.770	0.0176680
800.848	0.0176394
800.926	0.0175975
801.004	0.0178215
801.082	0.0177381
801.160	0.0177520
801.238	0.0177902
801.317	0.0177456
801.395	0.0177485
801.473	0.0178532
801.551	0.0178237
801.629	0.0178304
801.707	0.0178284
801.785	0.0178464
801.863	0.0179260
801.942	0.0179397
802.020	0.0178532
802.098	0.0179600
802.176	0.0180898
802.254	0.0180339
802.332	0.0179405
802.410	0.0180541
802.488	0.0181213
802.567	0.0181570
802.645	0.0180998
802.723	0.0181413
802.801	0.0182324
802.879	0.0182359
802.957	0.0181287
803.035	0.0180228
803.113	0.0180142
803.192	0.0181005
803.270	0.0180290
803.348	0.0180394
803.426	0.0180563
803.504	0.0181029
803.582	0.0179622
803.660	0.0180421
803.738	0.0179053
803.817	0.0178562
803.895	0.0180444
803.973	0.0179424
804.051	0.0178257
804.129	0.0178560
804.207	0.0179665
804.285	0.0180749
804.363	0.0178936
804.442	0.0179522
804.520	0.0180016
804.598	0.0179245
804.676	0.0178883
804.754	0.0178569
804.832	0.0179803
804.910	0.0179792
804.988	0.0179114
805.067	0.0179037
805.145	0.0179307
805.223	0.0177293
805.301	0.0178468
805.379	0.0178577
805.457	0.0179933
805.535	0.0178805
805.613	0.0178407
805.692	0.0179076
805.770	0.0179539
805.848	0.0178866
805.926	0.0179230
806.004	0.0180289
806.082	0.0179576
806.160	0.0179884
806.238	0.0179983
806.317	0.0179923
806.395	0.0180556
806.473	0.0180906
806.551	0.0180458
806.629	0.0181357
806.707	0.0181661
806.785	0.0182144
806.863	0.0182760
806.942	0.0181579
807.020	0.0180416
807.098	0.0180987
807.176	0.0181816
807.254	0.0181171
807.332	0.0181262
807.410	0.0181926
807.488	0.0181348
807.567	0.0180339
807.645	0.0180839
807.723	0.0180758
807.801	0.0180030
807.879	0.0180878
807.957	0.0179085
808.035	0.0177988
808.113	0.0179398
808.192	0.0179768
808.270	0.0178605
808.348	0.0179029
808.426	0.0178699
808.504	0.0179489
808.582	0.0179371
808.660	0.0177998
808.738	0.0179731
808.817	0.0178431
808.895	0.0178344
808.973	0.0179108
809.051	0.0178850
809.129	0.0180018
809.207	0.0178857
809.285	0.0178567
809.363	0.0179879
809.442	0.0178864
809.520	0.0177555
809.598	0.0177459
809.676	0.0178162
809.754	0.0177897
809.832	0.0178324
809.910	0.0178606
809.988	0.0178543
810.067	0.0178820
810.145	0.0177480
810.223	0.0178992
810.301	0.0179655
810.379	0.0179050
810.457	0.0178841
810.535	0.0180195
810.613	0.0178378
810.692	0.0179060
810.770	0.0179311
810.848	0.0179787
810.926	0.0179990
811.004	0.0179488
811.082	0.0178854
811.160	0.0179732
811.238	0.0180934
811.317	0.0181686
811.395	0.0179313
811.473	0.0178563
811.551	0.0179543
811.629	0.0180710
811.707	0.0179846
811.785	0.0179048
811.863	0.0178936
811.942	0.0179137
812.020	0.0179256
812.098	0.0180244
812.176	0.0179865
812.254	0.0179377
812.332	0.0179375
812.410	0.0180730
812.488	0.0181457
812.567	0.0182266
812.645	0.0180795
812.723	0.0179725
812.801	0.0182335
812.879	0.0181658
812.957	0.0181298
813.035	0.0181358
813.113	0.0182117
813.192	0.0181280
813.270	0.0181730
813.348	0.0182500
813.426	0.0181238
813.504	0.0180342
813.582	0.0181123
813.660	0.0179044
813.738	0.0179730
813.817	0.0179995
813.895	0.0177579
813.973	0.0178806
814.051	0.0179269
814.129	0.0177701
814.207	0.0178686
814.285	0.0178127
814.363	0.0178298
814.442	0.0178803
814.520	0.0179172
814.598	0.0178703
814.676	0.0178745
814.754	0.0179780
814.832	0.0181163
814.910	0.0180386
814.988	0.0179230
815.067	0.0179625
815.145	0.0180038
815.223	0.0180524
815.301	0.0180257
815.379	0.0181535
815.457	0.0181923
815.535	0.0182185
815.613	0.0181796
815.692	0.0180505
815.770	0.0179353
815.848	0.0180318
815.926	0.0180547
816.004	0.0179385
816.082	0.0179388
816.160	0.0180603
816.238	0.0178553
816.317	0.0179652
816.395	0.0178216
816.473	0.0179529
816.551	0.0179446
816.629	0.0180123
816.707	0.0179516
816.785	0.0179425
816.863	0.0180653
816.942	0.0179008
817.020	0.0179626
817.098	0.0181795
817.176	0.0180995
817.254	0.0180618
817.332	0.0180113
817.410	0.0180376
817.488	0.0180140
817.567	0.0181573
817.645	0.0181154
817.723	0.0181533
817.801	0.0179849
817.879	0.0180199
817.957	0.0180942
818.035	0.0179542
818.113	0.0179400
818.192	0.0177946
818.270	0.0178674
818.348	0.0179372
818.426	0.0179073
818.504	0.0179886
818.582	0.0179208
818.660	0.0179478
818.738	0.0178798
818.817	0.0178613
818.895	0.0178662
818.973	0.0179386
819.051	0.0178771
819.129	0.0179600
819.207	0.0181216
819.285	0.0180575
819.363	0.0178432
819.442	0.0179871
819.520	0.0179970
819.598	0.0178901
819.676	0.0179644
819.754	0.0181001
819.832	0.0179066
819.910	0.0179833
819.988	0.0179894
820.067	0.0178598
820.145	0.0179224
820.223	0.0179400
820.301	0.0179754
820.379	0.0179008
820.457	0.0179565
820.535	0.0179836
820.613	0.0179249
820.692	0.0178933
820.770	0.0179035
820.848	0.0180190
820.926	0.0181208
821.004	0.0181174
821.082	0.0180987
821.160	0.0179769
821.238	0.0180775
821.317	0.0180946
821.395	0.0179380
821.473	0.0179363
821.551	0.0179520
821.629	0.0180547
821.707	0.0180212
821.785	0.0179589
821.863	0.0181200
821.942	0.0179854
822.020	0.0179567
822.098	0.0180212
822.176	0.0181423
822.254	0.0179971
822.332	0.0179765
822.410	0.0180894
822.488	0.0179848
822.567	0.0180492
822.645	0.0181864
822.723	0.0180386
822.801	0.0181243
822.879	0.0181291
822.957	0.0180948
823.035	0.0181020
823.113	0.0180090
823.192	0.0180516
823.270	0.0179858
823.348	0.0180383
823.426	0.0180650
823.504	0.0178202
823.582	0.0179913
823.660	0.0179517
823.738	0.0179862
823.817	0.0179140
823.895	0.0178829
823.973	0.0179053
824.051	0.0178277
824.129	0.0178383
824.207	0.0179657
824.285	0.0178691
824.363	0.0177795
824.442	0.0178558
824.520	0.0179199
824.598	0.0179324
824.676	0.0178664
824.754	0.0177917
824.832	0.0178630
824.910	0.0179714
824.988	0.0178175
825.067	0.0178914
825.145	0.0179097
825.223	0.0178346
825.301	0.0180106
825.379	0.0178355
825.457	0.0179578
825.535	0.0178610
825.613	0.0179648
825.692	0.0180519
825.770	0.0179475
825.848	0.0179763
825.926	0.0180544
826.004	0.0180886
826.082	0.0180286
826.160	0.0180708
826.238	0.0180060
826.317	0.0179763
826.395	0.0180154
826.473	0.0180732
826.551	0.0180612
826.629	0.0179587
826.707	0.0179978
826.785	0.0179712
826.863	0.0179958
826.942	0.0178814
827.020	0.0177962
827.098	0.0179821
827.176	0.0179366
827.254	0.0179489
827.332	0.0179255
827.410	0.0179305
827.488	0.0179738
827.567	0.0179507
827.645	0.0178613
827.723	0.0178633
827.801	0.0179343
827.879	0.0181077
827.957	0.0179552
828.035	0.0178597
828.113	0.0180108
828.192	0.0180540
828.270	0.0180088
828.348	0.0181474
828.426	0.0179910
828.504	0.0179786
828.582	0.0179777
828.660	0.0180260
828.738	0.0180190
828.817	0.0181365
828.895	0.0180257
828.973	0.0180054
829.051	0.0180831
829.129	0.0180024
829.207	0.0179620
829.285	0.0179553
829.363	0.0180715
829.442	0.0179863
829.520	0.0179613
829.598	0.0179463
829.676	0.0180421
829.754	0.0181393
829.832	0.0180942
829.910	0.0180518
829.988	0.0178868
830.067	0.0179618
830.145	0.0180158
830.223	0.0179453
830.301	0.0178651
830.379	0.0179156
830.457	0.0179588
830.535	0.0179388
830.613	0.0179310
830.692	0.0178937
830.770	0.0179476
830.848	0.0179781
830.926	0.0178950
831.004	0.0178950
831.082	0.0179514
831.160	0.0180530
831.238	0.0179570
831.317	0.0179378
831.395	0.0180650
831.473	0.0181305
831.551	0.0179823
831.629	0.0180003
831.707	0.0178372
831.785	0.0179578
831.863	0.0180364
831.942	0.0180779
832.020	0.0180591
832.098	0.0179973
832.176	0.0180740
832.254	0.0178308
832.332	0.0179319
832.410	0.0179184
832.488	0.0179909
832.567	0.0178471
832.645	0.0178376
832.723	0.0179622
832.801	0.0179990
832.879	0.0177704
832.957	0.0178635
833.035	0.0179393
833.113	0.0179537
833.192	0.0180439
833.270	0.0180196
833.348	0.0179486
833.426	0.0178835
833.504	0.0178051
833.582	0.0180123
833.660	0.0179748
833.738	0.0178700
833.817	0.0179482
833.895	0.0178727
833.973	0.0179314
834.051	0.0177903
834.129	0.0179852
834.207	0.0180063
834.285	0.0179325
834.363	0.0178086
834.442	0.0178922
834.520	0.0180123
834.598	0.0178510
834.676	0.0180084
834.754	0.0179901
834.832	0.0179742
834.910	0.0178669
834.988	0.0180007
835.067	0.0178648
835.145	0.0179930
835.223	0.0179298
835.301	0.0178378
835.379	0.0178693
835.457	0.0180375
835.535	0.0178655
835.613	0.0179135
835.692	0.0179059
835.770	0.0179089
835.848	0.0179435
835.926	0.0179381
836.004	0.0179457
836.082	0.0176826
836.160	0.0179239
836.238	0.0181414
836.317	0.0180460
836.395	0.0179379
836.473	0.0179239
836.551	0.0179298
836.629	0.0178928
836.707	0.0179050
836.785	0.0180119
836.863	0.0179966
836.942	0.0180649
837.020	0.0181725
837.098	0.0181041
837.176	0.0180497
837.254	0.0180595
837.332	0.0179170
837.410	0.0180666
837.488	0.0180278
837.567	0.0180762
837.645	0.0179671
837.723	0.0179523
837.801	0.0179948
837.879	0.0180206
837.957	0.0180495
838.035	0.0180804
838.113	0.0180426
838.192	0.0179615
838.270	0.0180244
838.348	0.0178200
838.426	0.0179346
838.504	0.0181097
838.582	0.0180090
838.660	0.0181019
838.738	0.0178323
838.817	0.0179104
838.895	0.0180228
838.973	0.0180100
839.051	0.0179912
839.129	0.0180221
839.207	0.0179008
839.285	0.0179426
839.363	0.0179491
839.442	0.0180534
839.520	0.0179837
839.598	0.0179287
839.676	0.0179142
839.754	0.0179156
839.832	0.0177827
839.910	0.0179115
839.988	0.0179776
840.067	0.0179650
840.145	0.0179273
840.223	0.0179541
840.301	0.0180310
840.379	0.0178345
840.457	0.0179218
840.535	0.0179430
840.613	0.0178462
840.692	0.0177425
840.770	0.0178372
840.848	0.0178671
840.926	0.0179083
841.004	0.0178728
841.082	0.0179990
841.160	0.0178352
841.238	0.0179712
841.317	0.0179158
841.395	0.0178015
841.473	0.0178686
841.551	0.0180490
841.629	0.0179894
841.707	0.0178756
841.785	0.0178360
841.863	0.0180175
841.942	0.0178858
842.020	0.0179180
842.098	0.0178600
842.176	0.0180640
842.254	0.0180820
842.332	0.0179836
842.410	0.0180865
842.488	0.0179248
842.567	0.0179975
842.645	0.0181861
842.723	0.0181109
842.801	0.0180412
842.879	0.0181279
842.957	0.0181467
843.035	0.0181120
843.113	0.0180379
843.192	0.0181122
843.270	0.0180212
843.348	0.0179930
843.426	0.0181285
843.504	0.0181355
843.582	0.0180982
843.660	0.0180940
843.738	0.0180173
843.817	0.0180727
843.895	0.0181429
843.973	0.0181562
844.051	0.0181201
844.129	0.0181054
844.207	0.0180569
844.285	0.0181418
844.363	0.0179948
844.442	0.0181098
844.520	0.0180837
844.598	0.0179198
844.676	0.0179909
844.754	0.0179785
844.832	0.0180064
844.910	0.0179971
844.988	0.0179757
845.067	0.0180146
845.145	0.0180218
845.223	0.0179335
845.301	0.0179296
845.379	0.0180487
845.457	0.0179095
845.535	0.0179359
845.613	0.0179854
845.692	0.0177652
845.770	0.0178127
845.848	0.0178577
845.926	0.0178451
846.004	0.0178518
846.082	0.0178006
846.160	0.0178242
846.238	0.0177864
846.317	0.0179333
846.395	0.0179369
846.473	0.0178226
846.551	0.0178745
846.629	0.0180145
846.707	0.0179862
846.785	0.0178980
846.863	0.0178896
846.942	0.0180589
847.020	0.0180017
847.098	0.0179750
847.176	0.0179398
847.254	0.0179498
847.332	0.0179619
847.410	0.0182224
847.488	0.0179749
847.567	0.0179285
847.645	0.0180434
847.723	0.0180536
847.801	0.0180527
847.879	0.0179567
847.957	0.0180856
848.035	0.0181705
848.113	0.0181142
848.192	0.0180251
848.270	0.0181122
848.348	0.0181054
848.426	0.0179962
848.504	0.0179191
848.582	0.0182380
848.660	0.0179675
848.738	0.0179774
848.817	0.0179314
848.895	0.0180405
848.973	0.0179416
849.051	0.0180257
849.129	0.0180076
849.207	0.0178706
849.285	0.0179739
849.363	0.0178322
849.442	0.0177908
849.520	0.0179525
849.598	0.0178222
849.676	0.0176569
849.754	0.0178764
849.832	0.0177589
849.910	0.0176741
849.988	0.0178963
850.067	0.0176940
850.145	0.0178378
850.223	0.0177706
850.301	0.0177869
850.379	0.0177979
850.457	0.0178033
850.535	0.0177178
850.613	0.0179099
850.692	0.0179153
850.770	0.0178543
850.848	0.0179568
850.926	0.0180729
851.004	0.0180973
851.082	0.0180692
851.160	0.0180485
851.238	0.0179746
851.317	0.0180720
851.395	0.0180894
851.473	0.0180550
851.551	0.0180695
851.629	0.0180804
851.707	0.0181548
851.785	0.0180323
851.863	0.0181065
851.942	0.0179995
852.020	0.0180563
852.098	0.0182527
852.176	0.0178639
852.254	0.0180209
852.332	0.0181372
852.410	0.0181443
852.488	0.0181404
852.567	0.0180076
852.645	0.0181046
852.723	0.0181165
852.801	0.0180099
852.879	0.0180893
852.957	0.0181537
853.035	0.0180145
853.113	0.0179574
853.192	0.0180026
853.270	0.0180393
853.348	0.0179742
853.426	0.0180585
853.504	0.0179251
853.582	0.0179412
853.660	0.0180345
853.738	0.0180174
853.817	0.0181409
853.895	0.0180394
853.973	0.0179883
854.051	0.0179530
854.129	0.0180769
854.207	0.0179967
854.285	0.0179534
854.363	0.0178975
854.442	0.0180506
854.520	0.0180087
854.598	0.0178740
854.676	0.0177648
854.754	0.0179405
854.832	0.0178512
854.910	0.0177502
854.988	0.0177736
855.067	0.0177746
855.145	0.0176842
855.223	0.0178529
855.301	0.0177782
855.379	0.0178316
855.457	0.0176695
855.535	0.0176712
855.613	0.0177876
855.692	0.0177663
855.770	0.0178479
855.848	0.0177827
855.926	0.0178075
856.004	0.0177795
856.082	0.0178909
856.160	0.0178635
856.238	0.0179675
856.317	0.0178409
856.395	0.0178493
856.473	0.0178889
856.551	0.0178682
856.629	0.0178666
856.707	0.0179608
856.785	0.0179923
856.863	0.0178612
856.942	0.0178598
857.020	0.0179916
857.098	0.0179874
857.176	0.0179547
857.254	0.0180745
857.332	0.0179969
857.410	0.0181564
857.488	0.0180280
857.567	0.0181538
857.645	0.0180495
857.723	0.0179976
857.801	0.0181523
857.879	0.0181373
857.957	0.0180807
858.035	0.0182272
858.113	0.0181881
858.192	0.0182475
858.270	0.0182556
858.348	0.0180862
858.426	0.0181179
858.504	0.0182361
858.582	0.0182211
858.660	0.0181832
858.738	0.0181592
858.817	0.0181124
858.895	0.0180630
858.973	0.0181390
859.051	0.0180139
859.129	0.0179831
859.207	0.0179898
859.285	0.0179546
859.363	0.0178751
859.442	0.0180001
859.520	0.0178790
859.598	0.0178606
859.676	0.0179313
859.754	0.0179549
859.832	0.0179331
859.910	0.0179003
859.988	0.0178386
860.067	0.0179345
860.145	0.0178178
860.223	0.0180721
860.301	0.0179260
860.379	0.0180117
860.457	0.0178497
860.535	0.0178137
860.613	0.0178589
860.692	0.0179547
860.770	0.0178226
860.848	0.0178183
860.926	0.0178705
861.004	0.0179263
861.082	0.0179322
861.160	0.0178891
861.238	0.0178688
861.317	0.0179362
861.395	0.0179346
861.473	0.0178660
861.551	0.0179056
861.629	0.0179971
861.707	0.0180323
861.785	0.0181152
861.863	0.0180612
861.942	0.0181087
862.020	0.0180463
862.098	0.0178873
862.176	0.0181627
862.254	0.0181143
862.332	0.0181006
862.410	0.0180640
862.488	0.0179167
862.567	0.0179461
862.645	0.0178710
862.723	0.0180565
862.801	0.0178977
862.879	0.0181214
862.957	0.0179840
863.035	0.0179585
863.113	0.0178957
863.192	0.0179744
863.270	0.0179123
863.348	0.0179664
863.426	0.0179974
863.504	0.0179192
863.582	0.0180630
863.660	0.0180412
863.738	0.0179235
863.817	0.0179282
863.895	0.0180880
863.973	0.0179008
864.051	0.0181068
864.129	0.0181065
864.207	0.0180758
864.285	0.0181474
864.363	0.0182085
864.442	0.0181635
864.520	0.0180807
864.598	0.0181783
864.676	0.0182309
864.754	0.0180930
864.832	0.0181335
864.910	0.0181292
864.988	0.0180653
865.067	0.0180267
865.145	0.0180314
865.223	0.0179665
865.301	0.0180024
865.379	0.0180687
865.457	0.0179694
865.535	0.0179173
865.613	0.0178228
865.692	0.0178975
865.770	0.0179404
865.848	0.0178337
865.926	0.0178383
866.004	0.0178094
866.082	0.0179436
866.160	0.0177200
866.238	0.0177794
866.317	0.0176832
866.395	0.0177615
866.473	0.0176642
866.551	0.0177425
866.629	0.0175670
866.707	0.0177257
866.785	0.0177049
866.863	0.0176465
866.942	0.0177560
867.020	0.0177779
867.098	0.0179147
867.176	0.0179089
867.254	0.0178584
867.332	0.0178432
867.410	0.0179614
867.488	0.0179224
867.567	0.0179443
867.645	0.0181384
867.723	0.0179681
867.801	0.0179173
867.879	0.0181402
867.957	0.0180848
868.035	0.0181190
868.113	0.0180696
868.192	0.0181479
868.270	0.0181229
868.348	0.0181332
868.426	0.0181825
868.504	0.0180753
868.582	0.0181554
868.660	0.0182347
868.738	0.0181718
868.817	0.0180242
868.895	0.0181158
868.973	0.0180872
869.051	0.0180362
869.129	0.0181654
869.207	0.0180463
869.285	0.0180123
869.363	0.0180907
869.442	0.0181691
869.520	0.0181277
869.598	0.0180595
869.676	0.0182524
869.754	0.0180631
869.832	0.0179620
869.910	0.0180950
869.988	0.0181414
870.067	0.0181255
870.145	0.0179876
870.223	0.0178946
870.301	0.0180181
870.379	0.0179791
870.457	0.0180881
870.535	0.0178386
870.613	0.0180275
870.692	0.0180439
870.770	0.0180136
870.848	0.0180209
870.926	0.0180158
871.004	0.0178699
871.082	0.0179850
871.160	0.0180029
871.238	0.0179292
871.317	0.0179248
871.395	0.0179542
871.473	0.0178758
871.551	0.0178965
871.629	0.0179417
871.707	0.0178863
871.785	0.0179975
871.863	0.0178362
871.942	0.0177828
872.020	0.0178480
872.098	0.0177774
872.176	0.0179368
872.254	0.0179564
872.332	0.0177933
872.410	0.0179256
872.488	0.0178708
872.567	0.0178329
872.645	0.0177868
872.723	0.0177992
872.801	0.0178394
872.879	0.0177577
872.957	0.0178102
873.035	0.0178898
873.113	0.0179130
873.192	0.0178186
873.270	0.0178799
873.348	0.0179176
873.426	0.0179292
873.504	0.0178930
873.582	0.0177983
873.660	0.0179929
873.738	0.0180090
873.817	0.0178880
873.895	0.0180016
873.973	0.0178940
874.051	0.0180437
874.129	0.0179671
874.207	0.0179585
874.285	0.0180735
874.363	0.0179821
874.442	0.0180363
874.520	0.0180027
874.598	0.0180742
874.676	0.0181774
874.754	0.0180339
874.832	0.0181457
874.910	0.0180933
874.988	0.0180677
875.067	0.0181865
875.145	0.0181433
875.223	0.0181311
875.301	0.0181286
875.379	0.0181116
875.457	0.0181212
875.535	0.0181815
875.613	0.0182441
875.692	0.0182314
875.770	0.0179929
875.848	0.0180278
875.926	0.0181591
876.004	0.0179514
876.082	0.0180305
876.160	0.0180435
876.238	0.0178770
876.317	0.0180175
876.395	0.0180095
876.473	0.0180376
876.551	0.0178228
876.629	0.0179866
876.707	0.0179611
876.785	0.0179813
876.863	0.0180598
876.942	0.0180156
877.020	0.0180000
877.098	0.0179684
877.176	0.0179154
877.254	0.0179343
877.332	0.0179713
877.410	0.0178811
877.488	0.0180303
877.567	0.0181112
877.645	0.0180511
877.723	0.0181131
877.801	0.0180930
877.879	0.0180944
877.957	0.0180489
878.035	0.0179844
878.113	0.0180618
878.192	0.0180243
878.270	0.0180466
878.348	0.0180640
878.426	0.0180419
878.504	0.0180281
878.582	0.0179932
878.660	0.0179803
878.738	0.0180495
878.817	0.0179971
878.895	0.0179503
878.973	0.0179885
879.051	0.0179743
879.129	0.0179687
879.207	0.0179444
879.285	0.0179736
879.363	0.0179502
879.442	0.0179938
879.520	0.0179604
879.598	0.0179149
879.676	0.0179008
879.754	0.0179001
879.832	0.0179137
879.910	0.0178445
879.988	0.0178838
880.067	0.0179845
880.145	0.0178501
880.223	0.0178851
880.301	0.0179057
880.379	0.0179031
880.457	0.0179037
880.535	0.0178030
880.613	0.0178784
880.692	0.0179343
880.770	0.0178549
880.848	0.0178548
880.926	0.0178491
881.004	0.0180111
881.082	0.0179408
881.160	0.0179681
881.238	0.0181594
881.317	0.0181175
881.395	0.0180138
881.473	0.0179380
881.551	0.0179774
881.629	0.0179311
881.707	0.0180004
881.785	0.0180676
881.863	0.0180329
881.942	0.0179200
882.020	0.0180563
882.098	0.0180556
882.176	0.0180665
882.254	0.0180701
882.332	0.0181559
882.410	0.0180388
882.488	0.0181292
882.567	0.0181820
882.645	0.0181261
882.723	0.0181196
882.801	0.0179691
882.879	0.0180003
882.957	0.0179336
883.035	0.0180689
883.113	0.0180720
883.192	0.0180339
883.270	0.0180200
883.348	0.0179984
883.426	0.0180583
883.504	0.0178747
883.582	0.0180124
883.660	0.0180813
883.738	0.0181088
883.817	0.0179879
883.895	0.0181476
883.973	0.0179436
884.051	0.0180959
884.129	0.0182290
884.207	0.0181305
884.285	0.0180414
884.363	0.0180138
884.442	0.0179218
884.520	0.0181747
884.598	0.0180492
884.676	0.0180341
884.754	0.0179864
884.832	0.0178365
884.910	0.0178440
884.988	0.0177376
885.067	0.0178892
885.145	0.0177695
885.223	0.0177912
885.301	0.0177277
885.379	0.0176060
885.457	0.0178257
885.535	0.0176533
885.613	0.0177921
885.692	0.0178421
885.770	0.0179458
885.848	0.0179298
885.926	0.0180514
886.004	0.0179903
886.082	0.0180490
886.160	0.0180056
886.238	0.0180111
886.317	0.0180550
886.395	0.0180775
886.473	0.0178240
886.551	0.0177816
886.629	0.0177448
886.707	0.0177200
886.785	0.0176036
886.863	0.0176541
886.942	0.0176751
887.020	0.0177166
887.098	0.0177374
887.176	0.0179092
887.254	0.0178539
887.332	0.0178474
887.410	0.0179401
887.488	0.0181617
887.567	0.0181017
887.645	0.0181676
887.723	0.0182422
887.801	0.0181800
887.879	0.0182568
887.957	0.0182743
888.035	0.0182693
888.113	0.0183575
888.192	0.0182890
888.270	0.0181090
888.348	0.0181105
888.426	0.0179233
888.504	0.0180040
888.582	0.0179535
888.660	0.0179498
888.738	0.0181052
888.817	0.0179834
888.895	0.0179375
888.973	0.0180349
889.051	0.0179608
889.129	0.0179361
889.207	0.0181158
889.285	0.0181418
889.363	0.0179431
889.442	0.0180299
889.520	0.0180739
889.598	0.0180571
889.676	0.0181493
889.754	0.0181422
889.832	0.0181420
889.910	0.0180742
889.988	0.0184088
890.067	0.0181626
890.145	0.0181063
890.223	0.0180768
890.301	0.0180160
890.379	0.0180583
890.457	0.0181552
890.535	0.0180402
890.613	0.0180982
890.692	0.0180009
890.770	0.0182171
890.848	0.0181776
890.926	0.0181353
891.004	0.0180236
891.082	0.0180149
891.160	0.0180624
891.238	0.0180128
891.317	0.0178909
891.395	0.0179758
891.473	0.0180143
891.551	0.0179979
891.629	0.0177782
891.707	0.0178736
891.785	0.0176311
891.863	0.0177409
891.942	0.0176591
892.020	0.0177045
892.098	0.0176537
892.176	0.0176973
892.254	0.0176169
892.332	0.0175894
892.410	0.0178152
892.488	0.0177294
892.567	0.0177914
892.645	0.0175383
892.723	0.0176757
892.801	0.0177508
892.879	0.0178580
892.957	0.0178322
893.035	0.0177331
893.113	0.0176532
893.192	0.0178869
893.270	0.0177715
893.348	0.0178326
893.426	0.0178850
893.504	0.0179127
893.582	0.0180040
893.660	0.0180273
893.738	0.0179302
893.817	0.0179335
893.895	0.0180426
893.973	0.0179852
894.051	0.0180159
894.129	0.0180122
894.207	0.0179546
894.285	0.0180857
894.363	0.0181526
894.442	0.0180482
894.520	0.0179784
894.598	0.0181252
894.676	0.0180205
894.754	0.0180925
894.832	0.0180254
894.910	0.0180860
894.988	0.0181349
895.067	0.0181368
895.145	0.0181452
895.223	0.0182507
895.301	0.0180904
895.379	0.0180235
895.457	0.0182609
895.535	0.0182594
895.613	0.0182111
895.692	0.0182461
895.770	0.0183727
895.848	0.0183087
895.926	0.0183278
896.004	0.0181779
896.082	0.0181905
896.160	0.0182333
896.238	0.0180575
896.317	0.0183205
896.395	0.0182413
896.473	0.0180901
896.551	0.0180924
896.629	0.0182362
896.707	0.0181309
896.785	0.0180491
896.863	0.0180338
896.942	0.0180633
897.020	0.0179234
897.098	0.0180227
897.176	0.0180148
897.254	0.0179488
897.332	0.0179897
897.410	0.0180223
897.488	0.0180395
897.567	0.0178161
897.645	0.0179497
897.723	0.0178185
897.801	0.0178384
897.879	0.0177583
897.957	0.0178300
898.035	0.0177937
898.113	0.0177563
898.192	0.0177557
898.270	0.0177692
898.348	0.0176464
898.426	0.0176574
898.504	0.0177009
898.582	0.0176435
898.660	0.0175987
898.738	0.0176541
898.817	0.0176612
898.895	0.0176176
898.973	0.0177442
899.051	0.0176731
899.129	0.0176764
899.207	0.0178255
899.285	0.0178020
899.363	0.0177477
899.442	0.0178467
899.520	0.0178873
899.598	0.0178996
899.676	0.0180571
899.754	0.0180116
899.832	0.0180571
899.910	0.0179404
899.988	0.0181258
900.067	0.0180204
900.145	0.0180384
900.223	0.0180764
900.301	0.0181059
900.379	0.0182120
900.457	0.0181107
900.535	0.0181713
900.613	0.0181277
900.692	0.0180710
900.770	0.0180234
900.848	0.0181385
900.926	0.0181227
901.004	0.0182545
901.082	0.0180744
901.160	0.0182176
901.238	0.0181394
901.317	0.0182182
901.395	0.0182465
901.473	0.0181207
901.551	0.0181552
901.629	0.0181028
901.707	0.0180219
901.785	0.0181070
901.863	0.0183380
901.942	0.0181174
902.020	0.0180975
902.098	0.0181149
902.176	0.0180370
902.254	0.0180517
902.332	0.0180762
902.410	0.0179877
902.488	0.0180576
902.567	0.0179923
902.645	0.0181388
902.723	0.0182210
902.801	0.0180209
902.879	0.0181567
902.957	0.0180795
903.035	0.0181204
903.113	0.0180489
903.192	0.0180163
903.270	0.0178078
903.348	0.0179148
903.426	0.0180396
903.504	0.0179793
903.582	0.0180781
903.660	0.0178980
903.738	0.0179716
903.817	0.0178500
903.895	0.0178733
903.973	0.0177079
904.051	0.0178652
904.129	0.0178147
904.207	0.0177150
904.285	0.0180243
904.363	0.0178291
904.442	0.0178964
904.520	0.0178291
904.598	0.0177558
904.676	0.0179185
904.754	0.0180006
904.832	0.0178735
904.910	0.0178616
904.988	0.0178738
905.067	0.0178599
905.145	0.0179678
905.223	0.0178896
905.301	0.0178675
905.379	0.0179036
905.457	0.0178418
905.535	0.0178321
905.613	0.0178036
905.692	0.0179657
905.770	0.0179689
905.848	0.0177603
905.926	0.0179524
906.004	0.0180588
906.082	0.0179437
906.160	0.0179089
906.238	0.0179110
906.317	0.0178610
906.395	0.0179417
906.473	0.0180067
906.551	0.0178697
906.629	0.0179454
906.707	0.0178963
906.785	0.0180013
906.863	0.0179289
906.942	0.0179731
907.020	0.0179108
907.098	0.0178684
907.176	0.0179760
907.254	0.0179718
907.332	0.0179817
907.410	0.0178930
907.488	0.0177879
907.567	0.0177675
907.645	0.0179005
907.723	0.0179488
907.801	0.0178828
907.879	0.0179536
907.957	0.0178883
908.035	0.0179147
908.113	0.0180005
908.192	0.0180921
908.270	0.0180363
908.348	0.0180759
908.426	0.0181559
908.504	0.0181436
908.582	0.0180301
908.660	0.0181598
908.738	0.0182374
908.817	0.0182051
908.895	0.0181892
908.973	0.0182466
909.051	0.0182612
909.129	0.0181513
909.207	0.0180978
909.285	0.0181411
909.363	0.0181029
909.442	0.0179787
909.520	0.0180184
909.598	0.0178751
909.676	0.0179420
909.754	0.0180114
909.832	0.0179371
909.910	0.0180087
909.988	0.0179567
910.067	0.0178789
910.145	0.0176890
910.223	0.0178896
910.301	0.0179144
910.379	0.0177976
910.457	0.0179581
910.535	0.0177317
910.613	0.0177564
910.692	0.0179287
910.770	0.0178684
910.848	0.0177068
910.926	0.0180030
911.004	0.0178364
911.082	0.0178259
911.160	0.0178114
911.238	0.0179530
911.317	0.0179565
911.395	0.0180198
911.473	0.0178658
911.551	0.0178947
911.629	0.0178225
911.707	0.0179698
911.785	0.0180812
911.863	0.0179884
911.942	0.0178741
912.020	0.0180663
912.098	0.0178658
912.176	0.0178143
912.254	0.0178058
912.332	0.0178463
912.410	0.0179527
912.488	0.0178381
912.567	0.0179407
912.645	0.0179305
912.723	0.0179516
912.801	0.0179794
912.879	0.0178738
912.957	0.0179962
913.035	0.0179644
913.113	0.0179531
913.192	0.0179937
913.270	0.0181255
913.348	0.0180464
913.426	0.0181277
913.504	0.0181680
913.582	0.0179182
913.660	0.0180423
913.738	0.0180560
913.817	0.0178825
913.895	0.0180016
913.973	0.0179711
914.051	0.0179133
914.129	0.0179453
914.207	0.0179559
914.285	0.0179061
914.363	0.0178725
914.442	0.0177586
914.520	0.0178145
914.598	0.0178457
914.676	0.0178893
914.754	0.0179649
914.832	0.0178954
914.910	0.0178546
914.988	0.0178039
915.067	0.0179313
915.145	0.0179363
915.223	0.0180396
915.301	0.0179227
915.379	0.0179873
915.457	0.0180399
915.535	0.0180682
915.613	0.0180087
915.692	0.0181979
915.770	0.0180344
915.848	0.0182359
915.926	0.0182773
916.004	0.0181969
916.082	0.0181071
916.160	0.0182156
916.238	0.0181899
916.317	0.0181133
916.395	0.0182413
916.473	0.0181739
916.551	0.0182419
916.629	0.0181136
916.707	0.0181400
916.785	0.0181483
916.863	0.0179996
916.942	0.0178148
917.020	0.0180578
917.098	0.0179651
917.176	0.0180221
917.254	0.0180404
917.332	0.0180003
917.410	0.0179484
917.488	0.0178177
917.567	0.0178950
917.645	0.0179656
917.723	0.0179163
917.801	0.0178844
917.879	0.0179480
917.957	0.0179126
918.035	0.0182123
918.113	0.0179037
918.192	0.0180086
918.270	0.0179851
918.348	0.0181701
918.426	0.0180117
918.504	0.0179563
918.582	0.0180495
918.660	0.0181155
918.738	0.0180154
918.817	0.0179567
918.895	0.0179817
918.973	0.0180760
919.051	0.0180483
919.129	0.0181706
919.207	0.0180621
919.285	0.0179267
919.363	0.0178390
919.442	0.0180318
919.520	0.0180222
919.598	0.0180497
919.676	0.0179947
919.754	0.0179582
919.832	0.0179340
919.910	0.0179887
