06/01/2022	21:52:58	Ver.	4.1	UNKNOWN
Optical Delay	599.988409	Delta X		0.078125	Sweeps	1	Scan Rate	0/0
Coordinates	Axis 1	NaN	Axis 2	NaN	Axis 3	NaN	Axis 4	NaN	Axis 5	NaN	Axis 6	0.000000
TX Power	0.000000	RX Power	0.000000

599.988	0.0180704
600.067	0.0180077
600.145	0.0179656
600.223	0.0180706
600.301	0.0181786
600.379	0.0181062
600.457	0.0180896
600.535	0.0179290
600.613	0.0179463
600.692	0.0180811
600.770	0.0180161
600.848	0.0180250
600.926	0.0181402
601.004	0.0181358
601.082	0.0180811
601.160	0.0179890
601.238	0.0179887
601.317	0.0181036
601.395	0.0181296
601.473	0.0181129
601.551	0.0180199
601.629	0.0180246
601.707	0.0180170
601.785	0.0180293
601.863	0.0180840
601.942	0.0180110
602.020	0.0179953
602.098	0.0181229
602.176	0.0179817
602.254	0.0180775
602.332	0.0181622
602.410	0.0179804
602.488	0.0178818
602.567	0.0181271
602.645	0.0180882
602.723	0.0180862
602.801	0.0178622
602.879	0.0179406
602.957	0.0180953
603.035	0.0180731
603.113	0.0180288
603.192	0.0181541
603.270	0.0180956
603.348	0.0179684
603.426	0.0179936
603.504	0.0180157
603.582	0.0179934
603.660	0.0180589
603.738	0.0181525
603.817	0.0181596
603.895	0.0180194
603.973	0.0180064
604.051	0.0179781
604.129	0.0180843
604.207	0.0181255
604.285	0.0180021
604.363	0.0179268
604.442	0.0179825
604.520	0.0179076
604.598	0.0179948
604.676	0.0181413
604.754	0.0179912
604.832	0.0180696
604.910	0.0179420
604.988	0.0179426
605.067	0.0180614
605.145	0.0180629
605.223	0.0180397
605.301	0.0181094
605.379	0.0180421
605.457	0.0180253
605.535	0.0179896
605.613	0.0179724
605.692	0.0179590
605.770	0.0179577
605.848	0.0179983
605.926	0.0180277
606.004	0.0180308
606.082	0.0180944
606.160	0.0179811
606.238	0.0179421
606.317	0.0180608
606.395	0.0179765
606.473	0.0181454
606.551	0.0179709
606.629	0.0178829
606.707	0.0180727
606.785	0.0180682
606.863	0.0179645
606.942	0.0181078
607.020	0.0180312
607.098	0.0180142
607.176	0.0180360
607.254	0.0179842
607.332	0.0180720
607.410	0.0180671
607.488	0.0179351
607.567	0.0181116
607.645	0.0179400
607.723	0.0180108
607.801	0.0180480
607.879	0.0180641
607.957	0.0179613
608.035	0.0180600
608.113	0.0180510
608.192	0.0180843
608.270	0.0178889
608.348	0.0180000
608.426	0.0180277
608.504	0.0181764
608.582	0.0180161
608.660	0.0179942
608.738	0.0179967
608.817	0.0179469
608.895	0.0179825
608.973	0.0180011
609.051	0.0180780
609.129	0.0179765
609.207	0.0179681
609.285	0.0180434
609.363	0.0179701
609.442	0.0180846
609.520	0.0178855
609.598	0.0179539
609.676	0.0180402
609.754	0.0180180
609.832	0.0179025
609.910	0.0179649
609.988	0.0180997
610.067	0.0180537
610.145	0.0180573
610.223	0.0179316
610.301	0.0180054
610.379	0.0180689
610.457	0.0179845
610.535	0.0178483
610.613	0.0180389
610.692	0.0181229
610.770	0.0180835
610.848	0.0180269
610.926	0.0180640
611.004	0.0179939
611.082	0.0180009
611.160	0.0180569
611.238	0.0179650
611.317	0.0180115
611.395	0.0180752
611.473	0.0180244
611.551	0.0180502
611.629	0.0180418
611.707	0.0181374
611.785	0.0180831
611.863	0.0181500
611.942	0.0181020
612.020	0.0180605
612.098	0.0181092
612.176	0.0180428
612.254	0.0179506
612.332	0.0179995
612.410	0.0179958
612.488	0.0181161
612.567	0.0179997
612.645	0.0180883
612.723	0.0181347
612.801	0.0179794
612.879	0.0179566
612.957	0.0181113
613.035	0.0180971
613.113	0.0180418
613.192	0.0180539
613.270	0.0179950
613.348	0.0179905
613.426	0.0179605
613.504	0.0179630
613.582	0.0180794
613.660	0.0180239
613.738	0.0179483
613.817	0.0179415
613.895	0.0179089
613.973	0.0181911
614.051	0.0180290
614.129	0.0179887
614.207	0.0181100
614.285	0.0180660
614.363	0.0181810
614.442	0.0181033
614.520	0.0181017
614.598	0.0179711
614.676	0.0180003
614.754	0.0181039
614.832	0.0180576
614.910	0.0179688
614.988	0.0181087
615.067	0.0179990
615.145	0.0180162
615.223	0.0181261
615.301	0.0180864
615.379	0.0180647
615.457	0.0179996
615.535	0.0181440
615.613	0.0181311
615.692	0.0181532
615.770	0.0180930
615.848	0.0181770
615.926	0.0181167
616.004	0.0180219
616.082	0.0180486
616.160	0.0180733
616.238	0.0179701
616.317	0.0180680
616.395	0.0181698
616.473	0.0180020
616.551	0.0181528
616.629	0.0180589
616.707	0.0181187
616.785	0.0180209
616.863	0.0181742
616.942	0.0180550
617.020	0.0180005
617.098	0.0180381
617.176	0.0180775
617.254	0.0180841
617.332	0.0179628
617.410	0.0180158
617.488	0.0181601
617.567	0.0181306
617.645	0.0181806
617.723	0.0180529
617.801	0.0178420
617.879	0.0181629
617.957	0.0180663
618.035	0.0178835
618.113	0.0180835
618.192	0.0181192
618.270	0.0181019
618.348	0.0181099
618.426	0.0180645
618.504	0.0180492
618.582	0.0180714
618.660	0.0181034
618.738	0.0180126
618.817	0.0180788
618.895	0.0180476
618.973	0.0180922
619.051	0.0181005
619.129	0.0181712
619.207	0.0181498
619.285	0.0179799
619.363	0.0180730
619.442	0.0181841
619.520	0.0180434
619.598	0.0179967
619.676	0.0181429
619.754	0.0181451
619.832	0.0180344
619.910	0.0181356
619.988	0.0180907
620.067	0.0180456
620.145	0.0181075
620.223	0.0179859
620.301	0.0180468
620.379	0.0180589
620.457	0.0180986
620.535	0.0180471
620.613	0.0180850
620.692	0.0179716
620.770	0.0180485
620.848	0.0179802
620.926	0.0178873
621.004	0.0180704
621.082	0.0180132
621.160	0.0180785
621.238	0.0180765
621.317	0.0178909
621.395	0.0180603
621.473	0.0181296
621.551	0.0182388
621.629	0.0179322
621.707	0.0178794
621.785	0.0180601
621.863	0.0182386
621.942	0.0180321
622.020	0.0179412
622.098	0.0180586
622.176	0.0179749
622.254	0.0180682
622.332	0.0181101
622.410	0.0181579
622.488	0.0181223
622.567	0.0179282
622.645	0.0181068
622.723	0.0181380
622.801	0.0181145
622.879	0.0180127
622.957	0.0180077
623.035	0.0180589
623.113	0.0179762
623.192	0.0181038
623.270	0.0181132
623.348	0.0180766
623.426	0.0180378
623.504	0.0180077
623.582	0.0182475
623.660	0.0181113
623.738	0.0179147
623.817	0.0180491
623.895	0.0180647
623.973	0.0181398
624.051	0.0180720
624.129	0.0180376
624.207	0.0180875
624.285	0.0180338
624.363	0.0179744
624.442	0.0180682
624.520	0.0178933
624.598	0.0180684
624.676	0.0180354
624.754	0.0179166
624.832	0.0180142
624.910	0.0180991
624.988	0.0181216
625.067	0.0180237
625.145	0.0180641
625.223	0.0181821
625.301	0.0179891
625.379	0.0181155
625.457	0.0180797
625.535	0.0180505
625.613	0.0180327
625.692	0.0180275
625.770	0.0180116
625.848	0.0180335
625.926	0.0180372
626.004	0.0179650
626.082	0.0180920
626.160	0.0181187
626.238	0.0180322
626.317	0.0179929
626.395	0.0179589
626.473	0.0179828
626.551	0.0180151
626.629	0.0180833
626.707	0.0180541
626.785	0.0180022
626.863	0.0180061
626.942	0.0180316
627.020	0.0180560
627.098	0.0180283
627.176	0.0179993
627.254	0.0182058
627.332	0.0180769
627.410	0.0180643
627.488	0.0180241
627.567	0.0181792
627.645	0.0180110
627.723	0.0180708
627.801	0.0180572
627.879	0.0181078
627.957	0.0179927
628.035	0.0179948
628.113	0.0181068
628.192	0.0179969
628.270	0.0180654
628.348	0.0181080
628.426	0.0179978
628.504	0.0179993
628.582	0.0181095
628.660	0.0181092
628.738	0.0179074
628.817	0.0180394
628.895	0.0180647
628.973	0.0180403
629.051	0.0180900
629.129	0.0180357
629.207	0.0179176
629.285	0.0179315
629.363	0.0182029
629.442	0.0180839
629.520	0.0181159
629.598	0.0179893
629.676	0.0179997
629.754	0.0180495
629.832	0.0180460
629.910	0.0179850
629.988	0.0179985
630.067	0.0182103
630.145	0.0180829
630.223	0.0180769
630.301	0.0180854
630.379	0.0178882
630.457	0.0179510
630.535	0.0180679
630.613	0.0178813
630.692	0.0180093
630.770	0.0180717
630.848	0.0180724
630.926	0.0179324
631.004	0.0181358
631.082	0.0181057
631.160	0.0179944
631.238	0.0180988
631.317	0.0180228
631.395	0.0180809
631.473	0.0180875
631.551	0.0182091
631.629	0.0180225
631.707	0.0179877
631.785	0.0178129
631.863	0.0180002
631.942	0.0179908
632.020	0.0180926
632.098	0.0181063
632.176	0.0180901
632.254	0.0180721
632.332	0.0180807
632.410	0.0180909
632.488	0.0181655
632.567	0.0180129
632.645	0.0181149
632.723	0.0180805
632.801	0.0182829
632.879	0.0182439
632.957	0.0181678
633.035	0.0179809
633.113	0.0180303
633.192	0.0180531
633.270	0.0178584
633.348	0.0181290
633.426	0.0179391
633.504	0.0178291
633.582	0.0179655
633.660	0.0179333
633.738	0.0180916
633.817	0.0180996
633.895	0.0180134
633.973	0.0180039
634.051	0.0181713
634.129	0.0181547
634.207	0.0181354
634.285	0.0181948
634.363	0.0181893
634.442	0.0182501
634.520	0.0180116
634.598	0.0181784
634.676	0.0179784
634.754	0.0181977
634.832	0.0180813
634.910	0.0180297
634.988	0.0180854
635.067	0.0179849
635.145	0.0180834
635.223	0.0179350
635.301	0.0178807
635.379	0.0180121
635.457	0.0179544
635.535	0.0179943
635.613	0.0179301
635.692	0.0178999
635.770	0.0181036
635.848	0.0179601
635.926	0.0180858
636.004	0.0182318
636.082	0.0181177
636.160	0.0181881
636.238	0.0183569
636.317	0.0180995
636.395	0.0181057
636.473	0.0181667
636.551	0.0182207
636.629	0.0181219
636.707	0.0179454
636.785	0.0178695
636.863	0.0180047
636.942	0.0179530
637.020	0.0178619
637.098	0.0179784
637.176	0.0180637
637.254	0.0180301
637.332	0.0178876
637.410	0.0179296
637.488	0.0179682
637.567	0.0180977
637.645	0.0179917
637.723	0.0178757
637.801	0.0179890
637.879	0.0181033
637.957	0.0180072
638.035	0.0180431
638.113	0.0181523
638.192	0.0180496
638.270	0.0181179
638.348	0.0181931
638.426	0.0182550
638.504	0.0181821
638.582	0.0181894
638.660	0.0180000
638.738	0.0180267
638.817	0.0180458
638.895	0.0180576
638.973	0.0179795
639.051	0.0180396
639.129	0.0180856
639.207	0.0179986
639.285	0.0178082
639.363	0.0179299
639.442	0.0181062
639.520	0.0180251
639.598	0.0179771
639.676	0.0179709
639.754	0.0180656
639.832	0.0180516
639.910	0.0180824
639.988	0.0180711
640.067	0.0182068
640.145	0.0180039
640.223	0.0181330
640.301	0.0179812
640.379	0.0182453
640.457	0.0183012
640.535	0.0180299
640.613	0.0181899
640.692	0.0181163
640.770	0.0181703
640.848	0.0180415
640.926	0.0180621
641.004	0.0179314
641.082	0.0178151
641.160	0.0177870
641.238	0.0178213
641.317	0.0177946
641.395	0.0178690
641.473	0.0177702
641.551	0.0179591
641.629	0.0180516
641.707	0.0181527
641.785	0.0180204
641.863	0.0182214
641.942	0.0181120
642.020	0.0181761
642.098	0.0181682
642.176	0.0184071
642.254	0.0183516
642.332	0.0182297
642.410	0.0181892
642.488	0.0180858
642.567	0.0182221
642.645	0.0179983
642.723	0.0180186
642.801	0.0180135
642.879	0.0179352
642.957	0.0178708
643.035	0.0179251
643.113	0.0177305
643.192	0.0179511
643.270	0.0177770
643.348	0.0179744
643.426	0.0179897
643.504	0.0179301
643.582	0.0179674
643.660	0.0181625
643.738	0.0181936
643.817	0.0180223
643.895	0.0180727
643.973	0.0180631
644.051	0.0182533
644.129	0.0181377
644.207	0.0180561
644.285	0.0182803
644.363	0.0182024
644.442	0.0181174
644.520	0.0179733
644.598	0.0180217
644.676	0.0180947
644.754	0.0180499
644.832	0.0178051
644.910	0.0178547
644.988	0.0178584
645.067	0.0179688
645.145	0.0179555
645.223	0.0180400
645.301	0.0180004
645.379	0.0179609
645.457	0.0179708
645.535	0.0179769
645.613	0.0180690
645.692	0.0179937
645.770	0.0181636
645.848	0.0181096
645.926	0.0180645
646.004	0.0179959
646.082	0.0181329
646.160	0.0179833
646.238	0.0181123
646.317	0.0181204
646.395	0.0181624
646.473	0.0181812
646.551	0.0180357
646.629	0.0182079
646.707	0.0180935
646.785	0.0181271
646.863	0.0180190
646.942	0.0181017
647.020	0.0180356
647.098	0.0179005
647.176	0.0179093
647.254	0.0180204
647.332	0.0180529
647.410	0.0179432
647.488	0.0180894
647.567	0.0180876
647.645	0.0180312
647.723	0.0179438
647.801	0.0180874
647.879	0.0181886
647.957	0.0180520
648.035	0.0180298
648.113	0.0181047
648.192	0.0180364
648.270	0.0180759
648.348	0.0180403
648.426	0.0179879
648.504	0.0181428
648.582	0.0181592
648.660	0.0180963
648.738	0.0182310
648.817	0.0181879
648.895	0.0179398
648.973	0.0181478
649.051	0.0181847
649.129	0.0180917
649.207	0.0180798
649.285	0.0181839
649.363	0.0181694
649.442	0.0182119
649.520	0.0179859
649.598	0.0180219
649.676	0.0182024
649.754	0.0181432
649.832	0.0181223
649.910	0.0180220
649.988	0.0179916
650.067	0.0179572
650.145	0.0179388
650.223	0.0180668
650.301	0.0179236
650.379	0.0179837
650.457	0.0179781
650.535	0.0180419
650.613	0.0180109
650.692	0.0180751
650.770	0.0178864
650.848	0.0180997
650.926	0.0180805
651.004	0.0180450
651.082	0.0181710
651.160	0.0181909
651.238	0.0180980
651.317	0.0182032
651.395	0.0182368
651.473	0.0183297
651.551	0.0182357
651.629	0.0182253
651.707	0.0182475
651.785	0.0181929
651.863	0.0179750
651.942	0.0179838
652.020	0.0179552
652.098	0.0178380
652.176	0.0178474
652.254	0.0177515
652.332	0.0177413
652.410	0.0178488
652.488	0.0177441
652.567	0.0178412
652.645	0.0179175
652.723	0.0179653
652.801	0.0178629
652.879	0.0179486
652.957	0.0181184
653.035	0.0183031
653.113	0.0183801
653.192	0.0182410
653.270	0.0182884
653.348	0.0184034
653.426	0.0184438
653.504	0.0184172
653.582	0.0182643
653.660	0.0181947
653.738	0.0182370
653.817	0.0182140
653.895	0.0180251
653.973	0.0179881
654.051	0.0178460
654.129	0.0178575
654.207	0.0177775
654.285	0.0177177
654.363	0.0176925
654.442	0.0177928
654.520	0.0178666
654.598	0.0178834
654.676	0.0177784
654.754	0.0178020
654.832	0.0178764
654.910	0.0179623
654.988	0.0181519
655.067	0.0180262
655.145	0.0181738
655.223	0.0183947
655.301	0.0182432
655.379	0.0183235
655.457	0.0184011
655.535	0.0183693
655.613	0.0183174
655.692	0.0183745
655.770	0.0183500
655.848	0.0182050
655.926	0.0182152
656.004	0.0180796
656.082	0.0179510
656.160	0.0179551
656.238	0.0180268
656.317	0.0177279
656.395	0.0177649
656.473	0.0177351
656.551	0.0178539
656.629	0.0178081
656.707	0.0178016
656.785	0.0178163
656.863	0.0178433
656.942	0.0180291
657.020	0.0180537
657.098	0.0181064
657.176	0.0181817
657.254	0.0182153
657.332	0.0182974
657.410	0.0183945
657.488	0.0182821
657.567	0.0183279
657.645	0.0182986
657.723	0.0182248
657.801	0.0181890
657.879	0.0183457
657.957	0.0180728
658.035	0.0179488
658.113	0.0181278
658.192	0.0178946
658.270	0.0180567
658.348	0.0178680
658.426	0.0177333
658.504	0.0178396
658.582	0.0178562
658.660	0.0178123
658.738	0.0179295
658.817	0.0178929
658.895	0.0178880
658.973	0.0179556
659.051	0.0179622
659.129	0.0179757
659.207	0.0180898
659.285	0.0181714
659.363	0.0181087
659.442	0.0181419
659.520	0.0181726
659.598	0.0181382
659.676	0.0180866
659.754	0.0181497
659.832	0.0181409
659.910	0.0181336
659.988	0.0182275
660.067	0.0180780
660.145	0.0181512
660.223	0.0181049
660.301	0.0181189
660.379	0.0181607
660.457	0.0180869
660.535	0.0180863
660.613	0.0180151
660.692	0.0180382
660.770	0.0181535
660.848	0.0181660
660.926	0.0181439
661.004	0.0180357
661.082	0.0180546
661.160	0.0179844
661.238	0.0179731
661.317	0.0180337
661.395	0.0180178
661.473	0.0180153
661.551	0.0179136
661.629	0.0178709
661.707	0.0177642
661.785	0.0178083
661.863	0.0176832
661.942	0.0176926
662.020	0.0177739
662.098	0.0178896
662.176	0.0178906
662.254	0.0179759
662.332	0.0181640
662.410	0.0179965
662.488	0.0180782
662.567	0.0182127
662.645	0.0181497
662.723	0.0182409
662.801	0.0183826
662.879	0.0183794
662.957	0.0183403
663.035	0.0182404
663.113	0.0182692
663.192	0.0181924
663.270	0.0182396
663.348	0.0181833
663.426	0.0181038
663.504	0.0179461
663.582	0.0180957
663.660	0.0180486
663.738	0.0178788
663.817	0.0176862
663.895	0.0177704
663.973	0.0179354
664.051	0.0177328
664.129	0.0177593
664.207	0.0177312
664.285	0.0179578
664.363	0.0179364
664.442	0.0180013
664.520	0.0180637
664.598	0.0180461
664.676	0.0182024
664.754	0.0180792
664.832	0.0180805
664.910	0.0182026
664.988	0.0183244
665.067	0.0182812
665.145	0.0181331
665.223	0.0181446
665.301	0.0182389
665.379	0.0181252
665.457	0.0180837
665.535	0.0180601
665.613	0.0180113
665.692	0.0178413
665.770	0.0178584
665.848	0.0177805
665.926	0.0177744
666.004	0.0177588
666.082	0.0177312
666.160	0.0176430
666.238	0.0177005
666.317	0.0178108
666.395	0.0180113
666.473	0.0180173
666.551	0.0180002
666.629	0.0181197
666.707	0.0182066
666.785	0.0182228
666.863	0.0183303
666.942	0.0184975
667.020	0.0183819
667.098	0.0182298
667.176	0.0182459
667.254	0.0182997
667.332	0.0183512
667.410	0.0181961
667.488	0.0182026
667.567	0.0179874
667.645	0.0179707
667.723	0.0178713
667.801	0.0177568
667.879	0.0179086
667.957	0.0178131
668.035	0.0179179
668.113	0.0178182
668.192	0.0177056
668.270	0.0177453
668.348	0.0177724
668.426	0.0177124
668.504	0.0179525
668.582	0.0178921
668.660	0.0179282
668.738	0.0180166
668.817	0.0179040
668.895	0.0180732
668.973	0.0181432
669.051	0.0180745
669.129	0.0181664
669.207	0.0180209
669.285	0.0181667
669.363	0.0181137
669.442	0.0182012
669.520	0.0181971
669.598	0.0181354
669.676	0.0180903
669.754	0.0179500
669.832	0.0181528
669.910	0.0180993
669.988	0.0179287
670.067	0.0179794
670.145	0.0179675
670.223	0.0177696
670.301	0.0179251
670.379	0.0181123
670.457	0.0179325
670.535	0.0180158
670.613	0.0180737
670.692	0.0181046
670.770	0.0180556
670.848	0.0180397
670.926	0.0181784
671.004	0.0181264
671.082	0.0182568
671.160	0.0180711
671.238	0.0181622
671.317	0.0182888
671.395	0.0182478
671.473	0.0180608
671.551	0.0180132
671.629	0.0181745
671.707	0.0181737
671.785	0.0179659
671.863	0.0179783
671.942	0.0180151
672.020	0.0180328
672.098	0.0179049
672.176	0.0180301
672.254	0.0179058
672.332	0.0178708
672.410	0.0179825
672.488	0.0181288
672.567	0.0182038
672.645	0.0182410
672.723	0.0179693
672.801	0.0179883
672.879	0.0180745
672.957	0.0179388
673.035	0.0181127
673.113	0.0180059
673.192	0.0178926
673.270	0.0179223
673.348	0.0179549
673.426	0.0180041
673.504	0.0179061
673.582	0.0178735
673.660	0.0177688
673.738	0.0179327
673.817	0.0178911
673.895	0.0180243
673.973	0.0179418
674.051	0.0180035
674.129	0.0179977
674.207	0.0179284
674.285	0.0180674
674.363	0.0181575
674.442	0.0181725
674.520	0.0181013
674.598	0.0181789
674.676	0.0180347
674.754	0.0180914
674.832	0.0182175
674.910	0.0181444
674.988	0.0181083
675.067	0.0182694
675.145	0.0180496
675.223	0.0180083
675.301	0.0179369
675.379	0.0179169
675.457	0.0179817
675.535	0.0179769
675.613	0.0179106
675.692	0.0178486
675.770	0.0179314
675.848	0.0178634
675.926	0.0179332
676.004	0.0178078
676.082	0.0176717
676.160	0.0178563
676.238	0.0177831
676.317	0.0176764
676.395	0.0176847
676.473	0.0176767
676.551	0.0176879
676.629	0.0177205
676.707	0.0178099
676.785	0.0177642
676.863	0.0179562
676.942	0.0178553
677.020	0.0181648
677.098	0.0182120
677.176	0.0184083
677.254	0.0185486
677.332	0.0186916
677.410	0.0187191
677.488	0.0188012
677.567	0.0188892
677.645	0.0187765
677.723	0.0188372
677.801	0.0188506
677.879	0.0186232
677.957	0.0185337
678.035	0.0184124
678.113	0.0180655
678.192	0.0179971
678.270	0.0179433
678.348	0.0177619
678.426	0.0177700
678.504	0.0175711
678.582	0.0173969
678.660	0.0173801
678.738	0.0172998
678.817	0.0173305
678.895	0.0171651
678.973	0.0171287
679.051	0.0170650
679.129	0.0171413
679.207	0.0171635
679.285	0.0172057
679.363	0.0172923
679.442	0.0174090
679.520	0.0175738
679.598	0.0175852
679.676	0.0178785
679.754	0.0181234
679.832	0.0182737
679.910	0.0185229
679.988	0.0185351
680.067	0.0188179
680.145	0.0190627
680.223	0.0192067
680.301	0.0191446
680.379	0.0192337
680.457	0.0193491
680.535	0.0192049
680.613	0.0191550
680.692	0.0191332
680.770	0.0188342
680.848	0.0185449
680.926	0.0184718
681.004	0.0180358
681.082	0.0179298
681.160	0.0177009
681.238	0.0172621
681.317	0.0170685
681.395	0.0168371
681.473	0.0167262
681.551	0.0166661
681.629	0.0166026
681.707	0.0164172
681.785	0.0165722
681.863	0.0166389
681.942	0.0166517
682.020	0.0168472
682.098	0.0171124
682.176	0.0171693
682.254	0.0174067
682.332	0.0177727
682.410	0.0180548
682.488	0.0183563
682.567	0.0185616
682.645	0.0187297
682.723	0.0191217
682.801	0.0192266
682.879	0.0195143
682.957	0.0197729
683.035	0.0197612
683.113	0.0199818
683.192	0.0198651
683.270	0.0197858
683.348	0.0197697
683.426	0.0196716
683.504	0.0194540
683.582	0.0192087
683.660	0.0186828
683.738	0.0184647
683.817	0.0181236
683.895	0.0177193
683.973	0.0175543
684.051	0.0171072
684.129	0.0169276
684.207	0.0166690
684.285	0.0162339
684.363	0.0161649
684.442	0.0161123
684.520	0.0159001
684.598	0.0158242
684.676	0.0158853
684.754	0.0160029
684.832	0.0160017
684.910	0.0163490
684.988	0.0165599
685.067	0.0166319
685.145	0.0170947
685.223	0.0173962
685.301	0.0177763
685.379	0.0180978
685.457	0.0185402
685.535	0.0189307
685.613	0.0192159
685.692	0.0195810
685.770	0.0198502
685.848	0.0198759
685.926	0.0202052
686.004	0.0202280
686.082	0.0202764
686.160	0.0202659
686.238	0.0199757
686.317	0.0199383
686.395	0.0199448
686.473	0.0195700
686.551	0.0193664
686.629	0.0191785
686.707	0.0189244
686.785	0.0186927
686.863	0.0184258
686.942	0.0182570
687.020	0.0180472
687.098	0.0176331
687.176	0.0174876
687.254	0.0173450
687.332	0.0171033
687.410	0.0168100
687.488	0.0166868
687.567	0.0165113
687.645	0.0165340
687.723	0.0164415
687.801	0.0164436
687.879	0.0164655
687.957	0.0163675
688.035	0.0164952
688.113	0.0165099
688.192	0.0165649
688.270	0.0167104
688.348	0.0167851
688.426	0.0168375
688.504	0.0170175
688.582	0.0171863
688.660	0.0173137
688.738	0.0174895
688.817	0.0176167
688.895	0.0178747
688.973	0.0180138
689.051	0.0181786
689.129	0.0183926
689.207	0.0185651
689.285	0.0187865
689.363	0.0188218
689.442	0.0191182
689.520	0.0191456
689.598	0.0193366
689.676	0.0193700
689.754	0.0193410
689.832	0.0195406
689.910	0.0194921
689.988	0.0194789
690.067	0.0195137
690.145	0.0194891
690.223	0.0195782
690.301	0.0194969
690.379	0.0195364
690.457	0.0194901
690.535	0.0194100
690.613	0.0195433
690.692	0.0196038
690.770	0.0192933
690.848	0.0190593
690.926	0.0189335
691.004	0.0188013
691.082	0.0185699
691.160	0.0182806
691.238	0.0179165
691.317	0.0177520
691.395	0.0175378
691.473	0.0171730
691.551	0.0166856
691.629	0.0166132
691.707	0.0163664
691.785	0.0160680
691.863	0.0160284
691.942	0.0158002
692.020	0.0155573
692.098	0.0154261
692.176	0.0154991
692.254	0.0154160
692.332	0.0154786
692.410	0.0153993
692.488	0.0156390
692.567	0.0157310
692.645	0.0159283
692.723	0.0161253
692.801	0.0163546
692.879	0.0166209
692.957	0.0170448
693.035	0.0174900
693.113	0.0178815
693.192	0.0183723
693.270	0.0188558
693.348	0.0194936
693.426	0.0199676
693.504	0.0204423
693.582	0.0208687
693.660	0.0211797
693.738	0.0212479
693.817	0.0214822
693.895	0.0213365
693.973	0.0214228
694.051	0.0213265
694.129	0.0211157
694.207	0.0209253
694.285	0.0206721
694.363	0.0204199
694.442	0.0200367
694.520	0.0196881
694.598	0.0195252
694.676	0.0191945
694.754	0.0188933
694.832	0.0187145
694.910	0.0185003
694.988	0.0181264
695.067	0.0179525
695.145	0.0178197
695.223	0.0177831
695.301	0.0174350
695.379	0.0170366
695.457	0.0168527
695.535	0.0167295
695.613	0.0165562
695.692	0.0162307
695.770	0.0160583
695.848	0.0159183
695.926	0.0156930
696.004	0.0153681
696.082	0.0153719
696.160	0.0153181
696.238	0.0151691
696.317	0.0151470
696.395	0.0152067
696.473	0.0152334
696.551	0.0152664
696.629	0.0155326
696.707	0.0157719
696.785	0.0159521
696.863	0.0160702
696.942	0.0164074
697.020	0.0166073
697.098	0.0167452
697.176	0.0170943
697.254	0.0173701
697.332	0.0176537
697.410	0.0181030
697.488	0.0184308
697.567	0.0188391
697.645	0.0193025
697.723	0.0197481
697.801	0.0201934
697.879	0.0206779
697.957	0.0211037
698.035	0.0213139
698.113	0.0216718
698.192	0.0216168
698.270	0.0218340
698.348	0.0218936
698.426	0.0219122
698.504	0.0216856
698.582	0.0214718
698.660	0.0213760
698.738	0.0211253
698.817	0.0207983
698.895	0.0207232
698.973	0.0204244
699.051	0.0201932
699.129	0.0198263
699.207	0.0195153
699.285	0.0190220
699.363	0.0186187
699.442	0.0183604
699.520	0.0178077
699.598	0.0174374
699.676	0.0170450
699.754	0.0166602
699.832	0.0162595
699.910	0.0160562
699.988	0.0154985
700.067	0.0154516
700.145	0.0151756
700.223	0.0150777
700.301	0.0148750
700.379	0.0147886
700.457	0.0147334
700.535	0.0146726
700.613	0.0148116
700.692	0.0149001
700.770	0.0150338
700.848	0.0151606
700.926	0.0152876
701.004	0.0156635
701.082	0.0156425
701.160	0.0159604
701.238	0.0162387
701.317	0.0164661
701.395	0.0167031
701.473	0.0168613
701.551	0.0170583
701.629	0.0174150
701.707	0.0177807
701.785	0.0180192
701.863	0.0183873
701.942	0.0185816
702.020	0.0186839
702.098	0.0190633
702.176	0.0192813
702.254	0.0195000
702.332	0.0198235
702.410	0.0200638
702.488	0.0202255
702.567	0.0203990
702.645	0.0205953
702.723	0.0207113
702.801	0.0208594
702.879	0.0209221
702.957	0.0209766
703.035	0.0211516
703.113	0.0210705
703.192	0.0208858
703.270	0.0209870
703.348	0.0207990
703.426	0.0205051
703.504	0.0202498
703.582	0.0202437
703.660	0.0198540
703.738	0.0196178
703.817	0.0192190
703.895	0.0189531
703.973	0.0188048
704.051	0.0183304
704.129	0.0180853
704.207	0.0177906
704.285	0.0174176
704.363	0.0171382
704.442	0.0167574
704.520	0.0163908
704.598	0.0162048
704.676	0.0158496
704.754	0.0156841
704.832	0.0154138
704.910	0.0152096
704.988	0.0150619
705.067	0.0148937
705.145	0.0150787
705.223	0.0150561
705.301	0.0151352
705.379	0.0151561
705.457	0.0152948
705.535	0.0157526
705.613	0.0158904
705.692	0.0163163
705.770	0.0167339
705.848	0.0172163
705.926	0.0176712
706.004	0.0179852
706.082	0.0186291
706.160	0.0190058
706.238	0.0193610
706.317	0.0197066
706.395	0.0197013
706.473	0.0198162
706.551	0.0199796
706.629	0.0198383
706.707	0.0197137
706.785	0.0195666
706.863	0.0196024
706.942	0.0193845
707.020	0.0189505
707.098	0.0187490
707.176	0.0183942
707.254	0.0184785
707.332	0.0182311
707.410	0.0181932
707.488	0.0178650
707.567	0.0176868
707.645	0.0175544
707.723	0.0175005
707.801	0.0173171
707.879	0.0172797
707.957	0.0174816
708.035	0.0174711
708.113	0.0175660
708.192	0.0178082
708.270	0.0179746
708.348	0.0181784
708.426	0.0183632
708.504	0.0185915
708.582	0.0189288
708.660	0.0190963
708.738	0.0190985
708.817	0.0191543
708.895	0.0192419
708.973	0.0192367
709.051	0.0192009
709.129	0.0192059
709.207	0.0192109
709.285	0.0189791
709.363	0.0187968
709.442	0.0187130
709.520	0.0185951
709.598	0.0184114
709.676	0.0182135
709.754	0.0180290
709.832	0.0178226
709.910	0.0176989
709.988	0.0175340
710.067	0.0174596
710.145	0.0174383
710.223	0.0172585
710.301	0.0171007
710.379	0.0169146
710.457	0.0169704
710.535	0.0168227
710.613	0.0166748
710.692	0.0167657
710.770	0.0166853
710.848	0.0167092
710.926	0.0167297
711.004	0.0168711
711.082	0.0169826
711.160	0.0170367
711.238	0.0172729
711.317	0.0173489
711.395	0.0176359
711.473	0.0178629
711.551	0.0180278
711.629	0.0182556
711.707	0.0185333
711.785	0.0185731
711.863	0.0188476
711.942	0.0189807
712.020	0.0190562
712.098	0.0192296
712.176	0.0193096
712.254	0.0192679
712.332	0.0192797
712.410	0.0191926
712.488	0.0190109
712.567	0.0188383
712.645	0.0188335
712.723	0.0186351
712.801	0.0186748
712.879	0.0186082
712.957	0.0184942
713.035	0.0184293
713.113	0.0182564
713.192	0.0181660
713.270	0.0180854
713.348	0.0180699
713.426	0.0179636
713.504	0.0180788
713.582	0.0180086
713.660	0.0178400
713.738	0.0179938
713.817	0.0178201
713.895	0.0180208
713.973	0.0179792
714.051	0.0178860
714.129	0.0179050
714.207	0.0178450
714.285	0.0179126
714.363	0.0180537
714.442	0.0181277
714.520	0.0180472
714.598	0.0179927
714.676	0.0180717
714.754	0.0180076
714.832	0.0180201
714.910	0.0176889
714.988	0.0175905
715.067	0.0175589
715.145	0.0172080
715.223	0.0172207
715.301	0.0170284
715.379	0.0169796
715.457	0.0170443
715.535	0.0169056
715.613	0.0170065
715.692	0.0169286
715.770	0.0170867
715.848	0.0171824
715.926	0.0174339
716.004	0.0177966
716.082	0.0178188
716.160	0.0178858
716.238	0.0182038
716.317	0.0183275
716.395	0.0184757
716.473	0.0186314
716.551	0.0185835
716.629	0.0187274
716.707	0.0188387
716.785	0.0187159
716.863	0.0188088
716.942	0.0187965
717.020	0.0188190
717.098	0.0188376
717.176	0.0187651
717.254	0.0187596
717.332	0.0190230
717.410	0.0191762
717.488	0.0190664
717.567	0.0191073
717.645	0.0191972
717.723	0.0193020
717.801	0.0193996
717.879	0.0192061
717.957	0.0192545
718.035	0.0191701
718.113	0.0189787
718.192	0.0187483
718.270	0.0185101
718.348	0.0185017
718.426	0.0181640
718.504	0.0178654
718.582	0.0175591
718.660	0.0173851
718.738	0.0170996
718.817	0.0169533
718.895	0.0168501
718.973	0.0167117
719.051	0.0167186
719.129	0.0166970
719.207	0.0166132
719.285	0.0166840
719.363	0.0167953
719.442	0.0169038
719.520	0.0170737
719.598	0.0173111
719.676	0.0173795
719.754	0.0175003
719.832	0.0178725
719.910	0.0180699
719.988	0.0181065
720.067	0.0184273
720.145	0.0186087
720.223	0.0187051
720.301	0.0187596
720.379	0.0187229
720.457	0.0187120
720.535	0.0185290
720.613	0.0185376
720.692	0.0184432
720.770	0.0180658
720.848	0.0179908
720.926	0.0177283
721.004	0.0175017
721.082	0.0171652
721.160	0.0170291
721.238	0.0168004
721.317	0.0167709
721.395	0.0166353
721.473	0.0166530
721.551	0.0168216
721.629	0.0167793
721.707	0.0167924
721.785	0.0168425
721.863	0.0169130
721.942	0.0173116
722.020	0.0173782
722.098	0.0174681
722.176	0.0176834
722.254	0.0178677
722.332	0.0180069
722.410	0.0180298
722.488	0.0182910
722.567	0.0182742
722.645	0.0183691
722.723	0.0184784
722.801	0.0184915
722.879	0.0186599
722.957	0.0187201
723.035	0.0188347
723.113	0.0188949
723.192	0.0192155
723.270	0.0193056
723.348	0.0194075
723.426	0.0196588
723.504	0.0197342
723.582	0.0198418
723.660	0.0198778
723.738	0.0197953
723.817	0.0199352
723.895	0.0197810
723.973	0.0197910
724.051	0.0197503
724.129	0.0195672
724.207	0.0195452
724.285	0.0193819
724.363	0.0190884
724.442	0.0190719
724.520	0.0187833
724.598	0.0184499
724.676	0.0185802
724.754	0.0182818
724.832	0.0180023
724.910	0.0180188
724.988	0.0178674
725.067	0.0177744
725.145	0.0175475
725.223	0.0174078
725.301	0.0174115
725.379	0.0172212
725.457	0.0170657
725.535	0.0170165
725.613	0.0168284
725.692	0.0168092
725.770	0.0166884
725.848	0.0165309
725.926	0.0163942
726.004	0.0161587
726.082	0.0163381
726.160	0.0162732
726.238	0.0159544
726.317	0.0161323
726.395	0.0161417
726.473	0.0160590
726.551	0.0162595
726.629	0.0164466
726.707	0.0165607
726.785	0.0167010
726.863	0.0167635
726.942	0.0169040
727.020	0.0170725
727.098	0.0171349
727.176	0.0174411
727.254	0.0174951
727.332	0.0175186
727.410	0.0176777
727.488	0.0177981
727.567	0.0177743
727.645	0.0178956
727.723	0.0179031
727.801	0.0179478
727.879	0.0179770
727.957	0.0181578
728.035	0.0182931
728.113	0.0181817
728.192	0.0183255
728.270	0.0181628
728.348	0.0183898
728.426	0.0184597
728.504	0.0183956
728.582	0.0185005
728.660	0.0184813
728.738	0.0185262
728.817	0.0186811
728.895	0.0188096
728.973	0.0189787
729.051	0.0191615
729.129	0.0192387
729.207	0.0192884
729.285	0.0195533
729.363	0.0196408
729.442	0.0198557
729.520	0.0199799
729.598	0.0200488
729.676	0.0200134
729.754	0.0200140
729.832	0.0199919
729.910	0.0199988
729.988	0.0198626
730.067	0.0197718
730.145	0.0195026
730.223	0.0193676
730.301	0.0192083
730.379	0.0192659
730.457	0.0189241
730.535	0.0189232
730.613	0.0188904
730.692	0.0186436
730.770	0.0186574
730.848	0.0185330
730.926	0.0184351
731.004	0.0185551
731.082	0.0182053
731.160	0.0180833
731.238	0.0180608
731.317	0.0179538
731.395	0.0178513
731.473	0.0178353
731.551	0.0175989
731.629	0.0175626
731.707	0.0175873
731.785	0.0175120
731.863	0.0173022
731.942	0.0171208
732.020	0.0172319
732.098	0.0171811
732.176	0.0171645
732.254	0.0172160
732.332	0.0169666
732.410	0.0168794
732.488	0.0167669
732.567	0.0164988
732.645	0.0163177
732.723	0.0162210
732.801	0.0160073
732.879	0.0157523
732.957	0.0155403
733.035	0.0155122
733.113	0.0154622
733.192	0.0153661
733.270	0.0154259
733.348	0.0154433
733.426	0.0156659
733.504	0.0157433
733.582	0.0159899
733.660	0.0161317
733.738	0.0165459
733.817	0.0170932
733.895	0.0171758
733.973	0.0175812
734.051	0.0179288
734.129	0.0181557
734.207	0.0185504
734.285	0.0188287
734.363	0.0187594
734.442	0.0190640
734.520	0.0192976
734.598	0.0192125
734.676	0.0192069
734.754	0.0190556
734.832	0.0190186
734.910	0.0189151
734.988	0.0189788
735.067	0.0187829
735.145	0.0186053
735.223	0.0184834
735.301	0.0184717
735.379	0.0184032
735.457	0.0183667
735.535	0.0183949
735.613	0.0184308
735.692	0.0186023
735.770	0.0187640
735.848	0.0188577
735.926	0.0189694
736.004	0.0193922
736.082	0.0194987
736.160	0.0197137
736.238	0.0199349
736.317	0.0201358
736.395	0.0202125
736.473	0.0205030
736.551	0.0204437
736.629	0.0203345
736.707	0.0202644
736.785	0.0201160
736.863	0.0199418
736.942	0.0196760
737.020	0.0192652
737.098	0.0190126
737.176	0.0188831
737.254	0.0184396
737.332	0.0181660
737.410	0.0181375
737.488	0.0179102
737.567	0.0178630
737.645	0.0177425
737.723	0.0176983
737.801	0.0178147
737.879	0.0178662
737.957	0.0179169
738.035	0.0180694
738.113	0.0180730
738.192	0.0180689
738.270	0.0181017
738.348	0.0181328
738.426	0.0180164
738.504	0.0179915
738.582	0.0178895
738.660	0.0176695
738.738	0.0176440
738.817	0.0175243
738.895	0.0173061
738.973	0.0170809
739.051	0.0170817
739.129	0.0169140
739.207	0.0166687
739.285	0.0163765
739.363	0.0163213
739.442	0.0161868
739.520	0.0159100
739.598	0.0157436
739.676	0.0156013
739.754	0.0154745
739.832	0.0153243
739.910	0.0152335
739.988	0.0151852
740.067	0.0149318
740.145	0.0150929
740.223	0.0152361
740.301	0.0154527
740.379	0.0156776
740.457	0.0160206
740.535	0.0164303
740.613	0.0167230
740.692	0.0170595
740.770	0.0174814
740.848	0.0179116
740.926	0.0182690
741.004	0.0186227
741.082	0.0190003
741.160	0.0192440
741.238	0.0193179
741.317	0.0193482
741.395	0.0194785
741.473	0.0193682
741.551	0.0193320
741.629	0.0193246
741.707	0.0192988
741.785	0.0192120
741.863	0.0190977
741.942	0.0190410
742.020	0.0190369
742.098	0.0190862
742.176	0.0189336
742.254	0.0188784
742.332	0.0186040
742.410	0.0186475
742.488	0.0186762
742.567	0.0185818
742.645	0.0186441
742.723	0.0183672
742.801	0.0182827
742.879	0.0184368
742.957	0.0185320
743.035	0.0186267
743.113	0.0185743
743.192	0.0188345
743.270	0.0189487
743.348	0.0190710
743.426	0.0193714
743.504	0.0195432
743.582	0.0196625
743.660	0.0198158
743.738	0.0197531
743.817	0.0199738
743.895	0.0201321
743.973	0.0200308
744.051	0.0198956
744.129	0.0198283
744.207	0.0196561
744.285	0.0196062
744.363	0.0195900
744.442	0.0190944
744.520	0.0188648
744.598	0.0186980
744.676	0.0186540
744.754	0.0185078
744.832	0.0182626
744.910	0.0180542
744.988	0.0179871
745.067	0.0176840
745.145	0.0178989
745.223	0.0176608
745.301	0.0176443
745.379	0.0175935
745.457	0.0176814
745.535	0.0176520
745.613	0.0175199
745.692	0.0176067
745.770	0.0176456
745.848	0.0175296
745.926	0.0175323
746.004	0.0174590
746.082	0.0173543
746.160	0.0171691
746.238	0.0169961
746.317	0.0168651
746.395	0.0167558
746.473	0.0165294
746.551	0.0162460
746.629	0.0158426
746.707	0.0155904
746.785	0.0152862
746.863	0.0150916
746.942	0.0148735
747.020	0.0145998
747.098	0.0146375
747.176	0.0145142
747.254	0.0142456
747.332	0.0143893
747.410	0.0144195
747.488	0.0147009
747.567	0.0150296
747.645	0.0153987
747.723	0.0159447
747.801	0.0164598
747.879	0.0170804
747.957	0.0176054
748.035	0.0182188
748.113	0.0186893
748.192	0.0192808
748.270	0.0197556
748.348	0.0200924
748.426	0.0203455
748.504	0.0205996
748.582	0.0205756
748.660	0.0208240
748.738	0.0206084
748.817	0.0203858
748.895	0.0201782
748.973	0.0198422
749.051	0.0196490
749.129	0.0192946
749.207	0.0189270
749.285	0.0187742
749.363	0.0184280
749.442	0.0183286
749.520	0.0181448
749.598	0.0180888
749.676	0.0179786
749.754	0.0179440
749.832	0.0178294
749.910	0.0179926
749.988	0.0182208
750.067	0.0183780
750.145	0.0184332
750.223	0.0188817
750.301	0.0190385
750.379	0.0193483
750.457	0.0194646
750.535	0.0197599
750.613	0.0199940
750.692	0.0200657
750.770	0.0200723
750.848	0.0201144
750.926	0.0202185
751.004	0.0203153
751.082	0.0200385
751.160	0.0198939
751.238	0.0198833
751.317	0.0196319
751.395	0.0194795
751.473	0.0193526
751.551	0.0191464
751.629	0.0189114
751.707	0.0186574
751.785	0.0185141
751.863	0.0183772
751.942	0.0182893
752.020	0.0181820
752.098	0.0179465
752.176	0.0178948
752.254	0.0178085
752.332	0.0177900
752.410	0.0176983
752.488	0.0176871
752.567	0.0176920
752.645	0.0176675
752.723	0.0176387
752.801	0.0176896
752.879	0.0177118
752.957	0.0175581
753.035	0.0176679
753.113	0.0174957
753.192	0.0174517
753.270	0.0172572
753.348	0.0171351
753.426	0.0167987
753.504	0.0166187
753.582	0.0162775
753.660	0.0161739
753.738	0.0157047
753.817	0.0153124
753.895	0.0150282
753.973	0.0148243
754.051	0.0145126
754.129	0.0143088
754.207	0.0141965
754.285	0.0139645
754.363	0.0139268
754.442	0.0141660
754.520	0.0142348
754.598	0.0144121
754.676	0.0147968
754.754	0.0154344
754.832	0.0157502
754.910	0.0164191
754.988	0.0170258
755.067	0.0176294
755.145	0.0182652
755.223	0.0187730
755.301	0.0191305
755.379	0.0198327
755.457	0.0200446
755.535	0.0203581
755.613	0.0205805
755.692	0.0207140
755.770	0.0207668
755.848	0.0207101
755.926	0.0205550
756.004	0.0204302
756.082	0.0203086
756.160	0.0198843
756.238	0.0195238
756.317	0.0192118
756.395	0.0189874
756.473	0.0186169
756.551	0.0184584
756.629	0.0182022
756.707	0.0179522
756.785	0.0177852
756.863	0.0178344
756.942	0.0179235
757.020	0.0178927
757.098	0.0179605
757.176	0.0180304
757.254	0.0181385
757.332	0.0185232
757.410	0.0185302
757.488	0.0186395
757.567	0.0192097
757.645	0.0193795
757.723	0.0194852
757.801	0.0196646
757.879	0.0199818
757.957	0.0200208
758.035	0.0202166
758.113	0.0201907
758.192	0.0203300
758.270	0.0203986
758.348	0.0203239
758.426	0.0203446
758.504	0.0202663
758.582	0.0197968
758.660	0.0199442
758.738	0.0197688
758.817	0.0193272
758.895	0.0192266
758.973	0.0189540
759.051	0.0187708
759.129	0.0184267
759.207	0.0183859
759.285	0.0182155
759.363	0.0180350
759.442	0.0180153
759.520	0.0181406
759.598	0.0180257
759.676	0.0178755
759.754	0.0179189
759.832	0.0178076
759.910	0.0177269
759.988	0.0176077
760.067	0.0175607
760.145	0.0173568
760.223	0.0171978
760.301	0.0171237
760.379	0.0168030
760.457	0.0165639
760.535	0.0163126
760.613	0.0161310
760.692	0.0160009
760.770	0.0155448
760.848	0.0153710
760.926	0.0151895
761.004	0.0150423
761.082	0.0149976
761.160	0.0148137
761.238	0.0147337
761.317	0.0147178
761.395	0.0146613
761.473	0.0147993
761.551	0.0149373
761.629	0.0150011
761.707	0.0153556
761.785	0.0156051
761.863	0.0158344
761.942	0.0163058
762.020	0.0166880
762.098	0.0168927
762.176	0.0173322
762.254	0.0174767
762.332	0.0177872
762.410	0.0182336
762.488	0.0184616
762.567	0.0187560
762.645	0.0189011
762.723	0.0192345
762.801	0.0193285
762.879	0.0195254
762.957	0.0197269
763.035	0.0196791
763.113	0.0197598
763.192	0.0198557
763.270	0.0198761
763.348	0.0199577
763.426	0.0197446
763.504	0.0195918
763.582	0.0196735
763.660	0.0194042
763.738	0.0194047
763.817	0.0193559
763.895	0.0192765
763.973	0.0189784
764.051	0.0189390
764.129	0.0189713
764.207	0.0187138
764.285	0.0186887
764.363	0.0186830
764.442	0.0186624
764.520	0.0185773
764.598	0.0185325
764.676	0.0186204
764.754	0.0187391
764.832	0.0186958
764.910	0.0187440
764.988	0.0187229
765.067	0.0188097
765.145	0.0190382
765.223	0.0190395
765.301	0.0191311
765.379	0.0193749
765.457	0.0193546
765.535	0.0193707
765.613	0.0195302
765.692	0.0198367
765.770	0.0197301
765.848	0.0195964
765.926	0.0195902
766.004	0.0195857
766.082	0.0195012
766.160	0.0193789
766.238	0.0192306
766.317	0.0192155
766.395	0.0191027
766.473	0.0189962
766.551	0.0187359
766.629	0.0188151
766.707	0.0186668
766.785	0.0185577
766.863	0.0184499
766.942	0.0183999
767.020	0.0180280
767.098	0.0179054
767.176	0.0176127
767.254	0.0174837
767.332	0.0175317
767.410	0.0171885
767.488	0.0167768
767.567	0.0167982
767.645	0.0164941
767.723	0.0162772
767.801	0.0160707
767.879	0.0158308
767.957	0.0156740
768.035	0.0154230
768.113	0.0154309
768.192	0.0152075
768.270	0.0151311
768.348	0.0150045
768.426	0.0149861
768.504	0.0150191
768.582	0.0150292
768.660	0.0151223
768.738	0.0153435
768.817	0.0154750
768.895	0.0157340
768.973	0.0159732
769.051	0.0162634
769.129	0.0164693
769.207	0.0168466
769.285	0.0171037
769.363	0.0172578
769.442	0.0174486
769.520	0.0174890
769.598	0.0177443
769.676	0.0179344
769.754	0.0178905
769.832	0.0180526
769.910	0.0182908
769.988	0.0182686
770.067	0.0183652
770.145	0.0185060
770.223	0.0185257
770.301	0.0188067
770.379	0.0188217
770.457	0.0189014
770.535	0.0189683
770.613	0.0190985
770.692	0.0193394
770.770	0.0193798
770.848	0.0192521
770.926	0.0192742
771.004	0.0193339
771.082	0.0193069
771.160	0.0194754
771.238	0.0194876
771.317	0.0193982
771.395	0.0193579
771.473	0.0192020
771.551	0.0191578
771.629	0.0190461
771.707	0.0191905
771.785	0.0191048
771.863	0.0189703
771.942	0.0189374
772.020	0.0188909
772.098	0.0187893
772.176	0.0187930
772.254	0.0189381
772.332	0.0189288
772.410	0.0189929
772.488	0.0190646
772.567	0.0191341
772.645	0.0193031
772.723	0.0193534
772.801	0.0195394
772.879	0.0194883
772.957	0.0194553
773.035	0.0196334
773.113	0.0195143
773.192	0.0195493
773.270	0.0195592
773.348	0.0193845
773.426	0.0192745
773.504	0.0193045
773.582	0.0190037
773.660	0.0189340
773.738	0.0189649
773.817	0.0185916
773.895	0.0187124
773.973	0.0185885
774.051	0.0184368
774.129	0.0181095
774.207	0.0178772
774.285	0.0177873
774.363	0.0175841
774.442	0.0175665
774.520	0.0173748
774.598	0.0170047
774.676	0.0166526
774.754	0.0166216
774.832	0.0164888
774.910	0.0161926
774.988	0.0161087
775.067	0.0160387
775.145	0.0158623
775.223	0.0158916
775.301	0.0156712
775.379	0.0156671
775.457	0.0157269
775.535	0.0155109
775.613	0.0156113
775.692	0.0154873
775.770	0.0154780
775.848	0.0154861
775.926	0.0155068
776.004	0.0157226
776.082	0.0157795
776.160	0.0159457
776.238	0.0160844
776.317	0.0163665
776.395	0.0165812
776.473	0.0168261
776.551	0.0169039
776.629	0.0169794
776.707	0.0172333
776.785	0.0174696
776.863	0.0177703
776.942	0.0178637
777.020	0.0179714
777.098	0.0181542
777.176	0.0181921
777.254	0.0183505
777.332	0.0186183
777.410	0.0185302
777.488	0.0185236
777.567	0.0187160
777.645	0.0186975
777.723	0.0186622
777.801	0.0187241
777.879	0.0188255
777.957	0.0187605
778.035	0.0188175
778.113	0.0188219
778.192	0.0189714
778.270	0.0190202
778.348	0.0191276
778.426	0.0191724
778.504	0.0190467
778.582	0.0191087
778.660	0.0192774
778.738	0.0193974
778.817	0.0194423
778.895	0.0192000
778.973	0.0192129
779.051	0.0192187
779.129	0.0192892
779.207	0.0193687
779.285	0.0192919
779.363	0.0193898
779.442	0.0192899
779.520	0.0191720
779.598	0.0191856
779.676	0.0191920
779.754	0.0190276
779.832	0.0191315
779.910	0.0192039
779.988	0.0190043
780.067	0.0192140
780.145	0.0190985
780.223	0.0191005
780.301	0.0191554
780.379	0.0190169
780.457	0.0190812
780.535	0.0190382
780.613	0.0189342
780.692	0.0189525
780.770	0.0189021
780.848	0.0188676
780.926	0.0188328
781.004	0.0186876
781.082	0.0186442
781.160	0.0183848
781.238	0.0182690
781.317	0.0183456
781.395	0.0180597
781.473	0.0178847
781.551	0.0177386
781.629	0.0175559
781.707	0.0173595
781.785	0.0172263
781.863	0.0170351
781.942	0.0170558
782.020	0.0169183
782.098	0.0168548
782.176	0.0167019
782.254	0.0165925
782.332	0.0165812
782.410	0.0164975
782.488	0.0163750
782.567	0.0163905
782.645	0.0164418
782.723	0.0165032
782.801	0.0164182
782.879	0.0164809
782.957	0.0164870
783.035	0.0164034
783.113	0.0163759
783.192	0.0164966
783.270	0.0164656
783.348	0.0164346
783.426	0.0165128
783.504	0.0165824
783.582	0.0166563
783.660	0.0167675
783.738	0.0167948
783.817	0.0169377
783.895	0.0170533
783.973	0.0171105
784.051	0.0170846
784.129	0.0172481
784.207	0.0173962
784.285	0.0173720
784.363	0.0174329
784.442	0.0174875
784.520	0.0175972
784.598	0.0177328
784.676	0.0178756
784.754	0.0177832
784.832	0.0179186
784.910	0.0180693
784.988	0.0181015
785.067	0.0180470
785.145	0.0180935
785.223	0.0183759
785.301	0.0184829
785.379	0.0185050
785.457	0.0188467
785.535	0.0186977
785.613	0.0189344
785.692	0.0190836
785.770	0.0192980
785.848	0.0193567
785.926	0.0194123
786.004	0.0193826
786.082	0.0196581
786.160	0.0195713
786.238	0.0197958
786.317	0.0198549
786.395	0.0198836
786.473	0.0197727
786.551	0.0199093
786.629	0.0198032
786.707	0.0197750
786.785	0.0196813
786.863	0.0195535
786.942	0.0195846
787.020	0.0195350
787.098	0.0192854
787.176	0.0191602
787.254	0.0189442
787.332	0.0188702
787.410	0.0186805
787.488	0.0187420
787.567	0.0186809
787.645	0.0186130
787.723	0.0185888
787.801	0.0185187
787.879	0.0185088
787.957	0.0186494
788.035	0.0185731
788.113	0.0184910
788.192	0.0184927
788.270	0.0184801
788.348	0.0184080
788.426	0.0184175
788.504	0.0182728
788.582	0.0182691
788.660	0.0181403
788.738	0.0180742
788.817	0.0180004
788.895	0.0177897
788.973	0.0177557
789.051	0.0177974
789.129	0.0176328
789.207	0.0174479
789.285	0.0173170
789.363	0.0171233
789.442	0.0171153
789.520	0.0170911
789.598	0.0169814
789.676	0.0169382
789.754	0.0168725
789.832	0.0168056
789.910	0.0167006
789.988	0.0165432
790.067	0.0167220
790.145	0.0168121
790.223	0.0168097
790.301	0.0168922
790.379	0.0170701
790.457	0.0171082
790.535	0.0171436
790.613	0.0172064
790.692	0.0172067
790.770	0.0173362
790.848	0.0173846
790.926	0.0175043
791.004	0.0175899
791.082	0.0176595
791.160	0.0176625
791.238	0.0176749
791.317	0.0175349
791.395	0.0176115
791.473	0.0175880
791.551	0.0175191
791.629	0.0173269
791.707	0.0174213
791.785	0.0172469
791.863	0.0172674
791.942	0.0172777
792.020	0.0171672
792.098	0.0173791
792.176	0.0173564
792.254	0.0174914
792.332	0.0175591
792.410	0.0175087
792.488	0.0176305
792.567	0.0177285
792.645	0.0177925
792.723	0.0181202
792.801	0.0183076
792.879	0.0183300
792.957	0.0183843
793.035	0.0184876
793.113	0.0186005
793.192	0.0187117
793.270	0.0188764
793.348	0.0189821
793.426	0.0190105
793.504	0.0192335
793.582	0.0191035
793.660	0.0192308
793.738	0.0192841
793.817	0.0193558
793.895	0.0194164
793.973	0.0194581
794.051	0.0194126
794.129	0.0193034
794.207	0.0193790
794.285	0.0194508
794.363	0.0195821
794.442	0.0195020
794.520	0.0193008
794.598	0.0195026
794.676	0.0193215
794.754	0.0192460
794.832	0.0193630
794.910	0.0193064
794.988	0.0192018
795.067	0.0191742
795.145	0.0193529
795.223	0.0193645
795.301	0.0192361
795.379	0.0190356
795.457	0.0190797
795.535	0.0190176
795.613	0.0187697
795.692	0.0186958
795.770	0.0186690
795.848	0.0185349
795.926	0.0183729
796.004	0.0180723
796.082	0.0180219
796.160	0.0178932
796.238	0.0176236
796.317	0.0175014
796.395	0.0172663
796.473	0.0171033
796.551	0.0170323
796.629	0.0169646
796.707	0.0169003
796.785	0.0168816
796.863	0.0168067
796.942	0.0166029
797.020	0.0166755
797.098	0.0167310
797.176	0.0166753
797.254	0.0165764
797.332	0.0164945
797.410	0.0166494
797.488	0.0167152
797.567	0.0167382
797.645	0.0168042
797.723	0.0167692
797.801	0.0167660
797.879	0.0169512
797.957	0.0169727
798.035	0.0168258
798.113	0.0169147
798.192	0.0169453
798.270	0.0168794
798.348	0.0169366
798.426	0.0169514
798.504	0.0168628
798.582	0.0170037
798.660	0.0169350
798.738	0.0169772
798.817	0.0172422
798.895	0.0172557
798.973	0.0174480
799.051	0.0174389
799.129	0.0176437
799.207	0.0177186
799.285	0.0178489
799.363	0.0178846
799.442	0.0180179
799.520	0.0180697
799.598	0.0182485
799.676	0.0182736
799.754	0.0183925
799.832	0.0186433
799.910	0.0186406
799.988	0.0188277
800.067	0.0187592
800.145	0.0189268
800.223	0.0188811
800.301	0.0189938
800.379	0.0190234
800.457	0.0190672
800.535	0.0190792
800.613	0.0190746
800.692	0.0191022
800.770	0.0189719
800.848	0.0189187
800.926	0.0187548
801.004	0.0186864
801.082	0.0188176
801.160	0.0187123
801.238	0.0184435
801.317	0.0184798
801.395	0.0184585
801.473	0.0185600
801.551	0.0183990
801.629	0.0184445
801.707	0.0182932
801.785	0.0184130
801.863	0.0184592
801.942	0.0186153
802.020	0.0186266
802.098	0.0186751
802.176	0.0187302
802.254	0.0187609
802.332	0.0188325
802.410	0.0188975
802.488	0.0191075
802.567	0.0190641
802.645	0.0189940
802.723	0.0190096
802.801	0.0188976
802.879	0.0189630
802.957	0.0188057
803.035	0.0186931
803.113	0.0187223
803.192	0.0185300
803.270	0.0182494
803.348	0.0180795
803.426	0.0182665
803.504	0.0179902
803.582	0.0178464
803.660	0.0177348
803.738	0.0177199
803.817	0.0175600
803.895	0.0174343
803.973	0.0175592
804.051	0.0173911
804.129	0.0175948
804.207	0.0174763
804.285	0.0175194
804.363	0.0176158
804.442	0.0177269
804.520	0.0177450
804.598	0.0176257
804.676	0.0176035
804.754	0.0178062
804.832	0.0175861
804.910	0.0175754
804.988	0.0176743
805.067	0.0174553
805.145	0.0173555
805.223	0.0172519
805.301	0.0173750
805.379	0.0172159
805.457	0.0171413
805.535	0.0170985
805.613	0.0169972
805.692	0.0168707
805.770	0.0170621
805.848	0.0169893
805.926	0.0170390
806.004	0.0170254
806.082	0.0169817
806.160	0.0170287
806.238	0.0170995
806.317	0.0171834
806.395	0.0171109
806.473	0.0171741
806.551	0.0172881
806.629	0.0173212
806.707	0.0173775
806.785	0.0174701
806.863	0.0176152
806.942	0.0176613
807.020	0.0176069
807.098	0.0177297
807.176	0.0179600
807.254	0.0180865
807.332	0.0178468
807.410	0.0180194
807.488	0.0183656
807.567	0.0183147
807.645	0.0184159
807.723	0.0184369
807.801	0.0185779
807.879	0.0186008
807.957	0.0187170
808.035	0.0187202
808.113	0.0187417
808.192	0.0188291
808.270	0.0188258
808.348	0.0188589
808.426	0.0187173
808.504	0.0187309
808.582	0.0188450
808.660	0.0187489
808.738	0.0189374
808.817	0.0188110
808.895	0.0187200
808.973	0.0188080
809.051	0.0187551
809.129	0.0189713
809.207	0.0188788
809.285	0.0188792
809.363	0.0189409
809.442	0.0188378
809.520	0.0189899
809.598	0.0188444
809.676	0.0188883
809.754	0.0189400
809.832	0.0189045
809.910	0.0189410
809.988	0.0187730
810.067	0.0187799
810.145	0.0188202
810.223	0.0187275
810.301	0.0187625
810.379	0.0185702
810.457	0.0185257
810.535	0.0184911
810.613	0.0183269
810.692	0.0182157
810.770	0.0181112
810.848	0.0180746
810.926	0.0179713
811.004	0.0179684
811.082	0.0178918
811.160	0.0177834
811.238	0.0178331
811.317	0.0177425
811.395	0.0177650
811.473	0.0177715
811.551	0.0175392
811.629	0.0175043
811.707	0.0175250
811.785	0.0176476
811.863	0.0175017
811.942	0.0174682
812.020	0.0175367
812.098	0.0175349
812.176	0.0175015
812.254	0.0174213
812.332	0.0173949
812.410	0.0173333
812.488	0.0173379
812.567	0.0173687
812.645	0.0173447
812.723	0.0174187
812.801	0.0174646
812.879	0.0174172
812.957	0.0174173
813.035	0.0173839
813.113	0.0174356
813.192	0.0174275
813.270	0.0175273
813.348	0.0174571
813.426	0.0176851
813.504	0.0174977
813.582	0.0176929
813.660	0.0175137
813.738	0.0175230
813.817	0.0175642
813.895	0.0175401
813.973	0.0176641
814.051	0.0175974
814.129	0.0177491
814.207	0.0178392
814.285	0.0176521
814.363	0.0177300
814.442	0.0179508
814.520	0.0179552
814.598	0.0179838
814.676	0.0179325
814.754	0.0180190
814.832	0.0181282
814.910	0.0181686
814.988	0.0180955
815.067	0.0182140
815.145	0.0182590
815.223	0.0182610
815.301	0.0182457
815.379	0.0182101
815.457	0.0182564
815.535	0.0183588
815.613	0.0183904
815.692	0.0183986
815.770	0.0184482
815.848	0.0184119
815.926	0.0184589
816.004	0.0185978
816.082	0.0185154
816.160	0.0187159
816.238	0.0186082
816.317	0.0186770
816.395	0.0186389
816.473	0.0186111
816.551	0.0186397
816.629	0.0185098
816.707	0.0185390
816.785	0.0185344
816.863	0.0184742
816.942	0.0184120
817.020	0.0182175
817.098	0.0182066
817.176	0.0182699
817.254	0.0182670
817.332	0.0181928
817.410	0.0182926
817.488	0.0182847
817.567	0.0182061
817.645	0.0181193
817.723	0.0181127
817.801	0.0183263
817.879	0.0183833
817.957	0.0183775
818.035	0.0184901
818.113	0.0185825
818.192	0.0183973
818.270	0.0186709
818.348	0.0184744
818.426	0.0184157
818.504	0.0184802
818.582	0.0184462
818.660	0.0185519
818.738	0.0184862
818.817	0.0183601
818.895	0.0183976
818.973	0.0181998
819.051	0.0182072
819.129	0.0181095
819.207	0.0180638
819.285	0.0178777
819.363	0.0180190
819.442	0.0179530
819.520	0.0178568
819.598	0.0177730
819.676	0.0177579
819.754	0.0177962
819.832	0.0176546
819.910	0.0176421
819.988	0.0175926
820.067	0.0177225
820.145	0.0176382
820.223	0.0177224
820.301	0.0177752
820.379	0.0176710
820.457	0.0177547
820.535	0.0177911
820.613	0.0177692
820.692	0.0177180
820.770	0.0177241
820.848	0.0178807
820.926	0.0177732
821.004	0.0177745
821.082	0.0175103
821.160	0.0175646
821.238	0.0176910
821.317	0.0177119
821.395	0.0175271
821.473	0.0175710
821.551	0.0177070
821.629	0.0176327
821.707	0.0176322
821.785	0.0176501
821.863	0.0174505
821.942	0.0175157
822.020	0.0175978
822.098	0.0175453
822.176	0.0175959
822.254	0.0174619
822.332	0.0175198
822.410	0.0176278
822.488	0.0174855
822.567	0.0175323
822.645	0.0175971
822.723	0.0176294
822.801	0.0178319
822.879	0.0177377
822.957	0.0178512
823.035	0.0179120
823.113	0.0179469
823.192	0.0182896
823.270	0.0182111
823.348	0.0183617
823.426	0.0182376
823.504	0.0183719
823.582	0.0184534
823.660	0.0185921
823.738	0.0185366
823.817	0.0184727
823.895	0.0185727
823.973	0.0184293
824.051	0.0184195
824.129	0.0185139
824.207	0.0185323
824.285	0.0184585
824.363	0.0182715
824.442	0.0183819
824.520	0.0183715
824.598	0.0183368
824.676	0.0184930
824.754	0.0184361
824.832	0.0184679
824.910	0.0185667
824.988	0.0184869
825.067	0.0185000
825.145	0.0186353
825.223	0.0185746
825.301	0.0186051
825.379	0.0187024
825.457	0.0187131
825.535	0.0187885
825.613	0.0187585
825.692	0.0187577
825.770	0.0186826
825.848	0.0187473
825.926	0.0188477
826.004	0.0185597
826.082	0.0185480
826.160	0.0186771
826.238	0.0184307
826.317	0.0185312
826.395	0.0183537
826.473	0.0183662
826.551	0.0181403
826.629	0.0181745
826.707	0.0181369
826.785	0.0180421
826.863	0.0179628
826.942	0.0178875
827.020	0.0179340
827.098	0.0177576
827.176	0.0177314
827.254	0.0177223
827.332	0.0176809
827.410	0.0177702
827.488	0.0177757
827.567	0.0177402
827.645	0.0177068
827.723	0.0175726
827.801	0.0175089
827.879	0.0175805
827.957	0.0176117
828.035	0.0175710
828.113	0.0176099
828.192	0.0175740
828.270	0.0176481
828.348	0.0176048
828.426	0.0174011
828.504	0.0173897
828.582	0.0173260
828.660	0.0175144
828.738	0.0174237
828.817	0.0175035
828.895	0.0173945
828.973	0.0175981
829.051	0.0174767
829.129	0.0175426
829.207	0.0174001
829.285	0.0174576
829.363	0.0173744
829.442	0.0175266
829.520	0.0174798
829.598	0.0175410
829.676	0.0175542
829.754	0.0176073
829.832	0.0176057
829.910	0.0175423
829.988	0.0176331
830.067	0.0176517
830.145	0.0176167
830.223	0.0177530
830.301	0.0178205
830.379	0.0177939
830.457	0.0179959
830.535	0.0180795
830.613	0.0180276
830.692	0.0181079
830.770	0.0182935
830.848	0.0183145
830.926	0.0182493
831.004	0.0183870
831.082	0.0183774
831.160	0.0182693
831.238	0.0184512
831.317	0.0184380
831.395	0.0185961
831.473	0.0184888
831.551	0.0186844
831.629	0.0186378
831.707	0.0187233
831.785	0.0187255
831.863	0.0186447
831.942	0.0187328
832.020	0.0187103
832.098	0.0186606
832.176	0.0186130
832.254	0.0186716
832.332	0.0187208
832.410	0.0188150
832.488	0.0186177
832.567	0.0185729
832.645	0.0186633
832.723	0.0184659
832.801	0.0185722
832.879	0.0185041
832.957	0.0183997
833.035	0.0184790
833.113	0.0184904
833.192	0.0182324
833.270	0.0182779
833.348	0.0183361
833.426	0.0181893
833.504	0.0182474
833.582	0.0184205
833.660	0.0183444
833.738	0.0182569
833.817	0.0182830
833.895	0.0182858
833.973	0.0182925
834.051	0.0182337
834.129	0.0182932
834.207	0.0182611
834.285	0.0182272
834.363	0.0182969
834.442	0.0181060
834.520	0.0179543
834.598	0.0180674
834.676	0.0180672
834.754	0.0178173
834.832	0.0178349
834.910	0.0177893
834.988	0.0177002
835.067	0.0176155
835.145	0.0175723
835.223	0.0175343
835.301	0.0175853
835.379	0.0175652
835.457	0.0176308
835.535	0.0175346
835.613	0.0175343
835.692	0.0176204
835.770	0.0176211
835.848	0.0176594
835.926	0.0175518
836.004	0.0176176
836.082	0.0176232
836.160	0.0175755
836.238	0.0175921
836.317	0.0176656
836.395	0.0174702
836.473	0.0176429
836.551	0.0176207
836.629	0.0177497
836.707	0.0176503
836.785	0.0178508
836.863	0.0179568
836.942	0.0178810
837.020	0.0178857
837.098	0.0181258
837.176	0.0179803
837.254	0.0179824
837.332	0.0180537
837.410	0.0180065
837.488	0.0179745
837.567	0.0179911
837.645	0.0178947
837.723	0.0179188
837.801	0.0178907
837.879	0.0179874
837.957	0.0179234
838.035	0.0178840
838.113	0.0178296
838.192	0.0179179
838.270	0.0177448
838.348	0.0177978
838.426	0.0178191
838.504	0.0177551
838.582	0.0178970
838.660	0.0179071
838.738	0.0178481
838.817	0.0180251
838.895	0.0180630
838.973	0.0181634
839.051	0.0182349
839.129	0.0183842
839.207	0.0183492
839.285	0.0182160
839.363	0.0184107
839.442	0.0186218
839.520	0.0186182
839.598	0.0186179
839.676	0.0186830
839.754	0.0185869
839.832	0.0186310
839.910	0.0185576
839.988	0.0186098
840.067	0.0185409
840.145	0.0185992
840.223	0.0185475
840.301	0.0183624
840.379	0.0185915
840.457	0.0185355
840.535	0.0184314
840.613	0.0185071
840.692	0.0183861
840.770	0.0183195
840.848	0.0183020
840.926	0.0182500
841.004	0.0182421
841.082	0.0182922
841.160	0.0182896
841.238	0.0182095
841.317	0.0183645
841.395	0.0181988
841.473	0.0182585
841.551	0.0183019
841.629	0.0181513
841.707	0.0180956
841.785	0.0181281
841.863	0.0182825
841.942	0.0181976
842.020	0.0181907
842.098	0.0180685
842.176	0.0179690
842.254	0.0179567
842.332	0.0179520
842.410	0.0179395
842.488	0.0179544
842.567	0.0177489
842.645	0.0177402
842.723	0.0174999
842.801	0.0176003
842.879	0.0174129
842.957	0.0173508
843.035	0.0173305
843.113	0.0173965
843.192	0.0173096
843.270	0.0172020
843.348	0.0172621
843.426	0.0173177
843.504	0.0173450
843.582	0.0173247
843.660	0.0174613
843.738	0.0175192
843.817	0.0175909
843.895	0.0177074
843.973	0.0176219
844.051	0.0178492
844.129	0.0178586
844.207	0.0180482
844.285	0.0179897
844.363	0.0181262
844.442	0.0182141
844.520	0.0181885
844.598	0.0180890
844.676	0.0181996
844.754	0.0182001
844.832	0.0181386
844.910	0.0181191
844.988	0.0181174
845.067	0.0180882
845.145	0.0180447
845.223	0.0179054
845.301	0.0179319
845.379	0.0179877
845.457	0.0179469
845.535	0.0177482
845.613	0.0177954
845.692	0.0178143
845.770	0.0177169
845.848	0.0178872
845.926	0.0178830
846.004	0.0178859
846.082	0.0179170
846.160	0.0180185
846.238	0.0179883
846.317	0.0181170
846.395	0.0181885
846.473	0.0183682
846.551	0.0183549
846.629	0.0184087
846.707	0.0183538
846.785	0.0183929
846.863	0.0184702
846.942	0.0185278
847.020	0.0184929
847.098	0.0184017
847.176	0.0184898
847.254	0.0184844
847.332	0.0183951
847.410	0.0183777
847.488	0.0183894
847.567	0.0183035
847.645	0.0182320
847.723	0.0183109
847.801	0.0182436
847.879	0.0182013
847.957	0.0179778
848.035	0.0180854
848.113	0.0181303
848.192	0.0182912
848.270	0.0181213
848.348	0.0182298
848.426	0.0181133
848.504	0.0180982
848.582	0.0181644
848.660	0.0182537
848.738	0.0182581
848.817	0.0182494
848.895	0.0182211
848.973	0.0181957
849.051	0.0182534
849.129	0.0183675
849.207	0.0182236
849.285	0.0182188
849.363	0.0179971
849.442	0.0181198
849.520	0.0180899
849.598	0.0180206
849.676	0.0180895
849.754	0.0180722
849.832	0.0178978
849.910	0.0179382
849.988	0.0178669
850.067	0.0177145
850.145	0.0177055
850.223	0.0177135
850.301	0.0176765
850.379	0.0176601
850.457	0.0174796
850.535	0.0176137
850.613	0.0177737
850.692	0.0176175
850.770	0.0176854
850.848	0.0177151
850.926	0.0177355
851.004	0.0177452
851.082	0.0178085
851.160	0.0178410
851.238	0.0178859
851.317	0.0179393
851.395	0.0179975
851.473	0.0179821
851.551	0.0180840
851.629	0.0180033
851.707	0.0179630
851.785	0.0181565
851.863	0.0181435
851.942	0.0182052
852.020	0.0182063
852.098	0.0181079
852.176	0.0181682
852.254	0.0181223
852.332	0.0179123
852.410	0.0181320
852.488	0.0180252
852.567	0.0179894
852.645	0.0181342
852.723	0.0181506
852.801	0.0180756
852.879	0.0180989
852.957	0.0181125
853.035	0.0180544
853.113	0.0181445
853.192	0.0181774
853.270	0.0180093
853.348	0.0180627
853.426	0.0181359
853.504	0.0181138
853.582	0.0179807
853.660	0.0180811
853.738	0.0180373
853.817	0.0179781
853.895	0.0180480
853.973	0.0180914
854.051	0.0179827
854.129	0.0180727
854.207	0.0180141
854.285	0.0180030
854.363	0.0180684
854.442	0.0179807
854.520	0.0180688
854.598	0.0181167
854.676	0.0181402
854.754	0.0182703
854.832	0.0181940
854.910	0.0182500
854.988	0.0183086
855.067	0.0183469
855.145	0.0183945
855.223	0.0183315
855.301	0.0182805
855.379	0.0182161
855.457	0.0182993
855.535	0.0183709
855.613	0.0183490
855.692	0.0183454
855.770	0.0182900
855.848	0.0183018
855.926	0.0182922
856.004	0.0182422
856.082	0.0180519
856.160	0.0180744
856.238	0.0180835
856.317	0.0180628
856.395	0.0179852
856.473	0.0179678
856.551	0.0179195
856.629	0.0179857
856.707	0.0180599
856.785	0.0178801
856.863	0.0177445
856.942	0.0178285
857.020	0.0179173
857.098	0.0178085
857.176	0.0178074
857.254	0.0178567
857.332	0.0178668
857.410	0.0178156
857.488	0.0180309
857.567	0.0178499
857.645	0.0177747
857.723	0.0178910
857.801	0.0177467
857.879	0.0178544
857.957	0.0180368
858.035	0.0180423
858.113	0.0180434
858.192	0.0179858
858.270	0.0180653
858.348	0.0181541
858.426	0.0180865
858.504	0.0179144
858.582	0.0180501
858.660	0.0180577
858.738	0.0181847
858.817	0.0180654
858.895	0.0181237
858.973	0.0179912
859.051	0.0181360
859.129	0.0180878
859.207	0.0180163
859.285	0.0180061
859.363	0.0179944
859.442	0.0179732
859.520	0.0179745
859.598	0.0180343
859.676	0.0180718
859.754	0.0179944
859.832	0.0179082
859.910	0.0179980
859.988	0.0179469
860.067	0.0181133
860.145	0.0181129
860.223	0.0181526
860.301	0.0181427
860.379	0.0182238
860.457	0.0180929
860.535	0.0181546
860.613	0.0181696
860.692	0.0181552
860.770	0.0181147
860.848	0.0180320
860.926	0.0181947
861.004	0.0181885
861.082	0.0180770
861.160	0.0179674
861.238	0.0179739
861.317	0.0180581
861.395	0.0179181
861.473	0.0178320
861.551	0.0176781
861.629	0.0178553
861.707	0.0178911
861.785	0.0177507
861.863	0.0178090
861.942	0.0178855
862.020	0.0179614
862.098	0.0178920
862.176	0.0180236
862.254	0.0179648
862.332	0.0180266
862.410	0.0179673
862.488	0.0182372
862.567	0.0180944
862.645	0.0179694
862.723	0.0180837
862.801	0.0179821
862.879	0.0181192
862.957	0.0182048
863.035	0.0181857
863.113	0.0180460
863.192	0.0180406
863.270	0.0180468
863.348	0.0180665
863.426	0.0180549
863.504	0.0180013
863.582	0.0180405
863.660	0.0179585
863.738	0.0181329
863.817	0.0179610
863.895	0.0178929
863.973	0.0179301
864.051	0.0180501
864.129	0.0178781
864.207	0.0178364
864.285	0.0177938
864.363	0.0179359
864.442	0.0178216
864.520	0.0177677
864.598	0.0177801
864.676	0.0179330
864.754	0.0178436
864.832	0.0179739
864.910	0.0179245
864.988	0.0178926
865.067	0.0179266
865.145	0.0177696
865.223	0.0178757
865.301	0.0179980
865.379	0.0178242
865.457	0.0179509
865.535	0.0180109
865.613	0.0180345
865.692	0.0180109
865.770	0.0180288
865.848	0.0181503
865.926	0.0180432
866.004	0.0180863
866.082	0.0181408
866.160	0.0181207
866.238	0.0182320
866.317	0.0182523
866.395	0.0182324
866.473	0.0182114
866.551	0.0183086
866.629	0.0183495
866.707	0.0183120
866.785	0.0182272
866.863	0.0183909
866.942	0.0184309
867.020	0.0183839
867.098	0.0182811
867.176	0.0183414
867.254	0.0182037
867.332	0.0183085
867.410	0.0182844
867.488	0.0182057
867.567	0.0181887
867.645	0.0180543
867.723	0.0179964
867.801	0.0181284
867.879	0.0180888
867.957	0.0180116
868.035	0.0179834
868.113	0.0179396
868.192	0.0180112
868.270	0.0179500
868.348	0.0180290
868.426	0.0179134
868.504	0.0178243
868.582	0.0180458
868.660	0.0181090
868.738	0.0179838
868.817	0.0179466
868.895	0.0179434
868.973	0.0178962
869.051	0.0180790
869.129	0.0180010
869.207	0.0181133
869.285	0.0181010
869.363	0.0180758
869.442	0.0179257
869.520	0.0179900
869.598	0.0180735
869.676	0.0179771
869.754	0.0179159
869.832	0.0179223
869.910	0.0179332
869.988	0.0179826
870.067	0.0178726
870.145	0.0179771
870.223	0.0179360
870.301	0.0178745
870.379	0.0178402
870.457	0.0179097
870.535	0.0178043
870.613	0.0178788
870.692	0.0176823
870.770	0.0179475
870.848	0.0179125
870.926	0.0178086
871.004	0.0179903
871.082	0.0180376
871.160	0.0179044
871.238	0.0179935
871.317	0.0179623
871.395	0.0179615
871.473	0.0180418
871.551	0.0181190
871.629	0.0180745
871.707	0.0179943
871.785	0.0180161
871.863	0.0180336
871.942	0.0181239
872.020	0.0181392
872.098	0.0180511
872.176	0.0180042
872.254	0.0179095
872.332	0.0178559
872.410	0.0180017
872.488	0.0179031
872.567	0.0180197
872.645	0.0179294
872.723	0.0177385
872.801	0.0178709
872.879	0.0177789
872.957	0.0177782
873.035	0.0177865
873.113	0.0177715
873.192	0.0178043
873.270	0.0179398
873.348	0.0179804
873.426	0.0179659
873.504	0.0181212
873.582	0.0182088
873.660	0.0181401
873.738	0.0183793
873.817	0.0185186
873.895	0.0185029
873.973	0.0184847
874.051	0.0186095
874.129	0.0187803
874.207	0.0185581
874.285	0.0187740
874.363	0.0187713
874.442	0.0186595
874.520	0.0185517
874.598	0.0186333
874.676	0.0185928
874.754	0.0185870
874.832	0.0185642
874.910	0.0185275
874.988	0.0183018
875.067	0.0181101
875.145	0.0181471
875.223	0.0179987
875.301	0.0178844
875.379	0.0179839
875.457	0.0179077
875.535	0.0177325
875.613	0.0177493
875.692	0.0178526
875.770	0.0177200
875.848	0.0175158
875.926	0.0175546
876.004	0.0177006
876.082	0.0177822
876.160	0.0177692
876.238	0.0176385
876.317	0.0177443
876.395	0.0177896
876.473	0.0178114
876.551	0.0176986
876.629	0.0180154
876.707	0.0178442
876.785	0.0178620
876.863	0.0179987
876.942	0.0180418
877.020	0.0179751
877.098	0.0180875
877.176	0.0180595
877.254	0.0182513
877.332	0.0182931
877.410	0.0181281
877.488	0.0181685
877.567	0.0182259
877.645	0.0180905
877.723	0.0181567
877.801	0.0181013
877.879	0.0180755
877.957	0.0179232
878.035	0.0181247
878.113	0.0181848
878.192	0.0180645
878.270	0.0179191
878.348	0.0179700
878.426	0.0178860
878.504	0.0179894
878.582	0.0180089
878.660	0.0180797
878.738	0.0180711
878.817	0.0180729
878.895	0.0179201
878.973	0.0180710
879.051	0.0180598
879.129	0.0179509
879.207	0.0181631
879.285	0.0179055
879.363	0.0180988
879.442	0.0179182
879.520	0.0179539
879.598	0.0179806
879.676	0.0179256
879.754	0.0180088
879.832	0.0179697
879.910	0.0179021
879.988	0.0179295
880.067	0.0179531
880.145	0.0179340
880.223	0.0179732
880.301	0.0180382
880.379	0.0179993
880.457	0.0178930
880.535	0.0178943
880.613	0.0180958
880.692	0.0180210
880.770	0.0181683
880.848	0.0182557
880.926	0.0182858
881.004	0.0183425
881.082	0.0183304
881.160	0.0181483
881.238	0.0183649
881.317	0.0183945
881.395	0.0183794
881.473	0.0184209
881.551	0.0183750
881.629	0.0182742
881.707	0.0183437
881.785	0.0182999
881.863	0.0182723
881.942	0.0182798
882.020	0.0182723
882.098	0.0183446
882.176	0.0182121
882.254	0.0184688
882.332	0.0181326
882.410	0.0182323
882.488	0.0182307
882.567	0.0182880
882.645	0.0182176
882.723	0.0181297
882.801	0.0182381
882.879	0.0181918
882.957	0.0181586
883.035	0.0180446
883.113	0.0180501
883.192	0.0180715
883.270	0.0180467
883.348	0.0180605
883.426	0.0178824
883.504	0.0179852
883.582	0.0178671
883.660	0.0179192
883.738	0.0178440
883.817	0.0177625
883.895	0.0178946
883.973	0.0176527
884.051	0.0175833
884.129	0.0176531
884.207	0.0176882
884.285	0.0177853
884.363	0.0177467
884.442	0.0178437
884.520	0.0177911
884.598	0.0179131
884.676	0.0179111
884.754	0.0180631
884.832	0.0179099
884.910	0.0179696
884.988	0.0181818
885.067	0.0181535
885.145	0.0181733
885.223	0.0181963
885.301	0.0183053
885.379	0.0182858
885.457	0.0182249
885.535	0.0181636
885.613	0.0182375
885.692	0.0180687
885.770	0.0181020
885.848	0.0181997
885.926	0.0180491
886.004	0.0180276
886.082	0.0179498
886.160	0.0179051
886.238	0.0180150
886.317	0.0179880
886.395	0.0180019
886.473	0.0178416
886.551	0.0178513
886.629	0.0179016
886.707	0.0176986
886.785	0.0178344
886.863	0.0176948
886.942	0.0178374
887.020	0.0177597
887.098	0.0177494
887.176	0.0178262
887.254	0.0178347
887.332	0.0177148
887.410	0.0178515
887.488	0.0177140
887.567	0.0179103
887.645	0.0178351
887.723	0.0181139
887.801	0.0180419
887.879	0.0179668
887.957	0.0179209
888.035	0.0179298
888.113	0.0178624
888.192	0.0181474
888.270	0.0181053
888.348	0.0179400
888.426	0.0181412
888.504	0.0180988
888.582	0.0180624
888.660	0.0182336
888.738	0.0180659
888.817	0.0181030
888.895	0.0182525
888.973	0.0182215
889.051	0.0182525
889.129	0.0181537
889.207	0.0181563
889.285	0.0182706
889.363	0.0183113
889.442	0.0183118
889.520	0.0183302
889.598	0.0184517
889.676	0.0182822
889.754	0.0183014
889.832	0.0182782
889.910	0.0183511
889.988	0.0183283
890.067	0.0183489
890.145	0.0182835
890.223	0.0183099
890.301	0.0182470
890.379	0.0182317
890.457	0.0181870
890.535	0.0182957
890.613	0.0182837
890.692	0.0181277
890.770	0.0182048
890.848	0.0181712
890.926	0.0182231
891.004	0.0181578
891.082	0.0180598
891.160	0.0181012
891.238	0.0181207
891.317	0.0181017
891.395	0.0179543
891.473	0.0179382
891.551	0.0181109
891.629	0.0179873
891.707	0.0178271
891.785	0.0179031
891.863	0.0179413
891.942	0.0179465
892.020	0.0178909
892.098	0.0178842
892.176	0.0179836
892.254	0.0181825
892.332	0.0180381
892.410	0.0179408
892.488	0.0181027
892.567	0.0181557
892.645	0.0179324
892.723	0.0179432
892.801	0.0181597
892.879	0.0179856
892.957	0.0179256
893.035	0.0179884
893.113	0.0179365
893.192	0.0179221
893.270	0.0179073
893.348	0.0178313
893.426	0.0177254
893.504	0.0177680
893.582	0.0177742
893.660	0.0178097
893.738	0.0178208
893.817	0.0178278
893.895	0.0177117
893.973	0.0177372
894.051	0.0179027
894.129	0.0178966
894.207	0.0179404
894.285	0.0179269
894.363	0.0179852
894.442	0.0180373
894.520	0.0180893
894.598	0.0181138
894.676	0.0182057
894.754	0.0181704
894.832	0.0182449
894.910	0.0182677
894.988	0.0182345
895.067	0.0183528
895.145	0.0182310
895.223	0.0181606
895.301	0.0181625
895.379	0.0181377
895.457	0.0181264
895.535	0.0180929
895.613	0.0180424
895.692	0.0181290
895.770	0.0180399
895.848	0.0179402
895.926	0.0180179
896.004	0.0179471
896.082	0.0181010
896.160	0.0179945
896.238	0.0178862
896.317	0.0178850
896.395	0.0179716
896.473	0.0179730
896.551	0.0179638
896.629	0.0179685
896.707	0.0179374
896.785	0.0180092
896.863	0.0180164
896.942	0.0179234
897.020	0.0179720
897.098	0.0180438
897.176	0.0179176
897.254	0.0180213
897.332	0.0180602
897.410	0.0180813
897.488	0.0181317
897.567	0.0180557
897.645	0.0180530
897.723	0.0181047
897.801	0.0180994
897.879	0.0182204
897.957	0.0181686
898.035	0.0182104
898.113	0.0182489
898.192	0.0181714
898.270	0.0182536
898.348	0.0183326
898.426	0.0179813
898.504	0.0182488
898.582	0.0181399
898.660	0.0182041
898.738	0.0181159
898.817	0.0179492
898.895	0.0180488
898.973	0.0180419
899.051	0.0180199
899.129	0.0181354
899.207	0.0180709
899.285	0.0182361
899.363	0.0180923
899.442	0.0179412
899.520	0.0180798
899.598	0.0181150
899.676	0.0181362
899.754	0.0180679
899.832	0.0182096
899.910	0.0180744
899.988	0.0180378
900.067	0.0181182
900.145	0.0180099
900.223	0.0180787
900.301	0.0181096
900.379	0.0180819
900.457	0.0179733
900.535	0.0179388
900.613	0.0178605
900.692	0.0179301
900.770	0.0179466
900.848	0.0177455
900.926	0.0179226
901.004	0.0178452
901.082	0.0177905
901.160	0.0177914
901.238	0.0177479
901.317	0.0177182
901.395	0.0177933
901.473	0.0179011
901.551	0.0179407
901.629	0.0179523
901.707	0.0178534
901.785	0.0178632
901.863	0.0178640
901.942	0.0178558
902.020	0.0178442
902.098	0.0180038
902.176	0.0181174
902.254	0.0179778
902.332	0.0179359
902.410	0.0180165
902.488	0.0179317
902.567	0.0179819
902.645	0.0178683
902.723	0.0179314
902.801	0.0179552
902.879	0.0180706
902.957	0.0180408
903.035	0.0179850
903.113	0.0180476
903.192	0.0179624
903.270	0.0179533
903.348	0.0180708
903.426	0.0179925
903.504	0.0182601
903.582	0.0181203
903.660	0.0181129
903.738	0.0181631
903.817	0.0183248
903.895	0.0181353
903.973	0.0182073
904.051	0.0182637
904.129	0.0182830
904.207	0.0183159
904.285	0.0182655
904.363	0.0182437
904.442	0.0182661
904.520	0.0183171
904.598	0.0182669
904.676	0.0180679
904.754	0.0181628
904.832	0.0181387
904.910	0.0182318
904.988	0.0181617
905.067	0.0182465
905.145	0.0181355
905.223	0.0179639
905.301	0.0181347
905.379	0.0180825
905.457	0.0180242
905.535	0.0181409
905.613	0.0179990
905.692	0.0180426
905.770	0.0178813
905.848	0.0179757
905.926	0.0179800
906.004	0.0179211
906.082	0.0178938
906.160	0.0179729
906.238	0.0179509
906.317	0.0179298
906.395	0.0179350
906.473	0.0179824
906.551	0.0180633
906.629	0.0179929
906.707	0.0181396
906.785	0.0180444
906.863	0.0179762
906.942	0.0180250
907.020	0.0179570
907.098	0.0180761
907.176	0.0180222
907.254	0.0180827
907.332	0.0181067
907.410	0.0180125
907.488	0.0178830
907.567	0.0179539
907.645	0.0181541
907.723	0.0181870
907.801	0.0179440
907.879	0.0179283
907.957	0.0179842
908.035	0.0179858
908.113	0.0179684
908.192	0.0178836
908.270	0.0178412
908.348	0.0179112
908.426	0.0180015
908.504	0.0179912
908.582	0.0179883
908.660	0.0180726
908.738	0.0180570
908.817	0.0179922
908.895	0.0178738
908.973	0.0180856
909.051	0.0181001
909.129	0.0181277
909.207	0.0180502
909.285	0.0181437
909.363	0.0180380
909.442	0.0179562
909.520	0.0180994
909.598	0.0180202
909.676	0.0179210
909.754	0.0180299
909.832	0.0179196
909.910	0.0178355
909.988	0.0179033
910.067	0.0178949
910.145	0.0177616
910.223	0.0177757
910.301	0.0177643
910.379	0.0178487
910.457	0.0178220
910.535	0.0176975
910.613	0.0178447
910.692	0.0176827
910.770	0.0178131
910.848	0.0178342
910.926	0.0178505
911.004	0.0179260
911.082	0.0180301
911.160	0.0180589
911.238	0.0180462
911.317	0.0180550
911.395	0.0180738
911.473	0.0180927
911.551	0.0181510
911.629	0.0181271
911.707	0.0181667
911.785	0.0183627
911.863	0.0183099
911.942	0.0182902
912.020	0.0182468
912.098	0.0182781
912.176	0.0182329
912.254	0.0181961
912.332	0.0181840
912.410	0.0181691
912.488	0.0182359
912.567	0.0182076
912.645	0.0182049
912.723	0.0180430
912.801	0.0180156
912.879	0.0181490
912.957	0.0179903
913.035	0.0181255
913.113	0.0180679
913.192	0.0179335
913.270	0.0180496
913.348	0.0179268
913.426	0.0179121
913.504	0.0180127
913.582	0.0178918
913.660	0.0180185
913.738	0.0180273
913.817	0.0179259
913.895	0.0179430
913.973	0.0178458
914.051	0.0180153
914.129	0.0178983
914.207	0.0181860
914.285	0.0180194
914.363	0.0178938
914.442	0.0178970
914.520	0.0180157
914.598	0.0180045
914.676	0.0179630
914.754	0.0180656
914.832	0.0181354
914.910	0.0182076
914.988	0.0180946
915.067	0.0182326
915.145	0.0181944
915.223	0.0182580
915.301	0.0182069
915.379	0.0182655
915.457	0.0181169
915.535	0.0183210
915.613	0.0182999
915.692	0.0183365
915.770	0.0182529
915.848	0.0181364
915.926	0.0183016
916.004	0.0182787
916.082	0.0182098
916.160	0.0182745
916.238	0.0182658
916.317	0.0181435
916.395	0.0182191
916.473	0.0180974
916.551	0.0180404
916.629	0.0182217
916.707	0.0180496
916.785	0.0180838
916.863	0.0179746
916.942	0.0178765
917.020	0.0178574
917.098	0.0179837
917.176	0.0179675
917.254	0.0178895
917.332	0.0178268
917.410	0.0177736
917.488	0.0177480
917.567	0.0178313
917.645	0.0177840
917.723	0.0177139
917.801	0.0176164
917.879	0.0178645
917.957	0.0178039
918.035	0.0178039
918.113	0.0177740
918.192	0.0177744
918.270	0.0178370
918.348	0.0179222
918.426	0.0179461
918.504	0.0178363
918.582	0.0178915
918.660	0.0179990
918.738	0.0181255
918.817	0.0180556
918.895	0.0180383
918.973	0.0180070
919.051	0.0179383
919.129	0.0178995
919.207	0.0180676
919.285	0.0180721
919.363	0.0180395
919.442	0.0179304
919.520	0.0180222
919.598	0.0180685
919.676	0.0181458
919.754	0.0178960
919.832	0.0179196
919.910	0.0180465
