06/01/2022	21:54:58	Ver.	4.1	UNKNOWN
Optical Delay	599.988409	Delta X		0.078125	Sweeps	1	Scan Rate	0/0
Coordinates	Axis 1	NaN	Axis 2	NaN	Axis 3	NaN	Axis 4	NaN	Axis 5	NaN	Axis 6	0.000000
TX Power	0.000000	RX Power	0.000000

599.988	0.0182208
600.067	0.0183127
600.145	0.0183061
600.223	0.0182410
600.301	0.0182645
600.379	0.0183212
600.457	0.0182617
600.535	0.0180952
600.613	0.0181552
600.692	0.0182504
600.770	0.0182204
600.848	0.0181183
600.926	0.0183819
601.004	0.0183087
601.082	0.0181973
601.160	0.0182023
601.238	0.0182379
601.317	0.0183155
601.395	0.0182891
601.473	0.0182314
601.551	0.0181582
601.629	0.0181836
601.707	0.0183084
601.785	0.0182293
601.863	0.0182632
601.942	0.0183427
602.020	0.0182935
602.098	0.0181926
602.176	0.0182701
602.254	0.0183543
602.332	0.0181671
602.410	0.0181079
602.488	0.0182486
602.567	0.0183738
602.645	0.0182187
602.723	0.0181689
602.801	0.0182382
602.879	0.0183380
602.957	0.0182411
603.035	0.0182939
603.113	0.0182137
603.192	0.0182681
603.270	0.0183725
603.348	0.0183090
603.426	0.0183024
603.504	0.0183143
603.582	0.0182224
603.660	0.0183145
603.738	0.0182329
603.817	0.0181743
603.895	0.0182003
603.973	0.0182725
604.051	0.0182597
604.129	0.0182976
604.207	0.0181505
604.285	0.0182167
604.363	0.0182073
604.442	0.0181004
604.520	0.0181859
604.598	0.0181448
604.676	0.0182975
604.754	0.0182826
604.832	0.0182774
604.910	0.0181309
604.988	0.0181699
605.067	0.0181805
605.145	0.0182499
605.223	0.0182725
605.301	0.0183885
605.379	0.0182271
605.457	0.0181469
605.535	0.0182025
605.613	0.0182098
605.692	0.0182727
605.770	0.0180718
605.848	0.0183140
605.926	0.0182558
606.004	0.0183286
606.082	0.0182246
606.160	0.0183105
606.238	0.0183640
606.317	0.0182884
606.395	0.0182818
606.473	0.0182220
606.551	0.0183540
606.629	0.0182205
606.707	0.0181934
606.785	0.0181645
606.863	0.0182603
606.942	0.0182985
607.020	0.0182864
607.098	0.0183115
607.176	0.0182249
607.254	0.0181618
607.332	0.0181200
607.410	0.0181033
607.488	0.0181674
607.567	0.0181899
607.645	0.0182593
607.723	0.0181944
607.801	0.0182110
607.879	0.0182452
607.957	0.0182354
608.035	0.0181606
608.113	0.0181125
608.192	0.0181943
608.270	0.0181710
608.348	0.0181857
608.426	0.0181490
608.504	0.0182626
608.582	0.0182387
608.660	0.0182267
608.738	0.0182197
608.817	0.0182085
608.895	0.0181901
608.973	0.0181678
609.051	0.0181297
609.129	0.0182345
609.207	0.0183329
609.285	0.0181396
609.363	0.0181284
609.442	0.0181973
609.520	0.0182201
609.598	0.0182940
609.676	0.0182516
609.754	0.0180413
609.832	0.0182873
609.910	0.0182909
609.988	0.0182194
610.067	0.0182955
610.145	0.0181713
610.223	0.0181769
610.301	0.0182377
610.379	0.0181688
610.457	0.0181925
610.535	0.0182468
610.613	0.0182094
610.692	0.0183184
610.770	0.0181377
610.848	0.0182105
610.926	0.0183508
611.004	0.0182885
611.082	0.0182108
611.160	0.0181208
611.238	0.0181628
611.317	0.0182767
611.395	0.0182310
611.473	0.0181772
611.551	0.0182453
611.629	0.0181824
611.707	0.0182086
611.785	0.0181855
611.863	0.0181933
611.942	0.0181835
612.020	0.0181857
612.098	0.0181330
612.176	0.0182620
612.254	0.0181395
612.332	0.0181640
612.410	0.0182496
612.488	0.0183170
612.567	0.0182494
612.645	0.0181458
612.723	0.0181965
612.801	0.0182729
612.879	0.0182546
612.957	0.0182548
613.035	0.0182805
613.113	0.0182325
613.192	0.0182904
613.270	0.0182114
613.348	0.0182007
613.426	0.0182471
613.504	0.0181126
613.582	0.0182384
613.660	0.0180794
613.738	0.0182199
613.817	0.0183723
613.895	0.0181883
613.973	0.0182779
614.051	0.0181892
614.129	0.0183899
614.207	0.0182750
614.285	0.0181780
614.363	0.0183210
614.442	0.0181436
614.520	0.0182049
614.598	0.0182098
614.676	0.0182037
614.754	0.0182422
614.832	0.0181451
614.910	0.0182658
614.988	0.0181705
615.067	0.0181356
615.145	0.0182431
615.223	0.0182576
615.301	0.0182447
615.379	0.0180523
615.457	0.0181750
615.535	0.0183011
615.613	0.0181290
615.692	0.0182880
615.770	0.0182198
615.848	0.0181269
615.926	0.0181873
616.004	0.0183160
616.082	0.0182264
616.160	0.0182510
616.238	0.0181865
616.317	0.0182613
616.395	0.0182806
616.473	0.0182206
616.551	0.0183009
616.629	0.0182944
616.707	0.0183117
616.785	0.0181010
616.863	0.0179452
616.942	0.0181863
617.020	0.0182336
617.098	0.0181328
617.176	0.0181544
617.254	0.0182091
617.332	0.0182707
617.410	0.0182570
617.488	0.0183118
617.567	0.0183672
617.645	0.0181540
617.723	0.0182182
617.801	0.0183750
617.879	0.0182139
617.957	0.0183120
618.035	0.0183362
618.113	0.0182819
618.192	0.0182750
618.270	0.0182164
618.348	0.0182548
618.426	0.0182604
618.504	0.0182787
618.582	0.0182936
618.660	0.0182610
618.738	0.0184435
618.817	0.0182035
618.895	0.0182817
618.973	0.0183115
619.051	0.0183825
619.129	0.0183116
619.207	0.0182863
619.285	0.0183181
619.363	0.0183076
619.442	0.0182359
619.520	0.0182311
619.598	0.0182382
619.676	0.0182766
619.754	0.0182316
619.832	0.0182629
619.910	0.0182054
619.988	0.0182934
620.067	0.0183601
620.145	0.0183173
620.223	0.0181156
620.301	0.0183533
620.379	0.0183956
620.457	0.0181107
620.535	0.0182968
620.613	0.0182429
620.692	0.0181780
620.770	0.0182645
620.848	0.0183630
620.926	0.0181491
621.004	0.0183242
621.082	0.0183155
621.160	0.0181959
621.238	0.0182366
621.317	0.0183710
621.395	0.0181908
621.473	0.0183441
621.551	0.0182410
621.629	0.0182568
621.707	0.0183025
621.785	0.0183783
621.863	0.0182053
621.942	0.0182694
622.020	0.0181255
622.098	0.0181897
622.176	0.0183840
622.254	0.0183472
622.332	0.0182450
622.410	0.0182007
622.488	0.0182104
622.567	0.0182033
622.645	0.0182860
622.723	0.0183614
622.801	0.0183222
622.879	0.0183788
622.957	0.0183360
623.035	0.0181840
623.113	0.0182801
623.192	0.0183011
623.270	0.0183593
623.348	0.0182811
623.426	0.0181853
623.504	0.0182807
623.582	0.0182085
623.660	0.0182030
623.738	0.0183932
623.817	0.0181583
623.895	0.0182246
623.973	0.0183269
624.051	0.0182358
624.129	0.0184088
624.207	0.0183273
624.285	0.0182284
624.363	0.0183937
624.442	0.0181923
624.520	0.0183035
624.598	0.0183302
624.676	0.0181001
624.754	0.0181919
624.832	0.0182359
624.910	0.0183359
624.988	0.0181261
625.067	0.0181763
625.145	0.0180351
625.223	0.0182567
625.301	0.0183002
625.379	0.0181727
625.457	0.0181670
625.535	0.0182808
625.613	0.0183169
625.692	0.0182971
625.770	0.0184525
625.848	0.0184087
625.926	0.0184695
626.004	0.0183558
626.082	0.0184460
626.160	0.0183173
626.238	0.0183717
626.317	0.0182529
626.395	0.0182141
626.473	0.0182362
626.551	0.0182602
626.629	0.0181506
626.707	0.0181481
626.785	0.0181679
626.863	0.0180460
626.942	0.0182509
627.020	0.0181969
627.098	0.0181871
627.176	0.0181451
627.254	0.0182751
627.332	0.0183647
627.410	0.0182520
627.488	0.0183027
627.567	0.0182277
627.645	0.0183891
627.723	0.0184772
627.801	0.0183933
627.879	0.0183619
627.957	0.0183765
628.035	0.0183053
628.113	0.0182184
628.192	0.0181294
628.270	0.0180813
628.348	0.0181263
628.426	0.0182077
628.504	0.0182125
628.582	0.0180888
628.660	0.0181007
628.738	0.0180720
628.817	0.0182990
628.895	0.0181639
628.973	0.0182156
629.051	0.0181908
629.129	0.0182582
629.207	0.0181059
629.285	0.0182531
629.363	0.0182549
629.442	0.0182952
629.520	0.0182832
629.598	0.0183415
629.676	0.0183126
629.754	0.0182992
629.832	0.0183421
629.910	0.0183929
629.988	0.0183323
630.067	0.0183844
630.145	0.0182901
630.223	0.0181876
630.301	0.0181963
630.379	0.0182326
630.457	0.0182069
630.535	0.0181180
630.613	0.0182610
630.692	0.0182246
630.770	0.0180833
630.848	0.0181301
630.926	0.0183226
631.004	0.0180402
631.082	0.0183198
631.160	0.0183117
631.238	0.0183043
631.317	0.0181369
631.395	0.0182645
631.473	0.0183376
631.551	0.0183185
631.629	0.0183482
631.707	0.0181670
631.785	0.0183041
631.863	0.0183288
631.942	0.0182516
632.020	0.0183780
632.098	0.0183107
632.176	0.0183630
632.254	0.0183517
632.332	0.0182852
632.410	0.0183141
632.488	0.0182375
632.567	0.0181433
632.645	0.0181505
632.723	0.0179893
632.801	0.0180771
632.879	0.0179782
632.957	0.0181956
633.035	0.0181849
633.113	0.0181417
633.192	0.0182146
633.270	0.0182906
633.348	0.0182095
633.426	0.0184406
633.504	0.0183368
633.582	0.0184663
633.660	0.0183267
633.738	0.0184665
633.817	0.0183749
633.895	0.0183100
633.973	0.0183264
634.051	0.0182455
634.129	0.0181632
634.207	0.0180746
634.285	0.0180191
634.363	0.0179734
634.442	0.0180457
634.520	0.0180289
634.598	0.0179720
634.676	0.0181273
634.754	0.0181424
634.832	0.0180701
634.910	0.0182018
634.988	0.0182314
635.067	0.0182574
635.145	0.0182550
635.223	0.0183281
635.301	0.0182504
635.379	0.0182394
635.457	0.0184059
635.535	0.0184866
635.613	0.0183317
635.692	0.0183820
635.770	0.0183433
635.848	0.0185007
635.926	0.0182707
636.004	0.0183156
636.082	0.0182901
636.160	0.0181544
636.238	0.0181080
636.317	0.0180865
636.395	0.0180537
636.473	0.0182408
636.551	0.0181350
636.629	0.0180838
636.707	0.0181834
636.785	0.0182296
636.863	0.0181964
636.942	0.0182610
637.020	0.0183405
637.098	0.0182599
637.176	0.0183976
637.254	0.0181033
637.332	0.0182832
637.410	0.0181232
637.488	0.0183447
637.567	0.0182162
637.645	0.0183655
637.723	0.0182066
637.801	0.0183384
637.879	0.0181985
637.957	0.0183529
638.035	0.0183145
638.113	0.0183717
638.192	0.0183884
638.270	0.0183869
638.348	0.0181516
638.426	0.0181551
638.504	0.0182272
638.582	0.0182121
638.660	0.0182249
638.738	0.0182690
638.817	0.0180839
638.895	0.0180959
638.973	0.0181511
639.051	0.0181758
639.129	0.0182350
639.207	0.0181484
639.285	0.0181689
639.363	0.0184135
639.442	0.0183414
639.520	0.0183482
639.598	0.0182467
639.676	0.0181892
639.754	0.0182098
639.832	0.0182214
639.910	0.0182762
639.988	0.0181316
640.067	0.0181063
640.145	0.0182671
640.223	0.0182390
640.301	0.0182201
640.379	0.0183013
640.457	0.0182241
640.535	0.0181497
640.613	0.0183407
640.692	0.0182399
640.770	0.0181248
640.848	0.0180865
640.926	0.0182320
641.004	0.0181658
641.082	0.0181036
641.160	0.0180589
641.238	0.0181192
641.317	0.0182494
641.395	0.0182914
641.473	0.0182951
641.551	0.0181164
641.629	0.0182590
641.707	0.0180505
641.785	0.0182255
641.863	0.0181825
641.942	0.0182561
642.020	0.0180939
642.098	0.0182932
642.176	0.0180968
642.254	0.0182681
642.332	0.0183669
642.410	0.0182963
642.488	0.0182485
642.567	0.0182528
642.645	0.0181506
642.723	0.0183668
642.801	0.0183885
642.879	0.0183473
642.957	0.0183189
643.035	0.0184253
643.113	0.0184037
643.192	0.0183840
643.270	0.0182834
643.348	0.0182235
643.426	0.0183080
643.504	0.0182659
643.582	0.0181507
643.660	0.0181844
643.738	0.0181268
643.817	0.0180090
643.895	0.0180386
643.973	0.0180769
644.051	0.0180810
644.129	0.0179634
644.207	0.0180209
644.285	0.0179991
644.363	0.0181290
644.442	0.0181271
644.520	0.0182191
644.598	0.0182658
644.676	0.0184421
644.754	0.0184990
644.832	0.0184578
644.910	0.0186626
644.988	0.0184769
645.067	0.0184457
645.145	0.0185612
645.223	0.0183504
645.301	0.0184502
645.379	0.0184578
645.457	0.0182254
645.535	0.0180602
645.613	0.0181852
645.692	0.0181084
645.770	0.0180236
645.848	0.0180704
645.926	0.0178545
646.004	0.0179374
646.082	0.0180151
646.160	0.0180402
646.238	0.0178746
646.317	0.0179980
646.395	0.0181712
646.473	0.0180027
646.551	0.0181367
646.629	0.0183092
646.707	0.0182428
646.785	0.0183726
646.863	0.0183792
646.942	0.0184486
647.020	0.0184155
647.098	0.0183668
647.176	0.0184816
647.254	0.0184538
647.332	0.0183779
647.410	0.0182764
647.488	0.0182111
647.567	0.0183852
647.645	0.0182317
647.723	0.0181598
647.801	0.0180987
647.879	0.0181773
647.957	0.0177853
648.035	0.0180059
648.113	0.0179258
648.192	0.0180190
648.270	0.0179100
648.348	0.0179720
648.426	0.0180783
648.504	0.0181724
648.582	0.0181244
648.660	0.0181870
648.738	0.0183143
648.817	0.0183105
648.895	0.0182073
648.973	0.0184608
649.051	0.0186031
649.129	0.0184622
649.207	0.0184815
649.285	0.0184316
649.363	0.0183546
649.442	0.0183521
649.520	0.0182027
649.598	0.0184342
649.676	0.0182035
649.754	0.0181035
649.832	0.0181025
649.910	0.0180614
649.988	0.0182211
650.067	0.0180917
650.145	0.0180179
650.223	0.0179683
650.301	0.0180289
650.379	0.0181373
650.457	0.0182545
650.535	0.0180540
650.613	0.0181612
650.692	0.0182679
650.770	0.0183075
650.848	0.0184377
650.926	0.0183011
651.004	0.0182816
651.082	0.0183081
651.160	0.0183442
651.238	0.0181744
651.317	0.0182595
651.395	0.0183128
651.473	0.0181811
651.551	0.0182037
651.629	0.0183106
651.707	0.0182532
651.785	0.0183466
651.863	0.0183150
651.942	0.0181940
652.020	0.0180430
652.098	0.0182056
652.176	0.0182182
652.254	0.0182603
652.332	0.0182037
652.410	0.0183678
652.488	0.0182790
652.567	0.0181927
652.645	0.0184160
652.723	0.0183232
652.801	0.0183438
652.879	0.0182961
652.957	0.0182198
653.035	0.0181812
653.113	0.0181351
653.192	0.0181759
653.270	0.0180517
653.348	0.0181964
653.426	0.0180421
653.504	0.0180785
653.582	0.0181330
653.660	0.0180698
653.738	0.0181941
653.817	0.0181101
653.895	0.0183311
653.973	0.0181561
654.051	0.0182875
654.129	0.0182543
654.207	0.0181770
654.285	0.0183292
654.363	0.0184069
654.442	0.0185088
654.520	0.0184123
654.598	0.0183084
654.676	0.0183845
654.754	0.0182474
654.832	0.0182241
654.910	0.0183395
654.988	0.0182918
655.067	0.0182037
655.145	0.0179918
655.223	0.0179865
655.301	0.0181078
655.379	0.0181273
655.457	0.0181267
655.535	0.0181407
655.613	0.0181010
655.692	0.0182460
655.770	0.0181820
655.848	0.0181239
655.926	0.0182256
656.004	0.0182077
656.082	0.0184292
656.160	0.0184586
656.238	0.0184938
656.317	0.0184499
656.395	0.0184378
656.473	0.0185149
656.551	0.0184610
656.629	0.0184959
656.707	0.0185549
656.785	0.0183909
656.863	0.0185001
656.942	0.0184509
657.020	0.0184084
657.098	0.0181139
657.176	0.0179951
657.254	0.0180230
657.332	0.0180251
657.410	0.0180207
657.488	0.0179891
657.567	0.0179096
657.645	0.0177608
657.723	0.0177729
657.801	0.0178839
657.879	0.0180023
657.957	0.0180227
658.035	0.0181236
658.113	0.0180787
658.192	0.0183069
658.270	0.0183490
658.348	0.0183916
658.426	0.0185401
658.504	0.0184113
658.582	0.0184451
658.660	0.0185226
658.738	0.0184972
658.817	0.0184714
658.895	0.0185076
658.973	0.0184476
659.051	0.0184376
659.129	0.0182196
659.207	0.0183123
659.285	0.0181874
659.363	0.0181512
659.442	0.0181010
659.520	0.0181676
659.598	0.0180906
659.676	0.0181084
659.754	0.0180885
659.832	0.0182023
659.910	0.0180907
659.988	0.0181624
660.067	0.0182787
660.145	0.0182917
660.223	0.0182223
660.301	0.0180643
660.379	0.0182272
660.457	0.0183299
660.535	0.0181759
660.613	0.0182915
660.692	0.0183256
660.770	0.0182737
660.848	0.0183851
660.926	0.0183437
661.004	0.0182926
661.082	0.0183177
661.160	0.0183533
661.238	0.0181104
661.317	0.0181171
661.395	0.0181338
661.473	0.0182013
661.551	0.0181575
661.629	0.0181176
661.707	0.0178659
661.785	0.0179623
661.863	0.0180788
661.942	0.0180145
662.020	0.0180778
662.098	0.0179912
662.176	0.0181871
662.254	0.0181557
662.332	0.0181662
662.410	0.0182880
662.488	0.0185462
662.567	0.0184254
662.645	0.0184143
662.723	0.0184142
662.801	0.0185104
662.879	0.0183646
662.957	0.0184765
663.035	0.0185493
663.113	0.0184714
663.192	0.0185863
663.270	0.0184291
663.348	0.0181489
663.426	0.0182878
663.504	0.0181091
663.582	0.0181075
663.660	0.0181481
663.738	0.0180511
663.817	0.0180047
663.895	0.0181520
663.973	0.0180083
664.051	0.0181274
664.129	0.0181825
664.207	0.0181097
664.285	0.0180339
664.363	0.0181348
664.442	0.0180522
664.520	0.0180936
664.598	0.0182588
664.676	0.0181745
664.754	0.0182691
664.832	0.0182372
664.910	0.0182757
664.988	0.0181647
665.067	0.0182128
665.145	0.0181535
665.223	0.0181504
665.301	0.0180086
665.379	0.0182171
665.457	0.0181166
665.535	0.0181116
665.613	0.0181544
665.692	0.0181757
665.770	0.0180450
665.848	0.0180860
665.926	0.0180611
666.004	0.0179677
666.082	0.0180709
666.160	0.0179941
666.238	0.0181776
666.317	0.0181626
666.395	0.0181705
666.473	0.0181727
666.551	0.0181245
666.629	0.0182311
666.707	0.0181944
666.785	0.0182417
666.863	0.0182565
666.942	0.0182401
667.020	0.0182149
667.098	0.0182953
667.176	0.0182655
667.254	0.0183350
667.332	0.0184136
667.410	0.0182698
667.488	0.0183463
667.567	0.0183060
667.645	0.0183118
667.723	0.0183161
667.801	0.0181207
667.879	0.0182237
667.957	0.0182902
668.035	0.0182470
668.113	0.0182440
668.192	0.0182243
668.270	0.0181058
668.348	0.0181904
668.426	0.0182931
668.504	0.0180875
668.582	0.0181628
668.660	0.0181279
668.738	0.0181046
668.817	0.0182082
668.895	0.0182870
668.973	0.0180841
669.051	0.0179546
669.129	0.0183007
669.207	0.0181831
669.285	0.0180426
669.363	0.0180138
669.442	0.0182008
669.520	0.0180649
669.598	0.0179997
669.676	0.0181585
669.754	0.0181137
669.832	0.0181959
669.910	0.0183094
669.988	0.0181120
670.067	0.0183135
670.145	0.0182885
670.223	0.0183309
670.301	0.0183231
670.379	0.0183749
670.457	0.0183315
670.535	0.0183192
670.613	0.0182690
670.692	0.0183948
670.770	0.0182762
670.848	0.0182470
670.926	0.0181561
671.004	0.0181806
671.082	0.0182161
671.160	0.0183135
671.238	0.0181225
671.317	0.0182085
671.395	0.0180739
671.473	0.0181780
671.551	0.0181051
671.629	0.0181097
671.707	0.0180953
671.785	0.0181717
671.863	0.0181664
671.942	0.0181810
672.020	0.0180825
672.098	0.0181398
672.176	0.0180991
672.254	0.0181252
672.332	0.0181754
672.410	0.0181853
672.488	0.0181570
672.567	0.0183886
672.645	0.0181361
672.723	0.0181110
672.801	0.0184020
672.879	0.0183109
672.957	0.0182663
673.035	0.0183252
673.113	0.0182964
673.192	0.0183570
673.270	0.0184267
673.348	0.0183960
673.426	0.0183276
673.504	0.0182867
673.582	0.0183517
673.660	0.0183309
673.738	0.0182266
673.817	0.0181936
673.895	0.0181214
673.973	0.0180407
674.051	0.0179149
674.129	0.0179646
674.207	0.0180108
674.285	0.0179172
674.363	0.0178394
674.442	0.0179990
674.520	0.0179464
674.598	0.0179430
674.676	0.0180196
674.754	0.0182009
674.832	0.0182596
674.910	0.0182241
674.988	0.0181448
675.067	0.0181863
675.145	0.0183156
675.223	0.0182724
675.301	0.0182912
675.379	0.0182687
675.457	0.0182263
675.535	0.0182877
675.613	0.0182188
675.692	0.0182269
675.770	0.0183662
675.848	0.0183268
675.926	0.0182845
676.004	0.0183362
676.082	0.0182716
676.160	0.0183804
676.238	0.0185214
676.317	0.0184930
676.395	0.0184739
676.473	0.0184538
676.551	0.0185639
676.629	0.0186055
676.707	0.0184783
676.785	0.0183665
676.863	0.0182681
676.942	0.0182267
677.020	0.0180975
677.098	0.0179922
677.176	0.0179361
677.254	0.0178822
677.332	0.0177109
677.410	0.0176248
677.488	0.0175648
677.567	0.0173756
677.645	0.0174289
677.723	0.0174197
677.801	0.0175387
677.879	0.0174768
677.957	0.0175378
678.035	0.0175785
678.113	0.0176930
678.192	0.0178776
678.270	0.0179593
678.348	0.0181041
678.426	0.0182151
678.504	0.0182777
678.582	0.0186795
678.660	0.0187183
678.738	0.0188338
678.817	0.0190976
678.895	0.0193657
678.973	0.0193662
679.051	0.0195753
679.129	0.0196709
679.207	0.0195022
679.285	0.0196822
679.363	0.0195561
679.442	0.0194707
679.520	0.0194109
679.598	0.0193134
679.676	0.0190663
679.754	0.0188760
679.832	0.0185638
679.910	0.0182903
679.988	0.0180630
680.067	0.0177507
680.145	0.0174422
680.223	0.0170646
680.301	0.0169660
680.379	0.0167740
680.457	0.0166634
680.535	0.0164962
680.613	0.0166006
680.692	0.0165258
680.770	0.0165416
680.848	0.0164999
680.926	0.0166268
681.004	0.0166701
681.082	0.0168446
681.160	0.0172387
681.238	0.0174045
681.317	0.0173205
681.395	0.0177286
681.473	0.0179713
681.551	0.0183461
681.629	0.0185674
681.707	0.0189624
681.785	0.0192560
681.863	0.0196307
681.942	0.0198391
682.020	0.0202493
682.098	0.0203078
682.176	0.0203310
682.254	0.0204398
682.332	0.0204766
682.410	0.0205247
682.488	0.0204050
682.567	0.0200249
682.645	0.0196941
682.723	0.0195148
682.801	0.0191988
682.879	0.0187305
682.957	0.0186084
683.035	0.0182344
683.113	0.0177774
683.192	0.0175214
683.270	0.0171855
683.348	0.0168347
683.426	0.0164804
683.504	0.0163200
683.582	0.0159966
683.660	0.0158101
683.738	0.0156879
683.817	0.0155978
683.895	0.0155446
683.973	0.0156185
684.051	0.0157166
684.129	0.0159559
684.207	0.0159383
684.285	0.0163703
684.363	0.0167153
684.442	0.0170107
684.520	0.0174368
684.598	0.0179790
684.676	0.0183498
684.754	0.0188937
684.832	0.0192605
684.910	0.0197117
684.988	0.0200685
685.067	0.0204411
685.145	0.0207962
685.223	0.0211283
685.301	0.0211026
685.379	0.0213379
685.457	0.0213107
685.535	0.0212481
685.613	0.0212080
685.692	0.0212801
685.770	0.0209064
685.848	0.0205092
685.926	0.0202573
686.004	0.0197661
686.082	0.0192429
686.160	0.0188924
686.238	0.0184030
686.317	0.0179712
686.395	0.0174771
686.473	0.0169274
686.551	0.0164895
686.629	0.0161324
686.707	0.0157307
686.785	0.0154595
686.863	0.0151572
686.942	0.0149484
687.020	0.0149886
687.098	0.0150023
687.176	0.0150110
687.254	0.0151060
687.332	0.0154635
687.410	0.0159090
687.488	0.0161837
687.567	0.0165611
687.645	0.0168506
687.723	0.0173423
687.801	0.0178281
687.879	0.0183042
687.957	0.0185508
688.035	0.0188644
688.113	0.0193195
688.192	0.0197478
688.270	0.0198608
688.348	0.0200369
688.426	0.0201976
688.504	0.0204798
688.582	0.0204639
688.660	0.0203792
688.738	0.0204683
688.817	0.0203978
688.895	0.0202944
688.973	0.0200252
689.051	0.0199044
689.129	0.0197264
689.207	0.0194271
689.285	0.0192370
689.363	0.0191196
689.442	0.0188995
689.520	0.0187239
689.598	0.0184137
689.676	0.0182880
689.754	0.0179922
689.832	0.0179569
689.910	0.0176586
689.988	0.0176778
690.067	0.0176671
690.145	0.0176573
690.223	0.0178278
690.301	0.0176669
690.379	0.0177862
690.457	0.0176302
690.535	0.0177869
690.613	0.0175581
690.692	0.0176256
690.770	0.0177317
690.848	0.0172707
690.926	0.0173328
691.004	0.0173090
691.082	0.0171985
691.160	0.0172112
691.238	0.0169538
691.317	0.0169582
691.395	0.0171442
691.473	0.0171732
691.551	0.0170834
691.629	0.0172723
691.707	0.0171593
691.785	0.0172066
691.863	0.0175037
691.942	0.0176403
692.020	0.0177104
692.098	0.0177073
692.176	0.0179102
692.254	0.0180337
692.332	0.0181204
692.410	0.0182990
692.488	0.0183776
692.567	0.0186877
692.645	0.0187897
692.723	0.0190154
692.801	0.0190861
692.879	0.0192604
692.957	0.0194707
693.035	0.0196727
693.113	0.0195708
693.192	0.0197261
693.270	0.0199556
693.348	0.0198830
693.426	0.0199305
693.504	0.0197266
693.582	0.0198854
693.660	0.0198978
693.738	0.0197262
693.817	0.0194958
693.895	0.0194533
693.973	0.0193147
694.051	0.0192614
694.129	0.0190367
694.207	0.0190204
694.285	0.0187060
694.363	0.0187241
694.442	0.0188176
694.520	0.0185314
694.598	0.0184986
694.676	0.0185329
694.754	0.0182962
694.832	0.0181149
694.910	0.0180331
694.988	0.0179597
695.067	0.0178121
695.145	0.0176801
695.223	0.0174304
695.301	0.0171841
695.379	0.0170840
695.457	0.0170036
695.535	0.0168555
695.613	0.0165878
695.692	0.0164989
695.770	0.0164118
695.848	0.0161799
695.926	0.0160706
696.004	0.0159775
696.082	0.0158457
696.160	0.0157842
696.238	0.0158145
696.317	0.0159822
696.395	0.0160781
696.473	0.0161588
696.551	0.0162051
696.629	0.0165469
696.707	0.0166976
696.785	0.0171017
696.863	0.0173489
696.942	0.0177396
697.020	0.0181609
697.098	0.0184977
697.176	0.0190852
697.254	0.0195497
697.332	0.0199017
697.410	0.0202802
697.488	0.0207127
697.567	0.0209218
697.645	0.0212942
697.723	0.0215779
697.801	0.0217437
697.879	0.0218782
697.957	0.0219127
698.035	0.0219115
698.113	0.0218789
698.192	0.0217439
698.270	0.0213292
698.348	0.0211823
698.426	0.0208143
698.504	0.0204534
698.582	0.0199302
698.660	0.0195771
698.738	0.0191505
698.817	0.0188312
698.895	0.0184909
698.973	0.0179266
699.051	0.0175886
699.129	0.0173427
699.207	0.0169908
699.285	0.0166447
699.363	0.0163414
699.442	0.0161105
699.520	0.0160251
699.598	0.0157539
699.676	0.0157662
699.754	0.0156010
699.832	0.0158395
699.910	0.0157639
699.988	0.0156655
700.067	0.0157270
700.145	0.0157575
700.223	0.0158434
700.301	0.0160369
700.379	0.0160867
700.457	0.0160843
700.535	0.0162946
700.613	0.0163709
700.692	0.0164651
700.770	0.0164760
700.848	0.0168208
700.926	0.0168468
701.004	0.0170827
701.082	0.0172099
701.160	0.0173247
701.238	0.0175863
701.317	0.0179266
701.395	0.0180463
701.473	0.0182838
701.551	0.0186755
701.629	0.0189000
701.707	0.0191844
701.785	0.0195609
701.863	0.0198109
701.942	0.0200987
702.020	0.0202464
702.098	0.0206089
702.176	0.0205737
702.254	0.0207212
702.332	0.0207137
702.410	0.0208204
702.488	0.0210000
702.567	0.0209028
702.645	0.0208935
702.723	0.0207779
702.801	0.0206686
702.879	0.0205267
702.957	0.0204197
703.035	0.0203043
703.113	0.0200890
703.192	0.0200917
703.270	0.0197675
703.348	0.0196117
703.426	0.0194535
703.504	0.0192637
703.582	0.0191485
703.660	0.0188123
703.738	0.0185368
703.817	0.0181644
703.895	0.0179373
703.973	0.0176682
704.051	0.0173660
704.129	0.0171181
704.207	0.0167241
704.285	0.0164790
704.363	0.0162671
704.442	0.0159973
704.520	0.0158331
704.598	0.0155066
704.676	0.0154248
704.754	0.0153772
704.832	0.0153120
704.910	0.0153490
704.988	0.0154327
705.067	0.0154601
705.145	0.0156193
705.223	0.0157618
705.301	0.0159633
705.379	0.0161876
705.457	0.0163302
705.535	0.0167561
705.613	0.0169086
705.692	0.0174091
705.770	0.0176093
705.848	0.0178157
705.926	0.0181477
706.004	0.0183870
706.082	0.0184609
706.160	0.0186300
706.238	0.0189536
706.317	0.0189891
706.395	0.0190521
706.473	0.0190316
706.551	0.0190020
706.629	0.0191164
706.707	0.0191210
706.785	0.0191759
706.863	0.0191209
706.942	0.0191216
707.020	0.0190910
707.098	0.0190841
707.176	0.0190570
707.254	0.0189382
707.332	0.0190364
707.410	0.0190601
707.488	0.0190125
707.567	0.0189941
707.645	0.0191866
707.723	0.0192342
707.801	0.0190708
707.879	0.0193599
707.957	0.0193470
708.035	0.0194011
708.113	0.0194090
708.192	0.0194839
708.270	0.0194019
708.348	0.0195930
708.426	0.0194767
708.504	0.0194260
708.582	0.0194573
708.660	0.0192319
708.738	0.0192139
708.817	0.0192506
708.895	0.0192593
708.973	0.0191718
709.051	0.0191022
709.129	0.0189743
709.207	0.0188640
709.285	0.0187782
709.363	0.0186514
709.442	0.0186497
709.520	0.0183491
709.598	0.0180521
709.676	0.0178333
709.754	0.0176605
709.832	0.0174525
709.910	0.0171643
709.988	0.0167151
710.067	0.0166290
710.145	0.0164742
710.223	0.0163426
710.301	0.0161677
710.379	0.0160503
710.457	0.0160094
710.535	0.0159165
710.613	0.0159868
710.692	0.0159843
710.770	0.0161518
710.848	0.0161637
710.926	0.0163718
711.004	0.0165058
711.082	0.0165327
711.160	0.0168938
711.238	0.0169091
711.317	0.0171940
711.395	0.0175706
711.473	0.0174875
711.551	0.0177243
711.629	0.0180418
711.707	0.0179276
711.785	0.0181763
711.863	0.0184097
711.942	0.0184766
712.020	0.0187152
712.098	0.0189204
712.176	0.0191479
712.254	0.0191237
712.332	0.0191270
712.410	0.0193598
712.488	0.0194441
712.567	0.0195393
712.645	0.0194776
712.723	0.0196039
712.801	0.0198113
712.879	0.0196306
712.957	0.0195940
713.035	0.0195650
713.113	0.0195451
713.192	0.0194260
713.270	0.0193449
713.348	0.0192953
713.426	0.0193700
713.504	0.0193425
713.582	0.0192467
713.660	0.0191631
713.738	0.0192300
713.817	0.0190920
713.895	0.0191204
713.973	0.0190710
714.051	0.0190460
714.129	0.0190186
714.207	0.0189243
714.285	0.0188861
714.363	0.0189037
714.442	0.0187466
714.520	0.0185591
714.598	0.0184806
714.676	0.0183110
714.754	0.0181793
714.832	0.0180026
714.910	0.0179234
714.988	0.0178063
715.067	0.0176096
715.145	0.0173917
715.223	0.0174249
715.301	0.0172337
715.379	0.0172464
715.457	0.0170342
715.535	0.0169942
715.613	0.0171013
715.692	0.0170446
715.770	0.0169461
715.848	0.0169373
715.926	0.0169612
716.004	0.0170267
716.082	0.0170367
716.160	0.0170347
716.238	0.0170309
716.317	0.0170570
716.395	0.0168922
716.473	0.0172116
716.551	0.0173754
716.629	0.0174906
716.707	0.0175829
716.785	0.0177748
716.863	0.0182389
716.942	0.0184126
717.020	0.0184925
717.098	0.0187444
717.176	0.0189980
717.254	0.0192345
717.332	0.0192217
717.410	0.0193172
717.488	0.0193485
717.567	0.0194353
717.645	0.0193945
717.723	0.0193510
717.801	0.0191648
717.879	0.0191266
717.957	0.0190726
718.035	0.0189327
718.113	0.0190095
718.192	0.0189508
718.270	0.0187968
718.348	0.0187169
718.426	0.0184988
718.504	0.0185091
718.582	0.0184046
718.660	0.0182276
718.738	0.0181136
718.817	0.0179794
718.895	0.0179206
718.973	0.0177969
719.051	0.0177602
719.129	0.0175838
719.207	0.0176725
719.285	0.0176524
719.363	0.0176647
719.442	0.0176325
719.520	0.0177852
719.598	0.0179142
719.676	0.0181252
719.754	0.0181693
719.832	0.0183337
719.910	0.0185276
719.988	0.0185904
720.067	0.0187666
720.145	0.0187947
720.223	0.0188229
720.301	0.0187283
720.379	0.0188275
720.457	0.0187203
720.535	0.0185404
720.613	0.0183386
720.692	0.0183393
720.770	0.0180844
720.848	0.0179413
720.926	0.0176495
721.004	0.0176072
721.082	0.0176352
721.160	0.0177082
721.238	0.0176191
721.317	0.0176765
721.395	0.0175867
721.473	0.0178120
721.551	0.0177953
721.629	0.0178609
721.707	0.0179283
721.785	0.0180598
721.863	0.0181171
721.942	0.0181478
722.020	0.0180666
722.098	0.0181670
722.176	0.0183285
722.254	0.0183768
722.332	0.0182944
722.410	0.0184672
722.488	0.0184056
722.567	0.0185608
722.645	0.0184656
722.723	0.0185932
722.801	0.0185316
722.879	0.0184634
722.957	0.0185847
723.035	0.0182797
723.113	0.0184292
723.192	0.0185267
723.270	0.0186858
723.348	0.0186541
723.426	0.0185691
723.504	0.0187801
723.582	0.0189201
723.660	0.0188678
723.738	0.0188403
723.817	0.0189091
723.895	0.0188527
723.973	0.0187666
724.051	0.0186594
724.129	0.0186813
724.207	0.0185791
724.285	0.0184205
724.363	0.0183498
724.442	0.0184052
724.520	0.0181171
724.598	0.0181226
724.676	0.0179815
724.754	0.0177411
724.832	0.0176577
724.910	0.0176855
724.988	0.0174502
725.067	0.0174303
725.145	0.0174131
725.223	0.0173567
725.301	0.0173265
725.379	0.0173907
725.457	0.0175903
725.535	0.0175804
725.613	0.0176115
725.692	0.0176410
725.770	0.0178245
725.848	0.0180396
725.926	0.0182023
726.004	0.0182574
726.082	0.0183336
726.160	0.0183392
726.238	0.0184452
726.317	0.0184763
726.395	0.0184462
726.473	0.0183179
726.551	0.0183212
726.629	0.0182222
726.707	0.0181548
726.785	0.0181177
726.863	0.0179788
726.942	0.0178305
727.020	0.0179359
727.098	0.0179430
727.176	0.0179265
727.254	0.0179065
727.332	0.0178855
727.410	0.0180945
727.488	0.0181580
727.567	0.0180852
727.645	0.0181728
727.723	0.0182787
727.801	0.0181788
727.879	0.0184455
727.957	0.0184344
728.035	0.0183396
728.113	0.0184518
728.192	0.0184889
728.270	0.0183804
728.348	0.0183707
728.426	0.0181477
728.504	0.0184158
728.582	0.0184510
728.660	0.0182701
728.738	0.0183751
728.817	0.0184868
728.895	0.0185773
728.973	0.0186834
729.051	0.0187211
729.129	0.0188303
729.207	0.0189037
729.285	0.0188815
729.363	0.0188781
729.442	0.0189649
729.520	0.0190285
729.598	0.0189252
729.676	0.0189966
729.754	0.0188209
729.832	0.0186950
729.910	0.0186103
729.988	0.0186050
730.067	0.0185457
730.145	0.0184911
730.223	0.0184332
730.301	0.0183569
730.379	0.0183256
730.457	0.0182980
730.535	0.0182466
730.613	0.0182024
730.692	0.0181693
730.770	0.0182459
730.848	0.0182147
730.926	0.0182525
731.004	0.0181023
731.082	0.0182320
731.160	0.0182559
731.238	0.0180624
731.317	0.0180354
731.395	0.0179222
731.473	0.0178434
731.551	0.0179230
731.629	0.0176984
731.707	0.0177055
731.785	0.0177927
731.863	0.0176943
731.942	0.0175140
732.020	0.0175664
732.098	0.0173593
732.176	0.0175143
732.254	0.0175368
732.332	0.0173837
732.410	0.0174782
732.488	0.0174664
732.567	0.0174435
732.645	0.0173883
732.723	0.0173883
732.801	0.0173637
732.879	0.0174852
732.957	0.0175921
733.035	0.0176012
733.113	0.0176141
733.192	0.0177389
733.270	0.0179115
733.348	0.0179137
733.426	0.0180103
733.504	0.0181433
733.582	0.0181204
733.660	0.0181359
733.738	0.0183666
733.817	0.0183316
733.895	0.0183954
733.973	0.0184428
734.051	0.0184239
734.129	0.0185885
734.207	0.0186985
734.285	0.0186862
734.363	0.0186253
734.442	0.0185902
734.520	0.0186626
734.598	0.0187923
734.676	0.0188430
734.754	0.0188683
734.832	0.0188626
734.910	0.0189469
734.988	0.0189721
735.067	0.0190804
735.145	0.0190434
735.223	0.0191121
735.301	0.0191318
735.379	0.0190611
735.457	0.0191442
735.535	0.0191625
735.613	0.0190462
735.692	0.0189402
735.770	0.0191235
735.848	0.0190250
735.926	0.0187901
736.004	0.0187609
736.082	0.0188557
736.160	0.0187038
736.238	0.0185657
736.317	0.0186746
736.395	0.0185890
736.473	0.0185678
736.551	0.0185291
736.629	0.0186575
736.707	0.0185285
736.785	0.0185323
736.863	0.0186031
736.942	0.0186225
737.020	0.0186240
737.098	0.0183646
737.176	0.0185259
737.254	0.0183813
737.332	0.0180253
737.410	0.0179927
737.488	0.0180418
737.567	0.0178350
737.645	0.0175185
737.723	0.0174187
737.801	0.0173734
737.879	0.0173213
737.957	0.0172142
738.035	0.0171603
738.113	0.0171684
738.192	0.0171436
738.270	0.0171241
738.348	0.0171754
738.426	0.0172219
738.504	0.0171688
738.582	0.0171037
738.660	0.0171553
738.738	0.0171938
738.817	0.0171191
738.895	0.0170855
738.973	0.0171850
739.051	0.0172808
739.129	0.0171017
739.207	0.0171085
739.285	0.0171900
739.363	0.0173620
739.442	0.0172081
739.520	0.0172803
739.598	0.0176166
739.676	0.0176356
739.754	0.0175922
739.832	0.0177505
739.910	0.0179419
739.988	0.0180434
740.067	0.0181719
740.145	0.0182468
740.223	0.0184175
740.301	0.0185271
740.379	0.0185272
740.457	0.0185767
740.535	0.0185584
740.613	0.0185718
740.692	0.0187173
740.770	0.0187994
740.848	0.0188761
740.926	0.0189362
741.004	0.0189179
741.082	0.0192767
741.160	0.0191677
741.238	0.0190550
741.317	0.0192206
741.395	0.0192866
741.473	0.0193559
741.551	0.0194376
741.629	0.0193023
741.707	0.0192490
741.785	0.0193369
741.863	0.0191530
741.942	0.0193415
742.020	0.0192535
742.098	0.0192554
742.176	0.0191623
742.254	0.0192134
742.332	0.0191405
742.410	0.0190456
742.488	0.0188281
742.567	0.0189150
742.645	0.0188311
742.723	0.0188473
742.801	0.0186764
742.879	0.0184850
742.957	0.0185310
743.035	0.0184148
743.113	0.0182214
743.192	0.0181342
743.270	0.0179608
743.348	0.0179104
743.426	0.0177685
743.504	0.0176318
743.582	0.0175270
743.660	0.0177131
743.738	0.0175943
743.817	0.0174428
743.895	0.0176141
743.973	0.0177670
744.051	0.0178297
744.129	0.0177862
744.207	0.0178067
744.285	0.0179972
744.363	0.0180989
744.442	0.0181371
744.520	0.0180738
744.598	0.0180963
744.676	0.0182723
744.754	0.0183126
744.832	0.0179713
744.910	0.0179369
744.988	0.0177294
745.067	0.0177444
745.145	0.0176363
745.223	0.0175949
745.301	0.0173187
745.379	0.0170670
745.457	0.0169248
745.535	0.0168696
745.613	0.0168439
745.692	0.0167738
745.770	0.0167889
745.848	0.0168642
745.926	0.0167356
746.004	0.0170401
746.082	0.0169250
746.160	0.0172595
746.238	0.0174545
746.317	0.0176949
746.395	0.0177836
746.473	0.0178597
746.551	0.0179888
746.629	0.0180728
746.707	0.0181359
746.785	0.0182457
746.863	0.0184738
746.942	0.0185049
747.020	0.0183743
747.098	0.0185584
747.176	0.0186623
747.254	0.0186351
747.332	0.0186311
747.410	0.0186258
747.488	0.0186132
747.567	0.0186004
747.645	0.0188231
747.723	0.0187818
747.801	0.0187244
747.879	0.0186952
747.957	0.0187964
748.035	0.0187312
748.113	0.0187766
748.192	0.0188550
748.270	0.0188902
748.348	0.0187812
748.426	0.0187362
748.504	0.0187917
748.582	0.0187028
748.660	0.0187395
748.738	0.0187591
748.817	0.0187322
748.895	0.0187504
748.973	0.0187215
749.051	0.0187402
749.129	0.0187792
749.207	0.0189886
749.285	0.0189323
749.363	0.0189269
749.442	0.0191670
749.520	0.0192544
749.598	0.0193831
749.676	0.0193642
749.754	0.0193870
749.832	0.0193535
749.910	0.0194145
749.988	0.0193304
750.067	0.0192084
750.145	0.0192196
750.223	0.0191658
750.301	0.0189661
750.379	0.0187500
750.457	0.0187188
750.535	0.0184828
750.613	0.0182532
750.692	0.0179613
750.770	0.0178082
750.848	0.0176582
750.926	0.0175048
751.004	0.0175458
751.082	0.0172388
751.160	0.0171539
751.238	0.0171635
751.317	0.0171388
751.395	0.0171757
751.473	0.0172751
751.551	0.0173255
751.629	0.0174268
751.707	0.0176376
751.785	0.0177005
751.863	0.0178738
751.942	0.0179904
752.020	0.0180737
752.098	0.0181813
752.176	0.0181588
752.254	0.0182510
752.332	0.0182044
752.410	0.0179811
752.488	0.0178962
752.567	0.0179572
752.645	0.0177416
752.723	0.0175681
752.801	0.0174677
752.879	0.0172910
752.957	0.0171227
753.035	0.0168936
753.113	0.0167445
753.192	0.0166347
753.270	0.0166328
753.348	0.0166463
753.426	0.0165679
753.504	0.0165486
753.582	0.0167476
753.660	0.0168907
753.738	0.0171283
753.817	0.0175875
753.895	0.0175417
753.973	0.0178282
754.051	0.0181145
754.129	0.0184472
754.207	0.0187041
754.285	0.0189970
754.363	0.0192632
754.442	0.0194145
754.520	0.0195929
754.598	0.0195717
754.676	0.0195996
754.754	0.0197783
754.832	0.0198106
754.910	0.0196176
754.988	0.0196294
755.067	0.0195135
755.145	0.0192490
755.223	0.0193051
755.301	0.0190247
755.379	0.0187386
755.457	0.0187682
755.535	0.0183739
755.613	0.0183221
755.692	0.0181499
755.770	0.0181031
755.848	0.0181159
755.926	0.0180516
756.004	0.0181129
756.082	0.0181242
756.160	0.0181420
756.238	0.0183105
756.317	0.0183260
756.395	0.0184544
756.473	0.0183950
756.551	0.0185928
756.629	0.0185494
756.707	0.0186437
756.785	0.0187415
756.863	0.0187482
756.942	0.0191316
757.020	0.0189651
757.098	0.0191779
757.176	0.0192905
757.254	0.0194704
757.332	0.0192715
757.410	0.0193504
757.488	0.0195258
757.567	0.0194563
757.645	0.0194283
757.723	0.0193787
757.801	0.0193315
757.879	0.0194167
757.957	0.0193093
758.035	0.0191526
758.113	0.0191935
758.192	0.0190919
758.270	0.0189115
758.348	0.0186437
758.426	0.0185137
758.504	0.0183334
758.582	0.0181733
758.660	0.0178546
758.738	0.0177201
758.817	0.0175476
758.895	0.0172525
758.973	0.0171834
759.051	0.0170709
759.129	0.0168946
759.207	0.0169682
759.285	0.0168297
759.363	0.0168034
759.442	0.0169346
759.520	0.0169447
759.598	0.0168887
759.676	0.0169292
759.754	0.0169804
759.832	0.0170268
759.910	0.0169923
759.988	0.0169664
760.067	0.0168976
760.145	0.0169533
760.223	0.0169144
760.301	0.0169201
760.379	0.0167708
760.457	0.0169553
760.535	0.0170240
760.613	0.0168682
760.692	0.0166743
760.770	0.0166776
760.848	0.0168133
760.926	0.0167502
761.004	0.0167582
761.082	0.0167575
761.160	0.0168341
761.238	0.0170631
761.317	0.0172986
761.395	0.0176253
761.473	0.0176910
761.551	0.0180938
761.629	0.0184814
761.707	0.0187519
761.785	0.0190457
761.863	0.0193850
761.942	0.0195610
762.020	0.0196814
762.098	0.0199073
762.176	0.0199519
762.254	0.0201266
762.332	0.0199438
762.410	0.0199598
762.488	0.0198551
762.567	0.0196098
762.645	0.0195395
762.723	0.0192428
762.801	0.0190205
762.879	0.0186755
762.957	0.0187008
763.035	0.0185328
763.113	0.0182255
763.192	0.0182154
763.270	0.0180575
763.348	0.0180499
763.426	0.0179428
763.504	0.0178765
763.582	0.0179012
763.660	0.0178160
763.738	0.0180241
763.817	0.0180857
763.895	0.0182182
763.973	0.0182085
764.051	0.0185931
764.129	0.0185666
764.207	0.0188769
764.285	0.0190560
764.363	0.0192819
764.442	0.0195611
764.520	0.0197173
764.598	0.0196188
764.676	0.0197174
764.754	0.0199456
764.832	0.0197886
764.910	0.0197899
764.988	0.0196395
765.067	0.0195158
765.145	0.0196043
765.223	0.0191853
765.301	0.0190762
765.379	0.0189955
765.457	0.0187959
765.535	0.0186279
765.613	0.0184949
765.692	0.0181895
765.770	0.0180116
765.848	0.0180018
765.926	0.0179372
766.004	0.0178689
766.082	0.0177550
766.160	0.0175706
766.238	0.0174712
766.317	0.0174374
766.395	0.0175176
766.473	0.0175031
766.551	0.0175233
766.629	0.0173784
766.707	0.0172395
766.785	0.0172412
766.863	0.0171783
766.942	0.0169609
767.020	0.0168575
767.098	0.0167885
767.176	0.0166224
767.254	0.0165162
767.332	0.0165472
767.410	0.0164502
767.488	0.0162358
767.567	0.0161958
767.645	0.0163873
767.723	0.0161739
767.801	0.0163728
767.879	0.0164318
767.957	0.0165452
768.035	0.0166501
768.113	0.0166362
768.192	0.0168981
768.270	0.0169796
768.348	0.0171567
768.426	0.0172817
768.504	0.0174489
768.582	0.0175133
768.660	0.0177267
768.738	0.0180231
768.817	0.0181911
768.895	0.0184058
768.973	0.0187276
769.051	0.0188589
769.129	0.0192129
769.207	0.0195182
769.285	0.0195380
769.363	0.0197456
769.442	0.0197976
769.520	0.0198974
769.598	0.0200082
769.676	0.0199756
769.754	0.0200092
769.832	0.0198563
769.910	0.0196577
769.988	0.0194046
770.067	0.0191472
770.145	0.0189891
770.223	0.0186958
770.301	0.0184003
770.379	0.0183322
770.457	0.0181754
770.535	0.0179835
770.613	0.0178863
770.692	0.0178945
770.770	0.0178637
770.848	0.0179202
770.926	0.0179850
771.004	0.0181096
771.082	0.0181964
771.160	0.0183864
771.238	0.0185950
771.317	0.0187664
771.395	0.0188719
771.473	0.0189113
771.551	0.0192427
771.629	0.0193200
771.707	0.0194307
771.785	0.0196602
771.863	0.0195648
771.942	0.0196682
772.020	0.0197205
772.098	0.0197031
772.176	0.0196875
772.254	0.0196828
772.332	0.0195574
772.410	0.0194279
772.488	0.0194571
772.567	0.0192658
772.645	0.0190216
772.723	0.0189636
772.801	0.0188625
772.879	0.0187498
772.957	0.0187868
773.035	0.0185956
773.113	0.0186400
773.192	0.0185676
773.270	0.0184910
773.348	0.0185368
773.426	0.0185038
773.504	0.0185197
773.582	0.0184206
773.660	0.0182047
773.738	0.0181876
773.817	0.0180427
773.895	0.0178394
773.973	0.0176749
774.051	0.0175262
774.129	0.0172208
774.207	0.0170929
774.285	0.0168810
774.363	0.0167804
774.442	0.0167035
774.520	0.0164318
774.598	0.0163103
774.676	0.0162169
774.754	0.0161667
774.832	0.0161208
774.910	0.0162737
774.988	0.0161452
775.067	0.0160689
775.145	0.0161781
775.223	0.0161749
775.301	0.0162013
775.379	0.0163795
775.457	0.0165036
775.535	0.0166240
775.613	0.0168807
775.692	0.0170113
775.770	0.0172517
775.848	0.0172443
775.926	0.0174640
776.004	0.0176971
776.082	0.0177885
776.160	0.0179319
776.238	0.0181720
776.317	0.0184664
776.395	0.0186327
776.473	0.0189226
776.551	0.0190778
776.629	0.0193049
776.707	0.0196191
776.785	0.0195275
776.863	0.0196912
776.942	0.0197081
777.020	0.0196999
777.098	0.0198578
777.176	0.0196920
777.254	0.0195848
777.332	0.0194298
777.410	0.0192319
777.488	0.0191138
777.567	0.0190458
777.645	0.0189133
777.723	0.0185764
777.801	0.0185464
777.879	0.0185631
777.957	0.0183066
778.035	0.0182385
778.113	0.0182127
778.192	0.0181618
778.270	0.0182962
778.348	0.0184108
778.426	0.0183984
778.504	0.0185507
778.582	0.0186186
778.660	0.0187749
778.738	0.0188150
778.817	0.0190582
778.895	0.0191953
778.973	0.0193570
779.051	0.0193952
779.129	0.0196430
779.207	0.0196166
779.285	0.0196363
779.363	0.0197620
779.442	0.0196806
779.520	0.0197161
779.598	0.0196803
779.676	0.0196212
779.754	0.0195227
779.832	0.0193941
779.910	0.0193314
779.988	0.0191791
780.067	0.0190294
780.145	0.0190009
780.223	0.0188978
780.301	0.0185341
780.379	0.0185215
780.457	0.0185014
780.535	0.0183247
780.613	0.0182426
780.692	0.0183168
780.770	0.0182863
780.848	0.0179949
780.926	0.0181927
781.004	0.0180135
781.082	0.0179554
781.160	0.0180412
781.238	0.0178519
781.317	0.0178344
781.395	0.0177078
781.473	0.0175365
781.551	0.0174434
781.629	0.0174487
781.707	0.0173253
781.785	0.0171502
781.863	0.0170311
781.942	0.0170393
782.020	0.0168971
782.098	0.0164941
782.176	0.0166360
782.254	0.0164742
782.332	0.0162670
782.410	0.0162378
782.488	0.0161833
782.567	0.0161882
782.645	0.0162009
782.723	0.0160718
782.801	0.0161775
782.879	0.0163012
782.957	0.0164469
783.035	0.0164336
783.113	0.0166383
783.192	0.0167818
783.270	0.0170125
783.348	0.0170715
783.426	0.0171539
783.504	0.0174051
783.582	0.0176191
783.660	0.0177412
783.738	0.0180830
783.817	0.0182359
783.895	0.0183929
783.973	0.0184564
784.051	0.0188640
784.129	0.0189368
784.207	0.0188416
784.285	0.0191430
784.363	0.0193198
784.442	0.0191778
784.520	0.0193255
784.598	0.0194112
784.676	0.0193511
784.754	0.0193069
784.832	0.0192393
784.910	0.0192592
784.988	0.0192606
785.067	0.0193233
785.145	0.0192113
785.223	0.0191635
785.301	0.0191393
785.379	0.0191273
785.457	0.0190031
785.535	0.0190528
785.613	0.0189451
785.692	0.0189904
785.770	0.0189526
785.848	0.0188275
785.926	0.0188872
786.004	0.0190113
786.082	0.0189423
786.160	0.0189123
786.238	0.0191118
786.317	0.0190440
786.395	0.0190967
786.473	0.0192788
786.551	0.0192442
786.629	0.0191797
786.707	0.0192049
786.785	0.0192641
786.863	0.0192246
786.942	0.0191675
787.020	0.0190800
787.098	0.0190582
787.176	0.0190955
787.254	0.0188386
787.332	0.0186515
787.410	0.0186130
787.488	0.0187948
787.567	0.0185961
787.645	0.0184431
787.723	0.0184187
787.801	0.0184267
787.879	0.0183315
787.957	0.0183297
788.035	0.0183995
788.113	0.0182826
788.192	0.0183158
788.270	0.0183348
788.348	0.0182475
788.426	0.0181320
788.504	0.0180431
788.582	0.0181194
788.660	0.0180236
788.738	0.0179668
788.817	0.0177622
788.895	0.0176261
788.973	0.0175951
789.051	0.0175281
789.129	0.0172865
789.207	0.0173399
789.285	0.0172548
789.363	0.0169595
789.442	0.0169833
789.520	0.0166556
789.598	0.0166839
789.676	0.0165862
789.754	0.0166028
789.832	0.0164243
789.910	0.0165150
789.988	0.0164359
790.067	0.0164877
790.145	0.0166083
790.223	0.0167658
790.301	0.0167723
790.379	0.0168317
790.457	0.0168932
790.535	0.0171030
790.613	0.0172246
790.692	0.0173412
790.770	0.0174641
790.848	0.0174961
790.926	0.0175648
791.004	0.0176559
791.082	0.0178159
791.160	0.0178871
791.238	0.0181757
791.317	0.0181522
791.395	0.0182051
791.473	0.0184158
791.551	0.0183808
791.629	0.0183777
791.707	0.0184756
791.785	0.0185707
791.863	0.0186328
791.942	0.0186040
792.020	0.0188013
792.098	0.0187663
792.176	0.0188018
792.254	0.0187205
792.332	0.0187438
792.410	0.0188131
792.488	0.0189431
792.567	0.0188365
792.645	0.0188356
792.723	0.0188993
792.801	0.0189034
792.879	0.0187294
792.957	0.0188792
793.035	0.0189477
793.113	0.0189424
793.192	0.0188183
793.270	0.0189822
793.348	0.0188875
793.426	0.0189893
793.504	0.0191515
793.582	0.0190748
793.660	0.0190662
793.738	0.0192744
793.817	0.0193033
793.895	0.0191084
793.973	0.0192694
794.051	0.0194755
794.129	0.0192859
794.207	0.0193845
794.285	0.0193487
794.363	0.0194732
794.442	0.0195472
794.520	0.0195184
794.598	0.0195289
794.676	0.0194483
794.754	0.0192612
794.832	0.0192944
794.910	0.0193510
794.988	0.0192467
795.067	0.0191038
795.145	0.0189741
795.223	0.0188499
795.301	0.0188586
795.379	0.0187708
795.457	0.0185114
795.535	0.0183932
795.613	0.0183304
795.692	0.0182600
795.770	0.0181080
795.848	0.0179397
795.926	0.0179008
796.004	0.0177618
796.082	0.0176414
796.160	0.0175723
796.238	0.0174196
796.317	0.0173206
796.395	0.0170712
796.473	0.0169242
796.551	0.0168983
796.629	0.0167028
796.707	0.0166733
796.785	0.0166177
796.863	0.0167206
796.942	0.0164890
797.020	0.0164592
797.098	0.0166003
797.176	0.0164489
797.254	0.0164455
797.332	0.0165815
797.410	0.0166281
797.488	0.0165549
797.567	0.0167315
797.645	0.0167760
797.723	0.0168597
797.801	0.0169324
797.879	0.0170468
797.957	0.0170872
798.035	0.0173259
798.113	0.0173603
798.192	0.0173904
798.270	0.0175827
798.348	0.0176080
798.426	0.0176595
798.504	0.0179156
798.582	0.0179622
798.660	0.0181637
798.738	0.0182264
798.817	0.0183701
798.895	0.0185254
798.973	0.0187572
799.051	0.0187914
799.129	0.0188039
799.207	0.0189967
799.285	0.0190599
799.363	0.0190939
799.442	0.0191529
799.520	0.0193060
799.598	0.0192984
799.676	0.0190572
799.754	0.0191856
799.832	0.0191024
799.910	0.0192450
799.988	0.0192472
800.067	0.0191781
800.145	0.0192018
800.223	0.0191094
800.301	0.0191445
800.379	0.0189953
800.457	0.0189842
800.535	0.0188757
800.613	0.0188120
800.692	0.0187743
800.770	0.0187039
800.848	0.0187328
800.926	0.0187982
801.004	0.0185999
801.082	0.0185738
801.160	0.0186462
801.238	0.0187946
801.317	0.0186022
801.395	0.0186329
801.473	0.0186572
801.551	0.0186864
801.629	0.0187926
801.707	0.0187924
801.785	0.0186356
801.863	0.0187859
801.942	0.0186170
802.020	0.0187337
802.098	0.0186553
802.176	0.0186968
802.254	0.0186390
802.332	0.0186572
802.410	0.0185420
802.488	0.0185964
802.567	0.0186477
802.645	0.0186108
802.723	0.0186440
802.801	0.0186129
802.879	0.0185709
802.957	0.0185970
803.035	0.0186117
803.113	0.0185580
803.192	0.0184538
803.270	0.0186779
803.348	0.0183436
803.426	0.0182832
803.504	0.0183311
803.582	0.0181928
803.660	0.0180719
803.738	0.0180538
803.817	0.0179206
803.895	0.0178883
803.973	0.0179680
804.051	0.0177789
804.129	0.0175727
804.207	0.0175099
804.285	0.0175513
804.363	0.0173713
804.442	0.0173030
804.520	0.0171801
804.598	0.0171933
804.676	0.0172528
804.754	0.0171140
804.832	0.0169496
804.910	0.0170824
804.988	0.0170420
805.067	0.0169298
805.145	0.0170535
805.223	0.0171587
805.301	0.0170631
805.379	0.0171307
805.457	0.0171077
805.535	0.0171305
805.613	0.0173043
805.692	0.0173650
805.770	0.0173605
805.848	0.0173779
805.926	0.0174120
806.004	0.0175579
806.082	0.0177533
806.160	0.0178311
806.238	0.0178767
806.317	0.0179918
806.395	0.0180486
806.473	0.0180085
806.551	0.0182249
806.629	0.0180885
806.707	0.0183400
806.785	0.0185236
806.863	0.0183137
806.942	0.0183509
807.020	0.0183180
807.098	0.0183531
807.176	0.0183108
807.254	0.0182933
807.332	0.0183857
807.410	0.0184460
807.488	0.0183005
807.567	0.0183588
807.645	0.0183721
807.723	0.0184081
807.801	0.0183743
807.879	0.0183691
807.957	0.0185448
808.035	0.0186115
808.113	0.0187071
808.192	0.0187963
808.270	0.0188576
808.348	0.0189657
808.426	0.0191405
808.504	0.0190716
808.582	0.0193310
808.660	0.0193253
808.738	0.0192525
808.817	0.0194415
808.895	0.0195293
808.973	0.0194000
809.051	0.0194138
809.129	0.0193953
809.207	0.0192989
809.285	0.0191974
809.363	0.0191268
809.442	0.0190294
809.520	0.0190578
809.598	0.0188512
809.676	0.0187831
809.754	0.0187852
809.832	0.0186580
809.910	0.0186569
809.988	0.0185981
810.067	0.0186115
810.145	0.0185601
810.223	0.0186052
810.301	0.0186396
810.379	0.0184826
810.457	0.0184689
810.535	0.0183636
810.613	0.0184115
810.692	0.0184953
810.770	0.0183433
810.848	0.0181512
810.926	0.0181812
811.004	0.0181873
811.082	0.0181216
811.160	0.0179824
811.238	0.0178538
811.317	0.0176745
811.395	0.0175925
811.473	0.0174931
811.551	0.0174808
811.629	0.0174462
811.707	0.0172948
811.785	0.0172035
811.863	0.0172941
811.942	0.0171762
812.020	0.0171367
812.098	0.0171599
812.176	0.0169363
812.254	0.0170248
812.332	0.0170889
812.410	0.0169955
812.488	0.0169476
812.567	0.0169187
812.645	0.0169534
812.723	0.0169803
812.801	0.0170331
812.879	0.0171102
812.957	0.0171257
813.035	0.0171799
813.113	0.0172749
813.192	0.0171445
813.270	0.0174180
813.348	0.0175131
813.426	0.0174386
813.504	0.0175208
813.582	0.0177107
813.660	0.0177929
813.738	0.0179627
813.817	0.0180217
813.895	0.0180560
813.973	0.0182959
814.051	0.0183655
814.129	0.0184338
814.207	0.0184655
814.285	0.0186198
814.363	0.0187395
814.442	0.0189484
814.520	0.0188029
814.598	0.0188078
814.676	0.0188818
814.754	0.0189290
814.832	0.0188818
814.910	0.0189431
814.988	0.0189566
815.067	0.0188507
815.145	0.0187897
815.223	0.0188228
815.301	0.0186552
815.379	0.0186762
815.457	0.0186117
815.535	0.0185986
815.613	0.0186491
815.692	0.0185724
815.770	0.0184999
815.848	0.0185725
815.926	0.0186137
816.004	0.0186789
816.082	0.0186144
816.160	0.0186597
816.238	0.0188401
816.317	0.0187999
816.395	0.0189887
816.473	0.0189778
816.551	0.0190986
816.629	0.0191492
816.707	0.0188575
816.785	0.0188223
816.863	0.0189043
816.942	0.0189753
817.020	0.0185039
817.098	0.0186404
817.176	0.0187691
817.254	0.0185138
817.332	0.0186047
817.410	0.0184744
817.488	0.0184450
817.567	0.0184213
817.645	0.0184045
817.723	0.0182777
817.801	0.0184731
817.879	0.0183437
817.957	0.0183579
818.035	0.0182721
818.113	0.0184012
818.192	0.0181966
818.270	0.0182009
818.348	0.0182542
818.426	0.0181859
818.504	0.0182043
818.582	0.0181554
818.660	0.0181104
818.738	0.0180117
818.817	0.0181120
818.895	0.0180589
818.973	0.0180296
819.051	0.0178844
819.129	0.0180673
819.207	0.0178731
819.285	0.0177848
819.363	0.0178591
819.442	0.0177204
819.520	0.0176344
819.598	0.0177203
819.676	0.0175330
819.754	0.0174557
819.832	0.0176146
819.910	0.0174466
819.988	0.0172988
820.067	0.0174590
820.145	0.0173628
820.223	0.0173055
820.301	0.0174626
820.379	0.0174326
820.457	0.0174190
820.535	0.0173919
820.613	0.0173966
820.692	0.0174142
820.770	0.0174533
820.848	0.0175372
820.926	0.0175296
821.004	0.0176868
821.082	0.0176450
821.160	0.0177399
821.238	0.0177612
821.317	0.0179129
821.395	0.0180184
821.473	0.0180453
821.551	0.0180424
821.629	0.0182388
821.707	0.0183513
821.785	0.0183479
821.863	0.0184639
821.942	0.0183717
822.020	0.0184831
822.098	0.0186370
822.176	0.0186401
822.254	0.0185476
822.332	0.0185381
822.410	0.0185499
822.488	0.0184726
822.567	0.0184776
822.645	0.0185408
822.723	0.0186027
822.801	0.0185781
822.879	0.0186609
822.957	0.0182648
823.035	0.0184014
823.113	0.0183215
823.192	0.0183331
823.270	0.0182579
823.348	0.0183345
823.426	0.0183746
823.504	0.0182943
823.582	0.0184438
823.660	0.0184232
823.738	0.0185230
823.817	0.0185908
823.895	0.0186609
823.973	0.0187469
824.051	0.0188216
824.129	0.0187624
824.207	0.0187827
824.285	0.0187193
824.363	0.0188409
824.442	0.0188312
824.520	0.0188599
824.598	0.0189625
824.676	0.0187464
824.754	0.0187468
824.832	0.0188091
824.910	0.0189336
824.988	0.0188438
825.067	0.0187497
825.145	0.0187902
825.223	0.0187282
825.301	0.0188130
825.379	0.0185069
825.457	0.0184840
825.535	0.0184280
825.613	0.0183188
825.692	0.0183340
825.770	0.0183778
825.848	0.0182516
825.926	0.0181919
826.004	0.0179945
826.082	0.0179268
826.160	0.0179658
826.238	0.0179360
826.317	0.0180190
826.395	0.0180508
826.473	0.0179239
826.551	0.0177254
826.629	0.0179127
826.707	0.0177987
826.785	0.0177477
826.863	0.0177545
826.942	0.0178882
827.020	0.0176425
827.098	0.0176723
827.176	0.0176053
827.254	0.0175360
827.332	0.0175021
827.410	0.0174605
827.488	0.0175208
827.567	0.0176047
827.645	0.0174036
827.723	0.0175360
827.801	0.0175349
827.879	0.0175134
827.957	0.0175024
828.035	0.0176044
828.113	0.0175182
828.192	0.0176322
828.270	0.0175589
828.348	0.0174991
828.426	0.0174757
828.504	0.0175394
828.582	0.0175287
828.660	0.0174844
828.738	0.0175822
828.817	0.0176200
828.895	0.0176535
828.973	0.0177377
829.051	0.0178516
829.129	0.0178027
829.207	0.0179333
829.285	0.0180771
829.363	0.0183485
829.442	0.0181085
829.520	0.0182578
829.598	0.0184702
829.676	0.0184041
829.754	0.0184673
829.832	0.0185778
829.910	0.0185105
829.988	0.0187542
830.067	0.0187080
830.145	0.0187412
830.223	0.0185784
830.301	0.0186127
830.379	0.0187009
830.457	0.0187434
830.535	0.0187113
830.613	0.0187550
830.692	0.0185795
830.770	0.0184977
830.848	0.0185532
830.926	0.0185809
831.004	0.0186074
831.082	0.0184789
831.160	0.0184989
831.238	0.0183772
831.317	0.0183256
831.395	0.0183750
831.473	0.0182468
831.551	0.0182677
831.629	0.0183552
831.707	0.0184535
831.785	0.0184928
831.863	0.0184130
831.942	0.0184158
832.020	0.0185397
832.098	0.0187518
832.176	0.0187017
832.254	0.0186622
832.332	0.0187200
832.410	0.0187119
832.488	0.0186880
832.567	0.0188515
832.645	0.0188383
832.723	0.0186610
832.801	0.0186572
832.879	0.0185186
832.957	0.0185137
833.035	0.0185573
833.113	0.0183612
833.192	0.0183132
833.270	0.0181785
833.348	0.0181091
833.426	0.0179838
833.504	0.0179760
833.582	0.0178777
833.660	0.0177687
833.738	0.0179023
833.817	0.0177878
833.895	0.0177396
833.973	0.0177467
834.051	0.0176488
834.129	0.0177618
834.207	0.0177430
834.285	0.0177256
834.363	0.0177546
834.442	0.0178428
834.520	0.0176836
834.598	0.0177342
834.676	0.0177481
834.754	0.0176614
834.832	0.0178839
834.910	0.0178922
834.988	0.0177305
835.067	0.0177333
835.145	0.0178580
835.223	0.0178466
835.301	0.0179809
835.379	0.0180602
835.457	0.0178797
835.535	0.0181226
835.613	0.0179316
835.692	0.0178506
835.770	0.0179340
835.848	0.0178642
835.926	0.0179350
836.004	0.0178428
836.082	0.0178609
836.160	0.0178134
836.238	0.0179819
836.317	0.0178197
836.395	0.0177456
836.473	0.0178001
836.551	0.0179429
836.629	0.0178786
836.707	0.0179511
836.785	0.0180363
836.863	0.0180901
836.942	0.0180817
837.020	0.0179942
837.098	0.0181744
837.176	0.0182128
837.254	0.0182479
837.332	0.0183875
837.410	0.0182830
837.488	0.0184409
837.567	0.0185810
837.645	0.0185678
837.723	0.0184518
837.801	0.0187022
837.879	0.0186251
837.957	0.0185623
838.035	0.0185598
838.113	0.0186134
838.192	0.0186017
838.270	0.0185124
838.348	0.0185404
838.426	0.0182926
838.504	0.0183839
838.582	0.0184308
838.660	0.0182590
838.738	0.0182043
838.817	0.0183156
838.895	0.0181705
838.973	0.0181696
839.051	0.0182096
839.129	0.0181853
839.207	0.0181196
839.285	0.0179845
839.363	0.0181294
839.442	0.0180662
839.520	0.0181235
839.598	0.0180894
839.676	0.0182404
839.754	0.0182510
839.832	0.0183006
839.910	0.0183561
839.988	0.0184129
840.067	0.0185970
840.145	0.0185883
840.223	0.0186303
840.301	0.0186271
840.379	0.0187841
840.457	0.0186870
840.535	0.0186562
840.613	0.0187575
840.692	0.0186249
840.770	0.0185239
840.848	0.0185894
840.926	0.0185999
841.004	0.0185488
841.082	0.0185245
841.160	0.0183307
841.238	0.0184342
841.317	0.0181667
841.395	0.0181916
841.473	0.0181444
841.551	0.0180939
841.629	0.0181023
841.707	0.0179102
841.785	0.0179621
841.863	0.0178931
841.942	0.0177324
842.020	0.0177084
842.098	0.0177457
842.176	0.0177573
842.254	0.0176569
842.332	0.0176122
842.410	0.0179041
842.488	0.0176259
842.567	0.0176751
842.645	0.0177716
842.723	0.0179169
842.801	0.0179441
842.879	0.0178959
842.957	0.0178270
843.035	0.0179563
843.113	0.0179757
843.192	0.0182701
843.270	0.0180894
843.348	0.0180410
843.426	0.0180454
843.504	0.0180716
843.582	0.0181563
843.660	0.0180633
843.738	0.0178308
843.817	0.0180083
843.895	0.0179882
843.973	0.0181358
844.051	0.0182085
844.129	0.0181344
844.207	0.0181042
844.285	0.0180490
844.363	0.0181538
844.442	0.0182345
844.520	0.0182054
844.598	0.0182576
844.676	0.0183461
844.754	0.0183716
844.832	0.0184489
844.910	0.0183782
844.988	0.0183823
845.067	0.0186413
845.145	0.0185793
845.223	0.0185358
845.301	0.0185336
845.379	0.0186068
845.457	0.0186247
845.535	0.0187670
845.613	0.0189123
845.692	0.0187549
845.770	0.0186620
845.848	0.0188241
845.926	0.0188434
846.004	0.0185801
846.082	0.0187400
846.160	0.0184864
846.238	0.0185648
846.317	0.0184983
846.395	0.0184254
846.473	0.0183437
846.551	0.0182539
846.629	0.0181233
846.707	0.0181662
846.785	0.0181831
846.863	0.0180613
846.942	0.0180168
847.020	0.0179726
847.098	0.0179873
847.176	0.0179712
847.254	0.0179970
847.332	0.0180875
847.410	0.0180309
847.488	0.0179977
847.567	0.0180930
847.645	0.0181596
847.723	0.0180247
847.801	0.0181557
847.879	0.0182495
847.957	0.0182104
848.035	0.0183024
848.113	0.0183690
848.192	0.0183081
848.270	0.0183814
848.348	0.0184747
848.426	0.0184426
848.504	0.0184929
848.582	0.0184849
848.660	0.0184115
848.738	0.0182743
848.817	0.0182469
848.895	0.0183065
848.973	0.0184044
849.051	0.0182610
849.129	0.0181938
849.207	0.0181020
849.285	0.0181517
849.363	0.0180833
849.442	0.0181898
849.520	0.0181116
849.598	0.0181384
849.676	0.0180307
849.754	0.0179811
849.832	0.0180904
849.910	0.0180777
849.988	0.0181377
850.067	0.0181834
850.145	0.0182121
850.223	0.0181239
850.301	0.0181563
850.379	0.0182335
850.457	0.0182709
850.535	0.0183121
850.613	0.0182552
850.692	0.0184013
850.770	0.0183396
850.848	0.0183413
850.926	0.0182768
851.004	0.0182117
851.082	0.0180969
851.160	0.0183124
851.238	0.0182515
851.317	0.0181643
851.395	0.0181613
851.473	0.0181132
851.551	0.0181225
851.629	0.0180939
851.707	0.0182206
851.785	0.0181011
851.863	0.0180976
851.942	0.0180902
852.020	0.0180069
852.098	0.0181706
852.176	0.0182355
852.254	0.0182294
852.332	0.0181487
852.410	0.0180844
852.488	0.0181596
852.567	0.0182034
852.645	0.0181405
852.723	0.0182856
852.801	0.0181650
852.879	0.0184119
852.957	0.0184168
853.035	0.0183992
853.113	0.0183907
853.192	0.0184328
853.270	0.0185365
853.348	0.0183502
853.426	0.0184107
853.504	0.0184243
853.582	0.0184800
853.660	0.0183606
853.738	0.0185223
853.817	0.0184049
853.895	0.0184921
853.973	0.0184539
854.051	0.0184595
854.129	0.0183476
854.207	0.0183734
854.285	0.0181940
854.363	0.0182651
854.442	0.0181541
854.520	0.0181760
854.598	0.0180776
854.676	0.0181098
854.754	0.0180040
854.832	0.0179967
854.910	0.0179878
854.988	0.0177669
855.067	0.0178696
855.145	0.0179459
855.223	0.0180446
855.301	0.0179610
855.379	0.0179863
855.457	0.0181277
855.535	0.0179562
855.613	0.0181750
855.692	0.0182330
855.770	0.0180566
855.848	0.0181109
855.926	0.0181007
856.004	0.0182513
856.082	0.0181728
856.160	0.0183105
856.238	0.0182375
856.317	0.0183787
856.395	0.0182686
856.473	0.0181316
856.551	0.0182078
856.629	0.0182547
856.707	0.0181355
856.785	0.0182649
856.863	0.0182730
856.942	0.0180479
857.020	0.0181861
857.098	0.0181633
857.176	0.0179637
857.254	0.0180860
857.332	0.0181136
857.410	0.0181156
857.488	0.0180660
857.567	0.0181866
857.645	0.0182042
857.723	0.0180492
857.801	0.0181997
857.879	0.0183007
857.957	0.0182529
858.035	0.0181401
858.113	0.0183422
858.192	0.0183294
858.270	0.0183965
858.348	0.0183027
858.426	0.0184455
858.504	0.0182579
858.582	0.0183652
858.660	0.0182545
858.738	0.0183054
858.817	0.0182879
858.895	0.0184506
858.973	0.0183759
859.051	0.0183415
859.129	0.0183018
859.207	0.0181689
859.285	0.0182744
859.363	0.0182371
859.442	0.0181731
859.520	0.0181870
859.598	0.0181919
859.676	0.0181808
859.754	0.0181314
859.832	0.0180801
859.910	0.0182442
859.988	0.0181773
860.067	0.0181426
860.145	0.0181139
860.223	0.0182746
860.301	0.0179940
860.379	0.0182233
860.457	0.0181767
860.535	0.0181295
860.613	0.0182893
860.692	0.0182327
860.770	0.0181414
860.848	0.0182807
860.926	0.0183325
861.004	0.0181610
861.082	0.0182252
861.160	0.0183722
861.238	0.0180869
861.317	0.0182402
861.395	0.0182520
861.473	0.0183085
861.551	0.0182107
861.629	0.0183111
861.707	0.0183133
861.785	0.0181319
861.863	0.0180879
861.942	0.0181252
862.020	0.0181636
862.098	0.0180275
862.176	0.0179485
862.254	0.0181078
862.332	0.0179443
862.410	0.0180751
862.488	0.0179029
862.567	0.0180051
862.645	0.0180453
862.723	0.0179899
862.801	0.0180246
862.879	0.0179662
862.957	0.0180039
863.035	0.0179351
863.113	0.0179977
863.192	0.0180447
863.270	0.0180517
863.348	0.0181095
863.426	0.0181713
863.504	0.0180565
863.582	0.0178885
863.660	0.0181393
863.738	0.0180007
863.817	0.0181125
863.895	0.0179433
863.973	0.0180540
864.051	0.0181445
864.129	0.0180618
864.207	0.0181769
864.285	0.0181915
864.363	0.0182095
864.442	0.0181734
864.520	0.0181953
864.598	0.0183930
864.676	0.0185113
864.754	0.0182922
864.832	0.0183641
864.910	0.0184939
864.988	0.0184103
865.067	0.0184692
865.145	0.0186697
865.223	0.0184344
865.301	0.0184821
865.379	0.0184716
865.457	0.0185429
865.535	0.0183979
865.613	0.0183896
865.692	0.0184660
865.770	0.0183565
865.848	0.0183858
865.926	0.0182487
866.004	0.0183383
866.082	0.0182171
866.160	0.0180740
866.238	0.0181574
866.317	0.0182018
866.395	0.0180943
866.473	0.0182061
866.551	0.0182317
866.629	0.0181418
866.707	0.0182143
866.785	0.0181933
866.863	0.0182239
866.942	0.0180637
867.020	0.0181583
867.098	0.0183617
867.176	0.0182230
867.254	0.0181993
867.332	0.0181059
867.410	0.0181339
867.488	0.0182383
867.567	0.0181134
867.645	0.0181788
867.723	0.0182313
867.801	0.0183239
867.879	0.0181222
867.957	0.0183276
868.035	0.0182981
868.113	0.0181848
868.192	0.0182510
868.270	0.0182565
868.348	0.0182450
868.426	0.0183038
868.504	0.0183979
868.582	0.0183654
868.660	0.0183522
868.738	0.0184151
868.817	0.0183648
868.895	0.0184760
868.973	0.0183469
869.051	0.0182131
869.129	0.0183281
869.207	0.0184171
869.285	0.0183511
869.363	0.0183248
869.442	0.0183363
869.520	0.0182747
869.598	0.0184135
869.676	0.0182664
869.754	0.0183954
869.832	0.0183215
869.910	0.0181821
869.988	0.0182687
870.067	0.0182718
870.145	0.0182082
870.223	0.0181643
870.301	0.0182691
870.379	0.0182861
870.457	0.0181470
870.535	0.0181433
870.613	0.0182231
870.692	0.0181346
870.770	0.0180196
870.848	0.0180676
870.926	0.0178791
871.004	0.0181019
871.082	0.0180035
871.160	0.0179236
871.238	0.0178600
871.317	0.0180341
871.395	0.0178580
871.473	0.0176942
871.551	0.0179673
871.629	0.0179052
871.707	0.0179536
871.785	0.0179540
871.863	0.0179241
871.942	0.0180377
872.020	0.0180118
872.098	0.0181995
872.176	0.0182575
872.254	0.0182700
872.332	0.0183999
872.410	0.0185294
872.488	0.0184827
872.567	0.0185802
872.645	0.0186725
872.723	0.0185722
872.801	0.0188648
872.879	0.0187400
872.957	0.0187305
873.035	0.0187538
873.113	0.0186734
873.192	0.0187971
873.270	0.0187026
873.348	0.0186097
873.426	0.0185417
873.504	0.0185512
873.582	0.0184371
873.660	0.0184034
873.738	0.0183582
873.817	0.0183619
873.895	0.0182742
873.973	0.0182005
874.051	0.0182317
874.129	0.0183516
874.207	0.0183620
874.285	0.0182034
874.363	0.0183245
874.442	0.0182357
874.520	0.0180700
874.598	0.0181087
874.676	0.0181396
874.754	0.0180968
874.832	0.0179640
874.910	0.0180231
874.988	0.0180344
875.067	0.0180000
875.145	0.0178800
875.223	0.0180035
875.301	0.0179370
875.379	0.0178759
875.457	0.0180824
875.535	0.0179652
875.613	0.0177752
875.692	0.0179830
875.770	0.0180160
875.848	0.0180595
875.926	0.0180559
876.004	0.0181031
876.082	0.0181890
876.160	0.0182967
876.238	0.0180905
876.317	0.0183030
876.395	0.0183411
876.473	0.0184309
876.551	0.0183608
876.629	0.0184645
876.707	0.0185382
876.785	0.0185424
876.863	0.0186331
876.942	0.0184281
877.020	0.0184789
877.098	0.0184998
877.176	0.0184711
877.254	0.0183310
877.332	0.0182233
877.410	0.0184268
877.488	0.0182184
877.567	0.0182672
877.645	0.0182166
877.723	0.0179826
877.801	0.0181184
877.879	0.0180165
877.957	0.0180878
878.035	0.0180447
878.113	0.0180264
878.192	0.0179788
878.270	0.0180293
878.348	0.0179481
878.426	0.0177752
878.504	0.0180236
878.582	0.0180294
878.660	0.0177861
878.738	0.0178238
878.817	0.0179433
878.895	0.0179250
878.973	0.0178838
879.051	0.0177795
879.129	0.0180019
879.207	0.0179269
879.285	0.0182379
879.363	0.0181225
879.442	0.0181806
879.520	0.0183237
879.598	0.0183070
879.676	0.0183383
879.754	0.0183363
879.832	0.0182631
879.910	0.0182064
879.988	0.0183571
880.067	0.0184962
880.145	0.0185095
880.223	0.0183786
880.301	0.0184077
880.379	0.0183869
880.457	0.0184917
880.535	0.0184277
880.613	0.0184012
880.692	0.0184525
880.770	0.0184016
880.848	0.0183443
880.926	0.0184935
881.004	0.0185247
881.082	0.0185014
881.160	0.0183447
881.238	0.0184856
881.317	0.0184949
881.395	0.0184486
881.473	0.0183154
881.551	0.0185161
881.629	0.0182515
881.707	0.0182606
881.785	0.0182013
881.863	0.0182835
881.942	0.0182251
882.020	0.0183300
882.098	0.0181970
882.176	0.0182052
882.254	0.0181147
882.332	0.0181122
882.410	0.0180257
882.488	0.0180946
882.567	0.0181155
882.645	0.0181818
882.723	0.0180712
882.801	0.0179470
882.879	0.0181554
882.957	0.0180890
883.035	0.0180406
883.113	0.0181541
883.192	0.0181319
883.270	0.0181575
883.348	0.0182787
883.426	0.0182684
883.504	0.0182040
883.582	0.0181923
883.660	0.0183434
883.738	0.0183475
883.817	0.0182870
883.895	0.0183190
883.973	0.0181615
884.051	0.0180644
884.129	0.0182211
884.207	0.0182402
884.285	0.0182570
884.363	0.0182301
884.442	0.0181432
884.520	0.0182185
884.598	0.0180154
884.676	0.0181332
884.754	0.0181461
884.832	0.0182998
884.910	0.0181974
884.988	0.0181689
885.067	0.0180265
885.145	0.0180807
885.223	0.0181520
885.301	0.0180637
885.379	0.0180603
885.457	0.0181783
885.535	0.0180659
885.613	0.0181918
885.692	0.0179914
885.770	0.0182072
885.848	0.0179940
885.926	0.0179980
886.004	0.0180879
886.082	0.0180587
886.160	0.0180832
886.238	0.0179768
886.317	0.0181091
886.395	0.0181089
886.473	0.0179450
886.551	0.0180180
886.629	0.0179366
886.707	0.0179874
886.785	0.0179239
886.863	0.0179822
886.942	0.0178939
887.020	0.0179527
887.098	0.0179919
887.176	0.0180633
887.254	0.0180642
887.332	0.0179613
887.410	0.0181038
887.488	0.0182197
887.567	0.0181206
887.645	0.0181422
887.723	0.0181699
887.801	0.0182760
887.879	0.0182088
887.957	0.0182291
888.035	0.0182525
888.113	0.0182910
888.192	0.0182415
888.270	0.0183081
888.348	0.0184865
888.426	0.0183878
888.504	0.0182574
888.582	0.0183656
888.660	0.0183340
888.738	0.0183766
888.817	0.0183876
888.895	0.0183877
888.973	0.0183027
889.051	0.0183527
889.129	0.0182455
889.207	0.0183334
889.285	0.0183421
889.363	0.0184729
889.442	0.0184683
889.520	0.0184114
889.598	0.0184023
889.676	0.0183324
889.754	0.0184238
889.832	0.0182724
889.910	0.0183853
889.988	0.0183221
890.067	0.0181980
890.145	0.0182433
890.223	0.0182074
890.301	0.0180574
890.379	0.0181432
890.457	0.0181675
890.535	0.0179368
890.613	0.0180653
890.692	0.0181758
890.770	0.0180497
890.848	0.0180959
890.926	0.0180270
891.004	0.0181821
891.082	0.0181400
891.160	0.0181066
891.238	0.0179250
891.317	0.0182231
891.395	0.0181580
891.473	0.0181600
891.551	0.0182132
891.629	0.0181684
891.707	0.0180633
891.785	0.0180106
891.863	0.0182544
891.942	0.0181760
892.020	0.0179714
892.098	0.0181828
892.176	0.0179204
892.254	0.0181560
892.332	0.0181590
892.410	0.0179517
892.488	0.0180077
892.567	0.0178638
892.645	0.0179887
892.723	0.0180461
892.801	0.0179729
892.879	0.0181024
892.957	0.0180455
893.035	0.0179932
893.113	0.0179790
893.192	0.0180272
893.270	0.0180926
893.348	0.0179861
893.426	0.0181913
893.504	0.0180591
893.582	0.0180350
893.660	0.0181448
893.738	0.0180701
893.817	0.0181473
893.895	0.0181152
893.973	0.0180159
894.051	0.0180953
894.129	0.0179918
894.207	0.0181613
894.285	0.0181004
894.363	0.0182027
894.442	0.0182214
894.520	0.0180806
894.598	0.0181349
894.676	0.0182844
894.754	0.0182032
894.832	0.0183305
894.910	0.0182053
894.988	0.0182893
895.067	0.0182603
895.145	0.0183495
895.223	0.0183442
895.301	0.0183509
895.379	0.0185368
895.457	0.0184229
895.535	0.0183411
895.613	0.0184488
895.692	0.0183086
895.770	0.0183886
895.848	0.0183981
895.926	0.0183701
896.004	0.0183985
896.082	0.0183673
896.160	0.0183650
896.238	0.0182336
896.317	0.0183457
896.395	0.0184054
896.473	0.0183016
896.551	0.0183260
896.629	0.0183708
896.707	0.0182280
896.785	0.0182773
896.863	0.0184071
896.942	0.0183266
897.020	0.0182384
897.098	0.0184415
897.176	0.0183740
897.254	0.0183655
897.332	0.0183190
897.410	0.0184407
897.488	0.0182569
897.567	0.0182481
897.645	0.0182096
897.723	0.0183411
897.801	0.0180951
897.879	0.0182144
897.957	0.0182452
898.035	0.0182490
898.113	0.0181377
898.192	0.0181880
898.270	0.0182214
898.348	0.0182376
898.426	0.0182291
898.504	0.0183075
898.582	0.0183274
898.660	0.0182981
898.738	0.0183142
898.817	0.0184765
898.895	0.0184208
898.973	0.0183766
899.051	0.0184223
899.129	0.0182453
899.207	0.0184351
899.285	0.0184336
899.363	0.0184084
899.442	0.0184740
899.520	0.0184681
899.598	0.0184584
899.676	0.0184146
899.754	0.0182391
899.832	0.0183067
899.910	0.0183093
899.988	0.0182445
900.067	0.0183086
900.145	0.0182439
900.223	0.0182017
900.301	0.0181107
900.379	0.0179948
900.457	0.0180302
900.535	0.0180811
900.613	0.0180965
900.692	0.0181078
900.770	0.0182212
900.848	0.0179713
900.926	0.0179593
901.004	0.0180420
901.082	0.0180751
901.160	0.0179814
901.238	0.0180824
901.317	0.0180369
901.395	0.0179096
901.473	0.0180121
901.551	0.0179633
901.629	0.0179998
901.707	0.0181174
901.785	0.0180215
901.863	0.0179757
901.942	0.0180999
902.020	0.0182083
902.098	0.0181787
902.176	0.0182713
902.254	0.0182072
902.332	0.0182163
902.410	0.0183030
902.488	0.0182211
902.567	0.0182874
902.645	0.0182656
902.723	0.0183314
902.801	0.0182613
902.879	0.0182543
902.957	0.0182485
903.035	0.0182952
903.113	0.0183747
903.192	0.0182492
903.270	0.0182314
903.348	0.0182945
903.426	0.0182039
903.504	0.0183188
903.582	0.0183173
903.660	0.0183957
903.738	0.0181774
903.817	0.0183289
903.895	0.0182131
903.973	0.0182516
904.051	0.0183735
904.129	0.0183318
904.207	0.0182558
904.285	0.0183761
904.363	0.0184593
904.442	0.0183734
904.520	0.0182374
904.598	0.0184432
904.676	0.0183720
904.754	0.0182204
904.832	0.0183231
904.910	0.0182728
904.988	0.0182304
905.067	0.0182533
905.145	0.0183614
905.223	0.0182635
905.301	0.0182307
905.379	0.0182452
905.457	0.0182471
905.535	0.0184547
905.613	0.0182761
905.692	0.0181315
905.770	0.0181645
905.848	0.0183382
905.926	0.0182937
906.004	0.0183203
906.082	0.0182208
906.160	0.0182388
906.238	0.0184113
906.317	0.0184200
906.395	0.0182906
906.473	0.0180986
906.551	0.0181715
906.629	0.0182390
906.707	0.0182723
906.785	0.0182932
906.863	0.0182938
906.942	0.0181197
907.020	0.0182001
907.098	0.0181050
907.176	0.0180269
907.254	0.0181604
907.332	0.0181766
907.410	0.0180144
907.488	0.0179561
907.567	0.0180077
907.645	0.0181280
907.723	0.0181483
907.801	0.0180270
907.879	0.0180534
907.957	0.0180212
908.035	0.0178614
908.113	0.0178550
908.192	0.0179800
908.270	0.0178905
908.348	0.0179088
908.426	0.0179594
908.504	0.0179436
908.582	0.0179221
908.660	0.0179226
908.738	0.0180501
908.817	0.0179884
908.895	0.0180701
908.973	0.0179267
909.051	0.0180256
909.129	0.0180095
909.207	0.0181493
909.285	0.0182264
909.363	0.0180898
909.442	0.0180569
909.520	0.0181336
909.598	0.0182140
909.676	0.0182110
909.754	0.0181715
909.832	0.0180519
909.910	0.0182296
909.988	0.0181426
910.067	0.0182236
910.145	0.0182780
910.223	0.0181426
910.301	0.0181030
910.379	0.0182118
910.457	0.0181852
910.535	0.0183073
910.613	0.0181548
910.692	0.0182887
910.770	0.0182156
910.848	0.0181834
910.926	0.0181107
911.004	0.0182652
911.082	0.0183166
911.160	0.0182771
911.238	0.0183373
911.317	0.0182722
911.395	0.0182640
911.473	0.0183401
911.551	0.0184405
911.629	0.0182939
911.707	0.0183420
911.785	0.0184306
911.863	0.0183114
911.942	0.0184248
912.020	0.0183204
912.098	0.0184265
912.176	0.0183220
912.254	0.0182745
912.332	0.0183723
912.410	0.0182272
912.488	0.0182813
912.567	0.0183011
912.645	0.0183351
912.723	0.0182419
912.801	0.0182816
912.879	0.0182372
912.957	0.0181052
913.035	0.0181707
913.113	0.0181624
913.192	0.0181098
913.270	0.0181468
913.348	0.0181673
913.426	0.0181978
913.504	0.0181197
913.582	0.0181272
913.660	0.0180948
913.738	0.0183098
913.817	0.0180499
913.895	0.0180079
913.973	0.0181434
914.051	0.0181226
914.129	0.0181390
914.207	0.0179622
914.285	0.0182153
914.363	0.0182471
914.442	0.0180705
914.520	0.0181745
914.598	0.0180954
914.676	0.0181429
914.754	0.0181737
914.832	0.0182038
914.910	0.0183289
914.988	0.0181133
915.067	0.0182433
915.145	0.0183721
915.223	0.0184534
915.301	0.0182959
915.379	0.0183265
915.457	0.0183214
915.535	0.0182711
915.613	0.0183431
915.692	0.0183122
915.770	0.0183058
915.848	0.0183131
915.926	0.0182154
916.004	0.0180294
916.082	0.0181188
916.160	0.0181281
916.238	0.0180894
916.317	0.0181668
916.395	0.0181390
916.473	0.0181130
916.551	0.0178957
916.629	0.0180389
916.707	0.0180004
916.785	0.0179531
916.863	0.0180626
916.942	0.0180276
917.020	0.0181537
917.098	0.0178777
917.176	0.0181304
917.254	0.0181579
917.332	0.0181361
917.410	0.0178909
917.488	0.0181095
917.567	0.0181929
917.645	0.0182132
917.723	0.0182018
917.801	0.0182729
917.879	0.0182699
917.957	0.0182006
918.035	0.0182681
918.113	0.0182471
918.192	0.0181799
918.270	0.0183883
918.348	0.0183207
918.426	0.0182298
918.504	0.0182295
918.582	0.0182785
918.660	0.0182301
918.738	0.0181989
918.817	0.0182365
918.895	0.0181322
918.973	0.0182951
919.051	0.0181962
919.129	0.0182877
919.207	0.0181948
919.285	0.0181966
919.363	0.0182825
919.442	0.0182091
919.520	0.0181498
919.598	0.0183516
919.676	0.0182822
919.754	0.0181424
919.832	0.0182096
919.910	0.0182064
