06/01/2022	21:55:33	Ver.	4.1	UNKNOWN
Optical Delay	599.988409	Delta X		0.078125	Sweeps	1	Scan Rate	0/0
Coordinates	Axis 1	NaN	Axis 2	NaN	Axis 3	NaN	Axis 4	NaN	Axis 5	NaN	Axis 6	0.000000
TX Power	0.000000	RX Power	0.000000

599.988	0.0178989
600.067	0.0179099
600.145	0.0178906
600.223	0.0178992
600.301	0.0179238
600.379	0.0179385
600.457	0.0180010
600.535	0.0178457
600.613	0.0178518
600.692	0.0178059
600.770	0.0178896
600.848	0.0177362
600.926	0.0179508
601.004	0.0178925
601.082	0.0179884
601.160	0.0179008
601.238	0.0179355
601.317	0.0179060
601.395	0.0179978
601.473	0.0179801
601.551	0.0178931
601.629	0.0178415
601.707	0.0178361
601.785	0.0180060
601.863	0.0178892
601.942	0.0179736
602.020	0.0179350
602.098	0.0179867
602.176	0.0179634
602.254	0.0178070
602.332	0.0179434
602.410	0.0179255
602.488	0.0179211
602.567	0.0178615
602.645	0.0179423
602.723	0.0179570
602.801	0.0178680
602.879	0.0180176
602.957	0.0178981
603.035	0.0178292
603.113	0.0179585
603.192	0.0178973
603.270	0.0179314
603.348	0.0179333
603.426	0.0179245
603.504	0.0178877
603.582	0.0178907
603.660	0.0180039
603.738	0.0177937
603.817	0.0178741
603.895	0.0179026
603.973	0.0179707
604.051	0.0178306
604.129	0.0180032
604.207	0.0179897
604.285	0.0178983
604.363	0.0179441
604.442	0.0179519
604.520	0.0179269
604.598	0.0179448
604.676	0.0179253
604.754	0.0179364
604.832	0.0179964
604.910	0.0179339
604.988	0.0179638
605.067	0.0180878
605.145	0.0178973
605.223	0.0179529
605.301	0.0179175
605.379	0.0178806
605.457	0.0179603
605.535	0.0177834
605.613	0.0179594
605.692	0.0177548
605.770	0.0179836
605.848	0.0179023
605.926	0.0178407
606.004	0.0179051
606.082	0.0179024
606.160	0.0179589
606.238	0.0180892
606.317	0.0178330
606.395	0.0178500
606.473	0.0179640
606.551	0.0179359
606.629	0.0179372
606.707	0.0180061
606.785	0.0178954
606.863	0.0179625
606.942	0.0179849
607.020	0.0179144
607.098	0.0177315
607.176	0.0179133
607.254	0.0178798
607.332	0.0178735
607.410	0.0178584
607.488	0.0180639
607.567	0.0179160
607.645	0.0179732
607.723	0.0179310
607.801	0.0179305
607.879	0.0178361
607.957	0.0179624
608.035	0.0179329
608.113	0.0179926
608.192	0.0180087
608.270	0.0179058
608.348	0.0179135
608.426	0.0178283
608.504	0.0180526
608.582	0.0178773
608.660	0.0179300
608.738	0.0179602
608.817	0.0178782
608.895	0.0179779
608.973	0.0180158
609.051	0.0179252
609.129	0.0179705
609.207	0.0180582
609.285	0.0179212
609.363	0.0179632
609.442	0.0178298
609.520	0.0179291
609.598	0.0179264
609.676	0.0179356
609.754	0.0180096
609.832	0.0178735
609.910	0.0179879
609.988	0.0179674
610.067	0.0179499
610.145	0.0178525
610.223	0.0178862
610.301	0.0178460
610.379	0.0179726
610.457	0.0177979
610.535	0.0179766
610.613	0.0179216
610.692	0.0180237
610.770	0.0179555
610.848	0.0177251
610.926	0.0179873
611.004	0.0179893
611.082	0.0178239
611.160	0.0179407
611.238	0.0180067
611.317	0.0179058
611.395	0.0178358
611.473	0.0179590
611.551	0.0179527
611.629	0.0179300
611.707	0.0178593
611.785	0.0178515
611.863	0.0178044
611.942	0.0179209
612.020	0.0179433
612.098	0.0179356
612.176	0.0179882
612.254	0.0179401
612.332	0.0177682
612.410	0.0178387
612.488	0.0178875
612.567	0.0179218
612.645	0.0179079
612.723	0.0180017
612.801	0.0178534
612.879	0.0178746
612.957	0.0179190
613.035	0.0178758
613.113	0.0178682
613.192	0.0176851
613.270	0.0179238
613.348	0.0178931
613.426	0.0179030
613.504	0.0180460
613.582	0.0178601
613.660	0.0177807
613.738	0.0178704
613.817	0.0179468
613.895	0.0177411
613.973	0.0177865
614.051	0.0179856
614.129	0.0180356
614.207	0.0178965
614.285	0.0179475
614.363	0.0179455
614.442	0.0180000
614.520	0.0178470
614.598	0.0178513
614.676	0.0179048
614.754	0.0178751
614.832	0.0177889
614.910	0.0179668
614.988	0.0179005
615.067	0.0179392
615.145	0.0179140
615.223	0.0179455
615.301	0.0179063
615.379	0.0178186
615.457	0.0178312
615.535	0.0179325
615.613	0.0179542
615.692	0.0180186
615.770	0.0178928
615.848	0.0178453
615.926	0.0180193
616.004	0.0179758
616.082	0.0178537
616.160	0.0179064
616.238	0.0177374
616.317	0.0179159
616.395	0.0178777
616.473	0.0179193
616.551	0.0179665
616.629	0.0178172
616.707	0.0178268
616.785	0.0179066
616.863	0.0178321
616.942	0.0178239
617.020	0.0178427
617.098	0.0177552
617.176	0.0178423
617.254	0.0178365
617.332	0.0179903
617.410	0.0179096
617.488	0.0178805
617.567	0.0179728
617.645	0.0179275
617.723	0.0179247
617.801	0.0179510
617.879	0.0179015
617.957	0.0179440
618.035	0.0179857
618.113	0.0179285
618.192	0.0177374
618.270	0.0179765
618.348	0.0178790
618.426	0.0178873
618.504	0.0178864
618.582	0.0178957
618.660	0.0178413
618.738	0.0179680
618.817	0.0178381
618.895	0.0179953
618.973	0.0180180
619.051	0.0177950
619.129	0.0178421
619.207	0.0179113
619.285	0.0177662
619.363	0.0179510
619.442	0.0178610
619.520	0.0178639
619.598	0.0179529
619.676	0.0177905
619.754	0.0177907
619.832	0.0179049
619.910	0.0178421
619.988	0.0180119
620.067	0.0178763
620.145	0.0178156
620.223	0.0177987
620.301	0.0178293
620.379	0.0177897
620.457	0.0178525
620.535	0.0179041
620.613	0.0179070
620.692	0.0179521
620.770	0.0179357
620.848	0.0178248
620.926	0.0180736
621.004	0.0180188
621.082	0.0178031
621.160	0.0179235
621.238	0.0179592
621.317	0.0178558
621.395	0.0179066
621.473	0.0179113
621.551	0.0178557
621.629	0.0178210
621.707	0.0178915
621.785	0.0178748
621.863	0.0178562
621.942	0.0179401
622.020	0.0178329
622.098	0.0179175
622.176	0.0179259
622.254	0.0181229
622.332	0.0180602
622.410	0.0178878
622.488	0.0180051
622.567	0.0179196
622.645	0.0179469
622.723	0.0180569
622.801	0.0180638
622.879	0.0180247
622.957	0.0180699
623.035	0.0180425
623.113	0.0180082
623.192	0.0181252
623.270	0.0179601
623.348	0.0178062
623.426	0.0178440
623.504	0.0178095
623.582	0.0177987
623.660	0.0179797
623.738	0.0178592
623.817	0.0178729
623.895	0.0178819
623.973	0.0180385
624.051	0.0178224
624.129	0.0179723
624.207	0.0180190
624.285	0.0178466
624.363	0.0179521
624.442	0.0178612
624.520	0.0178442
624.598	0.0180624
624.676	0.0180656
624.754	0.0179302
624.832	0.0178216
624.910	0.0178287
624.988	0.0179095
625.067	0.0178831
625.145	0.0178138
625.223	0.0177300
625.301	0.0178594
625.379	0.0178128
625.457	0.0178539
625.535	0.0179157
625.613	0.0177143
625.692	0.0178674
625.770	0.0179482
625.848	0.0177739
625.926	0.0178219
626.004	0.0178475
626.082	0.0178717
626.160	0.0179038
626.238	0.0178454
626.317	0.0178258
626.395	0.0179027
626.473	0.0179219
626.551	0.0178166
626.629	0.0178823
626.707	0.0180721
626.785	0.0179356
626.863	0.0180875
626.942	0.0180312
627.020	0.0179128
627.098	0.0178312
627.176	0.0178457
627.254	0.0177956
627.332	0.0179421
627.410	0.0176627
627.488	0.0178275
627.567	0.0179120
627.645	0.0178924
627.723	0.0178973
627.801	0.0179019
627.879	0.0178484
627.957	0.0179759
628.035	0.0177995
628.113	0.0177683
628.192	0.0180746
628.270	0.0179288
628.348	0.0178725
628.426	0.0178827
628.504	0.0179999
628.582	0.0179321
628.660	0.0179397
628.738	0.0179821
628.817	0.0179876
628.895	0.0180299
628.973	0.0180052
629.051	0.0178437
629.129	0.0179542
629.207	0.0178970
629.285	0.0178492
629.363	0.0180154
629.442	0.0179285
629.520	0.0178175
629.598	0.0179021
629.676	0.0175804
629.754	0.0176234
629.832	0.0176759
629.910	0.0178592
629.988	0.0176829
630.067	0.0178873
630.145	0.0177990
630.223	0.0177177
630.301	0.0179877
630.379	0.0181143
630.457	0.0180882
630.535	0.0180163
630.613	0.0180580
630.692	0.0181261
630.770	0.0179657
630.848	0.0179242
630.926	0.0178973
631.004	0.0177735
631.082	0.0178311
631.160	0.0177961
631.238	0.0178055
631.317	0.0176997
631.395	0.0178017
631.473	0.0178226
631.551	0.0177569
631.629	0.0177983
631.707	0.0178912
631.785	0.0179272
631.863	0.0178642
631.942	0.0178851
632.020	0.0179326
632.098	0.0179572
632.176	0.0180864
632.254	0.0180483
632.332	0.0181008
632.410	0.0181403
632.488	0.0179847
632.567	0.0179130
632.645	0.0181689
632.723	0.0181472
632.801	0.0180083
632.879	0.0179480
632.957	0.0179172
633.035	0.0179559
633.113	0.0179671
633.192	0.0177525
633.270	0.0178574
633.348	0.0178172
633.426	0.0177892
633.504	0.0178169
633.582	0.0178402
633.660	0.0179024
633.738	0.0179023
633.817	0.0179153
633.895	0.0179340
633.973	0.0179834
634.051	0.0179728
634.129	0.0179607
634.207	0.0178059
634.285	0.0178941
634.363	0.0178905
634.442	0.0179379
634.520	0.0181277
634.598	0.0179379
634.676	0.0179923
634.754	0.0180139
634.832	0.0179684
634.910	0.0179749
634.988	0.0181687
635.067	0.0180605
635.145	0.0179020
635.223	0.0179048
635.301	0.0179839
635.379	0.0179971
635.457	0.0177998
635.535	0.0177301
635.613	0.0177325
635.692	0.0177918
635.770	0.0179181
635.848	0.0178789
635.926	0.0177871
636.004	0.0178298
636.082	0.0178336
636.160	0.0180014
636.238	0.0179600
636.317	0.0178120
636.395	0.0178337
636.473	0.0179602
636.551	0.0178722
636.629	0.0180041
636.707	0.0179446
636.785	0.0178396
636.863	0.0179932
636.942	0.0177999
637.020	0.0179479
637.098	0.0179739
637.176	0.0179743
637.254	0.0180385
637.332	0.0179781
637.410	0.0179649
637.488	0.0179519
637.567	0.0178922
637.645	0.0178232
637.723	0.0179216
637.801	0.0179635
637.879	0.0178643
637.957	0.0179253
638.035	0.0179490
638.113	0.0179128
638.192	0.0178456
638.270	0.0180591
638.348	0.0179893
638.426	0.0179389
638.504	0.0179421
638.582	0.0180304
638.660	0.0179653
638.738	0.0178363
638.817	0.0179314
638.895	0.0178590
638.973	0.0179638
639.051	0.0179162
639.129	0.0176843
639.207	0.0179012
639.285	0.0179844
639.363	0.0180555
639.442	0.0179993
639.520	0.0179882
639.598	0.0179788
639.676	0.0180207
639.754	0.0179723
639.832	0.0181032
639.910	0.0180235
639.988	0.0180569
640.067	0.0179919
640.145	0.0180661
640.223	0.0180170
640.301	0.0179046
640.379	0.0180180
640.457	0.0178276
640.535	0.0176513
640.613	0.0177252
640.692	0.0178028
640.770	0.0177937
640.848	0.0177606
640.926	0.0177351
641.004	0.0178614
641.082	0.0178688
641.160	0.0178818
641.238	0.0178914
641.317	0.0178633
641.395	0.0178363
641.473	0.0179309
641.551	0.0180048
641.629	0.0181775
641.707	0.0180614
641.785	0.0181818
641.863	0.0182655
641.942	0.0181620
642.020	0.0180590
642.098	0.0181613
642.176	0.0179462
642.254	0.0180722
642.332	0.0178078
642.410	0.0178001
642.488	0.0179855
642.567	0.0178267
642.645	0.0176786
642.723	0.0176880
642.801	0.0178256
642.879	0.0177511
642.957	0.0177273
643.035	0.0176534
643.113	0.0176607
643.192	0.0178191
643.270	0.0178273
643.348	0.0179185
643.426	0.0178961
643.504	0.0178606
643.582	0.0180240
643.660	0.0180818
643.738	0.0181193
643.817	0.0181577
643.895	0.0181311
643.973	0.0181982
644.051	0.0181804
644.129	0.0181426
644.207	0.0179934
644.285	0.0180984
644.363	0.0181018
644.442	0.0180634
644.520	0.0179100
644.598	0.0178690
644.676	0.0178584
644.754	0.0178543
644.832	0.0178508
644.910	0.0177200
644.988	0.0175558
645.067	0.0178210
645.145	0.0177782
645.223	0.0177651
645.301	0.0177706
645.379	0.0178255
645.457	0.0177512
645.535	0.0178990
645.613	0.0179093
645.692	0.0180440
645.770	0.0181078
645.848	0.0181674
645.926	0.0181817
646.004	0.0182117
646.082	0.0181969
646.160	0.0180730
646.238	0.0180952
646.317	0.0181502
646.395	0.0180881
646.473	0.0179324
646.551	0.0179658
646.629	0.0179408
646.707	0.0179341
646.785	0.0179612
646.863	0.0178404
646.942	0.0177914
647.020	0.0177819
647.098	0.0178220
647.176	0.0177304
647.254	0.0178884
647.332	0.0178018
647.410	0.0179588
647.488	0.0178158
647.567	0.0179184
647.645	0.0181321
647.723	0.0181441
647.801	0.0179967
647.879	0.0179306
647.957	0.0180503
648.035	0.0179379
648.113	0.0179224
648.192	0.0180146
648.270	0.0179470
648.348	0.0179730
648.426	0.0179189
648.504	0.0179630
648.582	0.0179128
648.660	0.0178262
648.738	0.0180207
648.817	0.0179942
648.895	0.0180345
648.973	0.0178732
649.051	0.0180555
649.129	0.0179110
649.207	0.0178422
649.285	0.0180486
649.363	0.0180717
649.442	0.0179813
649.520	0.0179545
649.598	0.0180054
649.676	0.0180752
649.754	0.0180394
649.832	0.0179057
649.910	0.0179074
649.988	0.0179734
650.067	0.0178204
650.145	0.0178110
650.223	0.0179427
650.301	0.0178043
650.379	0.0176846
650.457	0.0177698
650.535	0.0176993
650.613	0.0177197
650.692	0.0179433
650.770	0.0179992
650.848	0.0178841
650.926	0.0179282
651.004	0.0179692
651.082	0.0178936
651.160	0.0179729
651.238	0.0180213
651.317	0.0180412
651.395	0.0180168
651.473	0.0180790
651.551	0.0181024
651.629	0.0180765
651.707	0.0179948
651.785	0.0178393
651.863	0.0177051
651.942	0.0177846
652.020	0.0178503
652.098	0.0178304
652.176	0.0178256
652.254	0.0177052
652.332	0.0176221
652.410	0.0176113
652.488	0.0176430
652.567	0.0176563
652.645	0.0177717
652.723	0.0176833
652.801	0.0177663
652.879	0.0179294
652.957	0.0179507
653.035	0.0179472
653.113	0.0180423
653.192	0.0179633
653.270	0.0180058
653.348	0.0180857
653.426	0.0181361
653.504	0.0182243
653.582	0.0180806
653.660	0.0180677
653.738	0.0180831
653.817	0.0180552
653.895	0.0179403
653.973	0.0178973
654.051	0.0179735
654.129	0.0179256
654.207	0.0177517
654.285	0.0177406
654.363	0.0177786
654.442	0.0177338
654.520	0.0178004
654.598	0.0176868
654.676	0.0176573
654.754	0.0177368
654.832	0.0179373
654.910	0.0179903
654.988	0.0180354
655.067	0.0178902
655.145	0.0180154
655.223	0.0180692
655.301	0.0181017
655.379	0.0181004
655.457	0.0180807
655.535	0.0179827
655.613	0.0180537
655.692	0.0178613
655.770	0.0179810
655.848	0.0179492
655.926	0.0178923
656.004	0.0178149
656.082	0.0177821
656.160	0.0177376
656.238	0.0177096
656.317	0.0177518
656.395	0.0176338
656.473	0.0177363
656.551	0.0177589
656.629	0.0177604
656.707	0.0177375
656.785	0.0179265
656.863	0.0178308
656.942	0.0178497
657.020	0.0178010
657.098	0.0178626
657.176	0.0179343
657.254	0.0179555
657.332	0.0180935
657.410	0.0181377
657.488	0.0182051
657.567	0.0181298
657.645	0.0182260
657.723	0.0181637
657.801	0.0182352
657.879	0.0181716
657.957	0.0180091
658.035	0.0181235
658.113	0.0180118
658.192	0.0179665
658.270	0.0179387
658.348	0.0180252
658.426	0.0177373
658.504	0.0176791
658.582	0.0177165
658.660	0.0178100
658.738	0.0176282
658.817	0.0176113
658.895	0.0177493
658.973	0.0178126
659.051	0.0175663
659.129	0.0177239
659.207	0.0177963
659.285	0.0177612
659.363	0.0178695
659.442	0.0178753
659.520	0.0179338
659.598	0.0179927
659.676	0.0179160
659.754	0.0180215
659.832	0.0180586
659.910	0.0180439
659.988	0.0180011
660.067	0.0178740
660.145	0.0180446
660.223	0.0179243
660.301	0.0178754
660.379	0.0180354
660.457	0.0179680
660.535	0.0178849
660.613	0.0179258
660.692	0.0179964
660.770	0.0179934
660.848	0.0180170
660.926	0.0178764
661.004	0.0178710
661.082	0.0180193
661.160	0.0180554
661.238	0.0180862
661.317	0.0180061
661.395	0.0179238
661.473	0.0180368
661.551	0.0181029
661.629	0.0180159
661.707	0.0180151
661.785	0.0180609
661.863	0.0179616
661.942	0.0180167
662.020	0.0180640
662.098	0.0181428
662.176	0.0180956
662.254	0.0177554
662.332	0.0178706
662.410	0.0179184
662.488	0.0179984
662.567	0.0178664
662.645	0.0178313
662.723	0.0177383
662.801	0.0177124
662.879	0.0178905
662.957	0.0179804
663.035	0.0178492
663.113	0.0180473
663.192	0.0179303
663.270	0.0179040
663.348	0.0178092
663.426	0.0179671
663.504	0.0178271
663.582	0.0178835
663.660	0.0180475
663.738	0.0179117
663.817	0.0179701
663.895	0.0179143
663.973	0.0179996
664.051	0.0179784
664.129	0.0179490
664.207	0.0178984
664.285	0.0179976
664.363	0.0178271
664.442	0.0180258
664.520	0.0180798
664.598	0.0179699
664.676	0.0181435
664.754	0.0180467
664.832	0.0179903
664.910	0.0178848
664.988	0.0179948
665.067	0.0181432
665.145	0.0180341
665.223	0.0179523
665.301	0.0179292
665.379	0.0180921
665.457	0.0179506
665.535	0.0181122
665.613	0.0179948
665.692	0.0181099
665.770	0.0179118
665.848	0.0180872
665.926	0.0180593
666.004	0.0180525
666.082	0.0180453
666.160	0.0180437
666.238	0.0179595
666.317	0.0180974
666.395	0.0179868
666.473	0.0179678
666.551	0.0178634
666.629	0.0179884
666.707	0.0179346
666.785	0.0178641
666.863	0.0180930
666.942	0.0178358
667.020	0.0178844
667.098	0.0178936
667.176	0.0178600
667.254	0.0177177
667.332	0.0179213
667.410	0.0179188
667.488	0.0177738
667.567	0.0178687
667.645	0.0178683
667.723	0.0178934
667.801	0.0178510
667.879	0.0178466
667.957	0.0180732
668.035	0.0178918
668.113	0.0178813
668.192	0.0178765
668.270	0.0178548
668.348	0.0178985
668.426	0.0178833
668.504	0.0178044
668.582	0.0180094
668.660	0.0180230
668.738	0.0179569
668.817	0.0180286
668.895	0.0180765
668.973	0.0181971
669.051	0.0180638
669.129	0.0180826
669.207	0.0181877
669.285	0.0181162
669.363	0.0181689
669.442	0.0180492
669.520	0.0180827
669.598	0.0181451
669.676	0.0180334
669.754	0.0180482
669.832	0.0180675
669.910	0.0180831
669.988	0.0180149
670.067	0.0179877
670.145	0.0179302
670.223	0.0178954
670.301	0.0178935
670.379	0.0178082
670.457	0.0177956
670.535	0.0178481
670.613	0.0178133
670.692	0.0179437
670.770	0.0177654
670.848	0.0176481
670.926	0.0177703
671.004	0.0178975
671.082	0.0177348
671.160	0.0177570
671.238	0.0177966
671.317	0.0178654
671.395	0.0179101
671.473	0.0179409
671.551	0.0179157
671.629	0.0180079
671.707	0.0179642
671.785	0.0178615
671.863	0.0179876
671.942	0.0178973
672.020	0.0180063
672.098	0.0181782
672.176	0.0180153
672.254	0.0179831
672.332	0.0180354
672.410	0.0179591
672.488	0.0179305
672.567	0.0178904
672.645	0.0178466
672.723	0.0177026
672.801	0.0177287
672.879	0.0176196
672.957	0.0175854
673.035	0.0175713
673.113	0.0175877
673.192	0.0175635
673.270	0.0176524
673.348	0.0175961
673.426	0.0174983
673.504	0.0176441
673.582	0.0177527
673.660	0.0177316
673.738	0.0177843
673.817	0.0178015
673.895	0.0177731
673.973	0.0179262
674.051	0.0180849
674.129	0.0180196
674.207	0.0180748
674.285	0.0181087
674.363	0.0180899
674.442	0.0180609
674.520	0.0181163
674.598	0.0181794
674.676	0.0180078
674.754	0.0179776
674.832	0.0180689
674.910	0.0179906
674.988	0.0179582
675.067	0.0179163
675.145	0.0179309
675.223	0.0180160
675.301	0.0179369
675.379	0.0179876
675.457	0.0180796
675.535	0.0180247
675.613	0.0179782
675.692	0.0180753
675.770	0.0180795
675.848	0.0182207
675.926	0.0180688
676.004	0.0179667
676.082	0.0179559
676.160	0.0179481
676.238	0.0177164
676.317	0.0176341
676.395	0.0176056
676.473	0.0174493
676.551	0.0173849
676.629	0.0173616
676.707	0.0173234
676.785	0.0174429
676.863	0.0172918
676.942	0.0171729
677.020	0.0173054
677.098	0.0173223
677.176	0.0173351
677.254	0.0174024
677.332	0.0175899
677.410	0.0177702
677.488	0.0177704
677.567	0.0179124
677.645	0.0181599
677.723	0.0183145
677.801	0.0183946
677.879	0.0186670
677.957	0.0188046
678.035	0.0188365
678.113	0.0189751
678.192	0.0191329
678.270	0.0191482
678.348	0.0190596
678.426	0.0192052
678.504	0.0190669
678.582	0.0190140
678.660	0.0190260
678.738	0.0187808
678.817	0.0186417
678.895	0.0184548
678.973	0.0182973
679.051	0.0181469
679.129	0.0177541
679.207	0.0174331
679.285	0.0171877
679.363	0.0171136
679.442	0.0167874
679.520	0.0166184
679.598	0.0164992
679.676	0.0163694
679.754	0.0163930
679.832	0.0162740
679.910	0.0163028
679.988	0.0161869
680.067	0.0163984
680.145	0.0164360
680.223	0.0165125
680.301	0.0167490
680.379	0.0169722
680.457	0.0170757
680.535	0.0174190
680.613	0.0178519
680.692	0.0180087
680.770	0.0181647
680.848	0.0185734
680.926	0.0187887
681.004	0.0190602
681.082	0.0193611
681.160	0.0196857
681.238	0.0198251
681.317	0.0200657
681.395	0.0201465
681.473	0.0201888
681.551	0.0202303
681.629	0.0200441
681.707	0.0201227
681.785	0.0198782
681.863	0.0197002
681.942	0.0194585
682.020	0.0191734
682.098	0.0187093
682.176	0.0184176
682.254	0.0180970
682.332	0.0175619
682.410	0.0171690
682.488	0.0168595
682.567	0.0166306
682.645	0.0164388
682.723	0.0160530
682.801	0.0159570
682.879	0.0157129
682.957	0.0155659
683.035	0.0154156
683.113	0.0154770
683.192	0.0155586
683.270	0.0155178
683.348	0.0156104
683.426	0.0158579
683.504	0.0160744
683.582	0.0163134
683.660	0.0167127
683.738	0.0171514
683.817	0.0175148
683.895	0.0178296
683.973	0.0184459
684.051	0.0187864
684.129	0.0192307
684.207	0.0196471
684.285	0.0200506
684.363	0.0204276
684.442	0.0206370
684.520	0.0209325
684.598	0.0210906
684.676	0.0209909
684.754	0.0210534
684.832	0.0209421
684.910	0.0206707
684.988	0.0205802
685.067	0.0202223
685.145	0.0198406
685.223	0.0194965
685.301	0.0192104
685.379	0.0187614
685.457	0.0183115
685.535	0.0178907
685.613	0.0174667
685.692	0.0170177
685.770	0.0165456
685.848	0.0161850
685.926	0.0158661
686.004	0.0155742
686.082	0.0153621
686.160	0.0150016
686.238	0.0149487
686.317	0.0147849
686.395	0.0148403
686.473	0.0150343
686.551	0.0150401
686.629	0.0153029
686.707	0.0154568
686.785	0.0157501
686.863	0.0162148
686.942	0.0165456
687.020	0.0168987
687.098	0.0171770
687.176	0.0175494
687.254	0.0180981
687.332	0.0184773
687.410	0.0188701
687.488	0.0192327
687.567	0.0195312
687.645	0.0196351
687.723	0.0199617
687.801	0.0201218
687.879	0.0202367
687.957	0.0203647
688.035	0.0202866
688.113	0.0202058
688.192	0.0201344
688.270	0.0200121
688.348	0.0198745
688.426	0.0196789
688.504	0.0194119
688.582	0.0192821
688.660	0.0190227
688.738	0.0187147
688.817	0.0183451
688.895	0.0182992
688.973	0.0180534
689.051	0.0177113
689.129	0.0174559
689.207	0.0173308
689.285	0.0173408
689.363	0.0172108
689.442	0.0171044
689.520	0.0170853
689.598	0.0169729
689.676	0.0169001
689.754	0.0167545
689.832	0.0168548
689.910	0.0167613
689.988	0.0167324
690.067	0.0166237
690.145	0.0166707
690.223	0.0167200
690.301	0.0165525
690.379	0.0165716
690.457	0.0166033
690.535	0.0167635
690.613	0.0167396
690.692	0.0167978
690.770	0.0170597
690.848	0.0170662
690.926	0.0171745
691.004	0.0173554
691.082	0.0174144
691.160	0.0177526
691.238	0.0176324
691.317	0.0177291
691.395	0.0179813
691.473	0.0182229
691.551	0.0181957
691.629	0.0184287
691.707	0.0185450
691.785	0.0187953
691.863	0.0187224
691.942	0.0189873
692.020	0.0191160
692.098	0.0192487
692.176	0.0191470
692.254	0.0193334
692.332	0.0193006
692.410	0.0192580
692.488	0.0189111
692.567	0.0188675
692.645	0.0188750
692.723	0.0186794
692.801	0.0185983
692.879	0.0182220
692.957	0.0182183
693.035	0.0181329
693.113	0.0181021
693.192	0.0180521
693.270	0.0181210
693.348	0.0180678
693.426	0.0181065
693.504	0.0180798
693.582	0.0179607
693.660	0.0180059
693.738	0.0182294
693.817	0.0182105
693.895	0.0183254
693.973	0.0182873
694.051	0.0180114
694.129	0.0180659
694.207	0.0178383
694.285	0.0177821
694.363	0.0178309
694.442	0.0178079
694.520	0.0174376
694.598	0.0172314
694.676	0.0171935
694.754	0.0171201
694.832	0.0171960
694.910	0.0169463
694.988	0.0168123
695.067	0.0168157
695.145	0.0166029
695.223	0.0164681
695.301	0.0163450
695.379	0.0161891
695.457	0.0161001
695.535	0.0159676
695.613	0.0158388
695.692	0.0159202
695.770	0.0157740
695.848	0.0158518
695.926	0.0161507
696.004	0.0160666
696.082	0.0160772
696.160	0.0164597
696.238	0.0168660
696.317	0.0171255
696.395	0.0172852
696.473	0.0177074
696.551	0.0183500
696.629	0.0187867
696.707	0.0191746
696.785	0.0195251
696.863	0.0199339
696.942	0.0202910
697.020	0.0206544
697.098	0.0207510
697.176	0.0209022
697.254	0.0211417
697.332	0.0212204
697.410	0.0211870
697.488	0.0210414
697.567	0.0209476
697.645	0.0208081
697.723	0.0207106
697.801	0.0205486
697.879	0.0202659
697.957	0.0198272
698.035	0.0195430
698.113	0.0191177
698.192	0.0188822
698.270	0.0184371
698.348	0.0182448
698.426	0.0178637
698.504	0.0174242
698.582	0.0169209
698.660	0.0166248
698.738	0.0163869
698.817	0.0161883
698.895	0.0157645
698.973	0.0156869
699.051	0.0155510
699.129	0.0155619
699.207	0.0154116
699.285	0.0154232
699.363	0.0153273
699.442	0.0153765
699.520	0.0154799
699.598	0.0155717
699.676	0.0156548
699.754	0.0156799
699.832	0.0157988
699.910	0.0159580
699.988	0.0160846
700.067	0.0161486
700.145	0.0162244
700.223	0.0164168
700.301	0.0166546
700.379	0.0168494
700.457	0.0169401
700.535	0.0172081
700.613	0.0174173
700.692	0.0176842
700.770	0.0181377
700.848	0.0183627
700.926	0.0185841
701.004	0.0190549
701.082	0.0192617
701.160	0.0194183
701.238	0.0197624
701.317	0.0198586
701.395	0.0200899
701.473	0.0201466
701.551	0.0203198
701.629	0.0202682
701.707	0.0204703
701.785	0.0204616
701.863	0.0200710
701.942	0.0201057
702.020	0.0200797
702.098	0.0199127
702.176	0.0199527
702.254	0.0195576
702.332	0.0195448
702.410	0.0194592
702.488	0.0193877
702.567	0.0192527
702.645	0.0191831
702.723	0.0191444
702.801	0.0189717
702.879	0.0187691
702.957	0.0185608
703.035	0.0183189
703.113	0.0182963
703.192	0.0180091
703.270	0.0178951
703.348	0.0176714
703.426	0.0174013
703.504	0.0171076
703.582	0.0169181
703.660	0.0165794
703.738	0.0164479
703.817	0.0164629
703.895	0.0161341
703.973	0.0158611
704.051	0.0156318
704.129	0.0153868
704.207	0.0152364
704.285	0.0152757
704.363	0.0151897
704.442	0.0151021
704.520	0.0153345
704.598	0.0155675
704.676	0.0157613
704.754	0.0159772
704.832	0.0162537
704.910	0.0165199
704.988	0.0168749
705.067	0.0172099
705.145	0.0174578
705.223	0.0178713
705.301	0.0178767
705.379	0.0180879
705.457	0.0181920
705.535	0.0181762
705.613	0.0184877
705.692	0.0185428
705.770	0.0183231
705.848	0.0183266
705.926	0.0184990
706.004	0.0184837
706.082	0.0184987
706.160	0.0185508
706.238	0.0186227
706.317	0.0186676
706.395	0.0187322
706.473	0.0187499
706.551	0.0188461
706.629	0.0188394
706.707	0.0188593
706.785	0.0190404
706.863	0.0190508
706.942	0.0191199
707.020	0.0191167
707.098	0.0192742
707.176	0.0193468
707.254	0.0195071
707.332	0.0192809
707.410	0.0193906
707.488	0.0193766
707.567	0.0194454
707.645	0.0194028
707.723	0.0192582
707.801	0.0193222
707.879	0.0191278
707.957	0.0189820
708.035	0.0190643
708.113	0.0188873
708.192	0.0188010
708.270	0.0186311
708.348	0.0185013
708.426	0.0183243
708.504	0.0181043
708.582	0.0180023
708.660	0.0179123
708.738	0.0177551
708.817	0.0175562
708.895	0.0174938
708.973	0.0172823
709.051	0.0173351
709.129	0.0172269
709.207	0.0169854
709.285	0.0169082
709.363	0.0169072
709.442	0.0166036
709.520	0.0164503
709.598	0.0165369
709.676	0.0163338
709.754	0.0161491
709.832	0.0160920
709.910	0.0158765
709.988	0.0158856
710.067	0.0157774
710.145	0.0157793
710.223	0.0157903
710.301	0.0157422
710.379	0.0158978
710.457	0.0160200
710.535	0.0161655
710.613	0.0164214
710.692	0.0166951
710.770	0.0169122
710.848	0.0169804
710.926	0.0172485
711.004	0.0175577
711.082	0.0178050
711.160	0.0180882
711.238	0.0181644
711.317	0.0182751
711.395	0.0184148
711.473	0.0186769
711.551	0.0188220
711.629	0.0187131
711.707	0.0187843
711.785	0.0189337
711.863	0.0190392
711.942	0.0189881
712.020	0.0189336
712.098	0.0189262
712.176	0.0190327
712.254	0.0190974
712.332	0.0192953
712.410	0.0191634
712.488	0.0192063
712.567	0.0192471
712.645	0.0194144
712.723	0.0193532
712.801	0.0193259
712.879	0.0192732
712.957	0.0193929
713.035	0.0193807
713.113	0.0193300
713.192	0.0192300
713.270	0.0191695
713.348	0.0189471
713.426	0.0188723
713.504	0.0187785
713.582	0.0185954
713.660	0.0184789
713.738	0.0184280
713.817	0.0182543
713.895	0.0181279
713.973	0.0180801
714.051	0.0178547
714.129	0.0177563
714.207	0.0176724
714.285	0.0175600
714.363	0.0175114
714.442	0.0175412
714.520	0.0175590
714.598	0.0172606
714.676	0.0172894
714.754	0.0171709
714.832	0.0173090
714.910	0.0172363
714.988	0.0172089
715.067	0.0169816
715.145	0.0168658
715.223	0.0167883
715.301	0.0167583
715.379	0.0164675
715.457	0.0164656
715.535	0.0165248
715.613	0.0164236
715.692	0.0164043
715.770	0.0162690
715.848	0.0161974
715.926	0.0163031
716.004	0.0164956
716.082	0.0166170
716.160	0.0166602
716.238	0.0168099
716.317	0.0170953
716.395	0.0172046
716.473	0.0174900
716.551	0.0176824
716.629	0.0176049
716.707	0.0179742
716.785	0.0180630
716.863	0.0182246
716.942	0.0183150
717.020	0.0184553
717.098	0.0186887
717.176	0.0186124
717.254	0.0187099
717.332	0.0187885
717.410	0.0188234
717.488	0.0188883
717.567	0.0188094
717.645	0.0187650
717.723	0.0188988
717.801	0.0187770
717.879	0.0186906
717.957	0.0186410
718.035	0.0185502
718.113	0.0185023
718.192	0.0184959
718.270	0.0184496
718.348	0.0182986
718.426	0.0183338
718.504	0.0183551
718.582	0.0181512
718.660	0.0181248
718.738	0.0180033
718.817	0.0180818
718.895	0.0181812
718.973	0.0181342
719.051	0.0182033
719.129	0.0183015
719.207	0.0181184
719.285	0.0182603
719.363	0.0182410
719.442	0.0183088
719.520	0.0182320
719.598	0.0182435
719.676	0.0181826
719.754	0.0182671
719.832	0.0183198
719.910	0.0180246
719.988	0.0179224
720.067	0.0178739
720.145	0.0178833
720.223	0.0177896
720.301	0.0177708
720.379	0.0178466
720.457	0.0176171
720.535	0.0175775
720.613	0.0175455
720.692	0.0175315
720.770	0.0174913
720.848	0.0173148
720.926	0.0174741
721.004	0.0174243
721.082	0.0174606
721.160	0.0172845
721.238	0.0172328
721.317	0.0174893
721.395	0.0174112
721.473	0.0172966
721.551	0.0173853
721.629	0.0174836
721.707	0.0175049
721.785	0.0173690
721.863	0.0173597
721.942	0.0174639
722.020	0.0175100
722.098	0.0174278
722.176	0.0174725
722.254	0.0175437
722.332	0.0175374
722.410	0.0175146
722.488	0.0175819
722.567	0.0178078
722.645	0.0179913
722.723	0.0181578
722.801	0.0183111
722.879	0.0182209
722.957	0.0185640
723.035	0.0185626
723.113	0.0186945
723.192	0.0188818
723.270	0.0188995
723.348	0.0189323
723.426	0.0189320
723.504	0.0187554
723.582	0.0188232
723.660	0.0186331
723.738	0.0185957
723.817	0.0185361
723.895	0.0183690
723.973	0.0181590
724.051	0.0179534
724.129	0.0177320
724.207	0.0176234
724.285	0.0175175
724.363	0.0174094
724.442	0.0172808
724.520	0.0172079
724.598	0.0172257
724.676	0.0172352
724.754	0.0172296
724.832	0.0172542
724.910	0.0173497
724.988	0.0172875
725.067	0.0175495
725.145	0.0175222
725.223	0.0177237
725.301	0.0176936
725.379	0.0178310
725.457	0.0179529
725.535	0.0178841
725.613	0.0179793
725.692	0.0180692
725.770	0.0180653
725.848	0.0179877
725.926	0.0180830
726.004	0.0179502
726.082	0.0178489
726.160	0.0179087
726.238	0.0179451
726.317	0.0178842
726.395	0.0178813
726.473	0.0177533
726.551	0.0178112
726.629	0.0177119
726.707	0.0177670
726.785	0.0178168
726.863	0.0178924
726.942	0.0179168
727.020	0.0180352
727.098	0.0178857
727.176	0.0179851
727.254	0.0181625
727.332	0.0180752
727.410	0.0180226
727.488	0.0180588
727.567	0.0180241
727.645	0.0180151
727.723	0.0180940
727.801	0.0179833
727.879	0.0180457
727.957	0.0181067
728.035	0.0181881
728.113	0.0180955
728.192	0.0181335
728.270	0.0181931
728.348	0.0182336
728.426	0.0182664
728.504	0.0183633
728.582	0.0181433
728.660	0.0183213
728.738	0.0182715
728.817	0.0182854
728.895	0.0181358
728.973	0.0181777
729.051	0.0178420
729.129	0.0178204
729.207	0.0178641
729.285	0.0178683
729.363	0.0176933
729.442	0.0178320
729.520	0.0177749
729.598	0.0175629
729.676	0.0177703
729.754	0.0178562
729.832	0.0178763
729.910	0.0179509
729.988	0.0178899
730.067	0.0180522
730.145	0.0180004
730.223	0.0179787
730.301	0.0180299
730.379	0.0179858
730.457	0.0179590
730.535	0.0178799
730.613	0.0178475
730.692	0.0176014
730.770	0.0177222
730.848	0.0175499
730.926	0.0175370
731.004	0.0175910
731.082	0.0173951
731.160	0.0173981
731.238	0.0174099
731.317	0.0172687
731.395	0.0174597
731.473	0.0174229
731.551	0.0175684
731.629	0.0175252
731.707	0.0177840
731.785	0.0177153
731.863	0.0177216
731.942	0.0177536
732.020	0.0177769
732.098	0.0178324
732.176	0.0178117
732.254	0.0177641
732.332	0.0176304
732.410	0.0176001
732.488	0.0177773
732.567	0.0176373
732.645	0.0176105
732.723	0.0174411
732.801	0.0175031
732.879	0.0174830
732.957	0.0173706
733.035	0.0176160
733.113	0.0176121
733.192	0.0174994
733.270	0.0174736
733.348	0.0177824
733.426	0.0178638
733.504	0.0176901
733.582	0.0176817
733.660	0.0179009
733.738	0.0180470
733.817	0.0178532
733.895	0.0180608
733.973	0.0181477
734.051	0.0182162
734.129	0.0183282
734.207	0.0186141
734.285	0.0185875
734.363	0.0184928
734.442	0.0187057
734.520	0.0187211
734.598	0.0186755
734.676	0.0187961
734.754	0.0186543
734.832	0.0187157
734.910	0.0187614
734.988	0.0187038
735.067	0.0186488
735.145	0.0185491
735.223	0.0183971
735.301	0.0184345
735.379	0.0184038
735.457	0.0184420
735.535	0.0184599
735.613	0.0184045
735.692	0.0185168
735.770	0.0183794
735.848	0.0183000
735.926	0.0182409
736.004	0.0182558
736.082	0.0181294
736.160	0.0182420
736.238	0.0181509
736.317	0.0181278
736.395	0.0180319
736.473	0.0179617
736.551	0.0177319
736.629	0.0176710
736.707	0.0175798
736.785	0.0173442
736.863	0.0174352
736.942	0.0171474
737.020	0.0170324
737.098	0.0170480
737.176	0.0170058
737.254	0.0171452
737.332	0.0169730
737.410	0.0169695
737.488	0.0170374
737.567	0.0170744
737.645	0.0172600
737.723	0.0172989
737.801	0.0174455
737.879	0.0174677
737.957	0.0174943
738.035	0.0176060
738.113	0.0175692
738.192	0.0174005
738.270	0.0174109
738.348	0.0173470
738.426	0.0174974
738.504	0.0175177
738.582	0.0171979
738.660	0.0173199
738.738	0.0174476
738.817	0.0172385
738.895	0.0172745
738.973	0.0174094
739.051	0.0174535
739.129	0.0175487
739.207	0.0177431
739.285	0.0177066
739.363	0.0176567
739.442	0.0178262
739.520	0.0177870
739.598	0.0178793
739.676	0.0180103
739.754	0.0178535
739.832	0.0180314
739.910	0.0179819
739.988	0.0180199
740.067	0.0180894
740.145	0.0182217
740.223	0.0182912
740.301	0.0184853
740.379	0.0185670
740.457	0.0187572
740.535	0.0186430
740.613	0.0187314
740.692	0.0188639
740.770	0.0190443
740.848	0.0190038
740.926	0.0190849
741.004	0.0190605
741.082	0.0189404
741.160	0.0190003
741.238	0.0190638
741.317	0.0189124
741.395	0.0186968
741.473	0.0187143
741.551	0.0187280
741.629	0.0186031
741.707	0.0186492
741.785	0.0186628
741.863	0.0186198
741.942	0.0184953
742.020	0.0183718
742.098	0.0181911
742.176	0.0182897
742.254	0.0182423
742.332	0.0180406
742.410	0.0180405
742.488	0.0179948
742.567	0.0177791
742.645	0.0177473
742.723	0.0176912
742.801	0.0176723
742.879	0.0177116
742.957	0.0176923
743.035	0.0176387
743.113	0.0176220
743.192	0.0177573
743.270	0.0178654
743.348	0.0177769
743.426	0.0177272
743.504	0.0177832
743.582	0.0177659
743.660	0.0177836
743.738	0.0175033
743.817	0.0177172
743.895	0.0177415
743.973	0.0175221
744.051	0.0176118
744.129	0.0172733
744.207	0.0172816
744.285	0.0172972
744.363	0.0171637
744.442	0.0169177
744.520	0.0167673
744.598	0.0167760
744.676	0.0167816
744.754	0.0165897
744.832	0.0166837
744.910	0.0166892
744.988	0.0167710
745.067	0.0168776
745.145	0.0170348
745.223	0.0172588
745.301	0.0172469
745.379	0.0174921
745.457	0.0176906
745.535	0.0179182
745.613	0.0181152
745.692	0.0180907
745.770	0.0181595
745.848	0.0181342
745.926	0.0182344
746.004	0.0182107
746.082	0.0182523
746.160	0.0181854
746.238	0.0180978
746.317	0.0180417
746.395	0.0180095
746.473	0.0179127
746.551	0.0177637
746.629	0.0179173
746.707	0.0177930
746.785	0.0177560
746.863	0.0179478
746.942	0.0179092
747.020	0.0180712
747.098	0.0181690
747.176	0.0183006
747.254	0.0185053
747.332	0.0185502
747.410	0.0185594
747.488	0.0187867
747.567	0.0188755
747.645	0.0189905
747.723	0.0189442
747.801	0.0189392
747.879	0.0188254
747.957	0.0188605
748.035	0.0187189
748.113	0.0186421
748.192	0.0185574
748.270	0.0184022
748.348	0.0184009
748.426	0.0184890
748.504	0.0184242
748.582	0.0184441
748.660	0.0183833
748.738	0.0184823
748.817	0.0185004
748.895	0.0183244
748.973	0.0184167
749.051	0.0183613
749.129	0.0185404
749.207	0.0184776
749.285	0.0184547
749.363	0.0183966
749.442	0.0183965
749.520	0.0183959
749.598	0.0180754
749.676	0.0179973
749.754	0.0177632
749.832	0.0176751
749.910	0.0174448
749.988	0.0174240
750.067	0.0170947
750.145	0.0168409
750.223	0.0167307
750.301	0.0167171
750.379	0.0166646
750.457	0.0166067
750.535	0.0166802
750.613	0.0167999
750.692	0.0168645
750.770	0.0170912
750.848	0.0171709
750.926	0.0174129
751.004	0.0175053
751.082	0.0175863
751.160	0.0177245
751.238	0.0178391
751.317	0.0179099
751.395	0.0179194
751.473	0.0178938
751.551	0.0179021
751.629	0.0178657
751.707	0.0177509
751.785	0.0175899
751.863	0.0175030
751.942	0.0174410
752.020	0.0173123
752.098	0.0170531
752.176	0.0170215
752.254	0.0168221
752.332	0.0169455
752.410	0.0167577
752.488	0.0167120
752.567	0.0167113
752.645	0.0169088
752.723	0.0170451
752.801	0.0171664
752.879	0.0174034
752.957	0.0175948
753.035	0.0178226
753.113	0.0178085
753.192	0.0180707
753.270	0.0182673
753.348	0.0184296
753.426	0.0184531
753.504	0.0186118
753.582	0.0187314
753.660	0.0188805
753.738	0.0189510
753.817	0.0189285
753.895	0.0187378
753.973	0.0188153
754.051	0.0186461
754.129	0.0185406
754.207	0.0184654
754.285	0.0183055
754.363	0.0183534
754.442	0.0180883
754.520	0.0179336
754.598	0.0179829
754.676	0.0177646
754.754	0.0177847
754.832	0.0178457
754.910	0.0176382
754.988	0.0177007
755.067	0.0178174
755.145	0.0179113
755.223	0.0180336
755.301	0.0179546
755.379	0.0179933
755.457	0.0181606
755.535	0.0183105
755.613	0.0183984
755.692	0.0184261
755.770	0.0184341
755.848	0.0184948
755.926	0.0186137
756.004	0.0186476
756.082	0.0187032
756.160	0.0186338
756.238	0.0185587
756.317	0.0187395
756.395	0.0186723
756.473	0.0186575
756.551	0.0186797
756.629	0.0185829
756.707	0.0186339
756.785	0.0187383
756.863	0.0186309
756.942	0.0185641
757.020	0.0184588
757.098	0.0183139
757.176	0.0182662
757.254	0.0182170
757.332	0.0181389
757.410	0.0180296
757.488	0.0178166
757.567	0.0178487
757.645	0.0176658
757.723	0.0175307
757.801	0.0174649
757.879	0.0173801
757.957	0.0171973
758.035	0.0173074
758.113	0.0171265
758.192	0.0169939
758.270	0.0172025
758.348	0.0171829
758.426	0.0170844
758.504	0.0171668
758.582	0.0172014
758.660	0.0173048
758.738	0.0172951
758.817	0.0172471
758.895	0.0174277
758.973	0.0173911
759.051	0.0173779
759.129	0.0173949
759.207	0.0172630
759.285	0.0172506
759.363	0.0172079
759.442	0.0171419
759.520	0.0169778
759.598	0.0169084
759.676	0.0167709
759.754	0.0167585
759.832	0.0167512
759.910	0.0166125
759.988	0.0166893
760.067	0.0167236
760.145	0.0165911
760.223	0.0167964
760.301	0.0170860
760.379	0.0171026
760.457	0.0173224
760.535	0.0176362
760.613	0.0175867
760.692	0.0179053
760.770	0.0183141
760.848	0.0185091
760.926	0.0186446
761.004	0.0188474
761.082	0.0191145
761.160	0.0192832
761.238	0.0195248
761.317	0.0194015
761.395	0.0195840
761.473	0.0194405
761.551	0.0193417
761.629	0.0191927
761.707	0.0191058
761.785	0.0190707
761.863	0.0188589
761.942	0.0186192
762.020	0.0184943
762.098	0.0182674
762.176	0.0183481
762.254	0.0181074
762.332	0.0179978
762.410	0.0178727
762.488	0.0179892
762.567	0.0177534
762.645	0.0177981
762.723	0.0178777
762.801	0.0178800
762.879	0.0179368
762.957	0.0178995
763.035	0.0178816
763.113	0.0179886
763.192	0.0181194
763.270	0.0183498
763.348	0.0182666
763.426	0.0185349
763.504	0.0186407
763.582	0.0188490
763.660	0.0188009
763.738	0.0190162
763.817	0.0190482
763.895	0.0189875
763.973	0.0192668
764.051	0.0190594
764.129	0.0191051
764.207	0.0192619
764.285	0.0189655
764.363	0.0190980
764.442	0.0187402
764.520	0.0186541
764.598	0.0184846
764.676	0.0183682
764.754	0.0180915
764.832	0.0180273
764.910	0.0178278
764.988	0.0177005
765.067	0.0174139
765.145	0.0171717
765.223	0.0171136
765.301	0.0169881
765.379	0.0167326
765.457	0.0167903
765.535	0.0168257
765.613	0.0167407
765.692	0.0167643
765.770	0.0167037
765.848	0.0169937
765.926	0.0170150
766.004	0.0170161
766.082	0.0171486
766.160	0.0172235
766.238	0.0172436
766.317	0.0170775
766.395	0.0171574
766.473	0.0172324
766.551	0.0171203
766.629	0.0171729
766.707	0.0171234
766.785	0.0170756
766.863	0.0169766
766.942	0.0168964
767.020	0.0168710
767.098	0.0167625
767.176	0.0167512
767.254	0.0165761
767.332	0.0166032
767.410	0.0166521
767.488	0.0167525
767.567	0.0169207
767.645	0.0169127
767.723	0.0169398
767.801	0.0172874
767.879	0.0173594
767.957	0.0176396
768.035	0.0178690
768.113	0.0181955
768.192	0.0183736
768.270	0.0186677
768.348	0.0188694
768.426	0.0191129
768.504	0.0190616
768.582	0.0194305
768.660	0.0194432
768.738	0.0194955
768.817	0.0194409
768.895	0.0194292
768.973	0.0194807
769.051	0.0193285
769.129	0.0191989
769.207	0.0190052
769.285	0.0185957
769.363	0.0183891
769.442	0.0182156
769.520	0.0180097
769.598	0.0178046
769.676	0.0178222
769.754	0.0177253
769.832	0.0176965
769.910	0.0174998
769.988	0.0175311
770.067	0.0176199
770.145	0.0176291
770.223	0.0177688
770.301	0.0180167
770.379	0.0179572
770.457	0.0177885
770.535	0.0180138
770.613	0.0182914
770.692	0.0183648
770.770	0.0184933
770.848	0.0185677
770.926	0.0186234
771.004	0.0186594
771.082	0.0187849
771.160	0.0189699
771.238	0.0190284
771.317	0.0188020
771.395	0.0190547
771.473	0.0190150
771.551	0.0188759
771.629	0.0189257
771.707	0.0186837
771.785	0.0187723
771.863	0.0186736
771.942	0.0186494
772.020	0.0185984
772.098	0.0183389
772.176	0.0182658
772.254	0.0184174
772.332	0.0181277
772.410	0.0181847
772.488	0.0181736
772.567	0.0178864
772.645	0.0178963
772.723	0.0178740
772.801	0.0176389
772.879	0.0176061
772.957	0.0175275
773.035	0.0172807
773.113	0.0172785
773.192	0.0169135
773.270	0.0167717
773.348	0.0167189
773.426	0.0164606
773.504	0.0163691
773.582	0.0163590
773.660	0.0163681
773.738	0.0162228
773.817	0.0161358
773.895	0.0162177
773.973	0.0162877
774.051	0.0162433
774.129	0.0162936
774.207	0.0163660
774.285	0.0165330
774.363	0.0166028
774.442	0.0166915
774.520	0.0167223
774.598	0.0167503
774.676	0.0167396
774.754	0.0169929
774.832	0.0170406
774.910	0.0171204
774.988	0.0172783
775.067	0.0172782
775.145	0.0173907
775.223	0.0175256
775.301	0.0174756
775.379	0.0176956
775.457	0.0177271
775.535	0.0177962
775.613	0.0182088
775.692	0.0182727
775.770	0.0182780
775.848	0.0185873
775.926	0.0187996
776.004	0.0189448
776.082	0.0191000
776.160	0.0191066
776.238	0.0191415
776.317	0.0191534
776.395	0.0191805
776.473	0.0192564
776.551	0.0191686
776.629	0.0189323
776.707	0.0187910
776.785	0.0186275
776.863	0.0184992
776.942	0.0183035
777.020	0.0183338
777.098	0.0180708
777.176	0.0179273
777.254	0.0179202
777.332	0.0177701
777.410	0.0179000
777.488	0.0178013
777.567	0.0179148
777.645	0.0179365
777.723	0.0179533
777.801	0.0180957
777.879	0.0182483
777.957	0.0183118
778.035	0.0183657
778.113	0.0184414
778.192	0.0186419
778.270	0.0187978
778.348	0.0189449
778.426	0.0190318
778.504	0.0189624
778.582	0.0191098
778.660	0.0190755
778.738	0.0194071
778.817	0.0192191
778.895	0.0190796
778.973	0.0190622
779.051	0.0190775
779.129	0.0188777
779.207	0.0188215
779.285	0.0186997
779.363	0.0186585
779.442	0.0185372
779.520	0.0183678
779.598	0.0184603
779.676	0.0182845
779.754	0.0182137
779.832	0.0181199
779.910	0.0179623
779.988	0.0180621
780.067	0.0179701
780.145	0.0178417
780.223	0.0178962
780.301	0.0177023
780.379	0.0175295
780.457	0.0173714
780.535	0.0175287
780.613	0.0173621
780.692	0.0172752
780.770	0.0170468
780.848	0.0169493
780.926	0.0168900
781.004	0.0167567
781.082	0.0167823
781.160	0.0165622
781.238	0.0164915
781.317	0.0162531
781.395	0.0162603
781.473	0.0162061
781.551	0.0160820
781.629	0.0161049
781.707	0.0161189
781.785	0.0160548
781.863	0.0159888
781.942	0.0161123
782.020	0.0162024
782.098	0.0162863
782.176	0.0163525
782.254	0.0164295
782.332	0.0167190
782.410	0.0168850
782.488	0.0168421
782.567	0.0171392
782.645	0.0173132
782.723	0.0172984
782.801	0.0176694
782.879	0.0177283
782.957	0.0178229
783.035	0.0180334
783.113	0.0181408
783.192	0.0183697
783.270	0.0184566
783.348	0.0184700
783.426	0.0189300
783.504	0.0189001
783.582	0.0189644
783.660	0.0190072
783.738	0.0190182
783.817	0.0191831
783.895	0.0191378
783.973	0.0190141
784.051	0.0189545
784.129	0.0189988
784.207	0.0188605
784.285	0.0186872
784.363	0.0187180
784.442	0.0186009
784.520	0.0185883
784.598	0.0184843
784.676	0.0186528
784.754	0.0185060
784.832	0.0184608
784.910	0.0184328
784.988	0.0185534
785.067	0.0183892
785.145	0.0183805
785.223	0.0184441
785.301	0.0184638
785.379	0.0186440
785.457	0.0185641
785.535	0.0187426
785.613	0.0187721
785.692	0.0187418
785.770	0.0189614
785.848	0.0188852
785.926	0.0190102
786.004	0.0191356
786.082	0.0189227
786.160	0.0190028
786.238	0.0188760
786.317	0.0187793
786.395	0.0186362
786.473	0.0185955
786.551	0.0185872
786.629	0.0184515
786.707	0.0183933
786.785	0.0183585
786.863	0.0180347
786.942	0.0180965
787.020	0.0178475
787.098	0.0178373
787.176	0.0179627
787.254	0.0178954
787.332	0.0178661
787.410	0.0178408
787.488	0.0178963
787.567	0.0179961
787.645	0.0179074
787.723	0.0178280
787.801	0.0178819
787.879	0.0178611
787.957	0.0178204
788.035	0.0176301
788.113	0.0177948
788.192	0.0176074
788.270	0.0174187
788.348	0.0173983
788.426	0.0172418
788.504	0.0169887
788.582	0.0169193
788.660	0.0167657
788.738	0.0166697
788.817	0.0165853
788.895	0.0165784
788.973	0.0163298
789.051	0.0163414
789.129	0.0162002
789.207	0.0161883
789.285	0.0159531
789.363	0.0160541
789.442	0.0161146
789.520	0.0161693
789.598	0.0163721
789.676	0.0164985
789.754	0.0165038
789.832	0.0166781
789.910	0.0168500
789.988	0.0171162
790.067	0.0173325
790.145	0.0174905
790.223	0.0175407
790.301	0.0176883
790.379	0.0178768
790.457	0.0180464
790.535	0.0182476
790.613	0.0182807
790.692	0.0183036
790.770	0.0184603
790.848	0.0184603
790.926	0.0186488
791.004	0.0186250
791.082	0.0185755
791.160	0.0188000
791.238	0.0187843
791.317	0.0186608
791.395	0.0187668
791.473	0.0186029
791.551	0.0185579
791.629	0.0185396
791.707	0.0184976
791.785	0.0184618
791.863	0.0185072
791.942	0.0183209
792.020	0.0183309
792.098	0.0183305
792.176	0.0180650
792.254	0.0181380
792.332	0.0181779
792.410	0.0182387
792.488	0.0182690
792.567	0.0182103
792.645	0.0183363
792.723	0.0182296
792.801	0.0184878
792.879	0.0184998
792.957	0.0184780
793.035	0.0187288
793.113	0.0188848
793.192	0.0188923
793.270	0.0189466
793.348	0.0190884
793.426	0.0190466
793.504	0.0192142
793.582	0.0191534
793.660	0.0192321
793.738	0.0192920
793.817	0.0192102
793.895	0.0191367
793.973	0.0191602
794.051	0.0191305
794.129	0.0189948
794.207	0.0189269
794.285	0.0187070
794.363	0.0187810
794.442	0.0187811
794.520	0.0185653
794.598	0.0182710
794.676	0.0184213
794.754	0.0183677
794.832	0.0182574
794.910	0.0180684
794.988	0.0178783
795.067	0.0178091
795.145	0.0175928
795.223	0.0177015
795.301	0.0174811
795.379	0.0172816
795.457	0.0172668
795.535	0.0172016
795.613	0.0170527
795.692	0.0169342
795.770	0.0168629
795.848	0.0166518
795.926	0.0165504
796.004	0.0165425
796.082	0.0165296
796.160	0.0163110
796.238	0.0163285
796.317	0.0162489
796.395	0.0162551
796.473	0.0162326
796.551	0.0162773
796.629	0.0162337
796.707	0.0162292
796.785	0.0161654
796.863	0.0163196
796.942	0.0164386
797.020	0.0163331
797.098	0.0163862
797.176	0.0166008
797.254	0.0167321
797.332	0.0166924
797.410	0.0168516
797.488	0.0169641
797.567	0.0171591
797.645	0.0172517
797.723	0.0173342
797.801	0.0173847
797.879	0.0176121
797.957	0.0177377
798.035	0.0179452
798.113	0.0181529
798.192	0.0182344
798.270	0.0183074
798.348	0.0183907
798.426	0.0185724
798.504	0.0184211
798.582	0.0187722
798.660	0.0188998
798.738	0.0188750
798.817	0.0188126
798.895	0.0189023
798.973	0.0188774
799.051	0.0191106
799.129	0.0191505
799.207	0.0190064
799.285	0.0189238
799.363	0.0190028
799.442	0.0187808
799.520	0.0188597
799.598	0.0188300
799.676	0.0186209
799.754	0.0186733
799.832	0.0185135
799.910	0.0184128
799.988	0.0182216
800.067	0.0183286
800.145	0.0182891
800.223	0.0181291
800.301	0.0181010
800.379	0.0182229
800.457	0.0181480
800.535	0.0181862
800.613	0.0181517
800.692	0.0181271
800.770	0.0182023
800.848	0.0183071
800.926	0.0184003
801.004	0.0184248
801.082	0.0185065
801.160	0.0184074
801.238	0.0185559
801.317	0.0185223
801.395	0.0186145
801.473	0.0186143
801.551	0.0184711
801.629	0.0185254
801.707	0.0183443
801.785	0.0184629
801.863	0.0184027
801.942	0.0181590
802.020	0.0182185
802.098	0.0183141
802.176	0.0181945
802.254	0.0182312
802.332	0.0181736
802.410	0.0181322
802.488	0.0179836
802.567	0.0181264
802.645	0.0179375
802.723	0.0178858
802.801	0.0180334
802.879	0.0178429
802.957	0.0177772
803.035	0.0176653
803.113	0.0177412
803.192	0.0175940
803.270	0.0174240
803.348	0.0173878
803.426	0.0174194
803.504	0.0172217
803.582	0.0171986
803.660	0.0170879
803.738	0.0168850
803.817	0.0169160
803.895	0.0168143
803.973	0.0167683
804.051	0.0168568
804.129	0.0167387
804.207	0.0166975
804.285	0.0169009
804.363	0.0167403
804.442	0.0166327
804.520	0.0167233
804.598	0.0167590
804.676	0.0168824
804.754	0.0168671
804.832	0.0170938
804.910	0.0170454
804.988	0.0171395
805.067	0.0172465
805.145	0.0174083
805.223	0.0175697
805.301	0.0176336
805.379	0.0176927
805.457	0.0177218
805.535	0.0177576
805.613	0.0179136
805.692	0.0180950
805.770	0.0179256
805.848	0.0179529
805.926	0.0180103
806.004	0.0181899
806.082	0.0180675
806.160	0.0179649
806.238	0.0181120
806.317	0.0180526
806.395	0.0180445
806.473	0.0180223
806.551	0.0181049
806.629	0.0181641
806.707	0.0182106
806.785	0.0181993
806.863	0.0181964
806.942	0.0182642
807.020	0.0182043
807.098	0.0184730
807.176	0.0182916
807.254	0.0184000
807.332	0.0184769
807.410	0.0185638
807.488	0.0188100
807.567	0.0186801
807.645	0.0185876
807.723	0.0186759
807.801	0.0188265
807.879	0.0188668
807.957	0.0188971
808.035	0.0187676
808.113	0.0189085
808.192	0.0190107
808.270	0.0186980
808.348	0.0187502
808.426	0.0188749
808.504	0.0189571
808.582	0.0187823
808.660	0.0186997
808.738	0.0187154
808.817	0.0186388
808.895	0.0187138
808.973	0.0186144
809.051	0.0185049
809.129	0.0186787
809.207	0.0186863
809.285	0.0185968
809.363	0.0185469
809.442	0.0185143
809.520	0.0185557
809.598	0.0183388
809.676	0.0184388
809.754	0.0184152
809.832	0.0183364
809.910	0.0183208
809.988	0.0183724
810.067	0.0182710
810.145	0.0180869
810.223	0.0180296
810.301	0.0178796
810.379	0.0177164
810.457	0.0177476
810.535	0.0176266
810.613	0.0175506
810.692	0.0174585
810.770	0.0172680
810.848	0.0171100
810.926	0.0171241
811.004	0.0169553
811.082	0.0168715
811.160	0.0167940
811.238	0.0167229
811.317	0.0168726
811.395	0.0166297
811.473	0.0166197
811.551	0.0165095
811.629	0.0165371
811.707	0.0166784
811.785	0.0165448
811.863	0.0167117
811.942	0.0167446
812.020	0.0166914
812.098	0.0166325
812.176	0.0166607
812.254	0.0167966
812.332	0.0168488
812.410	0.0168457
812.488	0.0169541
812.567	0.0170865
812.645	0.0170914
812.723	0.0172603
812.801	0.0173840
812.879	0.0174010
812.957	0.0175281
813.035	0.0176776
813.113	0.0176083
813.192	0.0179277
813.270	0.0181808
813.348	0.0181391
813.426	0.0182113
813.504	0.0182673
813.582	0.0183290
813.660	0.0183801
813.738	0.0183392
813.817	0.0184672
813.895	0.0185032
813.973	0.0186053
814.051	0.0186349
814.129	0.0184583
814.207	0.0184339
814.285	0.0183467
814.363	0.0184794
814.442	0.0184615
814.520	0.0185059
814.598	0.0185104
814.676	0.0183853
814.754	0.0183582
814.832	0.0183958
814.910	0.0183880
814.988	0.0184880
815.067	0.0184953
815.145	0.0185912
815.223	0.0186019
815.301	0.0185874
815.379	0.0185931
815.457	0.0187534
815.535	0.0186981
815.613	0.0187038
815.692	0.0186214
815.770	0.0187357
815.848	0.0186996
815.926	0.0186141
816.004	0.0187303
816.082	0.0186655
816.160	0.0185155
816.238	0.0183087
816.317	0.0183363
816.395	0.0182204
816.473	0.0181092
816.551	0.0181936
816.629	0.0180695
816.707	0.0180412
816.785	0.0180029
816.863	0.0179618
816.942	0.0178588
817.020	0.0180034
817.098	0.0180287
817.176	0.0180408
817.254	0.0180309
817.332	0.0179216
817.410	0.0180213
817.488	0.0179128
817.567	0.0178144
817.645	0.0179691
817.723	0.0179032
817.801	0.0178751
817.879	0.0179076
817.957	0.0177653
818.035	0.0177422
818.113	0.0176794
818.192	0.0175734
818.270	0.0176534
818.348	0.0178448
818.426	0.0176326
818.504	0.0174807
818.582	0.0175439
818.660	0.0173198
818.738	0.0173704
818.817	0.0172594
818.895	0.0170777
818.973	0.0171253
819.051	0.0171008
819.129	0.0170216
819.207	0.0169569
819.285	0.0170312
819.363	0.0170609
819.442	0.0169262
819.520	0.0171553
819.598	0.0171342
819.676	0.0171047
819.754	0.0170621
819.832	0.0171042
819.910	0.0170621
819.988	0.0171853
820.067	0.0172254
820.145	0.0172480
820.223	0.0173221
820.301	0.0174023
820.379	0.0174180
820.457	0.0174885
820.535	0.0176569
820.613	0.0178084
820.692	0.0178665
820.770	0.0177874
820.848	0.0180419
820.926	0.0180609
821.004	0.0181761
821.082	0.0181788
821.160	0.0181944
821.238	0.0184094
821.317	0.0182682
821.395	0.0182629
821.473	0.0184400
821.551	0.0183371
821.629	0.0182166
821.707	0.0182239
821.785	0.0182664
821.863	0.0183101
821.942	0.0181478
822.020	0.0182198
822.098	0.0181596
822.176	0.0179678
822.254	0.0180314
822.332	0.0180228
822.410	0.0181251
822.488	0.0180952
822.567	0.0180292
822.645	0.0181960
822.723	0.0181727
822.801	0.0182280
822.879	0.0182986
822.957	0.0183888
823.035	0.0184888
823.113	0.0184447
823.192	0.0185269
823.270	0.0186246
823.348	0.0187530
823.426	0.0186531
823.504	0.0187632
823.582	0.0186012
823.660	0.0186424
823.738	0.0186387
823.817	0.0184808
823.895	0.0184777
823.973	0.0184461
824.051	0.0186121
824.129	0.0183885
824.207	0.0183455
824.285	0.0183932
824.363	0.0183569
824.442	0.0184933
824.520	0.0182769
824.598	0.0180238
824.676	0.0181416
824.754	0.0181644
824.832	0.0179980
824.910	0.0179621
824.988	0.0179719
825.067	0.0179955
825.145	0.0179791
825.223	0.0179139
825.301	0.0178153
825.379	0.0178223
825.457	0.0177929
825.535	0.0177565
825.613	0.0178320
825.692	0.0177455
825.770	0.0177796
825.848	0.0177584
825.926	0.0176492
826.004	0.0176604
826.082	0.0175255
826.160	0.0175168
826.238	0.0173639
826.317	0.0173713
826.395	0.0173814
826.473	0.0173058
826.551	0.0171900
826.629	0.0171827
826.707	0.0171378
826.785	0.0171888
826.863	0.0169780
826.942	0.0170528
827.020	0.0170589
827.098	0.0169210
827.176	0.0172184
827.254	0.0170747
827.332	0.0170300
827.410	0.0171516
827.488	0.0171202
827.567	0.0171787
827.645	0.0172903
827.723	0.0173848
827.801	0.0172940
827.879	0.0174509
827.957	0.0175021
828.035	0.0175108
828.113	0.0175046
828.192	0.0176711
828.270	0.0177027
828.348	0.0176855
828.426	0.0178662
828.504	0.0178501
828.582	0.0180309
828.660	0.0180235
828.738	0.0180782
828.817	0.0183055
828.895	0.0182314
828.973	0.0183597
829.051	0.0183833
829.129	0.0184480
829.207	0.0184107
829.285	0.0185706
829.363	0.0183814
829.442	0.0182887
829.520	0.0183411
829.598	0.0182670
829.676	0.0183036
829.754	0.0182628
829.832	0.0181858
829.910	0.0181073
829.988	0.0180905
830.067	0.0180910
830.145	0.0181645
830.223	0.0180620
830.301	0.0180853
830.379	0.0181622
830.457	0.0181151
830.535	0.0181187
830.613	0.0180737
830.692	0.0181466
830.770	0.0181196
830.848	0.0183665
830.926	0.0182000
831.004	0.0182693
831.082	0.0183526
831.160	0.0184030
831.238	0.0184451
831.317	0.0184930
831.395	0.0184937
831.473	0.0185187
831.551	0.0186462
831.629	0.0186519
831.707	0.0183770
831.785	0.0184100
831.863	0.0183644
831.942	0.0184257
832.020	0.0183017
832.098	0.0183092
832.176	0.0182304
832.254	0.0180701
832.332	0.0180980
832.410	0.0180599
832.488	0.0178987
832.567	0.0178278
832.645	0.0177431
832.723	0.0175969
832.801	0.0175921
832.879	0.0176247
832.957	0.0177022
833.035	0.0174686
833.113	0.0175258
833.192	0.0175629
833.270	0.0174532
833.348	0.0174181
833.426	0.0175971
833.504	0.0176005
833.582	0.0175505
833.660	0.0173983
833.738	0.0175732
833.817	0.0175178
833.895	0.0173900
833.973	0.0175412
834.051	0.0176390
834.129	0.0175878
834.207	0.0176689
834.285	0.0174846
834.363	0.0176460
834.442	0.0177594
834.520	0.0176337
834.598	0.0175616
834.676	0.0175455
834.754	0.0176097
834.832	0.0176035
834.910	0.0175976
834.988	0.0177979
835.067	0.0175636
835.145	0.0175185
835.223	0.0175223
835.301	0.0175635
835.379	0.0176430
835.457	0.0176830
835.535	0.0176155
835.613	0.0176646
835.692	0.0177596
835.770	0.0177650
835.848	0.0177090
835.926	0.0177303
836.004	0.0179326
836.082	0.0178688
836.160	0.0181022
836.238	0.0179391
836.317	0.0179507
836.395	0.0181353
836.473	0.0180538
836.551	0.0181693
836.629	0.0182836
836.707	0.0181351
836.785	0.0184705
836.863	0.0182970
836.942	0.0182776
837.020	0.0182699
837.098	0.0184618
837.176	0.0184553
837.254	0.0183394
837.332	0.0182728
837.410	0.0182722
837.488	0.0182732
837.567	0.0182303
837.645	0.0181863
837.723	0.0181711
837.801	0.0181337
837.879	0.0180072
837.957	0.0179188
838.035	0.0179868
838.113	0.0177946
838.192	0.0179545
838.270	0.0178027
838.348	0.0177456
838.426	0.0179359
838.504	0.0178988
838.582	0.0180136
838.660	0.0178785
838.738	0.0179239
838.817	0.0181461
838.895	0.0182035
838.973	0.0181390
839.051	0.0180766
839.129	0.0183271
839.207	0.0183410
839.285	0.0183884
839.363	0.0184193
839.442	0.0184898
839.520	0.0184415
839.598	0.0186137
839.676	0.0185975
839.754	0.0184252
839.832	0.0184724
839.910	0.0184032
839.988	0.0183666
840.067	0.0182160
840.145	0.0182504
840.223	0.0183163
840.301	0.0181854
840.379	0.0181450
840.457	0.0179504
840.535	0.0180293
840.613	0.0180238
840.692	0.0179099
840.770	0.0178337
840.848	0.0177911
840.926	0.0175778
841.004	0.0177090
841.082	0.0176962
841.160	0.0175935
841.238	0.0176335
841.317	0.0176167
841.395	0.0175316
841.473	0.0175011
841.551	0.0175780
841.629	0.0175465
841.707	0.0175936
841.785	0.0177226
841.863	0.0176845
841.942	0.0176480
842.020	0.0175739
842.098	0.0177095
842.176	0.0176234
842.254	0.0175093
842.332	0.0177086
842.410	0.0176502
842.488	0.0175327
842.567	0.0176326
842.645	0.0176757
842.723	0.0176155
842.801	0.0175599
842.879	0.0174133
842.957	0.0175142
843.035	0.0175256
843.113	0.0174684
843.192	0.0175813
843.270	0.0175822
843.348	0.0176368
843.426	0.0176598
843.504	0.0177245
843.582	0.0177644
843.660	0.0176355
843.738	0.0177930
843.817	0.0179539
843.895	0.0180134
843.973	0.0180873
844.051	0.0182487
844.129	0.0181274
844.207	0.0181904
844.285	0.0182285
844.363	0.0183974
844.442	0.0183054
844.520	0.0184384
844.598	0.0184724
844.676	0.0184400
844.754	0.0185095
844.832	0.0186263
844.910	0.0185188
844.988	0.0184275
845.067	0.0185403
845.145	0.0184463
845.223	0.0183698
845.301	0.0183775
845.379	0.0183630
845.457	0.0182404
845.535	0.0181104
845.613	0.0181184
845.692	0.0180749
845.770	0.0178924
845.848	0.0177876
845.926	0.0177067
846.004	0.0177277
846.082	0.0177066
846.160	0.0176425
846.238	0.0176382
846.317	0.0176270
846.395	0.0176327
846.473	0.0176831
846.551	0.0177135
846.629	0.0177368
846.707	0.0178841
846.785	0.0177660
846.863	0.0178329
846.942	0.0178629
847.020	0.0180718
847.098	0.0179989
847.176	0.0179649
847.254	0.0180460
847.332	0.0180659
847.410	0.0180833
847.488	0.0180802
847.567	0.0182610
847.645	0.0181893
847.723	0.0180633
847.801	0.0179679
847.879	0.0181038
847.957	0.0180367
848.035	0.0179731
848.113	0.0179186
848.192	0.0179064
848.270	0.0179311
848.348	0.0178780
848.426	0.0177919
848.504	0.0178220
848.582	0.0178814
848.660	0.0177138
848.738	0.0177264
848.817	0.0177119
848.895	0.0178148
848.973	0.0176307
849.051	0.0176495
849.129	0.0177390
849.207	0.0175679
849.285	0.0177051
849.363	0.0177343
849.442	0.0178589
849.520	0.0179176
849.598	0.0178622
849.676	0.0177490
849.754	0.0177927
849.832	0.0178587
849.910	0.0180618
849.988	0.0178726
850.067	0.0178150
850.145	0.0178222
850.223	0.0177965
850.301	0.0178630
850.379	0.0177290
850.457	0.0178638
850.535	0.0177041
850.613	0.0177498
850.692	0.0177106
850.770	0.0177883
850.848	0.0176266
850.926	0.0177749
851.004	0.0177570
851.082	0.0177232
851.160	0.0178609
851.238	0.0178324
851.317	0.0176689
851.395	0.0176846
851.473	0.0177730
851.551	0.0177348
851.629	0.0176958
851.707	0.0179451
851.785	0.0178781
851.863	0.0179810
851.942	0.0181664
852.020	0.0181261
852.098	0.0182330
852.176	0.0181371
852.254	0.0182473
852.332	0.0181126
852.410	0.0182014
852.488	0.0183122
852.567	0.0182367
852.645	0.0182491
852.723	0.0182867
852.801	0.0182880
852.879	0.0181670
852.957	0.0179468
853.035	0.0180772
853.113	0.0181356
853.192	0.0180573
853.270	0.0178693
853.348	0.0178358
853.426	0.0177859
853.504	0.0178740
853.582	0.0176389
853.660	0.0178092
853.738	0.0177751
853.817	0.0175992
853.895	0.0177187
853.973	0.0176735
854.051	0.0176015
854.129	0.0175416
854.207	0.0176720
854.285	0.0177032
854.363	0.0176312
854.442	0.0177911
854.520	0.0178384
854.598	0.0178495
854.676	0.0177995
854.754	0.0180554
854.832	0.0178794
854.910	0.0178736
854.988	0.0179929
855.067	0.0180591
855.145	0.0179575
855.223	0.0178997
855.301	0.0180087
855.379	0.0179909
855.457	0.0181202
855.535	0.0180359
855.613	0.0180495
855.692	0.0180215
855.770	0.0179061
855.848	0.0180086
855.926	0.0178381
856.004	0.0179821
856.082	0.0179959
856.160	0.0181446
856.238	0.0179212
856.317	0.0179601
856.395	0.0177999
856.473	0.0178715
856.551	0.0180125
856.629	0.0177818
856.707	0.0178197
856.785	0.0178625
856.863	0.0179008
856.942	0.0179932
857.020	0.0177978
857.098	0.0180582
857.176	0.0178364
857.254	0.0179112
857.332	0.0179816
857.410	0.0179727
857.488	0.0179585
857.567	0.0180422
857.645	0.0178360
857.723	0.0179223
857.801	0.0179178
857.879	0.0179331
857.957	0.0178768
858.035	0.0179556
858.113	0.0179352
858.192	0.0178721
858.270	0.0177836
858.348	0.0179222
858.426	0.0178066
858.504	0.0179559
858.582	0.0179414
858.660	0.0177891
858.738	0.0177744
858.817	0.0179195
858.895	0.0178468
858.973	0.0177074
859.051	0.0178416
859.129	0.0178281
859.207	0.0178333
859.285	0.0179527
859.363	0.0180173
859.442	0.0179570
859.520	0.0180172
859.598	0.0180441
859.676	0.0180499
859.754	0.0180087
859.832	0.0181666
859.910	0.0182189
859.988	0.0182310
860.067	0.0181397
860.145	0.0182289
860.223	0.0183608
860.301	0.0182649
860.379	0.0182340
860.457	0.0181901
860.535	0.0181300
860.613	0.0181489
860.692	0.0181383
860.770	0.0179564
860.848	0.0181656
860.926	0.0179506
861.004	0.0179967
861.082	0.0180088
861.160	0.0177277
861.238	0.0177243
861.317	0.0178147
861.395	0.0178108
861.473	0.0177244
861.551	0.0178142
861.629	0.0177990
861.707	0.0177548
861.785	0.0176664
861.863	0.0176402
861.942	0.0176083
862.020	0.0177015
862.098	0.0176390
862.176	0.0177902
862.254	0.0177746
862.332	0.0177039
862.410	0.0176927
862.488	0.0177816
862.567	0.0176444
862.645	0.0177664
862.723	0.0179655
862.801	0.0178265
862.879	0.0178077
862.957	0.0179324
863.035	0.0179149
863.113	0.0178660
863.192	0.0179549
863.270	0.0179326
863.348	0.0180415
863.426	0.0180117
863.504	0.0180643
863.582	0.0180885
863.660	0.0181021
863.738	0.0182312
863.817	0.0181733
863.895	0.0181806
863.973	0.0181168
864.051	0.0182162
864.129	0.0182317
864.207	0.0182753
864.285	0.0182994
864.363	0.0183378
864.442	0.0182389
864.520	0.0181281
864.598	0.0182369
864.676	0.0181071
864.754	0.0180444
864.832	0.0179487
864.910	0.0180198
864.988	0.0181358
865.067	0.0180323
865.145	0.0179157
865.223	0.0180891
865.301	0.0179996
865.379	0.0178967
865.457	0.0179010
865.535	0.0179112
865.613	0.0178954
865.692	0.0179055
865.770	0.0178627
865.848	0.0178004
865.926	0.0179840
866.004	0.0177733
866.082	0.0179454
866.160	0.0178810
866.238	0.0177649
866.317	0.0178220
866.395	0.0180122
866.473	0.0178458
866.551	0.0177665
866.629	0.0178571
866.707	0.0178522
866.785	0.0178921
866.863	0.0178156
866.942	0.0178375
867.020	0.0179260
867.098	0.0178733
867.176	0.0179491
867.254	0.0178844
867.332	0.0180697
867.410	0.0179432
867.488	0.0179290
867.567	0.0181062
867.645	0.0180723
867.723	0.0180995
867.801	0.0182440
867.879	0.0181507
867.957	0.0181525
868.035	0.0181126
868.113	0.0182102
868.192	0.0182464
868.270	0.0181502
868.348	0.0180922
868.426	0.0180777
868.504	0.0180994
868.582	0.0181064
868.660	0.0180774
868.738	0.0180511
868.817	0.0178857
868.895	0.0180183
868.973	0.0179488
869.051	0.0179875
869.129	0.0179395
869.207	0.0179005
869.285	0.0179195
869.363	0.0179365
869.442	0.0180327
869.520	0.0179322
869.598	0.0178680
869.676	0.0179765
869.754	0.0178134
869.832	0.0177471
869.910	0.0178430
869.988	0.0177021
870.067	0.0177508
870.145	0.0176630
870.223	0.0177370
870.301	0.0176501
870.379	0.0175048
870.457	0.0175310
870.535	0.0174329
870.613	0.0174848
870.692	0.0175234
870.770	0.0175328
870.848	0.0173610
870.926	0.0173244
871.004	0.0175437
871.082	0.0177576
871.160	0.0177731
871.238	0.0176443
871.317	0.0178168
871.395	0.0179568
871.473	0.0178867
871.551	0.0181993
871.629	0.0182288
871.707	0.0182035
871.785	0.0182509
871.863	0.0182465
871.942	0.0182357
872.020	0.0182483
872.098	0.0183610
872.176	0.0184357
872.254	0.0182224
872.332	0.0182179
872.410	0.0183212
872.488	0.0182872
872.567	0.0183057
872.645	0.0181139
872.723	0.0181881
872.801	0.0180675
872.879	0.0181374
872.957	0.0181602
873.035	0.0179850
873.113	0.0179272
873.192	0.0180532
873.270	0.0179247
873.348	0.0180072
873.426	0.0179961
873.504	0.0180344
873.582	0.0179839
873.660	0.0179553
873.738	0.0178913
873.817	0.0179659
873.895	0.0177948
873.973	0.0178749
874.051	0.0178671
874.129	0.0178780
874.207	0.0179598
874.285	0.0179663
874.363	0.0178226
874.442	0.0177993
874.520	0.0178799
874.598	0.0177662
874.676	0.0177441
874.754	0.0177533
874.832	0.0178349
874.910	0.0177146
874.988	0.0177137
875.067	0.0178366
875.145	0.0178592
875.223	0.0178528
875.301	0.0179256
875.379	0.0179568
875.457	0.0179326
875.535	0.0178656
875.613	0.0179647
875.692	0.0181168
875.770	0.0179667
875.848	0.0180412
875.926	0.0179987
876.004	0.0181682
876.082	0.0180415
876.160	0.0179486
876.238	0.0180477
876.317	0.0180417
876.395	0.0180611
876.473	0.0180087
876.551	0.0179913
876.629	0.0180388
876.707	0.0179266
876.785	0.0177650
876.863	0.0177283
876.942	0.0178349
877.020	0.0177551
877.098	0.0176723
877.176	0.0178162
877.254	0.0176718
877.332	0.0176931
877.410	0.0176099
877.488	0.0174882
877.567	0.0175832
877.645	0.0175135
877.723	0.0174781
877.801	0.0173640
877.879	0.0173871
877.957	0.0174220
878.035	0.0174884
878.113	0.0174155
878.192	0.0173916
878.270	0.0174511
878.348	0.0175366
878.426	0.0175450
878.504	0.0175346
878.582	0.0177119
878.660	0.0179250
878.738	0.0178481
878.817	0.0177937
878.895	0.0177448
878.973	0.0178802
879.051	0.0180202
879.129	0.0181522
879.207	0.0182631
879.285	0.0181751
879.363	0.0182224
879.442	0.0183443
879.520	0.0181707
879.598	0.0182415
879.676	0.0181711
879.754	0.0181625
879.832	0.0183303
879.910	0.0182775
879.988	0.0180475
880.067	0.0180848
880.145	0.0182467
880.223	0.0182121
880.301	0.0182261
880.379	0.0179726
880.457	0.0179869
880.535	0.0180167
880.613	0.0180902
880.692	0.0180088
880.770	0.0179756
880.848	0.0180346
880.926	0.0179669
881.004	0.0179596
881.082	0.0180488
881.160	0.0178828
881.238	0.0179321
881.317	0.0178418
881.395	0.0178442
881.473	0.0180430
881.551	0.0179897
881.629	0.0179034
881.707	0.0177976
881.785	0.0178466
881.863	0.0178490
881.942	0.0177425
882.020	0.0178060
882.098	0.0177348
882.176	0.0177412
882.254	0.0177895
882.332	0.0179065
882.410	0.0178645
882.488	0.0179040
882.567	0.0178712
882.645	0.0179243
882.723	0.0178867
882.801	0.0181293
882.879	0.0181190
882.957	0.0180356
883.035	0.0179704
883.113	0.0180318
883.192	0.0181557
883.270	0.0181360
883.348	0.0180560
883.426	0.0179837
883.504	0.0181642
883.582	0.0179712
883.660	0.0180689
883.738	0.0179321
883.817	0.0178710
883.895	0.0178802
883.973	0.0179663
884.051	0.0179765
884.129	0.0178725
884.207	0.0177425
884.285	0.0177441
884.363	0.0179126
884.442	0.0177499
884.520	0.0178686
884.598	0.0178835
884.676	0.0177814
884.754	0.0178510
884.832	0.0178237
884.910	0.0180240
884.988	0.0177634
885.067	0.0177866
885.145	0.0178908
885.223	0.0178812
885.301	0.0177625
885.379	0.0177484
885.457	0.0178281
885.535	0.0176122
885.613	0.0176897
885.692	0.0176366
885.770	0.0176026
885.848	0.0175954
885.926	0.0175974
886.004	0.0177665
886.082	0.0175823
886.160	0.0176369
886.238	0.0176577
886.317	0.0176022
886.395	0.0175915
886.473	0.0176447
886.551	0.0178728
886.629	0.0178618
886.707	0.0177377
886.785	0.0179061
886.863	0.0178935
886.942	0.0177614
887.020	0.0179996
887.098	0.0180152
887.176	0.0179565
887.254	0.0180295
887.332	0.0180251
887.410	0.0181370
887.488	0.0180019
887.567	0.0180968
887.645	0.0179536
887.723	0.0179717
887.801	0.0179588
887.879	0.0180587
887.957	0.0180304
888.035	0.0181784
888.113	0.0183113
888.192	0.0181315
888.270	0.0181788
888.348	0.0181317
888.426	0.0181544
888.504	0.0181664
888.582	0.0182758
888.660	0.0182130
888.738	0.0182549
888.817	0.0183827
888.895	0.0181805
888.973	0.0180933
889.051	0.0180988
889.129	0.0182471
889.207	0.0181511
889.285	0.0182140
889.363	0.0180752
889.442	0.0181084
889.520	0.0180864
889.598	0.0180502
889.676	0.0180077
889.754	0.0180138
889.832	0.0181667
889.910	0.0180209
889.988	0.0180327
890.067	0.0180954
890.145	0.0179664
890.223	0.0180581
890.301	0.0181215
890.379	0.0180410
890.457	0.0179609
890.535	0.0179261
890.613	0.0178416
890.692	0.0180022
890.770	0.0178648
890.848	0.0180238
890.926	0.0179416
891.004	0.0179595
891.082	0.0178010
891.160	0.0178056
891.238	0.0178878
891.317	0.0179613
891.395	0.0178748
891.473	0.0177798
891.551	0.0178973
891.629	0.0177814
891.707	0.0177406
891.785	0.0177164
891.863	0.0177544
891.942	0.0177299
892.020	0.0176620
892.098	0.0176806
892.176	0.0177760
892.254	0.0176443
892.332	0.0176771
892.410	0.0176901
892.488	0.0176037
892.567	0.0176096
892.645	0.0176844
892.723	0.0176447
892.801	0.0176796
892.879	0.0176390
892.957	0.0176638
893.035	0.0177937
893.113	0.0176963
893.192	0.0178836
893.270	0.0178490
893.348	0.0178136
893.426	0.0178534
893.504	0.0178275
893.582	0.0178810
893.660	0.0179227
893.738	0.0178676
893.817	0.0179066
893.895	0.0180414
893.973	0.0179740
894.051	0.0180815
894.129	0.0180179
894.207	0.0179418
894.285	0.0180595
894.363	0.0180187
894.442	0.0180349
894.520	0.0179946
894.598	0.0180833
894.676	0.0181464
894.754	0.0180766
894.832	0.0181615
894.910	0.0178285
894.988	0.0180112
895.067	0.0180438
895.145	0.0179530
895.223	0.0180785
895.301	0.0179954
895.379	0.0178339
895.457	0.0179870
895.535	0.0177815
895.613	0.0178496
895.692	0.0179432
895.770	0.0178672
895.848	0.0179162
895.926	0.0178387
896.004	0.0179445
896.082	0.0179811
896.160	0.0180883
896.238	0.0181655
896.317	0.0180014
896.395	0.0180848
896.473	0.0180537
896.551	0.0180164
896.629	0.0182329
896.707	0.0182185
896.785	0.0180295
896.863	0.0180395
896.942	0.0181123
897.020	0.0179904
897.098	0.0180400
897.176	0.0179288
897.254	0.0177962
897.332	0.0178810
897.410	0.0180555
897.488	0.0178691
897.567	0.0179363
897.645	0.0179729
897.723	0.0178812
897.801	0.0178256
897.879	0.0180036
897.957	0.0179761
898.035	0.0178011
898.113	0.0179245
898.192	0.0179786
898.270	0.0180606
898.348	0.0180370
898.426	0.0179336
898.504	0.0180626
898.582	0.0179675
898.660	0.0179446
898.738	0.0179597
898.817	0.0179516
898.895	0.0180023
898.973	0.0179343
899.051	0.0178870
899.129	0.0179492
899.207	0.0178990
899.285	0.0178303
899.363	0.0179383
899.442	0.0179258
899.520	0.0178968
899.598	0.0176915
899.676	0.0177240
899.754	0.0177736
899.832	0.0176646
899.910	0.0177099
899.988	0.0175008
900.067	0.0177512
900.145	0.0175282
900.223	0.0175504
900.301	0.0176007
900.379	0.0175693
900.457	0.0174688
900.535	0.0175188
900.613	0.0175842
900.692	0.0177283
900.770	0.0176312
900.848	0.0177216
900.926	0.0177222
901.004	0.0177953
901.082	0.0176225
901.160	0.0176595
901.238	0.0178614
901.317	0.0178786
901.395	0.0178662
901.473	0.0179609
901.551	0.0177411
901.629	0.0178098
901.707	0.0178517
901.785	0.0179639
901.863	0.0178199
901.942	0.0178131
902.020	0.0178062
902.098	0.0179466
902.176	0.0179951
902.254	0.0179149
902.332	0.0179385
902.410	0.0179063
902.488	0.0179858
902.567	0.0180733
902.645	0.0179002
902.723	0.0181094
902.801	0.0178989
902.879	0.0180323
902.957	0.0180203
903.035	0.0180543
903.113	0.0181287
903.192	0.0180679
903.270	0.0180893
903.348	0.0180921
903.426	0.0181381
903.504	0.0179781
903.582	0.0179777
903.660	0.0180048
903.738	0.0179082
903.817	0.0179099
903.895	0.0181061
903.973	0.0180421
904.051	0.0179176
904.129	0.0177792
904.207	0.0180029
904.285	0.0179366
904.363	0.0179000
904.442	0.0180526
904.520	0.0180909
904.598	0.0181109
904.676	0.0180587
904.754	0.0181103
904.832	0.0180975
904.910	0.0181512
904.988	0.0181410
905.067	0.0180392
905.145	0.0181041
905.223	0.0181291
905.301	0.0179243
905.379	0.0180538
905.457	0.0179466
905.535	0.0179272
905.613	0.0180337
905.692	0.0181467
905.770	0.0180928
905.848	0.0180409
905.926	0.0180823
906.004	0.0180353
906.082	0.0181414
906.160	0.0179852
906.238	0.0179979
906.317	0.0180673
906.395	0.0180328
906.473	0.0179305
906.551	0.0180188
906.629	0.0180309
906.707	0.0180275
906.785	0.0180686
906.863	0.0179494
906.942	0.0179410
907.020	0.0178279
907.098	0.0177599
907.176	0.0178313
907.254	0.0178181
907.332	0.0176296
907.410	0.0178048
907.488	0.0177838
907.567	0.0176697
907.645	0.0177326
907.723	0.0175562
907.801	0.0176118
907.879	0.0174694
907.957	0.0175352
908.035	0.0176012
908.113	0.0177087
908.192	0.0175474
908.270	0.0176254
908.348	0.0175931
908.426	0.0177357
908.504	0.0177621
908.582	0.0178365
908.660	0.0177177
908.738	0.0178741
908.817	0.0178950
908.895	0.0178826
908.973	0.0180385
909.051	0.0179344
909.129	0.0180247
909.207	0.0179281
909.285	0.0180370
909.363	0.0180588
909.442	0.0180980
909.520	0.0182439
909.598	0.0180590
909.676	0.0181462
909.754	0.0182558
909.832	0.0182636
909.910	0.0181094
909.988	0.0180540
910.067	0.0181252
910.145	0.0181250
910.223	0.0181946
910.301	0.0180965
910.379	0.0180611
910.457	0.0180102
910.535	0.0180363
910.613	0.0180228
910.692	0.0180000
910.770	0.0181279
910.848	0.0180465
910.926	0.0180578
911.004	0.0179854
911.082	0.0180673
911.160	0.0182167
911.238	0.0180567
911.317	0.0180691
911.395	0.0181328
911.473	0.0180824
911.551	0.0181880
911.629	0.0180981
911.707	0.0179917
911.785	0.0181232
911.863	0.0181804
911.942	0.0180608
912.020	0.0180208
912.098	0.0179661
912.176	0.0179240
912.254	0.0181252
912.332	0.0179252
912.410	0.0180419
912.488	0.0178684
912.567	0.0179549
912.645	0.0179722
912.723	0.0180028
912.801	0.0178573
912.879	0.0178393
912.957	0.0179647
913.035	0.0179091
913.113	0.0179183
913.192	0.0179763
913.270	0.0179187
913.348	0.0179309
913.426	0.0177798
913.504	0.0178407
913.582	0.0178254
913.660	0.0177534
913.738	0.0177258
913.817	0.0177306
913.895	0.0177650
913.973	0.0178246
914.051	0.0178369
914.129	0.0177271
914.207	0.0178558
914.285	0.0178900
914.363	0.0179801
914.442	0.0179400
914.520	0.0179761
914.598	0.0179112
914.676	0.0179100
914.754	0.0180161
914.832	0.0181216
914.910	0.0180340
914.988	0.0180624
915.067	0.0181229
915.145	0.0181535
915.223	0.0180162
915.301	0.0180326
915.379	0.0181268
915.457	0.0179271
915.535	0.0177694
915.613	0.0177606
915.692	0.0178474
915.770	0.0177843
915.848	0.0177875
915.926	0.0178632
916.004	0.0178362
916.082	0.0177306
916.160	0.0177341
916.238	0.0177007
916.317	0.0178248
916.395	0.0177391
916.473	0.0177230
916.551	0.0178490
916.629	0.0177157
916.707	0.0177148
916.785	0.0177876
916.863	0.0177760
916.942	0.0177551
917.020	0.0178683
917.098	0.0179153
917.176	0.0179352
917.254	0.0180886
917.332	0.0179964
917.410	0.0179594
917.488	0.0180056
917.567	0.0179687
917.645	0.0179078
917.723	0.0178288
917.801	0.0179108
917.879	0.0179535
917.957	0.0178918
918.035	0.0180471
918.113	0.0178655
918.192	0.0178625
918.270	0.0178400
918.348	0.0178548
918.426	0.0178035
918.504	0.0178729
918.582	0.0177370
918.660	0.0178086
918.738	0.0178699
918.817	0.0179441
918.895	0.0179413
918.973	0.0178873
919.051	0.0177765
919.129	0.0178381
919.207	0.0178768
919.285	0.0177937
919.363	0.0179460
919.442	0.0178633
919.520	0.0179620
919.598	0.0178967
919.676	0.0179710
919.754	0.0178711
919.832	0.0180177
919.910	0.0181841
