06/01/2022	21:55:48	Ver.	4.1	UNKNOWN
Optical Delay	599.988409	Delta X		0.078125	Sweeps	1	Scan Rate	0/0
Coordinates	Axis 1	NaN	Axis 2	NaN	Axis 3	NaN	Axis 4	NaN	Axis 5	NaN	Axis 6	0.000000
TX Power	0.000000	RX Power	0.000000

599.988	0.0182269
600.067	0.0182075
600.145	0.0181773
600.223	0.0182471
600.301	0.0182922
600.379	0.0181866
600.457	0.0182143
600.535	0.0181951
600.613	0.0182128
600.692	0.0182675
600.770	0.0182362
600.848	0.0180285
600.926	0.0181416
601.004	0.0181899
601.082	0.0183228
601.160	0.0181309
601.238	0.0183000
601.317	0.0182025
601.395	0.0182611
601.473	0.0183627
601.551	0.0183228
601.629	0.0182488
601.707	0.0183145
601.785	0.0181752
601.863	0.0181770
601.942	0.0182867
602.020	0.0183305
602.098	0.0182874
602.176	0.0182866
602.254	0.0183267
602.332	0.0183376
602.410	0.0182116
602.488	0.0182980
602.567	0.0184495
602.645	0.0181828
602.723	0.0181963
602.801	0.0183874
602.879	0.0183041
602.957	0.0183434
603.035	0.0181985
603.113	0.0182373
603.192	0.0181314
603.270	0.0183685
603.348	0.0181813
603.426	0.0183932
603.504	0.0183272
603.582	0.0181628
603.660	0.0181754
603.738	0.0184255
603.817	0.0183356
603.895	0.0182278
603.973	0.0182588
604.051	0.0182003
604.129	0.0182994
604.207	0.0182324
604.285	0.0182401
604.363	0.0181477
604.442	0.0182802
604.520	0.0182700
604.598	0.0181944
604.676	0.0182036
604.754	0.0182887
604.832	0.0182170
604.910	0.0183660
604.988	0.0181178
605.067	0.0182327
605.145	0.0183302
605.223	0.0182202
605.301	0.0182276
605.379	0.0181847
605.457	0.0183090
605.535	0.0183134
605.613	0.0183231
605.692	0.0181384
605.770	0.0182847
605.848	0.0183549
605.926	0.0182542
606.004	0.0181796
606.082	0.0182835
606.160	0.0183971
606.238	0.0184373
606.317	0.0183086
606.395	0.0182117
606.473	0.0183791
606.551	0.0182616
606.629	0.0183460
606.707	0.0182157
606.785	0.0182961
606.863	0.0182124
606.942	0.0182777
607.020	0.0183495
607.098	0.0181886
607.176	0.0181944
607.254	0.0182607
607.332	0.0183241
607.410	0.0182355
607.488	0.0181717
607.567	0.0182546
607.645	0.0183746
607.723	0.0182389
607.801	0.0180736
607.879	0.0182337
607.957	0.0182484
608.035	0.0181922
608.113	0.0181958
608.192	0.0182381
608.270	0.0183318
608.348	0.0182233
608.426	0.0182358
608.504	0.0181361
608.582	0.0182255
608.660	0.0183050
608.738	0.0182883
608.817	0.0182723
608.895	0.0182194
608.973	0.0182998
609.051	0.0182420
609.129	0.0182332
609.207	0.0183284
609.285	0.0182557
609.363	0.0183169
609.442	0.0182442
609.520	0.0181465
609.598	0.0181811
609.676	0.0182082
609.754	0.0181801
609.832	0.0183024
609.910	0.0183193
609.988	0.0181996
610.067	0.0182257
610.145	0.0182150
610.223	0.0182886
610.301	0.0181770
610.379	0.0181954
610.457	0.0181858
610.535	0.0182741
610.613	0.0181985
610.692	0.0181477
610.770	0.0183266
610.848	0.0181878
610.926	0.0183195
611.004	0.0182161
611.082	0.0181887
611.160	0.0183217
611.238	0.0183086
611.317	0.0182938
611.395	0.0183042
611.473	0.0182721
611.551	0.0181528
611.629	0.0182668
611.707	0.0181892
611.785	0.0182548
611.863	0.0181915
611.942	0.0182318
612.020	0.0182061
612.098	0.0181427
612.176	0.0182166
612.254	0.0182084
612.332	0.0183017
612.410	0.0182319
612.488	0.0182964
612.567	0.0182021
612.645	0.0182489
612.723	0.0181222
612.801	0.0183024
612.879	0.0183125
612.957	0.0182169
613.035	0.0181487
613.113	0.0181804
613.192	0.0181717
613.270	0.0182706
613.348	0.0181783
613.426	0.0182159
613.504	0.0182247
613.582	0.0181418
613.660	0.0182594
613.738	0.0182301
613.817	0.0182397
613.895	0.0182760
613.973	0.0182228
614.051	0.0182020
614.129	0.0181716
614.207	0.0181232
614.285	0.0182367
614.363	0.0181969
614.442	0.0182966
614.520	0.0183535
614.598	0.0182537
614.676	0.0182241
614.754	0.0182026
614.832	0.0182436
614.910	0.0182076
614.988	0.0182293
615.067	0.0182095
615.145	0.0183837
615.223	0.0180762
615.301	0.0182275
615.379	0.0182900
615.457	0.0181767
615.535	0.0181865
615.613	0.0183163
615.692	0.0183134
615.770	0.0182554
615.848	0.0180827
615.926	0.0181956
616.004	0.0182812
616.082	0.0182378
616.160	0.0182108
616.238	0.0182015
616.317	0.0180596
616.395	0.0182333
616.473	0.0182554
616.551	0.0182161
616.629	0.0182853
616.707	0.0183043
616.785	0.0182126
616.863	0.0182131
616.942	0.0182537
617.020	0.0182401
617.098	0.0181111
617.176	0.0181831
617.254	0.0182644
617.332	0.0183717
617.410	0.0181254
617.488	0.0183064
617.567	0.0182788
617.645	0.0183038
617.723	0.0182066
617.801	0.0183095
617.879	0.0182107
617.957	0.0181805
618.035	0.0180699
618.113	0.0181905
618.192	0.0181565
618.270	0.0183796
618.348	0.0183149
618.426	0.0182673
618.504	0.0182086
618.582	0.0182238
618.660	0.0182793
618.738	0.0182719
618.817	0.0182704
618.895	0.0183080
618.973	0.0183881
619.051	0.0182775
619.129	0.0182281
619.207	0.0183081
619.285	0.0181362
619.363	0.0182477
619.442	0.0183204
619.520	0.0182020
619.598	0.0181824
619.676	0.0183234
619.754	0.0183199
619.832	0.0180890
619.910	0.0182938
619.988	0.0181536
620.067	0.0180746
620.145	0.0183290
620.223	0.0183533
620.301	0.0182623
620.379	0.0182503
620.457	0.0183745
620.535	0.0182309
620.613	0.0182033
620.692	0.0183274
620.770	0.0181888
620.848	0.0182185
620.926	0.0182996
621.004	0.0181361
621.082	0.0180922
621.160	0.0181766
621.238	0.0182574
621.317	0.0182037
621.395	0.0181242
621.473	0.0183080
621.551	0.0182273
621.629	0.0181781
621.707	0.0181970
621.785	0.0182659
621.863	0.0181841
621.942	0.0183247
622.020	0.0182762
622.098	0.0183525
622.176	0.0182420
622.254	0.0182602
622.332	0.0182145
622.410	0.0182918
622.488	0.0183660
622.567	0.0183504
622.645	0.0184277
622.723	0.0181784
622.801	0.0182246
622.879	0.0182378
622.957	0.0182500
623.035	0.0182422
623.113	0.0181142
623.192	0.0181013
623.270	0.0182104
623.348	0.0182219
623.426	0.0181049
623.504	0.0182563
623.582	0.0182185
623.660	0.0183298
623.738	0.0183313
623.817	0.0182381
623.895	0.0183928
623.973	0.0182820
624.051	0.0185410
624.129	0.0183531
624.207	0.0182948
624.285	0.0182933
624.363	0.0182810
624.442	0.0181788
624.520	0.0182484
624.598	0.0181730
624.676	0.0181094
624.754	0.0182501
624.832	0.0180741
624.910	0.0181302
624.988	0.0182428
625.067	0.0183097
625.145	0.0182283
625.223	0.0182548
625.301	0.0181240
625.379	0.0181731
625.457	0.0181757
625.535	0.0182245
625.613	0.0181966
625.692	0.0182154
625.770	0.0182517
625.848	0.0181495
625.926	0.0182437
626.004	0.0183124
626.082	0.0182007
626.160	0.0181722
626.238	0.0181507
626.317	0.0183866
626.395	0.0182308
626.473	0.0181779
626.551	0.0181911
626.629	0.0181194
626.707	0.0182175
626.785	0.0182818
626.863	0.0182767
626.942	0.0179372
627.020	0.0181578
627.098	0.0182037
627.176	0.0182454
627.254	0.0182233
627.332	0.0181725
627.410	0.0182468
627.488	0.0182065
627.567	0.0180611
627.645	0.0180871
627.723	0.0182943
627.801	0.0181818
627.879	0.0181378
627.957	0.0182564
628.035	0.0181422
628.113	0.0182114
628.192	0.0182314
628.270	0.0183511
628.348	0.0183638
628.426	0.0182974
628.504	0.0183148
628.582	0.0181867
628.660	0.0181104
628.738	0.0181007
628.817	0.0181851
628.895	0.0181475
628.973	0.0178896
629.051	0.0178736
629.129	0.0179456
629.207	0.0181151
629.285	0.0182131
629.363	0.0180791
629.442	0.0180840
629.520	0.0181959
629.598	0.0184458
629.676	0.0182351
629.754	0.0181696
629.832	0.0184476
629.910	0.0183200
629.988	0.0183292
630.067	0.0182879
630.145	0.0183549
630.223	0.0181969
630.301	0.0182465
630.379	0.0181785
630.457	0.0180302
630.535	0.0180942
630.613	0.0182211
630.692	0.0180714
630.770	0.0180400
630.848	0.0180093
630.926	0.0180788
631.004	0.0181339
631.082	0.0180000
631.160	0.0181797
631.238	0.0183061
631.317	0.0180534
631.395	0.0179478
631.473	0.0182159
631.551	0.0181707
631.629	0.0181925
631.707	0.0182348
631.785	0.0183304
631.863	0.0182317
631.942	0.0182711
632.020	0.0182574
632.098	0.0182253
632.176	0.0182500
632.254	0.0181490
632.332	0.0182693
632.410	0.0182259
632.488	0.0181771
632.567	0.0181592
632.645	0.0181419
632.723	0.0179379
632.801	0.0181184
632.879	0.0182859
632.957	0.0180621
633.035	0.0181532
633.113	0.0181526
633.192	0.0181528
633.270	0.0182381
633.348	0.0183171
633.426	0.0182658
633.504	0.0182724
633.582	0.0184126
633.660	0.0182450
633.738	0.0182014
633.817	0.0183736
633.895	0.0181982
633.973	0.0182253
634.051	0.0182717
634.129	0.0182314
634.207	0.0183179
634.285	0.0183678
634.363	0.0182228
634.442	0.0182798
634.520	0.0181745
634.598	0.0182047
634.676	0.0181922
634.754	0.0181945
634.832	0.0181868
634.910	0.0181267
634.988	0.0181571
635.067	0.0181582
635.145	0.0179905
635.223	0.0181645
635.301	0.0180682
635.379	0.0180741
635.457	0.0181950
635.535	0.0182730
635.613	0.0181827
635.692	0.0184016
635.770	0.0181812
635.848	0.0181622
635.926	0.0182763
636.004	0.0182516
636.082	0.0182260
636.160	0.0181881
636.238	0.0181506
636.317	0.0183223
636.395	0.0181670
636.473	0.0181859
636.551	0.0180844
636.629	0.0182989
636.707	0.0180811
636.785	0.0181266
636.863	0.0183250
636.942	0.0183384
637.020	0.0182798
637.098	0.0181644
637.176	0.0181646
637.254	0.0182761
637.332	0.0181083
637.410	0.0181608
637.488	0.0181478
637.567	0.0182714
637.645	0.0182420
637.723	0.0181770
637.801	0.0181583
637.879	0.0183370
637.957	0.0183914
638.035	0.0181032
638.113	0.0181894
638.192	0.0181904
638.270	0.0181274
638.348	0.0181644
638.426	0.0182361
638.504	0.0181747
638.582	0.0182778
638.660	0.0181584
638.738	0.0182494
638.817	0.0182028
638.895	0.0182082
638.973	0.0182407
639.051	0.0183098
639.129	0.0184327
639.207	0.0184388
639.285	0.0182445
639.363	0.0183382
639.442	0.0182880
639.520	0.0182200
639.598	0.0181646
639.676	0.0182601
639.754	0.0182304
639.832	0.0181892
639.910	0.0181241
639.988	0.0181544
640.067	0.0180975
640.145	0.0180802
640.223	0.0180611
640.301	0.0180693
640.379	0.0180762
640.457	0.0180629
640.535	0.0180152
640.613	0.0180627
640.692	0.0180964
640.770	0.0180428
640.848	0.0182953
640.926	0.0184774
641.004	0.0183757
641.082	0.0182752
641.160	0.0183891
641.238	0.0184456
641.317	0.0184335
641.395	0.0185906
641.473	0.0185619
641.551	0.0183947
641.629	0.0183202
641.707	0.0182358
641.785	0.0182552
641.863	0.0181161
641.942	0.0182346
642.020	0.0181789
642.098	0.0180250
642.176	0.0180394
642.254	0.0180602
642.332	0.0180315
642.410	0.0180685
642.488	0.0180415
642.567	0.0180277
642.645	0.0180392
642.723	0.0181831
642.801	0.0181348
642.879	0.0182912
642.957	0.0183553
643.035	0.0181715
643.113	0.0181725
643.192	0.0184022
643.270	0.0183707
643.348	0.0185447
643.426	0.0183906
643.504	0.0184891
643.582	0.0184206
643.660	0.0184322
643.738	0.0183619
643.817	0.0183667
643.895	0.0181238
643.973	0.0182431
644.051	0.0182806
644.129	0.0181265
644.207	0.0180991
644.285	0.0179934
644.363	0.0180344
644.442	0.0179108
644.520	0.0180163
644.598	0.0180705
644.676	0.0181093
644.754	0.0180872
644.832	0.0180932
644.910	0.0182947
644.988	0.0181828
645.067	0.0182233
645.145	0.0184679
645.223	0.0185009
645.301	0.0184190
645.379	0.0184386
645.457	0.0184734
645.535	0.0184973
645.613	0.0185564
645.692	0.0183083
645.770	0.0182080
645.848	0.0183308
645.926	0.0183705
646.004	0.0184215
646.082	0.0182591
646.160	0.0181618
646.238	0.0181438
646.317	0.0180313
646.395	0.0180949
646.473	0.0180864
646.551	0.0180802
646.629	0.0180509
646.707	0.0182087
646.785	0.0181999
646.863	0.0182662
646.942	0.0181552
647.020	0.0181982
647.098	0.0181435
647.176	0.0182460
647.254	0.0182115
647.332	0.0182284
647.410	0.0182127
647.488	0.0181958
647.567	0.0182378
647.645	0.0181786
647.723	0.0181060
647.801	0.0182272
647.879	0.0181532
647.957	0.0180955
648.035	0.0180634
648.113	0.0180366
648.192	0.0180182
648.270	0.0180524
648.348	0.0180933
648.426	0.0181868
648.504	0.0182089
648.582	0.0182668
648.660	0.0181162
648.738	0.0181550
648.817	0.0181880
648.895	0.0181104
648.973	0.0183357
649.051	0.0182128
649.129	0.0181662
649.207	0.0183840
649.285	0.0181770
649.363	0.0182105
649.442	0.0181827
649.520	0.0181078
649.598	0.0181545
649.676	0.0180200
649.754	0.0181359
649.832	0.0180269
649.910	0.0180437
649.988	0.0179582
650.067	0.0180227
650.145	0.0181688
650.223	0.0181230
650.301	0.0181421
650.379	0.0181699
650.457	0.0182042
650.535	0.0182086
650.613	0.0183049
650.692	0.0181807
650.770	0.0181403
650.848	0.0182989
650.926	0.0183696
651.004	0.0181319
651.082	0.0182645
651.160	0.0181845
651.238	0.0180461
651.317	0.0180138
651.395	0.0179776
651.473	0.0179209
651.551	0.0179929
651.629	0.0179626
651.707	0.0179395
651.785	0.0178789
651.863	0.0180215
651.942	0.0180340
652.020	0.0180575
652.098	0.0180006
652.176	0.0181167
652.254	0.0181413
652.332	0.0180439
652.410	0.0181940
652.488	0.0182960
652.567	0.0183250
652.645	0.0182994
652.723	0.0183694
652.801	0.0183168
652.879	0.0182459
652.957	0.0182889
653.035	0.0183251
653.113	0.0183535
653.192	0.0182851
653.270	0.0181565
653.348	0.0183000
653.426	0.0181013
653.504	0.0181042
653.582	0.0180289
653.660	0.0180625
653.738	0.0181006
653.817	0.0179767
653.895	0.0179852
653.973	0.0179321
654.051	0.0178692
654.129	0.0179349
654.207	0.0181783
654.285	0.0181358
654.363	0.0182643
654.442	0.0184016
654.520	0.0183636
654.598	0.0183585
654.676	0.0184513
654.754	0.0185466
654.832	0.0183852
654.910	0.0184045
654.988	0.0184087
655.067	0.0185356
655.145	0.0183421
655.223	0.0183385
655.301	0.0183599
655.379	0.0182571
655.457	0.0180497
655.535	0.0181231
655.613	0.0179957
655.692	0.0179956
655.770	0.0180167
655.848	0.0180247
655.926	0.0180032
656.004	0.0179498
656.082	0.0179174
656.160	0.0180014
656.238	0.0180408
656.317	0.0180563
656.395	0.0180789
656.473	0.0181860
656.551	0.0182294
656.629	0.0181299
656.707	0.0183347
656.785	0.0182841
656.863	0.0182822
656.942	0.0184157
657.020	0.0184434
657.098	0.0184615
657.176	0.0184642
657.254	0.0185799
657.332	0.0184482
657.410	0.0182849
657.488	0.0183249
657.567	0.0184505
657.645	0.0184011
657.723	0.0183005
657.801	0.0182829
657.879	0.0182678
657.957	0.0182033
658.035	0.0181019
658.113	0.0181641
658.192	0.0181639
658.270	0.0180711
658.348	0.0181070
658.426	0.0181322
658.504	0.0181400
658.582	0.0181698
658.660	0.0182780
658.738	0.0182782
658.817	0.0182996
658.895	0.0183289
658.973	0.0183856
659.051	0.0183316
659.129	0.0183051
659.207	0.0182696
659.285	0.0183476
659.363	0.0182158
659.442	0.0183731
659.520	0.0181071
659.598	0.0181942
659.676	0.0181732
659.754	0.0181384
659.832	0.0181623
659.910	0.0181915
659.988	0.0180764
660.067	0.0180974
660.145	0.0182281
660.223	0.0180238
660.301	0.0180769
660.379	0.0182101
660.457	0.0182648
660.535	0.0183997
660.613	0.0183453
660.692	0.0184267
660.770	0.0184623
660.848	0.0184395
660.926	0.0183287
661.004	0.0184171
661.082	0.0184763
661.160	0.0184548
661.238	0.0184108
661.317	0.0184621
661.395	0.0184104
661.473	0.0183535
661.551	0.0183362
661.629	0.0182905
661.707	0.0181383
661.785	0.0182628
661.863	0.0183109
661.942	0.0182745
662.020	0.0181468
662.098	0.0182494
662.176	0.0181046
662.254	0.0180325
662.332	0.0181121
662.410	0.0181267
662.488	0.0180843
662.567	0.0182046
662.645	0.0180962
662.723	0.0181669
662.801	0.0181291
662.879	0.0182014
662.957	0.0182210
663.035	0.0181210
663.113	0.0181505
663.192	0.0182751
663.270	0.0182381
663.348	0.0181696
663.426	0.0180977
663.504	0.0182043
663.582	0.0182886
663.660	0.0182761
663.738	0.0181781
663.817	0.0182374
663.895	0.0182528
663.973	0.0182164
664.051	0.0182357
664.129	0.0182228
664.207	0.0182238
664.285	0.0182740
664.363	0.0182631
664.442	0.0180907
664.520	0.0182446
664.598	0.0183667
664.676	0.0181248
664.754	0.0182178
664.832	0.0183112
664.910	0.0183200
664.988	0.0182480
665.067	0.0181355
665.145	0.0182395
665.223	0.0183588
665.301	0.0181149
665.379	0.0182359
665.457	0.0182498
665.535	0.0184057
665.613	0.0184197
665.692	0.0183840
665.770	0.0182900
665.848	0.0183565
665.926	0.0183202
666.004	0.0183044
666.082	0.0183464
666.160	0.0183805
666.238	0.0182534
666.317	0.0184100
666.395	0.0182857
666.473	0.0182311
666.551	0.0181081
666.629	0.0183274
666.707	0.0181577
666.785	0.0181669
666.863	0.0181258
666.942	0.0180569
667.020	0.0180806
667.098	0.0181493
667.176	0.0181807
667.254	0.0180289
667.332	0.0180326
667.410	0.0181036
667.488	0.0181252
667.567	0.0181143
667.645	0.0179621
667.723	0.0180747
667.801	0.0180440
667.879	0.0181064
667.957	0.0180749
668.035	0.0181102
668.113	0.0182159
668.192	0.0181380
668.270	0.0182027
668.348	0.0181696
668.426	0.0181288
668.504	0.0182737
668.582	0.0182510
668.660	0.0183113
668.738	0.0181948
668.817	0.0182548
668.895	0.0181744
668.973	0.0181916
669.051	0.0182168
669.129	0.0182497
669.207	0.0182746
669.285	0.0181931
669.363	0.0181950
669.442	0.0181850
669.520	0.0181541
669.598	0.0183018
669.676	0.0182942
669.754	0.0182500
669.832	0.0182622
669.910	0.0183846
669.988	0.0183161
670.067	0.0181485
670.145	0.0182648
670.223	0.0184745
670.301	0.0183612
670.379	0.0183975
670.457	0.0183602
670.535	0.0182825
670.613	0.0182556
670.692	0.0181446
670.770	0.0181260
670.848	0.0182774
670.926	0.0183152
671.004	0.0182212
671.082	0.0182355
671.160	0.0182066
671.238	0.0181081
671.317	0.0181536
671.395	0.0181472
671.473	0.0180651
671.551	0.0181920
671.629	0.0182066
671.707	0.0181444
671.785	0.0180929
671.863	0.0180970
671.942	0.0180446
672.020	0.0181643
672.098	0.0182117
672.176	0.0181876
672.254	0.0182941
672.332	0.0181906
672.410	0.0181828
672.488	0.0183382
672.567	0.0183121
672.645	0.0183254
672.723	0.0182233
672.801	0.0182407
672.879	0.0183746
672.957	0.0183163
673.035	0.0182153
673.113	0.0183431
673.192	0.0182036
673.270	0.0181825
673.348	0.0181062
673.426	0.0180913
673.504	0.0180985
673.582	0.0181799
673.660	0.0180459
673.738	0.0180395
673.817	0.0179958
673.895	0.0180524
673.973	0.0181232
674.051	0.0180205
674.129	0.0181059
674.207	0.0180565
674.285	0.0181647
674.363	0.0181925
674.442	0.0181782
674.520	0.0184088
674.598	0.0184042
674.676	0.0183820
674.754	0.0182990
674.832	0.0184740
674.910	0.0183617
674.988	0.0183803
675.067	0.0183820
675.145	0.0183252
675.223	0.0185240
675.301	0.0184042
675.379	0.0183086
675.457	0.0182036
675.535	0.0183336
675.613	0.0184125
675.692	0.0182757
675.770	0.0184327
675.848	0.0184615
675.926	0.0183084
676.004	0.0182531
676.082	0.0184412
676.160	0.0185799
676.238	0.0183359
676.317	0.0184082
676.395	0.0183717
676.473	0.0184271
676.551	0.0183187
676.629	0.0181903
676.707	0.0180822
676.785	0.0182182
676.863	0.0180994
676.942	0.0181092
677.020	0.0179144
677.098	0.0179082
677.176	0.0177689
677.254	0.0177295
677.332	0.0177211
677.410	0.0176385
677.488	0.0176474
677.567	0.0177921
677.645	0.0176480
677.723	0.0177813
677.801	0.0178437
677.879	0.0179561
677.957	0.0181394
678.035	0.0183687
678.113	0.0184678
678.192	0.0185803
678.270	0.0187035
678.348	0.0188174
678.426	0.0188148
678.504	0.0191196
678.582	0.0191526
678.660	0.0192796
678.738	0.0193776
678.817	0.0194563
678.895	0.0195342
678.973	0.0193884
679.051	0.0192947
679.129	0.0192783
679.207	0.0192018
679.285	0.0190753
679.363	0.0188039
679.442	0.0186687
679.520	0.0184344
679.598	0.0183109
679.676	0.0180229
679.754	0.0177382
679.832	0.0176197
679.910	0.0174227
679.988	0.0171672
680.067	0.0170187
680.145	0.0169137
680.223	0.0166758
680.301	0.0167298
680.379	0.0166084
680.457	0.0166895
680.535	0.0167902
680.613	0.0167184
680.692	0.0168446
680.770	0.0170363
680.848	0.0170387
680.926	0.0171995
681.004	0.0173772
681.082	0.0176012
681.160	0.0177377
681.238	0.0180841
681.317	0.0184913
681.395	0.0186528
681.473	0.0190794
681.551	0.0192325
681.629	0.0194756
681.707	0.0198498
681.785	0.0200166
681.863	0.0201830
681.942	0.0203085
682.020	0.0204354
682.098	0.0203738
682.176	0.0204065
682.254	0.0202409
682.332	0.0200478
682.410	0.0201184
682.488	0.0197993
682.567	0.0193835
682.645	0.0191180
682.723	0.0187914
682.801	0.0184581
682.879	0.0180086
682.957	0.0177290
683.035	0.0174196
683.113	0.0169025
683.192	0.0167094
683.270	0.0164406
683.348	0.0163110
683.426	0.0162229
683.504	0.0159386
683.582	0.0157162
683.660	0.0157711
683.738	0.0157130
683.817	0.0157892
683.895	0.0157926
683.973	0.0160110
684.051	0.0161203
684.129	0.0163969
684.207	0.0165696
684.285	0.0169778
684.363	0.0172920
684.442	0.0178598
684.520	0.0182208
684.598	0.0186440
684.676	0.0190199
684.754	0.0196371
684.832	0.0199735
684.910	0.0204658
684.988	0.0206676
685.067	0.0210390
685.145	0.0213428
685.223	0.0212748
685.301	0.0213125
685.379	0.0213927
685.457	0.0212048
685.535	0.0210447
685.613	0.0209302
685.692	0.0204390
685.770	0.0200807
685.848	0.0197134
685.926	0.0193092
686.004	0.0188343
686.082	0.0185196
686.160	0.0180531
686.238	0.0175706
686.317	0.0170393
686.395	0.0166561
686.473	0.0165697
686.551	0.0159067
686.629	0.0154561
686.707	0.0154945
686.785	0.0153296
686.863	0.0151714
686.942	0.0151578
687.020	0.0152197
687.098	0.0152326
687.176	0.0154947
687.254	0.0155986
687.332	0.0157229
687.410	0.0162228
687.488	0.0163801
687.567	0.0167818
687.645	0.0171375
687.723	0.0175546
687.801	0.0178274
687.879	0.0182341
687.957	0.0187762
688.035	0.0189117
688.113	0.0193584
688.192	0.0195039
688.270	0.0198734
688.348	0.0201501
688.426	0.0203459
688.504	0.0204776
688.582	0.0205225
688.660	0.0205396
688.738	0.0205933
688.817	0.0206489
688.895	0.0205330
688.973	0.0203029
689.051	0.0200951
689.129	0.0197507
689.207	0.0196651
689.285	0.0195975
689.363	0.0192353
689.442	0.0188676
689.520	0.0185510
689.598	0.0185020
689.676	0.0180723
689.754	0.0179579
689.832	0.0177591
689.910	0.0176695
689.988	0.0175408
690.067	0.0173604
690.145	0.0171821
690.223	0.0170694
690.301	0.0170879
690.379	0.0168858
690.457	0.0167489
690.535	0.0167739
690.613	0.0165775
690.692	0.0164165
690.770	0.0164857
690.848	0.0162970
690.926	0.0164487
691.004	0.0166084
691.082	0.0166714
691.160	0.0168608
691.238	0.0168490
691.317	0.0171643
691.395	0.0173766
691.473	0.0176395
691.551	0.0177370
691.629	0.0181111
691.707	0.0181161
691.785	0.0181133
691.863	0.0183894
691.942	0.0184988
692.020	0.0186754
692.098	0.0188324
692.176	0.0187775
692.254	0.0188804
692.332	0.0191580
692.410	0.0190900
692.488	0.0191669
692.567	0.0192416
692.645	0.0194191
692.723	0.0195506
692.801	0.0194402
692.879	0.0194062
692.957	0.0194489
693.035	0.0194596
693.113	0.0193311
693.192	0.0192905
693.270	0.0191446
693.348	0.0188767
693.426	0.0187867
693.504	0.0185733
693.582	0.0183655
693.660	0.0182572
693.738	0.0182674
693.817	0.0180960
693.895	0.0181270
693.973	0.0181315
694.051	0.0181312
694.129	0.0181375
694.207	0.0182599
694.285	0.0183862
694.363	0.0184509
694.442	0.0185923
694.520	0.0186409
694.598	0.0184617
694.676	0.0186168
694.754	0.0186068
694.832	0.0184437
694.910	0.0183693
694.988	0.0183218
695.067	0.0180970
695.145	0.0179820
695.223	0.0179431
695.301	0.0179974
695.379	0.0178584
695.457	0.0176034
695.535	0.0174592
695.613	0.0175458
695.692	0.0173380
695.770	0.0172089
695.848	0.0170305
695.926	0.0169827
696.004	0.0169259
696.082	0.0168156
696.160	0.0165510
696.238	0.0165113
696.317	0.0164075
696.395	0.0164498
696.473	0.0163327
696.551	0.0161579
696.629	0.0163640
696.707	0.0164308
696.785	0.0167155
696.863	0.0167680
696.942	0.0171301
697.020	0.0174555
697.098	0.0178864
697.176	0.0182113
697.254	0.0186469
697.332	0.0191435
697.410	0.0195964
697.488	0.0198970
697.567	0.0201736
697.645	0.0205436
697.723	0.0208743
697.801	0.0210938
697.879	0.0211275
697.957	0.0214620
698.035	0.0214861
698.113	0.0213551
698.192	0.0212918
698.270	0.0212638
698.348	0.0209466
698.426	0.0208578
698.504	0.0206536
698.582	0.0201814
698.660	0.0200023
698.738	0.0195776
698.817	0.0193340
698.895	0.0189479
698.973	0.0187104
699.051	0.0182361
699.129	0.0178784
699.207	0.0175467
699.285	0.0174158
699.363	0.0171107
699.442	0.0168583
699.520	0.0165260
699.598	0.0164273
699.676	0.0162210
699.754	0.0160297
699.832	0.0160236
699.910	0.0158157
699.988	0.0159724
700.067	0.0158159
700.145	0.0158267
700.223	0.0158504
700.301	0.0158545
700.379	0.0158434
700.457	0.0158239
700.535	0.0158631
700.613	0.0160526
700.692	0.0161977
700.770	0.0162299
700.848	0.0162914
700.926	0.0165232
701.004	0.0166803
701.082	0.0171192
701.160	0.0172903
701.238	0.0175085
701.317	0.0178925
701.395	0.0180611
701.473	0.0184931
701.551	0.0187730
701.629	0.0190250
701.707	0.0193612
701.785	0.0195714
701.863	0.0199100
701.942	0.0202223
702.020	0.0202921
702.098	0.0204626
702.176	0.0206534
702.254	0.0207628
702.332	0.0206656
702.410	0.0207014
702.488	0.0207642
702.567	0.0204900
702.645	0.0205123
702.723	0.0203769
702.801	0.0201154
702.879	0.0200129
702.957	0.0198409
703.035	0.0198200
703.113	0.0194978
703.192	0.0195824
703.270	0.0193162
703.348	0.0191920
703.426	0.0191563
703.504	0.0188822
703.582	0.0186832
703.660	0.0184617
703.738	0.0184319
703.817	0.0181318
703.895	0.0180483
703.973	0.0176740
704.051	0.0174163
704.129	0.0172287
704.207	0.0171114
704.285	0.0169721
704.363	0.0167512
704.442	0.0166309
704.520	0.0163948
704.598	0.0162677
704.676	0.0163345
704.754	0.0161132
704.832	0.0161493
704.910	0.0160210
704.988	0.0160320
705.067	0.0160333
705.145	0.0159790
705.223	0.0162697
705.301	0.0163476
705.379	0.0164148
705.457	0.0166715
705.535	0.0169364
705.613	0.0170970
705.692	0.0172801
705.770	0.0175460
705.848	0.0178460
705.926	0.0180524
706.004	0.0181096
706.082	0.0182108
706.160	0.0181709
706.238	0.0184100
706.317	0.0185749
706.395	0.0185607
706.473	0.0185368
706.551	0.0186121
706.629	0.0187738
706.707	0.0187344
706.785	0.0186149
706.863	0.0187982
706.942	0.0189278
707.020	0.0189766
707.098	0.0189702
707.176	0.0190666
707.254	0.0191406
707.332	0.0192123
707.410	0.0192406
707.488	0.0194572
707.567	0.0194929
707.645	0.0195751
707.723	0.0197542
707.801	0.0194992
707.879	0.0196989
707.957	0.0198166
708.035	0.0198425
708.113	0.0198087
708.192	0.0196399
708.270	0.0194595
708.348	0.0193992
708.426	0.0193985
708.504	0.0191148
708.582	0.0189088
708.660	0.0189884
708.738	0.0186790
708.817	0.0187226
708.895	0.0187914
708.973	0.0187770
709.051	0.0185305
709.129	0.0186243
709.207	0.0183918
709.285	0.0182552
709.363	0.0182965
709.442	0.0182867
709.520	0.0181661
709.598	0.0180248
709.676	0.0179361
709.754	0.0176733
709.832	0.0175957
709.910	0.0174041
709.988	0.0172404
710.067	0.0168995
710.145	0.0169469
710.223	0.0168075
710.301	0.0166235
710.379	0.0164540
710.457	0.0162120
710.535	0.0161871
710.613	0.0162533
710.692	0.0160281
710.770	0.0159310
710.848	0.0160945
710.926	0.0160327
711.004	0.0161002
711.082	0.0162973
711.160	0.0164789
711.238	0.0167918
711.317	0.0170287
711.395	0.0171771
711.473	0.0175127
711.551	0.0176837
711.629	0.0179255
711.707	0.0181973
711.785	0.0183208
711.863	0.0182907
711.942	0.0185081
712.020	0.0186959
712.098	0.0188082
712.176	0.0187921
712.254	0.0186557
712.332	0.0188382
712.410	0.0188741
712.488	0.0188831
712.567	0.0189291
712.645	0.0190471
712.723	0.0191422
712.801	0.0191595
712.879	0.0191488
712.957	0.0191669
713.035	0.0192751
713.113	0.0194567
713.192	0.0195980
713.270	0.0196678
713.348	0.0198241
713.426	0.0198169
713.504	0.0198299
713.582	0.0197517
713.660	0.0198090
713.738	0.0198826
713.817	0.0197559
713.895	0.0196745
713.973	0.0195193
714.051	0.0193006
714.129	0.0193022
714.207	0.0191148
714.285	0.0188577
714.363	0.0188783
714.442	0.0187801
714.520	0.0186255
714.598	0.0185522
714.676	0.0183672
714.754	0.0183144
714.832	0.0181416
714.910	0.0180930
714.988	0.0179375
715.067	0.0178087
715.145	0.0178117
715.223	0.0178082
715.301	0.0178739
715.379	0.0179313
715.457	0.0177579
715.535	0.0177210
715.613	0.0176462
715.692	0.0175274
715.770	0.0173481
715.848	0.0173995
715.926	0.0171162
716.004	0.0171230
716.082	0.0169773
716.160	0.0167866
716.238	0.0165834
716.317	0.0165305
716.395	0.0163399
716.473	0.0163427
716.551	0.0161607
716.629	0.0163536
716.707	0.0164355
716.785	0.0165199
716.863	0.0168244
716.942	0.0170918
717.020	0.0172402
717.098	0.0176154
717.176	0.0176722
717.254	0.0178154
717.332	0.0179434
717.410	0.0181969
717.488	0.0184853
717.567	0.0184809
717.645	0.0185075
717.723	0.0185030
717.801	0.0186385
717.879	0.0187991
717.957	0.0189149
718.035	0.0189291
718.113	0.0189982
718.192	0.0190992
718.270	0.0191938
718.348	0.0191575
718.426	0.0190439
718.504	0.0191726
718.582	0.0191058
718.660	0.0188752
718.738	0.0190650
718.817	0.0190105
718.895	0.0188648
718.973	0.0190043
719.051	0.0189057
719.129	0.0189430
719.207	0.0189475
719.285	0.0188046
719.363	0.0188615
719.442	0.0187976
719.520	0.0185845
719.598	0.0187654
719.676	0.0189626
719.754	0.0188641
719.832	0.0188168
719.910	0.0187903
719.988	0.0187678
720.067	0.0187930
720.145	0.0186128
720.223	0.0186284
720.301	0.0186201
720.379	0.0184940
720.457	0.0184679
720.535	0.0183192
720.613	0.0182817
720.692	0.0180753
720.770	0.0182309
720.848	0.0180918
720.926	0.0181277
721.004	0.0180305
721.082	0.0179002
721.160	0.0178157
721.238	0.0178724
721.317	0.0178979
721.395	0.0178709
721.473	0.0178074
721.551	0.0178948
721.629	0.0176830
721.707	0.0177446
721.785	0.0176947
721.863	0.0175955
721.942	0.0176205
722.020	0.0176086
722.098	0.0174981
722.176	0.0175369
722.254	0.0174863
722.332	0.0174324
722.410	0.0174266
722.488	0.0173940
722.567	0.0173962
722.645	0.0175059
722.723	0.0175269
722.801	0.0175395
722.879	0.0175169
722.957	0.0176167
723.035	0.0176808
723.113	0.0178436
723.192	0.0180598
723.270	0.0181664
723.348	0.0183714
723.426	0.0184367
723.504	0.0187442
723.582	0.0189433
723.660	0.0188914
723.738	0.0189392
723.817	0.0190315
723.895	0.0190628
723.973	0.0190968
724.051	0.0191415
724.129	0.0189368
724.207	0.0190857
724.285	0.0188438
724.363	0.0189680
724.442	0.0187977
724.520	0.0185470
724.598	0.0184814
724.676	0.0183940
724.754	0.0183591
724.832	0.0180661
724.910	0.0179471
724.988	0.0179542
725.067	0.0180135
725.145	0.0179082
725.223	0.0177773
725.301	0.0179682
725.379	0.0178966
725.457	0.0179050
725.535	0.0180141
725.613	0.0180792
725.692	0.0179922
725.770	0.0181406
725.848	0.0181208
725.926	0.0182353
726.004	0.0182466
726.082	0.0182272
726.160	0.0181805
726.238	0.0182046
726.317	0.0181260
726.395	0.0181554
726.473	0.0181221
726.551	0.0181046
726.629	0.0180514
726.707	0.0181184
726.785	0.0180257
726.863	0.0180228
726.942	0.0180046
727.020	0.0180176
727.098	0.0179631
727.176	0.0181114
727.254	0.0180220
727.332	0.0179520
727.410	0.0181462
727.488	0.0180125
727.567	0.0181260
727.645	0.0183015
727.723	0.0182991
727.801	0.0181261
727.879	0.0181702
727.957	0.0183041
728.035	0.0181647
728.113	0.0182401
728.192	0.0181827
728.270	0.0181789
728.348	0.0183585
728.426	0.0184146
728.504	0.0182215
728.582	0.0182413
728.660	0.0183682
728.738	0.0183968
728.817	0.0185529
728.895	0.0184363
728.973	0.0184383
729.051	0.0184930
729.129	0.0184586
729.207	0.0183770
729.285	0.0184675
729.363	0.0185096
729.442	0.0184560
729.520	0.0182647
729.598	0.0183591
729.676	0.0181559
729.754	0.0179688
729.832	0.0179960
729.910	0.0179612
729.988	0.0179609
730.067	0.0180335
730.145	0.0180016
730.223	0.0180070
730.301	0.0179595
730.379	0.0180719
730.457	0.0181282
730.535	0.0181834
730.613	0.0184001
730.692	0.0186389
730.770	0.0185821
730.848	0.0185305
730.926	0.0187440
731.004	0.0184759
731.082	0.0184578
731.160	0.0184142
731.238	0.0183592
731.317	0.0182626
731.395	0.0181203
731.473	0.0180389
731.551	0.0179026
731.629	0.0178343
731.707	0.0177206
731.785	0.0175945
731.863	0.0177544
731.942	0.0178630
732.020	0.0177512
732.098	0.0177246
732.176	0.0179003
732.254	0.0178787
732.332	0.0178555
732.410	0.0179496
732.488	0.0180071
732.567	0.0179146
732.645	0.0180824
732.723	0.0182057
732.801	0.0181268
732.879	0.0181125
732.957	0.0180007
733.035	0.0181436
733.113	0.0181989
733.192	0.0181686
733.270	0.0182166
733.348	0.0181831
733.426	0.0180799
733.504	0.0180157
733.582	0.0181458
733.660	0.0180703
733.738	0.0180508
733.817	0.0179924
733.895	0.0180458
733.973	0.0182063
734.051	0.0181502
734.129	0.0182082
734.207	0.0182301
734.285	0.0184021
734.363	0.0182307
734.442	0.0182010
734.520	0.0184834
734.598	0.0184058
734.676	0.0184357
734.754	0.0185068
734.832	0.0185604
734.910	0.0186981
734.988	0.0186990
735.067	0.0186337
735.145	0.0187411
735.223	0.0189075
735.301	0.0189156
735.379	0.0187782
735.457	0.0187827
735.535	0.0187175
735.613	0.0188351
735.692	0.0186499
735.770	0.0186641
735.848	0.0186105
735.926	0.0185691
736.004	0.0184301
736.082	0.0185233
736.160	0.0185135
736.238	0.0185118
736.317	0.0185007
736.395	0.0185386
736.473	0.0186192
736.551	0.0186645
736.629	0.0186951
736.707	0.0187527
736.785	0.0187169
736.863	0.0186781
736.942	0.0186839
737.020	0.0184816
737.098	0.0184594
737.176	0.0183145
737.254	0.0183604
737.332	0.0180693
737.410	0.0178722
737.488	0.0178557
737.567	0.0175621
737.645	0.0174413
737.723	0.0174769
737.801	0.0173302
737.879	0.0173561
737.957	0.0173347
738.035	0.0174374
738.113	0.0174895
738.192	0.0174423
738.270	0.0176195
738.348	0.0176899
738.426	0.0177541
738.504	0.0176236
738.582	0.0176653
738.660	0.0179390
738.738	0.0180167
738.817	0.0180917
738.895	0.0181732
738.973	0.0180163
739.051	0.0180524
739.129	0.0181417
739.207	0.0179506
739.285	0.0179033
739.363	0.0180383
739.442	0.0180189
739.520	0.0179694
739.598	0.0180767
739.676	0.0180473
739.754	0.0179935
739.832	0.0181873
739.910	0.0181965
739.988	0.0182085
740.067	0.0180239
740.145	0.0181178
740.223	0.0180226
740.301	0.0180830
740.379	0.0180183
740.457	0.0180569
740.535	0.0180447
740.613	0.0180682
740.692	0.0179925
740.770	0.0181458
740.848	0.0181654
740.926	0.0184839
741.004	0.0184354
741.082	0.0186156
741.160	0.0187587
741.238	0.0187836
741.317	0.0190195
741.395	0.0188319
741.473	0.0191654
741.551	0.0192332
741.629	0.0191208
741.707	0.0190083
741.785	0.0190678
741.863	0.0190058
741.942	0.0190810
742.020	0.0190588
742.098	0.0191660
742.176	0.0189783
742.254	0.0190771
742.332	0.0189705
742.410	0.0189209
742.488	0.0188972
742.567	0.0189277
742.645	0.0188986
742.723	0.0185183
742.801	0.0183622
742.879	0.0183205
742.957	0.0183055
743.035	0.0181804
743.113	0.0181013
743.192	0.0180431
743.270	0.0179664
743.348	0.0180603
743.426	0.0178344
743.504	0.0179011
743.582	0.0180153
743.660	0.0180629
743.738	0.0180289
743.817	0.0179908
743.895	0.0179826
743.973	0.0179865
744.051	0.0180603
744.129	0.0180094
744.207	0.0180704
744.285	0.0180199
744.363	0.0179701
744.442	0.0178642
744.520	0.0177651
744.598	0.0177161
744.676	0.0177378
744.754	0.0175365
744.832	0.0175246
744.910	0.0172833
744.988	0.0172534
745.067	0.0170032
745.145	0.0168923
745.223	0.0169301
745.301	0.0170242
745.379	0.0168705
745.457	0.0169675
745.535	0.0170554
745.613	0.0170763
745.692	0.0172765
745.770	0.0174133
745.848	0.0175462
745.926	0.0175487
746.004	0.0177892
746.082	0.0178241
746.160	0.0179082
746.238	0.0180428
746.317	0.0182692
746.395	0.0181611
746.473	0.0182354
746.551	0.0181758
746.629	0.0181915
746.707	0.0182570
746.785	0.0182468
746.863	0.0181157
746.942	0.0180585
747.020	0.0181496
747.098	0.0180216
747.176	0.0179787
747.254	0.0180402
747.332	0.0180395
747.410	0.0181483
747.488	0.0182459
747.567	0.0184579
747.645	0.0186114
747.723	0.0186583
747.801	0.0187431
747.879	0.0189619
747.957	0.0191068
748.035	0.0191721
748.113	0.0192690
748.192	0.0193564
748.270	0.0193892
748.348	0.0193794
748.426	0.0192760
748.504	0.0194051
748.582	0.0191020
748.660	0.0188872
748.738	0.0189251
748.817	0.0187891
748.895	0.0188485
748.973	0.0187975
749.051	0.0186389
749.129	0.0186278
749.207	0.0186496
749.285	0.0187960
749.363	0.0186560
749.442	0.0187132
749.520	0.0187765
749.598	0.0189748
749.676	0.0188391
749.754	0.0188011
749.832	0.0188422
749.910	0.0189101
749.988	0.0188918
750.067	0.0186120
750.145	0.0184202
750.223	0.0183546
750.301	0.0183655
750.379	0.0180973
750.457	0.0179173
750.535	0.0176897
750.613	0.0175204
750.692	0.0172044
750.770	0.0171629
750.848	0.0170838
750.926	0.0169937
751.004	0.0168986
751.082	0.0168415
751.160	0.0171233
751.238	0.0172378
751.317	0.0173385
751.395	0.0174131
751.473	0.0175750
751.551	0.0176911
751.629	0.0179451
751.707	0.0181323
751.785	0.0181870
751.863	0.0182736
751.942	0.0182491
752.020	0.0184379
752.098	0.0182043
752.176	0.0181827
752.254	0.0179726
752.332	0.0179472
752.410	0.0177644
752.488	0.0178368
752.567	0.0175380
752.645	0.0174630
752.723	0.0172706
752.801	0.0172673
752.879	0.0171208
752.957	0.0172491
753.035	0.0173632
753.113	0.0172868
753.192	0.0174304
753.270	0.0174757
753.348	0.0175430
753.426	0.0178086
753.504	0.0181181
753.582	0.0181931
753.660	0.0184019
753.738	0.0185522
753.817	0.0186352
753.895	0.0188132
753.973	0.0190886
754.051	0.0190062
754.129	0.0189787
754.207	0.0192207
754.285	0.0191409
754.363	0.0190603
754.442	0.0188454
754.520	0.0189036
754.598	0.0188748
754.676	0.0186864
754.754	0.0185862
754.832	0.0186493
754.910	0.0184439
754.988	0.0184090
755.067	0.0183649
755.145	0.0183337
755.223	0.0182652
755.301	0.0182207
755.379	0.0181559
755.457	0.0183117
755.535	0.0182941
755.613	0.0182988
755.692	0.0183779
755.770	0.0184724
755.848	0.0185474
755.926	0.0186018
756.004	0.0188407
756.082	0.0189322
756.160	0.0189065
756.238	0.0189851
756.317	0.0191249
756.395	0.0189525
756.473	0.0190083
756.551	0.0190136
756.629	0.0188304
756.707	0.0189214
756.785	0.0188088
756.863	0.0187785
756.942	0.0188945
757.020	0.0188010
757.098	0.0186942
757.176	0.0186468
757.254	0.0187080
757.332	0.0185863
757.410	0.0185544
757.488	0.0184886
757.567	0.0185338
757.645	0.0184133
757.723	0.0184445
757.801	0.0183899
757.879	0.0182104
757.957	0.0181793
758.035	0.0181313
758.113	0.0179404
758.192	0.0180528
758.270	0.0180029
758.348	0.0176842
758.426	0.0177213
758.504	0.0177544
758.582	0.0176546
758.660	0.0176633
758.738	0.0176365
758.817	0.0175429
758.895	0.0175388
758.973	0.0177133
759.051	0.0177012
759.129	0.0176973
759.207	0.0177938
759.285	0.0178260
759.363	0.0177594
759.442	0.0179568
759.520	0.0177725
759.598	0.0177757
759.676	0.0178092
759.754	0.0176499
759.832	0.0175838
759.910	0.0176068
759.988	0.0173760
760.067	0.0173133
760.145	0.0172343
760.223	0.0173268
760.301	0.0171152
760.379	0.0169836
760.457	0.0171776
760.535	0.0170863
760.613	0.0170922
760.692	0.0173232
760.770	0.0172541
760.848	0.0175583
760.926	0.0177504
761.004	0.0179513
761.082	0.0180607
761.160	0.0180737
761.238	0.0182771
761.317	0.0186077
761.395	0.0187292
761.473	0.0189139
761.551	0.0191852
761.629	0.0192216
761.707	0.0192435
761.785	0.0194171
761.863	0.0195074
761.942	0.0195560
762.020	0.0193819
762.098	0.0192848
762.176	0.0191527
762.254	0.0191069
762.332	0.0189191
762.410	0.0186996
762.488	0.0187049
762.567	0.0185911
762.645	0.0183701
762.723	0.0183665
762.801	0.0182084
762.879	0.0181837
762.957	0.0183627
763.035	0.0181661
763.113	0.0181994
763.192	0.0181277
763.270	0.0181802
763.348	0.0181984
763.426	0.0183263
763.504	0.0183870
763.582	0.0184499
763.660	0.0185583
763.738	0.0185480
763.817	0.0185694
763.895	0.0186612
763.973	0.0188084
764.051	0.0188181
764.129	0.0190865
764.207	0.0192234
764.285	0.0190922
764.363	0.0190990
764.442	0.0193211
764.520	0.0192299
764.598	0.0193365
764.676	0.0191920
764.754	0.0190489
764.832	0.0192362
764.910	0.0192286
764.988	0.0189777
765.067	0.0188032
765.145	0.0186356
765.223	0.0186141
765.301	0.0184557
765.379	0.0183714
765.457	0.0180766
765.535	0.0180460
765.613	0.0177383
765.692	0.0175312
765.770	0.0173594
765.848	0.0173788
765.926	0.0171503
766.004	0.0170171
766.082	0.0170547
766.160	0.0169045
766.238	0.0169315
766.317	0.0170448
766.395	0.0171161
766.473	0.0171629
766.551	0.0171182
766.629	0.0173727
766.707	0.0174139
766.785	0.0177765
766.863	0.0178076
766.942	0.0177995
767.020	0.0176149
767.098	0.0178182
767.176	0.0179284
767.254	0.0178214
767.332	0.0176475
767.410	0.0174406
767.488	0.0173571
767.567	0.0174303
767.645	0.0172511
767.723	0.0170592
767.801	0.0171395
767.879	0.0171350
767.957	0.0171169
768.035	0.0171042
768.113	0.0172197
768.192	0.0172134
768.270	0.0174499
768.348	0.0175542
768.426	0.0178063
768.504	0.0179210
768.582	0.0181633
768.660	0.0183723
768.738	0.0185895
768.817	0.0188235
768.895	0.0191512
768.973	0.0193118
769.051	0.0194115
769.129	0.0194314
769.207	0.0196225
769.285	0.0195919
769.363	0.0196687
769.442	0.0196840
769.520	0.0196567
769.598	0.0194002
769.676	0.0192800
769.754	0.0192194
769.832	0.0187881
769.910	0.0186974
769.988	0.0184971
770.067	0.0182259
770.145	0.0181029
770.223	0.0181110
770.301	0.0180152
770.379	0.0177885
770.457	0.0178838
770.535	0.0178525
770.613	0.0176869
770.692	0.0177760
770.770	0.0180415
770.848	0.0179362
770.926	0.0180016
771.004	0.0181939
771.082	0.0183231
771.160	0.0183298
771.238	0.0185962
771.317	0.0186578
771.395	0.0187064
771.473	0.0188217
771.551	0.0188329
771.629	0.0190436
771.707	0.0192215
771.785	0.0192974
771.863	0.0194135
771.942	0.0194983
772.020	0.0194872
772.098	0.0195259
772.176	0.0196030
772.254	0.0194196
772.332	0.0194067
772.410	0.0193363
772.488	0.0191118
772.567	0.0191582
772.645	0.0191145
772.723	0.0188824
772.801	0.0186579
772.879	0.0185746
772.957	0.0184612
773.035	0.0182959
773.113	0.0181393
773.192	0.0179399
773.270	0.0179355
773.348	0.0177791
773.426	0.0176580
773.504	0.0175503
773.582	0.0172456
773.660	0.0172884
773.738	0.0172429
773.817	0.0170003
773.895	0.0170009
773.973	0.0168251
774.051	0.0167615
774.129	0.0168539
774.207	0.0168931
774.285	0.0167732
774.363	0.0167536
774.442	0.0167467
774.520	0.0167657
774.598	0.0171188
774.676	0.0169773
774.754	0.0170885
774.832	0.0171844
774.910	0.0173355
774.988	0.0173404
775.067	0.0173002
775.145	0.0173947
775.223	0.0174938
775.301	0.0173638
775.379	0.0175102
775.457	0.0175910
775.535	0.0175663
775.613	0.0175037
775.692	0.0175768
775.770	0.0175723
775.848	0.0178454
775.926	0.0178933
776.004	0.0178080
776.082	0.0179915
776.160	0.0182745
776.238	0.0183498
776.317	0.0186520
776.395	0.0188182
776.473	0.0189478
776.551	0.0191151
776.629	0.0192888
776.707	0.0193740
776.785	0.0194054
776.863	0.0194758
776.942	0.0195464
777.020	0.0196192
777.098	0.0196313
777.176	0.0193569
777.254	0.0193361
777.332	0.0191442
777.410	0.0190381
777.488	0.0188806
777.567	0.0185405
777.645	0.0185281
777.723	0.0183875
777.801	0.0182649
777.879	0.0181197
777.957	0.0182394
778.035	0.0181898
778.113	0.0179097
778.192	0.0180022
778.270	0.0180292
778.348	0.0180215
778.426	0.0181310
778.504	0.0182933
778.582	0.0183707
778.660	0.0186753
778.738	0.0186138
778.817	0.0187531
778.895	0.0188791
778.973	0.0189599
779.051	0.0189906
779.129	0.0191537
779.207	0.0192221
779.285	0.0192531
779.363	0.0192159
779.442	0.0194105
779.520	0.0194583
779.598	0.0193597
779.676	0.0192126
779.754	0.0192288
779.832	0.0191957
779.910	0.0190444
779.988	0.0189312
780.067	0.0190011
780.145	0.0187967
780.223	0.0187634
780.301	0.0186145
780.379	0.0184586
780.457	0.0183702
780.535	0.0183151
780.613	0.0183449
780.692	0.0182057
780.770	0.0181360
780.848	0.0179433
780.926	0.0179260
781.004	0.0177488
781.082	0.0177656
781.160	0.0175731
781.238	0.0173594
781.317	0.0172972
781.395	0.0172762
781.473	0.0170765
781.551	0.0170588
781.629	0.0170789
781.707	0.0170089
781.785	0.0168600
781.863	0.0167116
781.942	0.0167403
782.020	0.0167001
782.098	0.0166190
782.176	0.0165454
782.254	0.0167848
782.332	0.0167033
782.410	0.0166768
782.488	0.0165945
782.567	0.0167220
782.645	0.0168105
782.723	0.0168640
782.801	0.0170549
782.879	0.0172066
782.957	0.0171714
783.035	0.0174181
783.113	0.0176937
783.192	0.0176029
783.270	0.0178139
783.348	0.0179160
783.426	0.0179391
783.504	0.0180895
783.582	0.0182709
783.660	0.0183589
783.738	0.0184923
783.817	0.0185906
783.895	0.0187477
783.973	0.0187822
784.051	0.0190155
784.129	0.0190301
784.207	0.0190540
784.285	0.0191198
784.363	0.0191623
784.442	0.0192171
784.520	0.0193031
784.598	0.0193774
784.676	0.0191537
784.754	0.0190278
784.832	0.0190923
784.910	0.0190437
784.988	0.0188944
785.067	0.0189157
785.145	0.0187691
785.223	0.0187914
785.301	0.0187274
785.379	0.0186630
785.457	0.0186425
785.535	0.0187195
785.613	0.0186051
785.692	0.0186191
785.770	0.0187296
785.848	0.0186143
785.926	0.0188147
786.004	0.0187456
786.082	0.0189146
786.160	0.0189532
786.238	0.0189829
786.317	0.0188948
786.395	0.0191470
786.473	0.0191090
786.551	0.0190707
786.629	0.0190252
786.707	0.0189423
786.785	0.0190397
786.863	0.0191121
786.942	0.0188427
787.020	0.0189816
787.098	0.0187733
787.176	0.0187645
787.254	0.0186211
787.332	0.0185520
787.410	0.0186020
787.488	0.0185616
787.567	0.0182339
787.645	0.0181870
787.723	0.0183167
787.801	0.0182999
787.879	0.0183128
787.957	0.0183241
788.035	0.0183028
788.113	0.0181651
788.192	0.0182380
788.270	0.0182973
788.348	0.0183176
788.426	0.0183303
788.504	0.0181231
788.582	0.0181325
788.660	0.0179652
788.738	0.0179967
788.817	0.0179687
788.895	0.0176272
788.973	0.0175378
789.051	0.0174707
789.129	0.0173999
789.207	0.0172801
789.285	0.0171136
789.363	0.0168955
789.442	0.0167314
789.520	0.0164442
789.598	0.0165581
789.676	0.0163878
789.754	0.0163148
789.832	0.0163255
789.910	0.0163132
789.988	0.0163396
790.067	0.0163397
790.145	0.0164494
790.223	0.0165344
790.301	0.0167376
790.379	0.0169619
790.457	0.0171018
790.535	0.0172670
790.613	0.0175686
790.692	0.0176753
790.770	0.0177806
790.848	0.0181011
790.926	0.0181355
791.004	0.0183905
791.082	0.0184607
791.160	0.0185833
791.238	0.0187579
791.317	0.0188515
791.395	0.0189712
791.473	0.0190294
791.551	0.0191078
791.629	0.0190376
791.707	0.0190203
791.785	0.0191709
791.863	0.0189960
791.942	0.0189373
792.020	0.0189201
792.098	0.0188370
792.176	0.0187517
792.254	0.0185880
792.332	0.0187284
792.410	0.0184325
792.488	0.0184169
792.567	0.0184610
792.645	0.0183463
792.723	0.0183746
792.801	0.0182962
792.879	0.0183492
792.957	0.0182703
793.035	0.0183385
793.113	0.0182246
793.192	0.0183591
793.270	0.0183996
793.348	0.0185981
793.426	0.0186555
793.504	0.0186850
793.582	0.0187754
793.660	0.0189355
793.738	0.0189129
793.817	0.0189900
793.895	0.0190722
793.973	0.0191474
794.051	0.0192591
794.129	0.0192828
794.207	0.0195063
794.285	0.0194130
794.363	0.0193642
794.442	0.0192696
794.520	0.0192641
794.598	0.0191978
794.676	0.0193480
794.754	0.0191751
794.832	0.0190532
794.910	0.0189188
794.988	0.0188126
795.067	0.0188401
795.145	0.0188531
795.223	0.0187389
795.301	0.0185252
795.379	0.0185052
795.457	0.0184373
795.535	0.0185213
795.613	0.0183246
795.692	0.0181168
795.770	0.0180858
795.848	0.0181815
795.926	0.0179005
796.004	0.0179214
796.082	0.0177472
796.160	0.0175638
796.238	0.0174539
796.317	0.0174293
796.395	0.0172477
796.473	0.0171144
796.551	0.0171913
796.629	0.0169283
796.707	0.0165936
796.785	0.0167229
796.863	0.0166767
796.942	0.0164561
797.020	0.0163231
797.098	0.0162949
797.176	0.0164271
797.254	0.0164854
797.332	0.0164755
797.410	0.0164680
797.488	0.0164893
797.567	0.0165687
797.645	0.0166429
797.723	0.0168012
797.801	0.0168815
797.879	0.0170113
797.957	0.0170230
798.035	0.0172429
798.113	0.0175305
798.192	0.0175694
798.270	0.0176972
798.348	0.0178548
798.426	0.0181450
798.504	0.0181984
798.582	0.0182894
798.660	0.0185120
798.738	0.0187186
798.817	0.0188832
798.895	0.0187788
798.973	0.0189468
799.051	0.0191152
799.129	0.0192771
799.207	0.0193909
799.285	0.0192052
799.363	0.0193211
799.442	0.0193909
799.520	0.0193517
799.598	0.0194357
799.676	0.0192975
799.754	0.0192817
799.832	0.0194388
799.910	0.0192963
799.988	0.0192411
800.067	0.0191685
800.145	0.0192367
800.223	0.0190829
800.301	0.0188320
800.379	0.0188117
800.457	0.0187778
800.535	0.0187585
800.613	0.0186806
800.692	0.0186852
800.770	0.0187362
800.848	0.0185816
800.926	0.0185341
801.004	0.0185653
801.082	0.0185921
801.160	0.0184724
801.238	0.0184772
801.317	0.0185777
801.395	0.0186794
801.473	0.0185178
801.551	0.0186657
801.629	0.0187061
801.707	0.0186760
801.785	0.0187376
801.863	0.0187784
801.942	0.0188025
802.020	0.0186595
802.098	0.0186477
802.176	0.0187665
802.254	0.0188166
802.332	0.0186657
802.410	0.0187576
802.488	0.0186169
802.567	0.0185944
802.645	0.0185531
802.723	0.0185733
802.801	0.0185083
802.879	0.0185468
802.957	0.0184626
803.035	0.0185350
803.113	0.0182745
803.192	0.0182627
803.270	0.0184805
803.348	0.0182550
803.426	0.0183489
803.504	0.0181470
803.582	0.0181431
803.660	0.0181353
803.738	0.0179327
803.817	0.0179695
803.895	0.0179115
803.973	0.0178510
804.051	0.0177459
804.129	0.0175635
804.207	0.0174992
804.285	0.0175023
804.363	0.0173127
804.442	0.0172424
804.520	0.0172598
804.598	0.0171588
804.676	0.0171105
804.754	0.0171236
804.832	0.0170185
804.910	0.0170543
804.988	0.0169524
805.067	0.0170057
805.145	0.0168210
805.223	0.0168553
805.301	0.0172243
805.379	0.0170345
805.457	0.0171374
805.535	0.0172672
805.613	0.0173859
805.692	0.0173820
805.770	0.0176221
805.848	0.0174705
805.926	0.0177016
806.004	0.0179324
806.082	0.0179510
806.160	0.0179901
806.238	0.0180354
806.317	0.0183807
806.395	0.0181281
806.473	0.0184407
806.551	0.0183049
806.629	0.0183788
806.707	0.0184238
806.785	0.0184221
806.863	0.0186006
806.942	0.0187032
807.020	0.0185233
807.098	0.0184481
807.176	0.0184079
807.254	0.0185613
807.332	0.0185798
807.410	0.0186046
807.488	0.0185854
807.567	0.0185067
807.645	0.0186954
807.723	0.0186678
807.801	0.0187123
807.879	0.0186671
807.957	0.0187180
808.035	0.0187699
808.113	0.0189231
808.192	0.0188041
808.270	0.0188669
808.348	0.0187978
808.426	0.0189649
808.504	0.0189318
808.582	0.0190505
808.660	0.0190893
808.738	0.0191406
808.817	0.0191272
808.895	0.0188863
808.973	0.0189886
809.051	0.0189416
809.129	0.0191577
809.207	0.0192395
809.285	0.0189702
809.363	0.0189459
809.442	0.0190421
809.520	0.0189962
809.598	0.0188843
809.676	0.0188039
809.754	0.0189380
809.832	0.0188384
809.910	0.0187962
809.988	0.0187387
810.067	0.0187531
810.145	0.0186285
810.223	0.0186093
810.301	0.0186206
810.379	0.0186505
810.457	0.0184920
810.535	0.0186163
810.613	0.0186082
810.692	0.0185186
810.770	0.0184550
810.848	0.0183805
810.926	0.0181928
811.004	0.0181952
811.082	0.0181405
811.160	0.0177924
811.238	0.0177971
811.317	0.0178143
811.395	0.0176942
811.473	0.0176043
811.551	0.0175037
811.629	0.0174361
811.707	0.0172366
811.785	0.0170918
811.863	0.0170331
811.942	0.0170341
812.020	0.0169434
812.098	0.0168208
812.176	0.0167320
812.254	0.0168090
812.332	0.0167732
812.410	0.0167622
812.488	0.0168004
812.567	0.0169185
812.645	0.0169769
812.723	0.0168697
812.801	0.0170721
812.879	0.0171767
812.957	0.0171237
813.035	0.0172824
813.113	0.0173711
813.192	0.0172347
813.270	0.0174513
813.348	0.0175337
813.426	0.0177528
813.504	0.0178439
813.582	0.0178277
813.660	0.0178851
813.738	0.0179888
813.817	0.0182011
813.895	0.0182631
813.973	0.0182843
814.051	0.0184486
814.129	0.0185027
814.207	0.0184259
814.285	0.0186365
814.363	0.0187461
814.442	0.0186240
814.520	0.0186518
814.598	0.0186902
814.676	0.0187192
814.754	0.0187375
814.832	0.0187000
814.910	0.0187140
814.988	0.0188361
815.067	0.0187969
815.145	0.0188083
815.223	0.0187273
815.301	0.0188325
815.379	0.0188813
815.457	0.0189272
815.535	0.0190760
815.613	0.0189653
815.692	0.0188848
815.770	0.0189899
815.848	0.0189207
815.926	0.0190898
816.004	0.0189565
816.082	0.0189699
816.160	0.0187659
816.238	0.0189171
816.317	0.0190301
816.395	0.0188589
816.473	0.0188432
816.551	0.0187232
816.629	0.0188354
816.707	0.0186340
816.785	0.0186252
816.863	0.0186603
816.942	0.0185089
817.020	0.0185049
817.098	0.0184283
817.176	0.0183447
817.254	0.0184531
817.332	0.0183263
817.410	0.0183532
817.488	0.0184290
817.567	0.0183111
817.645	0.0181009
817.723	0.0182257
817.801	0.0184110
817.879	0.0182417
817.957	0.0181730
818.035	0.0182832
818.113	0.0182559
818.192	0.0181765
818.270	0.0182803
818.348	0.0182454
818.426	0.0180984
818.504	0.0180415
818.582	0.0180654
818.660	0.0180924
818.738	0.0180170
818.817	0.0178925
818.895	0.0180258
818.973	0.0178439
819.051	0.0176797
819.129	0.0176791
819.207	0.0176344
819.285	0.0175482
819.363	0.0175662
819.442	0.0174648
819.520	0.0174062
819.598	0.0174583
819.676	0.0173315
819.754	0.0174340
819.832	0.0173883
819.910	0.0173816
819.988	0.0172218
820.067	0.0173847
820.145	0.0174313
820.223	0.0173694
820.301	0.0173654
820.379	0.0173180
820.457	0.0174401
820.535	0.0175362
820.613	0.0173408
820.692	0.0175007
820.770	0.0174603
820.848	0.0175244
820.926	0.0176393
821.004	0.0177416
821.082	0.0178529
821.160	0.0179833
821.238	0.0180516
821.317	0.0181664
821.395	0.0181623
821.473	0.0183049
821.551	0.0185030
821.629	0.0185520
821.707	0.0185756
821.785	0.0185365
821.863	0.0186749
821.942	0.0186751
822.020	0.0186190
822.098	0.0186727
822.176	0.0184308
822.254	0.0184233
822.332	0.0185257
822.410	0.0183117
822.488	0.0184115
822.567	0.0183484
822.645	0.0183258
822.723	0.0182661
822.801	0.0183072
822.879	0.0184455
822.957	0.0182886
823.035	0.0184160
823.113	0.0183188
823.192	0.0182741
823.270	0.0185381
823.348	0.0185756
823.426	0.0186080
823.504	0.0185518
823.582	0.0188053
823.660	0.0189491
823.738	0.0188201
823.817	0.0187897
823.895	0.0189185
823.973	0.0188814
824.051	0.0187078
824.129	0.0189189
824.207	0.0188174
824.285	0.0189703
824.363	0.0187413
824.442	0.0186785
824.520	0.0187432
824.598	0.0187491
824.676	0.0185600
824.754	0.0184338
824.832	0.0185735
824.910	0.0186015
824.988	0.0185799
825.067	0.0184644
825.145	0.0185282
825.223	0.0184726
825.301	0.0185430
825.379	0.0184678
825.457	0.0184784
825.535	0.0184266
825.613	0.0184492
825.692	0.0183114
825.770	0.0183022
825.848	0.0181321
825.926	0.0182973
826.004	0.0182308
826.082	0.0183356
826.160	0.0182353
826.238	0.0182286
826.317	0.0181702
826.395	0.0180349
826.473	0.0178797
826.551	0.0180325
826.629	0.0178933
826.707	0.0178099
826.785	0.0178583
826.863	0.0179071
826.942	0.0177444
827.020	0.0177489
827.098	0.0176085
827.176	0.0177135
827.254	0.0175153
827.332	0.0176794
827.410	0.0175800
827.488	0.0173876
827.567	0.0175816
827.645	0.0174695
827.723	0.0175650
827.801	0.0175104
827.879	0.0174384
827.957	0.0174461
828.035	0.0174020
828.113	0.0174002
828.192	0.0174401
828.270	0.0174343
828.348	0.0176531
828.426	0.0175605
828.504	0.0177244
828.582	0.0178500
828.660	0.0179302
828.738	0.0179242
828.817	0.0180049
828.895	0.0180836
828.973	0.0182478
829.051	0.0182533
829.129	0.0183855
829.207	0.0183633
829.285	0.0184939
829.363	0.0184540
829.442	0.0186462
829.520	0.0185783
829.598	0.0186965
829.676	0.0186793
829.754	0.0185126
829.832	0.0184815
829.910	0.0186662
829.988	0.0184261
830.067	0.0185268
830.145	0.0185848
830.223	0.0185619
830.301	0.0185615
830.379	0.0183945
830.457	0.0185006
830.535	0.0184692
830.613	0.0183480
830.692	0.0184022
830.770	0.0184868
830.848	0.0183298
830.926	0.0184464
831.004	0.0184225
831.082	0.0185738
831.160	0.0186707
831.238	0.0185377
831.317	0.0185669
831.395	0.0186633
831.473	0.0186274
831.551	0.0186709
831.629	0.0186875
831.707	0.0188274
831.785	0.0186559
831.863	0.0187924
831.942	0.0189186
832.020	0.0187679
832.098	0.0188799
832.176	0.0188447
832.254	0.0188297
832.332	0.0188976
832.410	0.0188737
832.488	0.0186396
832.567	0.0187395
832.645	0.0186658
832.723	0.0186890
832.801	0.0186001
832.879	0.0185941
832.957	0.0183070
833.035	0.0182848
833.113	0.0182747
833.192	0.0183129
833.270	0.0180905
833.348	0.0179924
833.426	0.0179179
833.504	0.0178870
833.582	0.0178536
833.660	0.0180414
833.738	0.0177370
833.817	0.0176894
833.895	0.0178592
833.973	0.0179069
834.051	0.0178555
834.129	0.0179613
834.207	0.0177757
834.285	0.0179417
834.363	0.0179449
834.442	0.0177805
834.520	0.0178476
834.598	0.0179195
834.676	0.0179338
834.754	0.0179190
834.832	0.0179279
834.910	0.0179888
834.988	0.0179118
835.067	0.0179849
835.145	0.0179080
835.223	0.0179967
835.301	0.0178880
835.379	0.0177822
835.457	0.0178690
835.535	0.0179196
835.613	0.0179372
835.692	0.0179002
835.770	0.0178482
835.848	0.0177559
835.926	0.0179364
836.004	0.0178157
836.082	0.0180046
836.160	0.0179456
836.238	0.0179289
836.317	0.0181248
836.395	0.0181184
836.473	0.0180581
836.551	0.0182509
836.629	0.0182493
836.707	0.0183638
836.785	0.0184150
836.863	0.0183979
836.942	0.0184741
837.020	0.0185028
837.098	0.0184941
837.176	0.0186562
837.254	0.0185777
837.332	0.0186241
837.410	0.0184956
837.488	0.0186764
837.567	0.0185016
837.645	0.0184818
837.723	0.0185749
837.801	0.0183929
837.879	0.0184575
837.957	0.0184656
838.035	0.0183339
838.113	0.0183896
838.192	0.0182042
838.270	0.0182737
838.348	0.0182272
838.426	0.0181837
838.504	0.0181355
838.582	0.0180315
838.660	0.0181264
838.738	0.0181689
838.817	0.0181071
838.895	0.0180039
838.973	0.0180988
839.051	0.0183232
839.129	0.0182728
839.207	0.0182986
839.285	0.0182814
839.363	0.0182911
839.442	0.0183699
839.520	0.0183847
839.598	0.0183920
839.676	0.0184433
839.754	0.0186494
839.832	0.0185860
839.910	0.0185952
839.988	0.0186156
840.067	0.0187118
840.145	0.0188454
840.223	0.0187212
840.301	0.0187175
840.379	0.0187516
840.457	0.0186210
840.535	0.0186250
840.613	0.0187542
840.692	0.0187078
840.770	0.0186308
840.848	0.0185188
840.926	0.0184907
841.004	0.0184652
841.082	0.0183464
841.160	0.0183795
841.238	0.0183535
841.317	0.0182442
841.395	0.0183144
841.473	0.0181172
841.551	0.0181467
841.629	0.0179842
841.707	0.0179861
841.785	0.0180128
841.863	0.0179156
841.942	0.0178290
842.020	0.0178910
842.098	0.0180191
842.176	0.0179622
842.254	0.0179655
842.332	0.0180105
842.410	0.0179093
842.488	0.0179172
842.567	0.0179252
842.645	0.0179018
842.723	0.0178522
842.801	0.0178349
842.879	0.0178410
842.957	0.0179538
843.035	0.0178569
843.113	0.0177867
843.192	0.0177145
843.270	0.0176108
843.348	0.0176897
843.426	0.0176281
843.504	0.0175616
843.582	0.0177544
843.660	0.0177284
843.738	0.0176859
843.817	0.0178190
843.895	0.0179427
843.973	0.0178774
844.051	0.0179240
844.129	0.0179852
844.207	0.0181657
844.285	0.0182696
844.363	0.0180831
844.442	0.0181779
844.520	0.0183344
844.598	0.0183834
844.676	0.0183776
844.754	0.0184615
844.832	0.0185210
844.910	0.0186272
844.988	0.0185516
845.067	0.0186681
845.145	0.0186358
845.223	0.0186875
845.301	0.0187625
845.379	0.0186600
845.457	0.0187139
845.535	0.0187237
845.613	0.0187111
845.692	0.0186369
845.770	0.0186292
845.848	0.0185843
845.926	0.0184763
846.004	0.0185417
846.082	0.0182327
846.160	0.0182098
846.238	0.0182751
846.317	0.0182230
846.395	0.0182037
846.473	0.0182735
846.551	0.0181097
846.629	0.0180002
846.707	0.0180504
846.785	0.0180168
846.863	0.0180071
846.942	0.0180442
847.020	0.0179304
847.098	0.0180331
847.176	0.0179111
847.254	0.0180358
847.332	0.0181381
847.410	0.0183567
847.488	0.0181561
847.567	0.0182061
847.645	0.0183755
847.723	0.0183807
847.801	0.0184061
847.879	0.0184332
847.957	0.0185180
848.035	0.0184127
848.113	0.0184878
848.192	0.0183904
848.270	0.0183372
848.348	0.0185030
848.426	0.0184464
848.504	0.0184641
848.582	0.0183919
848.660	0.0183041
848.738	0.0183019
848.817	0.0181728
848.895	0.0182552
848.973	0.0181065
849.051	0.0180580
849.129	0.0180522
849.207	0.0180415
849.285	0.0181255
849.363	0.0179905
849.442	0.0180140
849.520	0.0180765
849.598	0.0181290
849.676	0.0181154
849.754	0.0180724
849.832	0.0180977
849.910	0.0181571
849.988	0.0181792
850.067	0.0181300
850.145	0.0180662
850.223	0.0182649
850.301	0.0182218
850.379	0.0182431
850.457	0.0183012
850.535	0.0182268
850.613	0.0181496
850.692	0.0181928
850.770	0.0181063
850.848	0.0180167
850.926	0.0179197
851.004	0.0179839
851.082	0.0180827
851.160	0.0179540
851.238	0.0178417
851.317	0.0178916
851.395	0.0178916
851.473	0.0179176
851.551	0.0180299
851.629	0.0179378
851.707	0.0181001
851.785	0.0181695
851.863	0.0180299
851.942	0.0181400
852.020	0.0182175
852.098	0.0181157
852.176	0.0181683
852.254	0.0182014
852.332	0.0183595
852.410	0.0183629
852.488	0.0183517
852.567	0.0185227
852.645	0.0185572
852.723	0.0185327
852.801	0.0186711
852.879	0.0187152
852.957	0.0186349
853.035	0.0185715
853.113	0.0185317
853.192	0.0186921
853.270	0.0186639
853.348	0.0185597
853.426	0.0185550
853.504	0.0184654
853.582	0.0184789
853.660	0.0183659
853.738	0.0182639
853.817	0.0182513
853.895	0.0181181
853.973	0.0180827
854.051	0.0181591
854.129	0.0180767
854.207	0.0179688
854.285	0.0179032
854.363	0.0180103
854.442	0.0180123
854.520	0.0179074
854.598	0.0179234
854.676	0.0181425
854.754	0.0180741
854.832	0.0180257
854.910	0.0180370
854.988	0.0181745
855.067	0.0181754
855.145	0.0181503
855.223	0.0180746
855.301	0.0182552
855.379	0.0182817
855.457	0.0183054
855.535	0.0183245
855.613	0.0182592
855.692	0.0183247
855.770	0.0182492
855.848	0.0183897
855.926	0.0183809
856.004	0.0184221
856.082	0.0182568
856.160	0.0182496
856.238	0.0184142
856.317	0.0183893
856.395	0.0184315
856.473	0.0183244
856.551	0.0182529
856.629	0.0182629
856.707	0.0183028
856.785	0.0180775
856.863	0.0182550
856.942	0.0183630
857.020	0.0181805
857.098	0.0182574
857.176	0.0181846
857.254	0.0181757
857.332	0.0183888
857.410	0.0183955
857.488	0.0180820
857.567	0.0182578
857.645	0.0182494
857.723	0.0183681
857.801	0.0183111
857.879	0.0185355
857.957	0.0184434
858.035	0.0184473
858.113	0.0184079
858.192	0.0182659
858.270	0.0182240
858.348	0.0183219
858.426	0.0183691
858.504	0.0181979
858.582	0.0182314
858.660	0.0182873
858.738	0.0181674
858.817	0.0181165
858.895	0.0181773
858.973	0.0181414
859.051	0.0180990
859.129	0.0181969
859.207	0.0180975
859.285	0.0180890
859.363	0.0179852
859.442	0.0182413
859.520	0.0180943
859.598	0.0179929
859.676	0.0180027
859.754	0.0181345
859.832	0.0181516
859.910	0.0182194
859.988	0.0181928
860.067	0.0183030
860.145	0.0182637
860.223	0.0183342
860.301	0.0184618
860.379	0.0183160
860.457	0.0184968
860.535	0.0185555
860.613	0.0185868
860.692	0.0185725
860.770	0.0184556
860.848	0.0185059
860.926	0.0185007
861.004	0.0185008
861.082	0.0186459
861.160	0.0182944
861.238	0.0184231
861.317	0.0184924
861.395	0.0184314
861.473	0.0183510
861.551	0.0184817
861.629	0.0184273
861.707	0.0183224
861.785	0.0182601
861.863	0.0181755
861.942	0.0181973
862.020	0.0179883
862.098	0.0180752
862.176	0.0180577
862.254	0.0178773
862.332	0.0180373
862.410	0.0178837
862.488	0.0178346
862.567	0.0179527
862.645	0.0179633
862.723	0.0177446
862.801	0.0179810
862.879	0.0179465
862.957	0.0178426
863.035	0.0180722
863.113	0.0180575
863.192	0.0181699
863.270	0.0181308
863.348	0.0181615
863.426	0.0182496
863.504	0.0182276
863.582	0.0181691
863.660	0.0182100
863.738	0.0183102
863.817	0.0184420
863.895	0.0185034
863.973	0.0183871
864.051	0.0184898
864.129	0.0183256
864.207	0.0184613
864.285	0.0183627
864.363	0.0183913
864.442	0.0184785
864.520	0.0184355
864.598	0.0184877
864.676	0.0185529
864.754	0.0185043
864.832	0.0184606
864.910	0.0184779
864.988	0.0184107
865.067	0.0184576
865.145	0.0183918
865.223	0.0184138
865.301	0.0184254
865.379	0.0183212
865.457	0.0183501
865.535	0.0183872
865.613	0.0182920
865.692	0.0182212
865.770	0.0183582
865.848	0.0182820
865.926	0.0181380
866.004	0.0182181
866.082	0.0182629
866.160	0.0182355
866.238	0.0182138
866.317	0.0182082
866.395	0.0180476
866.473	0.0180442
866.551	0.0181422
866.629	0.0180735
866.707	0.0179211
866.785	0.0181521
866.863	0.0181985
866.942	0.0180758
867.020	0.0179591
867.098	0.0180752
867.176	0.0180782
867.254	0.0180890
867.332	0.0180969
867.410	0.0182624
867.488	0.0181052
867.567	0.0182659
867.645	0.0182820
867.723	0.0180815
867.801	0.0181567
867.879	0.0184505
867.957	0.0184806
868.035	0.0182999
868.113	0.0184020
868.192	0.0183841
868.270	0.0183900
868.348	0.0185077
868.426	0.0184985
868.504	0.0184483
868.582	0.0184997
868.660	0.0185093
868.738	0.0184189
868.817	0.0183839
868.895	0.0184314
868.973	0.0186010
869.051	0.0183561
869.129	0.0180871
869.207	0.0183152
869.285	0.0182612
869.363	0.0181343
869.442	0.0181517
869.520	0.0182365
869.598	0.0182122
869.676	0.0180006
869.754	0.0181475
869.832	0.0180645
869.910	0.0179556
869.988	0.0181049
870.067	0.0179750
870.145	0.0180269
870.223	0.0178958
870.301	0.0179247
870.379	0.0180045
870.457	0.0180798
870.535	0.0179302
870.613	0.0179017
870.692	0.0178059
870.770	0.0178160
870.848	0.0178328
870.926	0.0178811
871.004	0.0178850
871.082	0.0178486
871.160	0.0177139
871.238	0.0177929
871.317	0.0177610
871.395	0.0178006
871.473	0.0179476
871.551	0.0180070
871.629	0.0180202
871.707	0.0178641
871.785	0.0179921
871.863	0.0180891
871.942	0.0180594
872.020	0.0181830
872.098	0.0181725
872.176	0.0183057
872.254	0.0183014
872.332	0.0184107
872.410	0.0184427
872.488	0.0187067
872.567	0.0185612
872.645	0.0184830
872.723	0.0184930
872.801	0.0186008
872.879	0.0186246
872.957	0.0184861
873.035	0.0184657
873.113	0.0185121
873.192	0.0185249
873.270	0.0184714
873.348	0.0185467
873.426	0.0182502
873.504	0.0181924
873.582	0.0182864
873.660	0.0181334
873.738	0.0181704
873.817	0.0182052
873.895	0.0182454
873.973	0.0179989
874.051	0.0181365
874.129	0.0182429
874.207	0.0180825
874.285	0.0180640
874.363	0.0182360
874.442	0.0182018
874.520	0.0181214
874.598	0.0180453
874.676	0.0181294
874.754	0.0180070
874.832	0.0181866
874.910	0.0180412
874.988	0.0181654
875.067	0.0182281
875.145	0.0179285
875.223	0.0180238
875.301	0.0182784
875.379	0.0180632
875.457	0.0180793
875.535	0.0181884
875.613	0.0181847
875.692	0.0181806
875.770	0.0181841
875.848	0.0181416
875.926	0.0181855
876.004	0.0181174
876.082	0.0181998
876.160	0.0182213
876.238	0.0183620
876.317	0.0184386
876.395	0.0183053
876.473	0.0184818
876.551	0.0183524
876.629	0.0183925
876.707	0.0183031
876.785	0.0183751
876.863	0.0182769
876.942	0.0183934
877.020	0.0183657
877.098	0.0182165
877.176	0.0180329
877.254	0.0181350
877.332	0.0181536
877.410	0.0182664
877.488	0.0181754
877.567	0.0179252
877.645	0.0179148
877.723	0.0179664
877.801	0.0181022
877.879	0.0180177
877.957	0.0176446
878.035	0.0177994
878.113	0.0179348
878.192	0.0177539
878.270	0.0176080
878.348	0.0177979
878.426	0.0178674
878.504	0.0177656
878.582	0.0176244
878.660	0.0177280
878.738	0.0177246
878.817	0.0178188
878.895	0.0178192
878.973	0.0179115
879.051	0.0179185
879.129	0.0181437
879.207	0.0180872
879.285	0.0182095
879.363	0.0183053
879.442	0.0182789
879.520	0.0183057
879.598	0.0182671
879.676	0.0185353
879.754	0.0186557
879.832	0.0185400
879.910	0.0186440
879.988	0.0187411
880.067	0.0187766
880.145	0.0186553
880.223	0.0186771
880.301	0.0187214
880.379	0.0185392
880.457	0.0186409
880.535	0.0185583
880.613	0.0185579
880.692	0.0184735
880.770	0.0184070
880.848	0.0186157
880.926	0.0182301
881.004	0.0184431
881.082	0.0183118
881.160	0.0184276
881.238	0.0183472
881.317	0.0181888
881.395	0.0182987
881.473	0.0182391
881.551	0.0182263
881.629	0.0183315
881.707	0.0183727
881.785	0.0184082
881.863	0.0183192
881.942	0.0181673
882.020	0.0183488
882.098	0.0182488
882.176	0.0182713
882.254	0.0183221
882.332	0.0182755
882.410	0.0182169
882.488	0.0183031
882.567	0.0183178
882.645	0.0183389
882.723	0.0182914
882.801	0.0182684
882.879	0.0183965
882.957	0.0182893
883.035	0.0184077
883.113	0.0184322
883.192	0.0183633
883.270	0.0183582
883.348	0.0185419
883.426	0.0185242
883.504	0.0184323
883.582	0.0184105
883.660	0.0183695
883.738	0.0184602
883.817	0.0183965
883.895	0.0182953
883.973	0.0182763
884.051	0.0183428
884.129	0.0183538
884.207	0.0182454
884.285	0.0182893
884.363	0.0182175
884.442	0.0182948
884.520	0.0183141
884.598	0.0182062
884.676	0.0181735
884.754	0.0181963
884.832	0.0181783
884.910	0.0182838
884.988	0.0181702
885.067	0.0181968
885.145	0.0181812
885.223	0.0181875
885.301	0.0180756
885.379	0.0180501
885.457	0.0180850
885.535	0.0181081
885.613	0.0180807
885.692	0.0182143
885.770	0.0180054
885.848	0.0180091
885.926	0.0180123
886.004	0.0181254
886.082	0.0180290
886.160	0.0178087
886.238	0.0178268
886.317	0.0180637
886.395	0.0181249
886.473	0.0179843
886.551	0.0179251
886.629	0.0179628
886.707	0.0179881
886.785	0.0179098
886.863	0.0180293
886.942	0.0180397
887.020	0.0181369
887.098	0.0180610
887.176	0.0181562
887.254	0.0183196
887.332	0.0183719
887.410	0.0183911
887.488	0.0183443
887.567	0.0183124
887.645	0.0183410
887.723	0.0183632
887.801	0.0183976
887.879	0.0184737
887.957	0.0184332
888.035	0.0183661
888.113	0.0183452
888.192	0.0183167
888.270	0.0183688
888.348	0.0182201
888.426	0.0183155
888.504	0.0183449
888.582	0.0182143
888.660	0.0182173
888.738	0.0183352
888.817	0.0182858
888.895	0.0184615
888.973	0.0183730
889.051	0.0185638
889.129	0.0184766
889.207	0.0185114
889.285	0.0184577
889.363	0.0185281
889.442	0.0184729
889.520	0.0183654
889.598	0.0183376
889.676	0.0184039
889.754	0.0184552
889.832	0.0184260
889.910	0.0184577
889.988	0.0186217
890.067	0.0184335
890.145	0.0183242
890.223	0.0184145
890.301	0.0185830
890.379	0.0184145
890.457	0.0182838
890.535	0.0183727
890.613	0.0182793
890.692	0.0182996
890.770	0.0182476
890.848	0.0182883
890.926	0.0183414
891.004	0.0182190
891.082	0.0181052
891.160	0.0183251
891.238	0.0183144
891.317	0.0182061
891.395	0.0182158
891.473	0.0182361
891.551	0.0181961
891.629	0.0181837
891.707	0.0182832
891.785	0.0183434
891.863	0.0182851
891.942	0.0180360
892.020	0.0180814
892.098	0.0181836
892.176	0.0180805
892.254	0.0180338
892.332	0.0179405
892.410	0.0180513
892.488	0.0180463
892.567	0.0179327
892.645	0.0179299
892.723	0.0179211
892.801	0.0179030
892.879	0.0179665
892.957	0.0179269
893.035	0.0179179
893.113	0.0179012
893.192	0.0180703
893.270	0.0179061
893.348	0.0180357
893.426	0.0179375
893.504	0.0180037
893.582	0.0179756
893.660	0.0180586
893.738	0.0180646
893.817	0.0178542
893.895	0.0178825
893.973	0.0180804
894.051	0.0180575
894.129	0.0179871
894.207	0.0180914
894.285	0.0181786
894.363	0.0181685
894.442	0.0182390
894.520	0.0181074
894.598	0.0181879
894.676	0.0182938
894.754	0.0182375
894.832	0.0183178
894.910	0.0182697
894.988	0.0182474
895.067	0.0183307
895.145	0.0183775
895.223	0.0183467
895.301	0.0183781
895.379	0.0182208
895.457	0.0183204
895.535	0.0183487
895.613	0.0184527
895.692	0.0182962
895.770	0.0182921
895.848	0.0181890
895.926	0.0183112
896.004	0.0183179
896.082	0.0183079
896.160	0.0180861
896.238	0.0181039
896.317	0.0181799
896.395	0.0182682
896.473	0.0181033
896.551	0.0181926
896.629	0.0181158
896.707	0.0182301
896.785	0.0183059
896.863	0.0182462
896.942	0.0181396
897.020	0.0180937
897.098	0.0184245
897.176	0.0183450
897.254	0.0181978
897.332	0.0183406
897.410	0.0183246
897.488	0.0183080
897.567	0.0184602
897.645	0.0182812
897.723	0.0182599
897.801	0.0181329
897.879	0.0182220
897.957	0.0183911
898.035	0.0181936
898.113	0.0181295
898.192	0.0182773
898.270	0.0181183
898.348	0.0180947
898.426	0.0182817
898.504	0.0181844
898.582	0.0180556
898.660	0.0181344
898.738	0.0182502
898.817	0.0183439
898.895	0.0184321
898.973	0.0182142
899.051	0.0182333
899.129	0.0183141
899.207	0.0182182
899.285	0.0182587
899.363	0.0183514
899.442	0.0183543
899.520	0.0182926
899.598	0.0183011
899.676	0.0183277
899.754	0.0183079
899.832	0.0181698
899.910	0.0183282
899.988	0.0182330
900.067	0.0183398
900.145	0.0181873
900.223	0.0180801
900.301	0.0180950
900.379	0.0179622
900.457	0.0179955
900.535	0.0180291
900.613	0.0180072
900.692	0.0180865
900.770	0.0179650
900.848	0.0180357
900.926	0.0178535
901.004	0.0179994
901.082	0.0180502
901.160	0.0179903
901.238	0.0178027
901.317	0.0180365
901.395	0.0179481
901.473	0.0179482
901.551	0.0180217
901.629	0.0178997
901.707	0.0180506
901.785	0.0180422
901.863	0.0180680
901.942	0.0179666
902.020	0.0180689
902.098	0.0181358
902.176	0.0180706
902.254	0.0181370
902.332	0.0181877
902.410	0.0182465
902.488	0.0181673
902.567	0.0181232
902.645	0.0182307
902.723	0.0181798
902.801	0.0182898
902.879	0.0183074
902.957	0.0183571
903.035	0.0181297
903.113	0.0182729
903.192	0.0183842
903.270	0.0183146
903.348	0.0183482
903.426	0.0183376
903.504	0.0183228
903.582	0.0183048
903.660	0.0184143
903.738	0.0184828
903.817	0.0184621
903.895	0.0183140
903.973	0.0185009
904.051	0.0182456
904.129	0.0182384
904.207	0.0183981
904.285	0.0182794
904.363	0.0182339
904.442	0.0184162
904.520	0.0182402
904.598	0.0181532
904.676	0.0182424
904.754	0.0182262
904.832	0.0182471
904.910	0.0185287
904.988	0.0183778
905.067	0.0181528
905.145	0.0184097
905.223	0.0183698
905.301	0.0184085
905.379	0.0182848
905.457	0.0182632
905.535	0.0182709
905.613	0.0183411
905.692	0.0182632
905.770	0.0182431
905.848	0.0182661
905.926	0.0182155
906.004	0.0182474
906.082	0.0183047
906.160	0.0183006
906.238	0.0183324
906.317	0.0183069
906.395	0.0183570
906.473	0.0183842
906.551	0.0182772
906.629	0.0183358
906.707	0.0183542
906.785	0.0183705
906.863	0.0183700
906.942	0.0184519
907.020	0.0184347
907.098	0.0183044
907.176	0.0183827
907.254	0.0183193
907.332	0.0182752
907.410	0.0184284
907.488	0.0184293
907.567	0.0180990
907.645	0.0182839
907.723	0.0180853
907.801	0.0179860
907.879	0.0181673
907.957	0.0180032
908.035	0.0181124
908.113	0.0178104
908.192	0.0178783
908.270	0.0179034
908.348	0.0178250
908.426	0.0178749
908.504	0.0178461
908.582	0.0180319
908.660	0.0178871
908.738	0.0178457
908.817	0.0180184
908.895	0.0178517
908.973	0.0179879
909.051	0.0180453
909.129	0.0179147
909.207	0.0179465
909.285	0.0181163
909.363	0.0180253
909.442	0.0179738
909.520	0.0180478
909.598	0.0181056
909.676	0.0180785
909.754	0.0182288
909.832	0.0182377
909.910	0.0182089
909.988	0.0181947
910.067	0.0182810
910.145	0.0183595
910.223	0.0184164
910.301	0.0184817
910.379	0.0182591
910.457	0.0182855
910.535	0.0185834
910.613	0.0185021
910.692	0.0184772
910.770	0.0184352
910.848	0.0184815
910.926	0.0184303
911.004	0.0184370
911.082	0.0185175
911.160	0.0184883
911.238	0.0184924
911.317	0.0185168
911.395	0.0183936
911.473	0.0183939
911.551	0.0183664
911.629	0.0184312
911.707	0.0183382
911.785	0.0183343
911.863	0.0182463
911.942	0.0183458
912.020	0.0182681
912.098	0.0182762
912.176	0.0182737
912.254	0.0183167
912.332	0.0182788
912.410	0.0182846
912.488	0.0183126
912.567	0.0183295
912.645	0.0183064
912.723	0.0183126
912.801	0.0183006
912.879	0.0182222
912.957	0.0184389
913.035	0.0182999
913.113	0.0183535
913.192	0.0183679
913.270	0.0184291
913.348	0.0183014
913.426	0.0182796
913.504	0.0183752
913.582	0.0182517
913.660	0.0182879
913.738	0.0181589
913.817	0.0182060
913.895	0.0183083
913.973	0.0182220
914.051	0.0182027
914.129	0.0180500
914.207	0.0181326
914.285	0.0180777
914.363	0.0182642
914.442	0.0182684
914.520	0.0182539
914.598	0.0182375
914.676	0.0181468
914.754	0.0181146
914.832	0.0181703
914.910	0.0181305
914.988	0.0181419
915.067	0.0183108
915.145	0.0183675
915.223	0.0182367
915.301	0.0183228
915.379	0.0183587
915.457	0.0183620
915.535	0.0184853
915.613	0.0183518
915.692	0.0184016
915.770	0.0183792
915.848	0.0182466
915.926	0.0183754
916.004	0.0182867
916.082	0.0182755
916.160	0.0182456
916.238	0.0181585
916.317	0.0180707
916.395	0.0181377
916.473	0.0181866
916.551	0.0180592
916.629	0.0180920
916.707	0.0180628
916.785	0.0181149
916.863	0.0180110
916.942	0.0181750
917.020	0.0181853
917.098	0.0181175
917.176	0.0182010
917.254	0.0181400
917.332	0.0182211
917.410	0.0182807
917.488	0.0181238
917.567	0.0182698
917.645	0.0182563
917.723	0.0181729
917.801	0.0182975
917.879	0.0182520
917.957	0.0182284
918.035	0.0182340
918.113	0.0181355
918.192	0.0182851
918.270	0.0181990
918.348	0.0181911
918.426	0.0181937
918.504	0.0182103
918.582	0.0182925
918.660	0.0182108
918.738	0.0182358
918.817	0.0181824
918.895	0.0181303
918.973	0.0181844
919.051	0.0183355
919.129	0.0182302
919.207	0.0182198
919.285	0.0182301
919.363	0.0182510
919.442	0.0181342
919.520	0.0182815
919.598	0.0183170
919.676	0.0182818
919.754	0.0182616
919.832	0.0182664
919.910	0.0182490
