06/01/2022	21:30:37	Ver.	4.1	UNKNOWN
Optical Delay	599.988409	Delta X		0.078125	Sweeps	1	Scan Rate	0/0
Coordinates	Axis 1	NaN	Axis 2	NaN	Axis 3	NaN	Axis 4	NaN	Axis 5	NaN	Axis 6	0.000000
TX Power	0.000000	RX Power	0.000000

599.988	0.0181500
600.067	0.0181345
600.145	0.0182204
600.223	0.0180877
600.301	0.0180730
600.379	0.0180932
600.457	0.0181007
600.535	0.0180698
600.613	0.0181218
600.692	0.0181355
600.770	0.0179177
600.848	0.0181583
600.926	0.0181995
601.004	0.0182177
601.082	0.0180312
601.160	0.0181717
601.238	0.0181458
601.317	0.0181328
601.395	0.0182642
601.473	0.0182301
601.551	0.0180466
601.629	0.0181380
601.707	0.0182808
601.785	0.0181230
601.863	0.0182336
601.942	0.0180913
602.020	0.0181274
602.098	0.0182610
602.176	0.0182613
602.254	0.0180453
602.332	0.0181883
602.410	0.0182242
602.488	0.0181406
602.567	0.0181499
602.645	0.0181320
602.723	0.0182379
602.801	0.0182006
602.879	0.0181490
602.957	0.0181828
603.035	0.0180338
603.113	0.0181875
603.192	0.0181812
603.270	0.0180476
603.348	0.0181622
603.426	0.0181196
603.504	0.0182072
603.582	0.0181775
603.660	0.0180261
603.738	0.0182202
603.817	0.0181923
603.895	0.0180758
603.973	0.0181617
604.051	0.0181041
604.129	0.0180810
604.207	0.0182110
604.285	0.0181443
604.363	0.0183229
604.442	0.0183121
604.520	0.0182159
604.598	0.0182069
604.676	0.0181222
604.754	0.0182702
604.832	0.0182502
604.910	0.0181102
604.988	0.0181766
605.067	0.0182423
605.145	0.0180049
605.223	0.0182307
605.301	0.0182708
605.379	0.0180724
605.457	0.0180814
605.535	0.0182258
605.613	0.0181213
605.692	0.0182058
605.770	0.0181956
605.848	0.0180585
605.926	0.0180836
606.004	0.0182178
606.082	0.0180724
606.160	0.0181154
606.238	0.0180763
606.317	0.0181239
606.395	0.0180730
606.473	0.0182332
606.551	0.0181011
606.629	0.0181606
606.707	0.0180556
606.785	0.0181519
606.863	0.0180824
606.942	0.0181152
607.020	0.0181889
607.098	0.0182320
607.176	0.0181390
607.254	0.0181135
607.332	0.0181473
607.410	0.0181106
607.488	0.0181383
607.567	0.0181168
607.645	0.0181221
607.723	0.0180155
607.801	0.0181919
607.879	0.0181031
607.957	0.0181040
608.035	0.0180205
608.113	0.0181411
608.192	0.0181364
608.270	0.0181993
608.348	0.0181497
608.426	0.0181047
608.504	0.0182776
608.582	0.0182275
608.660	0.0180465
608.738	0.0181548
608.817	0.0179608
608.895	0.0180975
608.973	0.0181146
609.051	0.0179865
609.129	0.0182452
609.207	0.0181663
609.285	0.0181506
609.363	0.0179927
609.442	0.0181744
609.520	0.0181216
609.598	0.0180859
609.676	0.0180515
609.754	0.0181174
609.832	0.0181892
609.910	0.0181810
609.988	0.0180859
610.067	0.0181984
610.145	0.0181962
610.223	0.0181087
610.301	0.0181095
610.379	0.0181402
610.457	0.0180968
610.535	0.0182398
610.613	0.0181520
610.692	0.0178627
610.770	0.0182687
610.848	0.0182800
610.926	0.0182225
611.004	0.0181633
611.082	0.0181230
611.160	0.0182011
611.238	0.0181479
611.317	0.0180520
611.395	0.0183189
611.473	0.0182521
611.551	0.0181158
611.629	0.0179749
611.707	0.0180811
611.785	0.0181296
611.863	0.0181252
611.942	0.0180145
612.020	0.0181991
612.098	0.0181879
612.176	0.0181324
612.254	0.0180865
612.332	0.0181844
612.410	0.0180958
612.488	0.0181297
612.567	0.0181732
612.645	0.0180946
612.723	0.0181964
612.801	0.0180890
612.879	0.0180381
612.957	0.0181457
613.035	0.0181797
613.113	0.0179774
613.192	0.0180304
613.270	0.0181255
613.348	0.0180612
613.426	0.0180598
613.504	0.0181807
613.582	0.0181499
613.660	0.0181239
613.738	0.0180920
613.817	0.0181344
613.895	0.0181413
613.973	0.0181594
614.051	0.0181164
614.129	0.0180319
614.207	0.0180251
614.285	0.0180833
614.363	0.0181904
614.442	0.0181151
614.520	0.0182112
614.598	0.0180962
614.676	0.0182835
614.754	0.0181454
614.832	0.0180882
614.910	0.0182871
614.988	0.0181931
615.067	0.0181635
615.145	0.0180617
615.223	0.0180733
615.301	0.0180963
615.379	0.0180394
615.457	0.0180554
615.535	0.0179794
615.613	0.0181010
615.692	0.0180485
615.770	0.0180598
615.848	0.0181468
615.926	0.0180405
616.004	0.0181791
616.082	0.0182478
616.160	0.0181709
616.238	0.0180315
616.317	0.0180833
616.395	0.0181853
616.473	0.0182205
616.551	0.0180956
616.629	0.0180785
616.707	0.0180515
616.785	0.0180819
616.863	0.0181342
616.942	0.0181110
617.020	0.0181349
617.098	0.0180589
617.176	0.0181631
617.254	0.0182985
617.332	0.0181669
617.410	0.0181824
617.488	0.0181134
617.567	0.0181293
617.645	0.0181223
617.723	0.0181079
617.801	0.0182851
617.879	0.0180505
617.957	0.0180254
618.035	0.0180959
618.113	0.0181773
618.192	0.0180734
618.270	0.0181081
618.348	0.0182485
618.426	0.0181761
618.504	0.0180858
618.582	0.0181419
618.660	0.0180997
618.738	0.0182492
618.817	0.0179916
618.895	0.0180939
618.973	0.0182074
619.051	0.0181252
619.129	0.0180647
619.207	0.0181930
619.285	0.0180572
619.363	0.0181628
619.442	0.0181848
619.520	0.0179996
619.598	0.0181210
619.676	0.0181676
619.754	0.0182722
619.832	0.0181142
619.910	0.0180282
619.988	0.0181779
620.067	0.0181899
620.145	0.0180371
620.223	0.0182799
620.301	0.0181390
620.379	0.0181989
620.457	0.0180259
620.535	0.0180933
620.613	0.0180076
620.692	0.0180958
620.770	0.0182504
620.848	0.0181564
620.926	0.0180928
621.004	0.0180327
621.082	0.0181689
621.160	0.0180245
621.238	0.0181773
621.317	0.0181368
621.395	0.0181284
621.473	0.0181352
621.551	0.0181391
621.629	0.0180372
621.707	0.0180946
621.785	0.0182131
621.863	0.0182484
621.942	0.0181395
622.020	0.0180530
622.098	0.0181207
622.176	0.0181763
622.254	0.0180845
622.332	0.0181291
622.410	0.0181232
622.488	0.0180370
622.567	0.0181973
622.645	0.0181506
622.723	0.0180878
622.801	0.0181258
622.879	0.0181770
622.957	0.0181660
623.035	0.0183030
623.113	0.0181535
623.192	0.0180488
623.270	0.0181274
623.348	0.0180418
623.426	0.0182189
623.504	0.0182353
623.582	0.0180479
623.660	0.0180648
623.738	0.0181236
623.817	0.0180808
623.895	0.0181203
623.973	0.0181046
624.051	0.0181059
624.129	0.0182115
624.207	0.0181028
624.285	0.0181373
624.363	0.0182337
624.442	0.0181357
624.520	0.0181032
624.598	0.0181338
624.676	0.0180660
624.754	0.0181409
624.832	0.0182919
624.910	0.0181902
624.988	0.0181418
625.067	0.0181597
625.145	0.0181735
625.223	0.0182085
625.301	0.0181484
625.379	0.0181312
625.457	0.0182983
625.535	0.0181470
625.613	0.0182097
625.692	0.0181031
625.770	0.0181095
625.848	0.0181178
625.926	0.0182378
626.004	0.0181850
626.082	0.0182875
626.160	0.0182198
626.238	0.0182153
626.317	0.0182140
626.395	0.0181618
626.473	0.0181215
626.551	0.0182406
626.629	0.0181192
626.707	0.0181961
626.785	0.0181319
626.863	0.0182362
626.942	0.0182140
627.020	0.0181047
627.098	0.0181714
627.176	0.0182324
627.254	0.0181455
627.332	0.0182087
627.410	0.0182685
627.488	0.0180900
627.567	0.0182359
627.645	0.0181197
627.723	0.0181292
627.801	0.0181006
627.879	0.0180925
627.957	0.0181110
628.035	0.0182155
628.113	0.0181361
628.192	0.0181152
628.270	0.0181847
628.348	0.0181915
628.426	0.0181201
628.504	0.0180752
628.582	0.0181181
628.660	0.0180202
628.738	0.0181836
628.817	0.0182060
628.895	0.0182460
628.973	0.0182902
629.051	0.0180992
629.129	0.0180315
629.207	0.0181236
629.285	0.0181847
629.363	0.0180042
629.442	0.0182224
629.520	0.0181637
629.598	0.0180476
629.676	0.0181945
629.754	0.0181133
629.832	0.0180084
629.910	0.0180068
629.988	0.0180798
630.067	0.0180817
630.145	0.0182016
630.223	0.0180768
630.301	0.0181191
630.379	0.0181254
630.457	0.0182205
630.535	0.0180759
630.613	0.0180980
630.692	0.0181960
630.770	0.0180080
630.848	0.0181984
630.926	0.0182200
631.004	0.0181375
631.082	0.0181140
631.160	0.0180521
631.238	0.0180695
631.317	0.0181239
631.395	0.0182553
631.473	0.0182628
631.551	0.0180260
631.629	0.0181844
631.707	0.0181903
631.785	0.0180653
631.863	0.0181744
631.942	0.0182417
632.020	0.0181620
632.098	0.0181831
632.176	0.0181445
632.254	0.0182117
632.332	0.0182178
632.410	0.0180602
632.488	0.0182368
632.567	0.0181924
632.645	0.0181214
632.723	0.0182046
632.801	0.0181146
632.879	0.0181611
632.957	0.0181168
633.035	0.0181557
633.113	0.0181110
633.192	0.0181873
633.270	0.0182568
633.348	0.0181638
633.426	0.0179670
633.504	0.0180879
633.582	0.0180840
633.660	0.0182283
633.738	0.0182259
633.817	0.0181043
633.895	0.0181682
633.973	0.0180808
634.051	0.0182824
634.129	0.0181148
634.207	0.0180035
634.285	0.0181559
634.363	0.0182440
634.442	0.0180116
634.520	0.0181184
634.598	0.0182495
634.676	0.0180951
634.754	0.0179373
634.832	0.0181043
634.910	0.0181092
634.988	0.0180186
635.067	0.0180981
635.145	0.0181336
635.223	0.0181444
635.301	0.0181837
635.379	0.0180321
635.457	0.0181399
635.535	0.0182113
635.613	0.0181045
635.692	0.0182568
635.770	0.0182294
635.848	0.0180688
635.926	0.0180621
636.004	0.0181608
636.082	0.0181478
636.160	0.0181467
636.238	0.0181004
636.317	0.0182024
636.395	0.0180522
636.473	0.0181855
636.551	0.0182656
636.629	0.0180660
636.707	0.0181695
636.785	0.0181467
636.863	0.0182413
636.942	0.0182143
637.020	0.0181525
637.098	0.0182333
637.176	0.0181651
637.254	0.0180609
637.332	0.0181549
637.410	0.0181415
637.488	0.0182008
637.567	0.0182136
637.645	0.0181261
637.723	0.0182029
637.801	0.0182565
637.879	0.0182891
637.957	0.0180761
638.035	0.0181580
638.113	0.0182244
638.192	0.0180233
638.270	0.0180901
638.348	0.0180606
638.426	0.0180404
638.504	0.0181965
638.582	0.0181429
638.660	0.0180083
638.738	0.0182365
638.817	0.0181126
638.895	0.0182603
638.973	0.0181311
639.051	0.0180087
639.129	0.0182999
639.207	0.0181184
639.285	0.0181655
639.363	0.0181765
639.442	0.0182050
639.520	0.0181718
639.598	0.0180630
639.676	0.0183286
639.754	0.0180807
639.832	0.0181211
639.910	0.0182774
639.988	0.0180622
640.067	0.0180414
640.145	0.0181079
640.223	0.0182098
640.301	0.0181727
640.379	0.0182558
640.457	0.0182394
640.535	0.0181986
640.613	0.0180658
640.692	0.0181864
640.770	0.0181219
640.848	0.0181046
640.926	0.0182854
641.004	0.0182630
641.082	0.0182237
641.160	0.0181068
641.238	0.0180676
641.317	0.0180708
641.395	0.0181918
641.473	0.0182287
641.551	0.0180465
641.629	0.0181240
641.707	0.0182174
641.785	0.0183435
641.863	0.0180386
641.942	0.0180739
642.020	0.0180854
642.098	0.0182211
642.176	0.0180412
642.254	0.0181715
642.332	0.0182274
642.410	0.0182310
642.488	0.0181232
642.567	0.0180802
642.645	0.0181793
642.723	0.0181812
642.801	0.0182614
642.879	0.0180889
642.957	0.0180872
643.035	0.0180893
643.113	0.0182384
643.192	0.0182095
643.270	0.0181417
643.348	0.0182469
643.426	0.0182203
643.504	0.0180821
643.582	0.0180727
643.660	0.0181548
643.738	0.0180658
643.817	0.0179994
643.895	0.0180655
643.973	0.0182788
644.051	0.0182129
644.129	0.0181475
644.207	0.0181699
644.285	0.0180279
644.363	0.0180659
644.442	0.0181303
644.520	0.0182141
644.598	0.0182281
644.676	0.0182172
644.754	0.0182320
644.832	0.0181944
644.910	0.0181988
644.988	0.0182446
645.067	0.0181601
645.145	0.0180825
645.223	0.0180487
645.301	0.0182629
645.379	0.0181296
645.457	0.0182627
645.535	0.0182621
645.613	0.0181084
645.692	0.0181779
645.770	0.0180631
645.848	0.0181642
645.926	0.0179668
646.004	0.0181780
646.082	0.0182896
646.160	0.0181616
646.238	0.0180573
646.317	0.0180173
646.395	0.0181776
646.473	0.0180222
646.551	0.0181274
646.629	0.0181982
646.707	0.0181262
646.785	0.0181470
646.863	0.0181322
646.942	0.0181316
647.020	0.0180667
647.098	0.0180536
647.176	0.0182372
647.254	0.0181392
647.332	0.0180172
647.410	0.0181954
647.488	0.0182083
647.567	0.0180296
647.645	0.0181490
647.723	0.0181632
647.801	0.0180538
647.879	0.0181812
647.957	0.0181440
648.035	0.0181742
648.113	0.0180474
648.192	0.0180103
648.270	0.0180099
648.348	0.0180518
648.426	0.0180711
648.504	0.0182069
648.582	0.0180284
648.660	0.0180957
648.738	0.0181632
648.817	0.0180157
648.895	0.0180868
648.973	0.0182189
649.051	0.0181902
649.129	0.0180672
649.207	0.0179717
649.285	0.0182735
649.363	0.0181290
649.442	0.0181901
649.520	0.0180957
649.598	0.0180578
649.676	0.0180845
649.754	0.0180379
649.832	0.0182337
649.910	0.0181521
649.988	0.0181155
650.067	0.0181791
650.145	0.0182099
650.223	0.0180799
650.301	0.0180556
650.379	0.0180734
650.457	0.0181246
650.535	0.0181423
650.613	0.0180830
650.692	0.0183143
650.770	0.0182420
650.848	0.0181916
650.926	0.0179517
651.004	0.0181564
651.082	0.0181488
651.160	0.0181117
651.238	0.0181508
651.317	0.0181245
651.395	0.0181740
651.473	0.0181181
651.551	0.0181300
651.629	0.0180199
651.707	0.0182900
651.785	0.0182393
651.863	0.0182629
651.942	0.0182306
652.020	0.0180810
652.098	0.0182268
652.176	0.0181351
652.254	0.0180602
652.332	0.0180827
652.410	0.0182395
652.488	0.0182077
652.567	0.0181723
652.645	0.0181727
652.723	0.0180479
652.801	0.0180804
652.879	0.0181101
652.957	0.0181190
653.035	0.0180314
653.113	0.0181342
653.192	0.0181992
653.270	0.0180898
653.348	0.0181562
653.426	0.0182780
653.504	0.0180594
653.582	0.0181478
653.660	0.0180868
653.738	0.0181148
653.817	0.0181946
653.895	0.0181870
653.973	0.0181400
654.051	0.0181750
654.129	0.0179547
654.207	0.0180722
654.285	0.0182893
654.363	0.0182130
654.442	0.0181351
654.520	0.0181046
654.598	0.0180170
654.676	0.0182018
654.754	0.0181184
654.832	0.0181012
654.910	0.0182030
654.988	0.0181618
655.067	0.0183108
655.145	0.0180785
655.223	0.0181586
655.301	0.0182122
655.379	0.0181861
655.457	0.0180939
655.535	0.0181660
655.613	0.0181008
655.692	0.0180689
655.770	0.0181471
655.848	0.0180397
655.926	0.0180397
656.004	0.0181037
656.082	0.0180820
656.160	0.0180467
656.238	0.0180379
656.317	0.0182707
656.395	0.0180454
656.473	0.0181429
656.551	0.0181156
656.629	0.0180778
656.707	0.0181648
656.785	0.0181490
656.863	0.0180682
656.942	0.0181600
657.020	0.0181594
657.098	0.0182130
657.176	0.0180688
657.254	0.0182501
657.332	0.0181319
657.410	0.0181605
657.488	0.0180202
657.567	0.0180663
657.645	0.0180452
657.723	0.0181992
657.801	0.0181275
657.879	0.0181625
657.957	0.0180659
658.035	0.0182682
658.113	0.0182706
658.192	0.0181046
658.270	0.0180078
658.348	0.0179684
658.426	0.0180667
658.504	0.0181171
658.582	0.0180640
658.660	0.0180095
658.738	0.0181086
658.817	0.0180993
658.895	0.0181223
658.973	0.0181019
659.051	0.0180904
659.129	0.0181863
659.207	0.0180384
659.285	0.0181804
659.363	0.0182674
659.442	0.0181563
659.520	0.0180091
659.598	0.0182010
659.676	0.0180183
659.754	0.0180827
659.832	0.0181483
659.910	0.0181680
659.988	0.0181021
660.067	0.0181970
660.145	0.0181153
660.223	0.0180496
660.301	0.0181011
660.379	0.0182069
660.457	0.0181261
660.535	0.0180572
660.613	0.0181708
660.692	0.0181908
660.770	0.0181318
660.848	0.0179568
660.926	0.0181149
661.004	0.0181954
661.082	0.0181079
661.160	0.0181149
661.238	0.0181409
661.317	0.0180695
661.395	0.0180956
661.473	0.0182829
661.551	0.0182301
661.629	0.0180476
661.707	0.0181541
661.785	0.0181631
661.863	0.0180795
661.942	0.0179937
662.020	0.0181953
662.098	0.0181996
662.176	0.0182063
662.254	0.0180397
662.332	0.0182996
662.410	0.0180769
662.488	0.0180667
662.567	0.0179761
662.645	0.0181314
662.723	0.0181293
662.801	0.0181664
662.879	0.0181967
662.957	0.0181268
663.035	0.0181140
663.113	0.0181837
663.192	0.0180923
663.270	0.0182133
663.348	0.0181637
663.426	0.0181767
663.504	0.0180614
663.582	0.0181722
663.660	0.0181191
663.738	0.0182134
663.817	0.0180387
663.895	0.0182086
663.973	0.0181080
664.051	0.0182263
664.129	0.0182424
664.207	0.0181184
664.285	0.0181506
664.363	0.0180841
664.442	0.0181370
664.520	0.0182415
664.598	0.0181793
664.676	0.0180890
664.754	0.0181659
664.832	0.0180848
664.910	0.0180620
664.988	0.0181061
665.067	0.0181073
665.145	0.0181941
665.223	0.0182187
665.301	0.0181371
665.379	0.0180547
665.457	0.0181709
665.535	0.0181860
665.613	0.0181566
665.692	0.0181615
665.770	0.0182362
665.848	0.0180666
665.926	0.0181642
666.004	0.0181713
666.082	0.0181890
666.160	0.0181744
666.238	0.0182631
666.317	0.0181410
666.395	0.0181077
666.473	0.0182092
666.551	0.0180751
666.629	0.0181857
666.707	0.0181861
666.785	0.0182596
666.863	0.0182956
666.942	0.0182494
667.020	0.0182134
667.098	0.0181732
667.176	0.0181402
667.254	0.0182188
667.332	0.0182244
667.410	0.0181381
667.488	0.0181161
667.567	0.0179864
667.645	0.0181424
667.723	0.0181050
667.801	0.0182516
667.879	0.0182388
667.957	0.0180348
668.035	0.0181987
668.113	0.0181038
668.192	0.0181660
668.270	0.0181950
668.348	0.0181412
668.426	0.0180638
668.504	0.0182359
668.582	0.0181707
668.660	0.0181462
668.738	0.0181553
668.817	0.0180324
668.895	0.0181754
668.973	0.0182424
669.051	0.0180564
669.129	0.0181400
669.207	0.0181861
669.285	0.0181360
669.363	0.0182404
669.442	0.0180827
669.520	0.0180856
669.598	0.0180315
669.676	0.0182359
669.754	0.0182852
669.832	0.0181165
669.910	0.0181285
669.988	0.0181175
670.067	0.0181632
670.145	0.0182096
670.223	0.0181563
670.301	0.0181901
670.379	0.0180989
670.457	0.0182165
670.535	0.0180772
670.613	0.0180609
670.692	0.0183368
670.770	0.0181953
670.848	0.0181576
670.926	0.0182729
671.004	0.0182709
671.082	0.0181642
671.160	0.0180878
671.238	0.0181367
671.317	0.0181964
671.395	0.0183069
671.473	0.0181182
671.551	0.0180852
671.629	0.0181170
671.707	0.0182947
671.785	0.0181957
671.863	0.0181737
671.942	0.0180881
672.020	0.0180838
672.098	0.0182098
672.176	0.0182545
672.254	0.0180320
672.332	0.0181626
672.410	0.0180496
672.488	0.0180949
672.567	0.0182037
672.645	0.0181879
672.723	0.0181885
672.801	0.0182202
672.879	0.0182110
672.957	0.0181950
673.035	0.0180244
673.113	0.0181509
673.192	0.0181046
673.270	0.0182439
673.348	0.0182127
673.426	0.0182729
673.504	0.0181786
673.582	0.0181331
673.660	0.0180576
673.738	0.0179865
673.817	0.0181548
673.895	0.0182388
673.973	0.0181269
674.051	0.0180687
674.129	0.0181039
674.207	0.0179739
674.285	0.0180592
674.363	0.0182268
674.442	0.0181136
674.520	0.0181623
674.598	0.0181741
674.676	0.0181384
674.754	0.0182053
674.832	0.0180508
674.910	0.0181120
674.988	0.0181779
675.067	0.0182254
675.145	0.0179675
675.223	0.0181899
675.301	0.0180382
675.379	0.0181467
675.457	0.0182185
675.535	0.0180699
675.613	0.0180409
675.692	0.0181823
675.770	0.0181839
675.848	0.0181174
675.926	0.0181266
676.004	0.0180590
676.082	0.0181284
676.160	0.0180198
676.238	0.0180459
676.317	0.0179907
676.395	0.0180521
676.473	0.0181311
676.551	0.0181245
676.629	0.0180807
676.707	0.0181601
676.785	0.0180434
676.863	0.0180166
676.942	0.0179482
677.020	0.0181087
677.098	0.0181238
677.176	0.0180897
677.254	0.0180910
677.332	0.0180888
677.410	0.0182018
677.488	0.0179897
677.567	0.0180393
677.645	0.0181487
677.723	0.0181975
677.801	0.0180054
677.879	0.0180948
677.957	0.0180888
678.035	0.0180380
678.113	0.0181040
678.192	0.0181229
678.270	0.0180621
678.348	0.0181532
678.426	0.0181499
678.504	0.0181847
678.582	0.0181538
678.660	0.0180421
678.738	0.0181288
678.817	0.0181780
678.895	0.0182654
678.973	0.0181091
679.051	0.0180167
679.129	0.0182072
679.207	0.0181747
679.285	0.0180550
679.363	0.0181527
679.442	0.0180791
679.520	0.0182034
679.598	0.0183478
679.676	0.0181921
679.754	0.0181627
679.832	0.0181966
679.910	0.0181892
679.988	0.0181554
680.067	0.0180761
680.145	0.0181864
680.223	0.0180140
680.301	0.0180603
680.379	0.0181331
680.457	0.0183363
680.535	0.0182076
680.613	0.0182635
680.692	0.0182362
680.770	0.0181219
680.848	0.0181110
680.926	0.0182822
681.004	0.0183449
681.082	0.0182247
681.160	0.0183245
681.238	0.0183163
681.317	0.0181223
681.395	0.0181944
681.473	0.0181618
681.551	0.0181177
681.629	0.0181619
681.707	0.0181599
681.785	0.0182789
681.863	0.0182457
681.942	0.0181710
682.020	0.0181963
682.098	0.0182272
682.176	0.0183083
682.254	0.0181686
682.332	0.0182861
682.410	0.0183073
682.488	0.0182166
682.567	0.0183249
682.645	0.0181335
682.723	0.0181400
682.801	0.0182153
682.879	0.0182042
682.957	0.0181539
683.035	0.0182274
683.113	0.0181953
683.192	0.0180640
683.270	0.0181927
683.348	0.0181897
683.426	0.0182396
683.504	0.0181903
683.582	0.0181734
683.660	0.0181371
683.738	0.0181319
683.817	0.0182016
683.895	0.0182078
683.973	0.0181306
684.051	0.0181799
684.129	0.0181632
684.207	0.0181693
684.285	0.0180659
684.363	0.0181706
684.442	0.0181940
684.520	0.0181104
684.598	0.0180818
684.676	0.0182014
684.754	0.0181812
684.832	0.0181165
684.910	0.0180859
684.988	0.0180387
685.067	0.0181155
685.145	0.0181785
685.223	0.0181737
685.301	0.0181326
685.379	0.0181545
685.457	0.0181954
685.535	0.0180386
685.613	0.0180746
685.692	0.0181844
685.770	0.0183072
685.848	0.0181550
685.926	0.0181152
686.004	0.0180825
686.082	0.0181783
686.160	0.0179782
686.238	0.0181635
686.317	0.0180486
686.395	0.0179503
686.473	0.0181797
686.551	0.0181055
686.629	0.0180383
686.707	0.0181535
686.785	0.0180416
686.863	0.0181613
686.942	0.0180597
687.020	0.0181387
687.098	0.0181508
687.176	0.0181115
687.254	0.0181554
687.332	0.0180070
687.410	0.0180907
687.488	0.0182642
687.567	0.0180807
687.645	0.0180350
687.723	0.0181353
687.801	0.0180116
687.879	0.0180755
687.957	0.0181075
688.035	0.0179858
688.113	0.0179819
688.192	0.0180184
688.270	0.0180983
688.348	0.0180507
688.426	0.0180879
688.504	0.0179871
688.582	0.0178952
688.660	0.0181243
688.738	0.0181159
688.817	0.0181822
688.895	0.0180069
688.973	0.0180472
689.051	0.0181231
689.129	0.0180225
689.207	0.0180742
689.285	0.0181198
689.363	0.0181448
689.442	0.0180531
689.520	0.0180446
689.598	0.0181400
689.676	0.0180607
689.754	0.0180848
689.832	0.0180556
689.910	0.0181395
689.988	0.0180227
690.067	0.0180254
690.145	0.0180936
690.223	0.0181218
690.301	0.0180629
690.379	0.0181190
690.457	0.0182595
690.535	0.0181225
690.613	0.0181994
690.692	0.0182121
690.770	0.0181917
690.848	0.0180494
690.926	0.0181180
691.004	0.0180471
691.082	0.0181625
691.160	0.0182027
691.238	0.0180379
691.317	0.0182594
691.395	0.0182865
691.473	0.0180626
691.551	0.0181816
691.629	0.0180753
691.707	0.0180852
691.785	0.0179401
691.863	0.0179868
691.942	0.0178596
692.020	0.0179624
692.098	0.0182898
692.176	0.0182298
692.254	0.0183983
692.332	0.0185381
692.410	0.0185681
692.488	0.0186469
692.567	0.0186061
692.645	0.0185312
692.723	0.0184057
692.801	0.0182816
692.879	0.0181299
692.957	0.0176798
693.035	0.0174379
693.113	0.0172202
693.192	0.0170742
693.270	0.0171095
693.348	0.0172757
693.426	0.0172242
693.504	0.0176768
693.582	0.0182368
693.660	0.0184608
693.738	0.0191161
693.817	0.0195496
693.895	0.0199567
693.973	0.0201427
694.051	0.0202635
694.129	0.0202460
694.207	0.0199963
694.285	0.0194930
694.363	0.0189948
694.442	0.0182107
694.520	0.0176357
694.598	0.0170927
694.676	0.0166403
694.754	0.0161845
694.832	0.0159599
694.910	0.0158998
694.988	0.0159544
695.067	0.0160742
695.145	0.0163510
695.223	0.0170083
695.301	0.0174449
695.379	0.0180862
695.457	0.0186290
695.535	0.0191536
695.613	0.0193926
695.692	0.0197228
695.770	0.0199909
695.848	0.0200865
695.926	0.0200462
696.004	0.0199737
696.082	0.0197755
696.160	0.0196163
696.238	0.0192977
696.317	0.0191430
696.395	0.0188268
696.473	0.0184074
696.551	0.0181067
696.629	0.0180112
696.707	0.0176057
696.785	0.0174614
696.863	0.0171970
696.942	0.0169494
697.020	0.0168208
697.098	0.0166517
697.176	0.0166779
697.254	0.0166296
697.332	0.0166211
697.410	0.0165490
697.488	0.0165887
697.567	0.0166930
697.645	0.0169481
697.723	0.0169996
697.801	0.0172997
697.879	0.0175831
697.957	0.0178455
698.035	0.0180970
698.113	0.0184460
698.192	0.0186828
698.270	0.0190320
698.348	0.0193277
698.426	0.0195528
698.504	0.0197287
698.582	0.0198946
698.660	0.0200464
698.738	0.0200664
698.817	0.0199594
698.895	0.0201224
698.973	0.0199061
699.051	0.0196468
699.129	0.0194044
699.207	0.0193244
699.285	0.0188590
699.363	0.0182993
699.442	0.0180981
699.520	0.0177615
699.598	0.0175227
699.676	0.0172499
699.754	0.0169197
699.832	0.0167887
699.910	0.0167182
699.988	0.0164877
700.067	0.0166434
700.145	0.0167182
700.223	0.0166835
700.301	0.0166296
700.379	0.0168368
700.457	0.0167959
700.535	0.0167217
700.613	0.0169142
700.692	0.0169056
700.770	0.0168296
700.848	0.0170000
700.926	0.0171714
701.004	0.0173284
701.082	0.0174874
701.160	0.0177186
701.238	0.0180423
701.317	0.0183238
701.395	0.0186956
701.473	0.0190688
701.551	0.0193071
701.629	0.0196184
701.707	0.0199533
701.785	0.0202128
701.863	0.0203730
701.942	0.0204676
702.020	0.0203167
702.098	0.0204346
702.176	0.0201709
702.254	0.0201685
702.332	0.0197766
702.410	0.0195013
702.488	0.0191930
702.567	0.0187350
702.645	0.0183071
702.723	0.0179916
702.801	0.0177178
702.879	0.0174934
702.957	0.0171907
703.035	0.0169427
703.113	0.0166611
703.192	0.0167239
703.270	0.0166685
703.348	0.0164596
703.426	0.0166908
703.504	0.0167321
703.582	0.0167615
703.660	0.0169592
703.738	0.0170643
703.817	0.0173830
703.895	0.0176203
703.973	0.0176254
704.051	0.0176447
704.129	0.0178178
704.207	0.0177679
704.285	0.0178635
704.363	0.0178299
704.442	0.0178954
704.520	0.0178828
704.598	0.0178459
704.676	0.0179147
704.754	0.0179033
704.832	0.0178735
704.910	0.0178460
704.988	0.0180400
705.067	0.0181536
705.145	0.0181303
705.223	0.0182770
705.301	0.0184457
705.379	0.0185452
705.457	0.0186660
705.535	0.0188706
705.613	0.0188882
705.692	0.0191030
705.770	0.0191414
705.848	0.0192936
705.926	0.0193716
706.004	0.0194273
706.082	0.0195094
706.160	0.0196445
706.238	0.0195169
706.317	0.0193604
706.395	0.0193063
706.473	0.0191142
706.551	0.0189998
706.629	0.0188296
706.707	0.0187193
706.785	0.0184068
706.863	0.0181277
706.942	0.0179643
707.020	0.0177750
707.098	0.0174494
707.176	0.0172551
707.254	0.0172499
707.332	0.0169337
707.410	0.0169235
707.488	0.0168784
707.567	0.0168759
707.645	0.0168125
707.723	0.0167741
707.801	0.0168655
707.879	0.0170715
707.957	0.0169695
708.035	0.0170655
708.113	0.0172781
708.192	0.0173104
708.270	0.0174389
708.348	0.0174678
708.426	0.0177296
708.504	0.0176102
708.582	0.0178136
708.660	0.0180289
708.738	0.0179379
708.817	0.0182484
708.895	0.0185245
708.973	0.0185882
709.051	0.0187272
709.129	0.0188640
709.207	0.0190595
709.285	0.0192031
709.363	0.0191855
709.442	0.0192661
709.520	0.0193499
709.598	0.0191171
709.676	0.0190601
709.754	0.0190620
709.832	0.0188721
709.910	0.0187843
709.988	0.0185387
710.067	0.0183955
710.145	0.0182912
710.223	0.0184019
710.301	0.0181911
710.379	0.0181760
710.457	0.0180892
710.535	0.0181742
710.613	0.0181736
710.692	0.0182841
710.770	0.0183205
710.848	0.0182812
710.926	0.0183237
711.004	0.0183110
711.082	0.0181872
711.160	0.0182465
711.238	0.0181680
711.317	0.0180141
711.395	0.0180171
711.473	0.0179168
711.551	0.0176779
711.629	0.0178144
711.707	0.0176511
711.785	0.0175728
711.863	0.0175083
711.942	0.0174115
712.020	0.0174025
712.098	0.0173749
712.176	0.0174695
712.254	0.0174083
712.332	0.0175176
712.410	0.0175800
712.488	0.0177760
712.567	0.0178560
712.645	0.0177795
712.723	0.0178333
712.801	0.0180777
712.879	0.0181448
712.957	0.0179541
713.035	0.0181471
713.113	0.0183147
713.192	0.0182213
713.270	0.0181993
713.348	0.0183163
713.426	0.0182532
713.504	0.0181709
713.582	0.0180593
713.660	0.0181678
713.738	0.0182121
713.817	0.0181077
713.895	0.0181393
713.973	0.0180427
714.051	0.0181443
714.129	0.0180905
714.207	0.0180517
714.285	0.0182513
714.363	0.0183044
714.442	0.0182580
714.520	0.0182719
714.598	0.0183395
714.676	0.0183136
714.754	0.0183268
714.832	0.0183113
714.910	0.0183560
714.988	0.0181444
715.067	0.0182231
715.145	0.0181768
715.223	0.0181995
715.301	0.0181055
715.379	0.0181504
715.457	0.0181200
715.535	0.0182069
715.613	0.0180768
715.692	0.0181609
715.770	0.0182308
715.848	0.0182976
715.926	0.0182468
716.004	0.0182731
716.082	0.0184499
716.160	0.0185490
716.238	0.0184200
716.317	0.0183389
716.395	0.0184892
716.473	0.0184145
716.551	0.0184160
716.629	0.0184366
716.707	0.0182945
716.785	0.0182320
716.863	0.0181454
716.942	0.0180526
717.020	0.0178667
717.098	0.0177465
717.176	0.0177693
717.254	0.0176131
717.332	0.0174471
717.410	0.0175800
717.488	0.0174166
717.567	0.0174329
717.645	0.0175352
717.723	0.0173933
717.801	0.0173511
717.879	0.0173801
717.957	0.0176466
718.035	0.0177083
718.113	0.0176537
718.192	0.0177233
718.270	0.0180148
718.348	0.0180212
718.426	0.0180955
718.504	0.0182849
718.582	0.0183144
718.660	0.0184721
718.738	0.0184552
718.817	0.0185524
718.895	0.0186394
718.973	0.0186414
719.051	0.0187605
719.129	0.0187975
719.207	0.0187485
719.285	0.0186969
719.363	0.0187070
719.442	0.0186217
719.520	0.0185104
719.598	0.0184744
719.676	0.0184474
719.754	0.0181679
719.832	0.0182822
719.910	0.0182638
719.988	0.0181448
720.067	0.0180817
720.145	0.0181622
720.223	0.0181461
720.301	0.0181050
720.379	0.0182238
720.457	0.0181857
720.535	0.0183216
720.613	0.0182593
720.692	0.0183561
720.770	0.0182987
720.848	0.0182527
720.926	0.0183971
721.004	0.0185417
721.082	0.0183998
721.160	0.0182305
721.238	0.0183183
721.317	0.0183382
721.395	0.0183302
721.473	0.0179869
721.551	0.0180632
721.629	0.0180617
721.707	0.0179699
721.785	0.0179176
721.863	0.0178793
721.942	0.0177257
722.020	0.0176184
722.098	0.0177509
722.176	0.0176725
722.254	0.0175804
722.332	0.0175169
722.410	0.0175567
722.488	0.0175993
722.567	0.0176900
722.645	0.0176183
722.723	0.0177470
722.801	0.0177744
722.879	0.0179180
722.957	0.0179426
723.035	0.0179839
723.113	0.0179955
723.192	0.0180813
723.270	0.0180175
723.348	0.0182991
723.426	0.0181982
723.504	0.0182376
723.582	0.0183733
723.660	0.0183794
723.738	0.0184526
723.817	0.0182944
723.895	0.0184576
723.973	0.0184935
724.051	0.0182780
724.129	0.0182930
724.207	0.0184354
724.285	0.0183621
724.363	0.0183207
724.442	0.0182822
724.520	0.0184161
724.598	0.0182357
724.676	0.0183817
724.754	0.0182375
724.832	0.0182602
724.910	0.0183927
724.988	0.0183165
725.067	0.0182076
725.145	0.0181952
725.223	0.0181194
725.301	0.0181348
725.379	0.0180276
725.457	0.0181709
725.535	0.0181161
725.613	0.0179747
725.692	0.0179536
725.770	0.0180592
725.848	0.0179571
725.926	0.0180505
726.004	0.0179567
726.082	0.0179129
726.160	0.0180531
726.238	0.0180144
726.317	0.0181684
726.395	0.0183560
726.473	0.0181593
726.551	0.0180823
726.629	0.0182681
726.707	0.0184160
726.785	0.0182161
726.863	0.0182059
726.942	0.0182059
727.020	0.0182854
727.098	0.0180251
727.176	0.0181075
727.254	0.0180212
727.332	0.0179263
727.410	0.0180482
727.488	0.0179910
727.567	0.0178921
727.645	0.0177550
727.723	0.0178933
727.801	0.0178475
727.879	0.0178040
727.957	0.0178635
728.035	0.0180266
728.113	0.0180087
728.192	0.0179745
728.270	0.0181245
728.348	0.0180331
728.426	0.0181804
728.504	0.0180765
728.582	0.0182430
728.660	0.0181750
728.738	0.0181191
728.817	0.0181716
728.895	0.0181750
728.973	0.0181167
729.051	0.0182077
729.129	0.0182698
729.207	0.0180090
729.285	0.0180689
729.363	0.0181329
729.442	0.0180869
729.520	0.0179753
729.598	0.0180267
729.676	0.0180075
729.754	0.0179620
729.832	0.0180078
729.910	0.0181570
729.988	0.0181424
730.067	0.0181615
730.145	0.0182061
730.223	0.0181081
730.301	0.0182202
730.379	0.0182252
730.457	0.0184029
730.535	0.0186020
730.613	0.0185879
730.692	0.0183348
730.770	0.0183636
730.848	0.0184424
730.926	0.0184543
731.004	0.0184174
731.082	0.0183611
731.160	0.0183994
731.238	0.0182111
731.317	0.0181621
731.395	0.0182031
731.473	0.0181388
731.551	0.0180344
731.629	0.0178924
731.707	0.0178230
731.785	0.0178419
731.863	0.0176333
731.942	0.0177971
732.020	0.0177965
732.098	0.0178934
732.176	0.0179739
732.254	0.0179372
732.332	0.0180347
732.410	0.0179372
732.488	0.0182007
732.567	0.0180605
732.645	0.0182807
732.723	0.0182578
732.801	0.0182703
732.879	0.0183747
732.957	0.0184802
733.035	0.0183858
733.113	0.0182583
733.192	0.0182088
733.270	0.0181035
733.348	0.0182117
733.426	0.0181674
733.504	0.0182310
733.582	0.0181977
733.660	0.0181477
733.738	0.0180469
733.817	0.0180341
733.895	0.0181015
733.973	0.0181473
734.051	0.0181515
734.129	0.0182368
734.207	0.0182516
734.285	0.0182311
734.363	0.0182640
734.442	0.0184038
734.520	0.0183577
734.598	0.0183609
734.676	0.0183923
734.754	0.0183008
734.832	0.0183833
734.910	0.0182011
734.988	0.0183066
735.067	0.0182296
735.145	0.0182567
735.223	0.0183183
735.301	0.0182858
735.379	0.0181265
735.457	0.0182162
735.535	0.0182549
735.613	0.0181877
735.692	0.0182213
735.770	0.0179977
735.848	0.0181770
735.926	0.0180853
736.004	0.0181726
736.082	0.0180516
736.160	0.0180620
736.238	0.0180598
736.317	0.0179865
736.395	0.0180744
736.473	0.0180677
736.551	0.0181859
736.629	0.0181001
736.707	0.0180075
736.785	0.0179790
736.863	0.0181303
736.942	0.0181775
737.020	0.0181854
737.098	0.0181271
737.176	0.0180960
737.254	0.0181197
737.332	0.0181842
737.410	0.0181431
737.488	0.0181169
737.567	0.0179882
737.645	0.0180708
737.723	0.0179285
737.801	0.0179481
737.879	0.0179067
737.957	0.0180415
738.035	0.0180190
738.113	0.0176466
738.192	0.0179134
738.270	0.0179624
738.348	0.0179184
738.426	0.0180448
738.504	0.0181269
738.582	0.0179698
738.660	0.0180521
738.738	0.0180833
738.817	0.0181529
738.895	0.0181998
738.973	0.0182528
739.051	0.0181656
739.129	0.0181205
739.207	0.0182136
739.285	0.0181126
739.363	0.0181528
739.442	0.0181223
739.520	0.0181629
739.598	0.0182411
739.676	0.0181663
739.754	0.0182474
739.832	0.0181869
739.910	0.0181242
739.988	0.0181829
740.067	0.0181130
740.145	0.0181075
740.223	0.0181947
740.301	0.0179556
740.379	0.0180540
740.457	0.0182021
740.535	0.0182162
740.613	0.0182230
740.692	0.0182223
740.770	0.0181032
740.848	0.0182143
740.926	0.0183002
741.004	0.0181991
741.082	0.0182778
741.160	0.0182752
741.238	0.0182430
741.317	0.0182685
741.395	0.0182092
741.473	0.0182751
741.551	0.0181256
741.629	0.0182105
741.707	0.0181351
741.785	0.0181387
741.863	0.0181846
741.942	0.0182450
742.020	0.0181307
742.098	0.0180733
742.176	0.0181152
742.254	0.0181030
742.332	0.0180608
742.410	0.0180785
742.488	0.0179940
742.567	0.0181049
742.645	0.0181178
742.723	0.0179959
742.801	0.0180956
742.879	0.0180606
742.957	0.0181517
743.035	0.0182635
743.113	0.0182426
743.192	0.0181693
743.270	0.0182545
743.348	0.0182713
743.426	0.0182302
743.504	0.0181322
743.582	0.0180965
743.660	0.0180872
743.738	0.0181578
743.817	0.0181702
743.895	0.0180980
743.973	0.0179831
744.051	0.0179359
744.129	0.0179766
744.207	0.0178392
744.285	0.0178751
744.363	0.0179404
744.442	0.0178941
744.520	0.0178654
744.598	0.0179234
744.676	0.0178561
744.754	0.0179858
744.832	0.0179742
744.910	0.0180671
744.988	0.0180519
745.067	0.0179765
745.145	0.0181782
745.223	0.0181428
745.301	0.0180661
745.379	0.0181070
745.457	0.0182140
745.535	0.0180453
745.613	0.0182259
745.692	0.0181763
745.770	0.0181871
745.848	0.0182444
745.926	0.0182535
746.004	0.0182082
746.082	0.0181671
746.160	0.0182637
746.238	0.0181413
746.317	0.0181971
746.395	0.0182195
746.473	0.0180567
746.551	0.0180876
746.629	0.0182321
746.707	0.0182296
746.785	0.0182448
746.863	0.0181261
746.942	0.0182387
747.020	0.0181207
747.098	0.0181776
747.176	0.0181801
747.254	0.0180973
747.332	0.0181403
747.410	0.0181610
747.488	0.0180565
747.567	0.0182580
747.645	0.0181020
747.723	0.0181467
747.801	0.0182933
747.879	0.0181429
747.957	0.0182057
748.035	0.0182159
748.113	0.0181570
748.192	0.0182157
748.270	0.0182941
748.348	0.0183156
748.426	0.0182034
748.504	0.0182771
748.582	0.0183083
748.660	0.0182856
748.738	0.0182658
748.817	0.0182153
748.895	0.0181110
748.973	0.0182379
749.051	0.0181499
749.129	0.0181655
749.207	0.0181030
749.285	0.0180009
749.363	0.0180288
749.442	0.0180431
749.520	0.0180900
749.598	0.0180975
749.676	0.0179750
749.754	0.0180849
749.832	0.0180614
749.910	0.0179241
749.988	0.0178819
750.067	0.0180111
750.145	0.0180389
750.223	0.0180024
750.301	0.0181348
750.379	0.0180116
750.457	0.0179697
750.535	0.0181002
750.613	0.0181952
750.692	0.0180408
750.770	0.0180062
750.848	0.0180151
750.926	0.0181699
751.004	0.0181338
751.082	0.0181480
751.160	0.0181085
751.238	0.0181114
751.317	0.0181705
751.395	0.0181760
751.473	0.0180146
751.551	0.0180818
751.629	0.0181041
751.707	0.0181171
751.785	0.0180782
751.863	0.0180541
751.942	0.0180898
752.020	0.0180255
752.098	0.0179602
752.176	0.0182040
752.254	0.0181896
752.332	0.0181270
752.410	0.0180267
752.488	0.0181406
752.567	0.0181408
752.645	0.0182034
752.723	0.0180712
752.801	0.0179860
752.879	0.0180402
752.957	0.0180351
753.035	0.0179504
753.113	0.0181252
753.192	0.0181092
753.270	0.0181180
753.348	0.0180389
753.426	0.0180253
753.504	0.0180688
753.582	0.0179897
753.660	0.0180122
753.738	0.0181252
753.817	0.0182162
753.895	0.0181345
753.973	0.0181139
754.051	0.0181104
754.129	0.0182123
754.207	0.0182239
754.285	0.0181108
754.363	0.0181959
754.442	0.0183051
754.520	0.0181657
754.598	0.0181692
754.676	0.0182514
754.754	0.0182812
754.832	0.0182538
754.910	0.0183147
754.988	0.0182417
755.067	0.0183257
755.145	0.0182041
755.223	0.0182471
755.301	0.0182658
755.379	0.0182819
755.457	0.0181987
755.535	0.0182593
755.613	0.0182923
755.692	0.0182574
755.770	0.0182821
755.848	0.0183102
755.926	0.0181973
756.004	0.0181041
756.082	0.0183192
756.160	0.0180010
756.238	0.0180064
756.317	0.0182632
756.395	0.0181824
756.473	0.0181417
756.551	0.0181262
756.629	0.0180370
756.707	0.0181152
756.785	0.0181192
756.863	0.0182143
756.942	0.0181835
757.020	0.0182790
757.098	0.0182524
757.176	0.0182448
757.254	0.0182230
757.332	0.0182986
757.410	0.0183575
757.488	0.0184262
757.567	0.0183447
757.645	0.0182768
757.723	0.0182440
757.801	0.0183304
757.879	0.0183090
757.957	0.0181468
758.035	0.0181274
758.113	0.0180770
758.192	0.0182260
758.270	0.0179858
758.348	0.0179472
758.426	0.0180922
758.504	0.0179869
758.582	0.0180138
758.660	0.0180786
758.738	0.0180744
758.817	0.0181433
758.895	0.0180511
758.973	0.0182710
759.051	0.0182595
759.129	0.0183365
759.207	0.0182431
759.285	0.0183259
759.363	0.0183694
759.442	0.0182040
759.520	0.0182118
759.598	0.0182093
759.676	0.0182790
759.754	0.0182146
759.832	0.0183245
759.910	0.0181052
759.988	0.0180787
760.067	0.0181566
760.145	0.0181163
760.223	0.0181069
760.301	0.0179551
760.379	0.0181059
760.457	0.0179832
760.535	0.0180682
760.613	0.0180499
760.692	0.0180935
760.770	0.0180453
760.848	0.0180766
760.926	0.0181795
761.004	0.0181283
761.082	0.0179565
761.160	0.0180196
761.238	0.0180853
761.317	0.0180211
761.395	0.0182776
761.473	0.0182545
761.551	0.0182333
761.629	0.0182925
761.707	0.0182761
761.785	0.0183757
761.863	0.0182855
761.942	0.0182371
762.020	0.0183704
762.098	0.0184750
762.176	0.0183937
762.254	0.0184166
762.332	0.0183293
762.410	0.0181781
762.488	0.0181081
762.567	0.0181006
762.645	0.0182035
762.723	0.0181593
762.801	0.0181041
762.879	0.0179160
762.957	0.0181046
763.035	0.0180221
763.113	0.0179574
763.192	0.0179595
763.270	0.0180952
763.348	0.0180338
763.426	0.0180457
763.504	0.0180341
763.582	0.0180267
763.660	0.0180355
763.738	0.0180421
763.817	0.0180991
763.895	0.0180870
763.973	0.0180995
764.051	0.0180546
764.129	0.0181141
764.207	0.0182294
764.285	0.0183759
764.363	0.0181589
764.442	0.0181484
764.520	0.0181693
764.598	0.0181398
764.676	0.0181700
764.754	0.0181521
764.832	0.0181366
764.910	0.0181488
764.988	0.0180548
765.067	0.0180810
765.145	0.0181741
765.223	0.0180455
765.301	0.0180634
765.379	0.0179646
765.457	0.0179932
765.535	0.0180721
765.613	0.0181342
765.692	0.0181004
765.770	0.0182726
765.848	0.0181335
765.926	0.0180591
766.004	0.0181434
766.082	0.0182230
766.160	0.0180765
766.238	0.0181030
766.317	0.0181358
766.395	0.0181231
766.473	0.0181156
766.551	0.0181735
766.629	0.0180508
766.707	0.0181162
766.785	0.0182568
766.863	0.0181023
766.942	0.0180592
767.020	0.0182220
767.098	0.0180291
767.176	0.0181084
767.254	0.0181262
767.332	0.0182012
767.410	0.0182330
767.488	0.0182053
767.567	0.0182202
767.645	0.0182772
767.723	0.0182738
767.801	0.0181924
767.879	0.0183638
767.957	0.0181220
768.035	0.0180935
768.113	0.0181657
768.192	0.0181616
768.270	0.0180509
768.348	0.0180515
768.426	0.0181384
768.504	0.0181148
768.582	0.0179967
768.660	0.0182221
768.738	0.0181493
768.817	0.0181821
768.895	0.0181908
768.973	0.0180731
769.051	0.0182511
769.129	0.0182413
769.207	0.0181952
769.285	0.0181306
769.363	0.0182091
769.442	0.0181733
769.520	0.0179677
769.598	0.0181959
769.676	0.0180753
769.754	0.0180259
769.832	0.0180638
769.910	0.0181575
769.988	0.0179558
770.067	0.0180370
770.145	0.0181904
770.223	0.0180332
770.301	0.0180550
770.379	0.0181435
770.457	0.0182033
770.535	0.0182095
770.613	0.0180547
770.692	0.0180785
770.770	0.0181397
770.848	0.0181877
770.926	0.0180139
771.004	0.0180244
771.082	0.0181750
771.160	0.0182354
771.238	0.0181779
771.317	0.0182072
771.395	0.0180620
771.473	0.0181101
771.551	0.0182133
771.629	0.0181135
771.707	0.0182021
771.785	0.0182164
771.863	0.0181627
771.942	0.0182092
772.020	0.0182456
772.098	0.0180718
772.176	0.0180703
772.254	0.0180916
772.332	0.0181727
772.410	0.0181261
772.488	0.0179224
772.567	0.0180736
772.645	0.0180357
772.723	0.0179874
772.801	0.0181746
772.879	0.0180591
772.957	0.0180025
773.035	0.0179511
773.113	0.0180936
773.192	0.0182724
773.270	0.0180876
773.348	0.0181102
773.426	0.0181230
773.504	0.0181091
773.582	0.0180100
773.660	0.0181869
773.738	0.0180956
773.817	0.0181526
773.895	0.0180993
773.973	0.0182288
774.051	0.0180621
774.129	0.0179416
774.207	0.0181070
774.285	0.0181189
774.363	0.0180450
774.442	0.0181544
774.520	0.0181451
774.598	0.0181579
774.676	0.0181212
774.754	0.0181345
774.832	0.0181192
774.910	0.0180981
774.988	0.0181760
775.067	0.0181960
775.145	0.0182458
775.223	0.0181162
775.301	0.0181577
775.379	0.0181722
775.457	0.0181936
775.535	0.0180676
775.613	0.0182584
775.692	0.0181881
775.770	0.0182264
775.848	0.0180290
775.926	0.0182533
776.004	0.0181418
776.082	0.0181392
776.160	0.0181327
776.238	0.0181515
776.317	0.0180360
776.395	0.0179976
776.473	0.0182496
776.551	0.0182195
776.629	0.0181508
776.707	0.0181918
776.785	0.0181158
776.863	0.0180325
776.942	0.0182074
777.020	0.0180423
777.098	0.0181917
777.176	0.0182214
777.254	0.0181889
777.332	0.0180025
777.410	0.0181157
777.488	0.0182911
777.567	0.0179205
777.645	0.0182009
777.723	0.0181983
777.801	0.0181672
777.879	0.0179767
777.957	0.0181093
778.035	0.0182174
778.113	0.0181703
778.192	0.0183172
778.270	0.0182121
778.348	0.0181378
778.426	0.0182030
778.504	0.0183174
778.582	0.0182718
778.660	0.0181731
778.738	0.0182092
778.817	0.0182689
778.895	0.0180540
778.973	0.0182307
779.051	0.0181835
779.129	0.0181922
779.207	0.0181622
779.285	0.0180415
779.363	0.0181630
779.442	0.0181394
779.520	0.0179903
779.598	0.0180712
779.676	0.0180985
779.754	0.0179607
779.832	0.0180539
779.910	0.0180665
779.988	0.0179253
780.067	0.0179682
780.145	0.0180641
780.223	0.0181047
780.301	0.0181878
780.379	0.0181431
780.457	0.0180136
780.535	0.0181560
780.613	0.0181657
780.692	0.0183025
780.770	0.0181949
780.848	0.0183453
780.926	0.0182636
781.004	0.0181244
781.082	0.0182452
781.160	0.0182940
781.238	0.0182687
781.317	0.0183001
781.395	0.0182620
781.473	0.0182677
781.551	0.0181511
781.629	0.0182732
781.707	0.0182607
781.785	0.0183164
781.863	0.0181467
781.942	0.0182883
782.020	0.0182584
782.098	0.0182893
782.176	0.0181603
782.254	0.0180876
782.332	0.0182256
782.410	0.0181530
782.488	0.0182187
782.567	0.0182821
782.645	0.0181100
782.723	0.0181511
782.801	0.0182010
782.879	0.0182804
782.957	0.0181739
783.035	0.0181026
783.113	0.0181580
783.192	0.0181449
783.270	0.0182008
783.348	0.0182740
783.426	0.0183327
783.504	0.0183103
783.582	0.0181618
783.660	0.0182254
783.738	0.0182731
783.817	0.0182623
783.895	0.0181709
783.973	0.0182639
784.051	0.0181983
784.129	0.0182767
784.207	0.0183147
784.285	0.0180400
784.363	0.0180818
784.442	0.0181745
784.520	0.0180733
784.598	0.0180989
784.676	0.0181672
784.754	0.0181092
784.832	0.0181216
784.910	0.0180627
784.988	0.0181246
785.067	0.0181168
785.145	0.0181534
785.223	0.0181934
785.301	0.0182828
785.379	0.0182804
785.457	0.0181882
785.535	0.0182122
785.613	0.0182902
785.692	0.0184174
785.770	0.0183617
785.848	0.0182215
785.926	0.0182946
786.004	0.0181885
786.082	0.0182545
786.160	0.0181725
786.238	0.0182439
786.317	0.0182349
786.395	0.0181521
786.473	0.0180730
786.551	0.0180775
786.629	0.0181129
786.707	0.0180186
786.785	0.0181073
786.863	0.0181310
786.942	0.0181030
787.020	0.0181165
787.098	0.0180740
787.176	0.0180428
787.254	0.0180806
787.332	0.0180096
787.410	0.0182439
787.488	0.0180169
787.567	0.0182343
787.645	0.0183297
787.723	0.0183020
787.801	0.0181482
787.879	0.0180957
787.957	0.0181245
788.035	0.0181614
788.113	0.0182804
788.192	0.0181598
788.270	0.0181808
788.348	0.0182061
788.426	0.0180429
788.504	0.0180982
788.582	0.0181201
788.660	0.0181197
788.738	0.0180172
788.817	0.0181325
788.895	0.0182433
788.973	0.0181629
789.051	0.0181194
789.129	0.0180784
789.207	0.0182967
789.285	0.0182941
789.363	0.0182204
789.442	0.0181856
789.520	0.0182883
789.598	0.0182214
789.676	0.0183715
789.754	0.0181902
789.832	0.0183335
789.910	0.0184351
789.988	0.0184276
790.067	0.0183933
790.145	0.0183834
790.223	0.0183881
790.301	0.0184401
790.379	0.0183804
790.457	0.0184213
790.535	0.0183273
790.613	0.0182944
790.692	0.0182432
790.770	0.0182540
790.848	0.0182713
790.926	0.0182163
791.004	0.0181553
791.082	0.0183013
791.160	0.0182760
791.238	0.0181332
791.317	0.0181226
791.395	0.0180776
791.473	0.0180982
791.551	0.0180466
791.629	0.0180910
791.707	0.0181435
791.785	0.0180350
791.863	0.0179254
791.942	0.0180814
792.020	0.0180205
792.098	0.0180768
792.176	0.0180953
792.254	0.0182269
792.332	0.0182085
792.410	0.0181587
792.488	0.0181937
792.567	0.0183215
792.645	0.0183688
792.723	0.0182655
792.801	0.0183054
792.879	0.0183951
792.957	0.0182587
793.035	0.0182943
793.113	0.0182997
793.192	0.0182853
793.270	0.0180864
793.348	0.0181387
793.426	0.0180222
793.504	0.0180372
793.582	0.0181760
793.660	0.0179667
793.738	0.0180494
793.817	0.0179368
793.895	0.0179438
793.973	0.0178710
794.051	0.0178106
794.129	0.0177930
794.207	0.0178783
794.285	0.0179292
794.363	0.0179359
794.442	0.0180199
794.520	0.0179073
794.598	0.0179938
794.676	0.0180234
794.754	0.0181674
794.832	0.0182932
794.910	0.0180757
794.988	0.0182782
795.067	0.0183128
795.145	0.0182526
795.223	0.0182544
795.301	0.0183960
795.379	0.0184299
795.457	0.0184318
795.535	0.0184544
795.613	0.0183894
795.692	0.0182588
795.770	0.0185179
795.848	0.0183105
795.926	0.0183533
796.004	0.0183118
796.082	0.0182545
796.160	0.0181375
796.238	0.0181747
796.317	0.0181576
796.395	0.0180778
796.473	0.0178811
796.551	0.0180370
796.629	0.0178979
796.707	0.0179244
796.785	0.0178764
796.863	0.0178130
796.942	0.0178919
797.020	0.0179342
797.098	0.0177663
797.176	0.0178869
797.254	0.0178976
797.332	0.0178506
797.410	0.0179923
797.488	0.0181068
797.567	0.0181724
797.645	0.0182365
797.723	0.0182420
797.801	0.0181946
797.879	0.0182006
797.957	0.0182049
798.035	0.0182571
798.113	0.0184692
798.192	0.0183984
798.270	0.0184150
798.348	0.0183414
798.426	0.0184701
798.504	0.0182664
798.582	0.0183843
798.660	0.0184478
798.738	0.0183816
798.817	0.0182671
798.895	0.0183570
798.973	0.0185040
799.051	0.0182542
799.129	0.0183707
799.207	0.0183525
799.285	0.0183393
799.363	0.0181869
799.442	0.0182228
799.520	0.0182229
799.598	0.0181744
799.676	0.0181306
799.754	0.0180639
799.832	0.0179452
799.910	0.0179722
799.988	0.0180470
800.067	0.0179486
800.145	0.0178178
800.223	0.0179042
800.301	0.0178593
800.379	0.0178965
800.457	0.0178856
800.535	0.0179474
800.613	0.0178608
800.692	0.0179124
800.770	0.0180199
800.848	0.0180499
800.926	0.0178457
801.004	0.0178530
801.082	0.0181920
801.160	0.0179407
801.238	0.0181438
801.317	0.0180730
801.395	0.0181434
801.473	0.0179750
801.551	0.0181216
801.629	0.0180707
801.707	0.0181548
801.785	0.0181234
801.863	0.0182628
801.942	0.0181890
802.020	0.0182681
802.098	0.0183047
802.176	0.0183847
802.254	0.0183645
802.332	0.0183498
802.410	0.0182850
802.488	0.0183611
802.567	0.0182909
802.645	0.0182064
802.723	0.0182934
802.801	0.0183124
802.879	0.0183768
802.957	0.0182790
803.035	0.0183175
803.113	0.0182552
803.192	0.0181281
803.270	0.0181069
803.348	0.0180806
803.426	0.0181262
803.504	0.0179713
803.582	0.0180508
803.660	0.0179396
803.738	0.0180114
803.817	0.0179057
803.895	0.0180311
803.973	0.0181094
804.051	0.0180403
804.129	0.0181001
804.207	0.0180836
804.285	0.0180563
804.363	0.0180829
804.442	0.0181180
804.520	0.0180016
804.598	0.0181152
804.676	0.0181044
804.754	0.0181449
804.832	0.0180986
804.910	0.0180555
804.988	0.0180239
805.067	0.0180338
805.145	0.0180448
805.223	0.0180178
805.301	0.0181355
805.379	0.0181826
805.457	0.0180836
805.535	0.0180955
805.613	0.0179969
805.692	0.0181100
805.770	0.0183503
805.848	0.0181890
805.926	0.0182672
806.004	0.0182579
806.082	0.0183794
806.160	0.0183379
806.238	0.0183154
806.317	0.0183344
806.395	0.0183971
806.473	0.0182350
806.551	0.0183230
806.629	0.0183608
806.707	0.0181921
806.785	0.0181894
806.863	0.0182741
806.942	0.0183231
807.020	0.0183465
807.098	0.0182609
807.176	0.0184060
807.254	0.0182702
807.332	0.0181345
807.410	0.0181888
807.488	0.0182393
807.567	0.0182539
807.645	0.0182211
807.723	0.0181668
807.801	0.0182040
807.879	0.0181283
807.957	0.0181010
808.035	0.0179920
808.113	0.0179265
808.192	0.0180415
808.270	0.0178918
808.348	0.0179806
808.426	0.0179493
808.504	0.0180521
808.582	0.0180098
808.660	0.0180144
808.738	0.0180517
808.817	0.0181557
808.895	0.0180488
808.973	0.0180209
809.051	0.0182052
809.129	0.0180064
809.207	0.0181017
809.285	0.0180948
809.363	0.0180620
809.442	0.0180310
809.520	0.0181071
809.598	0.0181112
809.676	0.0180814
809.754	0.0179543
809.832	0.0180093
809.910	0.0180801
809.988	0.0180727
810.067	0.0180296
810.145	0.0181440
810.223	0.0181802
810.301	0.0179314
810.379	0.0180166
810.457	0.0181098
810.535	0.0182150
810.613	0.0180198
810.692	0.0182093
810.770	0.0181754
810.848	0.0183934
810.926	0.0181310
811.004	0.0182303
811.082	0.0182599
811.160	0.0180450
811.238	0.0180870
811.317	0.0182621
811.395	0.0181935
811.473	0.0182726
811.551	0.0181165
811.629	0.0180194
811.707	0.0182005
811.785	0.0182859
811.863	0.0182108
811.942	0.0180566
812.020	0.0182209
812.098	0.0181417
812.176	0.0181996
812.254	0.0181959
812.332	0.0181235
812.410	0.0182677
812.488	0.0183820
812.567	0.0183316
812.645	0.0184471
812.723	0.0182088
812.801	0.0182040
812.879	0.0182816
812.957	0.0183634
813.035	0.0182331
813.113	0.0181648
813.192	0.0182643
813.270	0.0181276
813.348	0.0181124
813.426	0.0180919
813.504	0.0180125
813.582	0.0180634
813.660	0.0180790
813.738	0.0179720
813.817	0.0179075
813.895	0.0179723
813.973	0.0180286
814.051	0.0180046
814.129	0.0181001
814.207	0.0180350
814.285	0.0180437
814.363	0.0180208
814.442	0.0182450
814.520	0.0182596
814.598	0.0181552
814.676	0.0182555
814.754	0.0181390
814.832	0.0183060
814.910	0.0182467
814.988	0.0182999
815.067	0.0181543
815.145	0.0182038
815.223	0.0183073
815.301	0.0183203
815.379	0.0182319
815.457	0.0181873
815.535	0.0182253
815.613	0.0181088
815.692	0.0181567
815.770	0.0182259
815.848	0.0181549
815.926	0.0181084
816.004	0.0182066
816.082	0.0181762
816.160	0.0182193
816.238	0.0183441
816.317	0.0182475
816.395	0.0181796
816.473	0.0181634
816.551	0.0181519
816.629	0.0181693
816.707	0.0182293
816.785	0.0182050
816.863	0.0182816
816.942	0.0181544
817.020	0.0182875
817.098	0.0181726
817.176	0.0181631
817.254	0.0182291
817.332	0.0181364
817.410	0.0181709
817.488	0.0182391
817.567	0.0182556
817.645	0.0181155
817.723	0.0180088
817.801	0.0180351
817.879	0.0180455
817.957	0.0182223
818.035	0.0181157
818.113	0.0180611
818.192	0.0180168
818.270	0.0182214
818.348	0.0179269
818.426	0.0181343
818.504	0.0181799
818.582	0.0181023
818.660	0.0183319
818.738	0.0181847
818.817	0.0182328
818.895	0.0183374
818.973	0.0181160
819.051	0.0180473
819.129	0.0181973
819.207	0.0182314
819.285	0.0180931
819.363	0.0182143
819.442	0.0180909
819.520	0.0180950
819.598	0.0180307
819.676	0.0179633
819.754	0.0181648
819.832	0.0181941
819.910	0.0180241
819.988	0.0180647
820.067	0.0180976
820.145	0.0180795
820.223	0.0181282
820.301	0.0181741
820.379	0.0182349
820.457	0.0181741
820.535	0.0182552
820.613	0.0183504
820.692	0.0183250
820.770	0.0182047
820.848	0.0181367
820.926	0.0181133
821.004	0.0182428
821.082	0.0181578
821.160	0.0182796
821.238	0.0183711
821.317	0.0181702
821.395	0.0181390
821.473	0.0180779
821.551	0.0182635
821.629	0.0180874
821.707	0.0182752
821.785	0.0182938
821.863	0.0181826
821.942	0.0181789
822.020	0.0181489
822.098	0.0181660
822.176	0.0183138
822.254	0.0183612
822.332	0.0183728
822.410	0.0182430
822.488	0.0183775
822.567	0.0183137
822.645	0.0182674
822.723	0.0182455
822.801	0.0183203
822.879	0.0180865
822.957	0.0182792
823.035	0.0179955
823.113	0.0182025
823.192	0.0182104
823.270	0.0181363
823.348	0.0181963
823.426	0.0181612
823.504	0.0179450
823.582	0.0180545
823.660	0.0181282
823.738	0.0181480
823.817	0.0180539
823.895	0.0179314
823.973	0.0181306
824.051	0.0179978
824.129	0.0180721
824.207	0.0180286
824.285	0.0180077
824.363	0.0179934
824.442	0.0179356
824.520	0.0180406
824.598	0.0179629
824.676	0.0182176
824.754	0.0178690
824.832	0.0179968
824.910	0.0180988
824.988	0.0179890
825.067	0.0182220
825.145	0.0181084
825.223	0.0180311
825.301	0.0179341
825.379	0.0180709
825.457	0.0182127
825.535	0.0181686
825.613	0.0182648
825.692	0.0182774
825.770	0.0181416
825.848	0.0182978
825.926	0.0181272
826.004	0.0180796
826.082	0.0181284
826.160	0.0183009
826.238	0.0183435
826.317	0.0181522
826.395	0.0180915
826.473	0.0181915
826.551	0.0181039
826.629	0.0180785
826.707	0.0181787
826.785	0.0180998
826.863	0.0180602
826.942	0.0181934
827.020	0.0181729
827.098	0.0181463
827.176	0.0181636
827.254	0.0180483
827.332	0.0180283
827.410	0.0180910
827.488	0.0181274
827.567	0.0182677
827.645	0.0180620
827.723	0.0181277
827.801	0.0182523
827.879	0.0183037
827.957	0.0181235
828.035	0.0181798
828.113	0.0181962
828.192	0.0182555
828.270	0.0182505
828.348	0.0181932
828.426	0.0182509
828.504	0.0182305
828.582	0.0182036
828.660	0.0181744
828.738	0.0181899
828.817	0.0180604
828.895	0.0182921
828.973	0.0179450
829.051	0.0179906
829.129	0.0180350
829.207	0.0180931
829.285	0.0181060
829.363	0.0181212
829.442	0.0180793
829.520	0.0180992
829.598	0.0180567
829.676	0.0182105
829.754	0.0181353
829.832	0.0181606
829.910	0.0180828
829.988	0.0181577
830.067	0.0181289
830.145	0.0180282
830.223	0.0182486
830.301	0.0181341
830.379	0.0180409
830.457	0.0181770
830.535	0.0181655
830.613	0.0181439
830.692	0.0181347
830.770	0.0181548
830.848	0.0180133
830.926	0.0181150
831.004	0.0182586
831.082	0.0181783
831.160	0.0180595
831.238	0.0180473
831.317	0.0181690
831.395	0.0182531
831.473	0.0181631
831.551	0.0180840
831.629	0.0180430
831.707	0.0181081
831.785	0.0181796
831.863	0.0181018
831.942	0.0181126
832.020	0.0181413
832.098	0.0180930
832.176	0.0180839
832.254	0.0180876
832.332	0.0180873
832.410	0.0181074
832.488	0.0181023
832.567	0.0180241
832.645	0.0180866
832.723	0.0181241
832.801	0.0180823
832.879	0.0182173
832.957	0.0180738
833.035	0.0181393
833.113	0.0179880
833.192	0.0181963
833.270	0.0182425
833.348	0.0181065
833.426	0.0181268
833.504	0.0181927
833.582	0.0179853
833.660	0.0180314
833.738	0.0181062
833.817	0.0180221
833.895	0.0180186
833.973	0.0181248
834.051	0.0181898
834.129	0.0181352
834.207	0.0180472
834.285	0.0181376
834.363	0.0181846
834.442	0.0180162
834.520	0.0181269
834.598	0.0180864
834.676	0.0180975
834.754	0.0180586
834.832	0.0180762
834.910	0.0180787
834.988	0.0180531
835.067	0.0180167
835.145	0.0182522
835.223	0.0182575
835.301	0.0181988
835.379	0.0180528
835.457	0.0181525
835.535	0.0181138
835.613	0.0182793
835.692	0.0183067
835.770	0.0183273
835.848	0.0182430
835.926	0.0180876
836.004	0.0181271
836.082	0.0182420
836.160	0.0181997
836.238	0.0180944
836.317	0.0181882
836.395	0.0180708
836.473	0.0181506
836.551	0.0179358
836.629	0.0181166
836.707	0.0182105
836.785	0.0182481
836.863	0.0181477
836.942	0.0181654
837.020	0.0181190
837.098	0.0180892
837.176	0.0181699
837.254	0.0183228
837.332	0.0182456
837.410	0.0181953
837.488	0.0182376
837.567	0.0182761
837.645	0.0183771
837.723	0.0180933
837.801	0.0182012
837.879	0.0182516
837.957	0.0183651
838.035	0.0182294
838.113	0.0181116
838.192	0.0182511
838.270	0.0183075
838.348	0.0182633
838.426	0.0180605
838.504	0.0180795
838.582	0.0181609
838.660	0.0182590
838.738	0.0182224
838.817	0.0181406
838.895	0.0179931
838.973	0.0181661
839.051	0.0182301
839.129	0.0182062
839.207	0.0181583
839.285	0.0180255
839.363	0.0180972
839.442	0.0181213
839.520	0.0180623
839.598	0.0181952
839.676	0.0181305
839.754	0.0179797
839.832	0.0181124
839.910	0.0181324
839.988	0.0180509
840.067	0.0180929
840.145	0.0180042
840.223	0.0181381
840.301	0.0180713
840.379	0.0179635
840.457	0.0180173
840.535	0.0180603
840.613	0.0180151
840.692	0.0181230
840.770	0.0180260
840.848	0.0180679
840.926	0.0181413
841.004	0.0180582
841.082	0.0180851
841.160	0.0181172
841.238	0.0182590
841.317	0.0182331
841.395	0.0181763
841.473	0.0181422
841.551	0.0181199
841.629	0.0182188
841.707	0.0182050
841.785	0.0183784
841.863	0.0182703
841.942	0.0182793
842.020	0.0182820
842.098	0.0182831
842.176	0.0182913
842.254	0.0183523
842.332	0.0182926
842.410	0.0182389
842.488	0.0184192
842.567	0.0183270
842.645	0.0181416
842.723	0.0182470
842.801	0.0183484
842.879	0.0182496
842.957	0.0182705
843.035	0.0182469
843.113	0.0182220
843.192	0.0182293
843.270	0.0181526
843.348	0.0182355
843.426	0.0181824
843.504	0.0181648
843.582	0.0181150
843.660	0.0181892
843.738	0.0181140
843.817	0.0182072
843.895	0.0182380
843.973	0.0181818
844.051	0.0181898
844.129	0.0182730
844.207	0.0181935
844.285	0.0183635
844.363	0.0182154
844.442	0.0182069
844.520	0.0181659
844.598	0.0181685
844.676	0.0182684
844.754	0.0180894
844.832	0.0182216
844.910	0.0180859
844.988	0.0180828
845.067	0.0181598
845.145	0.0181406
845.223	0.0179459
845.301	0.0179997
845.379	0.0180663
845.457	0.0180541
845.535	0.0181033
845.613	0.0178966
845.692	0.0180194
845.770	0.0181345
845.848	0.0178625
845.926	0.0180372
846.004	0.0180678
846.082	0.0182461
846.160	0.0180964
846.238	0.0179379
846.317	0.0182255
846.395	0.0182584
846.473	0.0181555
846.551	0.0181390
846.629	0.0182182
846.707	0.0182858
846.785	0.0182214
846.863	0.0181332
846.942	0.0182101
847.020	0.0182378
847.098	0.0180844
847.176	0.0182333
847.254	0.0181339
847.332	0.0180923
847.410	0.0181268
847.488	0.0183321
847.567	0.0182019
847.645	0.0181543
847.723	0.0181481
847.801	0.0181309
847.879	0.0182817
847.957	0.0181296
848.035	0.0181578
848.113	0.0182504
848.192	0.0181500
848.270	0.0182471
848.348	0.0182084
848.426	0.0181322
848.504	0.0182143
848.582	0.0180768
848.660	0.0182114
848.738	0.0180474
848.817	0.0180553
848.895	0.0180725
848.973	0.0180384
849.051	0.0179496
849.129	0.0178992
849.207	0.0177959
849.285	0.0180099
849.363	0.0180581
849.442	0.0179817
849.520	0.0178709
849.598	0.0179134
849.676	0.0178439
849.754	0.0179182
849.832	0.0180113
849.910	0.0179970
849.988	0.0179488
850.067	0.0180609
850.145	0.0179571
850.223	0.0180023
850.301	0.0181303
850.379	0.0181143
850.457	0.0181096
850.535	0.0181371
850.613	0.0182678
850.692	0.0182791
850.770	0.0182786
850.848	0.0183630
850.926	0.0182539
851.004	0.0183887
851.082	0.0183640
851.160	0.0182836
851.238	0.0183303
851.317	0.0183580
851.395	0.0182851
851.473	0.0184708
851.551	0.0182672
851.629	0.0183688
851.707	0.0184233
851.785	0.0183997
851.863	0.0182269
851.942	0.0182854
852.020	0.0184258
852.098	0.0183629
852.176	0.0183038
852.254	0.0183311
852.332	0.0183083
852.410	0.0183707
852.488	0.0183128
852.567	0.0182590
852.645	0.0182660
852.723	0.0182803
852.801	0.0182570
852.879	0.0182520
852.957	0.0180347
853.035	0.0181438
853.113	0.0181602
853.192	0.0181871
853.270	0.0182305
853.348	0.0181788
853.426	0.0181382
853.504	0.0180872
853.582	0.0181483
853.660	0.0181370
853.738	0.0179646
853.817	0.0180899
853.895	0.0180028
853.973	0.0181335
854.051	0.0180744
854.129	0.0180291
854.207	0.0179623
854.285	0.0179369
854.363	0.0181411
854.442	0.0178902
854.520	0.0178642
854.598	0.0178864
854.676	0.0178876
854.754	0.0178562
854.832	0.0178831
854.910	0.0178807
854.988	0.0177933
855.067	0.0178515
855.145	0.0180888
855.223	0.0179836
855.301	0.0179336
855.379	0.0182196
855.457	0.0181400
855.535	0.0181331
855.613	0.0181571
855.692	0.0182624
855.770	0.0182321
855.848	0.0182914
855.926	0.0182702
856.004	0.0182535
856.082	0.0182320
856.160	0.0181692
856.238	0.0181506
856.317	0.0182012
856.395	0.0181273
856.473	0.0181280
856.551	0.0182104
856.629	0.0181474
856.707	0.0181400
856.785	0.0183707
856.863	0.0181166
856.942	0.0181481
857.020	0.0183404
857.098	0.0182458
857.176	0.0183076
857.254	0.0182129
857.332	0.0182054
857.410	0.0182168
857.488	0.0182285
857.567	0.0182514
857.645	0.0183555
857.723	0.0183608
857.801	0.0183652
857.879	0.0185029
857.957	0.0183903
858.035	0.0183576
858.113	0.0183111
858.192	0.0183545
858.270	0.0182462
858.348	0.0182542
858.426	0.0183115
858.504	0.0182385
858.582	0.0180405
858.660	0.0181002
858.738	0.0180757
858.817	0.0180073
858.895	0.0180952
858.973	0.0180052
859.051	0.0180303
859.129	0.0180111
859.207	0.0179208
859.285	0.0179979
859.363	0.0178717
859.442	0.0178843
859.520	0.0180899
859.598	0.0179786
859.676	0.0178826
859.754	0.0180240
859.832	0.0180130
859.910	0.0180283
859.988	0.0181062
860.067	0.0180982
860.145	0.0179581
860.223	0.0181527
860.301	0.0180659
860.379	0.0182302
860.457	0.0180126
860.535	0.0181246
860.613	0.0181013
860.692	0.0181277
860.770	0.0182538
860.848	0.0181903
860.926	0.0181480
861.004	0.0181229
861.082	0.0181107
861.160	0.0181393
861.238	0.0181242
861.317	0.0181352
861.395	0.0182688
861.473	0.0182650
861.551	0.0181675
861.629	0.0182271
861.707	0.0182306
861.785	0.0183074
861.863	0.0183158
861.942	0.0183916
862.020	0.0183270
862.098	0.0182852
862.176	0.0183001
862.254	0.0183134
862.332	0.0181632
862.410	0.0182674
862.488	0.0182813
862.567	0.0181733
862.645	0.0182951
862.723	0.0181241
862.801	0.0180682
862.879	0.0181278
862.957	0.0181038
863.035	0.0181590
863.113	0.0181480
863.192	0.0181142
863.270	0.0181593
863.348	0.0181407
863.426	0.0180309
863.504	0.0182269
863.582	0.0181960
863.660	0.0180728
863.738	0.0180585
863.817	0.0182273
863.895	0.0183043
863.973	0.0182165
864.051	0.0182742
864.129	0.0182184
864.207	0.0181750
864.285	0.0181194
864.363	0.0182513
864.442	0.0181763
864.520	0.0180869
864.598	0.0181480
864.676	0.0182613
864.754	0.0182172
864.832	0.0180258
864.910	0.0181024
864.988	0.0179744
865.067	0.0180662
865.145	0.0180638
865.223	0.0179202
865.301	0.0180628
865.379	0.0181223
865.457	0.0181129
865.535	0.0180164
865.613	0.0181290
865.692	0.0180047
865.770	0.0179887
865.848	0.0180476
865.926	0.0178642
866.004	0.0179798
866.082	0.0180103
866.160	0.0180295
866.238	0.0180958
866.317	0.0179385
866.395	0.0180088
866.473	0.0179254
866.551	0.0180396
866.629	0.0181859
866.707	0.0182539
866.785	0.0181350
866.863	0.0180188
866.942	0.0181035
867.020	0.0182444
867.098	0.0181956
867.176	0.0182606
867.254	0.0182554
867.332	0.0183160
867.410	0.0182652
867.488	0.0182566
867.567	0.0183371
867.645	0.0182983
867.723	0.0183123
867.801	0.0181620
867.879	0.0183208
867.957	0.0181659
868.035	0.0182085
868.113	0.0182942
868.192	0.0181942
868.270	0.0182658
868.348	0.0183712
868.426	0.0183170
868.504	0.0183623
868.582	0.0182349
868.660	0.0184328
868.738	0.0184057
868.817	0.0182972
868.895	0.0182574
868.973	0.0183569
869.051	0.0182068
869.129	0.0183085
869.207	0.0183995
869.285	0.0182839
869.363	0.0182182
869.442	0.0182227
869.520	0.0182044
869.598	0.0181888
869.676	0.0182142
869.754	0.0181807
869.832	0.0180018
869.910	0.0180599
869.988	0.0179578
870.067	0.0178529
870.145	0.0178669
870.223	0.0180000
870.301	0.0180442
870.379	0.0179199
870.457	0.0179301
870.535	0.0180083
870.613	0.0180306
870.692	0.0180179
870.770	0.0179652
870.848	0.0179629
870.926	0.0180353
871.004	0.0182275
871.082	0.0179894
871.160	0.0180202
871.238	0.0179562
871.317	0.0180195
871.395	0.0180766
871.473	0.0180604
871.551	0.0180607
871.629	0.0180341
871.707	0.0180121
871.785	0.0180014
871.863	0.0181688
871.942	0.0180582
872.020	0.0181255
872.098	0.0181033
872.176	0.0181219
872.254	0.0181810
872.332	0.0181667
872.410	0.0182272
872.488	0.0182068
872.567	0.0181232
872.645	0.0181105
872.723	0.0182204
872.801	0.0180740
872.879	0.0181156
872.957	0.0181119
873.035	0.0181001
873.113	0.0180423
873.192	0.0180325
873.270	0.0181699
873.348	0.0180512
873.426	0.0181206
873.504	0.0181673
873.582	0.0181232
873.660	0.0180630
873.738	0.0182114
873.817	0.0181758
873.895	0.0183123
873.973	0.0181630
874.051	0.0181237
874.129	0.0182181
874.207	0.0181676
874.285	0.0182745
874.363	0.0183393
874.442	0.0182613
874.520	0.0182893
874.598	0.0181131
874.676	0.0183286
874.754	0.0184396
874.832	0.0183118
874.910	0.0183955
874.988	0.0182471
875.067	0.0183987
875.145	0.0181979
875.223	0.0182299
875.301	0.0182687
875.379	0.0182895
875.457	0.0182796
875.535	0.0182822
875.613	0.0182330
875.692	0.0182381
875.770	0.0181850
875.848	0.0181274
875.926	0.0181548
876.004	0.0182779
876.082	0.0180580
876.160	0.0180678
876.238	0.0180317
876.317	0.0181091
876.395	0.0179977
876.473	0.0182363
876.551	0.0181951
876.629	0.0180453
876.707	0.0181996
876.785	0.0180730
876.863	0.0180094
876.942	0.0182075
877.020	0.0182897
877.098	0.0181020
877.176	0.0180252
877.254	0.0181410
877.332	0.0181929
877.410	0.0182977
877.488	0.0180990
877.567	0.0182380
877.645	0.0181293
877.723	0.0181876
877.801	0.0181078
877.879	0.0182140
877.957	0.0180956
878.035	0.0180419
878.113	0.0181398
878.192	0.0181799
878.270	0.0181880
878.348	0.0181804
878.426	0.0180524
878.504	0.0180903
878.582	0.0181010
878.660	0.0181133
878.738	0.0181634
878.817	0.0181547
878.895	0.0180480
878.973	0.0180743
879.051	0.0180378
879.129	0.0181227
879.207	0.0180508
879.285	0.0180833
879.363	0.0180790
879.442	0.0179426
879.520	0.0180673
879.598	0.0181029
879.676	0.0180851
879.754	0.0180085
879.832	0.0178929
879.910	0.0180991
879.988	0.0178863
880.067	0.0180002
880.145	0.0182280
880.223	0.0180045
880.301	0.0182681
880.379	0.0182804
880.457	0.0182184
880.535	0.0181465
880.613	0.0183734
880.692	0.0181490
880.770	0.0182128
880.848	0.0182693
880.926	0.0182719
881.004	0.0182114
881.082	0.0183062
881.160	0.0182801
881.238	0.0183231
881.317	0.0183772
881.395	0.0184067
881.473	0.0181735
881.551	0.0184648
881.629	0.0183117
881.707	0.0184193
881.785	0.0183857
881.863	0.0183669
881.942	0.0182911
882.020	0.0182748
882.098	0.0183398
882.176	0.0184039
882.254	0.0183796
882.332	0.0184043
882.410	0.0182100
882.488	0.0182748
882.567	0.0183054
882.645	0.0181432
882.723	0.0182231
882.801	0.0184047
882.879	0.0181831
882.957	0.0181865
883.035	0.0181476
883.113	0.0181958
883.192	0.0183868
883.270	0.0182059
883.348	0.0182143
883.426	0.0181772
883.504	0.0180801
883.582	0.0182432
883.660	0.0182331
883.738	0.0181252
883.817	0.0181665
883.895	0.0182135
883.973	0.0180788
884.051	0.0181709
884.129	0.0180692
884.207	0.0181107
884.285	0.0181420
884.363	0.0180241
884.442	0.0179910
884.520	0.0180835
884.598	0.0180686
884.676	0.0179579
884.754	0.0178790
884.832	0.0178477
884.910	0.0178609
884.988	0.0177417
885.067	0.0177787
885.145	0.0178453
885.223	0.0179703
885.301	0.0179825
885.379	0.0179890
885.457	0.0181708
885.535	0.0181883
885.613	0.0182645
885.692	0.0181867
885.770	0.0183134
885.848	0.0183844
885.926	0.0183162
886.004	0.0182300
886.082	0.0181471
886.160	0.0181171
886.238	0.0179536
886.317	0.0178755
886.395	0.0180801
886.473	0.0180137
886.551	0.0179707
886.629	0.0179627
886.707	0.0179889
886.785	0.0179905
886.863	0.0180883
886.942	0.0180326
887.020	0.0184033
887.098	0.0183295
887.176	0.0184530
887.254	0.0185751
887.332	0.0187288
887.410	0.0185345
887.488	0.0185541
887.567	0.0186536
887.645	0.0185379
887.723	0.0185330
887.801	0.0184219
887.879	0.0183521
887.957	0.0183128
888.035	0.0182088
888.113	0.0181739
888.192	0.0181030
888.270	0.0180142
888.348	0.0180139
888.426	0.0179944
888.504	0.0180275
888.582	0.0180162
888.660	0.0180814
888.738	0.0180692
888.817	0.0180132
888.895	0.0181064
888.973	0.0182189
889.051	0.0181532
889.129	0.0183674
889.207	0.0182204
889.285	0.0182938
889.363	0.0182787
889.442	0.0184176
889.520	0.0184372
889.598	0.0184057
889.676	0.0183806
889.754	0.0183624
889.832	0.0183224
889.910	0.0182041
889.988	0.0183011
890.067	0.0181719
890.145	0.0181240
890.223	0.0181772
890.301	0.0180548
890.379	0.0181971
890.457	0.0182049
890.535	0.0180941
890.613	0.0180210
890.692	0.0182058
890.770	0.0181718
890.848	0.0182748
890.926	0.0181170
891.004	0.0181828
891.082	0.0181317
891.160	0.0179665
891.238	0.0179490
891.317	0.0179513
891.395	0.0179746
891.473	0.0177938
891.551	0.0177839
891.629	0.0178051
891.707	0.0177512
891.785	0.0176250
891.863	0.0176805
891.942	0.0177297
892.020	0.0177245
892.098	0.0178330
892.176	0.0178241
892.254	0.0178383
892.332	0.0178852
892.410	0.0178589
892.488	0.0179175
892.567	0.0180187
892.645	0.0181275
892.723	0.0181494
892.801	0.0181316
892.879	0.0183983
892.957	0.0183389
893.035	0.0183015
893.113	0.0184631
893.192	0.0183182
893.270	0.0183907
893.348	0.0184135
893.426	0.0183997
893.504	0.0183955
893.582	0.0183213
893.660	0.0183217
893.738	0.0184091
893.817	0.0182251
893.895	0.0183771
893.973	0.0184249
894.051	0.0182430
894.129	0.0182221
894.207	0.0181971
894.285	0.0183000
894.363	0.0183494
894.442	0.0182503
894.520	0.0182742
894.598	0.0183679
894.676	0.0181659
894.754	0.0183038
894.832	0.0182279
894.910	0.0183931
894.988	0.0183382
895.067	0.0181301
895.145	0.0183134
895.223	0.0183056
895.301	0.0181248
895.379	0.0183684
895.457	0.0183437
895.535	0.0182391
895.613	0.0182683
895.692	0.0182912
895.770	0.0182322
895.848	0.0182388
895.926	0.0180728
896.004	0.0181522
896.082	0.0180779
896.160	0.0181961
896.238	0.0182977
896.317	0.0181741
896.395	0.0181351
896.473	0.0181795
896.551	0.0182392
896.629	0.0181913
896.707	0.0181495
896.785	0.0180721
896.863	0.0181029
896.942	0.0181926
897.020	0.0180105
897.098	0.0180522
897.176	0.0179606
897.254	0.0180438
897.332	0.0179478
897.410	0.0179070
897.488	0.0179190
897.567	0.0179498
897.645	0.0178937
897.723	0.0178001
897.801	0.0178678
897.879	0.0178341
897.957	0.0177367
898.035	0.0177882
898.113	0.0177985
898.192	0.0179298
898.270	0.0178566
898.348	0.0179070
898.426	0.0179261
898.504	0.0179432
898.582	0.0179450
898.660	0.0178925
898.738	0.0178953
898.817	0.0180435
898.895	0.0180737
898.973	0.0182053
899.051	0.0181074
899.129	0.0180661
899.207	0.0182215
899.285	0.0182476
899.363	0.0181990
899.442	0.0181446
899.520	0.0182674
899.598	0.0184055
899.676	0.0182015
899.754	0.0183032
899.832	0.0182964
899.910	0.0183955
899.988	0.0182796
900.067	0.0184327
900.145	0.0183824
900.223	0.0184157
900.301	0.0184677
900.379	0.0183530
900.457	0.0183821
900.535	0.0184523
900.613	0.0184680
900.692	0.0184576
900.770	0.0183661
900.848	0.0183352
900.926	0.0183533
901.004	0.0183868
901.082	0.0184374
901.160	0.0182969
901.238	0.0182142
901.317	0.0181744
901.395	0.0181088
901.473	0.0181022
901.551	0.0181961
901.629	0.0181063
901.707	0.0180873
901.785	0.0180414
901.863	0.0179313
901.942	0.0179079
902.020	0.0181081
902.098	0.0181136
902.176	0.0182585
902.254	0.0182214
902.332	0.0182237
902.410	0.0182741
902.488	0.0182343
902.567	0.0182807
902.645	0.0181081
902.723	0.0183337
902.801	0.0182104
902.879	0.0181447
902.957	0.0183694
903.035	0.0182497
903.113	0.0181184
903.192	0.0180521
903.270	0.0180650
903.348	0.0179715
903.426	0.0179731
903.504	0.0180145
903.582	0.0180515
903.660	0.0180385
903.738	0.0181112
903.817	0.0181980
903.895	0.0180396
903.973	0.0179124
904.051	0.0180251
904.129	0.0179861
904.207	0.0180415
904.285	0.0182076
904.363	0.0182224
904.442	0.0180471
904.520	0.0181247
904.598	0.0182104
904.676	0.0181104
904.754	0.0180240
904.832	0.0180885
904.910	0.0181418
904.988	0.0181290
905.067	0.0180090
905.145	0.0181027
905.223	0.0181431
905.301	0.0180610
905.379	0.0179771
905.457	0.0181467
905.535	0.0180536
905.613	0.0180328
905.692	0.0180728
905.770	0.0180790
905.848	0.0181288
905.926	0.0181413
906.004	0.0181263
906.082	0.0181968
906.160	0.0181376
906.238	0.0181612
906.317	0.0182579
906.395	0.0182223
906.473	0.0180547
906.551	0.0181255
906.629	0.0180724
906.707	0.0181155
906.785	0.0181165
906.863	0.0180228
906.942	0.0179742
907.020	0.0180916
907.098	0.0180716
907.176	0.0181251
907.254	0.0180730
907.332	0.0181492
907.410	0.0180684
907.488	0.0181632
907.567	0.0181013
907.645	0.0181696
907.723	0.0181468
907.801	0.0183204
907.879	0.0182911
907.957	0.0182523
908.035	0.0183382
908.113	0.0184868
908.192	0.0184388
908.270	0.0183554
908.348	0.0182419
908.426	0.0183922
908.504	0.0183922
908.582	0.0182825
908.660	0.0184062
908.738	0.0183091
908.817	0.0182520
908.895	0.0182082
908.973	0.0182815
909.051	0.0182669
909.129	0.0182463
909.207	0.0180516
909.285	0.0180325
909.363	0.0180013
909.442	0.0180866
909.520	0.0181303
909.598	0.0179694
909.676	0.0180019
909.754	0.0180206
909.832	0.0180180
909.910	0.0181388
909.988	0.0181057
910.067	0.0180794
910.145	0.0181167
910.223	0.0180653
910.301	0.0180309
910.379	0.0181802
910.457	0.0181576
910.535	0.0182561
910.613	0.0181456
910.692	0.0181028
910.770	0.0181824
910.848	0.0181168
910.926	0.0181671
911.004	0.0182004
911.082	0.0182892
911.160	0.0181367
911.238	0.0180540
911.317	0.0182680
911.395	0.0181281
911.473	0.0182049
911.551	0.0181487
911.629	0.0180983
911.707	0.0181597
911.785	0.0181985
911.863	0.0182052
911.942	0.0180773
912.020	0.0181161
912.098	0.0180962
912.176	0.0180745
912.254	0.0182389
912.332	0.0182198
912.410	0.0182031
912.488	0.0183089
912.567	0.0182178
912.645	0.0181217
912.723	0.0182777
912.801	0.0182565
912.879	0.0181999
912.957	0.0182504
913.035	0.0183047
913.113	0.0183639
913.192	0.0183303
913.270	0.0181946
913.348	0.0181464
913.426	0.0182421
913.504	0.0182410
913.582	0.0181206
913.660	0.0180970
913.738	0.0180029
913.817	0.0180218
913.895	0.0179352
913.973	0.0181086
914.051	0.0181275
914.129	0.0180119
914.207	0.0179287
914.285	0.0181275
914.363	0.0181123
914.442	0.0180132
914.520	0.0181095
914.598	0.0181989
914.676	0.0181306
914.754	0.0180363
914.832	0.0181346
914.910	0.0181840
914.988	0.0181121
915.067	0.0182895
915.145	0.0183067
915.223	0.0182655
915.301	0.0182187
915.379	0.0181946
915.457	0.0184414
915.535	0.0183369
915.613	0.0183292
915.692	0.0184477
915.770	0.0183967
915.848	0.0181873
915.926	0.0183360
916.004	0.0182817
916.082	0.0182971
916.160	0.0183260
916.238	0.0182364
916.317	0.0183359
916.395	0.0183447
916.473	0.0181849
916.551	0.0182764
916.629	0.0182598
916.707	0.0181333
916.785	0.0181427
916.863	0.0181235
916.942	0.0180684
917.020	0.0181446
917.098	0.0180472
917.176	0.0181790
917.254	0.0179913
917.332	0.0180336
917.410	0.0179581
917.488	0.0178867
917.567	0.0180288
917.645	0.0180943
917.723	0.0180396
917.801	0.0181331
917.879	0.0182451
917.957	0.0180756
918.035	0.0180935
918.113	0.0180273
918.192	0.0180797
918.270	0.0180717
918.348	0.0182104
918.426	0.0182804
918.504	0.0181120
918.582	0.0182949
918.660	0.0183083
918.738	0.0180698
918.817	0.0181597
918.895	0.0181802
918.973	0.0181712
919.051	0.0181065
919.129	0.0180853
919.207	0.0180082
919.285	0.0180684
919.363	0.0180886
919.442	0.0180331
919.520	0.0180150
919.598	0.0180386
919.676	0.0178152
919.754	0.0180517
919.832	0.0180392
919.910	0.0179466
