06/01/2022	21:56:58	Ver.	4.1	UNKNOWN
Optical Delay	599.988409	Delta X		0.078125	Sweeps	1	Scan Rate	0/0
Coordinates	Axis 1	NaN	Axis 2	NaN	Axis 3	NaN	Axis 4	NaN	Axis 5	NaN	Axis 6	0.000000
TX Power	0.000000	RX Power	0.000000

599.988	0.0181004
600.067	0.0181197
600.145	0.0180833
600.223	0.0181178
600.301	0.0180244
600.379	0.0180402
600.457	0.0181588
600.535	0.0181060
600.613	0.0180852
600.692	0.0180422
600.770	0.0181075
600.848	0.0181568
600.926	0.0180818
601.004	0.0180070
601.082	0.0180444
601.160	0.0179911
601.238	0.0180692
601.317	0.0180293
601.395	0.0179755
601.473	0.0180804
601.551	0.0181053
601.629	0.0182905
601.707	0.0180951
601.785	0.0180980
601.863	0.0180206
601.942	0.0180346
602.020	0.0181344
602.098	0.0180624
602.176	0.0179988
602.254	0.0180744
602.332	0.0181041
602.410	0.0180967
602.488	0.0181515
602.567	0.0181492
602.645	0.0180629
602.723	0.0181457
602.801	0.0180680
602.879	0.0180035
602.957	0.0181705
603.035	0.0181264
603.113	0.0180219
603.192	0.0180412
603.270	0.0179743
603.348	0.0180681
603.426	0.0181537
603.504	0.0181320
603.582	0.0181753
603.660	0.0180474
603.738	0.0181187
603.817	0.0180614
603.895	0.0180842
603.973	0.0179542
604.051	0.0181019
604.129	0.0181337
604.207	0.0179865
604.285	0.0180268
604.363	0.0182004
604.442	0.0180420
604.520	0.0180667
604.598	0.0181488
604.676	0.0180872
604.754	0.0180186
604.832	0.0181080
604.910	0.0181936
604.988	0.0181775
605.067	0.0181481
605.145	0.0179803
605.223	0.0181129
605.301	0.0180965
605.379	0.0180361
605.457	0.0181431
605.535	0.0180634
605.613	0.0181143
605.692	0.0181195
605.770	0.0181547
605.848	0.0180614
605.926	0.0180684
606.004	0.0180949
606.082	0.0180878
606.160	0.0181477
606.238	0.0181017
606.317	0.0180796
606.395	0.0182684
606.473	0.0181619
606.551	0.0181055
606.629	0.0180026
606.707	0.0181366
606.785	0.0180762
606.863	0.0180746
606.942	0.0181926
607.020	0.0181129
607.098	0.0179240
607.176	0.0181107
607.254	0.0182654
607.332	0.0180164
607.410	0.0179717
607.488	0.0180096
607.567	0.0179435
607.645	0.0180659
607.723	0.0180635
607.801	0.0179132
607.879	0.0180412
607.957	0.0180225
608.035	0.0180219
608.113	0.0181631
608.192	0.0181036
608.270	0.0181062
608.348	0.0179768
608.426	0.0181274
608.504	0.0180774
608.582	0.0179288
608.660	0.0181010
608.738	0.0180145
608.817	0.0180374
608.895	0.0180252
608.973	0.0181112
609.051	0.0181499
609.129	0.0180634
609.207	0.0180772
609.285	0.0180887
609.363	0.0179166
609.442	0.0179900
609.520	0.0180850
609.598	0.0178367
609.676	0.0180834
609.754	0.0181018
609.832	0.0181868
609.910	0.0179741
609.988	0.0181609
610.067	0.0181223
610.145	0.0180208
610.223	0.0180244
610.301	0.0181752
610.379	0.0180824
610.457	0.0181239
610.535	0.0181418
610.613	0.0181602
610.692	0.0181699
610.770	0.0178956
610.848	0.0181896
610.926	0.0181496
611.004	0.0181098
611.082	0.0181437
611.160	0.0180783
611.238	0.0180627
611.317	0.0181497
611.395	0.0180908
611.473	0.0180974
611.551	0.0182069
611.629	0.0181146
611.707	0.0181167
611.785	0.0181594
611.863	0.0180529
611.942	0.0181231
612.020	0.0181622
612.098	0.0181446
612.176	0.0181133
612.254	0.0181631
612.332	0.0181676
612.410	0.0181563
612.488	0.0182317
612.567	0.0180315
612.645	0.0181119
612.723	0.0180977
612.801	0.0181234
612.879	0.0180313
612.957	0.0179404
613.035	0.0181824
613.113	0.0182320
613.192	0.0181174
613.270	0.0179086
613.348	0.0180190
613.426	0.0181056
613.504	0.0180267
613.582	0.0180257
613.660	0.0182135
613.738	0.0180824
613.817	0.0182732
613.895	0.0181209
613.973	0.0180502
614.051	0.0181680
614.129	0.0179540
614.207	0.0180710
614.285	0.0181227
614.363	0.0181259
614.442	0.0181453
614.520	0.0180412
614.598	0.0182135
614.676	0.0182180
614.754	0.0180553
614.832	0.0181483
614.910	0.0181001
614.988	0.0181847
615.067	0.0180676
615.145	0.0181451
615.223	0.0182058
615.301	0.0181107
615.379	0.0182347
615.457	0.0180997
615.535	0.0181435
615.613	0.0181678
615.692	0.0181267
615.770	0.0181499
615.848	0.0180096
615.926	0.0180772
616.004	0.0181227
616.082	0.0180468
616.160	0.0179831
616.238	0.0181673
616.317	0.0180386
616.395	0.0181837
616.473	0.0181611
616.551	0.0180835
616.629	0.0180556
616.707	0.0179659
616.785	0.0179892
616.863	0.0180962
616.942	0.0180414
617.020	0.0181252
617.098	0.0180711
617.176	0.0180713
617.254	0.0183070
617.332	0.0179860
617.410	0.0180560
617.488	0.0181478
617.567	0.0181007
617.645	0.0181284
617.723	0.0180829
617.801	0.0179979
617.879	0.0181950
617.957	0.0179282
618.035	0.0179656
618.113	0.0180830
618.192	0.0181027
618.270	0.0180529
618.348	0.0179860
618.426	0.0180608
618.504	0.0181199
618.582	0.0180354
618.660	0.0179916
618.738	0.0182003
618.817	0.0182395
618.895	0.0181039
618.973	0.0181240
619.051	0.0181131
619.129	0.0183295
619.207	0.0182564
619.285	0.0182173
619.363	0.0181137
619.442	0.0181256
619.520	0.0181811
619.598	0.0181111
619.676	0.0180806
619.754	0.0181693
619.832	0.0181819
619.910	0.0180325
619.988	0.0181477
620.067	0.0181283
620.145	0.0180224
620.223	0.0179991
620.301	0.0180960
620.379	0.0180930
620.457	0.0180505
620.535	0.0179616
620.613	0.0181563
620.692	0.0180976
620.770	0.0179959
620.848	0.0182401
620.926	0.0182367
621.004	0.0182017
621.082	0.0179216
621.160	0.0180463
621.238	0.0182116
621.317	0.0181342
621.395	0.0180149
621.473	0.0179860
621.551	0.0181373
621.629	0.0180377
621.707	0.0181524
621.785	0.0181232
621.863	0.0180146
621.942	0.0180579
622.020	0.0179494
622.098	0.0180743
622.176	0.0180537
622.254	0.0179905
622.332	0.0181527
622.410	0.0181260
622.488	0.0181286
622.567	0.0180192
622.645	0.0180963
622.723	0.0181343
622.801	0.0181142
622.879	0.0181786
622.957	0.0181416
623.035	0.0182169
623.113	0.0180670
623.192	0.0181606
623.270	0.0181071
623.348	0.0181792
623.426	0.0181705
623.504	0.0179826
623.582	0.0180727
623.660	0.0180524
623.738	0.0181462
623.817	0.0180186
623.895	0.0180102
623.973	0.0180090
624.051	0.0178773
624.129	0.0180041
624.207	0.0179907
624.285	0.0179716
624.363	0.0180283
624.442	0.0181255
624.520	0.0181142
624.598	0.0180687
624.676	0.0180368
624.754	0.0179930
624.832	0.0180358
624.910	0.0179894
624.988	0.0181213
625.067	0.0181191
625.145	0.0180836
625.223	0.0180376
625.301	0.0180707
625.379	0.0181406
625.457	0.0179416
625.535	0.0179784
625.613	0.0178984
625.692	0.0178259
625.770	0.0180124
625.848	0.0179350
625.926	0.0179283
626.004	0.0180066
626.082	0.0179059
626.160	0.0178477
626.238	0.0179875
626.317	0.0179855
626.395	0.0179131
626.473	0.0180324
626.551	0.0181186
626.629	0.0179534
626.707	0.0180353
626.785	0.0180368
626.863	0.0181470
626.942	0.0182112
627.020	0.0181317
627.098	0.0181504
627.176	0.0180651
627.254	0.0181785
627.332	0.0179650
627.410	0.0181046
627.488	0.0179831
627.567	0.0179852
627.645	0.0180183
627.723	0.0180241
627.801	0.0180641
627.879	0.0180134
627.957	0.0181569
628.035	0.0180060
628.113	0.0181046
628.192	0.0179623
628.270	0.0181981
628.348	0.0180447
628.426	0.0179316
628.504	0.0181026
628.582	0.0182318
628.660	0.0181988
628.738	0.0180877
628.817	0.0180479
628.895	0.0179549
628.973	0.0182418
629.051	0.0181524
629.129	0.0180901
629.207	0.0182586
629.285	0.0179989
629.363	0.0180366
629.442	0.0182268
629.520	0.0181827
629.598	0.0181936
629.676	0.0182175
629.754	0.0180647
629.832	0.0180917
629.910	0.0181555
629.988	0.0180447
630.067	0.0180609
630.145	0.0181981
630.223	0.0180453
630.301	0.0181616
630.379	0.0181723
630.457	0.0181513
630.535	0.0181383
630.613	0.0180721
630.692	0.0180933
630.770	0.0180791
630.848	0.0181884
630.926	0.0182563
631.004	0.0181912
631.082	0.0181073
631.160	0.0180330
631.238	0.0181106
631.317	0.0180482
631.395	0.0180545
631.473	0.0181158
631.551	0.0180112
631.629	0.0179993
631.707	0.0181390
631.785	0.0180067
631.863	0.0181019
631.942	0.0179354
632.020	0.0180695
632.098	0.0180631
632.176	0.0180663
632.254	0.0180716
632.332	0.0183596
632.410	0.0181982
632.488	0.0180612
632.567	0.0180536
632.645	0.0180637
632.723	0.0179870
632.801	0.0182299
632.879	0.0182601
632.957	0.0180704
633.035	0.0179634
633.113	0.0181076
633.192	0.0180099
633.270	0.0180569
633.348	0.0180386
633.426	0.0181474
633.504	0.0180493
633.582	0.0180040
633.660	0.0180785
633.738	0.0179892
633.817	0.0182091
633.895	0.0181435
633.973	0.0180766
634.051	0.0181447
634.129	0.0182829
634.207	0.0182058
634.285	0.0183987
634.363	0.0181526
634.442	0.0180771
634.520	0.0182738
634.598	0.0181876
634.676	0.0182539
634.754	0.0181443
634.832	0.0180986
634.910	0.0181417
634.988	0.0180636
635.067	0.0180992
635.145	0.0180693
635.223	0.0180779
635.301	0.0179745
635.379	0.0179508
635.457	0.0180938
635.535	0.0180541
635.613	0.0182417
635.692	0.0181330
635.770	0.0180927
635.848	0.0181696
635.926	0.0182117
636.004	0.0182138
636.082	0.0182410
636.160	0.0184818
636.238	0.0183919
636.317	0.0181732
636.395	0.0182944
636.473	0.0181660
636.551	0.0182989
636.629	0.0181603
636.707	0.0181470
636.785	0.0182457
636.863	0.0180920
636.942	0.0180721
637.020	0.0179549
637.098	0.0180385
637.176	0.0180937
637.254	0.0179102
637.332	0.0178936
637.410	0.0181428
637.488	0.0180124
637.567	0.0179401
637.645	0.0181566
637.723	0.0181412
637.801	0.0180937
637.879	0.0180951
637.957	0.0181487
638.035	0.0181348
638.113	0.0181455
638.192	0.0182153
638.270	0.0183175
638.348	0.0181738
638.426	0.0182057
638.504	0.0182977
638.582	0.0183441
638.660	0.0180841
638.738	0.0181271
638.817	0.0180564
638.895	0.0181506
638.973	0.0182672
639.051	0.0180292
639.129	0.0180629
639.207	0.0180471
639.285	0.0178920
639.363	0.0180698
639.442	0.0179420
639.520	0.0179327
639.598	0.0179301
639.676	0.0180943
639.754	0.0180543
639.832	0.0180189
639.910	0.0181088
639.988	0.0181282
640.067	0.0181457
640.145	0.0181115
640.223	0.0183430
640.301	0.0183218
640.379	0.0181477
640.457	0.0184184
640.535	0.0182612
640.613	0.0183103
640.692	0.0181110
640.770	0.0180906
640.848	0.0181319
640.926	0.0181059
641.004	0.0180537
641.082	0.0180882
641.160	0.0180281
641.238	0.0180635
641.317	0.0181345
641.395	0.0179768
641.473	0.0181361
641.551	0.0179649
641.629	0.0180441
641.707	0.0181797
641.785	0.0181664
641.863	0.0182442
641.942	0.0181063
642.020	0.0181689
642.098	0.0180164
642.176	0.0181066
642.254	0.0182014
642.332	0.0182198
642.410	0.0180959
642.488	0.0181472
642.567	0.0180170
642.645	0.0180956
642.723	0.0179684
642.801	0.0179994
642.879	0.0179388
642.957	0.0178323
643.035	0.0179613
643.113	0.0180713
643.192	0.0180982
643.270	0.0180854
643.348	0.0181093
643.426	0.0180065
643.504	0.0180234
643.582	0.0180849
643.660	0.0180987
643.738	0.0180385
643.817	0.0180681
643.895	0.0179678
643.973	0.0181299
644.051	0.0180642
644.129	0.0181247
644.207	0.0178781
644.285	0.0180534
644.363	0.0180595
644.442	0.0178882
644.520	0.0180533
644.598	0.0181145
644.676	0.0179360
644.754	0.0179351
644.832	0.0180164
644.910	0.0180431
644.988	0.0179053
645.067	0.0180147
645.145	0.0180257
645.223	0.0180468
645.301	0.0179664
645.379	0.0181093
645.457	0.0180888
645.535	0.0179759
645.613	0.0180385
645.692	0.0181020
645.770	0.0179903
645.848	0.0182159
645.926	0.0179922
646.004	0.0180420
646.082	0.0180091
646.160	0.0180926
646.238	0.0179717
646.317	0.0179566
646.395	0.0179902
646.473	0.0180384
646.551	0.0179919
646.629	0.0180611
646.707	0.0180141
646.785	0.0179607
646.863	0.0180358
646.942	0.0179843
647.020	0.0180038
647.098	0.0181558
647.176	0.0181717
647.254	0.0181256
647.332	0.0181293
647.410	0.0181527
647.488	0.0182359
647.567	0.0182581
647.645	0.0181334
647.723	0.0182118
647.801	0.0183111
647.879	0.0181136
647.957	0.0181018
648.035	0.0180376
648.113	0.0180807
648.192	0.0181294
648.270	0.0180202
648.348	0.0178989
648.426	0.0181013
648.504	0.0180308
648.582	0.0180057
648.660	0.0178657
648.738	0.0179243
648.817	0.0177863
648.895	0.0178359
648.973	0.0180473
649.051	0.0179491
649.129	0.0179325
649.207	0.0178883
649.285	0.0182164
649.363	0.0180946
649.442	0.0180581
649.520	0.0181528
649.598	0.0182056
649.676	0.0181825
649.754	0.0180818
649.832	0.0181135
649.910	0.0181511
649.988	0.0182185
650.067	0.0181438
650.145	0.0180143
650.223	0.0180444
650.301	0.0179584
650.379	0.0180396
650.457	0.0180721
650.535	0.0179237
650.613	0.0178883
650.692	0.0177983
650.770	0.0178965
650.848	0.0180132
650.926	0.0179198
651.004	0.0179484
651.082	0.0180236
651.160	0.0179556
651.238	0.0181312
651.317	0.0182962
651.395	0.0181493
651.473	0.0181371
651.551	0.0183028
651.629	0.0181414
651.707	0.0182545
651.785	0.0183733
651.863	0.0183453
651.942	0.0183439
652.020	0.0181632
652.098	0.0183809
652.176	0.0182709
652.254	0.0182112
652.332	0.0182449
652.410	0.0182292
652.488	0.0180674
652.567	0.0181522
652.645	0.0180567
652.723	0.0180843
652.801	0.0180023
652.879	0.0182024
652.957	0.0180833
653.035	0.0180784
653.113	0.0180122
653.192	0.0180631
653.270	0.0179671
653.348	0.0180167
653.426	0.0180867
653.504	0.0180340
653.582	0.0181725
653.660	0.0181750
653.738	0.0182030
653.817	0.0182200
653.895	0.0181346
653.973	0.0181776
654.051	0.0181168
654.129	0.0182287
654.207	0.0181478
654.285	0.0180111
654.363	0.0182185
654.442	0.0181330
654.520	0.0180605
654.598	0.0180891
654.676	0.0180202
654.754	0.0180170
654.832	0.0180683
654.910	0.0180840
654.988	0.0181981
655.067	0.0181885
655.145	0.0180564
655.223	0.0182423
655.301	0.0183168
655.379	0.0181804
655.457	0.0182573
655.535	0.0183283
655.613	0.0182399
655.692	0.0183002
655.770	0.0182150
655.848	0.0183683
655.926	0.0182036
656.004	0.0183177
656.082	0.0183131
656.160	0.0182821
656.238	0.0182824
656.317	0.0181160
656.395	0.0181866
656.473	0.0180599
656.551	0.0180969
656.629	0.0181297
656.707	0.0182047
656.785	0.0180202
656.863	0.0180466
656.942	0.0180933
657.020	0.0179567
657.098	0.0178602
657.176	0.0178828
657.254	0.0179410
657.332	0.0180424
657.410	0.0179982
657.488	0.0179969
657.567	0.0180530
657.645	0.0180283
657.723	0.0179716
657.801	0.0180383
657.879	0.0181398
657.957	0.0180980
658.035	0.0181093
658.113	0.0181584
658.192	0.0181362
658.270	0.0181200
658.348	0.0183205
658.426	0.0180715
658.504	0.0181818
658.582	0.0182354
658.660	0.0182327
658.738	0.0182968
658.817	0.0182164
658.895	0.0182427
658.973	0.0180576
659.051	0.0183002
659.129	0.0182551
659.207	0.0181055
659.285	0.0181507
659.363	0.0180588
659.442	0.0180284
659.520	0.0182375
659.598	0.0181007
659.676	0.0179935
659.754	0.0180780
659.832	0.0180656
659.910	0.0180749
659.988	0.0179571
660.067	0.0180875
660.145	0.0180286
660.223	0.0180597
660.301	0.0179747
660.379	0.0179959
660.457	0.0178945
660.535	0.0179687
660.613	0.0179640
660.692	0.0180872
660.770	0.0181187
660.848	0.0180316
660.926	0.0180871
661.004	0.0182325
661.082	0.0179997
661.160	0.0181369
661.238	0.0181835
661.317	0.0180915
661.395	0.0180941
661.473	0.0179638
661.551	0.0180457
661.629	0.0180508
661.707	0.0180795
661.785	0.0180897
661.863	0.0180235
661.942	0.0180312
662.020	0.0180658
662.098	0.0180264
662.176	0.0178899
662.254	0.0179767
662.332	0.0180526
662.410	0.0182124
662.488	0.0180605
662.567	0.0181080
662.645	0.0181928
662.723	0.0181784
662.801	0.0180738
662.879	0.0181608
662.957	0.0182691
663.035	0.0182973
663.113	0.0182029
663.192	0.0182510
663.270	0.0181531
663.348	0.0181480
663.426	0.0182220
663.504	0.0182831
663.582	0.0182513
663.660	0.0183131
663.738	0.0182565
663.817	0.0181167
663.895	0.0180877
663.973	0.0181615
664.051	0.0179781
664.129	0.0180264
664.207	0.0179743
664.285	0.0180327
664.363	0.0180177
664.442	0.0177892
664.520	0.0179957
664.598	0.0180261
664.676	0.0179310
664.754	0.0179398
664.832	0.0179661
664.910	0.0179264
664.988	0.0180815
665.067	0.0179113
665.145	0.0178579
665.223	0.0179993
665.301	0.0181235
665.379	0.0179453
665.457	0.0180441
665.535	0.0180537
665.613	0.0179764
665.692	0.0181380
665.770	0.0179947
665.848	0.0180914
665.926	0.0181149
666.004	0.0179348
666.082	0.0180226
666.160	0.0181019
666.238	0.0180769
666.317	0.0179477
666.395	0.0181017
666.473	0.0180835
666.551	0.0180724
666.629	0.0179021
666.707	0.0180457
666.785	0.0180879
666.863	0.0180346
666.942	0.0180221
667.020	0.0179620
667.098	0.0179111
667.176	0.0181231
667.254	0.0178757
667.332	0.0179185
667.410	0.0181555
667.488	0.0180607
667.567	0.0181192
667.645	0.0181679
667.723	0.0182315
667.801	0.0181757
667.879	0.0179925
667.957	0.0181354
668.035	0.0181690
668.113	0.0182162
668.192	0.0181062
668.270	0.0179984
668.348	0.0180692
668.426	0.0182182
668.504	0.0180582
668.582	0.0181052
668.660	0.0181345
668.738	0.0181671
668.817	0.0181159
668.895	0.0182007
668.973	0.0182138
669.051	0.0181240
669.129	0.0181247
669.207	0.0180432
669.285	0.0180412
669.363	0.0180717
669.442	0.0181577
669.520	0.0181514
669.598	0.0180268
669.676	0.0180641
669.754	0.0180373
669.832	0.0179648
669.910	0.0181479
669.988	0.0180546
670.067	0.0178928
670.145	0.0180768
670.223	0.0179429
670.301	0.0180848
670.379	0.0180148
670.457	0.0179333
670.535	0.0179964
670.613	0.0179604
670.692	0.0180198
670.770	0.0177691
670.848	0.0180091
670.926	0.0181405
671.004	0.0179800
671.082	0.0179395
671.160	0.0180482
671.238	0.0181317
671.317	0.0180875
671.395	0.0179913
671.473	0.0182069
671.551	0.0181158
671.629	0.0181992
671.707	0.0181483
671.785	0.0182473
671.863	0.0182872
671.942	0.0181819
672.020	0.0181535
672.098	0.0181704
672.176	0.0181782
672.254	0.0181133
672.332	0.0180617
672.410	0.0180489
672.488	0.0179694
672.567	0.0181089
672.645	0.0179880
672.723	0.0180254
672.801	0.0181516
672.879	0.0180420
672.957	0.0179256
673.035	0.0179054
673.113	0.0181822
673.192	0.0180181
673.270	0.0180341
673.348	0.0180466
673.426	0.0181474
673.504	0.0181088
673.582	0.0180775
673.660	0.0181322
673.738	0.0180620
673.817	0.0180801
673.895	0.0180739
673.973	0.0181499
674.051	0.0182369
674.129	0.0182079
674.207	0.0181789
674.285	0.0182544
674.363	0.0183461
674.442	0.0182921
674.520	0.0183632
674.598	0.0184253
674.676	0.0183189
674.754	0.0184240
674.832	0.0182909
674.910	0.0181431
674.988	0.0182469
675.067	0.0181350
675.145	0.0181911
675.223	0.0183026
675.301	0.0181887
675.379	0.0180708
675.457	0.0180263
675.535	0.0179621
675.613	0.0179946
675.692	0.0179963
675.770	0.0179393
675.848	0.0179458
675.926	0.0179175
676.004	0.0180551
676.082	0.0179848
676.160	0.0180584
676.238	0.0180357
676.317	0.0180027
676.395	0.0179572
676.473	0.0178580
676.551	0.0180756
676.629	0.0181612
676.707	0.0179465
676.785	0.0178282
676.863	0.0179765
676.942	0.0179787
677.020	0.0178946
677.098	0.0178059
677.176	0.0177678
677.254	0.0178387
677.332	0.0178631
677.410	0.0178365
677.488	0.0178388
677.567	0.0178221
677.645	0.0178651
677.723	0.0180325
677.801	0.0182275
677.879	0.0184300
677.957	0.0184338
678.035	0.0184618
678.113	0.0184583
678.192	0.0187020
678.270	0.0188410
678.348	0.0189919
678.426	0.0189785
678.504	0.0191013
678.582	0.0189867
678.660	0.0190071
678.738	0.0190018
678.817	0.0189376
678.895	0.0188776
678.973	0.0188158
679.051	0.0186813
679.129	0.0185019
679.207	0.0183247
679.285	0.0180830
679.363	0.0179469
679.442	0.0175965
679.520	0.0173044
679.598	0.0172363
679.676	0.0172398
679.754	0.0170821
679.832	0.0169178
679.910	0.0167230
679.988	0.0168497
680.067	0.0167704
680.145	0.0166720
680.223	0.0167368
680.301	0.0168129
680.379	0.0168770
680.457	0.0168549
680.535	0.0169596
680.613	0.0172945
680.692	0.0172509
680.770	0.0176096
680.848	0.0176987
680.926	0.0180573
681.004	0.0182049
681.082	0.0185713
681.160	0.0187246
681.238	0.0188345
681.317	0.0192683
681.395	0.0193542
681.473	0.0195367
681.551	0.0197556
681.629	0.0200668
681.707	0.0200084
681.785	0.0200214
681.863	0.0199752
681.942	0.0201165
682.020	0.0200391
682.098	0.0197552
682.176	0.0196454
682.254	0.0195555
682.332	0.0191093
682.410	0.0190710
682.488	0.0187334
682.567	0.0182631
682.645	0.0179425
682.723	0.0178551
682.801	0.0173618
682.879	0.0170527
682.957	0.0167458
683.035	0.0165553
683.113	0.0165015
683.192	0.0163786
683.270	0.0159320
683.348	0.0158370
683.426	0.0157767
683.504	0.0156548
683.582	0.0158626
683.660	0.0158566
683.738	0.0158477
683.817	0.0162440
683.895	0.0162728
683.973	0.0164584
684.051	0.0167859
684.129	0.0171181
684.207	0.0175045
684.285	0.0176853
684.363	0.0180779
684.442	0.0184235
684.520	0.0188416
684.598	0.0191269
684.676	0.0194744
684.754	0.0196091
684.832	0.0200304
684.910	0.0201987
684.988	0.0204145
685.067	0.0204921
685.145	0.0206656
685.223	0.0206123
685.301	0.0207216
685.379	0.0206218
685.457	0.0205025
685.535	0.0202498
685.613	0.0201366
685.692	0.0199062
685.770	0.0196347
685.848	0.0193041
685.926	0.0188638
686.004	0.0185259
686.082	0.0180139
686.160	0.0178031
686.238	0.0172768
686.317	0.0169765
686.395	0.0165665
686.473	0.0163378
686.551	0.0161034
686.629	0.0159605
686.707	0.0157435
686.785	0.0156095
686.863	0.0156022
686.942	0.0154544
687.020	0.0155524
687.098	0.0155763
687.176	0.0156723
687.254	0.0157729
687.332	0.0158610
687.410	0.0161971
687.488	0.0165144
687.567	0.0167354
687.645	0.0169851
687.723	0.0172869
687.801	0.0175555
687.879	0.0178640
687.957	0.0181584
688.035	0.0185870
688.113	0.0188554
688.192	0.0190331
688.270	0.0191547
688.348	0.0195007
688.426	0.0199372
688.504	0.0200462
688.582	0.0201200
688.660	0.0202541
688.738	0.0204926
688.817	0.0205675
688.895	0.0205930
688.973	0.0206306
689.051	0.0204627
689.129	0.0204677
689.207	0.0203394
689.285	0.0202192
689.363	0.0199390
689.442	0.0197385
689.520	0.0195300
689.598	0.0190184
689.676	0.0187231
689.754	0.0184660
689.832	0.0182188
689.910	0.0177810
689.988	0.0174500
690.067	0.0172438
690.145	0.0169891
690.223	0.0166389
690.301	0.0164442
690.379	0.0163569
690.457	0.0160880
690.535	0.0161208
690.613	0.0158233
690.692	0.0159010
690.770	0.0158092
690.848	0.0157971
690.926	0.0156820
691.004	0.0157904
691.082	0.0158752
691.160	0.0159856
691.238	0.0161683
691.317	0.0166081
691.395	0.0167213
691.473	0.0170077
691.551	0.0174274
691.629	0.0175712
691.707	0.0178082
691.785	0.0183234
691.863	0.0186002
691.942	0.0188248
692.020	0.0192078
692.098	0.0194855
692.176	0.0197281
692.254	0.0197147
692.332	0.0200021
692.410	0.0201664
692.488	0.0202531
692.567	0.0201234
692.645	0.0202319
692.723	0.0200152
692.801	0.0197498
692.879	0.0196097
692.957	0.0193375
693.035	0.0190752
693.113	0.0189382
693.192	0.0185694
693.270	0.0183184
693.348	0.0180508
693.426	0.0179371
693.504	0.0178992
693.582	0.0177345
693.660	0.0174609
693.738	0.0175507
693.817	0.0173988
693.895	0.0175224
693.973	0.0174063
694.051	0.0173710
694.129	0.0176640
694.207	0.0176788
694.285	0.0175937
694.363	0.0178710
694.442	0.0178419
694.520	0.0179952
694.598	0.0181485
694.676	0.0181295
694.754	0.0183109
694.832	0.0182835
694.910	0.0185208
694.988	0.0185435
695.067	0.0186882
695.145	0.0187174
695.223	0.0186535
695.301	0.0186130
695.379	0.0186125
695.457	0.0183113
695.535	0.0181224
695.613	0.0181181
695.692	0.0179059
695.770	0.0176093
695.848	0.0173961
695.926	0.0170007
696.004	0.0167284
696.082	0.0164285
696.160	0.0162435
696.238	0.0161731
696.317	0.0158720
696.395	0.0159427
696.473	0.0158135
696.551	0.0158844
696.629	0.0161559
696.707	0.0162918
696.785	0.0165346
696.863	0.0168010
696.942	0.0171608
697.020	0.0176698
697.098	0.0179758
697.176	0.0184207
697.254	0.0188121
697.332	0.0192260
697.410	0.0195757
697.488	0.0197670
697.567	0.0200966
697.645	0.0202131
697.723	0.0204494
697.801	0.0205314
697.879	0.0204925
697.957	0.0204431
698.035	0.0203690
698.113	0.0203891
698.192	0.0202512
698.270	0.0200488
698.348	0.0199892
698.426	0.0198173
698.504	0.0196509
698.582	0.0193414
698.660	0.0192135
698.738	0.0189820
698.817	0.0188281
698.895	0.0185439
698.973	0.0183758
699.051	0.0180403
699.129	0.0180140
699.207	0.0176822
699.285	0.0174410
699.363	0.0172168
699.442	0.0170941
699.520	0.0170647
699.598	0.0168742
699.676	0.0167750
699.754	0.0167381
699.832	0.0168561
699.910	0.0167418
699.988	0.0166530
700.067	0.0165997
700.145	0.0165948
700.223	0.0165633
700.301	0.0167072
700.379	0.0167484
700.457	0.0167075
700.535	0.0167177
700.613	0.0167513
700.692	0.0166748
700.770	0.0167042
700.848	0.0165471
700.926	0.0167661
701.004	0.0166930
701.082	0.0168014
701.160	0.0167191
701.238	0.0168527
701.317	0.0171234
701.395	0.0173103
701.473	0.0172904
701.551	0.0174603
701.629	0.0176607
701.707	0.0180322
701.785	0.0182365
701.863	0.0184420
701.942	0.0186239
702.020	0.0187872
702.098	0.0190797
702.176	0.0191565
702.254	0.0194302
702.332	0.0197049
702.410	0.0198713
702.488	0.0200596
702.567	0.0202665
702.645	0.0203677
702.723	0.0205190
702.801	0.0206065
702.879	0.0207442
702.957	0.0207454
703.035	0.0206639
703.113	0.0204606
703.192	0.0203645
703.270	0.0200778
703.348	0.0198678
703.426	0.0197649
703.504	0.0193478
703.582	0.0190409
703.660	0.0188374
703.738	0.0183629
703.817	0.0180062
703.895	0.0176680
703.973	0.0173912
704.051	0.0170148
704.129	0.0166882
704.207	0.0166528
704.285	0.0163078
704.363	0.0161391
704.442	0.0159161
704.520	0.0159571
704.598	0.0158898
704.676	0.0158039
704.754	0.0158414
704.832	0.0158917
704.910	0.0159775
704.988	0.0161929
705.067	0.0162421
705.145	0.0165199
705.223	0.0167032
705.301	0.0169843
705.379	0.0170514
705.457	0.0174222
705.535	0.0174963
705.613	0.0177181
705.692	0.0180327
705.770	0.0182207
705.848	0.0183400
705.926	0.0185976
706.004	0.0185659
706.082	0.0187161
706.160	0.0187534
706.238	0.0186548
706.317	0.0185651
706.395	0.0186174
706.473	0.0184732
706.551	0.0184322
706.629	0.0181708
706.707	0.0181606
706.785	0.0179876
706.863	0.0179432
706.942	0.0178024
707.020	0.0179185
707.098	0.0178635
707.176	0.0178579
707.254	0.0180161
707.332	0.0180349
707.410	0.0180726
707.488	0.0180139
707.567	0.0181712
707.645	0.0181625
707.723	0.0183441
707.801	0.0184489
707.879	0.0185250
707.957	0.0186469
708.035	0.0186041
708.113	0.0188866
708.192	0.0190018
708.270	0.0190431
708.348	0.0190480
708.426	0.0191291
708.504	0.0193065
708.582	0.0193657
708.660	0.0194154
708.738	0.0195125
708.817	0.0194670
708.895	0.0194034
708.973	0.0194080
709.051	0.0194004
709.129	0.0193779
709.207	0.0193415
709.285	0.0191982
709.363	0.0190161
709.442	0.0189088
709.520	0.0187394
709.598	0.0185487
709.676	0.0183170
709.754	0.0182789
709.832	0.0178987
709.910	0.0175821
709.988	0.0173220
710.067	0.0172511
710.145	0.0169814
710.223	0.0169025
710.301	0.0166088
710.379	0.0164612
710.457	0.0162124
710.535	0.0161789
710.613	0.0161961
710.692	0.0160314
710.770	0.0160912
710.848	0.0160228
710.926	0.0161230
711.004	0.0162303
711.082	0.0163775
711.160	0.0165473
711.238	0.0167271
711.317	0.0168456
711.395	0.0170417
711.473	0.0171606
711.551	0.0174830
711.629	0.0176310
711.707	0.0178053
711.785	0.0179103
711.863	0.0179352
711.942	0.0180511
712.020	0.0180049
712.098	0.0181461
712.176	0.0181857
712.254	0.0181768
712.332	0.0181630
712.410	0.0181438
712.488	0.0182861
712.567	0.0184102
712.645	0.0184923
712.723	0.0185159
712.801	0.0186563
712.879	0.0186515
712.957	0.0188787
713.035	0.0189185
713.113	0.0193278
713.192	0.0193872
713.270	0.0194675
713.348	0.0195542
713.426	0.0196989
713.504	0.0198830
713.582	0.0197701
713.660	0.0198786
713.738	0.0199344
713.817	0.0198519
713.895	0.0198417
713.973	0.0196619
714.051	0.0195269
714.129	0.0196223
714.207	0.0191806
714.285	0.0189452
714.363	0.0190118
714.442	0.0188804
714.520	0.0188371
714.598	0.0186066
714.676	0.0184337
714.754	0.0183349
714.832	0.0183488
714.910	0.0181909
714.988	0.0180052
715.067	0.0179135
715.145	0.0178827
715.223	0.0177682
715.301	0.0177546
715.379	0.0178131
715.457	0.0176968
715.535	0.0175680
715.613	0.0174801
715.692	0.0173199
715.770	0.0175982
715.848	0.0174310
715.926	0.0173069
716.004	0.0173488
716.082	0.0173496
716.160	0.0172881
716.238	0.0172601
716.317	0.0171411
716.395	0.0168085
716.473	0.0168264
716.551	0.0168934
716.629	0.0168405
716.707	0.0169627
716.785	0.0166882
716.863	0.0165677
716.942	0.0166909
717.020	0.0167294
717.098	0.0168116
717.176	0.0167616
717.254	0.0169178
717.332	0.0170399
717.410	0.0170444
717.488	0.0173109
717.567	0.0173026
717.645	0.0176262
717.723	0.0177437
717.801	0.0177146
717.879	0.0180548
717.957	0.0182102
718.035	0.0183134
718.113	0.0184005
718.192	0.0185620
718.270	0.0185931
718.348	0.0187027
718.426	0.0187202
718.504	0.0188956
718.582	0.0190012
718.660	0.0190583
718.738	0.0190154
718.817	0.0189697
718.895	0.0191330
718.973	0.0191874
719.051	0.0190652
719.129	0.0191676
719.207	0.0190842
719.285	0.0192167
719.363	0.0191724
719.442	0.0190879
719.520	0.0191204
719.598	0.0191042
719.676	0.0191929
719.754	0.0189755
719.832	0.0189974
719.910	0.0189936
719.988	0.0188152
720.067	0.0187126
720.145	0.0186636
720.223	0.0187611
720.301	0.0187850
720.379	0.0186287
720.457	0.0188084
720.535	0.0184713
720.613	0.0184509
720.692	0.0183912
720.770	0.0182817
720.848	0.0181720
720.926	0.0181649
721.004	0.0179461
721.082	0.0178342
721.160	0.0180713
721.238	0.0179729
721.317	0.0178094
721.395	0.0178138
721.473	0.0179810
721.551	0.0179866
721.629	0.0177190
721.707	0.0178146
721.785	0.0177198
721.863	0.0175436
721.942	0.0176057
722.020	0.0174821
722.098	0.0172339
722.176	0.0170766
722.254	0.0169487
722.332	0.0168073
722.410	0.0165781
722.488	0.0165481
722.567	0.0164031
722.645	0.0163162
722.723	0.0162807
722.801	0.0159980
722.879	0.0162766
722.957	0.0162563
723.035	0.0164439
723.113	0.0163569
723.192	0.0166534
723.270	0.0168530
723.348	0.0169844
723.426	0.0172514
723.504	0.0174271
723.582	0.0176598
723.660	0.0180299
723.738	0.0180764
723.817	0.0182181
723.895	0.0184338
723.973	0.0185986
724.051	0.0187203
724.129	0.0186998
724.207	0.0188018
724.285	0.0188258
724.363	0.0187862
724.442	0.0187785
724.520	0.0189301
724.598	0.0188193
724.676	0.0187474
724.754	0.0187164
724.832	0.0187455
724.910	0.0186918
724.988	0.0186491
725.067	0.0185564
725.145	0.0187349
725.223	0.0187338
725.301	0.0186236
725.379	0.0187589
725.457	0.0188323
725.535	0.0187884
725.613	0.0188565
725.692	0.0188333
725.770	0.0191340
725.848	0.0189196
725.926	0.0190243
726.004	0.0190797
726.082	0.0188582
726.160	0.0190108
726.238	0.0187801
726.317	0.0187012
726.395	0.0186985
726.473	0.0184362
726.551	0.0183316
726.629	0.0181070
726.707	0.0181960
726.785	0.0181684
726.863	0.0179899
726.942	0.0178505
727.020	0.0178477
727.098	0.0176765
727.176	0.0176968
727.254	0.0177200
727.332	0.0177850
727.410	0.0176473
727.488	0.0175797
727.567	0.0178288
727.645	0.0177958
727.723	0.0176929
727.801	0.0176879
727.879	0.0176304
727.957	0.0175538
728.035	0.0177502
728.113	0.0176925
728.192	0.0176216
728.270	0.0175557
728.348	0.0174938
728.426	0.0173098
728.504	0.0173737
728.582	0.0173393
728.660	0.0173955
728.738	0.0172357
728.817	0.0173206
728.895	0.0173666
728.973	0.0173784
729.051	0.0174638
729.129	0.0172519
729.207	0.0174836
729.285	0.0175183
729.363	0.0174870
729.442	0.0176075
729.520	0.0177441
729.598	0.0177211
729.676	0.0175627
729.754	0.0178225
729.832	0.0177772
729.910	0.0177976
729.988	0.0179563
730.067	0.0179938
730.145	0.0180112
730.223	0.0181811
730.301	0.0181327
730.379	0.0183548
730.457	0.0183827
730.535	0.0185641
730.613	0.0186102
730.692	0.0185749
730.770	0.0187907
730.848	0.0188354
730.926	0.0188187
731.004	0.0189336
731.082	0.0189869
731.160	0.0186644
731.238	0.0188220
731.317	0.0188978
731.395	0.0188031
731.473	0.0185337
731.551	0.0185141
731.629	0.0184058
731.707	0.0182925
731.785	0.0181344
731.863	0.0180816
731.942	0.0180283
732.020	0.0178450
732.098	0.0179332
732.176	0.0176817
732.254	0.0179272
732.332	0.0177843
732.410	0.0177888
732.488	0.0177628
732.567	0.0178461
732.645	0.0178947
732.723	0.0179908
732.801	0.0178928
732.879	0.0181771
732.957	0.0182967
733.035	0.0180587
733.113	0.0180147
733.192	0.0182502
733.270	0.0183572
733.348	0.0183340
733.426	0.0183491
733.504	0.0184460
733.582	0.0183002
733.660	0.0183167
733.738	0.0185750
733.817	0.0183741
733.895	0.0183074
733.973	0.0183121
734.051	0.0183118
734.129	0.0181595
734.207	0.0182540
734.285	0.0181013
734.363	0.0182141
734.442	0.0179820
734.520	0.0179876
734.598	0.0178606
734.676	0.0179371
734.754	0.0180075
734.832	0.0178230
734.910	0.0179090
734.988	0.0179058
735.067	0.0180046
735.145	0.0180836
735.223	0.0180862
735.301	0.0180117
735.379	0.0182079
735.457	0.0180930
735.535	0.0180135
735.613	0.0181155
735.692	0.0179643
735.770	0.0180508
735.848	0.0178919
735.926	0.0179467
736.004	0.0177374
736.082	0.0178947
736.160	0.0178915
736.238	0.0178371
736.317	0.0179109
736.395	0.0179374
736.473	0.0179795
736.551	0.0180390
736.629	0.0181245
736.707	0.0181224
736.785	0.0181465
736.863	0.0180998
736.942	0.0182066
737.020	0.0182630
737.098	0.0183606
737.176	0.0182341
737.254	0.0182691
737.332	0.0182873
737.410	0.0183301
737.488	0.0182935
737.567	0.0182819
737.645	0.0182829
737.723	0.0182581
737.801	0.0182587
737.879	0.0183041
737.957	0.0182527
738.035	0.0183768
738.113	0.0183008
738.192	0.0181619
738.270	0.0180963
738.348	0.0181563
738.426	0.0179678
738.504	0.0178101
738.582	0.0178620
738.660	0.0177872
738.738	0.0178079
738.817	0.0177222
738.895	0.0177493
738.973	0.0176545
739.051	0.0177755
739.129	0.0179177
739.207	0.0180238
739.285	0.0180527
739.363	0.0182900
739.442	0.0181873
739.520	0.0182687
739.598	0.0183083
739.676	0.0183115
739.754	0.0182386
739.832	0.0183170
739.910	0.0181915
739.988	0.0180354
740.067	0.0179960
740.145	0.0177984
740.223	0.0177792
740.301	0.0177346
740.379	0.0176691
740.457	0.0175443
740.535	0.0176821
740.613	0.0174980
740.692	0.0176060
740.770	0.0177471
740.848	0.0177026
740.926	0.0178718
741.004	0.0178211
741.082	0.0180413
741.160	0.0181608
741.238	0.0183822
741.317	0.0185060
741.395	0.0186864
741.473	0.0187186
741.551	0.0189071
741.629	0.0189207
741.707	0.0189606
741.785	0.0188689
741.863	0.0188300
741.942	0.0188198
742.020	0.0186386
742.098	0.0184274
742.176	0.0184093
742.254	0.0184965
742.332	0.0182235
742.410	0.0179844
742.488	0.0179520
742.567	0.0177707
742.645	0.0177457
742.723	0.0178902
742.801	0.0176476
742.879	0.0177953
742.957	0.0177420
743.035	0.0177931
743.113	0.0178172
743.192	0.0179574
743.270	0.0180180
743.348	0.0181123
743.426	0.0182462
743.504	0.0183047
743.582	0.0184888
743.660	0.0184655
743.738	0.0185273
743.817	0.0184815
743.895	0.0185323
743.973	0.0184135
744.051	0.0183405
744.129	0.0181998
744.207	0.0181260
744.285	0.0181144
744.363	0.0179270
744.442	0.0179333
744.520	0.0178391
744.598	0.0175948
744.676	0.0174969
744.754	0.0175752
744.832	0.0175769
744.910	0.0173963
744.988	0.0174320
745.067	0.0173962
745.145	0.0172997
745.223	0.0175455
745.301	0.0176041
745.379	0.0175887
745.457	0.0176418
745.535	0.0178307
745.613	0.0179980
745.692	0.0179522
745.770	0.0177448
745.848	0.0179515
745.926	0.0179348
746.004	0.0180678
746.082	0.0180032
746.160	0.0179684
746.238	0.0180574
746.317	0.0180898
746.395	0.0178819
746.473	0.0180460
746.551	0.0178510
746.629	0.0177984
746.707	0.0179852
746.785	0.0179870
746.863	0.0179001
746.942	0.0177145
747.020	0.0178027
747.098	0.0177737
747.176	0.0177303
747.254	0.0177765
747.332	0.0177876
747.410	0.0176847
747.488	0.0177059
747.567	0.0179306
747.645	0.0180019
747.723	0.0180219
747.801	0.0182641
747.879	0.0182914
747.957	0.0182799
748.035	0.0184491
748.113	0.0186767
748.192	0.0187131
748.270	0.0187131
748.348	0.0188071
748.426	0.0187861
748.504	0.0189213
748.582	0.0186522
748.660	0.0187587
748.738	0.0189402
748.817	0.0188821
748.895	0.0188347
748.973	0.0188763
749.051	0.0188869
749.129	0.0189014
749.207	0.0189187
749.285	0.0189606
749.363	0.0188552
749.442	0.0189504
749.520	0.0188827
749.598	0.0187487
749.676	0.0186905
749.754	0.0185642
749.832	0.0186031
749.910	0.0184052
749.988	0.0183391
750.067	0.0181961
750.145	0.0179604
750.223	0.0180428
750.301	0.0177807
750.379	0.0176824
750.457	0.0175198
750.535	0.0175455
750.613	0.0173032
750.692	0.0173221
750.770	0.0171670
750.848	0.0173837
750.926	0.0172480
751.004	0.0173241
751.082	0.0173710
751.160	0.0172905
751.238	0.0173685
751.317	0.0174982
751.395	0.0176413
751.473	0.0177727
751.551	0.0177688
751.629	0.0178230
751.707	0.0178941
751.785	0.0178485
751.863	0.0178529
751.942	0.0177217
752.020	0.0177077
752.098	0.0178776
752.176	0.0177151
752.254	0.0176221
752.332	0.0177077
752.410	0.0177192
752.488	0.0177541
752.567	0.0176642
752.645	0.0177344
752.723	0.0178139
752.801	0.0178205
752.879	0.0179389
752.957	0.0179716
753.035	0.0179884
753.113	0.0179206
753.192	0.0179726
753.270	0.0181124
753.348	0.0180959
753.426	0.0183641
753.504	0.0181622
753.582	0.0183376
753.660	0.0182749
753.738	0.0183165
753.817	0.0183884
753.895	0.0184460
753.973	0.0183604
754.051	0.0183528
754.129	0.0183624
754.207	0.0183075
754.285	0.0182480
754.363	0.0181572
754.442	0.0181881
754.520	0.0183752
754.598	0.0183079
754.676	0.0183854
754.754	0.0184451
754.832	0.0184002
754.910	0.0185854
754.988	0.0186263
755.067	0.0185056
755.145	0.0186202
755.223	0.0186173
755.301	0.0187300
755.379	0.0187653
755.457	0.0186085
755.535	0.0187003
755.613	0.0186582
755.692	0.0186031
755.770	0.0185825
755.848	0.0186710
755.926	0.0186774
756.004	0.0184795
756.082	0.0184200
756.160	0.0184842
756.238	0.0184965
756.317	0.0184193
756.395	0.0183514
756.473	0.0184262
756.551	0.0182819
756.629	0.0182591
756.707	0.0183400
756.785	0.0182870
756.863	0.0181226
756.942	0.0181143
757.020	0.0182360
757.098	0.0182242
757.176	0.0181031
757.254	0.0180932
757.332	0.0181651
757.410	0.0179482
757.488	0.0180029
757.567	0.0180558
757.645	0.0177617
757.723	0.0177557
757.801	0.0177200
757.879	0.0176774
757.957	0.0177335
758.035	0.0174060
758.113	0.0174407
758.192	0.0176220
758.270	0.0175128
758.348	0.0174496
758.426	0.0175616
758.504	0.0177752
758.582	0.0178167
758.660	0.0175747
758.738	0.0177104
758.817	0.0179991
758.895	0.0181808
758.973	0.0179725
759.051	0.0177936
759.129	0.0180244
759.207	0.0180257
759.285	0.0179177
759.363	0.0179073
759.442	0.0179543
759.520	0.0177767
759.598	0.0177089
759.676	0.0177128
759.754	0.0177302
759.832	0.0175835
759.910	0.0175733
759.988	0.0175726
760.067	0.0174464
760.145	0.0175975
760.223	0.0176131
760.301	0.0178172
760.379	0.0176630
760.457	0.0178728
760.535	0.0179041
760.613	0.0179070
760.692	0.0180990
760.770	0.0182898
760.848	0.0181527
760.926	0.0182400
761.004	0.0184225
761.082	0.0184184
761.160	0.0184978
761.238	0.0184367
761.317	0.0183828
761.395	0.0183913
761.473	0.0183432
761.551	0.0183401
761.629	0.0184511
761.707	0.0184384
761.785	0.0183836
761.863	0.0182402
761.942	0.0183260
762.020	0.0182475
762.098	0.0182442
762.176	0.0183986
762.254	0.0181775
762.332	0.0184113
762.410	0.0184587
762.488	0.0185531
762.567	0.0187216
762.645	0.0185654
762.723	0.0186409
762.801	0.0188327
762.879	0.0186984
762.957	0.0186971
763.035	0.0185948
763.113	0.0188277
763.192	0.0185394
763.270	0.0185522
763.348	0.0186718
763.426	0.0184791
763.504	0.0182959
763.582	0.0182397
763.660	0.0181348
763.738	0.0181163
763.817	0.0182048
763.895	0.0181416
763.973	0.0182171
764.051	0.0182939
764.129	0.0183474
764.207	0.0181136
764.285	0.0182891
764.363	0.0185383
764.442	0.0183518
764.520	0.0183673
764.598	0.0183863
764.676	0.0184200
764.754	0.0184668
764.832	0.0183652
764.910	0.0182887
764.988	0.0182607
765.067	0.0179779
765.145	0.0177974
765.223	0.0178248
765.301	0.0175796
765.379	0.0174454
765.457	0.0174133
765.535	0.0173169
765.613	0.0172310
765.692	0.0171928
765.770	0.0171468
765.848	0.0170467
765.926	0.0171191
766.004	0.0172291
766.082	0.0173587
766.160	0.0174388
766.238	0.0173373
766.317	0.0175909
766.395	0.0176803
766.473	0.0177323
766.551	0.0179564
766.629	0.0178783
766.707	0.0180257
766.785	0.0180111
766.863	0.0181210
766.942	0.0180898
767.020	0.0180039
767.098	0.0179173
767.176	0.0177216
767.254	0.0176666
767.332	0.0175687
767.410	0.0176631
767.488	0.0173598
767.567	0.0174934
767.645	0.0175037
767.723	0.0173080
767.801	0.0174329
767.879	0.0175361
767.957	0.0176023
768.035	0.0177954
768.113	0.0178452
768.192	0.0180591
768.270	0.0184425
768.348	0.0185645
768.426	0.0186056
768.504	0.0187498
768.582	0.0189832
768.660	0.0189967
768.738	0.0190932
768.817	0.0191491
768.895	0.0190727
768.973	0.0191558
769.051	0.0191000
769.129	0.0188448
769.207	0.0188342
769.285	0.0188421
769.363	0.0186093
769.442	0.0184518
769.520	0.0181980
769.598	0.0181221
769.676	0.0180956
769.754	0.0179736
769.832	0.0179932
769.910	0.0179272
769.988	0.0179177
770.067	0.0177870
770.145	0.0178547
770.223	0.0176857
770.301	0.0178642
770.379	0.0179704
770.457	0.0179303
770.535	0.0180252
770.613	0.0182268
770.692	0.0183637
770.770	0.0183114
770.848	0.0182683
770.926	0.0184772
771.004	0.0185757
771.082	0.0185582
771.160	0.0186829
771.238	0.0185793
771.317	0.0186214
771.395	0.0185041
771.473	0.0185772
771.551	0.0185769
771.629	0.0184379
771.707	0.0184293
771.785	0.0183028
771.863	0.0183637
771.942	0.0181727
772.020	0.0182345
772.098	0.0181524
772.176	0.0180976
772.254	0.0182008
772.332	0.0180967
772.410	0.0180770
772.488	0.0180215
772.567	0.0180449
772.645	0.0179740
772.723	0.0178805
772.801	0.0178973
772.879	0.0178159
772.957	0.0178732
773.035	0.0177232
773.113	0.0175007
773.192	0.0174041
773.270	0.0173724
773.348	0.0174062
773.426	0.0172585
773.504	0.0171726
773.582	0.0170874
773.660	0.0171014
773.738	0.0171482
773.817	0.0173615
773.895	0.0173769
773.973	0.0173695
774.051	0.0174586
774.129	0.0175156
774.207	0.0176262
774.285	0.0178130
774.363	0.0178115
774.442	0.0179222
774.520	0.0178925
774.598	0.0179538
774.676	0.0179707
774.754	0.0180858
774.832	0.0179046
774.910	0.0178403
774.988	0.0179516
775.067	0.0178413
775.145	0.0177013
775.223	0.0178405
775.301	0.0176745
775.379	0.0177715
775.457	0.0177206
775.535	0.0176620
775.613	0.0178473
775.692	0.0179327
775.770	0.0179576
775.848	0.0181197
775.926	0.0183894
776.004	0.0184624
776.082	0.0187049
776.160	0.0186717
776.238	0.0188370
776.317	0.0190440
776.395	0.0190284
776.473	0.0191429
776.551	0.0191644
776.629	0.0191627
776.707	0.0190272
776.785	0.0190251
776.863	0.0189083
776.942	0.0189059
777.020	0.0187418
777.098	0.0185229
777.176	0.0184468
777.254	0.0182528
777.332	0.0180677
777.410	0.0180534
777.488	0.0181127
777.567	0.0179747
777.645	0.0178407
777.723	0.0177554
777.801	0.0177689
777.879	0.0178447
777.957	0.0180553
778.035	0.0179469
778.113	0.0179014
778.192	0.0179858
778.270	0.0180122
778.348	0.0180739
778.426	0.0182333
778.504	0.0185072
778.582	0.0183018
778.660	0.0183785
778.738	0.0183372
778.817	0.0184746
778.895	0.0185387
778.973	0.0186050
779.051	0.0185716
779.129	0.0185980
779.207	0.0186569
779.285	0.0186205
779.363	0.0186963
779.442	0.0186922
779.520	0.0185780
779.598	0.0187827
779.676	0.0186596
779.754	0.0185490
779.832	0.0185330
779.910	0.0185021
779.988	0.0184123
780.067	0.0185255
780.145	0.0184291
780.223	0.0183114
780.301	0.0181949
780.379	0.0181779
780.457	0.0180336
780.535	0.0179340
780.613	0.0178249
780.692	0.0176423
780.770	0.0175451
780.848	0.0174465
780.926	0.0173632
781.004	0.0172115
781.082	0.0171684
781.160	0.0169474
781.238	0.0169636
781.317	0.0170506
781.395	0.0172030
781.473	0.0171717
781.551	0.0171361
781.629	0.0173661
781.707	0.0172633
781.785	0.0174395
781.863	0.0174904
781.942	0.0176138
782.020	0.0176928
782.098	0.0177238
782.176	0.0179628
782.254	0.0178571
782.332	0.0179620
782.410	0.0181309
782.488	0.0179420
782.567	0.0178539
782.645	0.0179543
782.723	0.0177557
782.801	0.0177551
782.879	0.0179293
782.957	0.0178379
783.035	0.0177952
783.113	0.0177867
783.192	0.0178672
783.270	0.0177985
783.348	0.0178790
783.426	0.0180768
783.504	0.0181178
783.582	0.0181747
783.660	0.0183076
783.738	0.0184647
783.817	0.0188177
783.895	0.0188514
783.973	0.0186823
784.051	0.0187699
784.129	0.0189328
784.207	0.0189297
784.285	0.0190619
784.363	0.0190209
784.442	0.0190226
784.520	0.0188081
784.598	0.0188757
784.676	0.0185999
784.754	0.0184386
784.832	0.0185143
784.910	0.0183073
784.988	0.0182887
785.067	0.0181946
785.145	0.0180783
785.223	0.0180460
785.301	0.0179906
785.379	0.0180747
785.457	0.0178912
785.535	0.0179483
785.613	0.0180360
785.692	0.0181239
785.770	0.0182451
785.848	0.0182261
785.926	0.0182283
786.004	0.0183094
786.082	0.0181977
786.160	0.0184052
786.238	0.0185251
786.317	0.0185275
786.395	0.0186563
786.473	0.0188248
786.551	0.0187493
786.629	0.0187347
786.707	0.0186979
786.785	0.0187636
786.863	0.0186192
786.942	0.0186977
787.020	0.0186881
787.098	0.0187586
787.176	0.0185491
787.254	0.0185734
787.332	0.0185524
787.410	0.0183016
787.488	0.0181631
787.567	0.0181902
787.645	0.0183134
787.723	0.0179974
787.801	0.0180355
787.879	0.0180193
787.957	0.0177990
788.035	0.0178555
788.113	0.0176813
788.192	0.0176849
788.270	0.0176714
788.348	0.0173757
788.426	0.0175087
788.504	0.0175470
788.582	0.0172453
788.660	0.0172388
788.738	0.0173341
788.817	0.0173119
788.895	0.0171440
788.973	0.0172449
789.051	0.0170883
789.129	0.0172009
789.207	0.0172745
789.285	0.0173004
789.363	0.0171605
789.442	0.0171486
789.520	0.0172655
789.598	0.0172557
789.676	0.0173328
789.754	0.0173154
789.832	0.0175690
789.910	0.0173981
789.988	0.0175056
790.067	0.0176054
790.145	0.0176006
790.223	0.0176222
790.301	0.0176847
790.379	0.0178027
790.457	0.0179398
790.535	0.0177541
790.613	0.0179753
790.692	0.0181396
790.770	0.0181938
790.848	0.0182642
790.926	0.0183956
791.004	0.0184541
791.082	0.0185884
791.160	0.0188387
791.238	0.0187469
791.317	0.0187957
791.395	0.0188145
791.473	0.0187627
791.551	0.0187589
791.629	0.0189176
791.707	0.0189391
791.785	0.0189377
791.863	0.0187141
791.942	0.0187282
792.020	0.0185194
792.098	0.0185032
792.176	0.0183783
792.254	0.0182159
792.332	0.0181979
792.410	0.0181211
792.488	0.0181686
792.567	0.0179726
792.645	0.0179423
792.723	0.0176521
792.801	0.0177048
792.879	0.0178213
792.957	0.0178120
793.035	0.0177767
793.113	0.0178486
793.192	0.0178872
793.270	0.0180288
793.348	0.0181528
793.426	0.0182556
793.504	0.0181292
793.582	0.0183929
793.660	0.0184293
793.738	0.0184631
793.817	0.0186669
793.895	0.0186448
793.973	0.0187273
794.051	0.0189217
794.129	0.0188199
794.207	0.0188696
794.285	0.0187630
794.363	0.0188367
794.442	0.0189050
794.520	0.0188598
794.598	0.0188605
794.676	0.0188924
794.754	0.0188318
794.832	0.0186821
794.910	0.0188320
794.988	0.0188840
795.067	0.0186995
795.145	0.0186638
795.223	0.0186731
795.301	0.0185883
795.379	0.0185015
795.457	0.0183449
795.535	0.0182524
795.613	0.0182253
795.692	0.0180800
795.770	0.0179716
795.848	0.0178416
795.926	0.0176987
796.004	0.0175325
796.082	0.0173303
796.160	0.0171996
796.238	0.0171278
796.317	0.0169093
796.395	0.0168033
796.473	0.0165466
796.551	0.0165199
796.629	0.0164082
796.707	0.0164276
796.785	0.0163580
796.863	0.0163255
796.942	0.0163538
797.020	0.0164225
797.098	0.0164426
797.176	0.0165332
797.254	0.0165241
797.332	0.0166579
797.410	0.0168937
797.488	0.0169679
797.567	0.0172469
797.645	0.0172092
797.723	0.0173384
797.801	0.0175415
797.879	0.0175829
797.957	0.0178407
798.035	0.0179253
798.113	0.0179447
798.192	0.0181487
798.270	0.0181203
798.348	0.0182658
798.426	0.0183518
798.504	0.0184579
798.582	0.0185372
798.660	0.0185583
798.738	0.0187672
798.817	0.0188000
798.895	0.0189040
798.973	0.0188779
799.051	0.0188206
799.129	0.0190041
799.207	0.0190146
799.285	0.0189256
799.363	0.0191566
799.442	0.0189790
799.520	0.0189169
799.598	0.0190894
799.676	0.0189403
799.754	0.0188561
799.832	0.0188524
799.910	0.0188087
799.988	0.0185847
800.067	0.0186456
800.145	0.0184360
800.223	0.0183374
800.301	0.0182253
800.379	0.0181948
800.457	0.0181637
800.535	0.0179540
800.613	0.0180766
800.692	0.0181215
800.770	0.0180565
800.848	0.0180249
800.926	0.0181168
801.004	0.0180329
801.082	0.0181266
801.160	0.0183378
801.238	0.0181181
801.317	0.0182994
801.395	0.0183190
801.473	0.0184725
801.551	0.0184639
801.629	0.0183015
801.707	0.0183953
801.785	0.0183223
801.863	0.0183150
801.942	0.0185589
802.020	0.0184583
802.098	0.0184824
802.176	0.0184601
802.254	0.0184040
802.332	0.0184084
802.410	0.0184522
802.488	0.0184177
802.567	0.0184435
802.645	0.0184648
802.723	0.0184299
802.801	0.0183360
802.879	0.0183974
802.957	0.0182986
803.035	0.0183595
803.113	0.0184425
803.192	0.0181947
803.270	0.0181409
803.348	0.0182666
803.426	0.0182217
803.504	0.0181442
803.582	0.0178653
803.660	0.0180350
803.738	0.0180121
803.817	0.0177914
803.895	0.0176981
803.973	0.0175507
804.051	0.0174448
804.129	0.0173539
804.207	0.0172910
804.285	0.0172258
804.363	0.0172093
804.442	0.0171294
804.520	0.0170150
804.598	0.0169421
804.676	0.0168631
804.754	0.0168790
804.832	0.0169862
804.910	0.0171416
804.988	0.0169179
805.067	0.0170227
805.145	0.0172250
805.223	0.0172150
805.301	0.0172939
805.379	0.0175710
805.457	0.0176249
805.535	0.0175887
805.613	0.0177291
805.692	0.0179379
805.770	0.0179227
805.848	0.0180162
805.926	0.0182124
806.004	0.0184465
806.082	0.0184260
806.160	0.0184505
806.238	0.0184369
806.317	0.0186602
806.395	0.0186908
806.473	0.0185135
806.551	0.0186320
806.629	0.0186258
806.707	0.0186514
806.785	0.0186585
806.863	0.0185905
806.942	0.0184361
807.020	0.0186369
807.098	0.0184353
807.176	0.0182118
807.254	0.0184471
807.332	0.0183818
807.410	0.0183735
807.488	0.0184189
807.567	0.0182795
807.645	0.0183132
807.723	0.0183923
807.801	0.0182922
807.879	0.0181712
807.957	0.0183806
808.035	0.0183210
808.113	0.0182258
808.192	0.0182049
808.270	0.0183567
808.348	0.0184602
808.426	0.0186317
808.504	0.0184704
808.582	0.0185385
808.660	0.0185228
808.738	0.0186926
808.817	0.0187906
808.895	0.0188123
808.973	0.0187238
809.051	0.0188170
809.129	0.0188250
809.207	0.0186332
809.285	0.0187137
809.363	0.0188200
809.442	0.0188005
809.520	0.0188559
809.598	0.0187801
809.676	0.0186684
809.754	0.0187697
809.832	0.0186939
809.910	0.0185354
809.988	0.0186502
810.067	0.0186424
810.145	0.0185583
810.223	0.0185693
810.301	0.0185435
810.379	0.0184784
810.457	0.0183611
810.535	0.0185346
810.613	0.0184649
810.692	0.0183555
810.770	0.0183735
810.848	0.0184150
810.926	0.0182287
811.004	0.0181493
811.082	0.0180933
811.160	0.0180021
811.238	0.0179462
811.317	0.0179856
811.395	0.0177750
811.473	0.0176813
811.551	0.0176340
811.629	0.0174598
811.707	0.0173922
811.785	0.0172015
811.863	0.0172159
811.942	0.0169847
812.020	0.0168778
812.098	0.0169504
812.176	0.0169100
812.254	0.0167604
812.332	0.0166499
812.410	0.0167065
812.488	0.0168189
812.567	0.0165980
812.645	0.0166444
812.723	0.0168051
812.801	0.0169023
812.879	0.0169232
812.957	0.0169594
813.035	0.0169754
813.113	0.0172031
813.192	0.0171778
813.270	0.0174488
813.348	0.0175689
813.426	0.0176354
813.504	0.0177200
813.582	0.0177445
813.660	0.0180255
813.738	0.0180988
813.817	0.0182092
813.895	0.0183101
813.973	0.0185046
814.051	0.0184682
814.129	0.0185104
814.207	0.0187366
814.285	0.0186267
814.363	0.0188869
814.442	0.0187835
814.520	0.0186851
814.598	0.0187762
814.676	0.0188464
814.754	0.0189285
814.832	0.0189244
814.910	0.0187159
814.988	0.0187691
815.067	0.0188117
815.145	0.0188060
815.223	0.0188068
815.301	0.0188387
815.379	0.0187206
815.457	0.0186133
815.535	0.0186454
815.613	0.0187395
815.692	0.0186615
815.770	0.0187353
815.848	0.0186020
815.926	0.0185901
816.004	0.0186122
816.082	0.0185793
816.160	0.0186327
816.238	0.0186501
816.317	0.0186742
816.395	0.0187072
816.473	0.0185284
816.551	0.0186457
816.629	0.0187730
816.707	0.0186679
816.785	0.0185638
816.863	0.0186679
816.942	0.0187122
817.020	0.0187714
817.098	0.0185390
817.176	0.0185085
817.254	0.0186561
817.332	0.0185259
817.410	0.0184821
817.488	0.0184310
817.567	0.0185257
817.645	0.0183617
817.723	0.0183578
817.801	0.0182529
817.879	0.0181904
817.957	0.0180589
818.035	0.0181239
818.113	0.0180608
818.192	0.0180886
818.270	0.0179248
818.348	0.0178253
818.426	0.0177950
818.504	0.0178199
818.582	0.0179205
818.660	0.0176121
818.738	0.0176424
818.817	0.0176953
818.895	0.0178020
818.973	0.0176453
819.051	0.0175057
819.129	0.0175168
819.207	0.0173788
819.285	0.0173010
819.363	0.0173649
819.442	0.0173467
819.520	0.0172496
819.598	0.0173549
819.676	0.0171377
819.754	0.0170555
819.832	0.0172395
819.910	0.0171677
819.988	0.0171392
820.067	0.0170312
820.145	0.0170778
820.223	0.0171354
820.301	0.0171460
820.379	0.0173021
820.457	0.0172949
820.535	0.0174353
820.613	0.0174222
820.692	0.0173289
820.770	0.0176298
820.848	0.0177744
820.926	0.0176881
821.004	0.0178083
821.082	0.0179098
821.160	0.0179701
821.238	0.0179620
821.317	0.0181216
821.395	0.0182988
821.473	0.0182586
821.551	0.0183721
821.629	0.0184268
821.707	0.0185487
821.785	0.0184190
821.863	0.0185265
821.942	0.0185876
822.020	0.0184777
822.098	0.0184793
822.176	0.0186659
822.254	0.0184850
822.332	0.0185641
822.410	0.0184215
822.488	0.0184010
822.567	0.0185390
822.645	0.0184116
822.723	0.0183459
822.801	0.0183511
822.879	0.0184447
822.957	0.0183610
823.035	0.0184438
823.113	0.0184309
823.192	0.0184847
823.270	0.0183807
823.348	0.0185217
823.426	0.0185548
823.504	0.0185745
823.582	0.0184354
823.660	0.0185191
823.738	0.0184686
823.817	0.0186250
823.895	0.0185850
823.973	0.0183808
824.051	0.0184467
824.129	0.0185231
824.207	0.0185227
824.285	0.0184740
824.363	0.0183849
824.442	0.0185130
824.520	0.0184190
824.598	0.0183751
824.676	0.0183291
824.754	0.0183781
824.832	0.0183037
824.910	0.0183140
824.988	0.0182928
825.067	0.0182547
825.145	0.0183391
825.223	0.0182236
825.301	0.0183257
825.379	0.0182536
825.457	0.0183235
825.535	0.0181747
825.613	0.0180753
825.692	0.0182127
825.770	0.0183292
825.848	0.0182056
825.926	0.0181484
826.004	0.0180730
826.082	0.0180951
826.160	0.0178870
826.238	0.0179244
826.317	0.0178976
826.395	0.0179129
826.473	0.0177392
826.551	0.0177014
826.629	0.0177668
826.707	0.0177274
826.785	0.0176387
826.863	0.0174483
826.942	0.0174479
827.020	0.0173556
827.098	0.0173367
827.176	0.0172856
827.254	0.0172633
827.332	0.0172940
827.410	0.0173635
827.488	0.0173138
827.567	0.0173275
827.645	0.0172818
827.723	0.0172970
827.801	0.0173190
827.879	0.0173674
827.957	0.0173745
828.035	0.0172919
828.113	0.0172887
828.192	0.0174661
828.270	0.0176254
828.348	0.0177353
828.426	0.0175937
828.504	0.0176365
828.582	0.0177654
828.660	0.0179504
828.738	0.0179060
828.817	0.0179814
828.895	0.0180402
828.973	0.0180424
829.051	0.0181719
829.129	0.0181415
829.207	0.0183308
829.285	0.0182288
829.363	0.0182702
829.442	0.0182069
829.520	0.0182952
829.598	0.0182701
829.676	0.0182104
829.754	0.0183089
829.832	0.0183669
829.910	0.0182623
829.988	0.0183659
830.067	0.0183984
830.145	0.0182921
830.223	0.0183104
830.301	0.0183649
830.379	0.0183477
830.457	0.0185459
830.535	0.0185341
830.613	0.0185506
830.692	0.0185784
830.770	0.0186421
830.848	0.0187474
830.926	0.0187541
831.004	0.0187564
831.082	0.0188942
831.160	0.0187924
831.238	0.0188795
831.317	0.0188326
831.395	0.0187305
831.473	0.0186721
831.551	0.0186555
831.629	0.0187059
831.707	0.0184622
831.785	0.0186846
831.863	0.0186031
831.942	0.0185464
832.020	0.0185004
832.098	0.0185055
832.176	0.0183814
832.254	0.0182652
832.332	0.0183356
832.410	0.0183738
832.488	0.0184730
832.567	0.0184435
832.645	0.0182498
832.723	0.0183398
832.801	0.0182689
832.879	0.0183993
832.957	0.0183652
833.035	0.0183067
833.113	0.0180686
833.192	0.0182166
833.270	0.0183779
833.348	0.0181189
833.426	0.0180648
833.504	0.0180906
833.582	0.0179927
833.660	0.0180562
833.738	0.0179835
833.817	0.0178375
833.895	0.0177347
833.973	0.0177985
834.051	0.0177817
834.129	0.0176411
834.207	0.0177637
834.285	0.0177348
834.363	0.0176864
834.442	0.0175648
834.520	0.0175551
834.598	0.0176209
834.676	0.0176440
834.754	0.0175545
834.832	0.0175439
834.910	0.0175307
834.988	0.0176072
835.067	0.0174839
835.145	0.0175222
835.223	0.0176868
835.301	0.0173837
835.379	0.0175107
835.457	0.0175424
835.535	0.0176971
835.613	0.0175667
835.692	0.0176427
835.770	0.0177436
835.848	0.0178405
835.926	0.0178145
836.004	0.0179057
836.082	0.0180276
836.160	0.0179121
836.238	0.0180005
836.317	0.0181689
836.395	0.0181213
836.473	0.0181371
836.551	0.0182154
836.629	0.0182167
836.707	0.0183462
836.785	0.0182841
836.863	0.0182188
836.942	0.0183488
837.020	0.0182033
837.098	0.0181219
837.176	0.0182199
837.254	0.0183347
837.332	0.0181648
837.410	0.0180904
837.488	0.0181707
837.567	0.0181436
837.645	0.0182052
837.723	0.0182970
837.801	0.0183108
837.879	0.0180764
837.957	0.0180202
838.035	0.0180776
838.113	0.0182623
838.192	0.0182317
838.270	0.0181610
838.348	0.0182630
838.426	0.0182903
838.504	0.0184604
838.582	0.0183054
838.660	0.0184008
838.738	0.0185066
838.817	0.0184913
838.895	0.0186149
838.973	0.0185395
839.051	0.0185823
839.129	0.0185661
839.207	0.0187119
839.285	0.0184898
839.363	0.0186497
839.442	0.0185827
839.520	0.0184660
839.598	0.0184777
839.676	0.0183295
839.754	0.0184466
839.832	0.0184457
839.910	0.0182888
839.988	0.0182278
840.067	0.0182696
840.145	0.0183984
840.223	0.0183762
840.301	0.0183807
840.379	0.0183396
840.457	0.0182482
840.535	0.0182595
840.613	0.0183685
840.692	0.0182233
840.770	0.0182185
840.848	0.0182961
840.926	0.0183768
841.004	0.0184097
841.082	0.0184084
841.160	0.0182896
841.238	0.0181191
841.317	0.0183746
841.395	0.0182355
841.473	0.0181732
841.551	0.0180958
841.629	0.0181496
841.707	0.0180827
841.785	0.0180305
841.863	0.0180325
841.942	0.0179041
842.020	0.0178438
842.098	0.0178217
842.176	0.0177659
842.254	0.0177638
842.332	0.0176726
842.410	0.0175768
842.488	0.0175624
842.567	0.0176192
842.645	0.0176320
842.723	0.0174078
842.801	0.0173816
842.879	0.0173309
842.957	0.0172618
843.035	0.0174775
843.113	0.0173947
843.192	0.0173401
843.270	0.0173046
843.348	0.0175288
843.426	0.0175584
843.504	0.0175684
843.582	0.0176396
843.660	0.0176969
843.738	0.0178635
843.817	0.0178080
843.895	0.0179790
843.973	0.0183008
844.051	0.0182138
844.129	0.0182737
844.207	0.0183704
844.285	0.0182480
844.363	0.0183809
844.442	0.0184303
844.520	0.0184125
844.598	0.0184425
844.676	0.0183607
844.754	0.0184902
844.832	0.0184911
844.910	0.0183222
844.988	0.0184101
845.067	0.0183040
845.145	0.0182481
845.223	0.0181432
845.301	0.0182761
845.379	0.0182016
845.457	0.0180481
845.535	0.0181929
845.613	0.0180777
845.692	0.0179859
845.770	0.0179465
845.848	0.0180011
845.926	0.0181011
846.004	0.0181392
846.082	0.0181465
846.160	0.0182298
846.238	0.0182448
846.317	0.0181487
846.395	0.0183350
846.473	0.0183853
846.551	0.0182120
846.629	0.0184357
846.707	0.0185693
846.785	0.0184890
846.863	0.0184624
846.942	0.0185511
847.020	0.0186472
847.098	0.0185755
847.176	0.0186476
847.254	0.0185721
847.332	0.0185708
847.410	0.0184930
847.488	0.0184464
847.567	0.0184854
847.645	0.0184673
847.723	0.0182439
847.801	0.0181683
847.879	0.0182237
847.957	0.0183561
848.035	0.0182310
848.113	0.0181035
848.192	0.0181238
848.270	0.0181435
848.348	0.0180496
848.426	0.0180497
848.504	0.0180006
848.582	0.0179738
848.660	0.0179113
848.738	0.0181561
848.817	0.0180564
848.895	0.0179916
848.973	0.0179723
849.051	0.0178635
849.129	0.0180782
849.207	0.0180136
849.285	0.0180007
849.363	0.0179525
849.442	0.0179259
849.520	0.0178364
849.598	0.0179302
849.676	0.0178409
849.754	0.0178228
849.832	0.0178399
849.910	0.0177396
849.988	0.0178543
850.067	0.0178242
850.145	0.0178570
850.223	0.0175789
850.301	0.0175606
850.379	0.0175616
850.457	0.0175513
850.535	0.0175063
850.613	0.0174152
850.692	0.0174780
850.770	0.0174556
850.848	0.0176302
850.926	0.0175745
851.004	0.0174662
851.082	0.0175172
851.160	0.0173183
851.238	0.0176581
851.317	0.0177651
851.395	0.0177066
851.473	0.0178509
851.551	0.0177097
851.629	0.0180894
851.707	0.0180343
851.785	0.0180612
851.863	0.0181503
851.942	0.0182088
852.020	0.0181799
852.098	0.0183770
852.176	0.0184533
852.254	0.0184623
852.332	0.0186141
852.410	0.0185383
852.488	0.0184124
852.567	0.0184438
852.645	0.0184807
852.723	0.0185405
852.801	0.0183577
852.879	0.0181966
852.957	0.0182303
853.035	0.0182165
853.113	0.0182669
853.192	0.0181091
853.270	0.0181017
853.348	0.0180538
853.426	0.0180101
853.504	0.0180190
853.582	0.0179465
853.660	0.0179105
853.738	0.0179768
853.817	0.0179946
853.895	0.0179973
853.973	0.0178645
854.051	0.0178277
854.129	0.0179624
854.207	0.0179179
854.285	0.0179817
854.363	0.0179549
854.442	0.0180135
854.520	0.0179559
854.598	0.0180341
854.676	0.0181147
854.754	0.0182009
854.832	0.0181902
854.910	0.0182719
854.988	0.0182235
855.067	0.0183392
855.145	0.0184324
855.223	0.0183308
855.301	0.0184029
855.379	0.0184706
855.457	0.0183527
855.535	0.0183307
855.613	0.0182904
855.692	0.0184068
855.770	0.0182021
855.848	0.0182929
855.926	0.0182020
856.004	0.0181360
856.082	0.0182697
856.160	0.0182718
856.238	0.0182630
856.317	0.0180280
856.395	0.0182009
856.473	0.0181945
856.551	0.0181002
856.629	0.0179671
856.707	0.0181130
856.785	0.0180760
856.863	0.0180505
856.942	0.0181629
857.020	0.0182112
857.098	0.0181408
857.176	0.0181253
857.254	0.0181657
857.332	0.0181052
857.410	0.0182152
857.488	0.0183131
857.567	0.0183266
857.645	0.0180862
857.723	0.0181981
857.801	0.0181380
857.879	0.0180376
857.957	0.0179163
858.035	0.0181293
858.113	0.0180685
858.192	0.0178392
858.270	0.0177660
858.348	0.0179102
858.426	0.0179477
858.504	0.0178264
858.582	0.0176863
858.660	0.0177060
858.738	0.0177763
858.817	0.0177051
858.895	0.0177522
858.973	0.0177838
859.051	0.0177541
859.129	0.0178497
859.207	0.0178710
859.285	0.0178520
859.363	0.0178416
859.442	0.0179948
859.520	0.0179347
859.598	0.0180509
859.676	0.0180281
859.754	0.0181702
859.832	0.0182503
859.910	0.0181919
859.988	0.0183614
860.067	0.0183884
860.145	0.0185426
860.223	0.0184583
860.301	0.0185403
860.379	0.0185876
860.457	0.0185785
860.535	0.0183450
860.613	0.0184291
860.692	0.0184569
860.770	0.0184733
860.848	0.0185057
860.926	0.0183688
861.004	0.0183542
861.082	0.0183147
861.160	0.0183178
861.238	0.0181755
861.317	0.0181139
861.395	0.0180634
861.473	0.0179735
861.551	0.0180827
861.629	0.0179540
861.707	0.0179504
861.785	0.0180080
861.863	0.0179805
861.942	0.0181830
862.020	0.0178681
862.098	0.0179852
862.176	0.0180832
862.254	0.0180716
862.332	0.0178699
862.410	0.0180594
862.488	0.0180710
862.567	0.0180842
862.645	0.0181557
862.723	0.0181467
862.801	0.0182372
862.879	0.0184669
862.957	0.0183069
863.035	0.0183350
863.113	0.0184254
863.192	0.0183079
863.270	0.0182507
863.348	0.0183092
863.426	0.0184649
863.504	0.0183320
863.582	0.0181945
863.660	0.0182427
863.738	0.0183274
863.817	0.0182996
863.895	0.0182623
863.973	0.0182393
864.051	0.0181986
864.129	0.0183226
864.207	0.0180403
864.285	0.0183134
864.363	0.0182628
864.442	0.0181026
864.520	0.0181885
864.598	0.0181272
864.676	0.0182481
864.754	0.0182051
864.832	0.0181244
864.910	0.0180433
864.988	0.0182491
865.067	0.0181192
865.145	0.0180984
865.223	0.0181295
865.301	0.0179826
865.379	0.0180022
865.457	0.0181178
865.535	0.0182050
865.613	0.0180774
865.692	0.0180250
865.770	0.0179406
865.848	0.0180372
865.926	0.0180364
866.004	0.0179259
866.082	0.0179317
866.160	0.0178513
866.238	0.0178124
866.317	0.0178247
866.395	0.0178178
866.473	0.0178029
866.551	0.0179831
866.629	0.0177418
866.707	0.0176415
866.785	0.0177255
866.863	0.0177677
866.942	0.0178042
867.020	0.0177905
867.098	0.0178044
867.176	0.0180434
867.254	0.0179821
867.332	0.0178494
867.410	0.0180483
867.488	0.0180599
867.567	0.0180714
867.645	0.0180942
867.723	0.0183199
867.801	0.0182579
867.879	0.0182582
867.957	0.0182720
868.035	0.0183459
868.113	0.0184646
868.192	0.0183968
868.270	0.0184878
868.348	0.0182854
868.426	0.0182299
868.504	0.0183533
868.582	0.0182815
868.660	0.0183755
868.738	0.0183631
868.817	0.0181222
868.895	0.0182037
868.973	0.0181551
869.051	0.0179565
869.129	0.0180365
869.207	0.0178909
869.285	0.0179798
869.363	0.0180793
869.442	0.0180571
869.520	0.0180091
869.598	0.0180262
869.676	0.0180124
869.754	0.0179722
869.832	0.0180338
869.910	0.0180070
869.988	0.0179238
870.067	0.0178655
870.145	0.0180151
870.223	0.0178918
870.301	0.0179203
870.379	0.0180561
870.457	0.0179073
870.535	0.0179858
870.613	0.0180495
870.692	0.0181911
870.770	0.0179713
870.848	0.0180468
870.926	0.0180756
871.004	0.0180807
871.082	0.0180338
871.160	0.0182584
871.238	0.0180973
871.317	0.0181502
871.395	0.0181267
871.473	0.0181787
871.551	0.0181585
871.629	0.0179890
871.707	0.0181482
871.785	0.0180795
871.863	0.0180737
871.942	0.0182083
872.020	0.0180718
872.098	0.0181864
872.176	0.0182211
872.254	0.0182401
872.332	0.0181925
872.410	0.0182771
872.488	0.0180908
872.567	0.0183077
872.645	0.0183627
872.723	0.0182619
872.801	0.0181926
872.879	0.0181607
872.957	0.0182581
873.035	0.0182423
873.113	0.0181715
873.192	0.0181597
873.270	0.0180975
873.348	0.0179339
873.426	0.0180049
873.504	0.0179945
873.582	0.0179204
873.660	0.0179356
873.738	0.0180006
873.817	0.0178821
873.895	0.0179681
873.973	0.0178537
874.051	0.0179550
874.129	0.0178313
874.207	0.0178679
874.285	0.0178477
874.363	0.0178875
874.442	0.0179290
874.520	0.0178467
874.598	0.0178883
874.676	0.0178096
874.754	0.0179215
874.832	0.0178105
874.910	0.0178540
874.988	0.0179028
875.067	0.0179438
875.145	0.0179257
875.223	0.0179693
875.301	0.0181126
875.379	0.0180034
875.457	0.0181622
875.535	0.0181261
875.613	0.0180396
875.692	0.0180067
875.770	0.0182619
875.848	0.0182295
875.926	0.0181903
876.004	0.0181912
876.082	0.0183289
876.160	0.0182697
876.238	0.0183064
876.317	0.0184547
876.395	0.0183726
876.473	0.0181272
876.551	0.0183298
876.629	0.0184615
876.707	0.0182926
876.785	0.0182574
876.863	0.0182496
876.942	0.0182730
877.020	0.0181458
877.098	0.0181895
877.176	0.0181492
877.254	0.0179964
877.332	0.0180017
877.410	0.0179427
877.488	0.0180257
877.567	0.0179472
877.645	0.0177558
877.723	0.0178617
877.801	0.0179668
877.879	0.0178743
877.957	0.0178851
878.035	0.0178207
878.113	0.0178372
878.192	0.0178497
878.270	0.0178375
878.348	0.0177869
878.426	0.0178349
878.504	0.0179659
878.582	0.0178882
878.660	0.0179562
878.738	0.0179235
878.817	0.0179282
878.895	0.0179758
878.973	0.0181778
879.051	0.0180219
879.129	0.0181793
879.207	0.0181094
879.285	0.0183339
879.363	0.0184048
879.442	0.0183197
879.520	0.0182105
879.598	0.0183790
879.676	0.0182318
879.754	0.0184470
879.832	0.0183782
879.910	0.0183227
879.988	0.0183553
880.067	0.0182246
880.145	0.0183910
880.223	0.0183858
880.301	0.0182480
880.379	0.0184457
880.457	0.0184355
880.535	0.0183022
880.613	0.0182797
880.692	0.0183164
880.770	0.0182430
880.848	0.0183631
880.926	0.0182745
881.004	0.0182011
881.082	0.0180839
881.160	0.0180026
881.238	0.0179762
881.317	0.0181804
881.395	0.0181282
881.473	0.0178901
881.551	0.0180536
881.629	0.0179611
881.707	0.0179921
881.785	0.0181278
881.863	0.0180536
881.942	0.0179533
882.020	0.0179720
882.098	0.0180458
882.176	0.0181310
882.254	0.0179334
882.332	0.0180652
882.410	0.0180824
882.488	0.0180928
882.567	0.0181480
882.645	0.0180782
882.723	0.0180312
882.801	0.0181300
882.879	0.0181234
882.957	0.0180712
883.035	0.0180879
883.113	0.0183731
883.192	0.0182549
883.270	0.0182758
883.348	0.0182362
883.426	0.0182730
883.504	0.0183574
883.582	0.0184370
883.660	0.0183743
883.738	0.0184238
883.817	0.0184338
883.895	0.0183576
883.973	0.0182652
884.051	0.0183847
884.129	0.0182727
884.207	0.0183201
884.285	0.0182884
884.363	0.0182420
884.442	0.0181649
884.520	0.0181113
884.598	0.0182018
884.676	0.0182382
884.754	0.0180784
884.832	0.0180315
884.910	0.0180554
884.988	0.0179658
885.067	0.0179819
885.145	0.0179985
885.223	0.0180372
885.301	0.0178083
885.379	0.0177864
885.457	0.0178465
885.535	0.0177016
885.613	0.0177642
885.692	0.0176820
885.770	0.0179153
885.848	0.0178814
885.926	0.0178566
886.004	0.0177379
886.082	0.0176790
886.160	0.0179533
886.238	0.0179267
886.317	0.0179519
886.395	0.0180871
886.473	0.0180028
886.551	0.0181105
886.629	0.0182616
886.707	0.0182211
886.785	0.0180741
886.863	0.0183313
886.942	0.0182784
887.020	0.0184063
887.098	0.0183609
887.176	0.0183493
887.254	0.0183746
887.332	0.0184315
887.410	0.0182858
887.488	0.0182616
887.567	0.0183422
887.645	0.0183060
887.723	0.0182546
887.801	0.0182531
887.879	0.0183376
887.957	0.0182903
888.035	0.0182553
888.113	0.0181689
888.192	0.0182784
888.270	0.0181412
888.348	0.0181107
888.426	0.0181059
888.504	0.0183205
888.582	0.0181438
888.660	0.0181876
888.738	0.0183569
888.817	0.0181401
888.895	0.0181857
888.973	0.0181295
889.051	0.0182300
889.129	0.0182718
889.207	0.0181594
889.285	0.0181789
889.363	0.0182367
889.442	0.0182452
889.520	0.0182219
889.598	0.0182639
889.676	0.0182347
889.754	0.0182656
889.832	0.0181403
889.910	0.0181632
889.988	0.0182072
890.067	0.0181676
890.145	0.0181431
890.223	0.0183402
890.301	0.0182063
890.379	0.0182051
890.457	0.0182470
890.535	0.0182291
890.613	0.0182020
890.692	0.0181049
890.770	0.0182662
890.848	0.0182845
890.926	0.0182452
891.004	0.0181618
891.082	0.0180814
891.160	0.0181035
891.238	0.0180579
891.317	0.0180687
891.395	0.0181909
891.473	0.0181215
891.551	0.0180898
891.629	0.0179814
891.707	0.0180529
891.785	0.0181551
891.863	0.0180444
891.942	0.0179799
892.020	0.0178696
892.098	0.0179685
892.176	0.0180373
892.254	0.0180184
892.332	0.0180762
892.410	0.0180264
892.488	0.0178480
892.567	0.0179829
892.645	0.0179494
892.723	0.0180104
892.801	0.0178474
892.879	0.0180195
892.957	0.0181515
893.035	0.0179010
893.113	0.0177634
893.192	0.0178095
893.270	0.0179101
893.348	0.0178999
893.426	0.0177625
893.504	0.0177877
893.582	0.0177080
893.660	0.0177530
893.738	0.0177194
893.817	0.0178640
893.895	0.0178952
893.973	0.0177995
894.051	0.0178687
894.129	0.0179711
894.207	0.0179991
894.285	0.0179867
894.363	0.0179759
894.442	0.0180656
894.520	0.0181060
894.598	0.0183325
894.676	0.0182957
894.754	0.0182285
894.832	0.0183865
894.910	0.0183803
894.988	0.0183249
895.067	0.0182510
895.145	0.0182699
895.223	0.0182915
895.301	0.0182920
895.379	0.0184036
895.457	0.0182180
895.535	0.0182564
895.613	0.0182237
895.692	0.0182129
895.770	0.0182285
895.848	0.0182253
895.926	0.0182953
896.004	0.0180671
896.082	0.0180675
896.160	0.0181290
896.238	0.0180223
896.317	0.0180735
896.395	0.0180168
896.473	0.0179742
896.551	0.0179713
896.629	0.0180205
896.707	0.0178874
896.785	0.0180099
896.863	0.0181051
896.942	0.0180931
897.020	0.0181269
897.098	0.0181225
897.176	0.0180494
897.254	0.0181804
897.332	0.0180865
897.410	0.0181477
897.488	0.0180480
897.567	0.0182143
897.645	0.0181396
897.723	0.0181667
897.801	0.0182751
897.879	0.0182602
897.957	0.0182935
898.035	0.0181625
898.113	0.0182496
898.192	0.0182198
898.270	0.0181504
898.348	0.0182242
898.426	0.0182976
898.504	0.0182962
898.582	0.0182823
898.660	0.0182337
898.738	0.0182926
898.817	0.0181408
898.895	0.0182703
898.973	0.0184170
899.051	0.0182676
899.129	0.0182816
899.207	0.0183369
899.285	0.0181694
899.363	0.0181156
899.442	0.0181485
899.520	0.0181548
899.598	0.0181343
899.676	0.0181615
899.754	0.0180148
899.832	0.0181252
899.910	0.0179453
899.988	0.0180187
900.067	0.0179668
900.145	0.0180219
900.223	0.0179914
900.301	0.0179066
900.379	0.0178965
900.457	0.0178580
900.535	0.0179630
900.613	0.0178821
900.692	0.0178709
900.770	0.0178216
900.848	0.0178048
900.926	0.0178702
901.004	0.0178246
901.082	0.0177759
901.160	0.0178308
901.238	0.0177953
901.317	0.0178051
901.395	0.0178309
901.473	0.0178690
901.551	0.0177303
901.629	0.0178519
901.707	0.0177908
901.785	0.0179828
901.863	0.0180393
901.942	0.0178630
902.020	0.0179264
902.098	0.0178476
902.176	0.0178761
902.254	0.0178663
902.332	0.0180224
902.410	0.0181055
902.488	0.0180788
902.567	0.0180794
902.645	0.0180805
902.723	0.0181590
902.801	0.0182588
902.879	0.0181680
902.957	0.0181241
903.035	0.0181699
903.113	0.0182243
903.192	0.0182442
903.270	0.0181960
903.348	0.0183334
903.426	0.0182933
903.504	0.0183352
903.582	0.0183150
903.660	0.0183117
903.738	0.0183467
903.817	0.0181952
903.895	0.0182540
903.973	0.0183506
904.051	0.0182708
904.129	0.0182722
904.207	0.0183335
904.285	0.0182578
904.363	0.0182417
904.442	0.0181718
904.520	0.0181488
904.598	0.0181937
904.676	0.0181540
904.754	0.0182972
904.832	0.0182647
904.910	0.0182443
904.988	0.0181612
905.067	0.0182104
905.145	0.0182050
905.223	0.0183569
905.301	0.0183484
905.379	0.0182084
905.457	0.0182680
905.535	0.0183858
905.613	0.0183510
905.692	0.0182885
905.770	0.0183935
905.848	0.0184106
905.926	0.0183390
906.004	0.0183579
906.082	0.0183440
906.160	0.0185255
906.238	0.0183394
906.317	0.0183527
906.395	0.0185010
906.473	0.0183775
906.551	0.0182759
906.629	0.0183956
906.707	0.0183141
906.785	0.0183173
906.863	0.0183965
906.942	0.0182849
907.020	0.0182201
907.098	0.0182625
907.176	0.0181890
907.254	0.0181272
907.332	0.0181602
907.410	0.0180735
907.488	0.0179853
907.567	0.0180253
907.645	0.0180932
907.723	0.0179432
907.801	0.0179717
907.879	0.0179572
907.957	0.0179567
908.035	0.0177891
908.113	0.0178706
908.192	0.0177311
908.270	0.0177877
908.348	0.0177287
908.426	0.0176460
908.504	0.0176917
908.582	0.0175452
908.660	0.0178723
908.738	0.0176346
908.817	0.0176323
908.895	0.0176853
908.973	0.0177113
909.051	0.0177490
909.129	0.0177953
909.207	0.0177899
909.285	0.0178860
909.363	0.0178477
909.442	0.0178831
909.520	0.0179008
909.598	0.0179544
909.676	0.0178841
909.754	0.0179416
909.832	0.0180605
909.910	0.0180039
909.988	0.0180905
910.067	0.0179786
910.145	0.0180791
910.223	0.0179903
910.301	0.0179999
910.379	0.0181347
910.457	0.0180374
910.535	0.0180700
910.613	0.0180201
910.692	0.0181212
910.770	0.0180984
910.848	0.0180514
910.926	0.0181093
911.004	0.0182254
911.082	0.0181679
911.160	0.0181487
911.238	0.0181914
911.317	0.0182313
911.395	0.0182236
911.473	0.0182243
911.551	0.0183116
911.629	0.0182298
911.707	0.0182282
911.785	0.0181888
911.863	0.0182906
911.942	0.0183575
912.020	0.0183253
912.098	0.0185004
912.176	0.0184074
912.254	0.0183637
912.332	0.0183545
912.410	0.0183179
912.488	0.0182747
912.567	0.0184120
912.645	0.0183974
912.723	0.0182166
912.801	0.0184479
912.879	0.0181583
912.957	0.0182555
913.035	0.0182466
913.113	0.0181992
913.192	0.0181285
913.270	0.0181502
913.348	0.0181322
913.426	0.0182710
913.504	0.0182285
913.582	0.0181895
913.660	0.0182917
913.738	0.0182267
913.817	0.0182835
913.895	0.0182452
913.973	0.0181910
914.051	0.0182674
914.129	0.0181693
914.207	0.0182732
914.285	0.0181089
914.363	0.0181763
914.442	0.0182220
914.520	0.0180655
914.598	0.0181346
914.676	0.0181332
914.754	0.0180858
914.832	0.0181216
914.910	0.0181624
914.988	0.0182382
915.067	0.0180856
915.145	0.0181635
915.223	0.0180990
915.301	0.0181619
915.379	0.0180332
915.457	0.0181586
915.535	0.0180946
915.613	0.0180135
915.692	0.0181602
915.770	0.0180389
915.848	0.0180489
915.926	0.0180638
916.004	0.0178890
916.082	0.0180206
916.160	0.0179675
916.238	0.0179817
916.317	0.0179671
916.395	0.0179372
916.473	0.0180166
916.551	0.0180207
916.629	0.0179754
916.707	0.0179652
916.785	0.0180409
916.863	0.0181593
916.942	0.0180302
917.020	0.0178736
917.098	0.0178809
917.176	0.0180324
917.254	0.0181372
917.332	0.0180173
917.410	0.0179578
917.488	0.0180527
917.567	0.0179766
917.645	0.0180371
917.723	0.0180805
917.801	0.0179779
917.879	0.0180744
917.957	0.0180414
918.035	0.0178708
918.113	0.0179784
918.192	0.0179531
918.270	0.0179181
918.348	0.0179382
918.426	0.0177951
918.504	0.0179142
918.582	0.0179439
918.660	0.0179984
918.738	0.0179411
918.817	0.0179701
918.895	0.0180136
918.973	0.0180635
919.051	0.0180399
919.129	0.0181603
919.207	0.0181535
919.285	0.0180446
919.363	0.0180930
919.442	0.0180466
919.520	0.0180984
919.598	0.0181333
919.676	0.0182472
919.754	0.0180447
919.832	0.0182045
919.910	0.0182325
