06/01/2022	21:58:58	Ver.	4.1	UNKNOWN
Optical Delay	599.988409	Delta X		0.078125	Sweeps	1	Scan Rate	0/0
Coordinates	Axis 1	NaN	Axis 2	NaN	Axis 3	NaN	Axis 4	NaN	Axis 5	NaN	Axis 6	0.000000
TX Power	0.000000	RX Power	0.000000

599.988	0.0182565
600.067	0.0182727
600.145	0.0181622
600.223	0.0182629
600.301	0.0182030
600.379	0.0182913
600.457	0.0181300
600.535	0.0182178
600.613	0.0181689
600.692	0.0181551
600.770	0.0181285
600.848	0.0181696
600.926	0.0182601
601.004	0.0181417
601.082	0.0183389
601.160	0.0183688
601.238	0.0181884
601.317	0.0181813
601.395	0.0181631
601.473	0.0180022
601.551	0.0183497
601.629	0.0181312
601.707	0.0180630
601.785	0.0181658
601.863	0.0181792
601.942	0.0182516
602.020	0.0183331
602.098	0.0181189
602.176	0.0181960
602.254	0.0180452
602.332	0.0180984
602.410	0.0182288
602.488	0.0183491
602.567	0.0182819
602.645	0.0182594
602.723	0.0181649
602.801	0.0182552
602.879	0.0181971
602.957	0.0182152
603.035	0.0182519
603.113	0.0182884
603.192	0.0182716
603.270	0.0182195
603.348	0.0182430
603.426	0.0183205
603.504	0.0182476
603.582	0.0182290
603.660	0.0181903
603.738	0.0182500
603.817	0.0181867
603.895	0.0183013
603.973	0.0182839
604.051	0.0181236
604.129	0.0183363
604.207	0.0182235
604.285	0.0181130
604.363	0.0181713
604.442	0.0182506
604.520	0.0182384
604.598	0.0181789
604.676	0.0183704
604.754	0.0181144
604.832	0.0181036
604.910	0.0181625
604.988	0.0181947
605.067	0.0182870
605.145	0.0182128
605.223	0.0182542
605.301	0.0181059
605.379	0.0184090
605.457	0.0182873
605.535	0.0183125
605.613	0.0182903
605.692	0.0181892
605.770	0.0182284
605.848	0.0183126
605.926	0.0182341
606.004	0.0182021
606.082	0.0182878
606.160	0.0183246
606.238	0.0182008
606.317	0.0182008
606.395	0.0182546
606.473	0.0183073
606.551	0.0183169
606.629	0.0183224
606.707	0.0183253
606.785	0.0182811
606.863	0.0182710
606.942	0.0182481
607.020	0.0183528
607.098	0.0182703
607.176	0.0182526
607.254	0.0182384
607.332	0.0183189
607.410	0.0182808
607.488	0.0184186
607.567	0.0182262
607.645	0.0183389
607.723	0.0183134
607.801	0.0182890
607.879	0.0182510
607.957	0.0181197
608.035	0.0181313
608.113	0.0182643
608.192	0.0183147
608.270	0.0183282
608.348	0.0182729
608.426	0.0183079
608.504	0.0182827
608.582	0.0183808
608.660	0.0182294
608.738	0.0182413
608.817	0.0183139
608.895	0.0182572
608.973	0.0182649
609.051	0.0182383
609.129	0.0183764
609.207	0.0182603
609.285	0.0182855
609.363	0.0182551
609.442	0.0183738
609.520	0.0183022
609.598	0.0183434
609.676	0.0184106
609.754	0.0183031
609.832	0.0182101
609.910	0.0182751
609.988	0.0183988
610.067	0.0181611
610.145	0.0181453
610.223	0.0182977
610.301	0.0183875
610.379	0.0183578
610.457	0.0182819
610.535	0.0182706
610.613	0.0183199
610.692	0.0183580
610.770	0.0182932
610.848	0.0183488
610.926	0.0183911
611.004	0.0183979
611.082	0.0184167
611.160	0.0184523
611.238	0.0183329
611.317	0.0183677
611.395	0.0183743
611.473	0.0184118
611.551	0.0182388
611.629	0.0185304
611.707	0.0183016
611.785	0.0183528
611.863	0.0184022
611.942	0.0184634
612.020	0.0182985
612.098	0.0183359
612.176	0.0184325
612.254	0.0183196
612.332	0.0183035
612.410	0.0182899
612.488	0.0183929
612.567	0.0184286
612.645	0.0183533
612.723	0.0183499
612.801	0.0184669
612.879	0.0182397
612.957	0.0182516
613.035	0.0184056
613.113	0.0183718
613.192	0.0182277
613.270	0.0182557
613.348	0.0183906
613.426	0.0182767
613.504	0.0183204
613.582	0.0182011
613.660	0.0185183
613.738	0.0182561
613.817	0.0182394
613.895	0.0183086
613.973	0.0184580
614.051	0.0182760
614.129	0.0182276
614.207	0.0180633
614.285	0.0183292
614.363	0.0182784
614.442	0.0183389
614.520	0.0183374
614.598	0.0185030
614.676	0.0183572
614.754	0.0182622
614.832	0.0182789
614.910	0.0181770
614.988	0.0181721
615.067	0.0182396
615.145	0.0183137
615.223	0.0181673
615.301	0.0182748
615.379	0.0181774
615.457	0.0182518
615.535	0.0182804
615.613	0.0183160
615.692	0.0182327
615.770	0.0182329
615.848	0.0182664
615.926	0.0183131
616.004	0.0183675
616.082	0.0184233
616.160	0.0182684
616.238	0.0183690
616.317	0.0182195
616.395	0.0182331
616.473	0.0182291
616.551	0.0182513
616.629	0.0182746
616.707	0.0183236
616.785	0.0184528
616.863	0.0182538
616.942	0.0182232
617.020	0.0183590
617.098	0.0182984
617.176	0.0183038
617.254	0.0182847
617.332	0.0181945
617.410	0.0182619
617.488	0.0182481
617.567	0.0182433
617.645	0.0182069
617.723	0.0183224
617.801	0.0182293
617.879	0.0181490
617.957	0.0182259
618.035	0.0182024
618.113	0.0182390
618.192	0.0182177
618.270	0.0182358
618.348	0.0181477
618.426	0.0183207
618.504	0.0182061
618.582	0.0183183
618.660	0.0183921
618.738	0.0182093
618.817	0.0183774
618.895	0.0182780
618.973	0.0181622
619.051	0.0182381
619.129	0.0182300
619.207	0.0182881
619.285	0.0180269
619.363	0.0181641
619.442	0.0182954
619.520	0.0182202
619.598	0.0182253
619.676	0.0181405
619.754	0.0181044
619.832	0.0181103
619.910	0.0181497
619.988	0.0180790
620.067	0.0182378
620.145	0.0182005
620.223	0.0180933
620.301	0.0182427
620.379	0.0181620
620.457	0.0181357
620.535	0.0183752
620.613	0.0182568
620.692	0.0182507
620.770	0.0181136
620.848	0.0180524
620.926	0.0181123
621.004	0.0182705
621.082	0.0180842
621.160	0.0181171
621.238	0.0180721
621.317	0.0181181
621.395	0.0178798
621.473	0.0181010
621.551	0.0182342
621.629	0.0181178
621.707	0.0181480
621.785	0.0180920
621.863	0.0181792
621.942	0.0182915
622.020	0.0181813
622.098	0.0181055
622.176	0.0181828
622.254	0.0182587
622.332	0.0181608
622.410	0.0181834
622.488	0.0182645
622.567	0.0183536
622.645	0.0183527
622.723	0.0182094
622.801	0.0182315
622.879	0.0181448
622.957	0.0181413
623.035	0.0182793
623.113	0.0182638
623.192	0.0181487
623.270	0.0182214
623.348	0.0181796
623.426	0.0182513
623.504	0.0181515
623.582	0.0182753
623.660	0.0181752
623.738	0.0181930
623.817	0.0182542
623.895	0.0182497
623.973	0.0181944
624.051	0.0181703
624.129	0.0182113
624.207	0.0182633
624.285	0.0182841
624.363	0.0183305
624.442	0.0182169
624.520	0.0182646
624.598	0.0182111
624.676	0.0182127
624.754	0.0182924
624.832	0.0183047
624.910	0.0182742
624.988	0.0183941
625.067	0.0181612
625.145	0.0182079
625.223	0.0181504
625.301	0.0182643
625.379	0.0182739
625.457	0.0182317
625.535	0.0182777
625.613	0.0183050
625.692	0.0182861
625.770	0.0183213
625.848	0.0183114
625.926	0.0183877
626.004	0.0182988
626.082	0.0182146
626.160	0.0181718
626.238	0.0183658
626.317	0.0182333
626.395	0.0181268
626.473	0.0182185
626.551	0.0182291
626.629	0.0182348
626.707	0.0181762
626.785	0.0181114
626.863	0.0182183
626.942	0.0182818
627.020	0.0182284
627.098	0.0182020
627.176	0.0181794
627.254	0.0183650
627.332	0.0182620
627.410	0.0182468
627.488	0.0183772
627.567	0.0182856
627.645	0.0182935
627.723	0.0183209
627.801	0.0183686
627.879	0.0183735
627.957	0.0182887
628.035	0.0182710
628.113	0.0182165
628.192	0.0182948
628.270	0.0182369
628.348	0.0182736
628.426	0.0181993
628.504	0.0182566
628.582	0.0183196
628.660	0.0182420
628.738	0.0182816
628.817	0.0183588
628.895	0.0183884
628.973	0.0182980
629.051	0.0184171
629.129	0.0184000
629.207	0.0184531
629.285	0.0184291
629.363	0.0184414
629.442	0.0183809
629.520	0.0183292
629.598	0.0184647
629.676	0.0184145
629.754	0.0183012
629.832	0.0182218
629.910	0.0181929
629.988	0.0181876
630.067	0.0182904
630.145	0.0183083
630.223	0.0182645
630.301	0.0182007
630.379	0.0182823
630.457	0.0182840
630.535	0.0180640
630.613	0.0182494
630.692	0.0183086
630.770	0.0181895
630.848	0.0183292
630.926	0.0183079
631.004	0.0182182
631.082	0.0184049
631.160	0.0185078
631.238	0.0184687
631.317	0.0184050
631.395	0.0183147
631.473	0.0184312
631.551	0.0184831
631.629	0.0184037
631.707	0.0183338
631.785	0.0184240
631.863	0.0183636
631.942	0.0182524
632.020	0.0183280
632.098	0.0181898
632.176	0.0182285
632.254	0.0182831
632.332	0.0182029
632.410	0.0182162
632.488	0.0184335
632.567	0.0181502
632.645	0.0181612
632.723	0.0183961
632.801	0.0182583
632.879	0.0183755
632.957	0.0182151
633.035	0.0183315
633.113	0.0183674
633.192	0.0183792
633.270	0.0183677
633.348	0.0184043
633.426	0.0183729
633.504	0.0184678
633.582	0.0184134
633.660	0.0182550
633.738	0.0182053
633.817	0.0183479
633.895	0.0182953
633.973	0.0182639
634.051	0.0183367
634.129	0.0182739
634.207	0.0183521
634.285	0.0182929
634.363	0.0181979
634.442	0.0181647
634.520	0.0182501
634.598	0.0183318
634.676	0.0181452
634.754	0.0182226
634.832	0.0182684
634.910	0.0182505
634.988	0.0182523
635.067	0.0183810
635.145	0.0183888
635.223	0.0183004
635.301	0.0183577
635.379	0.0183376
635.457	0.0183091
635.535	0.0183461
635.613	0.0183018
635.692	0.0182465
635.770	0.0183782
635.848	0.0182719
635.926	0.0181931
636.004	0.0181878
636.082	0.0180947
636.160	0.0183420
636.238	0.0182762
636.317	0.0183356
636.395	0.0183096
636.473	0.0182352
636.551	0.0182336
636.629	0.0182673
636.707	0.0185552
636.785	0.0183430
636.863	0.0184169
636.942	0.0183310
637.020	0.0182934
637.098	0.0183712
637.176	0.0182693
637.254	0.0183978
637.332	0.0183694
637.410	0.0182777
637.488	0.0182468
637.567	0.0182799
637.645	0.0182548
637.723	0.0181655
637.801	0.0182066
637.879	0.0183202
637.957	0.0180758
638.035	0.0181114
638.113	0.0182254
638.192	0.0182092
638.270	0.0181897
638.348	0.0183148
638.426	0.0183401
638.504	0.0183248
638.582	0.0183598
638.660	0.0183672
638.738	0.0181988
638.817	0.0182979
638.895	0.0183109
638.973	0.0183052
639.051	0.0183507
639.129	0.0182903
639.207	0.0182654
639.285	0.0182474
639.363	0.0183342
639.442	0.0181417
639.520	0.0182508
639.598	0.0184133
639.676	0.0183008
639.754	0.0181622
639.832	0.0182133
639.910	0.0182397
639.988	0.0183272
640.067	0.0184232
640.145	0.0182936
640.223	0.0182381
640.301	0.0183934
640.379	0.0182436
640.457	0.0181681
640.535	0.0184731
640.613	0.0181366
640.692	0.0182724
640.770	0.0182460
640.848	0.0180722
640.926	0.0181916
641.004	0.0182615
641.082	0.0181487
641.160	0.0182775
641.238	0.0182308
641.317	0.0182134
641.395	0.0182453
641.473	0.0182825
641.551	0.0182413
641.629	0.0180563
641.707	0.0181320
641.785	0.0182623
641.863	0.0182359
641.942	0.0182124
642.020	0.0181735
642.098	0.0182662
642.176	0.0183066
642.254	0.0181258
642.332	0.0182507
642.410	0.0181777
642.488	0.0182259
642.567	0.0181912
642.645	0.0181951
642.723	0.0180875
642.801	0.0180928
642.879	0.0180708
642.957	0.0180272
643.035	0.0181904
643.113	0.0180334
643.192	0.0181460
643.270	0.0181293
643.348	0.0181291
643.426	0.0181475
643.504	0.0180247
643.582	0.0182018
643.660	0.0181145
643.738	0.0181625
643.817	0.0181545
643.895	0.0181325
643.973	0.0181720
644.051	0.0182594
644.129	0.0182600
644.207	0.0183237
644.285	0.0182877
644.363	0.0183535
644.442	0.0182151
644.520	0.0183170
644.598	0.0182243
644.676	0.0182052
644.754	0.0182601
644.832	0.0182072
644.910	0.0182172
644.988	0.0182236
645.067	0.0182436
645.145	0.0181153
645.223	0.0182028
645.301	0.0180685
645.379	0.0180479
645.457	0.0180533
645.535	0.0181875
645.613	0.0181271
645.692	0.0180142
645.770	0.0181429
645.848	0.0181958
645.926	0.0182407
646.004	0.0182414
646.082	0.0182672
646.160	0.0183925
646.238	0.0184032
646.317	0.0182698
646.395	0.0184343
646.473	0.0184001
646.551	0.0184698
646.629	0.0184623
646.707	0.0182605
646.785	0.0183247
646.863	0.0184119
646.942	0.0184509
647.020	0.0183103
647.098	0.0183409
647.176	0.0180210
647.254	0.0182729
647.332	0.0183231
647.410	0.0182461
647.488	0.0182618
647.567	0.0181995
647.645	0.0183099
647.723	0.0184288
647.801	0.0181993
647.879	0.0182812
647.957	0.0182732
648.035	0.0183147
648.113	0.0183336
648.192	0.0183452
648.270	0.0183749
648.348	0.0183153
648.426	0.0183649
648.504	0.0183058
648.582	0.0184377
648.660	0.0183272
648.738	0.0183583
648.817	0.0183456
648.895	0.0183397
648.973	0.0182605
649.051	0.0181628
649.129	0.0183641
649.207	0.0182552
649.285	0.0182947
649.363	0.0181973
649.442	0.0181953
649.520	0.0182811
649.598	0.0181921
649.676	0.0182409
649.754	0.0182345
649.832	0.0182179
649.910	0.0182405
649.988	0.0182715
650.067	0.0183109
650.145	0.0183569
650.223	0.0182568
650.301	0.0183524
650.379	0.0184467
650.457	0.0183231
650.535	0.0184634
650.613	0.0183613
650.692	0.0183534
650.770	0.0182396
650.848	0.0183676
650.926	0.0182383
651.004	0.0184403
651.082	0.0183965
651.160	0.0182801
651.238	0.0182045
651.317	0.0182233
651.395	0.0183131
651.473	0.0182622
651.551	0.0182327
651.629	0.0182417
651.707	0.0180758
651.785	0.0183010
651.863	0.0182507
651.942	0.0182835
652.020	0.0181666
652.098	0.0182166
652.176	0.0181905
652.254	0.0182015
652.332	0.0182236
652.410	0.0182558
652.488	0.0181519
652.567	0.0181446
652.645	0.0182332
652.723	0.0181646
652.801	0.0183078
652.879	0.0182240
652.957	0.0183064
653.035	0.0184332
653.113	0.0183521
653.192	0.0184236
653.270	0.0184930
653.348	0.0184131
653.426	0.0185075
653.504	0.0184801
653.582	0.0185055
653.660	0.0184594
653.738	0.0185744
653.817	0.0185645
653.895	0.0186053
653.973	0.0183948
654.051	0.0184411
654.129	0.0183843
654.207	0.0182149
654.285	0.0183487
654.363	0.0182852
654.442	0.0182598
654.520	0.0182164
654.598	0.0181075
654.676	0.0183298
654.754	0.0181478
654.832	0.0181541
654.910	0.0181799
654.988	0.0180256
655.067	0.0180708
655.145	0.0182189
655.223	0.0182677
655.301	0.0180006
655.379	0.0180749
655.457	0.0181065
655.535	0.0181974
655.613	0.0182106
655.692	0.0182639
655.770	0.0181789
655.848	0.0182867
655.926	0.0183283
656.004	0.0181934
656.082	0.0182852
656.160	0.0183363
656.238	0.0183057
656.317	0.0182711
656.395	0.0183434
656.473	0.0182218
656.551	0.0181265
656.629	0.0181767
656.707	0.0182332
656.785	0.0182161
656.863	0.0180782
656.942	0.0181852
657.020	0.0180766
657.098	0.0180434
657.176	0.0182157
657.254	0.0182747
657.332	0.0180289
657.410	0.0181863
657.488	0.0182241
657.567	0.0182501
657.645	0.0182801
657.723	0.0181730
657.801	0.0181886
657.879	0.0183427
657.957	0.0183518
658.035	0.0184995
658.113	0.0182376
658.192	0.0182705
658.270	0.0183269
658.348	0.0181801
658.426	0.0183225
658.504	0.0182996
658.582	0.0182609
658.660	0.0182593
658.738	0.0181559
658.817	0.0182236
658.895	0.0182053
658.973	0.0180090
659.051	0.0181103
659.129	0.0181039
659.207	0.0180231
659.285	0.0180612
659.363	0.0181721
659.442	0.0179855
659.520	0.0180194
659.598	0.0182105
659.676	0.0180966
659.754	0.0179589
659.832	0.0181670
659.910	0.0183310
659.988	0.0183202
660.067	0.0182261
660.145	0.0182877
660.223	0.0182442
660.301	0.0183819
660.379	0.0183546
660.457	0.0182975
660.535	0.0183353
660.613	0.0183916
660.692	0.0183723
660.770	0.0184384
660.848	0.0184492
660.926	0.0182301
661.004	0.0183485
661.082	0.0182368
661.160	0.0183635
661.238	0.0183205
661.317	0.0183756
661.395	0.0184236
661.473	0.0183892
661.551	0.0181492
661.629	0.0182224
661.707	0.0183235
661.785	0.0184779
661.863	0.0182609
661.942	0.0182332
662.020	0.0182998
662.098	0.0183192
662.176	0.0181769
662.254	0.0182814
662.332	0.0183855
662.410	0.0182770
662.488	0.0181533
662.567	0.0182433
662.645	0.0182252
662.723	0.0181747
662.801	0.0180953
662.879	0.0181969
662.957	0.0181812
663.035	0.0182439
663.113	0.0181298
663.192	0.0182178
663.270	0.0180663
663.348	0.0182362
663.426	0.0181055
663.504	0.0180128
663.582	0.0181489
663.660	0.0181218
663.738	0.0181294
663.817	0.0182343
663.895	0.0180431
663.973	0.0182252
664.051	0.0183582
664.129	0.0181792
664.207	0.0181617
664.285	0.0182349
664.363	0.0183315
664.442	0.0182998
664.520	0.0183070
664.598	0.0183264
664.676	0.0182259
664.754	0.0183247
664.832	0.0182209
664.910	0.0182887
664.988	0.0182403
665.067	0.0182566
665.145	0.0182692
665.223	0.0182342
665.301	0.0181729
665.379	0.0183004
665.457	0.0182737
665.535	0.0181976
665.613	0.0180661
665.692	0.0179620
665.770	0.0182112
665.848	0.0182343
665.926	0.0181171
666.004	0.0180985
666.082	0.0181853
666.160	0.0182784
666.238	0.0183537
666.317	0.0182280
666.395	0.0182391
666.473	0.0183487
666.551	0.0182410
666.629	0.0183804
666.707	0.0183524
666.785	0.0183875
666.863	0.0184708
666.942	0.0183295
667.020	0.0182945
667.098	0.0182415
667.176	0.0183504
667.254	0.0183154
667.332	0.0182853
667.410	0.0182529
667.488	0.0181452
667.567	0.0183342
667.645	0.0183276
667.723	0.0182114
667.801	0.0183557
667.879	0.0183658
667.957	0.0182102
668.035	0.0182235
668.113	0.0182428
668.192	0.0182113
668.270	0.0184063
668.348	0.0183957
668.426	0.0181987
668.504	0.0180743
668.582	0.0182384
668.660	0.0182135
668.738	0.0182152
668.817	0.0181408
668.895	0.0181792
668.973	0.0180862
669.051	0.0180851
669.129	0.0182229
669.207	0.0181056
669.285	0.0180622
669.363	0.0181949
669.442	0.0183195
669.520	0.0181731
669.598	0.0181215
669.676	0.0180866
669.754	0.0180336
669.832	0.0181646
669.910	0.0182128
669.988	0.0183021
670.067	0.0182639
670.145	0.0183215
670.223	0.0182467
670.301	0.0182941
670.379	0.0182883
670.457	0.0182048
670.535	0.0181823
670.613	0.0181860
670.692	0.0183064
670.770	0.0183148
670.848	0.0182817
670.926	0.0183180
671.004	0.0183133
671.082	0.0183433
671.160	0.0182888
671.238	0.0183347
671.317	0.0183997
671.395	0.0183984
671.473	0.0183892
671.551	0.0183123
671.629	0.0182696
671.707	0.0182010
671.785	0.0183399
671.863	0.0182952
671.942	0.0180990
672.020	0.0181339
672.098	0.0181525
672.176	0.0181163
672.254	0.0180427
672.332	0.0181998
672.410	0.0181289
672.488	0.0182106
672.567	0.0182523
672.645	0.0182954
672.723	0.0182117
672.801	0.0182517
672.879	0.0182789
672.957	0.0182819
673.035	0.0182929
673.113	0.0183651
673.192	0.0183015
673.270	0.0183159
673.348	0.0182175
673.426	0.0182418
673.504	0.0182040
673.582	0.0183242
673.660	0.0181706
673.738	0.0181712
673.817	0.0181116
673.895	0.0182899
673.973	0.0182957
674.051	0.0181242
674.129	0.0183500
674.207	0.0182169
674.285	0.0183985
674.363	0.0185059
674.442	0.0184760
674.520	0.0183939
674.598	0.0184227
674.676	0.0185862
674.754	0.0185119
674.832	0.0186665
674.910	0.0184645
674.988	0.0184563
675.067	0.0183821
675.145	0.0183960
675.223	0.0182465
675.301	0.0182281
675.379	0.0180922
675.457	0.0179813
675.535	0.0179809
675.613	0.0178206
675.692	0.0178297
675.770	0.0178031
675.848	0.0178236
675.926	0.0177419
676.004	0.0177292
676.082	0.0176768
676.160	0.0177868
676.238	0.0177835
676.317	0.0180214
676.395	0.0181243
676.473	0.0181393
676.551	0.0181411
676.629	0.0182783
676.707	0.0182122
676.785	0.0184013
676.863	0.0184479
676.942	0.0184118
677.020	0.0184480
677.098	0.0184152
677.176	0.0184129
677.254	0.0183934
677.332	0.0183486
677.410	0.0183310
677.488	0.0182090
677.567	0.0182191
677.645	0.0180494
677.723	0.0179836
677.801	0.0179437
677.879	0.0179334
677.957	0.0179963
678.035	0.0179704
678.113	0.0182325
678.192	0.0181258
678.270	0.0181745
678.348	0.0182996
678.426	0.0184483
678.504	0.0185634
678.582	0.0186289
678.660	0.0187508
678.738	0.0187672
678.817	0.0188152
678.895	0.0189816
678.973	0.0189188
679.051	0.0189407
679.129	0.0186311
679.207	0.0185629
679.285	0.0186360
679.363	0.0183717
679.442	0.0181664
679.520	0.0180875
679.598	0.0177857
679.676	0.0178038
679.754	0.0174944
679.832	0.0173162
679.910	0.0172691
679.988	0.0171730
680.067	0.0169708
680.145	0.0170367
680.223	0.0170632
680.301	0.0170672
680.379	0.0171374
680.457	0.0172220
680.535	0.0173507
680.613	0.0173731
680.692	0.0175710
680.770	0.0175739
680.848	0.0178950
680.926	0.0181040
681.004	0.0180738
681.082	0.0181809
681.160	0.0185532
681.238	0.0186552
681.317	0.0187736
681.395	0.0188401
681.473	0.0191098
681.551	0.0193341
681.629	0.0193800
681.707	0.0194247
681.785	0.0197261
681.863	0.0196679
681.942	0.0199342
682.020	0.0199195
682.098	0.0196922
682.176	0.0196964
682.254	0.0195023
682.332	0.0194849
682.410	0.0193788
682.488	0.0190789
682.567	0.0188260
682.645	0.0186221
682.723	0.0183605
682.801	0.0180868
682.879	0.0178895
682.957	0.0177424
683.035	0.0174411
683.113	0.0172440
683.192	0.0170255
683.270	0.0167989
683.348	0.0167448
683.426	0.0164674
683.504	0.0165264
683.582	0.0163554
683.660	0.0161555
683.738	0.0163834
683.817	0.0165072
683.895	0.0164445
683.973	0.0165881
684.051	0.0166266
684.129	0.0167826
684.207	0.0170255
684.285	0.0173463
684.363	0.0175329
684.442	0.0177803
684.520	0.0182193
684.598	0.0182903
684.676	0.0184454
684.754	0.0188579
684.832	0.0190683
684.910	0.0192966
684.988	0.0195335
685.067	0.0196986
685.145	0.0198222
685.223	0.0199738
685.301	0.0202462
685.379	0.0202663
685.457	0.0203122
685.535	0.0203043
685.613	0.0204582
685.692	0.0203764
685.770	0.0201979
685.848	0.0201585
685.926	0.0201142
686.004	0.0197760
686.082	0.0196649
686.160	0.0194395
686.238	0.0190979
686.317	0.0187891
686.395	0.0184689
686.473	0.0180781
686.551	0.0178164
686.629	0.0175597
686.707	0.0173298
686.785	0.0170962
686.863	0.0168907
686.942	0.0166176
687.020	0.0164452
687.098	0.0162053
687.176	0.0161726
687.254	0.0159973
687.332	0.0160908
687.410	0.0160468
687.488	0.0161021
687.567	0.0162449
687.645	0.0162682
687.723	0.0163154
687.801	0.0166901
687.879	0.0167252
687.957	0.0169910
688.035	0.0172868
688.113	0.0175504
688.192	0.0177908
688.270	0.0180357
688.348	0.0184376
688.426	0.0186292
688.504	0.0187366
688.582	0.0191374
688.660	0.0192558
688.738	0.0195290
688.817	0.0197518
688.895	0.0198910
688.973	0.0200331
689.051	0.0201767
689.129	0.0200468
689.207	0.0201958
689.285	0.0201858
689.363	0.0202175
689.442	0.0201026
689.520	0.0200404
689.598	0.0199476
689.676	0.0197877
689.754	0.0197903
689.832	0.0195483
689.910	0.0196056
689.988	0.0195146
690.067	0.0193719
690.145	0.0191941
690.223	0.0190172
690.301	0.0188428
690.379	0.0185269
690.457	0.0183871
690.535	0.0181830
690.613	0.0177544
690.692	0.0175781
690.770	0.0171866
690.848	0.0170288
690.926	0.0167087
691.004	0.0165008
691.082	0.0162818
691.160	0.0160663
691.238	0.0160432
691.317	0.0159621
691.395	0.0160438
691.473	0.0161810
691.551	0.0161186
691.629	0.0163984
691.707	0.0165585
691.785	0.0168573
691.863	0.0170914
691.942	0.0174232
692.020	0.0175714
692.098	0.0178905
692.176	0.0181661
692.254	0.0184447
692.332	0.0186661
692.410	0.0189582
692.488	0.0190822
692.567	0.0191168
692.645	0.0193304
692.723	0.0196642
692.801	0.0195543
692.879	0.0197229
692.957	0.0197552
693.035	0.0198848
693.113	0.0198882
693.192	0.0198580
693.270	0.0196523
693.348	0.0196931
693.426	0.0197098
693.504	0.0195290
693.582	0.0194659
693.660	0.0193806
693.738	0.0192757
693.817	0.0190945
693.895	0.0189943
693.973	0.0188816
694.051	0.0189058
694.129	0.0188384
694.207	0.0186221
694.285	0.0185942
694.363	0.0184345
694.442	0.0182151
694.520	0.0182472
694.598	0.0182378
694.676	0.0182333
694.754	0.0181188
694.832	0.0180523
694.910	0.0182003
694.988	0.0181335
695.067	0.0181364
695.145	0.0181443
695.223	0.0180692
695.301	0.0180880
695.379	0.0180551
695.457	0.0180474
695.535	0.0178938
695.613	0.0178726
695.692	0.0178066
695.770	0.0175913
695.848	0.0175616
695.926	0.0175484
696.004	0.0173185
696.082	0.0169773
696.160	0.0169883
696.238	0.0170749
696.317	0.0168078
696.395	0.0168710
696.473	0.0167249
696.551	0.0167174
696.629	0.0167329
696.707	0.0166840
696.785	0.0167639
696.863	0.0167773
696.942	0.0168179
697.020	0.0171224
697.098	0.0171876
697.176	0.0174786
697.254	0.0176242
697.332	0.0178150
697.410	0.0180796
697.488	0.0182865
697.567	0.0187583
697.645	0.0188641
697.723	0.0190939
697.801	0.0192242
697.879	0.0193571
697.957	0.0196424
698.035	0.0196806
698.113	0.0197716
698.192	0.0199562
698.270	0.0199657
698.348	0.0200385
698.426	0.0201015
698.504	0.0201289
698.582	0.0201536
698.660	0.0199602
698.738	0.0198576
698.817	0.0197522
698.895	0.0195316
698.973	0.0194787
699.051	0.0191075
699.129	0.0188847
699.207	0.0188554
699.285	0.0183694
699.363	0.0181709
699.442	0.0180807
699.520	0.0178001
699.598	0.0177026
699.676	0.0174475
699.754	0.0172880
699.832	0.0171365
699.910	0.0171785
699.988	0.0171497
700.067	0.0170535
700.145	0.0170808
700.223	0.0170853
700.301	0.0171756
700.379	0.0171103
700.457	0.0171528
700.535	0.0172407
700.613	0.0172312
700.692	0.0172352
700.770	0.0171571
700.848	0.0170042
700.926	0.0169947
701.004	0.0172017
701.082	0.0169548
701.160	0.0169242
701.238	0.0169328
701.317	0.0169098
701.395	0.0169761
701.473	0.0169976
701.551	0.0171798
701.629	0.0172583
701.707	0.0175011
701.785	0.0175876
701.863	0.0177479
701.942	0.0179621
702.020	0.0180385
702.098	0.0180808
702.176	0.0182230
702.254	0.0184083
702.332	0.0186333
702.410	0.0188363
702.488	0.0188202
702.567	0.0189455
702.645	0.0192174
702.723	0.0193149
702.801	0.0195638
702.879	0.0198595
702.957	0.0199792
703.035	0.0201048
703.113	0.0201728
703.192	0.0203729
703.270	0.0203500
703.348	0.0204319
703.426	0.0204078
703.504	0.0203638
703.582	0.0202578
703.660	0.0202735
703.738	0.0198357
703.817	0.0197437
703.895	0.0193648
703.973	0.0190108
704.051	0.0187674
704.129	0.0184027
704.207	0.0182970
704.285	0.0180874
704.363	0.0175705
704.442	0.0173395
704.520	0.0170480
704.598	0.0168362
704.676	0.0167323
704.754	0.0165338
704.832	0.0163985
704.910	0.0162877
704.988	0.0162727
705.067	0.0161655
705.145	0.0163200
705.223	0.0164449
705.301	0.0165265
705.379	0.0164392
705.457	0.0167242
705.535	0.0168906
705.613	0.0171029
705.692	0.0175449
705.770	0.0177741
705.848	0.0179742
705.926	0.0182944
706.004	0.0185857
706.082	0.0187811
706.160	0.0190181
706.238	0.0191412
706.317	0.0190594
706.395	0.0193253
706.473	0.0193375
706.551	0.0192552
706.629	0.0191550
706.707	0.0189560
706.785	0.0188408
706.863	0.0187898
706.942	0.0184997
707.020	0.0182778
707.098	0.0181654
707.176	0.0179801
707.254	0.0177465
707.332	0.0176118
707.410	0.0174263
707.488	0.0173414
707.567	0.0172277
707.645	0.0173594
707.723	0.0173940
707.801	0.0173119
707.879	0.0173637
707.957	0.0174468
708.035	0.0174503
708.113	0.0174904
708.192	0.0177322
708.270	0.0179356
708.348	0.0180553
708.426	0.0182844
708.504	0.0185431
708.582	0.0187602
708.660	0.0190981
708.738	0.0191975
708.817	0.0193918
708.895	0.0195869
708.973	0.0199148
709.051	0.0199044
709.129	0.0199484
709.207	0.0199817
709.285	0.0200473
709.363	0.0200182
709.442	0.0200146
709.520	0.0199557
709.598	0.0199507
709.676	0.0198658
709.754	0.0196784
709.832	0.0197356
709.910	0.0194896
709.988	0.0192637
710.067	0.0190308
710.145	0.0188374
710.223	0.0187155
710.301	0.0184057
710.379	0.0182888
710.457	0.0178517
710.535	0.0178047
710.613	0.0176149
710.692	0.0172523
710.770	0.0172427
710.848	0.0171620
710.926	0.0169849
711.004	0.0166160
711.082	0.0167715
711.160	0.0166782
711.238	0.0166198
711.317	0.0166783
711.395	0.0166308
711.473	0.0167435
711.551	0.0168330
711.629	0.0168807
711.707	0.0170569
711.785	0.0171202
711.863	0.0173000
711.942	0.0173978
712.020	0.0175198
712.098	0.0176834
712.176	0.0176203
712.254	0.0176279
712.332	0.0179106
712.410	0.0178568
712.488	0.0178819
712.567	0.0179635
712.645	0.0179526
712.723	0.0181452
712.801	0.0181039
712.879	0.0181306
712.957	0.0182951
713.035	0.0183293
713.113	0.0183441
713.192	0.0184188
713.270	0.0185091
713.348	0.0186212
713.426	0.0188033
713.504	0.0189019
713.582	0.0190791
713.660	0.0192027
713.738	0.0191170
713.817	0.0194811
713.895	0.0196442
713.973	0.0197770
714.051	0.0197849
714.129	0.0197484
714.207	0.0198975
714.285	0.0199525
714.363	0.0198640
714.442	0.0198652
714.520	0.0197735
714.598	0.0198183
714.676	0.0196061
714.754	0.0196003
714.832	0.0194470
714.910	0.0192766
714.988	0.0190236
715.067	0.0189370
715.145	0.0188341
715.223	0.0186703
715.301	0.0185374
715.379	0.0184962
715.457	0.0182927
715.535	0.0181167
715.613	0.0179833
715.692	0.0177908
715.770	0.0178574
715.848	0.0176691
715.926	0.0176840
716.004	0.0175536
716.082	0.0174440
716.160	0.0174393
716.238	0.0173623
716.317	0.0172936
716.395	0.0173492
716.473	0.0172064
716.551	0.0171660
716.629	0.0172938
716.707	0.0172049
716.785	0.0174870
716.863	0.0175323
716.942	0.0174151
717.020	0.0174390
717.098	0.0174608
717.176	0.0175236
717.254	0.0175270
717.332	0.0175313
717.410	0.0174371
717.488	0.0173738
717.567	0.0173980
717.645	0.0175418
717.723	0.0173891
717.801	0.0176676
717.879	0.0176944
717.957	0.0176782
718.035	0.0177522
718.113	0.0178783
718.192	0.0180083
718.270	0.0179369
718.348	0.0181086
718.426	0.0180521
718.504	0.0180816
718.582	0.0181996
718.660	0.0180633
718.738	0.0181056
718.817	0.0180807
718.895	0.0181151
718.973	0.0180222
719.051	0.0180927
719.129	0.0181550
719.207	0.0182641
719.285	0.0184138
719.363	0.0185300
719.442	0.0189078
719.520	0.0189013
719.598	0.0190115
719.676	0.0193785
719.754	0.0194213
719.832	0.0194004
719.910	0.0195842
719.988	0.0195741
720.067	0.0197231
720.145	0.0196317
720.223	0.0195962
720.301	0.0194559
720.379	0.0194138
720.457	0.0192928
720.535	0.0191325
720.613	0.0190931
720.692	0.0189236
720.770	0.0188571
720.848	0.0188023
720.926	0.0188154
721.004	0.0186790
721.082	0.0185852
721.160	0.0185425
721.238	0.0184449
721.317	0.0183031
721.395	0.0183450
721.473	0.0184472
721.551	0.0183118
721.629	0.0180986
721.707	0.0180813
721.785	0.0180526
721.863	0.0179700
721.942	0.0179823
722.020	0.0180781
722.098	0.0180242
722.176	0.0178571
722.254	0.0179124
722.332	0.0179073
722.410	0.0176536
722.488	0.0176615
722.567	0.0175704
722.645	0.0175292
722.723	0.0174252
722.801	0.0172995
722.879	0.0172446
722.957	0.0170602
723.035	0.0169553
723.113	0.0169279
723.192	0.0167842
723.270	0.0166621
723.348	0.0164855
723.426	0.0165427
723.504	0.0164063
723.582	0.0163762
723.660	0.0165664
723.738	0.0165499
723.817	0.0167780
723.895	0.0169771
723.973	0.0171136
724.051	0.0172906
724.129	0.0175516
724.207	0.0177334
724.285	0.0177898
724.363	0.0180649
724.442	0.0183149
724.520	0.0184418
724.598	0.0186943
724.676	0.0187749
724.754	0.0188200
724.832	0.0190142
724.910	0.0189586
724.988	0.0190118
725.067	0.0191440
725.145	0.0190536
725.223	0.0192084
725.301	0.0190947
725.379	0.0191645
725.457	0.0193092
725.535	0.0191653
725.613	0.0191634
725.692	0.0191693
725.770	0.0189314
725.848	0.0191167
725.926	0.0191026
726.004	0.0191206
726.082	0.0191404
726.160	0.0192801
726.238	0.0191726
726.317	0.0191189
726.395	0.0190382
726.473	0.0191000
726.551	0.0192365
726.629	0.0191976
726.707	0.0191621
726.785	0.0191181
726.863	0.0191324
726.942	0.0190338
727.020	0.0188906
727.098	0.0188877
727.176	0.0187840
727.254	0.0187412
727.332	0.0186330
727.410	0.0185822
727.488	0.0184837
727.567	0.0182403
727.645	0.0182047
727.723	0.0181861
727.801	0.0179607
727.879	0.0180193
727.957	0.0180797
728.035	0.0179679
728.113	0.0178880
728.192	0.0178272
728.270	0.0177884
728.348	0.0178300
728.426	0.0178161
728.504	0.0177604
728.582	0.0177547
728.660	0.0177451
728.738	0.0177561
728.817	0.0177939
728.895	0.0177158
728.973	0.0175404
729.051	0.0174686
729.129	0.0176512
729.207	0.0174732
729.285	0.0173106
729.363	0.0172649
729.442	0.0171651
729.520	0.0171198
729.598	0.0171586
729.676	0.0171764
729.754	0.0171595
729.832	0.0170139
729.910	0.0171352
729.988	0.0172556
730.067	0.0173145
730.145	0.0173091
730.223	0.0173628
730.301	0.0175381
730.379	0.0176331
730.457	0.0176096
730.535	0.0179131
730.613	0.0180429
730.692	0.0182774
730.770	0.0182752
730.848	0.0185232
730.926	0.0185898
731.004	0.0186459
731.082	0.0187232
731.160	0.0188415
731.238	0.0189760
731.317	0.0190974
731.395	0.0192415
731.473	0.0191741
731.551	0.0191746
731.629	0.0191641
731.707	0.0191237
731.785	0.0189870
731.863	0.0191170
731.942	0.0188223
732.020	0.0189474
732.098	0.0189740
732.176	0.0187357
732.254	0.0186993
732.332	0.0187025
732.410	0.0186462
732.488	0.0187029
732.567	0.0188033
732.645	0.0188698
732.723	0.0187863
732.801	0.0188295
732.879	0.0189817
732.957	0.0190302
733.035	0.0190987
733.113	0.0190736
733.192	0.0190590
733.270	0.0190443
733.348	0.0188573
733.426	0.0190868
733.504	0.0187809
733.582	0.0185165
733.660	0.0185155
733.738	0.0184203
733.817	0.0184365
733.895	0.0182896
733.973	0.0181980
734.051	0.0181706
734.129	0.0180760
734.207	0.0180164
734.285	0.0179461
734.363	0.0179767
734.442	0.0178483
734.520	0.0177984
734.598	0.0179180
734.676	0.0178944
734.754	0.0177959
734.832	0.0178378
734.910	0.0179228
734.988	0.0180303
735.067	0.0179510
735.145	0.0178529
735.223	0.0178918
735.301	0.0178401
735.379	0.0178891
735.457	0.0179357
735.535	0.0179544
735.613	0.0178191
735.692	0.0178175
735.770	0.0177590
735.848	0.0177195
735.926	0.0177499
736.004	0.0176659
736.082	0.0175092
736.160	0.0174873
736.238	0.0175121
736.317	0.0173924
736.395	0.0174178
736.473	0.0174786
736.551	0.0175256
736.629	0.0174815
736.707	0.0175767
736.785	0.0178859
736.863	0.0178767
736.942	0.0179840
737.020	0.0179846
737.098	0.0181915
737.176	0.0183031
737.254	0.0185625
737.332	0.0185361
737.410	0.0185271
737.488	0.0187380
737.567	0.0187727
737.645	0.0187452
737.723	0.0188154
737.801	0.0186938
737.879	0.0187530
737.957	0.0187929
738.035	0.0187743
738.113	0.0187684
738.192	0.0187521
738.270	0.0187921
738.348	0.0186421
738.426	0.0185684
738.504	0.0185787
738.582	0.0187040
738.660	0.0186537
738.738	0.0185755
738.817	0.0183792
738.895	0.0182938
738.973	0.0183138
739.051	0.0183475
739.129	0.0182211
739.207	0.0183734
739.285	0.0183554
739.363	0.0182366
739.442	0.0184326
739.520	0.0185776
739.598	0.0186986
739.676	0.0185318
739.754	0.0186198
739.832	0.0185256
739.910	0.0186187
739.988	0.0185940
740.067	0.0186599
740.145	0.0185619
740.223	0.0186301
740.301	0.0185197
740.379	0.0183904
740.457	0.0184802
740.535	0.0182767
740.613	0.0183139
740.692	0.0182083
740.770	0.0181971
740.848	0.0181102
740.926	0.0182581
741.004	0.0180328
741.082	0.0180698
741.160	0.0179983
741.238	0.0179638
741.317	0.0180273
741.395	0.0179828
741.473	0.0179583
741.551	0.0181277
741.629	0.0181710
741.707	0.0181270
741.785	0.0181171
741.863	0.0180781
741.942	0.0182269
742.020	0.0182626
742.098	0.0180647
742.176	0.0180895
742.254	0.0180307
742.332	0.0180919
742.410	0.0180467
742.488	0.0180121
742.567	0.0179389
742.645	0.0178660
742.723	0.0178924
742.801	0.0178751
742.879	0.0179244
742.957	0.0179078
743.035	0.0176913
743.113	0.0179462
743.192	0.0178709
743.270	0.0179224
743.348	0.0180299
743.426	0.0178915
743.504	0.0178912
743.582	0.0180875
743.660	0.0181643
743.738	0.0180987
743.817	0.0181916
743.895	0.0182672
743.973	0.0183191
744.051	0.0183618
744.129	0.0185620
744.207	0.0185033
744.285	0.0184404
744.363	0.0184389
744.442	0.0185776
744.520	0.0185004
744.598	0.0186236
744.676	0.0186700
744.754	0.0185423
744.832	0.0185366
744.910	0.0183938
744.988	0.0184210
745.067	0.0184236
745.145	0.0182293
745.223	0.0183291
745.301	0.0182922
745.379	0.0182453
745.457	0.0181023
745.535	0.0181037
745.613	0.0180936
745.692	0.0181320
745.770	0.0181770
745.848	0.0180030
745.926	0.0178642
746.004	0.0180341
746.082	0.0179714
746.160	0.0178944
746.238	0.0180005
746.317	0.0180546
746.395	0.0180701
746.473	0.0180108
746.551	0.0179983
746.629	0.0180879
746.707	0.0181277
746.785	0.0180897
746.863	0.0180957
746.942	0.0181513
747.020	0.0181419
747.098	0.0181042
747.176	0.0181239
747.254	0.0181461
747.332	0.0181042
747.410	0.0180093
747.488	0.0180786
747.567	0.0179602
747.645	0.0180871
747.723	0.0180179
747.801	0.0180170
747.879	0.0182951
747.957	0.0182093
748.035	0.0179979
748.113	0.0182236
748.192	0.0181938
748.270	0.0182571
748.348	0.0181741
748.426	0.0182928
748.504	0.0182726
748.582	0.0183009
748.660	0.0183046
748.738	0.0181705
748.817	0.0181850
748.895	0.0182617
748.973	0.0181617
749.051	0.0183146
749.129	0.0183773
749.207	0.0182567
749.285	0.0183239
749.363	0.0184750
749.442	0.0185150
749.520	0.0185671
749.598	0.0182587
749.676	0.0184126
749.754	0.0185529
749.832	0.0185017
749.910	0.0185393
749.988	0.0183334
750.067	0.0183642
750.145	0.0183494
750.223	0.0183121
750.301	0.0184171
750.379	0.0182267
750.457	0.0182709
750.535	0.0181920
750.613	0.0181586
750.692	0.0180954
750.770	0.0180038
750.848	0.0179952
750.926	0.0179303
751.004	0.0178995
751.082	0.0179106
751.160	0.0179436
751.238	0.0178605
751.317	0.0179276
751.395	0.0179292
751.473	0.0179530
751.551	0.0179557
751.629	0.0180164
751.707	0.0181719
751.785	0.0180252
751.863	0.0181384
751.942	0.0181316
752.020	0.0181004
752.098	0.0182605
752.176	0.0181944
752.254	0.0182441
752.332	0.0182062
752.410	0.0181026
752.488	0.0181628
752.567	0.0181263
752.645	0.0180706
752.723	0.0181569
752.801	0.0181676
752.879	0.0181795
752.957	0.0181466
753.035	0.0182519
753.113	0.0181601
753.192	0.0184901
753.270	0.0183064
753.348	0.0181724
753.426	0.0183408
753.504	0.0184082
753.582	0.0183640
753.660	0.0184655
753.738	0.0182972
753.817	0.0184092
753.895	0.0185738
753.973	0.0183544
754.051	0.0182780
754.129	0.0184131
754.207	0.0183437
754.285	0.0181863
754.363	0.0181035
754.442	0.0182738
754.520	0.0182461
754.598	0.0183296
754.676	0.0181040
754.754	0.0181013
754.832	0.0182465
754.910	0.0181968
754.988	0.0182461
755.067	0.0182755
755.145	0.0182597
755.223	0.0183046
755.301	0.0183306
755.379	0.0184370
755.457	0.0183428
755.535	0.0183801
755.613	0.0185571
755.692	0.0184373
755.770	0.0184322
755.848	0.0183443
755.926	0.0184753
756.004	0.0185919
756.082	0.0183605
756.160	0.0185299
756.238	0.0184289
756.317	0.0186752
756.395	0.0184872
756.473	0.0185828
756.551	0.0186054
756.629	0.0186952
756.707	0.0186457
756.785	0.0184831
756.863	0.0184534
756.942	0.0185800
757.020	0.0184599
757.098	0.0184326
757.176	0.0183493
757.254	0.0182220
757.332	0.0181732
757.410	0.0180781
757.488	0.0180460
757.567	0.0179814
757.645	0.0178973
757.723	0.0179370
757.801	0.0178951
757.879	0.0179509
757.957	0.0178017
758.035	0.0178717
758.113	0.0179649
758.192	0.0179381
758.270	0.0179984
758.348	0.0181810
758.426	0.0182317
758.504	0.0181675
758.582	0.0184156
758.660	0.0182891
758.738	0.0183189
758.817	0.0184165
758.895	0.0183765
758.973	0.0182736
759.051	0.0183031
759.129	0.0181472
759.207	0.0180665
759.285	0.0180828
759.363	0.0179510
759.442	0.0180058
759.520	0.0179278
759.598	0.0177871
759.676	0.0178989
759.754	0.0177855
759.832	0.0178375
759.910	0.0178445
759.988	0.0178329
760.067	0.0179503
760.145	0.0178558
760.223	0.0179507
760.301	0.0181924
760.379	0.0182018
760.457	0.0183354
760.535	0.0181722
760.613	0.0183663
760.692	0.0184766
760.770	0.0184346
760.848	0.0185578
760.926	0.0185019
761.004	0.0183899
761.082	0.0185181
761.160	0.0183582
761.238	0.0184135
761.317	0.0184467
761.395	0.0183588
761.473	0.0181911
761.551	0.0182034
761.629	0.0181189
761.707	0.0179995
761.785	0.0181563
761.863	0.0180592
761.942	0.0180160
762.020	0.0179384
762.098	0.0180692
762.176	0.0180560
762.254	0.0181608
762.332	0.0180509
762.410	0.0181197
762.488	0.0183250
762.567	0.0184268
762.645	0.0183556
762.723	0.0184724
762.801	0.0186059
762.879	0.0185943
762.957	0.0187147
763.035	0.0187625
763.113	0.0189721
763.192	0.0189470
763.270	0.0187292
763.348	0.0188623
763.426	0.0188965
763.504	0.0188779
763.582	0.0189139
763.660	0.0188686
763.738	0.0187806
763.817	0.0187538
763.895	0.0186658
763.973	0.0185892
764.051	0.0185477
764.129	0.0184971
764.207	0.0183000
764.285	0.0183761
764.363	0.0183508
764.442	0.0182481
764.520	0.0182036
764.598	0.0182218
764.676	0.0180286
764.754	0.0181696
764.832	0.0181682
764.910	0.0181464
764.988	0.0180171
765.067	0.0179459
765.145	0.0179684
765.223	0.0180545
765.301	0.0178400
765.379	0.0176740
765.457	0.0176368
765.535	0.0177279
765.613	0.0176360
765.692	0.0176565
765.770	0.0175594
765.848	0.0175272
765.926	0.0176547
766.004	0.0177357
766.082	0.0175552
766.160	0.0177956
766.238	0.0177125
766.317	0.0177605
766.395	0.0177845
766.473	0.0179263
766.551	0.0179302
766.629	0.0179665
766.707	0.0180283
766.785	0.0180628
766.863	0.0180761
766.942	0.0180380
767.020	0.0180734
767.098	0.0181886
767.176	0.0180334
767.254	0.0179631
767.332	0.0181638
767.410	0.0179794
767.488	0.0180556
767.567	0.0180025
767.645	0.0179292
767.723	0.0180203
767.801	0.0180220
767.879	0.0181099
767.957	0.0180377
768.035	0.0180364
768.113	0.0179986
768.192	0.0180509
768.270	0.0182401
768.348	0.0183970
768.426	0.0184998
768.504	0.0186249
768.582	0.0186944
768.660	0.0187836
768.738	0.0188966
768.817	0.0188387
768.895	0.0188222
768.973	0.0189110
769.051	0.0188560
769.129	0.0187809
769.207	0.0189061
769.285	0.0188352
769.363	0.0187483
769.442	0.0185857
769.520	0.0184574
769.598	0.0183917
769.676	0.0182240
769.754	0.0181977
769.832	0.0181650
769.910	0.0180299
769.988	0.0181499
770.067	0.0180607
770.145	0.0180006
770.223	0.0178990
770.301	0.0180569
770.379	0.0181052
770.457	0.0181091
770.535	0.0181086
770.613	0.0182018
770.692	0.0182815
770.770	0.0183393
770.848	0.0183572
770.926	0.0185034
771.004	0.0184871
771.082	0.0186009
771.160	0.0185191
771.238	0.0184489
771.317	0.0185941
771.395	0.0185183
771.473	0.0184966
771.551	0.0184744
771.629	0.0185191
771.707	0.0185493
771.785	0.0184790
771.863	0.0185845
771.942	0.0184103
772.020	0.0183757
772.098	0.0184219
772.176	0.0182911
772.254	0.0183676
772.332	0.0182575
772.410	0.0182748
772.488	0.0181953
772.567	0.0179750
772.645	0.0178792
772.723	0.0179572
772.801	0.0178014
772.879	0.0177627
772.957	0.0176443
773.035	0.0175774
773.113	0.0176070
773.192	0.0174989
773.270	0.0175455
773.348	0.0175352
773.426	0.0175636
773.504	0.0175610
773.582	0.0174621
773.660	0.0176105
773.738	0.0176849
773.817	0.0177234
773.895	0.0179440
773.973	0.0178435
774.051	0.0179134
774.129	0.0180851
774.207	0.0182328
774.285	0.0182979
774.363	0.0181861
774.442	0.0182729
774.520	0.0184188
774.598	0.0183093
774.676	0.0182710
774.754	0.0183035
774.832	0.0181676
774.910	0.0182466
774.988	0.0180771
775.067	0.0181696
775.145	0.0180157
775.223	0.0181840
775.301	0.0180037
775.379	0.0179469
775.457	0.0181096
775.535	0.0181058
775.613	0.0179727
775.692	0.0180883
775.770	0.0181709
775.848	0.0181240
775.926	0.0183520
776.004	0.0184077
776.082	0.0183992
776.160	0.0184077
776.238	0.0184682
776.317	0.0185492
776.395	0.0186681
776.473	0.0186678
776.551	0.0186180
776.629	0.0187486
776.707	0.0188125
776.785	0.0187997
776.863	0.0185781
776.942	0.0185780
777.020	0.0186003
777.098	0.0184850
777.176	0.0183910
777.254	0.0184113
777.332	0.0184422
777.410	0.0185055
777.488	0.0183422
777.567	0.0184247
777.645	0.0182774
777.723	0.0183746
777.801	0.0184900
777.879	0.0182925
777.957	0.0182483
778.035	0.0182726
778.113	0.0183334
778.192	0.0184491
778.270	0.0184772
778.348	0.0183778
778.426	0.0183189
778.504	0.0183482
778.582	0.0183920
778.660	0.0183359
778.738	0.0182285
778.817	0.0183407
778.895	0.0183543
778.973	0.0184425
779.051	0.0183130
779.129	0.0183673
779.207	0.0184320
779.285	0.0183232
779.363	0.0182949
779.442	0.0184167
779.520	0.0184859
779.598	0.0185190
779.676	0.0185821
779.754	0.0184690
779.832	0.0185343
779.910	0.0185177
779.988	0.0184478
780.067	0.0185072
780.145	0.0185040
780.223	0.0183332
780.301	0.0183165
780.379	0.0184116
780.457	0.0183050
780.535	0.0181768
780.613	0.0180576
780.692	0.0177956
780.770	0.0178837
780.848	0.0177595
780.926	0.0176487
781.004	0.0176009
781.082	0.0174475
781.160	0.0174174
781.238	0.0174418
781.317	0.0174422
781.395	0.0174925
781.473	0.0175053
781.551	0.0174886
781.629	0.0176666
781.707	0.0179169
781.785	0.0179716
781.863	0.0180160
781.942	0.0181628
782.020	0.0182535
782.098	0.0183727
782.176	0.0186288
782.254	0.0187065
782.332	0.0185603
782.410	0.0185890
782.488	0.0185252
782.567	0.0186388
782.645	0.0185533
782.723	0.0185763
782.801	0.0183922
782.879	0.0182928
782.957	0.0183997
783.035	0.0182400
783.113	0.0181548
783.192	0.0182245
783.270	0.0181122
783.348	0.0181760
783.426	0.0181973
783.504	0.0182678
783.582	0.0183028
783.660	0.0182659
783.738	0.0184307
783.817	0.0185588
783.895	0.0186102
783.973	0.0186207
784.051	0.0186137
784.129	0.0185949
784.207	0.0187746
784.285	0.0186009
784.363	0.0188185
784.442	0.0187049
784.520	0.0186565
784.598	0.0186861
784.676	0.0185426
784.754	0.0185063
784.832	0.0183192
784.910	0.0182645
784.988	0.0182928
785.067	0.0181711
785.145	0.0182197
785.223	0.0181310
785.301	0.0181395
785.379	0.0181920
785.457	0.0181611
785.535	0.0180983
785.613	0.0182759
785.692	0.0184637
785.770	0.0183672
785.848	0.0183924
785.926	0.0183501
786.004	0.0184694
786.082	0.0186387
786.160	0.0187753
786.238	0.0187828
786.317	0.0187451
786.395	0.0188551
786.473	0.0187774
786.551	0.0188267
786.629	0.0187069
786.707	0.0188438
786.785	0.0185575
786.863	0.0185491
786.942	0.0184959
787.020	0.0184462
787.098	0.0185992
787.176	0.0184405
787.254	0.0183530
787.332	0.0184496
787.410	0.0183385
787.488	0.0183890
787.567	0.0183218
787.645	0.0183695
787.723	0.0183345
787.801	0.0180734
787.879	0.0182840
787.957	0.0182231
788.035	0.0181382
788.113	0.0182103
788.192	0.0181066
788.270	0.0180059
788.348	0.0178819
788.426	0.0178436
788.504	0.0177164
788.582	0.0176215
788.660	0.0175896
788.738	0.0174162
788.817	0.0174191
788.895	0.0174484
788.973	0.0174257
789.051	0.0174464
789.129	0.0176353
789.207	0.0175402
789.285	0.0174970
789.363	0.0177244
789.442	0.0179021
789.520	0.0178725
789.598	0.0179527
789.676	0.0182215
789.754	0.0183004
789.832	0.0183678
789.910	0.0184665
789.988	0.0183456
790.067	0.0183616
790.145	0.0184433
790.223	0.0184195
790.301	0.0183855
790.379	0.0185290
790.457	0.0184172
790.535	0.0183045
790.613	0.0184006
790.692	0.0182257
790.770	0.0182288
790.848	0.0182497
790.926	0.0184254
791.004	0.0184196
791.082	0.0183060
791.160	0.0183244
791.238	0.0185799
791.317	0.0186117
791.395	0.0187254
791.473	0.0187692
791.551	0.0188020
791.629	0.0187016
791.707	0.0189388
791.785	0.0189596
791.863	0.0188248
791.942	0.0189284
792.020	0.0188877
792.098	0.0188437
792.176	0.0186573
792.254	0.0185262
792.332	0.0185363
792.410	0.0183607
792.488	0.0183085
792.567	0.0181987
792.645	0.0180531
792.723	0.0179451
792.801	0.0178499
792.879	0.0179057
792.957	0.0178189
793.035	0.0176523
793.113	0.0176678
793.192	0.0177174
793.270	0.0177120
793.348	0.0180108
793.426	0.0178655
793.504	0.0180867
793.582	0.0180650
793.660	0.0182194
793.738	0.0183022
793.817	0.0182604
793.895	0.0184313
793.973	0.0184876
794.051	0.0187228
794.129	0.0186555
794.207	0.0187099
794.285	0.0188101
794.363	0.0188843
794.442	0.0190211
794.520	0.0189807
794.598	0.0188816
794.676	0.0187476
794.754	0.0188791
794.832	0.0187933
794.910	0.0187762
794.988	0.0187015
795.067	0.0186924
795.145	0.0187897
795.223	0.0187059
795.301	0.0185921
795.379	0.0185291
795.457	0.0185882
795.535	0.0186526
795.613	0.0183609
795.692	0.0184128
795.770	0.0183588
795.848	0.0182545
795.926	0.0181115
796.004	0.0179826
796.082	0.0178713
796.160	0.0176933
796.238	0.0176019
796.317	0.0176885
796.395	0.0174509
796.473	0.0174854
796.551	0.0173092
796.629	0.0170689
796.707	0.0171102
796.785	0.0171357
796.863	0.0170848
796.942	0.0170584
797.020	0.0169955
797.098	0.0172389
797.176	0.0173619
797.254	0.0173396
797.332	0.0174585
797.410	0.0173486
797.488	0.0176260
797.567	0.0176474
797.645	0.0176521
797.723	0.0178426
797.801	0.0179170
797.879	0.0180405
797.957	0.0180071
798.035	0.0182063
798.113	0.0181757
798.192	0.0182579
798.270	0.0181224
798.348	0.0182135
798.426	0.0181745
798.504	0.0182342
798.582	0.0183612
798.660	0.0182725
798.738	0.0183209
798.817	0.0185553
798.895	0.0186095
798.973	0.0186210
799.051	0.0186736
799.129	0.0187228
799.207	0.0188627
799.285	0.0188599
799.363	0.0189539
799.442	0.0190287
799.520	0.0190527
799.598	0.0189606
799.676	0.0190107
799.754	0.0189191
799.832	0.0188438
799.910	0.0188821
799.988	0.0185606
800.067	0.0186813
800.145	0.0185357
800.223	0.0184179
800.301	0.0183082
800.379	0.0183241
800.457	0.0182998
800.535	0.0181361
800.613	0.0182487
800.692	0.0180926
800.770	0.0179988
800.848	0.0180246
800.926	0.0178781
801.004	0.0179706
801.082	0.0180171
801.160	0.0180883
801.238	0.0179475
801.317	0.0180081
801.395	0.0180330
801.473	0.0180675
801.551	0.0182427
801.629	0.0180804
801.707	0.0180984
801.785	0.0181788
801.863	0.0181516
801.942	0.0184256
802.020	0.0184443
802.098	0.0183123
802.176	0.0184008
802.254	0.0185543
802.332	0.0185046
802.410	0.0184451
802.488	0.0185483
802.567	0.0187186
802.645	0.0188181
802.723	0.0187300
802.801	0.0186107
802.879	0.0187000
802.957	0.0187068
803.035	0.0186102
803.113	0.0186781
803.192	0.0185905
803.270	0.0185217
803.348	0.0185074
803.426	0.0183024
803.504	0.0182517
803.582	0.0183091
803.660	0.0181085
803.738	0.0180059
803.817	0.0178767
803.895	0.0177206
803.973	0.0176450
804.051	0.0177196
804.129	0.0176450
804.207	0.0175553
804.285	0.0175053
804.363	0.0174277
804.442	0.0174355
804.520	0.0174346
804.598	0.0174610
804.676	0.0174910
804.754	0.0174210
804.832	0.0174415
804.910	0.0176361
804.988	0.0175556
805.067	0.0175597
805.145	0.0178739
805.223	0.0177638
805.301	0.0178772
805.379	0.0180269
805.457	0.0179270
805.535	0.0181297
805.613	0.0182300
805.692	0.0181875
805.770	0.0181712
805.848	0.0182234
805.926	0.0182290
806.004	0.0183290
806.082	0.0183151
806.160	0.0183822
806.238	0.0184009
806.317	0.0185646
806.395	0.0186187
806.473	0.0185035
806.551	0.0186399
806.629	0.0186857
806.707	0.0188462
806.785	0.0187337
806.863	0.0188742
806.942	0.0189285
807.020	0.0187157
807.098	0.0189279
807.176	0.0188885
807.254	0.0188076
807.332	0.0188192
807.410	0.0187192
807.488	0.0187155
807.567	0.0186677
807.645	0.0185022
807.723	0.0183483
807.801	0.0183854
807.879	0.0183970
807.957	0.0182998
808.035	0.0182646
808.113	0.0183968
808.192	0.0182706
808.270	0.0182104
808.348	0.0182600
808.426	0.0182064
808.504	0.0181566
808.582	0.0182928
808.660	0.0181718
808.738	0.0182426
808.817	0.0183052
808.895	0.0183375
808.973	0.0184542
809.051	0.0184572
809.129	0.0184669
809.207	0.0186474
809.285	0.0187012
809.363	0.0185059
809.442	0.0184585
809.520	0.0187352
809.598	0.0186452
809.676	0.0186380
809.754	0.0187280
809.832	0.0186339
809.910	0.0187240
809.988	0.0185840
810.067	0.0186438
810.145	0.0188140
810.223	0.0186822
810.301	0.0188909
810.379	0.0186925
810.457	0.0187234
810.535	0.0187506
810.613	0.0186407
810.692	0.0186623
810.770	0.0187119
810.848	0.0186168
810.926	0.0185567
811.004	0.0184699
811.082	0.0184515
811.160	0.0185380
811.238	0.0183129
811.317	0.0183152
811.395	0.0179266
811.473	0.0180302
811.551	0.0179290
811.629	0.0180058
811.707	0.0178423
811.785	0.0176368
811.863	0.0175642
811.942	0.0174622
812.020	0.0175687
812.098	0.0174503
812.176	0.0174409
812.254	0.0174029
812.332	0.0172910
812.410	0.0171781
812.488	0.0172395
812.567	0.0172250
812.645	0.0173404
812.723	0.0173532
812.801	0.0173872
812.879	0.0175506
812.957	0.0175983
813.035	0.0178513
813.113	0.0177818
813.192	0.0177695
813.270	0.0177970
813.348	0.0179733
813.426	0.0180528
813.504	0.0180707
813.582	0.0181473
813.660	0.0181384
813.738	0.0181790
813.817	0.0181830
813.895	0.0184084
813.973	0.0184325
814.051	0.0185397
814.129	0.0184480
814.207	0.0184120
814.285	0.0184876
814.363	0.0185749
814.442	0.0187611
814.520	0.0187827
814.598	0.0188596
814.676	0.0187285
814.754	0.0188045
814.832	0.0188976
814.910	0.0190470
814.988	0.0188382
815.067	0.0187325
815.145	0.0188850
815.223	0.0189582
815.301	0.0187817
815.379	0.0187463
815.457	0.0187589
815.535	0.0188079
815.613	0.0187543
815.692	0.0186674
815.770	0.0185092
815.848	0.0185735
815.926	0.0186448
816.004	0.0185003
816.082	0.0185999
816.160	0.0183953
816.238	0.0183144
816.317	0.0186465
816.395	0.0186132
816.473	0.0184879
816.551	0.0185906
816.629	0.0185259
816.707	0.0185656
816.785	0.0184792
816.863	0.0185386
816.942	0.0186966
817.020	0.0186225
817.098	0.0185340
817.176	0.0187145
817.254	0.0185168
817.332	0.0184895
817.410	0.0186093
817.488	0.0185892
817.567	0.0186117
817.645	0.0185631
817.723	0.0186963
817.801	0.0184052
817.879	0.0184409
817.957	0.0185824
818.035	0.0185085
818.113	0.0184282
818.192	0.0184368
818.270	0.0183529
818.348	0.0183827
818.426	0.0183045
818.504	0.0182509
818.582	0.0182603
818.660	0.0182597
818.738	0.0182417
818.817	0.0181704
818.895	0.0180784
818.973	0.0180440
819.051	0.0179447
819.129	0.0180070
819.207	0.0179198
819.285	0.0176257
819.363	0.0176233
819.442	0.0176352
819.520	0.0173699
819.598	0.0173970
819.676	0.0172237
819.754	0.0173279
819.832	0.0172215
819.910	0.0171758
819.988	0.0171733
820.067	0.0172159
820.145	0.0171674
820.223	0.0171548
820.301	0.0173309
820.379	0.0172522
820.457	0.0173367
820.535	0.0175580
820.613	0.0175227
820.692	0.0177437
820.770	0.0177736
820.848	0.0177277
820.926	0.0179990
821.004	0.0179990
821.082	0.0181785
821.160	0.0181646
821.238	0.0181606
821.317	0.0183292
821.395	0.0184495
821.473	0.0184527
821.551	0.0184654
821.629	0.0185433
821.707	0.0184397
821.785	0.0186163
821.863	0.0186549
821.942	0.0187188
822.020	0.0187446
822.098	0.0188133
822.176	0.0188726
822.254	0.0188353
822.332	0.0189963
822.410	0.0189088
822.488	0.0187845
822.567	0.0188377
822.645	0.0189684
822.723	0.0188596
822.801	0.0189169
822.879	0.0189816
822.957	0.0188223
823.035	0.0187800
823.113	0.0187335
823.192	0.0186246
823.270	0.0185898
823.348	0.0186094
823.426	0.0185463
823.504	0.0185406
823.582	0.0184583
823.660	0.0183915
823.738	0.0184360
823.817	0.0183934
823.895	0.0183556
823.973	0.0182470
824.051	0.0182790
824.129	0.0184693
824.207	0.0183985
824.285	0.0182334
824.363	0.0182690
824.442	0.0183785
824.520	0.0181725
824.598	0.0181993
824.676	0.0183200
824.754	0.0182284
824.832	0.0182767
824.910	0.0181158
824.988	0.0181720
825.067	0.0180910
825.145	0.0180910
825.223	0.0182565
825.301	0.0180579
825.379	0.0181911
825.457	0.0180658
825.535	0.0180415
825.613	0.0180618
825.692	0.0180819
825.770	0.0181023
825.848	0.0182220
825.926	0.0180898
826.004	0.0182740
826.082	0.0181785
826.160	0.0180704
826.238	0.0182441
826.317	0.0182883
826.395	0.0181824
826.473	0.0181767
826.551	0.0180733
826.629	0.0179987
826.707	0.0180206
826.785	0.0179845
826.863	0.0179414
826.942	0.0180308
827.020	0.0176596
827.098	0.0177221
827.176	0.0177245
827.254	0.0177157
827.332	0.0176943
827.410	0.0175978
827.488	0.0174468
827.567	0.0174664
827.645	0.0175874
827.723	0.0173915
827.801	0.0174775
827.879	0.0175850
827.957	0.0173447
828.035	0.0174841
828.113	0.0174358
828.192	0.0175983
828.270	0.0176173
828.348	0.0176542
828.426	0.0176138
828.504	0.0176633
828.582	0.0177355
828.660	0.0177724
828.738	0.0180779
828.817	0.0179989
828.895	0.0181623
828.973	0.0183055
829.051	0.0182741
829.129	0.0181794
829.207	0.0183951
829.285	0.0184660
829.363	0.0185290
829.442	0.0185929
829.520	0.0184400
829.598	0.0186384
829.676	0.0185458
829.754	0.0185271
829.832	0.0187431
829.910	0.0185532
829.988	0.0186010
830.067	0.0186486
830.145	0.0185709
830.223	0.0184926
830.301	0.0185961
830.379	0.0184726
830.457	0.0185184
830.535	0.0185814
830.613	0.0185029
830.692	0.0185654
830.770	0.0185658
830.848	0.0184907
830.926	0.0185825
831.004	0.0185932
831.082	0.0186765
831.160	0.0185809
831.238	0.0184142
831.317	0.0185352
831.395	0.0186814
831.473	0.0187637
831.551	0.0185192
831.629	0.0186246
831.707	0.0185661
831.785	0.0185610
831.863	0.0185063
831.942	0.0186716
832.020	0.0185911
832.098	0.0184933
832.176	0.0184967
832.254	0.0184814
832.332	0.0183413
832.410	0.0185399
832.488	0.0184869
832.567	0.0184619
832.645	0.0183228
832.723	0.0183730
832.801	0.0183424
832.879	0.0183835
832.957	0.0183982
833.035	0.0182096
833.113	0.0183833
833.192	0.0183745
833.270	0.0183503
833.348	0.0184021
833.426	0.0185098
833.504	0.0184251
833.582	0.0183462
833.660	0.0183970
833.738	0.0183807
833.817	0.0182702
833.895	0.0182373
833.973	0.0182036
834.051	0.0181463
834.129	0.0183286
834.207	0.0182000
834.285	0.0182547
834.363	0.0181419
834.442	0.0180570
834.520	0.0180228
834.598	0.0179571
834.676	0.0179101
834.754	0.0180190
834.832	0.0178944
834.910	0.0179021
834.988	0.0178178
835.067	0.0178683
835.145	0.0179053
835.223	0.0177906
835.301	0.0178568
835.379	0.0177865
835.457	0.0178818
835.535	0.0179321
835.613	0.0178118
835.692	0.0178814
835.770	0.0178073
835.848	0.0180090
835.926	0.0179662
836.004	0.0180012
836.082	0.0181172
836.160	0.0181178
836.238	0.0182579
836.317	0.0183473
836.395	0.0182547
836.473	0.0181698
836.551	0.0183609
836.629	0.0183263
836.707	0.0183607
836.785	0.0184184
836.863	0.0184944
836.942	0.0184030
837.020	0.0185471
837.098	0.0185618
837.176	0.0184994
837.254	0.0183378
837.332	0.0183601
837.410	0.0184587
837.488	0.0185296
837.567	0.0185126
837.645	0.0184563
837.723	0.0183143
837.801	0.0184882
837.879	0.0184795
837.957	0.0185172
838.035	0.0184784
838.113	0.0184177
838.192	0.0185085
838.270	0.0185172
838.348	0.0183652
838.426	0.0183590
838.504	0.0184914
838.582	0.0185181
838.660	0.0185557
838.738	0.0183360
838.817	0.0183757
838.895	0.0184450
838.973	0.0183842
839.051	0.0185630
839.129	0.0185629
839.207	0.0184338
839.285	0.0185696
839.363	0.0186524
839.442	0.0186159
839.520	0.0185429
839.598	0.0186063
839.676	0.0186452
839.754	0.0186369
839.832	0.0185591
839.910	0.0185072
839.988	0.0186308
840.067	0.0186766
840.145	0.0185033
840.223	0.0186368
840.301	0.0186499
840.379	0.0185384
840.457	0.0187030
840.535	0.0187601
840.613	0.0184996
840.692	0.0185944
840.770	0.0185964
840.848	0.0185551
840.926	0.0185712
841.004	0.0185572
841.082	0.0185371
841.160	0.0187189
841.238	0.0183800
841.317	0.0184883
841.395	0.0186105
841.473	0.0184486
841.551	0.0184375
841.629	0.0183436
841.707	0.0183230
841.785	0.0183483
841.863	0.0182806
841.942	0.0182524
842.020	0.0179620
842.098	0.0181171
842.176	0.0180608
842.254	0.0180457
842.332	0.0179629
842.410	0.0178065
842.488	0.0179305
842.567	0.0177634
842.645	0.0177396
842.723	0.0176997
842.801	0.0176565
842.879	0.0176466
842.957	0.0174979
843.035	0.0175581
843.113	0.0176772
843.192	0.0175499
843.270	0.0176176
843.348	0.0176238
843.426	0.0176557
843.504	0.0175961
843.582	0.0175694
843.660	0.0177124
843.738	0.0177306
843.817	0.0178494
843.895	0.0177471
843.973	0.0177537
844.051	0.0179737
844.129	0.0179727
844.207	0.0180921
844.285	0.0183025
844.363	0.0180036
844.442	0.0183142
844.520	0.0183286
844.598	0.0183472
844.676	0.0185139
844.754	0.0185204
844.832	0.0185040
844.910	0.0184154
844.988	0.0183561
845.067	0.0184766
845.145	0.0183564
845.223	0.0184554
845.301	0.0183231
845.379	0.0184334
845.457	0.0184312
845.535	0.0183816
845.613	0.0183585
845.692	0.0184093
845.770	0.0183669
845.848	0.0182327
845.926	0.0182198
846.004	0.0182454
846.082	0.0182764
846.160	0.0182502
846.238	0.0183611
846.317	0.0184212
846.395	0.0182605
846.473	0.0184125
846.551	0.0185498
846.629	0.0185496
846.707	0.0183408
846.785	0.0185839
846.863	0.0184756
846.942	0.0185643
847.020	0.0185744
847.098	0.0185397
847.176	0.0186114
847.254	0.0186944
847.332	0.0184830
847.410	0.0185241
847.488	0.0185704
847.567	0.0186436
847.645	0.0186044
847.723	0.0184225
847.801	0.0185381
847.879	0.0184637
847.957	0.0182753
848.035	0.0184406
848.113	0.0184061
848.192	0.0184576
848.270	0.0184638
848.348	0.0184317
848.426	0.0183649
848.504	0.0184361
848.582	0.0183991
848.660	0.0183469
848.738	0.0182904
848.817	0.0183256
848.895	0.0183773
848.973	0.0182919
849.051	0.0182925
849.129	0.0183075
849.207	0.0182846
849.285	0.0182037
849.363	0.0183085
849.442	0.0181799
849.520	0.0183423
849.598	0.0182217
849.676	0.0180090
849.754	0.0179973
849.832	0.0180215
849.910	0.0180793
849.988	0.0179476
850.067	0.0179301
850.145	0.0178069
850.223	0.0177974
850.301	0.0178149
850.379	0.0176545
850.457	0.0175775
850.535	0.0176308
850.613	0.0176994
850.692	0.0176519
850.770	0.0176402
850.848	0.0175568
850.926	0.0174596
851.004	0.0176466
851.082	0.0176418
851.160	0.0176112
851.238	0.0176308
851.317	0.0176428
851.395	0.0178148
851.473	0.0176318
851.551	0.0178794
851.629	0.0179691
851.707	0.0180278
851.785	0.0180475
851.863	0.0181448
851.942	0.0182723
852.020	0.0182655
852.098	0.0183552
852.176	0.0183543
852.254	0.0183125
852.332	0.0183326
852.410	0.0184811
852.488	0.0184235
852.567	0.0184767
852.645	0.0184074
852.723	0.0183710
852.801	0.0184975
852.879	0.0184550
852.957	0.0184500
853.035	0.0183618
853.113	0.0184844
853.192	0.0184058
853.270	0.0182937
853.348	0.0183936
853.426	0.0182619
853.504	0.0184507
853.582	0.0184475
853.660	0.0183491
853.738	0.0183171
853.817	0.0184049
853.895	0.0184396
853.973	0.0185140
854.051	0.0184439
854.129	0.0183042
854.207	0.0184801
854.285	0.0184055
854.363	0.0184753
854.442	0.0186992
854.520	0.0186374
854.598	0.0184402
854.676	0.0185094
854.754	0.0185954
854.832	0.0184795
854.910	0.0184229
854.988	0.0184135
855.067	0.0183795
855.145	0.0185583
855.223	0.0183656
855.301	0.0184381
855.379	0.0183300
855.457	0.0182926
855.535	0.0183703
855.613	0.0184296
855.692	0.0182210
855.770	0.0183489
855.848	0.0181749
855.926	0.0183271
856.004	0.0184743
856.082	0.0182631
856.160	0.0184035
856.238	0.0183375
856.317	0.0183404
856.395	0.0184113
856.473	0.0182803
856.551	0.0182404
856.629	0.0184259
856.707	0.0183817
856.785	0.0184912
856.863	0.0182391
856.942	0.0183266
857.020	0.0184464
857.098	0.0183820
857.176	0.0183305
857.254	0.0183590
857.332	0.0180312
857.410	0.0182500
857.488	0.0182256
857.567	0.0182350
857.645	0.0181537
857.723	0.0182035
857.801	0.0180732
857.879	0.0181004
857.957	0.0180807
858.035	0.0180110
858.113	0.0179058
858.192	0.0178785
858.270	0.0178429
858.348	0.0178943
858.426	0.0178406
858.504	0.0178391
858.582	0.0176885
858.660	0.0177341
858.738	0.0177771
858.817	0.0176431
858.895	0.0178529
858.973	0.0178828
859.051	0.0179728
859.129	0.0178318
859.207	0.0179919
859.285	0.0180158
859.363	0.0180593
859.442	0.0180978
859.520	0.0180920
859.598	0.0181705
859.676	0.0181796
859.754	0.0182210
859.832	0.0181994
859.910	0.0183385
859.988	0.0183163
860.067	0.0183354
860.145	0.0183932
860.223	0.0184296
860.301	0.0184522
860.379	0.0183736
860.457	0.0185638
860.535	0.0183591
860.613	0.0183475
860.692	0.0184277
860.770	0.0184132
860.848	0.0182718
860.926	0.0181991
861.004	0.0181720
861.082	0.0182426
861.160	0.0182213
861.238	0.0182870
861.317	0.0183243
861.395	0.0181698
861.473	0.0182146
861.551	0.0182500
861.629	0.0183527
861.707	0.0183564
861.785	0.0183517
861.863	0.0184058
861.942	0.0183784
862.020	0.0182761
862.098	0.0183021
862.176	0.0185123
862.254	0.0183858
862.332	0.0185330
862.410	0.0186682
862.488	0.0184744
862.567	0.0185189
862.645	0.0187103
862.723	0.0184303
862.801	0.0184797
862.879	0.0185489
862.957	0.0186642
863.035	0.0185689
863.113	0.0185776
863.192	0.0185935
863.270	0.0185965
863.348	0.0184628
863.426	0.0184507
863.504	0.0183654
863.582	0.0183828
863.660	0.0184052
863.738	0.0184225
863.817	0.0183098
863.895	0.0183234
863.973	0.0183781
864.051	0.0183898
864.129	0.0183752
864.207	0.0184248
864.285	0.0184341
864.363	0.0183783
864.442	0.0184459
864.520	0.0184148
864.598	0.0183547
864.676	0.0184875
864.754	0.0184200
864.832	0.0182635
864.910	0.0183915
864.988	0.0184131
865.067	0.0182854
865.145	0.0183926
865.223	0.0183669
865.301	0.0182140
865.379	0.0182584
865.457	0.0181561
865.535	0.0180112
865.613	0.0181071
865.692	0.0181197
865.770	0.0177896
865.848	0.0177811
865.926	0.0178239
866.004	0.0178107
866.082	0.0180013
866.160	0.0178514
866.238	0.0177418
866.317	0.0178148
866.395	0.0177415
866.473	0.0177562
866.551	0.0178236
866.629	0.0178297
866.707	0.0177161
866.785	0.0178626
866.863	0.0177021
866.942	0.0178609
867.020	0.0179156
867.098	0.0179456
867.176	0.0179082
867.254	0.0179146
867.332	0.0180072
867.410	0.0180930
867.488	0.0180882
867.567	0.0180671
867.645	0.0181741
867.723	0.0182680
867.801	0.0183084
867.879	0.0183299
867.957	0.0182756
868.035	0.0183901
868.113	0.0184517
868.192	0.0184497
868.270	0.0185296
868.348	0.0184863
868.426	0.0185001
868.504	0.0183589
868.582	0.0184821
868.660	0.0183985
868.738	0.0182490
868.817	0.0183652
868.895	0.0183479
868.973	0.0183102
869.051	0.0181953
869.129	0.0181899
869.207	0.0181839
869.285	0.0182850
869.363	0.0183553
869.442	0.0181796
869.520	0.0181367
869.598	0.0181685
869.676	0.0182801
869.754	0.0183340
869.832	0.0184158
869.910	0.0182900
869.988	0.0182433
870.067	0.0183154
870.145	0.0182630
870.223	0.0184276
870.301	0.0184305
870.379	0.0184820
870.457	0.0183461
870.535	0.0183106
870.613	0.0183202
870.692	0.0183356
870.770	0.0185778
870.848	0.0184308
870.926	0.0183653
871.004	0.0183972
871.082	0.0183714
871.160	0.0183205
871.238	0.0182748
871.317	0.0181805
871.395	0.0182142
871.473	0.0180914
871.551	0.0182446
871.629	0.0182755
871.707	0.0181990
871.785	0.0182705
871.863	0.0182877
871.942	0.0183331
872.020	0.0182990
872.098	0.0181927
872.176	0.0182388
872.254	0.0182522
872.332	0.0184052
872.410	0.0183228
872.488	0.0182562
872.567	0.0181656
872.645	0.0182716
872.723	0.0183499
872.801	0.0182555
872.879	0.0181634
872.957	0.0182673
873.035	0.0182886
873.113	0.0182211
873.192	0.0183299
873.270	0.0181532
873.348	0.0182156
873.426	0.0182574
873.504	0.0181984
873.582	0.0181627
873.660	0.0179941
873.738	0.0180987
873.817	0.0179856
873.895	0.0179939
873.973	0.0179817
874.051	0.0181779
874.129	0.0179462
874.207	0.0176991
874.285	0.0178857
874.363	0.0178345
874.442	0.0178321
874.520	0.0178819
874.598	0.0180137
874.676	0.0178186
874.754	0.0179891
874.832	0.0180503
874.910	0.0179473
874.988	0.0180212
875.067	0.0181129
875.145	0.0180623
875.223	0.0179977
875.301	0.0180090
875.379	0.0181384
875.457	0.0181090
875.535	0.0182919
875.613	0.0181776
875.692	0.0182034
875.770	0.0183270
875.848	0.0183466
875.926	0.0183421
876.004	0.0182636
876.082	0.0182965
876.160	0.0183245
876.238	0.0183234
876.317	0.0184293
876.395	0.0183392
876.473	0.0185031
876.551	0.0182279
876.629	0.0183073
876.707	0.0183866
876.785	0.0183321
876.863	0.0182765
876.942	0.0182880
877.020	0.0183403
877.098	0.0182267
877.176	0.0182165
877.254	0.0182283
877.332	0.0182638
877.410	0.0182549
877.488	0.0184116
877.567	0.0183022
877.645	0.0181182
877.723	0.0181898
877.801	0.0183139
877.879	0.0181442
877.957	0.0179948
878.035	0.0182588
878.113	0.0181938
878.192	0.0182799
878.270	0.0182331
878.348	0.0182179
878.426	0.0182385
878.504	0.0182095
878.582	0.0183679
878.660	0.0182722
878.738	0.0183005
878.817	0.0183234
878.895	0.0182363
878.973	0.0183640
879.051	0.0183590
879.129	0.0182584
879.207	0.0182008
879.285	0.0183158
879.363	0.0183844
879.442	0.0182262
879.520	0.0184431
879.598	0.0184498
879.676	0.0182167
879.754	0.0183736
879.832	0.0184529
879.910	0.0183973
879.988	0.0183073
880.067	0.0185332
880.145	0.0184599
880.223	0.0184124
880.301	0.0185457
880.379	0.0185112
880.457	0.0184401
880.535	0.0184799
880.613	0.0184362
880.692	0.0184637
880.770	0.0183243
880.848	0.0182804
880.926	0.0183619
881.004	0.0183613
881.082	0.0183884
881.160	0.0182417
881.238	0.0182734
881.317	0.0182077
881.395	0.0182297
881.473	0.0183185
881.551	0.0181304
881.629	0.0181144
881.707	0.0181578
881.785	0.0181427
881.863	0.0182287
881.942	0.0182710
882.020	0.0182288
882.098	0.0181686
882.176	0.0181207
882.254	0.0181411
882.332	0.0180312
882.410	0.0181382
882.488	0.0181316
882.567	0.0181888
882.645	0.0180576
882.723	0.0180313
882.801	0.0182145
882.879	0.0180827
882.957	0.0181075
883.035	0.0180858
883.113	0.0181334
883.192	0.0182834
883.270	0.0181389
883.348	0.0182033
883.426	0.0182355
883.504	0.0182439
883.582	0.0182251
883.660	0.0183241
883.738	0.0183561
883.817	0.0183810
883.895	0.0182301
883.973	0.0183085
884.051	0.0182115
884.129	0.0184050
884.207	0.0183411
884.285	0.0182848
884.363	0.0183276
884.442	0.0182331
884.520	0.0182443
884.598	0.0182530
884.676	0.0181656
884.754	0.0181815
884.832	0.0182838
884.910	0.0181458
884.988	0.0181330
885.067	0.0182737
885.145	0.0181744
885.223	0.0180393
885.301	0.0180246
885.379	0.0181460
885.457	0.0182297
885.535	0.0180542
885.613	0.0180013
885.692	0.0181565
885.770	0.0181156
885.848	0.0180800
885.926	0.0182272
886.004	0.0182327
886.082	0.0180494
886.160	0.0183109
886.238	0.0183210
886.317	0.0182397
886.395	0.0181821
886.473	0.0182214
886.551	0.0183661
886.629	0.0183847
886.707	0.0184083
886.785	0.0184534
886.863	0.0184387
886.942	0.0184183
887.020	0.0185601
887.098	0.0183821
887.176	0.0182626
887.254	0.0182322
887.332	0.0183430
887.410	0.0182963
887.488	0.0184528
887.567	0.0183079
887.645	0.0182581
887.723	0.0182391
887.801	0.0180481
887.879	0.0181049
887.957	0.0183453
888.035	0.0181917
888.113	0.0181441
888.192	0.0181042
888.270	0.0180949
888.348	0.0181699
888.426	0.0181097
888.504	0.0180659
888.582	0.0181408
888.660	0.0180471
888.738	0.0181018
888.817	0.0181585
888.895	0.0180928
888.973	0.0180322
889.051	0.0181179
889.129	0.0182565
889.207	0.0182665
889.285	0.0182973
889.363	0.0182589
889.442	0.0182645
889.520	0.0184333
889.598	0.0184077
889.676	0.0182878
889.754	0.0183057
889.832	0.0183917
889.910	0.0182958
889.988	0.0183761
890.067	0.0184048
890.145	0.0182533
890.223	0.0183495
890.301	0.0184447
890.379	0.0184657
890.457	0.0183755
890.535	0.0184432
890.613	0.0184191
890.692	0.0184064
890.770	0.0181594
890.848	0.0183356
890.926	0.0183386
891.004	0.0184194
891.082	0.0182687
891.160	0.0183295
891.238	0.0183389
891.317	0.0183112
891.395	0.0183070
891.473	0.0183528
891.551	0.0184201
891.629	0.0183369
891.707	0.0184094
891.785	0.0183707
891.863	0.0184180
891.942	0.0183327
892.020	0.0183668
892.098	0.0183128
892.176	0.0182010
892.254	0.0181751
892.332	0.0182809
892.410	0.0182263
892.488	0.0182932
892.567	0.0182445
892.645	0.0180733
892.723	0.0179629
892.801	0.0180369
892.879	0.0181345
892.957	0.0181977
893.035	0.0180550
893.113	0.0182265
893.192	0.0181471
893.270	0.0180503
893.348	0.0181181
893.426	0.0180272
893.504	0.0180986
893.582	0.0180228
893.660	0.0181823
893.738	0.0180465
893.817	0.0181010
893.895	0.0181186
893.973	0.0181194
894.051	0.0181741
894.129	0.0181837
894.207	0.0182745
894.285	0.0183359
894.363	0.0181577
894.442	0.0182057
894.520	0.0182957
894.598	0.0184177
894.676	0.0184385
894.754	0.0184593
894.832	0.0185538
894.910	0.0184456
894.988	0.0186178
895.067	0.0185188
895.145	0.0184745
895.223	0.0186047
895.301	0.0185358
895.379	0.0184595
895.457	0.0185083
895.535	0.0182804
895.613	0.0182338
895.692	0.0184907
895.770	0.0184446
895.848	0.0182446
895.926	0.0182590
896.004	0.0182443
896.082	0.0182138
896.160	0.0181624
896.238	0.0180698
896.317	0.0181807
896.395	0.0181220
896.473	0.0179906
896.551	0.0179652
896.629	0.0180914
896.707	0.0179437
896.785	0.0181218
896.863	0.0179819
896.942	0.0181136
897.020	0.0182581
897.098	0.0181919
897.176	0.0182711
897.254	0.0179985
897.332	0.0181463
897.410	0.0182781
897.488	0.0182820
897.567	0.0183891
897.645	0.0182230
897.723	0.0183403
897.801	0.0181026
897.879	0.0183145
897.957	0.0184096
898.035	0.0183712
898.113	0.0182494
898.192	0.0183578
898.270	0.0182655
898.348	0.0183435
898.426	0.0182095
898.504	0.0182580
898.582	0.0183274
898.660	0.0182868
898.738	0.0182509
898.817	0.0182089
898.895	0.0183334
898.973	0.0184169
899.051	0.0183088
899.129	0.0182311
899.207	0.0182996
899.285	0.0183130
899.363	0.0181605
899.442	0.0183791
899.520	0.0182381
899.598	0.0182315
899.676	0.0182027
899.754	0.0182405
899.832	0.0182172
899.910	0.0183260
899.988	0.0181798
900.067	0.0183248
900.145	0.0182561
900.223	0.0182118
900.301	0.0181314
900.379	0.0182937
900.457	0.0182410
900.535	0.0183004
900.613	0.0183592
900.692	0.0181898
900.770	0.0182508
900.848	0.0182733
900.926	0.0183806
901.004	0.0184547
901.082	0.0182551
901.160	0.0182956
901.238	0.0183210
901.317	0.0183617
901.395	0.0181932
901.473	0.0182739
901.551	0.0183380
901.629	0.0182379
901.707	0.0181375
901.785	0.0182050
901.863	0.0182019
901.942	0.0180833
902.020	0.0180493
902.098	0.0181393
902.176	0.0182074
902.254	0.0181657
902.332	0.0179427
902.410	0.0179129
902.488	0.0181035
902.567	0.0180594
902.645	0.0180348
902.723	0.0180507
902.801	0.0181421
902.879	0.0181126
902.957	0.0180744
903.035	0.0181297
903.113	0.0181540
903.192	0.0181779
903.270	0.0180663
903.348	0.0181600
903.426	0.0181973
903.504	0.0182145
903.582	0.0182685
903.660	0.0182512
903.738	0.0181335
903.817	0.0182154
903.895	0.0183302
903.973	0.0182542
904.051	0.0180771
904.129	0.0183318
904.207	0.0181486
904.285	0.0182890
904.363	0.0181985
904.442	0.0181819
904.520	0.0181644
904.598	0.0182970
904.676	0.0181179
904.754	0.0181477
904.832	0.0182717
904.910	0.0182801
904.988	0.0183373
905.067	0.0182510
905.145	0.0182509
905.223	0.0182966
905.301	0.0183275
905.379	0.0183173
905.457	0.0182569
905.535	0.0183899
905.613	0.0184451
905.692	0.0183682
905.770	0.0182464
905.848	0.0185071
905.926	0.0183709
906.004	0.0184412
906.082	0.0184231
906.160	0.0184266
906.238	0.0184064
906.317	0.0184876
906.395	0.0184581
906.473	0.0182299
906.551	0.0184483
906.629	0.0185974
906.707	0.0185514
906.785	0.0185122
906.863	0.0185403
906.942	0.0184454
907.020	0.0186244
907.098	0.0184757
907.176	0.0183743
907.254	0.0185059
907.332	0.0184963
907.410	0.0184839
907.488	0.0184345
907.567	0.0184935
907.645	0.0185452
907.723	0.0182974
907.801	0.0182999
907.879	0.0182606
907.957	0.0182560
908.035	0.0181384
908.113	0.0181314
908.192	0.0180630
908.270	0.0181973
908.348	0.0180495
908.426	0.0180572
908.504	0.0180655
908.582	0.0179488
908.660	0.0180664
908.738	0.0178828
908.817	0.0179472
908.895	0.0179644
908.973	0.0180172
909.051	0.0180120
909.129	0.0180269
909.207	0.0181001
909.285	0.0179763
909.363	0.0178950
909.442	0.0180398
909.520	0.0182068
909.598	0.0179620
909.676	0.0180491
909.754	0.0182145
909.832	0.0181200
909.910	0.0182407
909.988	0.0182513
910.067	0.0182630
910.145	0.0182524
910.223	0.0182733
910.301	0.0183731
910.379	0.0182117
910.457	0.0182824
910.535	0.0182703
910.613	0.0182629
910.692	0.0182954
910.770	0.0182558
910.848	0.0181572
910.926	0.0183396
911.004	0.0183149
911.082	0.0182597
911.160	0.0182187
911.238	0.0182669
911.317	0.0182075
911.395	0.0182887
911.473	0.0183819
911.551	0.0181929
911.629	0.0183353
911.707	0.0181774
911.785	0.0182839
911.863	0.0184530
911.942	0.0183817
912.020	0.0184422
912.098	0.0183032
912.176	0.0184435
912.254	0.0183539
912.332	0.0184382
912.410	0.0182997
912.488	0.0182121
912.567	0.0182755
912.645	0.0183890
912.723	0.0183047
912.801	0.0183279
912.879	0.0184275
912.957	0.0183400
913.035	0.0183479
913.113	0.0185131
913.192	0.0184417
913.270	0.0182503
913.348	0.0182808
913.426	0.0182916
913.504	0.0183044
913.582	0.0183200
913.660	0.0184147
913.738	0.0182806
913.817	0.0184446
913.895	0.0185215
913.973	0.0184052
914.051	0.0184834
914.129	0.0186250
914.207	0.0184196
914.285	0.0185905
914.363	0.0184879
914.442	0.0183413
914.520	0.0183678
914.598	0.0184051
914.676	0.0184168
914.754	0.0184654
914.832	0.0183167
914.910	0.0183095
914.988	0.0182498
915.067	0.0182701
915.145	0.0182383
915.223	0.0181885
915.301	0.0182973
915.379	0.0182484
915.457	0.0183369
915.535	0.0184173
915.613	0.0183437
915.692	0.0183621
915.770	0.0182587
915.848	0.0181620
915.926	0.0182561
916.004	0.0183150
916.082	0.0182542
916.160	0.0181158
916.238	0.0180280
916.317	0.0180886
916.395	0.0180605
916.473	0.0181731
916.551	0.0182270
916.629	0.0180708
916.707	0.0182205
916.785	0.0180408
916.863	0.0181229
916.942	0.0180784
917.020	0.0180493
917.098	0.0180744
917.176	0.0180818
917.254	0.0181503
917.332	0.0179757
917.410	0.0180254
917.488	0.0181807
917.567	0.0180701
917.645	0.0180318
917.723	0.0181416
917.801	0.0182195
917.879	0.0181660
917.957	0.0181746
918.035	0.0181879
918.113	0.0181332
918.192	0.0181086
918.270	0.0180100
918.348	0.0180763
918.426	0.0183612
918.504	0.0181391
918.582	0.0180348
918.660	0.0180603
918.738	0.0182045
918.817	0.0179891
918.895	0.0180366
918.973	0.0180705
919.051	0.0180751
919.129	0.0180105
919.207	0.0180607
919.285	0.0180181
919.363	0.0180013
919.442	0.0180447
919.520	0.0180778
919.598	0.0180198
919.676	0.0179214
919.754	0.0181184
919.832	0.0180154
919.910	0.0181219
