06/01/2022	21:59:13	Ver.	4.1	UNKNOWN
Optical Delay	599.988409	Delta X		0.078125	Sweeps	1	Scan Rate	0/0
Coordinates	Axis 1	NaN	Axis 2	NaN	Axis 3	NaN	Axis 4	NaN	Axis 5	NaN	Axis 6	0.000000
TX Power	0.000000	RX Power	0.000000

599.988	0.0178574
600.067	0.0178291
600.145	0.0178914
600.223	0.0178680
600.301	0.0179434
600.379	0.0179443
600.457	0.0180759
600.535	0.0178900
600.613	0.0178790
600.692	0.0178742
600.770	0.0178010
600.848	0.0179362
600.926	0.0177715
601.004	0.0179926
601.082	0.0178992
601.160	0.0178987
601.238	0.0178701
601.317	0.0176779
601.395	0.0179503
601.473	0.0177541
601.551	0.0179124
601.629	0.0178365
601.707	0.0178819
601.785	0.0178551
601.863	0.0178998
601.942	0.0178980
602.020	0.0179589
602.098	0.0179190
602.176	0.0178810
602.254	0.0178052
602.332	0.0180105
602.410	0.0178906
602.488	0.0180441
602.567	0.0179134
602.645	0.0178628
602.723	0.0179376
602.801	0.0179160
602.879	0.0179066
602.957	0.0178301
603.035	0.0179249
603.113	0.0179462
603.192	0.0179577
603.270	0.0179260
603.348	0.0180505
603.426	0.0180499
603.504	0.0179675
603.582	0.0179045
603.660	0.0178717
603.738	0.0179318
603.817	0.0180242
603.895	0.0179005
603.973	0.0179607
604.051	0.0179455
604.129	0.0177827
604.207	0.0179669
604.285	0.0179696
604.363	0.0179865
604.442	0.0179357
604.520	0.0179863
604.598	0.0179488
604.676	0.0179936
604.754	0.0179665
604.832	0.0179835
604.910	0.0179311
604.988	0.0180809
605.067	0.0180856
605.145	0.0178612
605.223	0.0178571
605.301	0.0179951
605.379	0.0180363
605.457	0.0179455
605.535	0.0178149
605.613	0.0179256
605.692	0.0180341
605.770	0.0179520
605.848	0.0179258
605.926	0.0179872
606.004	0.0180836
606.082	0.0179327
606.160	0.0178412
606.238	0.0179452
606.317	0.0180294
606.395	0.0179897
606.473	0.0178613
606.551	0.0179203
606.629	0.0180274
606.707	0.0180350
606.785	0.0178920
606.863	0.0179898
606.942	0.0178633
607.020	0.0178979
607.098	0.0179415
607.176	0.0180161
607.254	0.0179725
607.332	0.0178545
607.410	0.0179346
607.488	0.0179095
607.567	0.0178851
607.645	0.0178754
607.723	0.0178966
607.801	0.0178766
607.879	0.0179984
607.957	0.0179713
608.035	0.0179671
608.113	0.0178531
608.192	0.0178101
608.270	0.0177920
608.348	0.0180381
608.426	0.0178036
608.504	0.0179366
608.582	0.0178790
608.660	0.0179063
608.738	0.0179228
608.817	0.0179261
608.895	0.0178564
608.973	0.0179333
609.051	0.0179456
609.129	0.0180472
609.207	0.0179092
609.285	0.0179374
609.363	0.0179863
609.442	0.0180039
609.520	0.0178343
609.598	0.0178806
609.676	0.0179857
609.754	0.0180342
609.832	0.0178252
609.910	0.0178677
609.988	0.0178917
610.067	0.0179017
610.145	0.0178653
610.223	0.0178990
610.301	0.0180006
610.379	0.0177718
610.457	0.0179452
610.535	0.0177840
610.613	0.0179287
610.692	0.0180278
610.770	0.0179389
610.848	0.0178249
610.926	0.0177242
611.004	0.0177889
611.082	0.0180613
611.160	0.0179486
611.238	0.0176529
611.317	0.0177841
611.395	0.0178613
611.473	0.0178813
611.551	0.0179590
611.629	0.0178286
611.707	0.0178417
611.785	0.0178793
611.863	0.0177757
611.942	0.0179137
612.020	0.0178668
612.098	0.0177631
612.176	0.0179153
612.254	0.0178698
612.332	0.0178443
612.410	0.0179409
612.488	0.0179275
612.567	0.0178136
612.645	0.0177576
612.723	0.0177976
612.801	0.0178558
612.879	0.0178838
612.957	0.0178899
613.035	0.0178216
613.113	0.0177088
613.192	0.0179065
613.270	0.0178623
613.348	0.0177519
613.426	0.0177513
613.504	0.0177995
613.582	0.0177642
613.660	0.0178825
613.738	0.0177175
613.817	0.0176923
613.895	0.0178745
613.973	0.0177643
614.051	0.0177950
614.129	0.0178477
614.207	0.0178082
614.285	0.0177663
614.363	0.0177183
614.442	0.0176788
614.520	0.0177032
614.598	0.0178062
614.676	0.0177785
614.754	0.0178051
614.832	0.0177673
614.910	0.0176852
614.988	0.0178125
615.067	0.0177651
615.145	0.0177763
615.223	0.0176723
615.301	0.0176662
615.379	0.0178419
615.457	0.0178564
615.535	0.0177452
615.613	0.0177814
615.692	0.0177121
615.770	0.0176712
615.848	0.0177722
615.926	0.0177631
616.004	0.0177274
616.082	0.0177184
616.160	0.0177905
616.238	0.0177560
616.317	0.0178281
616.395	0.0177551
616.473	0.0177192
616.551	0.0177348
616.629	0.0177730
616.707	0.0178243
616.785	0.0177774
616.863	0.0179187
616.942	0.0177619
617.020	0.0177237
617.098	0.0179109
617.176	0.0177554
617.254	0.0178698
617.332	0.0177489
617.410	0.0178410
617.488	0.0178035
617.567	0.0177868
617.645	0.0176776
617.723	0.0178363
617.801	0.0179527
617.879	0.0178455
617.957	0.0179013
618.035	0.0177195
618.113	0.0179200
618.192	0.0180210
618.270	0.0178700
618.348	0.0178126
618.426	0.0177989
618.504	0.0178487
618.582	0.0178261
618.660	0.0178436
618.738	0.0178632
618.817	0.0178512
618.895	0.0178396
618.973	0.0178487
619.051	0.0178760
619.129	0.0178985
619.207	0.0178061
619.285	0.0178958
619.363	0.0179517
619.442	0.0179839
619.520	0.0179838
619.598	0.0178752
619.676	0.0178619
619.754	0.0178168
619.832	0.0179559
619.910	0.0178214
619.988	0.0178573
620.067	0.0178579
620.145	0.0178723
620.223	0.0179334
620.301	0.0178732
620.379	0.0179056
620.457	0.0178399
620.535	0.0178085
620.613	0.0180618
620.692	0.0179998
620.770	0.0178510
620.848	0.0178586
620.926	0.0177139
621.004	0.0178853
621.082	0.0179468
621.160	0.0178342
621.238	0.0180713
621.317	0.0180856
621.395	0.0178654
621.473	0.0178191
621.551	0.0179674
621.629	0.0181421
621.707	0.0179488
621.785	0.0179478
621.863	0.0178991
621.942	0.0177852
622.020	0.0179847
622.098	0.0179675
622.176	0.0179916
622.254	0.0178499
622.332	0.0178589
622.410	0.0179866
622.488	0.0179022
622.567	0.0180663
622.645	0.0179400
622.723	0.0178421
622.801	0.0179261
622.879	0.0180679
622.957	0.0180054
623.035	0.0177734
623.113	0.0180540
623.192	0.0179738
623.270	0.0180037
623.348	0.0179737
623.426	0.0179083
623.504	0.0178796
623.582	0.0179478
623.660	0.0178370
623.738	0.0179423
623.817	0.0179235
623.895	0.0178948
623.973	0.0178833
624.051	0.0179926
624.129	0.0179590
624.207	0.0181516
624.285	0.0179433
624.363	0.0180721
624.442	0.0179986
624.520	0.0180673
624.598	0.0179801
624.676	0.0179504
624.754	0.0180267
624.832	0.0179262
624.910	0.0179527
624.988	0.0179585
625.067	0.0178475
625.145	0.0179843
625.223	0.0179721
625.301	0.0178867
625.379	0.0177660
625.457	0.0177556
625.535	0.0178938
625.613	0.0178749
625.692	0.0179185
625.770	0.0178625
625.848	0.0180840
625.926	0.0178670
626.004	0.0180241
626.082	0.0180944
626.160	0.0180902
626.238	0.0179333
626.317	0.0180031
626.395	0.0180386
626.473	0.0180244
626.551	0.0179752
626.629	0.0179049
626.707	0.0178791
626.785	0.0179391
626.863	0.0178055
626.942	0.0178246
627.020	0.0179792
627.098	0.0177433
627.176	0.0177531
627.254	0.0179140
627.332	0.0179452
627.410	0.0177770
627.488	0.0178029
627.567	0.0178569
627.645	0.0178953
627.723	0.0179060
627.801	0.0179006
627.879	0.0179607
627.957	0.0180048
628.035	0.0179916
628.113	0.0178980
628.192	0.0178965
628.270	0.0178814
628.348	0.0179738
628.426	0.0178089
628.504	0.0178462
628.582	0.0179271
628.660	0.0178530
628.738	0.0177495
628.817	0.0178398
628.895	0.0177580
628.973	0.0177850
629.051	0.0179292
629.129	0.0177557
629.207	0.0179153
629.285	0.0178301
629.363	0.0179181
629.442	0.0179369
629.520	0.0178027
629.598	0.0179295
629.676	0.0178626
629.754	0.0177011
629.832	0.0179145
629.910	0.0179166
629.988	0.0179140
630.067	0.0179581
630.145	0.0178802
630.223	0.0178702
630.301	0.0179812
630.379	0.0179163
630.457	0.0179519
630.535	0.0177854
630.613	0.0178057
630.692	0.0178425
630.770	0.0178452
630.848	0.0177135
630.926	0.0177702
631.004	0.0178024
631.082	0.0178711
631.160	0.0178537
631.238	0.0177132
631.317	0.0178896
631.395	0.0178382
631.473	0.0179165
631.551	0.0178302
631.629	0.0179200
631.707	0.0177753
631.785	0.0178477
631.863	0.0178485
631.942	0.0179833
632.020	0.0179260
632.098	0.0178822
632.176	0.0178977
632.254	0.0179018
632.332	0.0179292
632.410	0.0178642
632.488	0.0177995
632.567	0.0178160
632.645	0.0178931
632.723	0.0177842
632.801	0.0177836
632.879	0.0179164
632.957	0.0178773
633.035	0.0177171
633.113	0.0179479
633.192	0.0180278
633.270	0.0178973
633.348	0.0176962
633.426	0.0178992
633.504	0.0179945
633.582	0.0179248
633.660	0.0179888
633.738	0.0179868
633.817	0.0179115
633.895	0.0179079
633.973	0.0178145
634.051	0.0178768
634.129	0.0179288
634.207	0.0178399
634.285	0.0180263
634.363	0.0178193
634.442	0.0177399
634.520	0.0178641
634.598	0.0178011
634.676	0.0176648
634.754	0.0177334
634.832	0.0177186
634.910	0.0177639
634.988	0.0178358
635.067	0.0178007
635.145	0.0178284
635.223	0.0179391
635.301	0.0177924
635.379	0.0178710
635.457	0.0179107
635.535	0.0179508
635.613	0.0178793
635.692	0.0179298
635.770	0.0178986
635.848	0.0178516
635.926	0.0178684
636.004	0.0179086
636.082	0.0179198
636.160	0.0177078
636.238	0.0177519
636.317	0.0177865
636.395	0.0178325
636.473	0.0176124
636.551	0.0177715
636.629	0.0177364
636.707	0.0177578
636.785	0.0177813
636.863	0.0175433
636.942	0.0176939
637.020	0.0178207
637.098	0.0177582
637.176	0.0177657
637.254	0.0176776
637.332	0.0177757
637.410	0.0178281
637.488	0.0176732
637.567	0.0178189
637.645	0.0177197
637.723	0.0178577
637.801	0.0177066
637.879	0.0177362
637.957	0.0178677
638.035	0.0177465
638.113	0.0177821
638.192	0.0177488
638.270	0.0177977
638.348	0.0178474
638.426	0.0177653
638.504	0.0177253
638.582	0.0178486
638.660	0.0176820
638.738	0.0178667
638.817	0.0178415
638.895	0.0178731
638.973	0.0179090
639.051	0.0177342
639.129	0.0177901
639.207	0.0177625
639.285	0.0177776
639.363	0.0177122
639.442	0.0177773
639.520	0.0177241
639.598	0.0178286
639.676	0.0178196
639.754	0.0176503
639.832	0.0179053
639.910	0.0179584
639.988	0.0179305
640.067	0.0178808
640.145	0.0178489
640.223	0.0179124
640.301	0.0180238
640.379	0.0179274
640.457	0.0179277
640.535	0.0179506
640.613	0.0178860
640.692	0.0178936
640.770	0.0179797
640.848	0.0179359
640.926	0.0177916
641.004	0.0179588
641.082	0.0179041
641.160	0.0178344
641.238	0.0177409
641.317	0.0179296
641.395	0.0179481
641.473	0.0178087
641.551	0.0177914
641.629	0.0179072
641.707	0.0177760
641.785	0.0178186
641.863	0.0178106
641.942	0.0178094
642.020	0.0178564
642.098	0.0178552
642.176	0.0177363
642.254	0.0178925
642.332	0.0178370
642.410	0.0179220
642.488	0.0179945
642.567	0.0180120
642.645	0.0178469
642.723	0.0179372
642.801	0.0179065
642.879	0.0180270
642.957	0.0179132
643.035	0.0179723
643.113	0.0179474
643.192	0.0179357
643.270	0.0178706
643.348	0.0179531
643.426	0.0178521
643.504	0.0178477
643.582	0.0178487
643.660	0.0177847
643.738	0.0177422
643.817	0.0176368
643.895	0.0179013
643.973	0.0179220
644.051	0.0178069
644.129	0.0178646
644.207	0.0178950
644.285	0.0178461
644.363	0.0179987
644.442	0.0179800
644.520	0.0179088
644.598	0.0179697
644.676	0.0179802
644.754	0.0179884
644.832	0.0180444
644.910	0.0179575
644.988	0.0178777
645.067	0.0180165
645.145	0.0180607
645.223	0.0179688
645.301	0.0178733
645.379	0.0178319
645.457	0.0178974
645.535	0.0179018
645.613	0.0179424
645.692	0.0176271
645.770	0.0178181
645.848	0.0180322
645.926	0.0178348
646.004	0.0177905
646.082	0.0177665
646.160	0.0178658
646.238	0.0177764
646.317	0.0179067
646.395	0.0178357
646.473	0.0178495
646.551	0.0178448
646.629	0.0178988
646.707	0.0178745
646.785	0.0178579
646.863	0.0180147
646.942	0.0180641
647.020	0.0179682
647.098	0.0180638
647.176	0.0180640
647.254	0.0179619
647.332	0.0180710
647.410	0.0180139
647.488	0.0179249
647.567	0.0178587
647.645	0.0179259
647.723	0.0177870
647.801	0.0178493
647.879	0.0178618
647.957	0.0177588
648.035	0.0176163
648.113	0.0177258
648.192	0.0178385
648.270	0.0178683
648.348	0.0177251
648.426	0.0178276
648.504	0.0178127
648.582	0.0178322
648.660	0.0179331
648.738	0.0178344
648.817	0.0178703
648.895	0.0179124
648.973	0.0179450
649.051	0.0179149
649.129	0.0179459
649.207	0.0180170
649.285	0.0178656
649.363	0.0179460
649.442	0.0179837
649.520	0.0178437
649.598	0.0178841
649.676	0.0178893
649.754	0.0178052
649.832	0.0177463
649.910	0.0177435
649.988	0.0178728
650.067	0.0178281
650.145	0.0177920
650.223	0.0177814
650.301	0.0177148
650.379	0.0177354
650.457	0.0179382
650.535	0.0179580
650.613	0.0178902
650.692	0.0179374
650.770	0.0179433
650.848	0.0178448
650.926	0.0178262
651.004	0.0177915
651.082	0.0177559
651.160	0.0177380
651.238	0.0176556
651.317	0.0176674
651.395	0.0175033
651.473	0.0175799
651.551	0.0177262
651.629	0.0177869
651.707	0.0178459
651.785	0.0175877
651.863	0.0176778
651.942	0.0179119
652.020	0.0177795
652.098	0.0176774
652.176	0.0177236
652.254	0.0180199
652.332	0.0178523
652.410	0.0178935
652.488	0.0179006
652.567	0.0179343
652.645	0.0180032
652.723	0.0178487
652.801	0.0178825
652.879	0.0178642
652.957	0.0180476
653.035	0.0180239
653.113	0.0179041
653.192	0.0178840
653.270	0.0177882
653.348	0.0178115
653.426	0.0179568
653.504	0.0178112
653.582	0.0179493
653.660	0.0179917
653.738	0.0177763
653.817	0.0178401
653.895	0.0179362
653.973	0.0178773
654.051	0.0179325
654.129	0.0177157
654.207	0.0178288
654.285	0.0178919
654.363	0.0178834
654.442	0.0178092
654.520	0.0177898
654.598	0.0177151
654.676	0.0179554
654.754	0.0178355
654.832	0.0176964
654.910	0.0178332
654.988	0.0176919
655.067	0.0176726
655.145	0.0178321
655.223	0.0177140
655.301	0.0176766
655.379	0.0176261
655.457	0.0176214
655.535	0.0178062
655.613	0.0179094
655.692	0.0177637
655.770	0.0178474
655.848	0.0177355
655.926	0.0178117
656.004	0.0177748
656.082	0.0178003
656.160	0.0178044
656.238	0.0178677
656.317	0.0178717
656.395	0.0179318
656.473	0.0179929
656.551	0.0178516
656.629	0.0180489
656.707	0.0179765
656.785	0.0179789
656.863	0.0180242
656.942	0.0180331
657.020	0.0179562
657.098	0.0178765
657.176	0.0178876
657.254	0.0180045
657.332	0.0178207
657.410	0.0178199
657.488	0.0179761
657.567	0.0177734
657.645	0.0177730
657.723	0.0176878
657.801	0.0177361
657.879	0.0177088
657.957	0.0177390
658.035	0.0176607
658.113	0.0176110
658.192	0.0178059
658.270	0.0177911
658.348	0.0177590
658.426	0.0178067
658.504	0.0177981
658.582	0.0178773
658.660	0.0178492
658.738	0.0177307
658.817	0.0179224
658.895	0.0178970
658.973	0.0178271
659.051	0.0177686
659.129	0.0177213
659.207	0.0178007
659.285	0.0176823
659.363	0.0176271
659.442	0.0177322
659.520	0.0177864
659.598	0.0176693
659.676	0.0177917
659.754	0.0177213
659.832	0.0177806
659.910	0.0177290
659.988	0.0177730
660.067	0.0177299
660.145	0.0177721
660.223	0.0177437
660.301	0.0177734
660.379	0.0178492
660.457	0.0178881
660.535	0.0179350
660.613	0.0178201
660.692	0.0178747
660.770	0.0178864
660.848	0.0179694
660.926	0.0181251
661.004	0.0180392
661.082	0.0179542
661.160	0.0180228
661.238	0.0180359
661.317	0.0181239
661.395	0.0179770
661.473	0.0179954
661.551	0.0179237
661.629	0.0179206
661.707	0.0180090
661.785	0.0178715
661.863	0.0178665
661.942	0.0178902
662.020	0.0179477
662.098	0.0177517
662.176	0.0177660
662.254	0.0177912
662.332	0.0176226
662.410	0.0175999
662.488	0.0176997
662.567	0.0178660
662.645	0.0177109
662.723	0.0177876
662.801	0.0177799
662.879	0.0179037
662.957	0.0177248
663.035	0.0178984
663.113	0.0178225
663.192	0.0178770
663.270	0.0178072
663.348	0.0178366
663.426	0.0178278
663.504	0.0177960
663.582	0.0178113
663.660	0.0178411
663.738	0.0178128
663.817	0.0178975
663.895	0.0178559
663.973	0.0178801
664.051	0.0178442
664.129	0.0177786
664.207	0.0179571
664.285	0.0179848
664.363	0.0179527
664.442	0.0178366
664.520	0.0177714
664.598	0.0177998
664.676	0.0178731
664.754	0.0179783
664.832	0.0179871
664.910	0.0178563
664.988	0.0179955
665.067	0.0180971
665.145	0.0178640
665.223	0.0179581
665.301	0.0179237
665.379	0.0177722
665.457	0.0178542
665.535	0.0177773
665.613	0.0177659
665.692	0.0178390
665.770	0.0177871
665.848	0.0177956
665.926	0.0177750
666.004	0.0177516
666.082	0.0179144
666.160	0.0177480
666.238	0.0177305
666.317	0.0178754
666.395	0.0178313
666.473	0.0178243
666.551	0.0180107
666.629	0.0178548
666.707	0.0179350
666.785	0.0179596
666.863	0.0179729
666.942	0.0179698
667.020	0.0180959
667.098	0.0180733
667.176	0.0179094
667.254	0.0180143
667.332	0.0179230
667.410	0.0179370
667.488	0.0179475
667.567	0.0179517
667.645	0.0178921
667.723	0.0178068
667.801	0.0178479
667.879	0.0179351
667.957	0.0177674
668.035	0.0176283
668.113	0.0176723
668.192	0.0176122
668.270	0.0176873
668.348	0.0177647
668.426	0.0176544
668.504	0.0176550
668.582	0.0178191
668.660	0.0177429
668.738	0.0177441
668.817	0.0176824
668.895	0.0177108
668.973	0.0177637
669.051	0.0177833
669.129	0.0177927
669.207	0.0177320
669.285	0.0177750
669.363	0.0178195
669.442	0.0178793
669.520	0.0178699
669.598	0.0177232
669.676	0.0177300
669.754	0.0178193
669.832	0.0178860
669.910	0.0179285
669.988	0.0178785
670.067	0.0178295
670.145	0.0178325
670.223	0.0179330
670.301	0.0177760
670.379	0.0177847
670.457	0.0177621
670.535	0.0178635
670.613	0.0180097
670.692	0.0178364
670.770	0.0178149
670.848	0.0179881
670.926	0.0178767
671.004	0.0179003
671.082	0.0179962
671.160	0.0180385
671.238	0.0179210
671.317	0.0180570
671.395	0.0179646
671.473	0.0179947
671.551	0.0179564
671.629	0.0180206
671.707	0.0179709
671.785	0.0179324
671.863	0.0177572
671.942	0.0178568
672.020	0.0177494
672.098	0.0178262
672.176	0.0178149
672.254	0.0176739
672.332	0.0178568
672.410	0.0177739
672.488	0.0177684
672.567	0.0177134
672.645	0.0177236
672.723	0.0177676
672.801	0.0178132
672.879	0.0176626
672.957	0.0178127
673.035	0.0177780
673.113	0.0178208
673.192	0.0178734
673.270	0.0178995
673.348	0.0177373
673.426	0.0178711
673.504	0.0177671
673.582	0.0177271
673.660	0.0177815
673.738	0.0177218
673.817	0.0177248
673.895	0.0178468
673.973	0.0177819
674.051	0.0178107
674.129	0.0178568
674.207	0.0178774
674.285	0.0179356
674.363	0.0179077
674.442	0.0179016
674.520	0.0180058
674.598	0.0180104
674.676	0.0179595
674.754	0.0180939
674.832	0.0179909
674.910	0.0180339
674.988	0.0180610
675.067	0.0178923
675.145	0.0177824
675.223	0.0177704
675.301	0.0178618
675.379	0.0178459
675.457	0.0177837
675.535	0.0176729
675.613	0.0175281
675.692	0.0173643
675.770	0.0174470
675.848	0.0173782
675.926	0.0174271
676.004	0.0174171
676.082	0.0174605
676.160	0.0174646
676.238	0.0175237
676.317	0.0175230
676.395	0.0176139
676.473	0.0175134
676.551	0.0176661
676.629	0.0178814
676.707	0.0179511
676.785	0.0179224
676.863	0.0179829
676.942	0.0180631
677.020	0.0180576
677.098	0.0180035
677.176	0.0181028
677.254	0.0179881
677.332	0.0181303
677.410	0.0180402
677.488	0.0181365
677.567	0.0179018
677.645	0.0180484
677.723	0.0177721
677.801	0.0177052
677.879	0.0179578
677.957	0.0178443
678.035	0.0177926
678.113	0.0177612
678.192	0.0177178
678.270	0.0176686
678.348	0.0178111
678.426	0.0180933
678.504	0.0180266
678.582	0.0180199
678.660	0.0181474
678.738	0.0182221
678.817	0.0182909
678.895	0.0181722
678.973	0.0183543
679.051	0.0184835
679.129	0.0183444
679.207	0.0184564
679.285	0.0183424
679.363	0.0181973
679.442	0.0181066
679.520	0.0179207
679.598	0.0177325
679.676	0.0175285
679.754	0.0173709
679.832	0.0173646
679.910	0.0172848
679.988	0.0169908
680.067	0.0170081
680.145	0.0168996
680.223	0.0168073
680.301	0.0167877
680.379	0.0169332
680.457	0.0169426
680.535	0.0170980
680.613	0.0171291
680.692	0.0171999
680.770	0.0171701
680.848	0.0172771
680.926	0.0175144
681.004	0.0175453
681.082	0.0177103
681.160	0.0179986
681.238	0.0179410
681.317	0.0182265
681.395	0.0183588
681.473	0.0184205
681.551	0.0186916
681.629	0.0187731
681.707	0.0187933
681.785	0.0190086
681.863	0.0192084
681.942	0.0193769
682.020	0.0193752
682.098	0.0194009
682.176	0.0192824
682.254	0.0193055
682.332	0.0192146
682.410	0.0192107
682.488	0.0189780
682.567	0.0189941
682.645	0.0186726
682.723	0.0183517
682.801	0.0180619
682.879	0.0179499
682.957	0.0177255
683.035	0.0172253
683.113	0.0170851
683.192	0.0169688
683.270	0.0166928
683.348	0.0164439
683.426	0.0163972
683.504	0.0163310
683.582	0.0160286
683.660	0.0160041
683.738	0.0161649
683.817	0.0161478
683.895	0.0161726
683.973	0.0162951
684.051	0.0164571
684.129	0.0165073
684.207	0.0167066
684.285	0.0168752
684.363	0.0170771
684.442	0.0172798
684.520	0.0173956
684.598	0.0177709
684.676	0.0180206
684.754	0.0182179
684.832	0.0184599
684.910	0.0186644
684.988	0.0189295
685.067	0.0190472
685.145	0.0191676
685.223	0.0194043
685.301	0.0194341
685.379	0.0197562
685.457	0.0199289
685.535	0.0200925
685.613	0.0200273
685.692	0.0201073
685.770	0.0199417
685.848	0.0199136
685.926	0.0198863
686.004	0.0198479
686.082	0.0196232
686.160	0.0194715
686.238	0.0192586
686.317	0.0190397
686.395	0.0185157
686.473	0.0184335
686.551	0.0181429
686.629	0.0178133
686.707	0.0174763
686.785	0.0170653
686.863	0.0169138
686.942	0.0166207
687.020	0.0163459
687.098	0.0162025
687.176	0.0161937
687.254	0.0159138
687.332	0.0158353
687.410	0.0158706
687.488	0.0158475
687.567	0.0159611
687.645	0.0160561
687.723	0.0158502
687.801	0.0163079
687.879	0.0162018
687.957	0.0163331
688.035	0.0165955
688.113	0.0166370
688.192	0.0168825
688.270	0.0172825
688.348	0.0174889
688.426	0.0177338
688.504	0.0180001
688.582	0.0181856
688.660	0.0185264
688.738	0.0187621
688.817	0.0188486
688.895	0.0192216
688.973	0.0193220
689.051	0.0194255
689.129	0.0195698
689.207	0.0195107
689.285	0.0196631
689.363	0.0197542
689.442	0.0196233
689.520	0.0196595
689.598	0.0195187
689.676	0.0195164
689.754	0.0193761
689.832	0.0193813
689.910	0.0191564
689.988	0.0189812
690.067	0.0189483
690.145	0.0187918
690.223	0.0188297
690.301	0.0185261
690.379	0.0184312
690.457	0.0181644
690.535	0.0179892
690.613	0.0179161
690.692	0.0175685
690.770	0.0174199
690.848	0.0171582
690.926	0.0168333
691.004	0.0165867
691.082	0.0163455
691.160	0.0162407
691.238	0.0159476
691.317	0.0159059
691.395	0.0158047
691.473	0.0157779
691.551	0.0157033
691.629	0.0156464
691.707	0.0158053
691.785	0.0157811
691.863	0.0159308
691.942	0.0161286
692.020	0.0163410
692.098	0.0166389
692.176	0.0166474
692.254	0.0169628
692.332	0.0173639
692.410	0.0175587
692.488	0.0176977
692.567	0.0178706
692.645	0.0181692
692.723	0.0182555
692.801	0.0184000
692.879	0.0185887
692.957	0.0187786
693.035	0.0188821
693.113	0.0190182
693.192	0.0191022
693.270	0.0191373
693.348	0.0190933
693.426	0.0191576
693.504	0.0190913
693.582	0.0189954
693.660	0.0190322
693.738	0.0189249
693.817	0.0188627
693.895	0.0188369
693.973	0.0188223
694.051	0.0187370
694.129	0.0186330
694.207	0.0185951
694.285	0.0185397
694.363	0.0183601
694.442	0.0182803
694.520	0.0182080
694.598	0.0182202
694.676	0.0181086
694.754	0.0180689
694.832	0.0180276
694.910	0.0178996
694.988	0.0177791
695.067	0.0178313
695.145	0.0176815
695.223	0.0176910
695.301	0.0176450
695.379	0.0177258
695.457	0.0173398
695.535	0.0172408
695.613	0.0172763
695.692	0.0172388
695.770	0.0171058
695.848	0.0170277
695.926	0.0167831
696.004	0.0166519
696.082	0.0165164
696.160	0.0165501
696.238	0.0165921
696.317	0.0163463
696.395	0.0162301
696.473	0.0162813
696.551	0.0164171
696.629	0.0163510
696.707	0.0164366
696.785	0.0163705
696.863	0.0163594
696.942	0.0165598
697.020	0.0165497
697.098	0.0168611
697.176	0.0169426
697.254	0.0172031
697.332	0.0175806
697.410	0.0177838
697.488	0.0179016
697.567	0.0180522
697.645	0.0185426
697.723	0.0186877
697.801	0.0188197
697.879	0.0190204
697.957	0.0192871
698.035	0.0192604
698.113	0.0193908
698.192	0.0194583
698.270	0.0195973
698.348	0.0194471
698.426	0.0195150
698.504	0.0195309
698.582	0.0195156
698.660	0.0195029
698.738	0.0194379
698.817	0.0195082
698.895	0.0193647
698.973	0.0191750
699.051	0.0191073
699.129	0.0190089
699.207	0.0188434
699.285	0.0187090
699.363	0.0184373
699.442	0.0182822
699.520	0.0180359
699.598	0.0179433
699.676	0.0176632
699.754	0.0176633
699.832	0.0174728
699.910	0.0173770
699.988	0.0170854
700.067	0.0169738
700.145	0.0169555
700.223	0.0168937
700.301	0.0169872
700.379	0.0170030
700.457	0.0168349
700.535	0.0168857
700.613	0.0168880
700.692	0.0167765
700.770	0.0167382
700.848	0.0167600
700.926	0.0167397
701.004	0.0167563
701.082	0.0166228
701.160	0.0165774
701.238	0.0165562
701.317	0.0165122
701.395	0.0164489
701.473	0.0167381
701.551	0.0164381
701.629	0.0165855
701.707	0.0167693
701.785	0.0169018
701.863	0.0169507
701.942	0.0171339
702.020	0.0173468
702.098	0.0175266
702.176	0.0177725
702.254	0.0178716
702.332	0.0181933
702.410	0.0183243
702.488	0.0185939
702.567	0.0186703
702.645	0.0189075
702.723	0.0189050
702.801	0.0191293
702.879	0.0192332
702.957	0.0193709
703.035	0.0195861
703.113	0.0197194
703.192	0.0197750
703.270	0.0197793
703.348	0.0199817
703.426	0.0199590
703.504	0.0199976
703.582	0.0198756
703.660	0.0198734
703.738	0.0198837
703.817	0.0195467
703.895	0.0193362
703.973	0.0191149
704.051	0.0188754
704.129	0.0186098
704.207	0.0183344
704.285	0.0180998
704.363	0.0177057
704.442	0.0173994
704.520	0.0172717
704.598	0.0169478
704.676	0.0167163
704.754	0.0165175
704.832	0.0164635
704.910	0.0161730
704.988	0.0159763
705.067	0.0160278
705.145	0.0158590
705.223	0.0157545
705.301	0.0157955
705.379	0.0159026
705.457	0.0158830
705.535	0.0162642
705.613	0.0163308
705.692	0.0164879
705.770	0.0169828
705.848	0.0173918
705.926	0.0175876
706.004	0.0177262
706.082	0.0179993
706.160	0.0183554
706.238	0.0186784
706.317	0.0189966
706.395	0.0191792
706.473	0.0192764
706.551	0.0193668
706.629	0.0194835
706.707	0.0192982
706.785	0.0192043
706.863	0.0191376
706.942	0.0188132
707.020	0.0186450
707.098	0.0185969
707.176	0.0181188
707.254	0.0179926
707.332	0.0176732
707.410	0.0173909
707.488	0.0171976
707.567	0.0170947
707.645	0.0169168
707.723	0.0167893
707.801	0.0167599
707.879	0.0165828
707.957	0.0165869
708.035	0.0166637
708.113	0.0168026
708.192	0.0168795
708.270	0.0169732
708.348	0.0170946
708.426	0.0174231
708.504	0.0175654
708.582	0.0178584
708.660	0.0181083
708.738	0.0182516
708.817	0.0185224
708.895	0.0188054
708.973	0.0190571
709.051	0.0191224
709.129	0.0194005
709.207	0.0195157
709.285	0.0197168
709.363	0.0195989
709.442	0.0197652
709.520	0.0196637
709.598	0.0197523
709.676	0.0197311
709.754	0.0198135
709.832	0.0196014
709.910	0.0194390
709.988	0.0192695
710.067	0.0191578
710.145	0.0189503
710.223	0.0187403
710.301	0.0186827
710.379	0.0183169
710.457	0.0180723
710.535	0.0179626
710.613	0.0178767
710.692	0.0174484
710.770	0.0174072
710.848	0.0171009
710.926	0.0168056
711.004	0.0167803
711.082	0.0166069
711.160	0.0164002
711.238	0.0163918
711.317	0.0162579
711.395	0.0162234
711.473	0.0162759
711.551	0.0161125
711.629	0.0161187
711.707	0.0162213
711.785	0.0163248
711.863	0.0164848
711.942	0.0166451
712.020	0.0164851
712.098	0.0168235
712.176	0.0168893
712.254	0.0169300
712.332	0.0170616
712.410	0.0173569
712.488	0.0173390
712.567	0.0173491
712.645	0.0173399
712.723	0.0174480
712.801	0.0176402
712.879	0.0177069
712.957	0.0176738
713.035	0.0178534
713.113	0.0176911
713.192	0.0178169
713.270	0.0179368
713.348	0.0179916
713.426	0.0180594
713.504	0.0180819
713.582	0.0183382
713.660	0.0184264
713.738	0.0185094
713.817	0.0186084
713.895	0.0187675
713.973	0.0187358
714.051	0.0188816
714.129	0.0189269
714.207	0.0191035
714.285	0.0191257
714.363	0.0191941
714.442	0.0191338
714.520	0.0192124
714.598	0.0192604
714.676	0.0192998
714.754	0.0192535
714.832	0.0192244
714.910	0.0190321
714.988	0.0191180
715.067	0.0191952
715.145	0.0188950
715.223	0.0188174
715.301	0.0187659
715.379	0.0185879
715.457	0.0185046
715.535	0.0182365
715.613	0.0180136
715.692	0.0180082
715.770	0.0178534
715.848	0.0174086
715.926	0.0173852
716.004	0.0173402
716.082	0.0171439
716.160	0.0168613
716.238	0.0168897
716.317	0.0169952
716.395	0.0168730
716.473	0.0167149
716.551	0.0166812
716.629	0.0168561
716.707	0.0167647
716.785	0.0167846
716.863	0.0167287
716.942	0.0168354
717.020	0.0168188
717.098	0.0168565
717.176	0.0169720
717.254	0.0170498
717.332	0.0172017
717.410	0.0171033
717.488	0.0172004
717.567	0.0170882
717.645	0.0171246
717.723	0.0172581
717.801	0.0175687
717.879	0.0174113
717.957	0.0173990
718.035	0.0173802
718.113	0.0175523
718.192	0.0175944
718.270	0.0177000
718.348	0.0177946
718.426	0.0176875
718.504	0.0175681
718.582	0.0177174
718.660	0.0178264
718.738	0.0176750
718.817	0.0175934
718.895	0.0176916
718.973	0.0177132
719.051	0.0176841
719.129	0.0176280
719.207	0.0175786
719.285	0.0178146
719.363	0.0178154
719.442	0.0180219
719.520	0.0181120
719.598	0.0183333
719.676	0.0184345
719.754	0.0185808
719.832	0.0188365
719.910	0.0188908
719.988	0.0190170
720.067	0.0191428
720.145	0.0191483
720.223	0.0192979
720.301	0.0192626
720.379	0.0192482
720.457	0.0191353
720.535	0.0191003
720.613	0.0190502
720.692	0.0188049
720.770	0.0188292
720.848	0.0188166
720.926	0.0186748
721.004	0.0184447
721.082	0.0184983
721.160	0.0184392
721.238	0.0182534
721.317	0.0183313
721.395	0.0183414
721.473	0.0184108
721.551	0.0181963
721.629	0.0181207
721.707	0.0179183
721.785	0.0179675
721.863	0.0179335
721.942	0.0179323
722.020	0.0179745
722.098	0.0178026
722.176	0.0178349
722.254	0.0178391
722.332	0.0177524
722.410	0.0176426
722.488	0.0174597
722.567	0.0174113
722.645	0.0173795
722.723	0.0171479
722.801	0.0171168
722.879	0.0171911
722.957	0.0171083
723.035	0.0168736
723.113	0.0167134
723.192	0.0168370
723.270	0.0167448
723.348	0.0165391
723.426	0.0165564
723.504	0.0165469
723.582	0.0163993
723.660	0.0163455
723.738	0.0163907
723.817	0.0165719
723.895	0.0166084
723.973	0.0165041
724.051	0.0167443
724.129	0.0168138
724.207	0.0170584
724.285	0.0171642
724.363	0.0171853
724.442	0.0175385
724.520	0.0175938
724.598	0.0177825
724.676	0.0179048
724.754	0.0178988
724.832	0.0181112
724.910	0.0182722
724.988	0.0183835
725.067	0.0183743
725.145	0.0185271
725.223	0.0185408
725.301	0.0187010
725.379	0.0186827
725.457	0.0187636
725.535	0.0189500
725.613	0.0189008
725.692	0.0187590
725.770	0.0188115
725.848	0.0188678
725.926	0.0188461
726.004	0.0188019
726.082	0.0189102
726.160	0.0188901
726.238	0.0189520
726.317	0.0187971
726.395	0.0188374
726.473	0.0187972
726.551	0.0188613
726.629	0.0188922
726.707	0.0188853
726.785	0.0189700
726.863	0.0187385
726.942	0.0187600
727.020	0.0188921
727.098	0.0186854
727.176	0.0186207
727.254	0.0184743
727.332	0.0183434
727.410	0.0182941
727.488	0.0180832
727.567	0.0179839
727.645	0.0179211
727.723	0.0177538
727.801	0.0178854
727.879	0.0175493
727.957	0.0174384
728.035	0.0175099
728.113	0.0175623
728.192	0.0173757
728.270	0.0174244
728.348	0.0175388
728.426	0.0174384
728.504	0.0175031
728.582	0.0174770
728.660	0.0174107
728.738	0.0173085
728.817	0.0174340
728.895	0.0175305
728.973	0.0172486
729.051	0.0173727
729.129	0.0173755
729.207	0.0173317
729.285	0.0172572
729.363	0.0173333
729.442	0.0172721
729.520	0.0170457
729.598	0.0171677
729.676	0.0171245
729.754	0.0169407
729.832	0.0170576
729.910	0.0170368
729.988	0.0169435
730.067	0.0168059
730.145	0.0167211
730.223	0.0170612
730.301	0.0171124
730.379	0.0171414
730.457	0.0170094
730.535	0.0170876
730.613	0.0172107
730.692	0.0174224
730.770	0.0173923
730.848	0.0173896
730.926	0.0176289
731.004	0.0177537
731.082	0.0177737
731.160	0.0180408
731.238	0.0180103
731.317	0.0180964
731.395	0.0181416
731.473	0.0182913
731.551	0.0182539
731.629	0.0183370
731.707	0.0184496
731.785	0.0185030
731.863	0.0183745
731.942	0.0183876
732.020	0.0183292
732.098	0.0182973
732.176	0.0183160
732.254	0.0183593
732.332	0.0181588
732.410	0.0182074
732.488	0.0182483
732.567	0.0185058
732.645	0.0183793
732.723	0.0184619
732.801	0.0184978
732.879	0.0186378
732.957	0.0186682
733.035	0.0189377
733.113	0.0190569
733.192	0.0191590
733.270	0.0191203
733.348	0.0190363
733.426	0.0191019
733.504	0.0188515
733.582	0.0188416
733.660	0.0186649
733.738	0.0185687
733.817	0.0185179
733.895	0.0182228
733.973	0.0181091
734.051	0.0179855
734.129	0.0179583
734.207	0.0178519
734.285	0.0176682
734.363	0.0176756
734.442	0.0176100
734.520	0.0175414
734.598	0.0175429
734.676	0.0174435
734.754	0.0175739
734.832	0.0176004
734.910	0.0175804
734.988	0.0175744
735.067	0.0175410
735.145	0.0175948
735.223	0.0174606
735.301	0.0175801
735.379	0.0174712
735.457	0.0174466
735.535	0.0173512
735.613	0.0173454
735.692	0.0173338
735.770	0.0173648
735.848	0.0171767
735.926	0.0172439
736.004	0.0172198
736.082	0.0170214
736.160	0.0170718
736.238	0.0169880
736.317	0.0170701
736.395	0.0168702
736.473	0.0169208
736.551	0.0171406
736.629	0.0170364
736.707	0.0171841
736.785	0.0171619
736.863	0.0172216
736.942	0.0172296
737.020	0.0173953
737.098	0.0175095
737.176	0.0176437
737.254	0.0177258
737.332	0.0179732
737.410	0.0178887
737.488	0.0179894
737.567	0.0181697
737.645	0.0180380
737.723	0.0180627
737.801	0.0181995
737.879	0.0182162
737.957	0.0182838
738.035	0.0184813
738.113	0.0184851
738.192	0.0183183
738.270	0.0183289
738.348	0.0183970
738.426	0.0185081
738.504	0.0185793
738.582	0.0183754
738.660	0.0184534
738.738	0.0185289
738.817	0.0184563
738.895	0.0183350
738.973	0.0183575
739.051	0.0183125
739.129	0.0181664
739.207	0.0182062
739.285	0.0181181
739.363	0.0180850
739.442	0.0181009
739.520	0.0182326
739.598	0.0180482
739.676	0.0181294
739.754	0.0180849
739.832	0.0182654
739.910	0.0182204
739.988	0.0182833
740.067	0.0182891
740.145	0.0183633
740.223	0.0182256
740.301	0.0182169
740.379	0.0181432
740.457	0.0181091
740.535	0.0179982
740.613	0.0178803
740.692	0.0178514
740.770	0.0177463
740.848	0.0176652
740.926	0.0177380
741.004	0.0175402
741.082	0.0174077
741.160	0.0174580
741.238	0.0172747
741.317	0.0172906
741.395	0.0173186
741.473	0.0173944
741.551	0.0173643
741.629	0.0175230
741.707	0.0176397
741.785	0.0175459
741.863	0.0175559
741.942	0.0175196
742.020	0.0176374
742.098	0.0176239
742.176	0.0178438
742.254	0.0177034
742.332	0.0176708
742.410	0.0176680
742.488	0.0178365
742.567	0.0176110
742.645	0.0177146
742.723	0.0176019
742.801	0.0176572
742.879	0.0176402
742.957	0.0177421
743.035	0.0175539
743.113	0.0174054
743.192	0.0175661
743.270	0.0174584
743.348	0.0174565
743.426	0.0174336
743.504	0.0173587
743.582	0.0173724
743.660	0.0174405
743.738	0.0173615
743.817	0.0174532
743.895	0.0175510
743.973	0.0176618
744.051	0.0176963
744.129	0.0178210
744.207	0.0178826
744.285	0.0179433
744.363	0.0181152
744.442	0.0182014
744.520	0.0182107
744.598	0.0181606
744.676	0.0184312
744.754	0.0182565
744.832	0.0182966
744.910	0.0185352
744.988	0.0184888
745.067	0.0184908
745.145	0.0185287
745.223	0.0183701
745.301	0.0184785
745.379	0.0182977
745.457	0.0182293
745.535	0.0182708
745.613	0.0181441
745.692	0.0180953
745.770	0.0179758
745.848	0.0179878
745.926	0.0179607
746.004	0.0179408
746.082	0.0178419
746.160	0.0178690
746.238	0.0178024
746.317	0.0178870
746.395	0.0178381
746.473	0.0178265
746.551	0.0177350
746.629	0.0179772
746.707	0.0179146
746.785	0.0179855
746.863	0.0180866
746.942	0.0179335
747.020	0.0179578
747.098	0.0180866
747.176	0.0180245
747.254	0.0180265
747.332	0.0180062
747.410	0.0179707
747.488	0.0180865
747.567	0.0180107
747.645	0.0178828
747.723	0.0177991
747.801	0.0179009
747.879	0.0177823
747.957	0.0178407
748.035	0.0178226
748.113	0.0177964
748.192	0.0178239
748.270	0.0178330
748.348	0.0177522
748.426	0.0177631
748.504	0.0179091
748.582	0.0179765
748.660	0.0177262
748.738	0.0178130
748.817	0.0177851
748.895	0.0179285
748.973	0.0180253
749.051	0.0178614
749.129	0.0178480
749.207	0.0179223
749.285	0.0179491
749.363	0.0180106
749.442	0.0180627
749.520	0.0180350
749.598	0.0180269
749.676	0.0181446
749.754	0.0181627
749.832	0.0181869
749.910	0.0181878
749.988	0.0181368
750.067	0.0182857
750.145	0.0181988
750.223	0.0182137
750.301	0.0181335
750.379	0.0182270
750.457	0.0179759
750.535	0.0180070
750.613	0.0179231
750.692	0.0177351
750.770	0.0178736
750.848	0.0176464
750.926	0.0175878
751.004	0.0175246
751.082	0.0175204
751.160	0.0173582
751.238	0.0174654
751.317	0.0174583
751.395	0.0173577
751.473	0.0174198
751.551	0.0174587
751.629	0.0173914
751.707	0.0176277
751.785	0.0176482
751.863	0.0178003
751.942	0.0177732
752.020	0.0178417
752.098	0.0178136
752.176	0.0179036
752.254	0.0180659
752.332	0.0181915
752.410	0.0180773
752.488	0.0179317
752.567	0.0181184
752.645	0.0180266
752.723	0.0180011
752.801	0.0180571
752.879	0.0179453
752.957	0.0179591
753.035	0.0180132
753.113	0.0180294
753.192	0.0180755
753.270	0.0178745
753.348	0.0178517
753.426	0.0177608
753.504	0.0178708
753.582	0.0176863
753.660	0.0179201
753.738	0.0178085
753.817	0.0179184
753.895	0.0178961
753.973	0.0177260
754.051	0.0179260
754.129	0.0179441
754.207	0.0178362
754.285	0.0178352
754.363	0.0180663
754.442	0.0178867
754.520	0.0178674
754.598	0.0179948
754.676	0.0180122
754.754	0.0180505
754.832	0.0180602
754.910	0.0179893
754.988	0.0179962
755.067	0.0180511
755.145	0.0180137
755.223	0.0180083
755.301	0.0179267
755.379	0.0180413
755.457	0.0180256
755.535	0.0179755
755.613	0.0179768
755.692	0.0179102
755.770	0.0180471
755.848	0.0179736
755.926	0.0181153
756.004	0.0182058
756.082	0.0181128
756.160	0.0182772
756.238	0.0182273
756.317	0.0182102
756.395	0.0182065
756.473	0.0183504
756.551	0.0182848
756.629	0.0182109
756.707	0.0180127
756.785	0.0180815
756.863	0.0182191
756.942	0.0181031
757.020	0.0180592
757.098	0.0179397
757.176	0.0178909
757.254	0.0176985
757.332	0.0177513
757.410	0.0176628
757.488	0.0176753
757.567	0.0175233
757.645	0.0175172
757.723	0.0174652
757.801	0.0173504
757.879	0.0173892
757.957	0.0172923
758.035	0.0172321
758.113	0.0174342
758.192	0.0175642
758.270	0.0175195
758.348	0.0174403
758.426	0.0175346
758.504	0.0178510
758.582	0.0178922
758.660	0.0179090
758.738	0.0178870
758.817	0.0180996
758.895	0.0181536
758.973	0.0180129
759.051	0.0180208
759.129	0.0179955
759.207	0.0179385
759.285	0.0179023
759.363	0.0179167
759.442	0.0178037
759.520	0.0177951
759.598	0.0176427
759.676	0.0176306
759.754	0.0175054
759.832	0.0174355
759.910	0.0173753
759.988	0.0174029
760.067	0.0174356
760.145	0.0174550
760.223	0.0175527
760.301	0.0175063
760.379	0.0176678
760.457	0.0176852
760.535	0.0177470
760.613	0.0178845
760.692	0.0180251
760.770	0.0180440
760.848	0.0180534
760.926	0.0181202
761.004	0.0180999
761.082	0.0180330
761.160	0.0181568
761.238	0.0180273
761.317	0.0178984
761.395	0.0179726
761.473	0.0178054
761.551	0.0177242
761.629	0.0177182
761.707	0.0178094
761.785	0.0177618
761.863	0.0176925
761.942	0.0175910
762.020	0.0176639
762.098	0.0175298
762.176	0.0176032
762.254	0.0176646
762.332	0.0176157
762.410	0.0177213
762.488	0.0178656
762.567	0.0179937
762.645	0.0179339
762.723	0.0180977
762.801	0.0180759
762.879	0.0181539
762.957	0.0183286
763.035	0.0183224
763.113	0.0183184
763.192	0.0184638
763.270	0.0184921
763.348	0.0184764
763.426	0.0185693
763.504	0.0185423
763.582	0.0184052
763.660	0.0185326
763.738	0.0184637
763.817	0.0183870
763.895	0.0182242
763.973	0.0181952
764.051	0.0182307
764.129	0.0182243
764.207	0.0180629
764.285	0.0181009
764.363	0.0180209
764.442	0.0180043
764.520	0.0179375
764.598	0.0179095
764.676	0.0178855
764.754	0.0178076
764.832	0.0177540
764.910	0.0177492
764.988	0.0177116
765.067	0.0177516
765.145	0.0175519
765.223	0.0175578
765.301	0.0173297
765.379	0.0174374
765.457	0.0174789
765.535	0.0173737
765.613	0.0172094
765.692	0.0171508
765.770	0.0173776
765.848	0.0172894
765.926	0.0172638
766.004	0.0173254
766.082	0.0174419
766.160	0.0174623
766.238	0.0174141
766.317	0.0174294
766.395	0.0176214
766.473	0.0175471
766.551	0.0176672
766.629	0.0176454
766.707	0.0177629
766.785	0.0177230
766.863	0.0177711
766.942	0.0178058
767.020	0.0177784
767.098	0.0178569
767.176	0.0176500
767.254	0.0177082
767.332	0.0176773
767.410	0.0178952
767.488	0.0178315
767.567	0.0177032
767.645	0.0177345
767.723	0.0177259
767.801	0.0176709
767.879	0.0175620
767.957	0.0176604
768.035	0.0176768
768.113	0.0177200
768.192	0.0177468
768.270	0.0178664
768.348	0.0177738
768.426	0.0179456
768.504	0.0180576
768.582	0.0180769
768.660	0.0179905
768.738	0.0183060
768.817	0.0181885
768.895	0.0182865
768.973	0.0184340
769.051	0.0183858
769.129	0.0181353
769.207	0.0182395
769.285	0.0184583
769.363	0.0183392
769.442	0.0182298
769.520	0.0181057
769.598	0.0180465
769.676	0.0179890
769.754	0.0181286
769.832	0.0179774
769.910	0.0177534
769.988	0.0178169
770.067	0.0176965
770.145	0.0176962
770.223	0.0178362
770.301	0.0177312
770.379	0.0176390
770.457	0.0176577
770.535	0.0177271
770.613	0.0177438
770.692	0.0178706
770.770	0.0177937
770.848	0.0179301
770.926	0.0181906
771.004	0.0181445
771.082	0.0179488
771.160	0.0181409
771.238	0.0181612
771.317	0.0181586
771.395	0.0182388
771.473	0.0181987
771.551	0.0181770
771.629	0.0183131
771.707	0.0182207
771.785	0.0182222
771.863	0.0182178
771.942	0.0181831
772.020	0.0181442
772.098	0.0180480
772.176	0.0180642
772.254	0.0179298
772.332	0.0179293
772.410	0.0178519
772.488	0.0178245
772.567	0.0177713
772.645	0.0177627
772.723	0.0176970
772.801	0.0175327
772.879	0.0175740
772.957	0.0174910
773.035	0.0173959
773.113	0.0175109
773.192	0.0174196
773.270	0.0173134
773.348	0.0172342
773.426	0.0173546
773.504	0.0174610
773.582	0.0173605
773.660	0.0173986
773.738	0.0173923
773.817	0.0174471
773.895	0.0177233
773.973	0.0175474
774.051	0.0177975
774.129	0.0177454
774.207	0.0177438
774.285	0.0179099
774.363	0.0179512
774.442	0.0180163
774.520	0.0180626
774.598	0.0180769
774.676	0.0180930
774.754	0.0180817
774.832	0.0179377
774.910	0.0180338
774.988	0.0179599
775.067	0.0179607
775.145	0.0178306
775.223	0.0178398
775.301	0.0178127
775.379	0.0178828
775.457	0.0178488
775.535	0.0178865
775.613	0.0177809
775.692	0.0179068
775.770	0.0179523
775.848	0.0178839
775.926	0.0179424
776.004	0.0180061
776.082	0.0179081
776.160	0.0180860
776.238	0.0180666
776.317	0.0180554
776.395	0.0181815
776.473	0.0180071
776.551	0.0180411
776.629	0.0182510
776.707	0.0183775
776.785	0.0183118
776.863	0.0182287
776.942	0.0184349
777.020	0.0182987
777.098	0.0183736
777.176	0.0181769
777.254	0.0182290
777.332	0.0182372
777.410	0.0181702
777.488	0.0180753
777.567	0.0181540
777.645	0.0181015
777.723	0.0180711
777.801	0.0180869
777.879	0.0181235
777.957	0.0178983
778.035	0.0180306
778.113	0.0180826
778.192	0.0179989
778.270	0.0179460
778.348	0.0179790
778.426	0.0180313
778.504	0.0179612
778.582	0.0179734
778.660	0.0179633
778.738	0.0180328
778.817	0.0179245
778.895	0.0178751
778.973	0.0179823
779.051	0.0179371
779.129	0.0179813
779.207	0.0179498
779.285	0.0178159
779.363	0.0178590
779.442	0.0179215
779.520	0.0178991
779.598	0.0178744
779.676	0.0178498
779.754	0.0179974
779.832	0.0180521
779.910	0.0179940
779.988	0.0180028
780.067	0.0179944
780.145	0.0179628
780.223	0.0181399
780.301	0.0180727
780.379	0.0179964
780.457	0.0178152
780.535	0.0178065
780.613	0.0178535
780.692	0.0176601
780.770	0.0177890
780.848	0.0176217
780.926	0.0175735
781.004	0.0173676
781.082	0.0173383
781.160	0.0172943
781.238	0.0172712
781.317	0.0170166
781.395	0.0172163
781.473	0.0172927
781.551	0.0173134
781.629	0.0173388
781.707	0.0174022
781.785	0.0174017
781.863	0.0177290
781.942	0.0177508
782.020	0.0177821
782.098	0.0179509
782.176	0.0180589
782.254	0.0180029
782.332	0.0181071
782.410	0.0180157
782.488	0.0182599
782.567	0.0182234
782.645	0.0181301
782.723	0.0180471
782.801	0.0180508
782.879	0.0180705
782.957	0.0180057
783.035	0.0178744
783.113	0.0179688
783.192	0.0179374
783.270	0.0178262
783.348	0.0179053
783.426	0.0180615
783.504	0.0179895
783.582	0.0180119
783.660	0.0179649
783.738	0.0179727
783.817	0.0180307
783.895	0.0180489
783.973	0.0181358
784.051	0.0182478
784.129	0.0183196
784.207	0.0182893
784.285	0.0183445
784.363	0.0182982
784.442	0.0183887
784.520	0.0183833
784.598	0.0183401
784.676	0.0183468
784.754	0.0182952
784.832	0.0182353
784.910	0.0182108
784.988	0.0182182
785.067	0.0179639
785.145	0.0178485
785.223	0.0179788
785.301	0.0179195
785.379	0.0177761
785.457	0.0176900
785.535	0.0176862
785.613	0.0178633
785.692	0.0180544
785.770	0.0178540
785.848	0.0179152
785.926	0.0179695
786.004	0.0179777
786.082	0.0181548
786.160	0.0181673
786.238	0.0180907
786.317	0.0183662
786.395	0.0181852
786.473	0.0182008
786.551	0.0183675
786.629	0.0184553
786.707	0.0182693
786.785	0.0183335
786.863	0.0181305
786.942	0.0181538
787.020	0.0183417
787.098	0.0180836
787.176	0.0179146
787.254	0.0180019
787.332	0.0180022
787.410	0.0180134
787.488	0.0180004
787.567	0.0179344
787.645	0.0178880
787.723	0.0178266
787.801	0.0178170
787.879	0.0177763
787.957	0.0178690
788.035	0.0177862
788.113	0.0177077
788.192	0.0178127
788.270	0.0177059
788.348	0.0173935
788.426	0.0174759
788.504	0.0173643
788.582	0.0172920
788.660	0.0171531
788.738	0.0170776
788.817	0.0170598
788.895	0.0170921
788.973	0.0170599
789.051	0.0169310
789.129	0.0171615
789.207	0.0171590
789.285	0.0172705
789.363	0.0172578
789.442	0.0173456
789.520	0.0175919
789.598	0.0175497
789.676	0.0174969
789.754	0.0176984
789.832	0.0177465
789.910	0.0178761
789.988	0.0178709
790.067	0.0180290
790.145	0.0179485
790.223	0.0179610
790.301	0.0180564
790.379	0.0179860
790.457	0.0179105
790.535	0.0180749
790.613	0.0178296
790.692	0.0179911
790.770	0.0179664
790.848	0.0178768
790.926	0.0178361
791.004	0.0178855
791.082	0.0179522
791.160	0.0179680
791.238	0.0181419
791.317	0.0181668
791.395	0.0181318
791.473	0.0182431
791.551	0.0183474
791.629	0.0183999
791.707	0.0185065
791.785	0.0184176
791.863	0.0185339
791.942	0.0185356
792.020	0.0184680
792.098	0.0185503
792.176	0.0182166
792.254	0.0182660
792.332	0.0181821
792.410	0.0179544
792.488	0.0179428
792.567	0.0178684
792.645	0.0176812
792.723	0.0174113
792.801	0.0174564
792.879	0.0174102
792.957	0.0172696
793.035	0.0172682
793.113	0.0173070
793.192	0.0172478
793.270	0.0171750
793.348	0.0173946
793.426	0.0173360
793.504	0.0174847
793.582	0.0175024
793.660	0.0176091
793.738	0.0177705
793.817	0.0178501
793.895	0.0179572
793.973	0.0180820
794.051	0.0182342
794.129	0.0181987
794.207	0.0182848
794.285	0.0182571
794.363	0.0184702
794.442	0.0184563
794.520	0.0185706
794.598	0.0185337
794.676	0.0186116
794.754	0.0184145
794.832	0.0183280
794.910	0.0184480
794.988	0.0184149
795.067	0.0182696
795.145	0.0182769
795.223	0.0182854
795.301	0.0183225
795.379	0.0181414
795.457	0.0180371
795.535	0.0180893
795.613	0.0180153
795.692	0.0180386
795.770	0.0179291
795.848	0.0178501
795.926	0.0178348
796.004	0.0176575
796.082	0.0175806
796.160	0.0176334
796.238	0.0174615
796.317	0.0172504
796.395	0.0171219
796.473	0.0170660
796.551	0.0170234
796.629	0.0169630
796.707	0.0168005
796.785	0.0168858
796.863	0.0168728
796.942	0.0169038
797.020	0.0169453
797.098	0.0169602
797.176	0.0169774
797.254	0.0170609
797.332	0.0170208
797.410	0.0172298
797.488	0.0171336
797.567	0.0174072
797.645	0.0175668
797.723	0.0176311
797.801	0.0176826
797.879	0.0177421
797.957	0.0178220
798.035	0.0178532
798.113	0.0177744
798.192	0.0180415
798.270	0.0178959
798.348	0.0179594
798.426	0.0180000
798.504	0.0179018
798.582	0.0180412
798.660	0.0181117
798.738	0.0180959
798.817	0.0180151
798.895	0.0180272
798.973	0.0181678
799.051	0.0183414
799.129	0.0184541
799.207	0.0185104
799.285	0.0187379
799.363	0.0186208
799.442	0.0185991
799.520	0.0186916
799.598	0.0188042
799.676	0.0187373
799.754	0.0188247
799.832	0.0187624
799.910	0.0187168
799.988	0.0185921
800.067	0.0185096
800.145	0.0185211
800.223	0.0184937
800.301	0.0183380
800.379	0.0182310
800.457	0.0180344
800.535	0.0181419
800.613	0.0179029
800.692	0.0177618
800.770	0.0178223
800.848	0.0176976
800.926	0.0176553
801.004	0.0176374
801.082	0.0176929
801.160	0.0177840
801.238	0.0177218
801.317	0.0176173
801.395	0.0177416
801.473	0.0178830
801.551	0.0176933
801.629	0.0177899
801.707	0.0177677
801.785	0.0177316
801.863	0.0178966
801.942	0.0179181
802.020	0.0180112
802.098	0.0180383
802.176	0.0179022
802.254	0.0181398
802.332	0.0180996
802.410	0.0181131
802.488	0.0180849
802.567	0.0180897
802.645	0.0181815
802.723	0.0181653
802.801	0.0182658
802.879	0.0183242
802.957	0.0181937
803.035	0.0183363
803.113	0.0182242
803.192	0.0183550
803.270	0.0182462
803.348	0.0182270
803.426	0.0181902
803.504	0.0180817
803.582	0.0179696
803.660	0.0178921
803.738	0.0178127
803.817	0.0177844
803.895	0.0177184
803.973	0.0176584
804.051	0.0175010
804.129	0.0174322
804.207	0.0174101
804.285	0.0170994
804.363	0.0170998
804.442	0.0171520
804.520	0.0170790
804.598	0.0170461
804.676	0.0171289
804.754	0.0172324
804.832	0.0171404
804.910	0.0171384
804.988	0.0172070
805.067	0.0172900
805.145	0.0174863
805.223	0.0175070
805.301	0.0175003
805.379	0.0176591
805.457	0.0177290
805.535	0.0178295
805.613	0.0178902
805.692	0.0179290
805.770	0.0179221
805.848	0.0180999
805.926	0.0179646
806.004	0.0181416
806.082	0.0180651
806.160	0.0180277
806.238	0.0180536
806.317	0.0181138
806.395	0.0181853
806.473	0.0182471
806.551	0.0181606
806.629	0.0182745
806.707	0.0184933
806.785	0.0183794
806.863	0.0182663
806.942	0.0184097
807.020	0.0184540
807.098	0.0183884
807.176	0.0183431
807.254	0.0183125
807.332	0.0184797
807.410	0.0183598
807.488	0.0182765
807.567	0.0183592
807.645	0.0182626
807.723	0.0181273
807.801	0.0180943
807.879	0.0181761
807.957	0.0179447
808.035	0.0179317
808.113	0.0180003
808.192	0.0179508
808.270	0.0177838
808.348	0.0177863
808.426	0.0177280
808.504	0.0178220
808.582	0.0178642
808.660	0.0179263
808.738	0.0178387
808.817	0.0178386
808.895	0.0177763
808.973	0.0178867
809.051	0.0178655
809.129	0.0179142
809.207	0.0179300
809.285	0.0179981
809.363	0.0179810
809.442	0.0179049
809.520	0.0181322
809.598	0.0179256
809.676	0.0180578
809.754	0.0181564
809.832	0.0181539
809.910	0.0181709
809.988	0.0180821
810.067	0.0182883
810.145	0.0182182
810.223	0.0182188
810.301	0.0182008
810.379	0.0184216
810.457	0.0182320
810.535	0.0182474
810.613	0.0183588
810.692	0.0183046
810.770	0.0183516
810.848	0.0182421
810.926	0.0181587
811.004	0.0181155
811.082	0.0182038
811.160	0.0179646
811.238	0.0180397
811.317	0.0180972
811.395	0.0179156
811.473	0.0176707
811.551	0.0176585
811.629	0.0175763
811.707	0.0174958
811.785	0.0175542
811.863	0.0173766
811.942	0.0173093
812.020	0.0170470
812.098	0.0169749
812.176	0.0170201
812.254	0.0171417
812.332	0.0169266
812.410	0.0169775
812.488	0.0170067
812.567	0.0169810
812.645	0.0170307
812.723	0.0171019
812.801	0.0172405
812.879	0.0173877
812.957	0.0172312
813.035	0.0172826
813.113	0.0173415
813.192	0.0173998
813.270	0.0174045
813.348	0.0175948
813.426	0.0176915
813.504	0.0176441
813.582	0.0177227
813.660	0.0179243
813.738	0.0179658
813.817	0.0176893
813.895	0.0178135
813.973	0.0178738
814.051	0.0178191
814.129	0.0179400
814.207	0.0181111
814.285	0.0180960
814.363	0.0181438
814.442	0.0181898
814.520	0.0183119
814.598	0.0183049
814.676	0.0182764
814.754	0.0182982
814.832	0.0184879
814.910	0.0184774
814.988	0.0183268
815.067	0.0182607
815.145	0.0183952
815.223	0.0183726
815.301	0.0183131
815.379	0.0183719
815.457	0.0182841
815.535	0.0181210
815.613	0.0182360
815.692	0.0181851
815.770	0.0180936
815.848	0.0180652
815.926	0.0180561
816.004	0.0180722
816.082	0.0181007
816.160	0.0178662
816.238	0.0180458
816.317	0.0179577
816.395	0.0180065
816.473	0.0179473
816.551	0.0181019
816.629	0.0180733
816.707	0.0179680
816.785	0.0181604
816.863	0.0180801
816.942	0.0182434
817.020	0.0180138
817.098	0.0180186
817.176	0.0180413
817.254	0.0181597
817.332	0.0181334
817.410	0.0180074
817.488	0.0180869
817.567	0.0181484
817.645	0.0180614
817.723	0.0181175
817.801	0.0181300
817.879	0.0182588
817.957	0.0181329
818.035	0.0180700
818.113	0.0180714
818.192	0.0180163
818.270	0.0180071
818.348	0.0180132
818.426	0.0179186
818.504	0.0179317
818.582	0.0178888
818.660	0.0177943
818.738	0.0177987
818.817	0.0177137
818.895	0.0177088
818.973	0.0175364
819.051	0.0176046
819.129	0.0174797
819.207	0.0173005
819.285	0.0173736
819.363	0.0173167
819.442	0.0171008
819.520	0.0171123
819.598	0.0170504
819.676	0.0168526
819.754	0.0169395
819.832	0.0166808
819.910	0.0167705
819.988	0.0167233
820.067	0.0167645
820.145	0.0167162
820.223	0.0168123
820.301	0.0167303
820.379	0.0168116
820.457	0.0169255
820.535	0.0170702
820.613	0.0171974
820.692	0.0171087
820.770	0.0172190
820.848	0.0173157
820.926	0.0173637
821.004	0.0174948
821.082	0.0176285
821.160	0.0176460
821.238	0.0177851
821.317	0.0177457
821.395	0.0179405
821.473	0.0177922
821.551	0.0179210
821.629	0.0180120
821.707	0.0180070
821.785	0.0179388
821.863	0.0180564
821.942	0.0180234
822.020	0.0181499
822.098	0.0182722
822.176	0.0183348
822.254	0.0183018
822.332	0.0183503
822.410	0.0183784
822.488	0.0185141
822.567	0.0183968
822.645	0.0184086
822.723	0.0184883
822.801	0.0185278
822.879	0.0184770
822.957	0.0182954
823.035	0.0182432
823.113	0.0183684
823.192	0.0182701
823.270	0.0182794
823.348	0.0182337
823.426	0.0182996
823.504	0.0182534
823.582	0.0181348
823.660	0.0182113
823.738	0.0180241
823.817	0.0181319
823.895	0.0181789
823.973	0.0179955
824.051	0.0179510
824.129	0.0180051
824.207	0.0180293
824.285	0.0178548
824.363	0.0178847
824.442	0.0179760
824.520	0.0179497
824.598	0.0179722
824.676	0.0179781
824.754	0.0177882
824.832	0.0177776
824.910	0.0178582
824.988	0.0179977
825.067	0.0179044
825.145	0.0177170
825.223	0.0177737
825.301	0.0178672
825.379	0.0178928
825.457	0.0179405
825.535	0.0178413
825.613	0.0178480
825.692	0.0178795
825.770	0.0179072
825.848	0.0178153
825.926	0.0179041
826.004	0.0179674
826.082	0.0178850
826.160	0.0179632
826.238	0.0179683
826.317	0.0178302
826.395	0.0178041
826.473	0.0180330
826.551	0.0178413
826.629	0.0178631
826.707	0.0178904
826.785	0.0178942
826.863	0.0178931
826.942	0.0177776
827.020	0.0176582
827.098	0.0176070
827.176	0.0177175
827.254	0.0177167
827.332	0.0173595
827.410	0.0174467
827.488	0.0174211
827.567	0.0173087
827.645	0.0173045
827.723	0.0173226
827.801	0.0172417
827.879	0.0172228
827.957	0.0172166
828.035	0.0172868
828.113	0.0172720
828.192	0.0173659
828.270	0.0173342
828.348	0.0173872
828.426	0.0172654
828.504	0.0174642
828.582	0.0175651
828.660	0.0176550
828.738	0.0176039
828.817	0.0176855
828.895	0.0178353
828.973	0.0178502
829.051	0.0180590
829.129	0.0180225
829.207	0.0180092
829.285	0.0180885
829.363	0.0181522
829.442	0.0182699
829.520	0.0182638
829.598	0.0182611
829.676	0.0184066
829.754	0.0182626
829.832	0.0182740
829.910	0.0183190
829.988	0.0182539
830.067	0.0184175
830.145	0.0183062
830.223	0.0182839
830.301	0.0182448
830.379	0.0183704
830.457	0.0183209
830.535	0.0182433
830.613	0.0183845
830.692	0.0182384
830.770	0.0182882
830.848	0.0182791
830.926	0.0182611
831.004	0.0182227
831.082	0.0182677
831.160	0.0183557
831.238	0.0182730
831.317	0.0182418
831.395	0.0182476
831.473	0.0182313
831.551	0.0183987
831.629	0.0183146
831.707	0.0181703
831.785	0.0180989
831.863	0.0182274
831.942	0.0181454
832.020	0.0180551
832.098	0.0181076
832.176	0.0179719
832.254	0.0179715
832.332	0.0179726
832.410	0.0179803
832.488	0.0179404
832.567	0.0179778
832.645	0.0179961
832.723	0.0179338
832.801	0.0179855
832.879	0.0178371
832.957	0.0179756
833.035	0.0179511
833.113	0.0180006
833.192	0.0179117
833.270	0.0180591
833.348	0.0180280
833.426	0.0179964
833.504	0.0180629
833.582	0.0179198
833.660	0.0182217
833.738	0.0180141
833.817	0.0179952
833.895	0.0179131
833.973	0.0179391
834.051	0.0179321
834.129	0.0179347
834.207	0.0180128
834.285	0.0179124
834.363	0.0177756
834.442	0.0176117
834.520	0.0178175
834.598	0.0176079
834.676	0.0175005
834.754	0.0174757
834.832	0.0174901
834.910	0.0174267
834.988	0.0174368
835.067	0.0175427
835.145	0.0172416
835.223	0.0171974
835.301	0.0172290
835.379	0.0172645
835.457	0.0173351
835.535	0.0172285
835.613	0.0172359
835.692	0.0172040
835.770	0.0173327
835.848	0.0173397
835.926	0.0173869
836.004	0.0175579
836.082	0.0174680
836.160	0.0175791
836.238	0.0175745
836.317	0.0177473
836.395	0.0177307
836.473	0.0177161
836.551	0.0178709
836.629	0.0179542
836.707	0.0179088
836.785	0.0177342
836.863	0.0179935
836.942	0.0180099
837.020	0.0180626
837.098	0.0180465
837.176	0.0179475
837.254	0.0179613
837.332	0.0178491
837.410	0.0179939
837.488	0.0179833
837.567	0.0178864
837.645	0.0178630
837.723	0.0181177
837.801	0.0180193
837.879	0.0180531
837.957	0.0180026
838.035	0.0179961
838.113	0.0180258
838.192	0.0180243
838.270	0.0179586
838.348	0.0180308
838.426	0.0179880
838.504	0.0179964
838.582	0.0180209
838.660	0.0180740
838.738	0.0181142
838.817	0.0180930
838.895	0.0180111
838.973	0.0180693
839.051	0.0179106
839.129	0.0180127
839.207	0.0181463
839.285	0.0183001
839.363	0.0179391
839.442	0.0180081
839.520	0.0180811
839.598	0.0182121
839.676	0.0181725
839.754	0.0180656
839.832	0.0179552
839.910	0.0181188
839.988	0.0180460
840.067	0.0180004
840.145	0.0180573
840.223	0.0180598
840.301	0.0178795
840.379	0.0180345
840.457	0.0180890
840.535	0.0180310
840.613	0.0180173
840.692	0.0179927
840.770	0.0180112
840.848	0.0179849
840.926	0.0180502
841.004	0.0180502
841.082	0.0179604
841.160	0.0179564
841.238	0.0181611
841.317	0.0181107
841.395	0.0180679
841.473	0.0179987
841.551	0.0180962
841.629	0.0180694
841.707	0.0179417
841.785	0.0178179
841.863	0.0179575
841.942	0.0179576
842.020	0.0178202
842.098	0.0178194
842.176	0.0177123
842.254	0.0177588
842.332	0.0176011
842.410	0.0174599
842.488	0.0174827
842.567	0.0175790
842.645	0.0174737
842.723	0.0174117
842.801	0.0173975
842.879	0.0172593
842.957	0.0174007
843.035	0.0173154
843.113	0.0173500
843.192	0.0171160
843.270	0.0171793
843.348	0.0172294
843.426	0.0172672
843.504	0.0171944
843.582	0.0170860
843.660	0.0171716
843.738	0.0173251
843.817	0.0173078
843.895	0.0173602
843.973	0.0174489
844.051	0.0173306
844.129	0.0175565
844.207	0.0175510
844.285	0.0176811
844.363	0.0177660
844.442	0.0178162
844.520	0.0176977
844.598	0.0178288
844.676	0.0180561
844.754	0.0179397
844.832	0.0180322
844.910	0.0179459
844.988	0.0180371
845.067	0.0179096
845.145	0.0180569
845.223	0.0181243
845.301	0.0181441
845.379	0.0181501
845.457	0.0179251
845.535	0.0178658
845.613	0.0179588
845.692	0.0178829
845.770	0.0178521
845.848	0.0180715
845.926	0.0179579
846.004	0.0178095
846.082	0.0178340
846.160	0.0178670
846.238	0.0178717
846.317	0.0179539
846.395	0.0179782
846.473	0.0179668
846.551	0.0180718
846.629	0.0179760
846.707	0.0180863
846.785	0.0181015
846.863	0.0180281
846.942	0.0181541
847.020	0.0182245
847.098	0.0181948
847.176	0.0181869
847.254	0.0181505
847.332	0.0182710
847.410	0.0182536
847.488	0.0182176
847.567	0.0182383
847.645	0.0183277
847.723	0.0182025
847.801	0.0181821
847.879	0.0182768
847.957	0.0181190
848.035	0.0183245
848.113	0.0181664
848.192	0.0181322
848.270	0.0180385
848.348	0.0180898
848.426	0.0181884
848.504	0.0179701
848.582	0.0180617
848.660	0.0181348
848.738	0.0181161
848.817	0.0179575
848.895	0.0179025
848.973	0.0179340
849.051	0.0179129
849.129	0.0179266
849.207	0.0180331
849.285	0.0178801
849.363	0.0180014
849.442	0.0178608
849.520	0.0178165
849.598	0.0178591
849.676	0.0178192
849.754	0.0177724
849.832	0.0176026
849.910	0.0177733
849.988	0.0176783
850.067	0.0176209
850.145	0.0176458
850.223	0.0174802
850.301	0.0174823
850.379	0.0174975
850.457	0.0173651
850.535	0.0173850
850.613	0.0172646
850.692	0.0172262
850.770	0.0171411
850.848	0.0171581
850.926	0.0172615
851.004	0.0172335
851.082	0.0171921
851.160	0.0171349
851.238	0.0171858
851.317	0.0172894
851.395	0.0172916
851.473	0.0173434
851.551	0.0174306
851.629	0.0175918
851.707	0.0176318
851.785	0.0175250
851.863	0.0177472
851.942	0.0177399
852.020	0.0179027
852.098	0.0179240
852.176	0.0177840
852.254	0.0178528
852.332	0.0180390
852.410	0.0181313
852.488	0.0180888
852.567	0.0180069
852.645	0.0180869
852.723	0.0182066
852.801	0.0180561
852.879	0.0181247
852.957	0.0181804
853.035	0.0180140
853.113	0.0180788
853.192	0.0180386
853.270	0.0180302
853.348	0.0180659
853.426	0.0180203
853.504	0.0179271
853.582	0.0180563
853.660	0.0181186
853.738	0.0178477
853.817	0.0180212
853.895	0.0179481
853.973	0.0180180
854.051	0.0179462
854.129	0.0180699
854.207	0.0182498
854.285	0.0180752
854.363	0.0182035
854.442	0.0181011
854.520	0.0182355
854.598	0.0181042
854.676	0.0181284
854.754	0.0180980
854.832	0.0181469
854.910	0.0183467
854.988	0.0181964
855.067	0.0181601
855.145	0.0180885
855.223	0.0181532
855.301	0.0182326
855.379	0.0180708
855.457	0.0181113
855.535	0.0181671
855.613	0.0181199
855.692	0.0180500
855.770	0.0180335
855.848	0.0181487
855.926	0.0180117
856.004	0.0180610
856.082	0.0180770
856.160	0.0179909
856.238	0.0180953
856.317	0.0179456
856.395	0.0180652
856.473	0.0180536
856.551	0.0179126
856.629	0.0180968
856.707	0.0180550
856.785	0.0179766
856.863	0.0178850
856.942	0.0179567
857.020	0.0177676
857.098	0.0179918
857.176	0.0179366
857.254	0.0178959
857.332	0.0178622
857.410	0.0178320
857.488	0.0179010
857.567	0.0178121
857.645	0.0177794
857.723	0.0178227
857.801	0.0178519
857.879	0.0175738
857.957	0.0174536
858.035	0.0176490
858.113	0.0177695
858.192	0.0175590
858.270	0.0174762
858.348	0.0174615
858.426	0.0176295
858.504	0.0174371
858.582	0.0173911
858.660	0.0173486
858.738	0.0173706
858.817	0.0174907
858.895	0.0174068
858.973	0.0174473
859.051	0.0173025
859.129	0.0172579
859.207	0.0174724
859.285	0.0174780
859.363	0.0175533
859.442	0.0176414
859.520	0.0175648
859.598	0.0175595
859.676	0.0177473
859.754	0.0177842
859.832	0.0177964
859.910	0.0178206
859.988	0.0177645
860.067	0.0178732
860.145	0.0178661
860.223	0.0179427
860.301	0.0179534
860.379	0.0178268
860.457	0.0179990
860.535	0.0178857
860.613	0.0180765
860.692	0.0179238
860.770	0.0178564
860.848	0.0179701
860.926	0.0179858
861.004	0.0179213
861.082	0.0180254
861.160	0.0179044
861.238	0.0180704
861.317	0.0177936
861.395	0.0179609
861.473	0.0178748
861.551	0.0179399
861.629	0.0178701
861.707	0.0179315
861.785	0.0179015
861.863	0.0180338
861.942	0.0179164
862.020	0.0180496
862.098	0.0180949
862.176	0.0179111
862.254	0.0180315
862.332	0.0181369
862.410	0.0179144
862.488	0.0179803
862.567	0.0180153
862.645	0.0180285
862.723	0.0181785
862.801	0.0180409
862.879	0.0179800
862.957	0.0180631
863.035	0.0180535
863.113	0.0180962
863.192	0.0179910
863.270	0.0180429
863.348	0.0179767
863.426	0.0179691
863.504	0.0179907
863.582	0.0180385
863.660	0.0180213
863.738	0.0180892
863.817	0.0180246
863.895	0.0179725
863.973	0.0179483
864.051	0.0179276
864.129	0.0179199
864.207	0.0180040
864.285	0.0180537
864.363	0.0179849
864.442	0.0179642
864.520	0.0180480
864.598	0.0180919
864.676	0.0179259
864.754	0.0179301
864.832	0.0179118
864.910	0.0179556
864.988	0.0178954
865.067	0.0179292
865.145	0.0179733
865.223	0.0177795
865.301	0.0178515
865.379	0.0178049
865.457	0.0179134
865.535	0.0176596
865.613	0.0177396
865.692	0.0177017
865.770	0.0177084
865.848	0.0176028
865.926	0.0176167
866.004	0.0174741
866.082	0.0175105
866.160	0.0175965
866.238	0.0174427
866.317	0.0174590
866.395	0.0173015
866.473	0.0173059
866.551	0.0173215
866.629	0.0173632
866.707	0.0172996
866.785	0.0174442
866.863	0.0173602
866.942	0.0173233
867.020	0.0175454
867.098	0.0175954
867.176	0.0175187
867.254	0.0175923
867.332	0.0176971
867.410	0.0177070
867.488	0.0177451
867.567	0.0177245
867.645	0.0178856
867.723	0.0178371
867.801	0.0179208
867.879	0.0180713
867.957	0.0179047
868.035	0.0178227
868.113	0.0179511
868.192	0.0180099
868.270	0.0179111
868.348	0.0179614
868.426	0.0179494
868.504	0.0180337
868.582	0.0179460
868.660	0.0180109
868.738	0.0180010
868.817	0.0179784
868.895	0.0180179
868.973	0.0179424
869.051	0.0178912
869.129	0.0179422
869.207	0.0177998
869.285	0.0179560
869.363	0.0180058
869.442	0.0179913
869.520	0.0177789
869.598	0.0179420
869.676	0.0179608
869.754	0.0178474
869.832	0.0179351
869.910	0.0179905
869.988	0.0179444
870.067	0.0179704
870.145	0.0180873
870.223	0.0180134
870.301	0.0180436
870.379	0.0180582
870.457	0.0181221
870.535	0.0181389
870.613	0.0180319
870.692	0.0180836
870.770	0.0182603
870.848	0.0180864
870.926	0.0179434
871.004	0.0181329
871.082	0.0181386
871.160	0.0179762
871.238	0.0180063
871.317	0.0178893
871.395	0.0181857
871.473	0.0180542
871.551	0.0180357
871.629	0.0180123
871.707	0.0180876
871.785	0.0179014
871.863	0.0178621
871.942	0.0179147
872.020	0.0180223
872.098	0.0180896
872.176	0.0179971
872.254	0.0179810
872.332	0.0179990
872.410	0.0179959
872.488	0.0179501
872.567	0.0179792
872.645	0.0179941
872.723	0.0179359
872.801	0.0179494
872.879	0.0179160
872.957	0.0178379
873.035	0.0178278
873.113	0.0179807
873.192	0.0179076
873.270	0.0178547
873.348	0.0176791
873.426	0.0178329
873.504	0.0178066
873.582	0.0178271
873.660	0.0177817
873.738	0.0178561
873.817	0.0178438
873.895	0.0177435
873.973	0.0177601
874.051	0.0177106
874.129	0.0176923
874.207	0.0176466
874.285	0.0175896
874.363	0.0176545
874.442	0.0176812
874.520	0.0176975
874.598	0.0176450
874.676	0.0176404
874.754	0.0176397
874.832	0.0176242
874.910	0.0175704
874.988	0.0176979
875.067	0.0176335
875.145	0.0176997
875.223	0.0178656
875.301	0.0179057
875.379	0.0178426
875.457	0.0177568
875.535	0.0178924
875.613	0.0178612
875.692	0.0180535
875.770	0.0180035
875.848	0.0178030
875.926	0.0180433
876.004	0.0180485
876.082	0.0179873
876.160	0.0179797
876.238	0.0180389
876.317	0.0180846
876.395	0.0179306
876.473	0.0179244
876.551	0.0180274
876.629	0.0179294
876.707	0.0180038
876.785	0.0178740
876.863	0.0179068
876.942	0.0178094
877.020	0.0178567
877.098	0.0178228
877.176	0.0179177
877.254	0.0178751
877.332	0.0179641
877.410	0.0178149
877.488	0.0176678
877.567	0.0179195
877.645	0.0178492
877.723	0.0178000
877.801	0.0179575
877.879	0.0179310
877.957	0.0179138
878.035	0.0179285
878.113	0.0177823
878.192	0.0178533
878.270	0.0178767
878.348	0.0179279
878.426	0.0179512
878.504	0.0178897
878.582	0.0178127
878.660	0.0178869
878.738	0.0180121
878.817	0.0178162
878.895	0.0177767
878.973	0.0180237
879.051	0.0179391
879.129	0.0178330
879.207	0.0179270
879.285	0.0178855
879.363	0.0178152
879.442	0.0178118
879.520	0.0178366
879.598	0.0178568
879.676	0.0179214
879.754	0.0178545
879.832	0.0179121
879.910	0.0178579
879.988	0.0179321
880.067	0.0179593
880.145	0.0180260
880.223	0.0179484
880.301	0.0178615
880.379	0.0179672
880.457	0.0179772
880.535	0.0180665
880.613	0.0180772
880.692	0.0180440
880.770	0.0178118
880.848	0.0180155
880.926	0.0180697
881.004	0.0178873
881.082	0.0178516
881.160	0.0178912
881.238	0.0177775
881.317	0.0178146
881.395	0.0179035
881.473	0.0176653
881.551	0.0176970
881.629	0.0176866
881.707	0.0177446
881.785	0.0177815
881.863	0.0176669
881.942	0.0177737
882.020	0.0176816
882.098	0.0177723
882.176	0.0177406
882.254	0.0177806
882.332	0.0177577
882.410	0.0177440
882.488	0.0176440
882.567	0.0177121
882.645	0.0176514
882.723	0.0177646
882.801	0.0177483
882.879	0.0178096
882.957	0.0176434
883.035	0.0177558
883.113	0.0178461
883.192	0.0177649
883.270	0.0177082
883.348	0.0177944
883.426	0.0179003
883.504	0.0179626
883.582	0.0180100
883.660	0.0179025
883.738	0.0178488
883.817	0.0180569
883.895	0.0179017
883.973	0.0180325
884.051	0.0179204
884.129	0.0180002
884.207	0.0178662
884.285	0.0179492
884.363	0.0178799
884.442	0.0179491
884.520	0.0178876
884.598	0.0179936
884.676	0.0179381
884.754	0.0178828
884.832	0.0179784
884.910	0.0178819
884.988	0.0178952
885.067	0.0178052
885.145	0.0179043
885.223	0.0178351
885.301	0.0179089
885.379	0.0179722
885.457	0.0179409
885.535	0.0178645
885.613	0.0179173
885.692	0.0179210
885.770	0.0178318
885.848	0.0180562
885.926	0.0180319
886.004	0.0178750
886.082	0.0180493
886.160	0.0179576
886.238	0.0180462
886.317	0.0179898
886.395	0.0180569
886.473	0.0179451
886.551	0.0181757
886.629	0.0180608
886.707	0.0180814
886.785	0.0180866
886.863	0.0180157
886.942	0.0181146
887.020	0.0182539
887.098	0.0180712
887.176	0.0180475
887.254	0.0181174
887.332	0.0179525
887.410	0.0179872
887.488	0.0178520
887.567	0.0179434
887.645	0.0181070
887.723	0.0179656
887.801	0.0179877
887.879	0.0179467
887.957	0.0179244
888.035	0.0178177
888.113	0.0178661
888.192	0.0178231
888.270	0.0177361
888.348	0.0179802
888.426	0.0178475
888.504	0.0178440
888.582	0.0178160
888.660	0.0177746
888.738	0.0177992
888.817	0.0176295
888.895	0.0178091
888.973	0.0176024
889.051	0.0177113
889.129	0.0177868
889.207	0.0177435
889.285	0.0177221
889.363	0.0176942
889.442	0.0177003
889.520	0.0178422
889.598	0.0179010
889.676	0.0178547
889.754	0.0178284
889.832	0.0178323
889.910	0.0177351
889.988	0.0179179
890.067	0.0179375
890.145	0.0177438
890.223	0.0178028
890.301	0.0179488
890.379	0.0179258
890.457	0.0178679
890.535	0.0178629
890.613	0.0178699
890.692	0.0179191
890.770	0.0178873
890.848	0.0178303
890.926	0.0178900
891.004	0.0178777
891.082	0.0178202
891.160	0.0177332
891.238	0.0179098
891.317	0.0178316
891.395	0.0178180
891.473	0.0179727
891.551	0.0178629
891.629	0.0178576
891.707	0.0179008
891.785	0.0178899
891.863	0.0179530
891.942	0.0179356
892.020	0.0180031
892.098	0.0180537
892.176	0.0179274
892.254	0.0179496
892.332	0.0178706
892.410	0.0180844
892.488	0.0179957
892.567	0.0178341
892.645	0.0179704
892.723	0.0179493
892.801	0.0177895
892.879	0.0177138
892.957	0.0177522
893.035	0.0179305
893.113	0.0177082
893.192	0.0177602
893.270	0.0177002
893.348	0.0177155
893.426	0.0176178
893.504	0.0175719
893.582	0.0175109
893.660	0.0176179
893.738	0.0177309
893.817	0.0177827
893.895	0.0177676
893.973	0.0177846
894.051	0.0177599
894.129	0.0177457
894.207	0.0178212
894.285	0.0179139
894.363	0.0179588
894.442	0.0178352
894.520	0.0179018
894.598	0.0179446
894.676	0.0179900
894.754	0.0181212
894.832	0.0181023
894.910	0.0181860
894.988	0.0182543
895.067	0.0183305
895.145	0.0180793
895.223	0.0184429
895.301	0.0181295
895.379	0.0180587
895.457	0.0182570
895.535	0.0182156
895.613	0.0181358
895.692	0.0181734
895.770	0.0179829
895.848	0.0179561
895.926	0.0179638
896.004	0.0178164
896.082	0.0178062
896.160	0.0178126
896.238	0.0178196
896.317	0.0176907
896.395	0.0176109
896.473	0.0176371
896.551	0.0175673
896.629	0.0178361
896.707	0.0176053
896.785	0.0176054
896.863	0.0176297
896.942	0.0177382
897.020	0.0175791
897.098	0.0175688
897.176	0.0176122
897.254	0.0176758
897.332	0.0177395
897.410	0.0177782
897.488	0.0176729
897.567	0.0177087
897.645	0.0177209
897.723	0.0178000
897.801	0.0177348
897.879	0.0178146
897.957	0.0178123
898.035	0.0179300
898.113	0.0179961
898.192	0.0179229
898.270	0.0178365
898.348	0.0179403
898.426	0.0179527
898.504	0.0178898
898.582	0.0179906
898.660	0.0178388
898.738	0.0179696
898.817	0.0179614
898.895	0.0180881
898.973	0.0180929
899.051	0.0178773
899.129	0.0178654
899.207	0.0177979
899.285	0.0179710
899.363	0.0179757
899.442	0.0178731
899.520	0.0178892
899.598	0.0178264
899.676	0.0178918
899.754	0.0179132
899.832	0.0178220
899.910	0.0177335
899.988	0.0179164
900.067	0.0179744
900.145	0.0178233
900.223	0.0178191
900.301	0.0178203
900.379	0.0179385
900.457	0.0178154
900.535	0.0178748
900.613	0.0179241
900.692	0.0178895
900.770	0.0178035
900.848	0.0179536
900.926	0.0179365
901.004	0.0179800
901.082	0.0178768
901.160	0.0178266
901.238	0.0177986
901.317	0.0179702
901.395	0.0179093
901.473	0.0180293
901.551	0.0178177
901.629	0.0177200
901.707	0.0178766
901.785	0.0178612
901.863	0.0177174
901.942	0.0178522
902.020	0.0178468
902.098	0.0178156
902.176	0.0178716
902.254	0.0177134
902.332	0.0176606
902.410	0.0179439
902.488	0.0177927
902.567	0.0177491
902.645	0.0179487
902.723	0.0177827
902.801	0.0178609
902.879	0.0178622
902.957	0.0178685
903.035	0.0178549
903.113	0.0178806
903.192	0.0178889
903.270	0.0179166
903.348	0.0179075
903.426	0.0177460
903.504	0.0178994
903.582	0.0178019
903.660	0.0177637
903.738	0.0177952
903.817	0.0177999
903.895	0.0180141
903.973	0.0178854
904.051	0.0179295
904.129	0.0177853
904.207	0.0178650
904.285	0.0178042
904.363	0.0177284
904.442	0.0177810
904.520	0.0179421
904.598	0.0177963
904.676	0.0179232
904.754	0.0178489
904.832	0.0179286
904.910	0.0178461
904.988	0.0177967
905.067	0.0177769
905.145	0.0177415
905.223	0.0179042
905.301	0.0179308
905.379	0.0178532
905.457	0.0177904
905.535	0.0178063
905.613	0.0179163
905.692	0.0180145
905.770	0.0179594
905.848	0.0179696
905.926	0.0179715
906.004	0.0178977
906.082	0.0180682
906.160	0.0180750
906.238	0.0180116
906.317	0.0183262
906.395	0.0180119
906.473	0.0180222
906.551	0.0181661
906.629	0.0180367
906.707	0.0181158
906.785	0.0181030
906.863	0.0181474
906.942	0.0181609
907.020	0.0182096
907.098	0.0180716
907.176	0.0181597
907.254	0.0181261
907.332	0.0179911
907.410	0.0181328
907.488	0.0181715
907.567	0.0180217
907.645	0.0180231
907.723	0.0178806
907.801	0.0179736
907.879	0.0178843
907.957	0.0178970
908.035	0.0179800
908.113	0.0177999
908.192	0.0176981
908.270	0.0177344
908.348	0.0178881
908.426	0.0177685
908.504	0.0176303
908.582	0.0177993
908.660	0.0176421
908.738	0.0176893
908.817	0.0178083
908.895	0.0177653
908.973	0.0176662
909.051	0.0175594
909.129	0.0176389
909.207	0.0178294
909.285	0.0177812
909.363	0.0177331
909.442	0.0174769
909.520	0.0177451
909.598	0.0177917
909.676	0.0177155
909.754	0.0177271
909.832	0.0177032
909.910	0.0178062
909.988	0.0178473
910.067	0.0178817
910.145	0.0178024
910.223	0.0176986
910.301	0.0179113
910.379	0.0178300
910.457	0.0178893
910.535	0.0179182
910.613	0.0178557
910.692	0.0178926
910.770	0.0178014
910.848	0.0178522
910.926	0.0177015
911.004	0.0176411
911.082	0.0177361
911.160	0.0180527
911.238	0.0178074
911.317	0.0177888
911.395	0.0177551
911.473	0.0179027
911.551	0.0178606
911.629	0.0176195
911.707	0.0178069
911.785	0.0177775
911.863	0.0176864
911.942	0.0176362
912.020	0.0177026
912.098	0.0177416
912.176	0.0176464
912.254	0.0177369
912.332	0.0177547
912.410	0.0176369
912.488	0.0176538
912.567	0.0175726
912.645	0.0178346
912.723	0.0177132
912.801	0.0177531
912.879	0.0178558
912.957	0.0177107
913.035	0.0177212
913.113	0.0178672
913.192	0.0177771
913.270	0.0178677
913.348	0.0179111
913.426	0.0178546
913.504	0.0177379
913.582	0.0179523
913.660	0.0177349
913.738	0.0177832
913.817	0.0179221
913.895	0.0179520
913.973	0.0178517
914.051	0.0179794
914.129	0.0177966
914.207	0.0179099
914.285	0.0178287
914.363	0.0177592
914.442	0.0179901
914.520	0.0178208
914.598	0.0177773
914.676	0.0178859
914.754	0.0177868
914.832	0.0178669
914.910	0.0178635
914.988	0.0178843
915.067	0.0178356
915.145	0.0179661
915.223	0.0177898
915.301	0.0176797
915.379	0.0177892
915.457	0.0178365
915.535	0.0178058
915.613	0.0178129
915.692	0.0177229
915.770	0.0177450
915.848	0.0177272
915.926	0.0176431
916.004	0.0175908
916.082	0.0176125
916.160	0.0178383
916.238	0.0178217
916.317	0.0177009
916.395	0.0176431
916.473	0.0176299
916.551	0.0176867
916.629	0.0176507
916.707	0.0176438
916.785	0.0177351
916.863	0.0177013
916.942	0.0177270
917.020	0.0176390
917.098	0.0177381
917.176	0.0178298
917.254	0.0177046
917.332	0.0178536
917.410	0.0178658
917.488	0.0178394
917.567	0.0178800
917.645	0.0177716
917.723	0.0178449
917.801	0.0179702
917.879	0.0178981
917.957	0.0179765
918.035	0.0179562
918.113	0.0179103
918.192	0.0178119
918.270	0.0179050
918.348	0.0178818
918.426	0.0179179
918.504	0.0179158
918.582	0.0179319
918.660	0.0178905
918.738	0.0177753
918.817	0.0177794
918.895	0.0178354
918.973	0.0179414
919.051	0.0178517
919.129	0.0178431
919.207	0.0178877
919.285	0.0178212
919.363	0.0178734
919.442	0.0178274
919.520	0.0177749
919.598	0.0177520
919.676	0.0178223
919.754	0.0178084
919.832	0.0177971
919.910	0.0177319
