06/01/2022	22:00:03	Ver.	4.1	UNKNOWN
Optical Delay	599.988409	Delta X		0.078125	Sweeps	1	Scan Rate	0/0
Coordinates	Axis 1	NaN	Axis 2	NaN	Axis 3	NaN	Axis 4	NaN	Axis 5	NaN	Axis 6	0.000000
TX Power	0.000000	RX Power	0.000000

599.988	0.0177079
600.067	0.0177299
600.145	0.0177314
600.223	0.0176500
600.301	0.0177117
600.379	0.0178557
600.457	0.0178897
600.535	0.0177290
600.613	0.0177321
600.692	0.0178120
600.770	0.0178486
600.848	0.0177834
600.926	0.0177364
601.004	0.0177302
601.082	0.0177178
601.160	0.0177629
601.238	0.0176280
601.317	0.0178008
601.395	0.0177128
601.473	0.0178603
601.551	0.0178008
601.629	0.0178254
601.707	0.0178165
601.785	0.0178432
601.863	0.0177986
601.942	0.0178467
602.020	0.0177880
602.098	0.0176855
602.176	0.0179485
602.254	0.0177541
602.332	0.0177478
602.410	0.0178237
602.488	0.0178979
602.567	0.0177885
602.645	0.0177740
602.723	0.0178738
602.801	0.0179364
602.879	0.0178364
602.957	0.0177798
603.035	0.0179011
603.113	0.0178249
603.192	0.0178229
603.270	0.0178887
603.348	0.0177225
603.426	0.0178183
603.504	0.0178740
603.582	0.0176673
603.660	0.0176617
603.738	0.0177737
603.817	0.0178603
603.895	0.0178331
603.973	0.0177605
604.051	0.0176637
604.129	0.0177808
604.207	0.0178417
604.285	0.0177298
604.363	0.0178143
604.442	0.0176842
604.520	0.0177441
604.598	0.0177078
604.676	0.0176815
604.754	0.0176685
604.832	0.0177489
604.910	0.0178107
604.988	0.0177897
605.067	0.0177872
605.145	0.0176966
605.223	0.0177366
605.301	0.0179314
605.379	0.0177367
605.457	0.0176934
605.535	0.0177954
605.613	0.0177084
605.692	0.0176892
605.770	0.0177679
605.848	0.0177290
605.926	0.0177969
606.004	0.0176286
606.082	0.0178223
606.160	0.0178753
606.238	0.0176946
606.317	0.0176871
606.395	0.0177237
606.473	0.0177412
606.551	0.0178225
606.629	0.0178794
606.707	0.0176607
606.785	0.0177245
606.863	0.0177135
606.942	0.0177081
607.020	0.0178264
607.098	0.0175657
607.176	0.0177190
607.254	0.0176463
607.332	0.0176195
607.410	0.0177351
607.488	0.0177422
607.567	0.0177949
607.645	0.0176881
607.723	0.0176415
607.801	0.0177094
607.879	0.0177030
607.957	0.0177920
608.035	0.0176147
608.113	0.0178437
608.192	0.0177721
608.270	0.0177029
608.348	0.0177019
608.426	0.0175796
608.504	0.0175719
608.582	0.0175778
608.660	0.0177699
608.738	0.0175916
608.817	0.0177180
608.895	0.0177253
608.973	0.0177937
609.051	0.0175832
609.129	0.0176744
609.207	0.0177336
609.285	0.0177774
609.363	0.0177219
609.442	0.0177410
609.520	0.0177525
609.598	0.0176848
609.676	0.0176722
609.754	0.0176488
609.832	0.0178265
609.910	0.0177490
609.988	0.0177235
610.067	0.0178266
610.145	0.0178425
610.223	0.0176557
610.301	0.0178584
610.379	0.0176976
610.457	0.0175513
610.535	0.0176451
610.613	0.0176971
610.692	0.0176505
610.770	0.0177857
610.848	0.0176939
610.926	0.0177507
611.004	0.0177444
611.082	0.0178848
611.160	0.0179303
611.238	0.0178072
611.317	0.0178313
611.395	0.0177648
611.473	0.0177669
611.551	0.0177577
611.629	0.0178456
611.707	0.0177821
611.785	0.0177239
611.863	0.0177486
611.942	0.0178764
612.020	0.0176562
612.098	0.0176573
612.176	0.0177043
612.254	0.0178705
612.332	0.0177190
612.410	0.0177698
612.488	0.0176755
612.567	0.0176490
612.645	0.0176250
612.723	0.0176379
612.801	0.0175494
612.879	0.0176083
612.957	0.0177419
613.035	0.0177493
613.113	0.0174940
613.192	0.0177474
613.270	0.0176080
613.348	0.0177214
613.426	0.0177405
613.504	0.0176733
613.582	0.0175873
613.660	0.0176355
613.738	0.0175596
613.817	0.0175227
613.895	0.0176874
613.973	0.0176467
614.051	0.0176112
614.129	0.0175404
614.207	0.0177077
614.285	0.0176099
614.363	0.0175916
614.442	0.0176671
614.520	0.0177326
614.598	0.0177926
614.676	0.0179311
614.754	0.0178736
614.832	0.0178372
614.910	0.0178951
614.988	0.0178260
615.067	0.0177904
615.145	0.0178350
615.223	0.0179983
615.301	0.0177759
615.379	0.0178749
615.457	0.0178437
615.535	0.0178510
615.613	0.0179043
615.692	0.0178649
615.770	0.0178640
615.848	0.0177729
615.926	0.0176905
616.004	0.0176550
616.082	0.0177288
616.160	0.0177618
616.238	0.0177865
616.317	0.0177654
616.395	0.0177699
616.473	0.0177787
616.551	0.0177774
616.629	0.0177473
616.707	0.0178294
616.785	0.0177323
616.863	0.0178689
616.942	0.0177934
617.020	0.0178262
617.098	0.0178960
617.176	0.0178775
617.254	0.0178703
617.332	0.0177732
617.410	0.0178267
617.488	0.0178622
617.567	0.0178718
617.645	0.0178712
617.723	0.0177437
617.801	0.0176820
617.879	0.0177544
617.957	0.0178551
618.035	0.0178093
618.113	0.0177949
618.192	0.0176983
618.270	0.0177982
618.348	0.0178249
618.426	0.0177679
618.504	0.0178062
618.582	0.0179117
618.660	0.0179411
618.738	0.0177718
618.817	0.0178156
618.895	0.0179168
618.973	0.0179718
619.051	0.0179749
619.129	0.0179478
619.207	0.0180676
619.285	0.0180695
619.363	0.0180772
619.442	0.0179516
619.520	0.0181336
619.598	0.0181259
619.676	0.0180200
619.754	0.0180204
619.832	0.0180062
619.910	0.0180208
619.988	0.0180083
620.067	0.0179588
620.145	0.0180507
620.223	0.0180122
620.301	0.0179287
620.379	0.0180286
620.457	0.0179874
620.535	0.0180701
620.613	0.0179981
620.692	0.0179780
620.770	0.0180695
620.848	0.0179984
620.926	0.0180138
621.004	0.0181054
621.082	0.0178768
621.160	0.0179207
621.238	0.0180119
621.317	0.0179005
621.395	0.0178246
621.473	0.0178742
621.551	0.0180680
621.629	0.0178900
621.707	0.0179399
621.785	0.0180627
621.863	0.0179967
621.942	0.0178075
622.020	0.0178500
622.098	0.0179465
622.176	0.0178175
622.254	0.0176651
622.332	0.0177594
622.410	0.0177702
622.488	0.0178752
622.567	0.0178905
622.645	0.0177800
622.723	0.0177805
622.801	0.0178173
622.879	0.0177538
622.957	0.0177931
623.035	0.0177207
623.113	0.0178123
623.192	0.0177929
623.270	0.0176594
623.348	0.0177293
623.426	0.0176847
623.504	0.0175340
623.582	0.0176025
623.660	0.0176389
623.738	0.0177263
623.817	0.0178116
623.895	0.0176342
623.973	0.0176872
624.051	0.0177840
624.129	0.0177723
624.207	0.0176927
624.285	0.0177214
624.363	0.0177402
624.442	0.0178011
624.520	0.0178679
624.598	0.0176311
624.676	0.0178941
624.754	0.0177142
624.832	0.0176862
624.910	0.0177197
624.988	0.0176103
625.067	0.0177330
625.145	0.0176445
625.223	0.0176038
625.301	0.0175826
625.379	0.0176705
625.457	0.0175539
625.535	0.0176522
625.613	0.0176978
625.692	0.0176151
625.770	0.0176880
625.848	0.0177599
625.926	0.0176937
626.004	0.0178158
626.082	0.0177754
626.160	0.0179157
626.238	0.0177343
626.317	0.0178696
626.395	0.0180019
626.473	0.0178648
626.551	0.0178014
626.629	0.0177719
626.707	0.0177149
626.785	0.0179205
626.863	0.0179094
626.942	0.0177944
627.020	0.0177175
627.098	0.0177934
627.176	0.0177276
627.254	0.0176936
627.332	0.0176247
627.410	0.0176750
627.488	0.0176485
627.567	0.0177024
627.645	0.0177833
627.723	0.0176794
627.801	0.0177450
627.879	0.0177450
627.957	0.0177811
628.035	0.0178031
628.113	0.0177843
628.192	0.0179365
628.270	0.0177897
628.348	0.0179254
628.426	0.0177782
628.504	0.0177967
628.582	0.0179083
628.660	0.0178320
628.738	0.0178117
628.817	0.0178212
628.895	0.0177477
628.973	0.0177546
629.051	0.0176497
629.129	0.0175758
629.207	0.0177361
629.285	0.0177679
629.363	0.0178143
629.442	0.0177750
629.520	0.0176321
629.598	0.0177530
629.676	0.0177847
629.754	0.0177628
629.832	0.0176778
629.910	0.0177042
629.988	0.0178621
630.067	0.0177005
630.145	0.0177104
630.223	0.0178885
630.301	0.0179008
630.379	0.0179746
630.457	0.0178450
630.535	0.0178268
630.613	0.0177110
630.692	0.0178592
630.770	0.0179887
630.848	0.0177784
630.926	0.0178771
631.004	0.0177252
631.082	0.0177323
631.160	0.0179005
631.238	0.0178902
631.317	0.0177845
631.395	0.0177675
631.473	0.0177118
631.551	0.0177050
631.629	0.0177744
631.707	0.0177956
631.785	0.0178392
631.863	0.0178566
631.942	0.0177980
632.020	0.0177647
632.098	0.0178630
632.176	0.0178361
632.254	0.0178149
632.332	0.0178430
632.410	0.0178257
632.488	0.0177851
632.567	0.0178313
632.645	0.0177229
632.723	0.0176772
632.801	0.0178814
632.879	0.0177193
632.957	0.0176246
633.035	0.0178204
633.113	0.0178191
633.192	0.0176591
633.270	0.0175853
633.348	0.0178235
633.426	0.0178558
633.504	0.0177682
633.582	0.0176973
633.660	0.0176387
633.738	0.0177627
633.817	0.0178656
633.895	0.0177848
633.973	0.0176830
634.051	0.0178167
634.129	0.0178266
634.207	0.0175877
634.285	0.0177583
634.363	0.0176786
634.442	0.0177863
634.520	0.0178732
634.598	0.0177488
634.676	0.0178522
634.754	0.0177402
634.832	0.0175610
634.910	0.0176462
634.988	0.0178239
635.067	0.0177129
635.145	0.0176093
635.223	0.0177507
635.301	0.0178281
635.379	0.0176728
635.457	0.0177592
635.535	0.0177433
635.613	0.0179244
635.692	0.0178455
635.770	0.0176958
635.848	0.0176725
635.926	0.0177899
636.004	0.0179164
636.082	0.0178078
636.160	0.0178839
636.238	0.0180752
636.317	0.0178681
636.395	0.0178232
636.473	0.0177858
636.551	0.0178333
636.629	0.0178159
636.707	0.0178586
636.785	0.0178072
636.863	0.0176132
636.942	0.0178065
637.020	0.0178329
637.098	0.0176630
637.176	0.0178823
637.254	0.0177064
637.332	0.0177623
637.410	0.0176153
637.488	0.0176866
637.567	0.0179062
637.645	0.0178039
637.723	0.0178315
637.801	0.0179934
637.879	0.0179399
637.957	0.0179240
638.035	0.0179897
638.113	0.0177907
638.192	0.0179895
638.270	0.0179253
638.348	0.0178530
638.426	0.0178674
638.504	0.0178582
638.582	0.0178663
638.660	0.0179426
638.738	0.0177816
638.817	0.0177817
638.895	0.0178112
638.973	0.0178645
639.051	0.0178838
639.129	0.0179062
639.207	0.0177726
639.285	0.0177534
639.363	0.0178035
639.442	0.0179036
639.520	0.0180071
639.598	0.0178288
639.676	0.0178346
639.754	0.0177850
639.832	0.0178353
639.910	0.0178505
639.988	0.0178465
640.067	0.0177640
640.145	0.0177334
640.223	0.0177559
640.301	0.0178156
640.379	0.0178188
640.457	0.0178340
640.535	0.0178748
640.613	0.0178226
640.692	0.0177543
640.770	0.0177622
640.848	0.0178284
640.926	0.0177123
641.004	0.0176976
641.082	0.0177378
641.160	0.0178902
641.238	0.0178940
641.317	0.0179017
641.395	0.0176886
641.473	0.0177752
641.551	0.0178549
641.629	0.0177161
641.707	0.0177898
641.785	0.0177845
641.863	0.0176807
641.942	0.0177426
642.020	0.0178119
642.098	0.0177814
642.176	0.0177396
642.254	0.0176042
642.332	0.0175448
642.410	0.0178114
642.488	0.0176173
642.567	0.0176510
642.645	0.0176571
642.723	0.0177784
642.801	0.0178060
642.879	0.0178401
642.957	0.0177843
643.035	0.0177917
643.113	0.0178998
643.192	0.0177471
643.270	0.0178543
643.348	0.0178861
643.426	0.0178590
643.504	0.0177309
643.582	0.0176242
643.660	0.0176897
643.738	0.0179313
643.817	0.0177987
643.895	0.0177612
643.973	0.0176293
644.051	0.0176493
644.129	0.0176414
644.207	0.0176606
644.285	0.0176392
644.363	0.0176508
644.442	0.0174739
644.520	0.0174963
644.598	0.0175746
644.676	0.0176337
644.754	0.0175278
644.832	0.0175827
644.910	0.0176539
644.988	0.0176233
645.067	0.0176911
645.145	0.0176688
645.223	0.0177975
645.301	0.0176567
645.379	0.0178813
645.457	0.0177650
645.535	0.0177477
645.613	0.0176612
645.692	0.0177063
645.770	0.0176951
645.848	0.0175890
645.926	0.0177428
646.004	0.0177972
646.082	0.0177692
646.160	0.0176287
646.238	0.0175811
646.317	0.0177658
646.395	0.0177235
646.473	0.0175361
646.551	0.0177480
646.629	0.0176309
646.707	0.0177174
646.785	0.0175423
646.863	0.0176697
646.942	0.0177132
647.020	0.0176105
647.098	0.0178036
647.176	0.0178028
647.254	0.0177803
647.332	0.0177888
647.410	0.0177778
647.488	0.0178314
647.567	0.0177819
647.645	0.0177483
647.723	0.0178333
647.801	0.0177738
647.879	0.0177512
647.957	0.0177735
648.035	0.0176889
648.113	0.0177294
648.192	0.0176995
648.270	0.0176908
648.348	0.0176017
648.426	0.0177071
648.504	0.0177544
648.582	0.0177034
648.660	0.0178082
648.738	0.0177939
648.817	0.0178484
648.895	0.0177868
648.973	0.0178611
649.051	0.0177906
649.129	0.0176565
649.207	0.0177467
649.285	0.0177127
649.363	0.0177944
649.442	0.0177817
649.520	0.0176459
649.598	0.0178083
649.676	0.0178021
649.754	0.0178184
649.832	0.0178342
649.910	0.0177776
649.988	0.0178823
650.067	0.0179725
650.145	0.0178543
650.223	0.0177908
650.301	0.0176947
650.379	0.0178175
650.457	0.0178413
650.535	0.0177827
650.613	0.0177091
650.692	0.0177651
650.770	0.0177988
650.848	0.0178475
650.926	0.0178608
651.004	0.0176553
651.082	0.0176620
651.160	0.0176574
651.238	0.0175832
651.317	0.0176541
651.395	0.0176489
651.473	0.0177807
651.551	0.0177531
651.629	0.0176654
651.707	0.0176337
651.785	0.0176847
651.863	0.0175785
651.942	0.0177269
652.020	0.0178196
652.098	0.0176086
652.176	0.0177776
652.254	0.0177867
652.332	0.0177661
652.410	0.0177132
652.488	0.0179331
652.567	0.0179922
652.645	0.0178392
652.723	0.0178836
652.801	0.0178080
652.879	0.0178160
652.957	0.0179243
653.035	0.0179042
653.113	0.0178900
653.192	0.0178324
653.270	0.0177511
653.348	0.0176672
653.426	0.0176800
653.504	0.0177346
653.582	0.0176698
653.660	0.0177327
653.738	0.0175711
653.817	0.0176170
653.895	0.0175230
653.973	0.0175761
654.051	0.0175164
654.129	0.0174181
654.207	0.0175247
654.285	0.0176176
654.363	0.0175764
654.442	0.0175493
654.520	0.0175446
654.598	0.0175166
654.676	0.0176160
654.754	0.0176058
654.832	0.0175957
654.910	0.0176807
654.988	0.0176570
655.067	0.0174802
655.145	0.0175906
655.223	0.0178286
655.301	0.0175870
655.379	0.0176682
655.457	0.0177315
655.535	0.0177529
655.613	0.0177506
655.692	0.0177063
655.770	0.0176446
655.848	0.0175846
655.926	0.0176637
656.004	0.0177208
656.082	0.0176701
656.160	0.0175314
656.238	0.0176426
656.317	0.0176391
656.395	0.0177115
656.473	0.0176740
656.551	0.0177086
656.629	0.0177789
656.707	0.0177353
656.785	0.0178929
656.863	0.0178540
656.942	0.0178465
657.020	0.0178239
657.098	0.0178651
657.176	0.0178980
657.254	0.0177467
657.332	0.0177451
657.410	0.0179388
657.488	0.0178728
657.567	0.0176887
657.645	0.0177556
657.723	0.0176456
657.801	0.0177374
657.879	0.0176842
657.957	0.0177432
658.035	0.0177561
658.113	0.0177355
658.192	0.0176141
658.270	0.0177496
658.348	0.0176170
658.426	0.0177303
658.504	0.0177156
658.582	0.0176559
658.660	0.0176820
658.738	0.0177041
658.817	0.0176659
658.895	0.0175925
658.973	0.0177351
659.051	0.0177596
659.129	0.0176573
659.207	0.0176096
659.285	0.0175986
659.363	0.0178017
659.442	0.0177752
659.520	0.0178181
659.598	0.0177046
659.676	0.0177918
659.754	0.0177464
659.832	0.0177710
659.910	0.0177514
659.988	0.0178137
660.067	0.0178139
660.145	0.0178147
660.223	0.0177336
660.301	0.0177200
660.379	0.0177840
660.457	0.0178281
660.535	0.0177513
660.613	0.0176888
660.692	0.0178485
660.770	0.0178042
660.848	0.0176668
660.926	0.0177401
661.004	0.0177010
661.082	0.0177951
661.160	0.0178204
661.238	0.0175893
661.317	0.0176560
661.395	0.0176761
661.473	0.0176716
661.551	0.0176575
661.629	0.0177218
661.707	0.0176562
661.785	0.0176279
661.863	0.0176174
661.942	0.0175715
662.020	0.0177088
662.098	0.0176131
662.176	0.0174883
662.254	0.0174454
662.332	0.0176618
662.410	0.0175578
662.488	0.0174864
662.567	0.0175688
662.645	0.0176915
662.723	0.0176835
662.801	0.0175700
662.879	0.0175500
662.957	0.0177319
663.035	0.0178261
663.113	0.0177769
663.192	0.0178589
663.270	0.0177315
663.348	0.0178712
663.426	0.0178260
663.504	0.0177912
663.582	0.0178281
663.660	0.0178144
663.738	0.0178963
663.817	0.0177469
663.895	0.0178163
663.973	0.0177735
664.051	0.0176644
664.129	0.0176128
664.207	0.0177531
664.285	0.0176583
664.363	0.0176162
664.442	0.0177219
664.520	0.0176555
664.598	0.0176366
664.676	0.0175013
664.754	0.0174989
664.832	0.0176064
664.910	0.0175271
664.988	0.0176188
665.067	0.0176919
665.145	0.0176326
665.223	0.0176169
665.301	0.0176025
665.379	0.0176326
665.457	0.0176480
665.535	0.0175997
665.613	0.0175075
665.692	0.0176189
665.770	0.0176463
665.848	0.0175613
665.926	0.0175725
666.004	0.0175657
666.082	0.0175845
666.160	0.0175811
666.238	0.0177061
666.317	0.0176949
666.395	0.0176844
666.473	0.0176653
666.551	0.0178352
666.629	0.0175887
666.707	0.0177046
666.785	0.0178074
666.863	0.0176845
666.942	0.0178082
667.020	0.0179227
667.098	0.0176840
667.176	0.0177458
667.254	0.0177713
667.332	0.0177743
667.410	0.0177511
667.488	0.0176928
667.567	0.0176691
667.645	0.0176940
667.723	0.0176662
667.801	0.0177022
667.879	0.0176170
667.957	0.0177547
668.035	0.0177225
668.113	0.0176079
668.192	0.0175217
668.270	0.0176519
668.348	0.0175778
668.426	0.0175875
668.504	0.0175638
668.582	0.0175826
668.660	0.0175611
668.738	0.0175634
668.817	0.0174460
668.895	0.0175606
668.973	0.0176110
669.051	0.0175078
669.129	0.0176897
669.207	0.0177197
669.285	0.0177764
669.363	0.0177689
669.442	0.0176318
669.520	0.0175548
669.598	0.0177155
669.676	0.0178131
669.754	0.0175929
669.832	0.0177781
669.910	0.0177409
669.988	0.0178123
670.067	0.0178963
670.145	0.0176910
670.223	0.0177467
670.301	0.0177317
670.379	0.0177352
670.457	0.0177834
670.535	0.0177679
670.613	0.0177691
670.692	0.0177999
670.770	0.0176081
670.848	0.0177222
670.926	0.0177253
671.004	0.0176536
671.082	0.0177219
671.160	0.0176220
671.238	0.0177467
671.317	0.0178342
671.395	0.0177701
671.473	0.0177687
671.551	0.0178436
671.629	0.0178205
671.707	0.0176143
671.785	0.0177143
671.863	0.0177100
671.942	0.0175774
672.020	0.0175749
672.098	0.0175730
672.176	0.0176466
672.254	0.0175919
672.332	0.0176888
672.410	0.0176193
672.488	0.0174892
672.567	0.0175001
672.645	0.0176625
672.723	0.0175683
672.801	0.0175996
672.879	0.0176914
672.957	0.0175494
673.035	0.0176057
673.113	0.0177834
673.192	0.0176321
673.270	0.0176907
673.348	0.0175045
673.426	0.0176403
673.504	0.0176307
673.582	0.0174792
673.660	0.0176952
673.738	0.0176450
673.817	0.0175795
673.895	0.0175110
673.973	0.0176469
674.051	0.0176907
674.129	0.0177340
674.207	0.0177088
674.285	0.0177417
674.363	0.0177171
674.442	0.0179277
674.520	0.0179066
674.598	0.0178992
674.676	0.0179123
674.754	0.0180782
674.832	0.0180348
674.910	0.0179212
674.988	0.0178494
675.067	0.0181314
675.145	0.0180287
675.223	0.0177605
675.301	0.0176520
675.379	0.0178572
675.457	0.0176820
675.535	0.0176534
675.613	0.0176637
675.692	0.0174905
675.770	0.0174630
675.848	0.0174761
675.926	0.0173730
676.004	0.0173149
676.082	0.0174585
676.160	0.0174889
676.238	0.0174635
676.317	0.0174011
676.395	0.0173835
676.473	0.0175080
676.551	0.0176455
676.629	0.0177826
676.707	0.0178300
676.785	0.0178009
676.863	0.0179123
676.942	0.0180337
677.020	0.0180138
677.098	0.0181220
677.176	0.0181008
677.254	0.0180930
677.332	0.0181410
677.410	0.0181164
677.488	0.0182384
677.567	0.0180361
677.645	0.0179953
677.723	0.0179105
677.801	0.0178661
677.879	0.0178473
677.957	0.0179689
678.035	0.0178746
678.113	0.0176768
678.192	0.0176688
678.270	0.0177695
678.348	0.0177052
678.426	0.0177663
678.504	0.0177446
678.582	0.0176611
678.660	0.0178182
678.738	0.0177782
678.817	0.0180859
678.895	0.0180312
678.973	0.0181143
679.051	0.0183333
679.129	0.0182216
679.207	0.0180728
679.285	0.0182331
679.363	0.0182895
679.442	0.0180805
679.520	0.0182156
679.598	0.0179404
679.676	0.0178548
679.754	0.0177651
679.832	0.0176510
679.910	0.0176333
679.988	0.0173727
680.067	0.0172675
680.145	0.0171738
680.223	0.0172301
680.301	0.0170204
680.379	0.0170653
680.457	0.0169343
680.535	0.0170800
680.613	0.0170364
680.692	0.0170615
680.770	0.0171195
680.848	0.0171902
680.926	0.0171635
681.004	0.0173347
681.082	0.0173129
681.160	0.0174392
681.238	0.0177485
681.317	0.0176512
681.395	0.0178291
681.473	0.0178225
681.551	0.0180209
681.629	0.0182072
681.707	0.0182652
681.785	0.0183695
681.863	0.0185823
681.942	0.0185375
682.020	0.0186819
682.098	0.0188547
682.176	0.0188636
682.254	0.0186322
682.332	0.0187913
682.410	0.0189005
682.488	0.0187163
682.567	0.0184987
682.645	0.0185323
682.723	0.0185416
682.801	0.0182092
682.879	0.0182465
682.957	0.0178951
683.035	0.0175964
683.113	0.0174219
683.192	0.0172009
683.270	0.0171148
683.348	0.0168099
683.426	0.0166067
683.504	0.0164266
683.582	0.0164314
683.660	0.0162685
683.738	0.0161392
683.817	0.0160638
683.895	0.0160617
683.973	0.0161207
684.051	0.0161004
684.129	0.0163193
684.207	0.0163541
684.285	0.0164368
684.363	0.0165340
684.442	0.0167089
684.520	0.0168520
684.598	0.0169617
684.676	0.0170659
684.754	0.0173981
684.832	0.0175632
684.910	0.0176078
684.988	0.0178706
685.067	0.0181046
685.145	0.0181042
685.223	0.0183428
685.301	0.0184835
685.379	0.0186433
685.457	0.0188016
685.535	0.0189124
685.613	0.0189840
685.692	0.0191193
685.770	0.0192706
685.848	0.0192338
685.926	0.0192696
686.004	0.0191489
686.082	0.0191553
686.160	0.0191209
686.238	0.0189900
686.317	0.0187493
686.395	0.0186267
686.473	0.0184667
686.551	0.0183588
686.629	0.0180495
686.707	0.0176997
686.785	0.0175061
686.863	0.0172366
686.942	0.0169515
687.020	0.0167093
687.098	0.0165863
687.176	0.0162678
687.254	0.0162074
687.332	0.0161499
687.410	0.0160231
687.488	0.0158289
687.567	0.0159757
687.645	0.0159931
687.723	0.0159751
687.801	0.0159557
687.879	0.0161503
687.957	0.0161320
688.035	0.0163347
688.113	0.0163574
688.192	0.0164379
688.270	0.0164343
688.348	0.0167542
688.426	0.0168729
688.504	0.0170169
688.582	0.0171259
688.660	0.0174699
688.738	0.0176511
688.817	0.0177227
688.895	0.0180110
688.973	0.0182590
689.051	0.0183792
689.129	0.0186353
689.207	0.0187196
689.285	0.0189112
689.363	0.0192487
689.442	0.0189822
689.520	0.0192198
689.598	0.0192374
689.676	0.0192624
689.754	0.0193611
689.832	0.0192032
689.910	0.0190637
689.988	0.0191898
690.067	0.0191072
690.145	0.0190525
690.223	0.0187910
690.301	0.0188501
690.379	0.0187669
690.457	0.0185335
690.535	0.0184449
690.613	0.0183199
690.692	0.0183403
690.770	0.0181200
690.848	0.0179068
690.926	0.0178443
691.004	0.0176363
691.082	0.0174780
691.160	0.0172645
691.238	0.0171433
691.317	0.0171956
691.395	0.0169210
691.473	0.0166805
691.551	0.0167149
691.629	0.0166090
691.707	0.0164937
691.785	0.0164008
691.863	0.0166065
691.942	0.0163611
692.020	0.0164203
692.098	0.0164639
692.176	0.0165155
692.254	0.0165875
692.332	0.0167116
692.410	0.0169212
692.488	0.0169755
692.567	0.0171280
692.645	0.0173254
692.723	0.0174820
692.801	0.0174450
692.879	0.0176860
692.957	0.0177959
693.035	0.0179908
693.113	0.0180779
693.192	0.0182735
693.270	0.0184113
693.348	0.0185011
693.426	0.0186817
693.504	0.0187754
693.582	0.0187840
693.660	0.0188118
693.738	0.0189705
693.817	0.0189672
693.895	0.0190348
693.973	0.0190628
694.051	0.0189547
694.129	0.0189203
694.207	0.0189102
694.285	0.0189995
694.363	0.0188603
694.442	0.0186996
694.520	0.0187929
694.598	0.0186888
694.676	0.0186533
694.754	0.0184424
694.832	0.0185847
694.910	0.0183054
694.988	0.0180999
695.067	0.0182393
695.145	0.0182182
695.223	0.0181536
695.301	0.0180440
695.379	0.0179061
695.457	0.0178313
695.535	0.0177864
695.613	0.0177330
695.692	0.0175517
695.770	0.0175426
695.848	0.0172466
695.926	0.0171763
696.004	0.0169459
696.082	0.0170072
696.160	0.0168070
696.238	0.0166070
696.317	0.0164192
696.395	0.0163466
696.473	0.0162827
696.551	0.0161803
696.629	0.0160841
696.707	0.0160493
696.785	0.0160870
696.863	0.0161845
696.942	0.0161730
697.020	0.0163550
697.098	0.0164858
697.176	0.0165754
697.254	0.0165916
697.332	0.0168914
697.410	0.0170763
697.488	0.0173392
697.567	0.0175181
697.645	0.0178522
697.723	0.0179883
697.801	0.0183568
697.879	0.0184402
697.957	0.0186559
698.035	0.0188216
698.113	0.0187758
698.192	0.0190007
698.270	0.0190622
698.348	0.0191854
698.426	0.0192191
698.504	0.0189331
698.582	0.0191996
698.660	0.0192682
698.738	0.0191329
698.817	0.0190823
698.895	0.0190111
698.973	0.0189590
699.051	0.0188719
699.129	0.0187496
699.207	0.0188138
699.285	0.0187428
699.363	0.0187601
699.442	0.0184785
699.520	0.0185050
699.598	0.0184820
699.676	0.0183008
699.754	0.0184358
699.832	0.0180110
699.910	0.0178674
699.988	0.0178807
700.067	0.0175803
700.145	0.0174711
700.223	0.0174294
700.301	0.0174200
700.379	0.0172790
700.457	0.0172884
700.535	0.0170116
700.613	0.0170246
700.692	0.0170277
700.770	0.0170512
700.848	0.0170268
700.926	0.0169195
701.004	0.0169961
701.082	0.0169353
701.160	0.0167538
701.238	0.0168079
701.317	0.0166140
701.395	0.0166976
701.473	0.0166199
701.551	0.0166636
701.629	0.0167049
701.707	0.0165780
701.785	0.0167064
701.863	0.0166468
701.942	0.0167091
702.020	0.0167716
702.098	0.0168612
702.176	0.0169947
702.254	0.0171253
702.332	0.0172652
702.410	0.0173650
702.488	0.0175052
702.567	0.0177725
702.645	0.0179288
702.723	0.0181099
702.801	0.0183813
702.879	0.0185104
702.957	0.0185872
703.035	0.0189182
703.113	0.0189414
703.192	0.0192101
703.270	0.0191882
703.348	0.0194973
703.426	0.0194178
703.504	0.0195942
703.582	0.0197169
703.660	0.0195038
703.738	0.0195480
703.817	0.0195737
703.895	0.0195499
703.973	0.0195639
704.051	0.0193262
704.129	0.0192489
704.207	0.0191440
704.285	0.0187778
704.363	0.0184518
704.442	0.0182936
704.520	0.0181802
704.598	0.0179507
704.676	0.0174644
704.754	0.0173186
704.832	0.0172139
704.910	0.0168006
704.988	0.0167036
705.067	0.0165759
705.145	0.0163922
705.223	0.0162767
705.301	0.0161362
705.379	0.0161113
705.457	0.0159150
705.535	0.0159538
705.613	0.0159560
705.692	0.0160369
705.770	0.0160902
705.848	0.0163125
705.926	0.0164501
706.004	0.0165637
706.082	0.0167429
706.160	0.0169597
706.238	0.0173065
706.317	0.0174621
706.395	0.0176223
706.473	0.0178869
706.551	0.0182784
706.629	0.0184553
706.707	0.0186140
706.785	0.0189067
706.863	0.0188078
706.942	0.0190273
707.020	0.0190221
707.098	0.0190389
707.176	0.0189627
707.254	0.0190578
707.332	0.0186510
707.410	0.0184019
707.488	0.0182674
707.567	0.0179768
707.645	0.0178555
707.723	0.0176051
707.801	0.0173825
707.879	0.0170557
707.957	0.0169842
708.035	0.0168082
708.113	0.0165569
708.192	0.0164658
708.270	0.0165573
708.348	0.0164973
708.426	0.0164937
708.504	0.0166159
708.582	0.0165577
708.660	0.0166566
708.738	0.0168832
708.817	0.0170436
708.895	0.0169824
708.973	0.0173150
709.051	0.0174588
709.129	0.0176636
709.207	0.0177290
709.285	0.0180772
709.363	0.0182123
709.442	0.0184919
709.520	0.0186037
709.598	0.0189417
709.676	0.0190561
709.754	0.0192068
709.832	0.0192905
709.910	0.0192666
709.988	0.0191211
710.067	0.0191759
710.145	0.0190762
710.223	0.0190960
710.301	0.0191361
710.379	0.0188354
710.457	0.0188769
710.535	0.0187630
710.613	0.0185355
710.692	0.0183317
710.770	0.0182426
710.848	0.0180251
710.926	0.0179092
711.004	0.0178184
711.082	0.0176869
711.160	0.0173711
711.238	0.0171666
711.317	0.0170736
711.395	0.0169067
711.473	0.0168457
711.551	0.0167436
711.629	0.0167345
711.707	0.0165274
711.785	0.0165082
711.863	0.0165643
711.942	0.0163322
712.020	0.0163902
712.098	0.0164639
712.176	0.0164332
712.254	0.0164236
712.332	0.0165692
712.410	0.0164545
712.488	0.0167676
712.567	0.0167452
712.645	0.0169469
712.723	0.0168039
712.801	0.0169237
712.879	0.0170389
712.957	0.0171033
713.035	0.0173058
713.113	0.0172115
713.192	0.0172978
713.270	0.0172349
713.348	0.0172869
713.426	0.0173881
713.504	0.0176980
713.582	0.0177692
713.660	0.0177136
713.738	0.0178989
713.817	0.0180592
713.895	0.0181245
713.973	0.0183228
714.051	0.0184961
714.129	0.0185231
714.207	0.0186192
714.285	0.0187424
714.363	0.0188244
714.442	0.0189631
714.520	0.0187987
714.598	0.0188606
714.676	0.0189294
714.754	0.0188559
714.832	0.0188519
714.910	0.0189433
714.988	0.0187865
715.067	0.0189838
715.145	0.0190144
715.223	0.0188315
715.301	0.0187807
715.379	0.0188597
715.457	0.0188295
715.535	0.0187466
715.613	0.0187498
715.692	0.0188103
715.770	0.0186671
715.848	0.0184043
715.926	0.0184196
716.004	0.0182349
716.082	0.0181586
716.160	0.0179545
716.238	0.0176926
716.317	0.0175441
716.395	0.0173961
716.473	0.0171201
716.551	0.0170032
716.629	0.0168027
716.707	0.0167453
716.785	0.0168438
716.863	0.0167094
716.942	0.0166534
717.020	0.0166204
717.098	0.0166045
717.176	0.0164825
717.254	0.0166060
717.332	0.0167186
717.410	0.0167003
717.488	0.0167820
717.567	0.0169198
717.645	0.0169749
717.723	0.0170937
717.801	0.0171888
717.879	0.0171836
717.957	0.0173922
718.035	0.0173695
718.113	0.0174323
718.192	0.0175033
718.270	0.0175897
718.348	0.0176667
718.426	0.0176463
718.504	0.0176648
718.582	0.0175861
718.660	0.0175235
718.738	0.0176653
718.817	0.0177480
718.895	0.0176854
718.973	0.0176634
719.051	0.0175550
719.129	0.0175270
719.207	0.0176158
719.285	0.0176125
719.363	0.0175808
719.442	0.0177778
719.520	0.0177134
719.598	0.0178657
719.676	0.0178462
719.754	0.0178603
719.832	0.0180363
719.910	0.0180475
719.988	0.0180996
720.067	0.0182399
720.145	0.0182822
720.223	0.0183833
720.301	0.0185919
720.379	0.0184475
720.457	0.0186161
720.535	0.0187253
720.613	0.0186959
720.692	0.0187268
720.770	0.0185946
720.848	0.0185937
720.926	0.0186346
721.004	0.0185181
721.082	0.0183951
721.160	0.0184680
721.238	0.0183114
721.317	0.0182896
721.395	0.0182824
721.473	0.0182970
721.551	0.0183246
721.629	0.0182081
721.707	0.0183443
721.785	0.0182212
721.863	0.0182355
721.942	0.0182146
722.020	0.0181821
722.098	0.0182215
722.176	0.0182066
722.254	0.0179984
722.332	0.0179672
722.410	0.0179510
722.488	0.0179375
722.567	0.0179304
722.645	0.0177753
722.723	0.0177230
722.801	0.0177453
722.879	0.0176093
722.957	0.0175887
723.035	0.0173879
723.113	0.0171995
723.192	0.0171766
723.270	0.0170850
723.348	0.0170632
723.426	0.0169700
723.504	0.0168365
723.582	0.0167812
723.660	0.0167451
723.738	0.0166725
723.817	0.0166467
723.895	0.0166412
723.973	0.0164494
724.051	0.0165672
724.129	0.0163380
724.207	0.0164369
724.285	0.0165987
724.363	0.0166667
724.442	0.0168619
724.520	0.0167834
724.598	0.0169263
724.676	0.0169906
724.754	0.0171861
724.832	0.0173272
724.910	0.0174046
724.988	0.0176454
725.067	0.0177107
725.145	0.0177950
725.223	0.0178413
725.301	0.0178754
725.379	0.0179890
725.457	0.0180300
725.535	0.0181064
725.613	0.0181155
725.692	0.0181213
725.770	0.0183247
725.848	0.0182943
725.926	0.0183648
726.004	0.0182633
726.082	0.0183459
726.160	0.0184943
726.238	0.0184914
726.317	0.0185082
726.395	0.0184427
726.473	0.0184764
726.551	0.0186816
726.629	0.0187059
726.707	0.0187463
726.785	0.0186746
726.863	0.0187244
726.942	0.0185899
727.020	0.0186330
727.098	0.0188077
727.176	0.0186322
727.254	0.0186616
727.332	0.0186629
727.410	0.0186636
727.488	0.0185274
727.567	0.0185683
727.645	0.0184067
727.723	0.0182166
727.801	0.0182468
727.879	0.0181881
727.957	0.0180231
728.035	0.0178889
728.113	0.0177786
728.192	0.0176255
728.270	0.0174903
728.348	0.0174223
728.426	0.0174147
728.504	0.0173333
728.582	0.0171825
728.660	0.0172240
728.738	0.0171942
728.817	0.0172315
728.895	0.0174021
728.973	0.0172423
729.051	0.0173254
729.129	0.0174022
729.207	0.0172749
729.285	0.0173928
729.363	0.0172851
729.442	0.0172459
729.520	0.0172118
729.598	0.0173414
729.676	0.0174570
729.754	0.0172047
729.832	0.0171241
729.910	0.0173615
729.988	0.0172761
730.067	0.0171548
730.145	0.0171297
730.223	0.0170694
730.301	0.0170399
730.379	0.0170808
730.457	0.0171238
730.535	0.0170116
730.613	0.0171157
730.692	0.0169514
730.770	0.0169598
730.848	0.0171381
730.926	0.0170669
731.004	0.0170432
731.082	0.0170876
731.160	0.0173290
731.238	0.0173661
731.317	0.0175034
731.395	0.0174258
731.473	0.0176009
731.551	0.0175665
731.629	0.0177377
731.707	0.0178865
731.785	0.0179304
731.863	0.0180130
731.942	0.0179779
732.020	0.0178916
732.098	0.0181720
732.176	0.0182121
732.254	0.0180023
732.332	0.0180691
732.410	0.0180225
732.488	0.0178805
732.567	0.0180014
732.645	0.0180266
732.723	0.0178634
732.801	0.0178820
732.879	0.0181035
732.957	0.0180868
733.035	0.0181609
733.113	0.0181747
733.192	0.0182959
733.270	0.0183238
733.348	0.0184674
733.426	0.0185949
733.504	0.0185966
733.582	0.0186385
733.660	0.0187361
733.738	0.0187704
733.817	0.0186452
733.895	0.0187108
733.973	0.0187472
734.051	0.0186763
734.129	0.0185371
734.207	0.0183559
734.285	0.0182652
734.363	0.0181685
734.442	0.0180660
734.520	0.0179948
734.598	0.0178582
734.676	0.0177135
734.754	0.0176488
734.832	0.0175156
734.910	0.0175161
734.988	0.0176064
735.067	0.0175520
735.145	0.0173656
735.223	0.0174634
735.301	0.0173741
735.379	0.0173626
735.457	0.0173318
735.535	0.0174225
735.613	0.0173193
735.692	0.0173654
735.770	0.0172066
735.848	0.0172683
735.926	0.0171712
736.004	0.0171925
736.082	0.0172386
736.160	0.0170836
736.238	0.0171763
736.317	0.0169873
736.395	0.0169754
736.473	0.0169399
736.551	0.0168169
736.629	0.0168399
736.707	0.0167351
736.785	0.0167218
736.863	0.0167809
736.942	0.0167960
737.020	0.0168844
737.098	0.0169820
737.176	0.0170329
737.254	0.0170573
737.332	0.0172511
737.410	0.0172961
737.488	0.0173857
737.567	0.0174118
737.645	0.0176624
737.723	0.0176620
737.801	0.0177991
737.879	0.0177382
737.957	0.0179740
738.035	0.0179823
738.113	0.0180537
738.192	0.0180217
738.270	0.0181271
738.348	0.0181685
738.426	0.0182007
738.504	0.0182235
738.582	0.0182184
738.660	0.0184375
738.738	0.0183671
738.817	0.0183567
738.895	0.0182426
738.973	0.0182958
739.051	0.0182648
739.129	0.0183116
739.207	0.0181834
739.285	0.0180435
739.363	0.0181001
739.442	0.0180952
739.520	0.0180254
739.598	0.0179505
739.676	0.0179392
739.754	0.0179707
739.832	0.0179495
739.910	0.0179591
739.988	0.0180316
740.067	0.0180157
740.145	0.0181713
740.223	0.0181281
740.301	0.0182298
740.379	0.0182865
740.457	0.0181906
740.535	0.0183531
740.613	0.0183493
740.692	0.0182796
740.770	0.0182705
740.848	0.0183378
740.926	0.0182491
741.004	0.0181700
741.082	0.0181255
741.160	0.0178618
741.238	0.0177472
741.317	0.0177193
741.395	0.0174909
741.473	0.0174856
741.551	0.0173576
741.629	0.0173007
741.707	0.0172168
741.785	0.0170925
741.863	0.0169716
741.942	0.0169175
742.020	0.0170741
742.098	0.0170979
742.176	0.0171169
742.254	0.0171262
742.332	0.0170779
742.410	0.0171556
742.488	0.0172794
742.567	0.0173301
742.645	0.0173487
742.723	0.0172274
742.801	0.0173088
742.879	0.0173796
742.957	0.0173714
743.035	0.0174337
743.113	0.0173604
743.192	0.0173155
743.270	0.0175659
743.348	0.0173742
743.426	0.0175955
743.504	0.0175109
743.582	0.0174583
743.660	0.0175234
743.738	0.0175494
743.817	0.0176384
743.895	0.0178140
743.973	0.0177434
744.051	0.0177246
744.129	0.0176934
744.207	0.0178404
744.285	0.0178034
744.363	0.0178561
744.442	0.0178728
744.520	0.0178826
744.598	0.0179428
744.676	0.0178907
744.754	0.0178188
744.832	0.0180891
744.910	0.0180761
744.988	0.0181049
745.067	0.0181554
745.145	0.0180566
745.223	0.0182555
745.301	0.0182711
745.379	0.0183492
745.457	0.0183765
745.535	0.0183204
745.613	0.0183802
745.692	0.0181648
745.770	0.0183503
745.848	0.0182442
745.926	0.0181212
746.004	0.0179441
746.082	0.0180363
746.160	0.0178648
746.238	0.0178665
746.317	0.0177069
746.395	0.0177996
746.473	0.0177556
746.551	0.0177212
746.629	0.0176349
746.707	0.0175541
746.785	0.0177989
746.863	0.0178004
746.942	0.0177840
747.020	0.0176987
747.098	0.0178162
747.176	0.0178490
747.254	0.0177213
747.332	0.0178196
747.410	0.0177137
747.488	0.0177913
747.567	0.0180280
747.645	0.0179737
747.723	0.0178300
747.801	0.0177872
747.879	0.0178164
747.957	0.0178127
748.035	0.0178180
748.113	0.0178127
748.192	0.0177890
748.270	0.0175567
748.348	0.0176317
748.426	0.0177583
748.504	0.0176169
748.582	0.0175192
748.660	0.0176307
748.738	0.0174914
748.817	0.0175250
748.895	0.0175570
748.973	0.0173619
749.051	0.0175351
749.129	0.0173981
749.207	0.0174384
749.285	0.0174557
749.363	0.0172962
749.442	0.0174447
749.520	0.0174992
749.598	0.0174615
749.676	0.0175187
749.754	0.0176068
749.832	0.0175964
749.910	0.0175533
749.988	0.0174615
750.067	0.0176726
750.145	0.0176738
750.223	0.0178253
750.301	0.0177457
750.379	0.0177824
750.457	0.0176175
750.535	0.0177132
750.613	0.0178972
750.692	0.0178025
750.770	0.0178243
750.848	0.0177223
750.926	0.0175667
751.004	0.0177750
751.082	0.0176851
751.160	0.0175861
751.238	0.0173856
751.317	0.0174093
751.395	0.0174786
751.473	0.0173524
751.551	0.0174288
751.629	0.0173344
751.707	0.0173935
751.785	0.0172916
751.863	0.0171937
751.942	0.0173458
752.020	0.0174265
752.098	0.0172104
752.176	0.0174687
752.254	0.0176537
752.332	0.0175699
752.410	0.0175956
752.488	0.0176957
752.567	0.0177936
752.645	0.0178624
752.723	0.0178223
752.801	0.0178887
752.879	0.0179202
752.957	0.0180325
753.035	0.0179965
753.113	0.0178774
753.192	0.0181111
753.270	0.0180807
753.348	0.0179680
753.426	0.0179293
753.504	0.0180511
753.582	0.0180581
753.660	0.0181034
753.738	0.0180165
753.817	0.0180654
753.895	0.0180495
753.973	0.0178918
754.051	0.0178958
754.129	0.0180260
754.207	0.0178642
754.285	0.0178798
754.363	0.0181562
754.442	0.0179539
754.520	0.0178510
754.598	0.0180318
754.676	0.0178213
754.754	0.0178391
754.832	0.0178499
754.910	0.0178374
754.988	0.0178829
755.067	0.0179105
755.145	0.0177763
755.223	0.0177882
755.301	0.0177285
755.379	0.0177464
755.457	0.0177123
755.535	0.0176762
755.613	0.0176883
755.692	0.0176425
755.770	0.0176357
755.848	0.0176614
755.926	0.0174639
756.004	0.0177105
756.082	0.0175689
756.160	0.0174844
756.238	0.0175172
756.317	0.0174828
756.395	0.0174680
756.473	0.0176204
756.551	0.0174731
756.629	0.0175681
756.707	0.0175582
756.785	0.0176288
756.863	0.0176692
756.942	0.0178254
757.020	0.0177737
757.098	0.0177427
757.176	0.0177345
757.254	0.0179004
757.332	0.0177374
757.410	0.0176525
757.488	0.0176816
757.567	0.0176887
757.645	0.0176176
757.723	0.0174336
757.801	0.0175853
757.879	0.0175266
757.957	0.0174509
758.035	0.0174055
758.113	0.0174857
758.192	0.0175102
758.270	0.0174123
758.348	0.0174454
758.426	0.0173889
758.504	0.0173502
758.582	0.0173877
758.660	0.0173582
758.738	0.0174501
758.817	0.0174603
758.895	0.0175591
758.973	0.0174120
759.051	0.0175151
759.129	0.0175842
759.207	0.0176239
759.285	0.0176772
759.363	0.0176548
759.442	0.0175368
759.520	0.0175575
759.598	0.0175824
759.676	0.0176627
759.754	0.0177065
759.832	0.0176290
759.910	0.0175945
759.988	0.0175523
760.067	0.0177287
760.145	0.0175856
760.223	0.0175967
760.301	0.0175472
760.379	0.0176986
760.457	0.0176817
760.535	0.0177837
760.613	0.0176550
760.692	0.0177707
760.770	0.0176964
760.848	0.0177354
760.926	0.0177495
761.004	0.0178553
761.082	0.0178564
761.160	0.0177988
761.238	0.0177013
761.317	0.0178466
761.395	0.0179498
761.473	0.0177900
761.551	0.0178728
761.629	0.0176727
761.707	0.0177206
761.785	0.0176548
761.863	0.0177100
761.942	0.0176099
762.020	0.0176003
762.098	0.0176137
762.176	0.0173606
762.254	0.0174387
762.332	0.0175491
762.410	0.0176849
762.488	0.0175542
762.567	0.0175900
762.645	0.0176105
762.723	0.0176633
762.801	0.0176916
762.879	0.0176677
762.957	0.0177661
763.035	0.0178160
763.113	0.0178683
763.192	0.0179105
763.270	0.0180189
763.348	0.0180069
763.426	0.0181494
763.504	0.0181669
763.582	0.0180952
763.660	0.0182021
763.738	0.0181752
763.817	0.0181837
763.895	0.0181934
763.973	0.0182073
764.051	0.0181930
764.129	0.0180650
764.207	0.0181409
764.285	0.0181683
764.363	0.0179915
764.442	0.0178412
764.520	0.0179557
764.598	0.0179240
764.676	0.0178265
764.754	0.0179668
764.832	0.0177282
764.910	0.0178617
764.988	0.0179788
765.067	0.0178358
765.145	0.0177834
765.223	0.0178342
765.301	0.0176189
765.379	0.0175837
765.457	0.0177914
765.535	0.0177577
765.613	0.0175887
765.692	0.0175694
765.770	0.0174584
765.848	0.0174516
765.926	0.0174272
766.004	0.0174062
766.082	0.0173071
766.160	0.0172143
766.238	0.0172183
766.317	0.0172179
766.395	0.0174239
766.473	0.0173657
766.551	0.0172159
766.629	0.0174020
766.707	0.0174942
766.785	0.0174077
766.863	0.0175052
766.942	0.0174967
767.020	0.0174200
767.098	0.0175393
767.176	0.0174919
767.254	0.0175616
767.332	0.0175128
767.410	0.0175399
767.488	0.0177010
767.567	0.0176019
767.645	0.0174963
767.723	0.0177535
767.801	0.0175810
767.879	0.0175204
767.957	0.0176616
768.035	0.0175931
768.113	0.0176837
768.192	0.0175520
768.270	0.0177119
768.348	0.0177785
768.426	0.0175488
768.504	0.0175954
768.582	0.0176742
768.660	0.0179447
768.738	0.0178703
768.817	0.0176982
768.895	0.0179166
768.973	0.0179168
769.051	0.0180065
769.129	0.0179930
769.207	0.0181369
769.285	0.0182043
769.363	0.0179681
769.442	0.0181101
769.520	0.0179831
769.598	0.0179758
769.676	0.0179411
769.754	0.0177933
769.832	0.0178740
769.910	0.0177425
769.988	0.0176936
770.067	0.0176691
770.145	0.0177930
770.223	0.0177483
770.301	0.0176058
770.379	0.0176296
770.457	0.0176292
770.535	0.0176919
770.613	0.0177343
770.692	0.0175652
770.770	0.0176504
770.848	0.0176671
770.926	0.0178055
771.004	0.0178510
771.082	0.0178236
771.160	0.0178996
771.238	0.0178349
771.317	0.0179519
771.395	0.0179494
771.473	0.0180790
771.551	0.0181871
771.629	0.0181112
771.707	0.0181484
771.785	0.0180378
771.863	0.0181513
771.942	0.0180959
772.020	0.0181100
772.098	0.0181262
772.176	0.0181114
772.254	0.0182717
772.332	0.0180656
772.410	0.0181116
772.488	0.0178114
772.567	0.0179659
772.645	0.0178545
772.723	0.0176362
772.801	0.0178182
772.879	0.0177656
772.957	0.0176413
773.035	0.0175642
773.113	0.0174807
773.192	0.0175484
773.270	0.0173621
773.348	0.0173274
773.426	0.0172658
773.504	0.0172171
773.582	0.0172254
773.660	0.0173881
773.738	0.0172870
773.817	0.0172547
773.895	0.0171648
773.973	0.0173406
774.051	0.0174756
774.129	0.0174574
774.207	0.0175393
774.285	0.0176199
774.363	0.0175880
774.442	0.0176785
774.520	0.0177495
774.598	0.0177795
774.676	0.0178560
774.754	0.0178577
774.832	0.0180070
774.910	0.0180160
774.988	0.0179657
775.067	0.0179237
775.145	0.0179637
775.223	0.0178720
775.301	0.0178972
775.379	0.0179395
775.457	0.0178510
775.535	0.0178737
775.613	0.0178769
775.692	0.0179330
775.770	0.0177531
775.848	0.0178146
775.926	0.0178894
776.004	0.0178956
776.082	0.0178954
776.160	0.0178808
776.238	0.0178955
776.317	0.0179161
776.395	0.0179293
776.473	0.0179856
776.551	0.0179993
776.629	0.0180965
776.707	0.0180934
776.785	0.0180596
776.863	0.0180878
776.942	0.0181579
777.020	0.0180505
777.098	0.0181672
777.176	0.0182211
777.254	0.0182581
777.332	0.0182163
777.410	0.0181938
777.488	0.0181180
777.567	0.0181176
777.645	0.0182234
777.723	0.0181131
777.801	0.0179838
777.879	0.0180189
777.957	0.0180700
778.035	0.0180431
778.113	0.0179757
778.192	0.0179574
778.270	0.0178495
778.348	0.0179940
778.426	0.0179544
778.504	0.0178259
778.582	0.0178384
778.660	0.0179005
778.738	0.0179160
778.817	0.0179147
778.895	0.0178125
778.973	0.0178977
779.051	0.0177586
779.129	0.0179384
779.207	0.0178754
779.285	0.0177517
779.363	0.0176469
779.442	0.0177439
779.520	0.0177926
779.598	0.0179139
779.676	0.0175984
779.754	0.0177119
779.832	0.0176642
779.910	0.0175397
779.988	0.0175686
780.067	0.0174939
780.145	0.0176962
780.223	0.0175616
780.301	0.0175732
780.379	0.0175999
780.457	0.0174597
780.535	0.0175230
780.613	0.0175500
780.692	0.0174575
780.770	0.0172715
780.848	0.0173956
780.926	0.0175206
781.004	0.0174246
781.082	0.0172219
781.160	0.0173339
781.238	0.0172790
781.317	0.0173054
781.395	0.0170846
781.473	0.0170759
781.551	0.0170014
781.629	0.0169073
781.707	0.0168885
781.785	0.0169342
781.863	0.0169984
781.942	0.0169917
782.020	0.0169646
782.098	0.0170660
782.176	0.0171130
782.254	0.0172116
782.332	0.0174241
782.410	0.0173515
782.488	0.0175110
782.567	0.0175102
782.645	0.0174843
782.723	0.0177331
782.801	0.0178684
782.879	0.0178771
782.957	0.0178690
783.035	0.0178188
783.113	0.0179236
783.192	0.0178004
783.270	0.0179427
783.348	0.0179214
783.426	0.0177116
783.504	0.0175209
783.582	0.0175614
783.660	0.0175095
783.738	0.0174432
783.817	0.0174316
783.895	0.0172723
783.973	0.0173672
784.051	0.0172114
784.129	0.0173841
784.207	0.0175924
784.285	0.0174643
784.363	0.0172935
784.442	0.0175175
784.520	0.0175454
784.598	0.0174625
784.676	0.0176273
784.754	0.0177228
784.832	0.0178612
784.910	0.0177856
784.988	0.0178744
785.067	0.0179183
785.145	0.0178845
785.223	0.0180595
785.301	0.0180885
785.379	0.0180344
785.457	0.0180334
785.535	0.0179106
785.613	0.0179722
785.692	0.0178890
785.770	0.0178326
785.848	0.0178669
785.926	0.0178522
786.004	0.0178487
786.082	0.0178546
786.160	0.0177880
786.238	0.0177521
786.317	0.0177529
786.395	0.0178493
786.473	0.0178991
786.551	0.0178447
786.629	0.0179377
786.707	0.0178269
786.785	0.0178275
786.863	0.0179071
786.942	0.0179479
787.020	0.0179884
787.098	0.0179386
787.176	0.0180578
787.254	0.0179591
787.332	0.0180585
787.410	0.0178610
787.488	0.0179675
787.567	0.0179677
787.645	0.0178909
787.723	0.0178339
787.801	0.0179713
787.879	0.0178262
787.957	0.0178924
788.035	0.0178705
788.113	0.0179091
788.192	0.0178142
788.270	0.0178692
788.348	0.0177563
788.426	0.0176413
788.504	0.0175908
788.582	0.0176106
788.660	0.0177579
788.738	0.0173986
788.817	0.0174964
788.895	0.0176694
788.973	0.0174974
789.051	0.0173945
789.129	0.0172794
789.207	0.0174471
789.285	0.0172459
789.363	0.0173511
789.442	0.0173661
789.520	0.0174278
789.598	0.0173634
789.676	0.0175085
789.754	0.0174956
789.832	0.0174954
789.910	0.0177100
789.988	0.0177759
790.067	0.0177171
790.145	0.0178285
790.223	0.0180484
790.301	0.0178629
790.379	0.0180268
790.457	0.0180212
790.535	0.0181521
790.613	0.0179518
790.692	0.0181203
790.770	0.0181840
790.848	0.0181153
790.926	0.0179863
791.004	0.0179996
791.082	0.0180568
791.160	0.0179475
791.238	0.0179957
791.317	0.0179466
791.395	0.0178480
791.473	0.0178901
791.551	0.0179720
791.629	0.0180481
791.707	0.0180742
791.785	0.0181026
791.863	0.0181385
791.942	0.0181026
792.020	0.0181509
792.098	0.0181541
792.176	0.0182175
792.254	0.0181883
792.332	0.0181210
792.410	0.0182130
792.488	0.0181885
792.567	0.0180633
792.645	0.0179163
792.723	0.0180891
792.801	0.0179119
792.879	0.0176152
792.957	0.0178209
793.035	0.0176408
793.113	0.0176351
793.192	0.0175135
793.270	0.0173798
793.348	0.0174055
793.426	0.0171655
793.504	0.0172797
793.582	0.0172316
793.660	0.0171610
793.738	0.0170927
793.817	0.0172363
793.895	0.0173401
793.973	0.0174084
794.051	0.0174283
794.129	0.0174828
794.207	0.0175832
794.285	0.0176225
794.363	0.0177340
794.442	0.0178636
794.520	0.0178755
794.598	0.0178119
794.676	0.0179713
794.754	0.0180770
794.832	0.0180821
794.910	0.0181995
794.988	0.0180769
795.067	0.0182321
795.145	0.0181378
795.223	0.0180626
795.301	0.0181964
795.379	0.0181271
795.457	0.0181160
795.535	0.0180991
795.613	0.0181086
795.692	0.0180559
795.770	0.0181287
795.848	0.0181835
795.926	0.0180634
796.004	0.0180148
796.082	0.0179713
796.160	0.0178773
796.238	0.0178431
796.317	0.0178188
796.395	0.0175512
796.473	0.0176612
796.551	0.0177343
796.629	0.0174898
796.707	0.0172952
796.785	0.0172598
796.863	0.0172289
796.942	0.0173206
797.020	0.0171062
797.098	0.0171587
797.176	0.0171598
797.254	0.0171458
797.332	0.0170504
797.410	0.0169270
797.488	0.0172478
797.567	0.0171987
797.645	0.0172113
797.723	0.0173881
797.801	0.0172926
797.879	0.0174773
797.957	0.0174381
798.035	0.0176089
798.113	0.0177766
798.192	0.0178166
798.270	0.0177306
798.348	0.0178452
798.426	0.0178683
798.504	0.0179350
798.582	0.0178183
798.660	0.0179143
798.738	0.0180490
798.817	0.0179248
798.895	0.0179324
798.973	0.0178217
799.051	0.0178715
799.129	0.0179211
799.207	0.0178693
799.285	0.0179073
799.363	0.0178671
799.442	0.0180065
799.520	0.0181272
799.598	0.0181635
799.676	0.0183093
799.754	0.0183411
799.832	0.0185432
799.910	0.0185303
799.988	0.0184039
800.067	0.0186175
800.145	0.0187407
800.223	0.0187491
800.301	0.0186343
800.379	0.0186437
800.457	0.0186324
800.535	0.0184416
800.613	0.0184451
800.692	0.0182642
800.770	0.0182961
800.848	0.0180567
800.926	0.0178843
801.004	0.0180956
801.082	0.0179822
801.160	0.0177401
801.238	0.0176146
801.317	0.0175273
801.395	0.0173917
801.473	0.0173474
801.551	0.0174057
801.629	0.0172822
801.707	0.0174749
801.785	0.0174283
801.863	0.0173508
801.942	0.0175346
802.020	0.0175462
802.098	0.0176556
802.176	0.0176898
802.254	0.0177466
802.332	0.0177590
802.410	0.0178209
802.488	0.0178651
802.567	0.0179535
802.645	0.0180062
802.723	0.0180558
802.801	0.0180514
802.879	0.0180247
802.957	0.0179503
803.035	0.0180192
803.113	0.0180157
803.192	0.0178651
803.270	0.0179719
803.348	0.0181467
803.426	0.0180318
803.504	0.0180209
803.582	0.0180650
803.660	0.0179256
803.738	0.0180079
803.817	0.0180940
803.895	0.0179472
803.973	0.0177995
804.051	0.0179532
804.129	0.0178958
804.207	0.0178338
804.285	0.0175867
804.363	0.0176444
804.442	0.0174485
804.520	0.0176545
804.598	0.0176357
804.676	0.0172495
804.754	0.0172392
804.832	0.0170717
804.910	0.0172432
804.988	0.0171638
805.067	0.0171169
805.145	0.0172290
805.223	0.0170538
805.301	0.0171503
805.379	0.0171320
805.457	0.0172654
805.535	0.0173782
805.613	0.0173267
805.692	0.0173021
805.770	0.0175813
805.848	0.0176147
805.926	0.0175462
806.004	0.0175154
806.082	0.0176631
806.160	0.0177810
806.238	0.0177275
806.317	0.0178755
806.395	0.0177835
806.473	0.0177954
806.551	0.0178049
806.629	0.0177335
806.707	0.0177148
806.785	0.0178483
806.863	0.0178887
806.942	0.0178143
807.020	0.0176733
807.098	0.0176893
807.176	0.0178009
807.254	0.0177579
807.332	0.0177840
807.410	0.0179067
807.488	0.0178542
807.567	0.0179308
807.645	0.0179794
807.723	0.0179268
807.801	0.0179971
807.879	0.0178448
807.957	0.0178932
808.035	0.0179469
808.113	0.0178943
808.192	0.0178777
808.270	0.0177579
808.348	0.0177108
808.426	0.0177046
808.504	0.0176535
808.582	0.0176370
808.660	0.0176974
808.738	0.0176030
808.817	0.0175512
808.895	0.0174590
808.973	0.0173831
809.051	0.0173264
809.129	0.0173444
809.207	0.0174294
809.285	0.0173274
809.363	0.0175155
809.442	0.0174608
809.520	0.0173605
809.598	0.0173821
809.676	0.0174852
809.754	0.0175963
809.832	0.0176098
809.910	0.0178040
809.988	0.0177805
810.067	0.0177606
810.145	0.0178754
810.223	0.0178889
810.301	0.0179883
810.379	0.0180164
810.457	0.0179532
810.535	0.0180563
810.613	0.0180675
810.692	0.0180312
810.770	0.0181176
810.848	0.0179629
810.926	0.0180499
811.004	0.0180013
811.082	0.0181296
811.160	0.0181075
811.238	0.0180556
811.317	0.0181319
811.395	0.0179617
811.473	0.0179865
811.551	0.0180137
811.629	0.0179429
811.707	0.0178197
811.785	0.0177178
811.863	0.0177926
811.942	0.0176969
812.020	0.0176133
812.098	0.0174680
812.176	0.0175284
812.254	0.0173793
812.332	0.0174152
812.410	0.0172157
812.488	0.0170993
812.567	0.0169751
812.645	0.0169015
812.723	0.0168892
812.801	0.0170540
812.879	0.0169337
812.957	0.0169020
813.035	0.0168710
813.113	0.0169650
813.192	0.0170012
813.270	0.0169416
813.348	0.0170990
813.426	0.0171153
813.504	0.0172232
813.582	0.0172740
813.660	0.0172836
813.738	0.0173491
813.817	0.0174886
813.895	0.0175276
813.973	0.0175082
814.051	0.0174725
814.129	0.0175675
814.207	0.0177431
814.285	0.0175869
814.363	0.0176164
814.442	0.0176205
814.520	0.0178321
814.598	0.0177432
814.676	0.0176688
814.754	0.0176299
814.832	0.0178169
814.910	0.0177686
814.988	0.0178290
815.067	0.0178500
815.145	0.0179318
815.223	0.0179449
815.301	0.0179629
815.379	0.0179305
815.457	0.0179637
815.535	0.0179209
815.613	0.0180810
815.692	0.0181282
815.770	0.0180499
815.848	0.0180141
815.926	0.0181523
816.004	0.0181184
816.082	0.0179887
816.160	0.0179103
816.238	0.0180670
816.317	0.0179008
816.395	0.0179175
816.473	0.0179157
816.551	0.0179415
816.629	0.0178047
816.707	0.0179047
816.785	0.0178495
816.863	0.0178200
816.942	0.0176752
817.020	0.0176958
817.098	0.0177994
817.176	0.0178883
817.254	0.0178493
817.332	0.0179142
817.410	0.0178143
817.488	0.0179711
817.567	0.0180123
817.645	0.0180589
817.723	0.0179395
817.801	0.0179827
817.879	0.0181908
817.957	0.0180979
818.035	0.0181094
818.113	0.0181577
818.192	0.0181491
818.270	0.0183464
818.348	0.0182060
818.426	0.0181443
818.504	0.0182892
818.582	0.0182163
818.660	0.0182500
818.738	0.0182122
818.817	0.0180092
818.895	0.0181840
818.973	0.0179378
819.051	0.0179092
819.129	0.0180399
819.207	0.0177158
819.285	0.0178593
819.363	0.0177406
819.442	0.0177792
819.520	0.0175637
819.598	0.0175706
819.676	0.0175134
819.754	0.0175355
819.832	0.0173353
819.910	0.0173763
819.988	0.0172668
820.067	0.0171893
820.145	0.0171484
820.223	0.0171695
820.301	0.0171596
820.379	0.0172123
820.457	0.0170338
820.535	0.0172360
820.613	0.0170568
820.692	0.0171074
820.770	0.0170879
820.848	0.0171622
820.926	0.0173200
821.004	0.0174122
821.082	0.0173595
821.160	0.0174197
821.238	0.0174443
821.317	0.0176756
821.395	0.0178089
821.473	0.0176499
821.551	0.0178506
821.629	0.0177422
821.707	0.0177781
821.785	0.0178967
821.863	0.0178525
821.942	0.0177726
822.020	0.0176656
822.098	0.0180245
822.176	0.0179846
822.254	0.0179781
822.332	0.0179179
822.410	0.0178962
822.488	0.0178742
822.567	0.0179351
822.645	0.0180414
822.723	0.0180204
822.801	0.0180016
822.879	0.0179759
822.957	0.0180700
823.035	0.0180029
823.113	0.0181522
823.192	0.0180383
823.270	0.0181648
823.348	0.0181089
823.426	0.0180733
823.504	0.0181513
823.582	0.0180863
823.660	0.0179803
823.738	0.0179105
823.817	0.0180861
823.895	0.0180077
823.973	0.0179649
824.051	0.0178068
824.129	0.0178556
824.207	0.0177645
824.285	0.0177106
824.363	0.0177639
824.442	0.0176950
824.520	0.0176894
824.598	0.0176565
824.676	0.0176309
824.754	0.0174776
824.832	0.0175017
824.910	0.0175953
824.988	0.0176746
825.067	0.0175171
825.145	0.0176015
825.223	0.0176223
825.301	0.0176012
825.379	0.0175293
825.457	0.0174858
825.535	0.0175743
825.613	0.0176365
825.692	0.0177003
825.770	0.0177116
825.848	0.0177142
825.926	0.0177106
826.004	0.0177992
826.082	0.0178201
826.160	0.0176833
826.238	0.0178434
826.317	0.0177222
826.395	0.0177625
826.473	0.0177463
826.551	0.0176492
826.629	0.0176501
826.707	0.0177712
826.785	0.0177985
826.863	0.0178112
826.942	0.0179279
827.020	0.0176902
827.098	0.0177369
827.176	0.0178167
827.254	0.0178257
827.332	0.0178001
827.410	0.0176746
827.488	0.0176168
827.567	0.0177299
827.645	0.0176886
827.723	0.0176118
827.801	0.0176263
827.879	0.0174553
827.957	0.0173415
828.035	0.0174279
828.113	0.0173994
828.192	0.0172993
828.270	0.0172652
828.348	0.0173649
828.426	0.0172666
828.504	0.0172175
828.582	0.0173133
828.660	0.0172356
828.738	0.0173190
828.817	0.0173578
828.895	0.0174444
828.973	0.0173778
829.051	0.0175150
829.129	0.0175835
829.207	0.0177385
829.285	0.0176608
829.363	0.0176244
829.442	0.0178660
829.520	0.0177265
829.598	0.0178244
829.676	0.0178491
829.754	0.0178259
829.832	0.0179612
829.910	0.0181535
829.988	0.0180415
830.067	0.0179088
830.145	0.0180141
830.223	0.0179784
830.301	0.0180457
830.379	0.0180693
830.457	0.0180589
830.535	0.0180318
830.613	0.0180509
830.692	0.0181097
830.770	0.0181674
830.848	0.0181751
830.926	0.0182233
831.004	0.0182319
831.082	0.0180679
831.160	0.0181589
831.238	0.0182338
831.317	0.0182824
831.395	0.0181985
831.473	0.0182002
831.551	0.0182510
831.629	0.0181567
831.707	0.0182399
831.785	0.0181595
831.863	0.0181091
831.942	0.0180237
832.020	0.0179762
832.098	0.0179493
832.176	0.0178365
832.254	0.0179058
832.332	0.0177742
832.410	0.0179472
832.488	0.0177772
832.567	0.0176471
832.645	0.0177159
832.723	0.0177610
832.801	0.0176000
832.879	0.0176885
832.957	0.0177505
833.035	0.0177359
833.113	0.0177344
833.192	0.0177423
833.270	0.0178741
833.348	0.0178693
833.426	0.0177499
833.504	0.0177016
833.582	0.0178004
833.660	0.0179016
833.738	0.0179143
833.817	0.0178436
833.895	0.0179121
833.973	0.0177983
834.051	0.0178666
834.129	0.0178132
834.207	0.0179783
834.285	0.0176939
834.363	0.0177079
834.442	0.0178551
834.520	0.0177990
834.598	0.0176836
834.676	0.0177048
834.754	0.0177930
834.832	0.0176817
834.910	0.0176346
834.988	0.0176048
835.067	0.0175945
835.145	0.0175319
835.223	0.0174100
835.301	0.0173854
835.379	0.0173623
835.457	0.0173396
835.535	0.0172111
835.613	0.0172524
835.692	0.0173167
835.770	0.0171862
835.848	0.0171549
835.926	0.0171513
836.004	0.0171483
836.082	0.0171754
836.160	0.0171349
836.238	0.0172680
836.317	0.0172146
836.395	0.0171857
836.473	0.0173212
836.551	0.0172637
836.629	0.0173646
836.707	0.0174039
836.785	0.0174430
836.863	0.0174512
836.942	0.0174419
837.020	0.0175323
837.098	0.0176879
837.176	0.0175890
837.254	0.0175996
837.332	0.0175780
837.410	0.0176903
837.488	0.0178036
837.567	0.0177016
837.645	0.0174303
837.723	0.0176350
837.801	0.0176042
837.879	0.0176621
837.957	0.0175431
838.035	0.0175928
838.113	0.0176834
838.192	0.0176277
838.270	0.0176198
838.348	0.0175999
838.426	0.0175853
838.504	0.0176941
838.582	0.0177163
838.660	0.0176001
838.738	0.0176261
838.817	0.0176921
838.895	0.0178545
838.973	0.0178460
839.051	0.0178639
839.129	0.0178129
839.207	0.0178634
839.285	0.0178825
839.363	0.0179207
839.442	0.0178136
839.520	0.0178711
839.598	0.0178993
839.676	0.0179892
839.754	0.0179166
839.832	0.0179245
839.910	0.0179477
839.988	0.0179445
840.067	0.0177234
840.145	0.0178646
840.223	0.0177847
840.301	0.0178201
840.379	0.0179344
840.457	0.0178223
840.535	0.0179272
840.613	0.0178966
840.692	0.0179005
840.770	0.0178608
840.848	0.0180219
840.926	0.0178364
841.004	0.0178580
841.082	0.0177708
841.160	0.0179052
841.238	0.0177780
841.317	0.0179421
841.395	0.0179631
841.473	0.0178664
841.551	0.0179416
841.629	0.0180531
841.707	0.0179644
841.785	0.0180519
841.863	0.0180735
841.942	0.0180270
842.020	0.0180198
842.098	0.0179222
842.176	0.0178797
842.254	0.0178201
842.332	0.0179421
842.410	0.0177606
842.488	0.0177145
842.567	0.0176771
842.645	0.0176123
842.723	0.0175913
842.801	0.0175593
842.879	0.0175346
842.957	0.0175381
843.035	0.0175217
843.113	0.0172736
843.192	0.0173866
843.270	0.0173552
843.348	0.0172776
843.426	0.0172390
843.504	0.0172628
843.582	0.0172971
843.660	0.0171904
843.738	0.0172499
843.817	0.0172283
843.895	0.0172067
843.973	0.0172133
844.051	0.0171114
844.129	0.0172742
844.207	0.0171468
844.285	0.0173128
844.363	0.0172782
844.442	0.0173061
844.520	0.0174928
844.598	0.0174976
844.676	0.0174850
844.754	0.0173896
844.832	0.0174605
844.910	0.0176146
844.988	0.0177511
845.067	0.0176481
845.145	0.0178187
845.223	0.0178036
845.301	0.0177696
845.379	0.0177798
845.457	0.0178821
845.535	0.0177845
845.613	0.0178136
845.692	0.0178698
845.770	0.0178945
845.848	0.0178078
845.926	0.0177879
846.004	0.0178370
846.082	0.0176784
846.160	0.0177112
846.238	0.0179085
846.317	0.0178377
846.395	0.0177335
846.473	0.0176761
846.551	0.0178013
846.629	0.0175560
846.707	0.0176146
846.785	0.0177070
846.863	0.0178089
846.942	0.0177009
847.020	0.0179158
847.098	0.0178275
847.176	0.0178024
847.254	0.0178658
847.332	0.0179630
847.410	0.0179411
847.488	0.0178384
847.567	0.0179614
847.645	0.0179002
847.723	0.0177681
847.801	0.0179440
847.879	0.0180116
847.957	0.0178980
848.035	0.0178875
848.113	0.0178491
848.192	0.0178106
848.270	0.0178606
848.348	0.0179163
848.426	0.0177601
848.504	0.0178089
848.582	0.0179558
848.660	0.0176861
848.738	0.0178280
848.817	0.0179264
848.895	0.0179256
848.973	0.0178305
849.051	0.0179133
849.129	0.0177841
849.207	0.0178668
849.285	0.0179195
849.363	0.0179191
849.442	0.0179176
849.520	0.0179517
849.598	0.0179513
849.676	0.0178905
849.754	0.0178237
849.832	0.0178917
849.910	0.0177206
849.988	0.0178043
850.067	0.0178964
850.145	0.0177682
850.223	0.0177095
850.301	0.0178326
850.379	0.0178020
850.457	0.0176006
850.535	0.0174779
850.613	0.0175641
850.692	0.0175984
850.770	0.0175276
850.848	0.0174741
850.926	0.0174828
851.004	0.0173959
851.082	0.0173421
851.160	0.0172305
851.238	0.0172174
851.317	0.0171069
851.395	0.0172993
851.473	0.0171922
851.551	0.0171689
851.629	0.0171198
851.707	0.0173238
851.785	0.0172778
851.863	0.0171371
851.942	0.0172491
852.020	0.0173607
852.098	0.0173408
852.176	0.0174633
852.254	0.0175608
852.332	0.0176633
852.410	0.0176344
852.488	0.0176627
852.567	0.0177677
852.645	0.0180256
852.723	0.0179131
852.801	0.0179864
852.879	0.0179846
852.957	0.0179420
853.035	0.0181137
853.113	0.0179961
853.192	0.0180729
853.270	0.0181038
853.348	0.0181013
853.426	0.0180314
853.504	0.0180717
853.582	0.0180144
853.660	0.0180699
853.738	0.0180235
853.817	0.0178797
853.895	0.0179607
853.973	0.0179124
854.051	0.0179300
854.129	0.0177708
854.207	0.0178678
854.285	0.0179126
854.363	0.0178398
854.442	0.0178765
854.520	0.0179337
854.598	0.0178442
854.676	0.0177929
854.754	0.0177121
854.832	0.0178643
854.910	0.0179550
854.988	0.0177564
855.067	0.0179257
855.145	0.0179352
855.223	0.0179736
855.301	0.0181686
855.379	0.0179346
855.457	0.0181518
855.535	0.0181376
855.613	0.0182108
855.692	0.0179659
855.770	0.0180735
855.848	0.0181441
855.926	0.0180665
856.004	0.0180930
856.082	0.0179579
856.160	0.0178546
856.238	0.0180334
856.317	0.0181918
856.395	0.0179508
856.473	0.0180337
856.551	0.0180315
856.629	0.0180801
856.707	0.0178690
856.785	0.0178806
856.863	0.0179604
856.942	0.0178634
857.020	0.0179182
857.098	0.0178886
857.176	0.0178533
857.254	0.0178348
857.332	0.0178133
857.410	0.0179029
857.488	0.0178354
857.567	0.0178934
857.645	0.0178574
857.723	0.0177702
857.801	0.0177681
857.879	0.0178500
857.957	0.0178377
858.035	0.0176898
858.113	0.0176975
858.192	0.0176248
858.270	0.0175662
858.348	0.0176874
858.426	0.0176212
858.504	0.0174931
858.582	0.0175836
858.660	0.0173386
858.738	0.0172685
858.817	0.0175134
858.895	0.0173476
858.973	0.0173725
859.051	0.0172997
859.129	0.0172108
859.207	0.0170880
859.285	0.0172788
859.363	0.0171430
859.442	0.0172403
859.520	0.0172868
859.598	0.0173707
859.676	0.0171406
859.754	0.0171285
859.832	0.0172896
859.910	0.0172911
859.988	0.0172382
860.067	0.0174192
860.145	0.0173317
860.223	0.0172989
860.301	0.0173718
860.379	0.0175120
860.457	0.0176297
860.535	0.0176579
860.613	0.0176048
860.692	0.0176433
860.770	0.0175883
860.848	0.0177515
860.926	0.0176661
861.004	0.0177879
861.082	0.0177088
861.160	0.0177464
861.238	0.0177341
861.317	0.0178147
861.395	0.0177934
861.473	0.0176103
861.551	0.0176288
861.629	0.0176688
861.707	0.0174990
861.785	0.0175470
861.863	0.0177422
861.942	0.0176673
862.020	0.0175961
862.098	0.0175078
862.176	0.0175793
862.254	0.0175259
862.332	0.0175340
862.410	0.0175951
862.488	0.0176345
862.567	0.0176350
862.645	0.0177643
862.723	0.0177869
862.801	0.0177178
862.879	0.0178114
862.957	0.0177389
863.035	0.0178413
863.113	0.0178576
863.192	0.0178867
863.270	0.0179810
863.348	0.0180871
863.426	0.0179018
863.504	0.0179175
863.582	0.0180737
863.660	0.0179213
863.738	0.0178977
863.817	0.0179222
863.895	0.0179646
863.973	0.0181338
864.051	0.0180830
864.129	0.0180408
864.207	0.0178677
864.285	0.0180561
864.363	0.0178529
864.442	0.0178966
864.520	0.0180956
864.598	0.0178690
864.676	0.0179921
864.754	0.0180257
864.832	0.0179897
864.910	0.0179524
864.988	0.0178655
865.067	0.0179846
865.145	0.0179433
865.223	0.0182001
865.301	0.0179929
865.379	0.0179839
865.457	0.0179901
865.535	0.0177549
865.613	0.0178869
865.692	0.0178980
865.770	0.0177882
865.848	0.0177363
865.926	0.0178023
866.004	0.0177459
866.082	0.0176446
866.160	0.0178330
866.238	0.0177332
866.317	0.0176349
866.395	0.0177117
866.473	0.0176866
866.551	0.0175453
866.629	0.0174846
866.707	0.0174384
866.785	0.0174973
866.863	0.0175200
866.942	0.0175172
867.020	0.0174726
867.098	0.0173600
867.176	0.0173209
867.254	0.0175571
867.332	0.0174561
867.410	0.0174694
867.488	0.0174171
867.567	0.0174511
867.645	0.0174986
867.723	0.0173534
867.801	0.0174359
867.879	0.0175750
867.957	0.0175789
868.035	0.0177000
868.113	0.0175771
868.192	0.0175127
868.270	0.0175012
868.348	0.0177592
868.426	0.0176834
868.504	0.0175966
868.582	0.0177351
868.660	0.0177998
868.738	0.0175901
868.817	0.0177644
868.895	0.0177878
868.973	0.0176588
869.051	0.0177773
869.129	0.0177466
869.207	0.0176619
869.285	0.0177177
869.363	0.0176899
869.442	0.0175642
869.520	0.0175850
869.598	0.0174962
869.676	0.0175774
869.754	0.0176025
869.832	0.0173860
869.910	0.0174401
869.988	0.0173643
870.067	0.0174334
870.145	0.0174487
870.223	0.0173621
870.301	0.0174020
870.379	0.0175207
870.457	0.0174666
870.535	0.0174996
870.613	0.0176427
870.692	0.0175954
870.770	0.0176376
870.848	0.0177721
870.926	0.0177509
871.004	0.0177206
871.082	0.0178207
871.160	0.0177951
871.238	0.0178217
871.317	0.0178028
871.395	0.0178487
871.473	0.0178214
871.551	0.0178843
871.629	0.0180865
871.707	0.0178902
871.785	0.0177718
871.863	0.0178792
871.942	0.0175990
872.020	0.0177679
872.098	0.0178729
872.176	0.0177493
872.254	0.0177792
872.332	0.0176839
872.410	0.0177645
872.488	0.0177594
872.567	0.0178377
872.645	0.0177778
872.723	0.0179068
872.801	0.0179052
872.879	0.0177164
872.957	0.0178809
873.035	0.0177869
873.113	0.0178326
873.192	0.0177834
873.270	0.0177502
873.348	0.0177031
873.426	0.0177170
873.504	0.0176434
873.582	0.0177521
873.660	0.0177217
873.738	0.0176308
873.817	0.0176535
873.895	0.0178308
873.973	0.0176978
874.051	0.0176778
874.129	0.0176826
874.207	0.0176292
874.285	0.0175800
874.363	0.0176386
874.442	0.0175398
874.520	0.0176691
874.598	0.0177298
874.676	0.0176350
874.754	0.0175290
874.832	0.0174351
874.910	0.0175847
874.988	0.0174660
875.067	0.0175089
875.145	0.0176375
875.223	0.0175233
875.301	0.0176620
875.379	0.0175682
875.457	0.0175585
875.535	0.0176667
875.613	0.0175685
875.692	0.0177058
875.770	0.0176888
875.848	0.0177272
875.926	0.0178177
876.004	0.0179160
876.082	0.0179183
876.160	0.0179344
876.238	0.0180411
876.317	0.0178905
876.395	0.0179002
876.473	0.0180880
876.551	0.0180735
876.629	0.0179507
876.707	0.0180022
876.785	0.0181541
876.863	0.0181158
876.942	0.0181205
877.020	0.0181263
877.098	0.0181087
877.176	0.0180888
877.254	0.0181732
877.332	0.0181625
877.410	0.0181120
877.488	0.0180193
877.567	0.0180259
877.645	0.0179398
877.723	0.0180782
877.801	0.0180810
877.879	0.0179437
877.957	0.0178873
878.035	0.0178728
878.113	0.0177575
878.192	0.0177789
878.270	0.0179307
878.348	0.0178336
878.426	0.0178138
878.504	0.0179218
878.582	0.0178895
878.660	0.0179025
878.738	0.0177519
878.817	0.0177496
878.895	0.0177728
878.973	0.0178266
879.051	0.0178359
879.129	0.0178057
879.207	0.0177817
879.285	0.0179166
879.363	0.0178671
879.442	0.0178976
879.520	0.0179455
879.598	0.0179055
879.676	0.0180228
879.754	0.0177400
879.832	0.0178143
879.910	0.0178707
879.988	0.0178690
880.067	0.0178954
880.145	0.0178211
880.223	0.0177244
880.301	0.0178101
880.379	0.0179125
880.457	0.0179213
880.535	0.0179855
880.613	0.0178281
880.692	0.0176817
880.770	0.0178285
880.848	0.0178955
880.926	0.0178219
881.004	0.0177981
881.082	0.0179088
881.160	0.0177534
881.238	0.0178535
881.317	0.0178551
881.395	0.0178397
881.473	0.0177489
881.551	0.0178320
881.629	0.0178024
881.707	0.0176885
881.785	0.0175916
881.863	0.0177627
881.942	0.0175623
882.020	0.0176088
882.098	0.0175740
882.176	0.0175655
882.254	0.0175872
882.332	0.0176427
882.410	0.0174934
882.488	0.0175298
882.567	0.0175261
882.645	0.0175881
882.723	0.0175359
882.801	0.0174514
882.879	0.0174802
882.957	0.0174580
883.035	0.0174847
883.113	0.0175037
883.192	0.0176094
883.270	0.0176855
883.348	0.0175880
883.426	0.0175964
883.504	0.0176979
883.582	0.0175516
883.660	0.0176690
883.738	0.0177415
883.817	0.0176872
883.895	0.0176420
883.973	0.0178761
884.051	0.0177694
884.129	0.0178319
884.207	0.0179236
884.285	0.0178104
884.363	0.0178825
884.442	0.0177632
884.520	0.0177598
884.598	0.0176681
884.676	0.0177334
884.754	0.0178628
884.832	0.0176746
884.910	0.0178864
884.988	0.0178613
885.067	0.0178935
885.145	0.0178681
885.223	0.0177956
885.301	0.0177850
885.379	0.0179282
885.457	0.0177924
885.535	0.0177739
885.613	0.0178212
885.692	0.0178816
885.770	0.0178409
885.848	0.0177787
885.926	0.0177779
886.004	0.0177832
886.082	0.0177888
886.160	0.0177713
886.238	0.0177970
886.317	0.0177304
886.395	0.0178893
886.473	0.0179049
886.551	0.0178737
886.629	0.0178205
886.707	0.0178646
886.785	0.0179113
886.863	0.0178388
886.942	0.0178844
887.020	0.0179330
887.098	0.0178786
887.176	0.0178986
887.254	0.0181034
887.332	0.0179691
887.410	0.0178009
887.488	0.0179055
887.567	0.0178306
887.645	0.0180568
887.723	0.0177935
887.801	0.0178893
887.879	0.0177508
887.957	0.0178779
888.035	0.0178658
888.113	0.0177595
888.192	0.0178283
888.270	0.0178170
888.348	0.0177705
888.426	0.0177765
888.504	0.0177811
888.582	0.0177521
888.660	0.0177168
888.738	0.0177560
888.817	0.0177914
888.895	0.0177303
888.973	0.0177559
889.051	0.0176795
889.129	0.0176657
889.207	0.0177663
889.285	0.0176354
889.363	0.0177203
889.442	0.0177104
889.520	0.0175646
889.598	0.0176236
889.676	0.0177388
889.754	0.0177857
889.832	0.0176342
889.910	0.0177048
889.988	0.0179718
890.067	0.0177244
890.145	0.0178001
890.223	0.0176347
890.301	0.0177387
890.379	0.0178280
890.457	0.0177447
890.535	0.0178786
890.613	0.0179591
890.692	0.0178228
890.770	0.0176891
890.848	0.0178027
890.926	0.0178922
891.004	0.0179102
891.082	0.0178913
891.160	0.0178645
891.238	0.0179017
891.317	0.0178571
891.395	0.0178719
891.473	0.0177649
891.551	0.0178417
891.629	0.0177584
891.707	0.0179076
891.785	0.0178790
891.863	0.0179661
891.942	0.0178662
892.020	0.0179272
892.098	0.0178601
892.176	0.0178191
892.254	0.0178468
892.332	0.0179274
892.410	0.0179115
892.488	0.0177880
892.567	0.0178648
892.645	0.0177979
892.723	0.0178137
892.801	0.0178103
892.879	0.0177905
892.957	0.0177954
893.035	0.0176548
893.113	0.0177515
893.192	0.0179012
893.270	0.0177570
893.348	0.0175742
893.426	0.0177998
893.504	0.0177211
893.582	0.0175407
893.660	0.0176365
893.738	0.0176663
893.817	0.0177218
893.895	0.0176240
893.973	0.0177135
894.051	0.0177220
894.129	0.0177027
894.207	0.0176157
894.285	0.0176112
894.363	0.0176660
894.442	0.0177209
894.520	0.0177070
894.598	0.0176929
894.676	0.0177663
894.754	0.0176867
894.832	0.0177099
894.910	0.0178027
894.988	0.0179135
895.067	0.0177464
895.145	0.0177966
895.223	0.0179355
895.301	0.0179034
895.379	0.0179144
895.457	0.0180471
895.535	0.0178957
895.613	0.0180125
895.692	0.0181048
895.770	0.0179652
895.848	0.0181048
895.926	0.0180465
896.004	0.0179285
896.082	0.0178657
896.160	0.0179294
896.238	0.0178308
896.317	0.0178285
896.395	0.0179626
896.473	0.0179791
896.551	0.0178354
896.629	0.0177666
896.707	0.0177960
896.785	0.0177341
896.863	0.0176840
896.942	0.0176904
897.020	0.0177901
897.098	0.0177412
897.176	0.0176419
897.254	0.0177135
897.332	0.0175912
897.410	0.0176165
897.488	0.0176465
897.567	0.0175422
897.645	0.0177045
897.723	0.0175739
897.801	0.0178875
897.879	0.0178507
897.957	0.0179385
898.035	0.0177645
898.113	0.0178445
898.192	0.0180184
898.270	0.0179772
898.348	0.0178053
898.426	0.0180200
898.504	0.0180122
898.582	0.0179809
898.660	0.0180233
898.738	0.0180346
898.817	0.0180202
898.895	0.0181498
898.973	0.0180007
899.051	0.0179864
899.129	0.0179472
899.207	0.0180547
899.285	0.0181264
899.363	0.0178432
899.442	0.0179613
899.520	0.0180078
899.598	0.0179509
899.676	0.0178805
899.754	0.0178276
899.832	0.0179797
899.910	0.0180125
899.988	0.0180468
900.067	0.0179063
900.145	0.0179208
900.223	0.0179060
900.301	0.0179216
900.379	0.0178941
900.457	0.0179297
900.535	0.0180007
900.613	0.0180097
900.692	0.0180886
900.770	0.0178474
900.848	0.0178860
900.926	0.0178822
901.004	0.0178710
901.082	0.0178460
901.160	0.0178104
901.238	0.0178648
901.317	0.0177132
901.395	0.0178617
901.473	0.0178845
901.551	0.0178375
901.629	0.0178957
901.707	0.0178510
901.785	0.0178657
901.863	0.0178835
901.942	0.0178302
902.020	0.0177894
902.098	0.0177710
902.176	0.0177284
902.254	0.0177168
902.332	0.0177020
902.410	0.0177325
902.488	0.0177429
902.567	0.0177683
902.645	0.0177052
902.723	0.0176651
902.801	0.0175622
902.879	0.0175553
902.957	0.0178125
903.035	0.0177107
903.113	0.0174436
903.192	0.0173496
903.270	0.0174818
903.348	0.0174363
903.426	0.0175731
903.504	0.0174825
903.582	0.0175227
903.660	0.0175213
903.738	0.0175224
903.817	0.0176015
903.895	0.0175707
903.973	0.0175687
904.051	0.0175867
904.129	0.0174439
904.207	0.0175018
904.285	0.0175614
904.363	0.0173762
904.442	0.0174604
904.520	0.0174889
904.598	0.0175192
904.676	0.0174584
904.754	0.0175622
904.832	0.0175259
904.910	0.0175053
904.988	0.0175284
905.067	0.0175462
905.145	0.0175489
905.223	0.0176789
905.301	0.0175426
905.379	0.0176888
905.457	0.0176244
905.535	0.0175201
905.613	0.0176142
905.692	0.0178777
905.770	0.0176418
905.848	0.0176456
905.926	0.0175819
906.004	0.0176688
906.082	0.0176685
906.160	0.0175396
906.238	0.0177158
906.317	0.0176149
906.395	0.0177177
906.473	0.0177033
906.551	0.0176165
906.629	0.0175886
906.707	0.0176665
906.785	0.0176055
906.863	0.0177670
906.942	0.0177261
907.020	0.0176525
907.098	0.0176617
907.176	0.0176333
907.254	0.0177532
907.332	0.0177679
907.410	0.0176956
907.488	0.0177994
907.567	0.0175953
907.645	0.0176297
907.723	0.0177412
907.801	0.0176398
907.879	0.0176572
907.957	0.0175846
908.035	0.0176719
908.113	0.0177818
908.192	0.0176997
908.270	0.0175458
908.348	0.0177580
908.426	0.0178036
908.504	0.0177620
908.582	0.0177096
908.660	0.0178355
908.738	0.0178507
908.817	0.0176675
908.895	0.0177435
908.973	0.0177574
909.051	0.0177224
909.129	0.0177662
909.207	0.0177848
909.285	0.0177123
909.363	0.0177889
909.442	0.0176180
909.520	0.0177296
909.598	0.0177537
909.676	0.0176225
909.754	0.0177139
909.832	0.0178825
909.910	0.0177097
909.988	0.0176249
910.067	0.0176675
910.145	0.0177754
910.223	0.0176811
910.301	0.0176505
910.379	0.0177711
910.457	0.0178539
910.535	0.0178175
910.613	0.0177034
910.692	0.0178132
910.770	0.0177765
910.848	0.0177465
910.926	0.0177390
911.004	0.0177184
911.082	0.0176889
911.160	0.0177438
911.238	0.0179097
911.317	0.0179404
911.395	0.0178964
911.473	0.0178003
911.551	0.0177590
911.629	0.0177978
911.707	0.0178400
911.785	0.0178351
911.863	0.0177926
911.942	0.0178156
912.020	0.0178921
912.098	0.0177928
912.176	0.0178166
912.254	0.0179646
912.332	0.0177619
912.410	0.0178253
912.488	0.0178114
912.567	0.0178249
912.645	0.0177556
912.723	0.0176674
912.801	0.0177374
912.879	0.0177235
912.957	0.0178747
913.035	0.0176915
913.113	0.0177241
913.192	0.0177251
913.270	0.0178006
913.348	0.0176740
913.426	0.0176819
913.504	0.0175506
913.582	0.0176041
913.660	0.0176994
913.738	0.0177906
913.817	0.0175481
913.895	0.0175712
913.973	0.0176323
914.051	0.0175747
914.129	0.0175532
914.207	0.0175497
914.285	0.0176109
914.363	0.0176098
914.442	0.0175646
914.520	0.0176779
914.598	0.0176550
914.676	0.0176086
914.754	0.0175343
914.832	0.0176424
914.910	0.0176972
914.988	0.0176508
915.067	0.0175570
915.145	0.0176691
915.223	0.0177549
915.301	0.0176450
915.379	0.0175765
915.457	0.0176386
915.535	0.0176599
915.613	0.0176353
915.692	0.0177018
915.770	0.0176772
915.848	0.0178353
915.926	0.0177515
916.004	0.0176476
916.082	0.0176183
916.160	0.0176627
916.238	0.0176206
916.317	0.0177458
916.395	0.0176771
916.473	0.0177023
916.551	0.0178359
916.629	0.0178339
916.707	0.0176574
916.785	0.0176778
916.863	0.0178513
916.942	0.0176910
917.020	0.0178407
917.098	0.0178156
917.176	0.0178493
917.254	0.0178114
917.332	0.0178087
917.410	0.0177925
917.488	0.0178621
917.567	0.0176976
917.645	0.0176934
917.723	0.0177636
917.801	0.0179507
917.879	0.0179152
917.957	0.0178562
918.035	0.0178046
918.113	0.0178561
918.192	0.0178668
918.270	0.0178255
918.348	0.0179163
918.426	0.0180119
918.504	0.0178310
918.582	0.0179829
918.660	0.0180466
918.738	0.0180735
918.817	0.0178634
918.895	0.0179848
918.973	0.0179192
919.051	0.0177988
919.129	0.0180115
919.207	0.0178703
919.285	0.0180392
919.363	0.0178333
919.442	0.0178253
919.520	0.0178262
919.598	0.0178568
919.676	0.0178635
919.754	0.0177293
919.832	0.0177918
919.910	0.0178394
