06/01/2022	22:00:43	Ver.	4.1	UNKNOWN
Optical Delay	599.988409	Delta X		0.078125	Sweeps	1	Scan Rate	0/0
Coordinates	Axis 1	NaN	Axis 2	NaN	Axis 3	NaN	Axis 4	NaN	Axis 5	NaN	Axis 6	0.000000
TX Power	0.000000	RX Power	0.000000

599.988	0.0165599
600.067	0.0165627
600.145	0.0165237
600.223	0.0164297
600.301	0.0165015
600.379	0.0166206
600.457	0.0166363
600.535	0.0164760
600.613	0.0165076
600.692	0.0165482
600.770	0.0164234
600.848	0.0165623
600.926	0.0164336
601.004	0.0166174
601.082	0.0164765
601.160	0.0165201
601.238	0.0165609
601.317	0.0163950
601.395	0.0165486
601.473	0.0166036
601.551	0.0165095
601.629	0.0164844
601.707	0.0166017
601.785	0.0165705
601.863	0.0164814
601.942	0.0165724
602.020	0.0164774
602.098	0.0164124
602.176	0.0165455
602.254	0.0165321
602.332	0.0166039
602.410	0.0165521
602.488	0.0165729
602.567	0.0165311
602.645	0.0165709
602.723	0.0165234
602.801	0.0165295
602.879	0.0165390
602.957	0.0166278
603.035	0.0166532
603.113	0.0163825
603.192	0.0164275
603.270	0.0165035
603.348	0.0164600
603.426	0.0166819
603.504	0.0166476
603.582	0.0166393
603.660	0.0165055
603.738	0.0164472
603.817	0.0165811
603.895	0.0167406
603.973	0.0165814
604.051	0.0165601
604.129	0.0165920
604.207	0.0165964
604.285	0.0165930
604.363	0.0166521
604.442	0.0164703
604.520	0.0165186
604.598	0.0165131
604.676	0.0165491
604.754	0.0165626
604.832	0.0165070
604.910	0.0165076
604.988	0.0165086
605.067	0.0165426
605.145	0.0165873
605.223	0.0165453
605.301	0.0164730
605.379	0.0165120
605.457	0.0165179
605.535	0.0163251
605.613	0.0164342
605.692	0.0165295
605.770	0.0163129
605.848	0.0163990
605.926	0.0163181
606.004	0.0164014
606.082	0.0162410
606.160	0.0162930
606.238	0.0164867
606.317	0.0164217
606.395	0.0165052
606.473	0.0163634
606.551	0.0165182
606.629	0.0166118
606.707	0.0164882
606.785	0.0165922
606.863	0.0164249
606.942	0.0165891
607.020	0.0166576
607.098	0.0166999
607.176	0.0165886
607.254	0.0166039
607.332	0.0166113
607.410	0.0164645
607.488	0.0166195
607.567	0.0165455
607.645	0.0165658
607.723	0.0164633
607.801	0.0165990
607.879	0.0164200
607.957	0.0164258
608.035	0.0163814
608.113	0.0165326
608.192	0.0164233
608.270	0.0163658
608.348	0.0163605
608.426	0.0166193
608.504	0.0164254
608.582	0.0163793
608.660	0.0164704
608.738	0.0165599
608.817	0.0164292
608.895	0.0163799
608.973	0.0163582
609.051	0.0163025
609.129	0.0162723
609.207	0.0164062
609.285	0.0165074
609.363	0.0163627
609.442	0.0163592
609.520	0.0162991
609.598	0.0163569
609.676	0.0163401
609.754	0.0164269
609.832	0.0163985
609.910	0.0163956
609.988	0.0163574
610.067	0.0166045
610.145	0.0164456
610.223	0.0164310
610.301	0.0165128
610.379	0.0164650
610.457	0.0164680
610.535	0.0165572
610.613	0.0166551
610.692	0.0164353
610.770	0.0165659
610.848	0.0165163
610.926	0.0164003
611.004	0.0166125
611.082	0.0165198
611.160	0.0166066
611.238	0.0166431
611.317	0.0165195
611.395	0.0163854
611.473	0.0164580
611.551	0.0166164
611.629	0.0165777
611.707	0.0166394
611.785	0.0166879
611.863	0.0165121
611.942	0.0165753
612.020	0.0167091
612.098	0.0164888
612.176	0.0165106
612.254	0.0166551
612.332	0.0166098
612.410	0.0165329
612.488	0.0165202
612.567	0.0166097
612.645	0.0165121
612.723	0.0165649
612.801	0.0165533
612.879	0.0165170
612.957	0.0166854
613.035	0.0165528
613.113	0.0163552
613.192	0.0165531
613.270	0.0164574
613.348	0.0163792
613.426	0.0165569
613.504	0.0164287
613.582	0.0164442
613.660	0.0165353
613.738	0.0164147
613.817	0.0163638
613.895	0.0164278
613.973	0.0165560
614.051	0.0164533
614.129	0.0165082
614.207	0.0164849
614.285	0.0164199
614.363	0.0164139
614.442	0.0165224
614.520	0.0165532
614.598	0.0164232
614.676	0.0164626
614.754	0.0163998
614.832	0.0164355
614.910	0.0163400
614.988	0.0163067
615.067	0.0164288
615.145	0.0163629
615.223	0.0164823
615.301	0.0164034
615.379	0.0164010
615.457	0.0166076
615.535	0.0164098
615.613	0.0164474
615.692	0.0164650
615.770	0.0164807
615.848	0.0164592
615.926	0.0164450
616.004	0.0165529
616.082	0.0163905
616.160	0.0164024
616.238	0.0164825
616.317	0.0164224
616.395	0.0165531
616.473	0.0165742
616.551	0.0163947
616.629	0.0165066
616.707	0.0165374
616.785	0.0164693
616.863	0.0164732
616.942	0.0163579
617.020	0.0164069
617.098	0.0163285
617.176	0.0164629
617.254	0.0163525
617.332	0.0163275
617.410	0.0163135
617.488	0.0164865
617.567	0.0162936
617.645	0.0163000
617.723	0.0164159
617.801	0.0164901
617.879	0.0162172
617.957	0.0164608
618.035	0.0164853
618.113	0.0165096
618.192	0.0163450
618.270	0.0163950
618.348	0.0163889
618.426	0.0164174
618.504	0.0164291
618.582	0.0164886
618.660	0.0164510
618.738	0.0164050
618.817	0.0164831
618.895	0.0165798
618.973	0.0165215
619.051	0.0164400
619.129	0.0165133
619.207	0.0165402
619.285	0.0164808
619.363	0.0165386
619.442	0.0165231
619.520	0.0166314
619.598	0.0166135
619.676	0.0165240
619.754	0.0164993
619.832	0.0163988
619.910	0.0164123
619.988	0.0165533
620.067	0.0164935
620.145	0.0163905
620.223	0.0164403
620.301	0.0165791
620.379	0.0166367
620.457	0.0165699
620.535	0.0164498
620.613	0.0165542
620.692	0.0164362
620.770	0.0163795
620.848	0.0165353
620.926	0.0165455
621.004	0.0164237
621.082	0.0165092
621.160	0.0166339
621.238	0.0164867
621.317	0.0164829
621.395	0.0166161
621.473	0.0166619
621.551	0.0165681
621.629	0.0165495
621.707	0.0166219
621.785	0.0166014
621.863	0.0165182
621.942	0.0165563
622.020	0.0165190
622.098	0.0165367
622.176	0.0165112
622.254	0.0164874
622.332	0.0164274
622.410	0.0165546
622.488	0.0164141
622.567	0.0164470
622.645	0.0164904
622.723	0.0166073
622.801	0.0166291
622.879	0.0167215
622.957	0.0164973
623.035	0.0165649
623.113	0.0165883
623.192	0.0166885
623.270	0.0164632
623.348	0.0165600
623.426	0.0167295
623.504	0.0165939
623.582	0.0165762
623.660	0.0165620
623.738	0.0165206
623.817	0.0166164
623.895	0.0166165
623.973	0.0164883
624.051	0.0164558
624.129	0.0164851
624.207	0.0166682
624.285	0.0165195
624.363	0.0164384
624.442	0.0165408
624.520	0.0166086
624.598	0.0163548
624.676	0.0165232
624.754	0.0165166
624.832	0.0164948
624.910	0.0164404
624.988	0.0164671
625.067	0.0165357
625.145	0.0165871
625.223	0.0164370
625.301	0.0163823
625.379	0.0165535
625.457	0.0166068
625.535	0.0163609
625.613	0.0165282
625.692	0.0166824
625.770	0.0165411
625.848	0.0165681
625.926	0.0164760
626.004	0.0164237
626.082	0.0164330
626.160	0.0165165
626.238	0.0165779
626.317	0.0163185
626.395	0.0163696
626.473	0.0164660
626.551	0.0163327
626.629	0.0164286
626.707	0.0164625
626.785	0.0164352
626.863	0.0163654
626.942	0.0164213
627.020	0.0164015
627.098	0.0165736
627.176	0.0165379
627.254	0.0164060
627.332	0.0164371
627.410	0.0165369
627.488	0.0165855
627.567	0.0164500
627.645	0.0166241
627.723	0.0166002
627.801	0.0164608
627.879	0.0164835
627.957	0.0165491
628.035	0.0165330
628.113	0.0164791
628.192	0.0165091
628.270	0.0165333
628.348	0.0164855
628.426	0.0165045
628.504	0.0164069
628.582	0.0163424
628.660	0.0165748
628.738	0.0164707
628.817	0.0164645
628.895	0.0165052
628.973	0.0163644
629.051	0.0164077
629.129	0.0165469
629.207	0.0164828
629.285	0.0164942
629.363	0.0164582
629.442	0.0164623
629.520	0.0164252
629.598	0.0164532
629.676	0.0164596
629.754	0.0165168
629.832	0.0164268
629.910	0.0164881
629.988	0.0164349
630.067	0.0164912
630.145	0.0164879
630.223	0.0165020
630.301	0.0164432
630.379	0.0164719
630.457	0.0165279
630.535	0.0165835
630.613	0.0165704
630.692	0.0165125
630.770	0.0165246
630.848	0.0164491
630.926	0.0166840
631.004	0.0166795
631.082	0.0164243
631.160	0.0163308
631.238	0.0165118
631.317	0.0165986
631.395	0.0164845
631.473	0.0164772
631.551	0.0165313
631.629	0.0163972
631.707	0.0164275
631.785	0.0163356
631.863	0.0165603
631.942	0.0163672
632.020	0.0164239
632.098	0.0164408
632.176	0.0164530
632.254	0.0165229
632.332	0.0164409
632.410	0.0164336
632.488	0.0164824
632.567	0.0165163
632.645	0.0165200
632.723	0.0165942
632.801	0.0165063
632.879	0.0164604
632.957	0.0165156
633.035	0.0166937
633.113	0.0166116
633.192	0.0166767
633.270	0.0164888
633.348	0.0166517
633.426	0.0167426
633.504	0.0166292
633.582	0.0165013
633.660	0.0167384
633.738	0.0166509
633.817	0.0165888
633.895	0.0164182
633.973	0.0166005
634.051	0.0166046
634.129	0.0165576
634.207	0.0165038
634.285	0.0164711
634.363	0.0164960
634.442	0.0165162
634.520	0.0166418
634.598	0.0165717
634.676	0.0165238
634.754	0.0165498
634.832	0.0165051
634.910	0.0166058
634.988	0.0165926
635.067	0.0166595
635.145	0.0166549
635.223	0.0167113
635.301	0.0165469
635.379	0.0166067
635.457	0.0165862
635.535	0.0165701
635.613	0.0166029
635.692	0.0166492
635.770	0.0167149
635.848	0.0166608
635.926	0.0165324
636.004	0.0165766
636.082	0.0166029
636.160	0.0165524
636.238	0.0165764
636.317	0.0164462
636.395	0.0165692
636.473	0.0166410
636.551	0.0164040
636.629	0.0164484
636.707	0.0164444
636.785	0.0164366
636.863	0.0164523
636.942	0.0165131
637.020	0.0164660
637.098	0.0163441
637.176	0.0164068
637.254	0.0166075
637.332	0.0163873
637.410	0.0164440
637.488	0.0165818
637.567	0.0166087
637.645	0.0165378
637.723	0.0164307
637.801	0.0164787
637.879	0.0165589
637.957	0.0166594
638.035	0.0164410
638.113	0.0164745
638.192	0.0164045
638.270	0.0164908
638.348	0.0164462
638.426	0.0164645
638.504	0.0164356
638.582	0.0164661
638.660	0.0164427
638.738	0.0162749
638.817	0.0162506
638.895	0.0161624
638.973	0.0162144
639.051	0.0163864
639.129	0.0164548
639.207	0.0163343
639.285	0.0164063
639.363	0.0163052
639.442	0.0162988
639.520	0.0163989
639.598	0.0164481
639.676	0.0164778
639.754	0.0164290
639.832	0.0163358
639.910	0.0164923
639.988	0.0163956
640.067	0.0165942
640.145	0.0164629
640.223	0.0165790
640.301	0.0164480
640.379	0.0163461
640.457	0.0164912
640.535	0.0165260
640.613	0.0164889
640.692	0.0164632
640.770	0.0165133
640.848	0.0165367
640.926	0.0165447
641.004	0.0163647
641.082	0.0162539
641.160	0.0163079
641.238	0.0164292
641.317	0.0164590
641.395	0.0164259
641.473	0.0163657
641.551	0.0164077
641.629	0.0165070
641.707	0.0164510
641.785	0.0164539
641.863	0.0164185
641.942	0.0164618
642.020	0.0164127
642.098	0.0166056
642.176	0.0167773
642.254	0.0164683
642.332	0.0164554
642.410	0.0165987
642.488	0.0165467
642.567	0.0165456
642.645	0.0165700
642.723	0.0164739
642.801	0.0166391
642.879	0.0165146
642.957	0.0165271
643.035	0.0163636
643.113	0.0162972
643.192	0.0163705
643.270	0.0164380
643.348	0.0164016
643.426	0.0163343
643.504	0.0164272
643.582	0.0164098
643.660	0.0164880
643.738	0.0164771
643.817	0.0164899
643.895	0.0164870
643.973	0.0164889
644.051	0.0165481
644.129	0.0166211
644.207	0.0165714
644.285	0.0164625
644.363	0.0166285
644.442	0.0165019
644.520	0.0166651
644.598	0.0165896
644.676	0.0164088
644.754	0.0165751
644.832	0.0165025
644.910	0.0164312
644.988	0.0163564
645.067	0.0164823
645.145	0.0164419
645.223	0.0164611
645.301	0.0163667
645.379	0.0164399
645.457	0.0164624
645.535	0.0163802
645.613	0.0163956
645.692	0.0164947
645.770	0.0164481
645.848	0.0164539
645.926	0.0164934
646.004	0.0165290
646.082	0.0164966
646.160	0.0163843
646.238	0.0163380
646.317	0.0162834
646.395	0.0163269
646.473	0.0161536
646.551	0.0164375
646.629	0.0164043
646.707	0.0162920
646.785	0.0161456
646.863	0.0163274
646.942	0.0163571
647.020	0.0164278
647.098	0.0162939
647.176	0.0163438
647.254	0.0165010
647.332	0.0163175
647.410	0.0162883
647.488	0.0162711
647.567	0.0163733
647.645	0.0162440
647.723	0.0163278
647.801	0.0163503
647.879	0.0163740
647.957	0.0162978
648.035	0.0163374
648.113	0.0164166
648.192	0.0163167
648.270	0.0162947
648.348	0.0163802
648.426	0.0161069
648.504	0.0162958
648.582	0.0164006
648.660	0.0163216
648.738	0.0162438
648.817	0.0163496
648.895	0.0161775
648.973	0.0163184
649.051	0.0162736
649.129	0.0162878
649.207	0.0163938
649.285	0.0163593
649.363	0.0164310
649.442	0.0164610
649.520	0.0163811
649.598	0.0163455
649.676	0.0164136
649.754	0.0162791
649.832	0.0164050
649.910	0.0163111
649.988	0.0164259
650.067	0.0163464
650.145	0.0163259
650.223	0.0163400
650.301	0.0165002
650.379	0.0164402
650.457	0.0163277
650.535	0.0164603
650.613	0.0161517
650.692	0.0162378
650.770	0.0161739
650.848	0.0163173
650.926	0.0163106
651.004	0.0163827
651.082	0.0165166
651.160	0.0165784
651.238	0.0165424
651.317	0.0164510
651.395	0.0164563
651.473	0.0164996
651.551	0.0164410
651.629	0.0165511
651.707	0.0164607
651.785	0.0164726
651.863	0.0166109
651.942	0.0164603
652.020	0.0165089
652.098	0.0165783
652.176	0.0165105
652.254	0.0165816
652.332	0.0164661
652.410	0.0164507
652.488	0.0165024
652.567	0.0164915
652.645	0.0164214
652.723	0.0163549
652.801	0.0163870
652.879	0.0162868
652.957	0.0164605
653.035	0.0164252
653.113	0.0164403
653.192	0.0162576
653.270	0.0162273
653.348	0.0163932
653.426	0.0162698
653.504	0.0162756
653.582	0.0164680
653.660	0.0164178
653.738	0.0164884
653.817	0.0164603
653.895	0.0165012
653.973	0.0164499
654.051	0.0166507
654.129	0.0165044
654.207	0.0164765
654.285	0.0165567
654.363	0.0165604
654.442	0.0163934
654.520	0.0165316
654.598	0.0165519
654.676	0.0166315
654.754	0.0165710
654.832	0.0164999
654.910	0.0165734
654.988	0.0164957
655.067	0.0165195
655.145	0.0162878
655.223	0.0164023
655.301	0.0165278
655.379	0.0165111
655.457	0.0164645
655.535	0.0164935
655.613	0.0164235
655.692	0.0163908
655.770	0.0165081
655.848	0.0165596
655.926	0.0165204
656.004	0.0165029
656.082	0.0163328
656.160	0.0165296
656.238	0.0165151
656.317	0.0164616
656.395	0.0164688
656.473	0.0164368
656.551	0.0164147
656.629	0.0163699
656.707	0.0164648
656.785	0.0163370
656.863	0.0163889
656.942	0.0164757
657.020	0.0163002
657.098	0.0164197
657.176	0.0162779
657.254	0.0162271
657.332	0.0164071
657.410	0.0162938
657.488	0.0162759
657.567	0.0162839
657.645	0.0165011
657.723	0.0163967
657.801	0.0164758
657.879	0.0163456
657.957	0.0164130
658.035	0.0163676
658.113	0.0163975
658.192	0.0164091
658.270	0.0163477
658.348	0.0165288
658.426	0.0164836
658.504	0.0164236
658.582	0.0164685
658.660	0.0164742
658.738	0.0164655
658.817	0.0165327
658.895	0.0165404
658.973	0.0164916
659.051	0.0164596
659.129	0.0164741
659.207	0.0164727
659.285	0.0165733
659.363	0.0165837
659.442	0.0165396
659.520	0.0165635
659.598	0.0165388
659.676	0.0164048
659.754	0.0166676
659.832	0.0166243
659.910	0.0166060
659.988	0.0165855
660.067	0.0164346
660.145	0.0165411
660.223	0.0165766
660.301	0.0165992
660.379	0.0165567
660.457	0.0163450
660.535	0.0164719
660.613	0.0165107
660.692	0.0164802
660.770	0.0164673
660.848	0.0163995
660.926	0.0164709
661.004	0.0162720
661.082	0.0164365
661.160	0.0163850
661.238	0.0164427
661.317	0.0163907
661.395	0.0164153
661.473	0.0163044
661.551	0.0163818
661.629	0.0164472
661.707	0.0163199
661.785	0.0164495
661.863	0.0164657
661.942	0.0166203
662.020	0.0164729
662.098	0.0166649
662.176	0.0166785
662.254	0.0167851
662.332	0.0167690
662.410	0.0167159
662.488	0.0166828
662.567	0.0167067
662.645	0.0166046
662.723	0.0166571
662.801	0.0165446
662.879	0.0166798
662.957	0.0165381
663.035	0.0164845
663.113	0.0164702
663.192	0.0166541
663.270	0.0164960
663.348	0.0165253
663.426	0.0166927
663.504	0.0165218
663.582	0.0164500
663.660	0.0167737
663.738	0.0166506
663.817	0.0165661
663.895	0.0165365
663.973	0.0164759
664.051	0.0166150
664.129	0.0166891
664.207	0.0166005
664.285	0.0164943
664.363	0.0166511
664.442	0.0165739
664.520	0.0167284
664.598	0.0165914
664.676	0.0166136
664.754	0.0165603
664.832	0.0164148
664.910	0.0164981
664.988	0.0164243
665.067	0.0163697
665.145	0.0164016
665.223	0.0165158
665.301	0.0164565
665.379	0.0164714
665.457	0.0163277
665.535	0.0164802
665.613	0.0164922
665.692	0.0164832
665.770	0.0164649
665.848	0.0164486
665.926	0.0165796
666.004	0.0165187
666.082	0.0164200
666.160	0.0165207
666.238	0.0165080
666.317	0.0164848
666.395	0.0163922
666.473	0.0165247
666.551	0.0163052
666.629	0.0162622
666.707	0.0163004
666.785	0.0164384
666.863	0.0164903
666.942	0.0164159
667.020	0.0163335
667.098	0.0162677
667.176	0.0161968
667.254	0.0163960
667.332	0.0163450
667.410	0.0164142
667.488	0.0163818
667.567	0.0162500
667.645	0.0162318
667.723	0.0162724
667.801	0.0162886
667.879	0.0163987
667.957	0.0162119
668.035	0.0161978
668.113	0.0164401
668.192	0.0164033
668.270	0.0163007
668.348	0.0163956
668.426	0.0164301
668.504	0.0163873
668.582	0.0163649
668.660	0.0164967
668.738	0.0164735
668.817	0.0163940
668.895	0.0165202
668.973	0.0164977
669.051	0.0163377
669.129	0.0163992
669.207	0.0164693
669.285	0.0164366
669.363	0.0163392
669.442	0.0164641
669.520	0.0163678
669.598	0.0164429
669.676	0.0164332
669.754	0.0164136
669.832	0.0164037
669.910	0.0164123
669.988	0.0164457
670.067	0.0163940
670.145	0.0163679
670.223	0.0164304
670.301	0.0163876
670.379	0.0163839
670.457	0.0165176
670.535	0.0163007
670.613	0.0163338
670.692	0.0163329
670.770	0.0164449
670.848	0.0162717
670.926	0.0164259
671.004	0.0163399
671.082	0.0163594
671.160	0.0164001
671.238	0.0163956
671.317	0.0162920
671.395	0.0161751
671.473	0.0161559
671.551	0.0164026
671.629	0.0162268
671.707	0.0162683
671.785	0.0163168
671.863	0.0160812
671.942	0.0160823
672.020	0.0162032
672.098	0.0160505
672.176	0.0161781
672.254	0.0160438
672.332	0.0162985
672.410	0.0162909
672.488	0.0160587
672.567	0.0162984
672.645	0.0162416
672.723	0.0163506
672.801	0.0163157
672.879	0.0163496
672.957	0.0162853
673.035	0.0163191
673.113	0.0162242
673.192	0.0163137
673.270	0.0162532
673.348	0.0161636
673.426	0.0162369
673.504	0.0161682
673.582	0.0162360
673.660	0.0162515
673.738	0.0163902
673.817	0.0162338
673.895	0.0163405
673.973	0.0164642
674.051	0.0164522
674.129	0.0165450
674.207	0.0165771
674.285	0.0164066
674.363	0.0167251
674.442	0.0166541
674.520	0.0165842
674.598	0.0165672
674.676	0.0166586
674.754	0.0166052
674.832	0.0165202
674.910	0.0164482
674.988	0.0165205
675.067	0.0165699
675.145	0.0162087
675.223	0.0162601
675.301	0.0160698
675.379	0.0161201
675.457	0.0160758
675.535	0.0159225
675.613	0.0157692
675.692	0.0159817
675.770	0.0159850
675.848	0.0159376
675.926	0.0160838
676.004	0.0158963
676.082	0.0161199
676.160	0.0160730
676.238	0.0162093
676.317	0.0163965
676.395	0.0163087
676.473	0.0164462
676.551	0.0165283
676.629	0.0166441
676.707	0.0167487
676.785	0.0168002
676.863	0.0168932
676.942	0.0168485
677.020	0.0169216
677.098	0.0170066
677.176	0.0168877
677.254	0.0170313
677.332	0.0168620
677.410	0.0168021
677.488	0.0167526
677.567	0.0164521
677.645	0.0165224
677.723	0.0165692
677.801	0.0165671
677.879	0.0163547
677.957	0.0162614
678.035	0.0161575
678.113	0.0162114
678.192	0.0162833
678.270	0.0159955
678.348	0.0161607
678.426	0.0161452
678.504	0.0164058
678.582	0.0162923
678.660	0.0163297
678.738	0.0163866
678.817	0.0166268
678.895	0.0166737
678.973	0.0166981
679.051	0.0168230
679.129	0.0169431
679.207	0.0167926
679.285	0.0168458
679.363	0.0170055
679.442	0.0168595
679.520	0.0167400
679.598	0.0167639
679.676	0.0167492
679.754	0.0166691
679.832	0.0164353
679.910	0.0162770
679.988	0.0162605
680.067	0.0161349
680.145	0.0161379
680.223	0.0159850
680.301	0.0161199
680.379	0.0159039
680.457	0.0157876
680.535	0.0158474
680.613	0.0158955
680.692	0.0159416
680.770	0.0159258
680.848	0.0161742
680.926	0.0161739
681.004	0.0163146
681.082	0.0162371
681.160	0.0164764
681.238	0.0167989
681.317	0.0167611
681.395	0.0169488
681.473	0.0170239
681.551	0.0171394
681.629	0.0170557
681.707	0.0172857
681.785	0.0174142
681.863	0.0174969
681.942	0.0175061
682.020	0.0175361
682.098	0.0176131
682.176	0.0176076
682.254	0.0175524
682.332	0.0175547
682.410	0.0176949
682.488	0.0175057
682.567	0.0173538
682.645	0.0173874
682.723	0.0172279
682.801	0.0170695
682.879	0.0168850
682.957	0.0166890
683.035	0.0165943
683.113	0.0163838
683.192	0.0161795
683.270	0.0158769
683.348	0.0158402
683.426	0.0156487
683.504	0.0154461
683.582	0.0153323
683.660	0.0152290
683.738	0.0152839
683.817	0.0151247
683.895	0.0152528
683.973	0.0153339
684.051	0.0153791
684.129	0.0155050
684.207	0.0155267
684.285	0.0156876
684.363	0.0156977
684.442	0.0159055
684.520	0.0160292
684.598	0.0161844
684.676	0.0164505
684.754	0.0166571
684.832	0.0168575
684.910	0.0168769
684.988	0.0170010
685.067	0.0172540
685.145	0.0172817
685.223	0.0173784
685.301	0.0176363
685.379	0.0177228
685.457	0.0178261
685.535	0.0179733
685.613	0.0181716
685.692	0.0180363
685.770	0.0181714
685.848	0.0181456
685.926	0.0181351
686.004	0.0180533
686.082	0.0180512
686.160	0.0179790
686.238	0.0178471
686.317	0.0175083
686.395	0.0174764
686.473	0.0171922
686.551	0.0169600
686.629	0.0167511
686.707	0.0165853
686.785	0.0163135
686.863	0.0160522
686.942	0.0158288
687.020	0.0156504
687.098	0.0154164
687.176	0.0152280
687.254	0.0150904
687.332	0.0149413
687.410	0.0148643
687.488	0.0148689
687.567	0.0148230
687.645	0.0148083
687.723	0.0148730
687.801	0.0150556
687.879	0.0151272
687.957	0.0150962
688.035	0.0152761
688.113	0.0154235
688.192	0.0153986
688.270	0.0155900
688.348	0.0157338
688.426	0.0158651
688.504	0.0160083
688.582	0.0161067
688.660	0.0162679
688.738	0.0162640
688.817	0.0165526
688.895	0.0166219
688.973	0.0167757
689.051	0.0169158
689.129	0.0171204
689.207	0.0172533
689.285	0.0174598
689.363	0.0175712
689.442	0.0177132
689.520	0.0177728
689.598	0.0178388
689.676	0.0179628
689.754	0.0180994
689.832	0.0180102
689.910	0.0179438
689.988	0.0180206
690.067	0.0179652
690.145	0.0179256
690.223	0.0177470
690.301	0.0177858
690.379	0.0176382
690.457	0.0176390
690.535	0.0173978
690.613	0.0172030
690.692	0.0170547
690.770	0.0168282
690.848	0.0166241
690.926	0.0165589
691.004	0.0164661
691.082	0.0162534
691.160	0.0161097
691.238	0.0158061
691.317	0.0156636
691.395	0.0155969
691.473	0.0154014
691.551	0.0152775
691.629	0.0152101
691.707	0.0151949
691.785	0.0150096
691.863	0.0150598
691.942	0.0148994
692.020	0.0150872
692.098	0.0151835
692.176	0.0151089
692.254	0.0151062
692.332	0.0151025
692.410	0.0151606
692.488	0.0152322
692.567	0.0155109
692.645	0.0155846
692.723	0.0156690
692.801	0.0155723
692.879	0.0156242
692.957	0.0160117
693.035	0.0160476
693.113	0.0160631
693.192	0.0162550
693.270	0.0161907
693.348	0.0164080
693.426	0.0166319
693.504	0.0168407
693.582	0.0169767
693.660	0.0171824
693.738	0.0173104
693.817	0.0176356
693.895	0.0177253
693.973	0.0178654
694.051	0.0179750
694.129	0.0180722
694.207	0.0180750
694.285	0.0181949
694.363	0.0183064
694.442	0.0183032
694.520	0.0182337
694.598	0.0182083
694.676	0.0180408
694.754	0.0180562
694.832	0.0178479
694.910	0.0176501
694.988	0.0176817
695.067	0.0174307
695.145	0.0172258
695.223	0.0171068
695.301	0.0170118
695.379	0.0168727
695.457	0.0167165
695.535	0.0165990
695.613	0.0164376
695.692	0.0162559
695.770	0.0161078
695.848	0.0158836
695.926	0.0156869
696.004	0.0155396
696.082	0.0153499
696.160	0.0151611
696.238	0.0148348
696.317	0.0148416
696.395	0.0146493
696.473	0.0144377
696.551	0.0142095
696.629	0.0141417
696.707	0.0142762
696.785	0.0141046
696.863	0.0139695
696.942	0.0139485
697.020	0.0140854
697.098	0.0142973
697.176	0.0143295
697.254	0.0146455
697.332	0.0149544
697.410	0.0153224
697.488	0.0155963
697.567	0.0161479
697.645	0.0165680
697.723	0.0168662
697.801	0.0173656
697.879	0.0175868
697.957	0.0181126
698.035	0.0183034
698.113	0.0184356
698.192	0.0185645
698.270	0.0186211
698.348	0.0186356
698.426	0.0184603
698.504	0.0184476
698.582	0.0184560
698.660	0.0183292
698.738	0.0181302
698.817	0.0179939
698.895	0.0178557
698.973	0.0178636
699.051	0.0176181
699.129	0.0175299
699.207	0.0173273
699.285	0.0172996
699.363	0.0169837
699.442	0.0169471
699.520	0.0169122
699.598	0.0167988
699.676	0.0166934
699.754	0.0167110
699.832	0.0166483
699.910	0.0164602
699.988	0.0164072
700.067	0.0163541
700.145	0.0162129
700.223	0.0162614
700.301	0.0160895
700.379	0.0160480
700.457	0.0159207
700.535	0.0159383
700.613	0.0157959
700.692	0.0158713
700.770	0.0158257
700.848	0.0156263
700.926	0.0156734
701.004	0.0154452
701.082	0.0153544
701.160	0.0153283
701.238	0.0152023
701.317	0.0151884
701.395	0.0150648
701.473	0.0149922
701.551	0.0150298
701.629	0.0149944
701.707	0.0149159
701.785	0.0149456
701.863	0.0148878
701.942	0.0151086
702.020	0.0151882
702.098	0.0151818
702.176	0.0154186
702.254	0.0156042
702.332	0.0157005
702.410	0.0158121
702.488	0.0160565
702.567	0.0162900
702.645	0.0164712
702.723	0.0167407
702.801	0.0169228
702.879	0.0171980
702.957	0.0172209
703.035	0.0176785
703.113	0.0178394
703.192	0.0179681
703.270	0.0183326
703.348	0.0185793
703.426	0.0187460
703.504	0.0186618
703.582	0.0189558
703.660	0.0190878
703.738	0.0189599
703.817	0.0188325
703.895	0.0187721
703.973	0.0187566
704.051	0.0185191
704.129	0.0184044
704.207	0.0182735
704.285	0.0178751
704.363	0.0176820
704.442	0.0174169
704.520	0.0171536
704.598	0.0169837
704.676	0.0165426
704.754	0.0164413
704.832	0.0159793
704.910	0.0155757
704.988	0.0153512
705.067	0.0150239
705.145	0.0148875
705.223	0.0147719
705.301	0.0145182
705.379	0.0143117
705.457	0.0143027
705.535	0.0144683
705.613	0.0144350
705.692	0.0145415
705.770	0.0146221
705.848	0.0147874
705.926	0.0150082
706.004	0.0152422
706.082	0.0156899
706.160	0.0158413
706.238	0.0160416
706.317	0.0164142
706.395	0.0166626
706.473	0.0168607
706.551	0.0171310
706.629	0.0174741
706.707	0.0176222
706.785	0.0177149
706.863	0.0177574
706.942	0.0178857
707.020	0.0178804
707.098	0.0177476
707.176	0.0177718
707.254	0.0175965
707.332	0.0174114
707.410	0.0171805
707.488	0.0171759
707.567	0.0170659
707.645	0.0168501
707.723	0.0167195
707.801	0.0164808
707.879	0.0163866
707.957	0.0163033
708.035	0.0162243
708.113	0.0162175
708.192	0.0160500
708.270	0.0161142
708.348	0.0159304
708.426	0.0159617
708.504	0.0159437
708.582	0.0157996
708.660	0.0158648
708.738	0.0158209
708.817	0.0158466
708.895	0.0157855
708.973	0.0158855
709.051	0.0159100
709.129	0.0159974
709.207	0.0162100
709.285	0.0163237
709.363	0.0165203
709.442	0.0165654
709.520	0.0167479
709.598	0.0169372
709.676	0.0172331
709.754	0.0173257
709.832	0.0175334
709.910	0.0176805
709.988	0.0178851
710.067	0.0179152
710.145	0.0179543
710.223	0.0181551
710.301	0.0179990
710.379	0.0180618
710.457	0.0180541
710.535	0.0178854
710.613	0.0177781
710.692	0.0177541
710.770	0.0175889
710.848	0.0172135
710.926	0.0169954
711.004	0.0169922
711.082	0.0168360
711.160	0.0165336
711.238	0.0163092
711.317	0.0161954
711.395	0.0159123
711.473	0.0159231
711.551	0.0158129
711.629	0.0156683
711.707	0.0155219
711.785	0.0156236
711.863	0.0156210
711.942	0.0155067
712.020	0.0154203
712.098	0.0155148
712.176	0.0154379
712.254	0.0153721
712.332	0.0155547
712.410	0.0156366
712.488	0.0156746
712.567	0.0156450
712.645	0.0158769
712.723	0.0157419
712.801	0.0157635
712.879	0.0156915
712.957	0.0158556
713.035	0.0158279
713.113	0.0158097
713.192	0.0157551
713.270	0.0157676
713.348	0.0157737
713.426	0.0157248
713.504	0.0159093
713.582	0.0158508
713.660	0.0161597
713.738	0.0161949
713.817	0.0162984
713.895	0.0166385
713.973	0.0165930
714.051	0.0168347
714.129	0.0168924
714.207	0.0170595
714.285	0.0172416
714.363	0.0174712
714.442	0.0175586
714.520	0.0176535
714.598	0.0177531
714.676	0.0178316
714.754	0.0178024
714.832	0.0179092
714.910	0.0179299
714.988	0.0178735
715.067	0.0179316
715.145	0.0178818
715.223	0.0177247
715.301	0.0177625
715.379	0.0177769
715.457	0.0177516
715.535	0.0176226
715.613	0.0175372
715.692	0.0174362
715.770	0.0173438
715.848	0.0171589
715.926	0.0169511
716.004	0.0168088
716.082	0.0166716
716.160	0.0165245
716.238	0.0162537
716.317	0.0161024
716.395	0.0158710
716.473	0.0156773
716.551	0.0154104
716.629	0.0154900
716.707	0.0153986
716.785	0.0153706
716.863	0.0153400
716.942	0.0151781
717.020	0.0152888
717.098	0.0152883
717.176	0.0153207
717.254	0.0154154
717.332	0.0154243
717.410	0.0153410
717.488	0.0154813
717.567	0.0155471
717.645	0.0155214
717.723	0.0156262
717.801	0.0156914
717.879	0.0157858
717.957	0.0157085
718.035	0.0159272
718.113	0.0159397
718.192	0.0159908
718.270	0.0160253
718.348	0.0161971
718.426	0.0162728
718.504	0.0161656
718.582	0.0162459
718.660	0.0164111
718.738	0.0164153
718.817	0.0163334
718.895	0.0163977
718.973	0.0164993
719.051	0.0162899
719.129	0.0162234
719.207	0.0161581
719.285	0.0162331
719.363	0.0161580
719.442	0.0160483
719.520	0.0162016
719.598	0.0163388
719.676	0.0165527
719.754	0.0164264
719.832	0.0164174
719.910	0.0167027
719.988	0.0168655
720.067	0.0167956
720.145	0.0170734
720.223	0.0173166
720.301	0.0173205
720.379	0.0171321
720.457	0.0173489
720.535	0.0172679
720.613	0.0172623
720.692	0.0172099
720.770	0.0172106
720.848	0.0172269
720.926	0.0171940
721.004	0.0170414
721.082	0.0170866
721.160	0.0169975
721.238	0.0168745
721.317	0.0170068
721.395	0.0171358
721.473	0.0169493
721.551	0.0169900
721.629	0.0170876
721.707	0.0170684
721.785	0.0171277
721.863	0.0170858
721.942	0.0169208
722.020	0.0170259
722.098	0.0169630
722.176	0.0172118
722.254	0.0168664
722.332	0.0168463
722.410	0.0168322
722.488	0.0166098
722.567	0.0165430
722.645	0.0165839
722.723	0.0162756
722.801	0.0162819
722.879	0.0162344
722.957	0.0161766
723.035	0.0161427
723.113	0.0161142
723.192	0.0159689
723.270	0.0158661
723.348	0.0158423
723.426	0.0157044
723.504	0.0156593
723.582	0.0155972
723.660	0.0153500
723.738	0.0154272
723.817	0.0152708
723.895	0.0154717
723.973	0.0152428
724.051	0.0152337
724.129	0.0153881
724.207	0.0155192
724.285	0.0155389
724.363	0.0154871
724.442	0.0156839
724.520	0.0157355
724.598	0.0157124
724.676	0.0157952
724.754	0.0159540
724.832	0.0161398
724.910	0.0160765
724.988	0.0161890
725.067	0.0162152
725.145	0.0163147
725.223	0.0164196
725.301	0.0165425
725.379	0.0165180
725.457	0.0166687
725.535	0.0166607
725.613	0.0167449
725.692	0.0168633
725.770	0.0168817
725.848	0.0168504
725.926	0.0169962
726.004	0.0171313
726.082	0.0170231
726.160	0.0170885
726.238	0.0169556
726.317	0.0171667
726.395	0.0171206
726.473	0.0171146
726.551	0.0174294
726.629	0.0173942
726.707	0.0174504
726.785	0.0174196
726.863	0.0174578
726.942	0.0176360
727.020	0.0175700
727.098	0.0175983
727.176	0.0176172
727.254	0.0175790
727.332	0.0174887
727.410	0.0175057
727.488	0.0176488
727.567	0.0173705
727.645	0.0172485
727.723	0.0171977
727.801	0.0170180
727.879	0.0168934
727.957	0.0168748
728.035	0.0165761
728.113	0.0164710
728.192	0.0163730
728.270	0.0162194
728.348	0.0161393
728.426	0.0160558
728.504	0.0160876
728.582	0.0161002
728.660	0.0160426
728.738	0.0159048
728.817	0.0158794
728.895	0.0159975
728.973	0.0159657
729.051	0.0161655
729.129	0.0160669
729.207	0.0160780
729.285	0.0161419
729.363	0.0160300
729.442	0.0162112
729.520	0.0162931
729.598	0.0162648
729.676	0.0161366
729.754	0.0162486
729.832	0.0160870
729.910	0.0159189
729.988	0.0158623
730.067	0.0158503
730.145	0.0158029
730.223	0.0156470
730.301	0.0157517
730.379	0.0157061
730.457	0.0156592
730.535	0.0157860
730.613	0.0157083
730.692	0.0156163
730.770	0.0157304
730.848	0.0157209
730.926	0.0158383
731.004	0.0159406
731.082	0.0159615
731.160	0.0160043
731.238	0.0160915
731.317	0.0161427
731.395	0.0162431
731.473	0.0162481
731.551	0.0163301
731.629	0.0165430
731.707	0.0166110
731.785	0.0167163
731.863	0.0168272
731.942	0.0169839
732.020	0.0169994
732.098	0.0169733
732.176	0.0171807
732.254	0.0171997
732.332	0.0170752
732.410	0.0170945
732.488	0.0170856
732.567	0.0170155
732.645	0.0170475
732.723	0.0171609
732.801	0.0169490
732.879	0.0169381
732.957	0.0171165
733.035	0.0171524
733.113	0.0171721
733.192	0.0172064
733.270	0.0172714
733.348	0.0172180
733.426	0.0173437
733.504	0.0174706
733.582	0.0174889
733.660	0.0176771
733.738	0.0175196
733.817	0.0176016
733.895	0.0176162
733.973	0.0175577
734.051	0.0174946
734.129	0.0174338
734.207	0.0173882
734.285	0.0173302
734.363	0.0170994
734.442	0.0168989
734.520	0.0168777
734.598	0.0167191
734.676	0.0166072
734.754	0.0163857
734.832	0.0163958
734.910	0.0161246
734.988	0.0160950
735.067	0.0161494
735.145	0.0160203
735.223	0.0161201
735.301	0.0160513
735.379	0.0159968
735.457	0.0160154
735.535	0.0160745
735.613	0.0161012
735.692	0.0160494
735.770	0.0161301
735.848	0.0161360
735.926	0.0161066
736.004	0.0162062
736.082	0.0162585
736.160	0.0161143
736.238	0.0159510
736.317	0.0159293
736.395	0.0159281
736.473	0.0157907
736.551	0.0156528
736.629	0.0155920
736.707	0.0155496
736.785	0.0154639
736.863	0.0153952
736.942	0.0154585
737.020	0.0154298
737.098	0.0154264
737.176	0.0153092
737.254	0.0154799
737.332	0.0155094
737.410	0.0157319
737.488	0.0159776
737.567	0.0159385
737.645	0.0160338
737.723	0.0159011
737.801	0.0160349
737.879	0.0161953
737.957	0.0162557
738.035	0.0162933
738.113	0.0163848
738.192	0.0165518
738.270	0.0164407
738.348	0.0165185
738.426	0.0166788
738.504	0.0166115
738.582	0.0167398
738.660	0.0166953
738.738	0.0166384
738.817	0.0167541
738.895	0.0167097
738.973	0.0167632
739.051	0.0168555
739.129	0.0168262
739.207	0.0167959
739.285	0.0167694
739.363	0.0168003
739.442	0.0168491
739.520	0.0167563
739.598	0.0166656
739.676	0.0168176
739.754	0.0168181
739.832	0.0167904
739.910	0.0169109
739.988	0.0167680
740.067	0.0169211
740.145	0.0169955
740.223	0.0169196
740.301	0.0169317
740.379	0.0170949
740.457	0.0170842
740.535	0.0171046
740.613	0.0171777
740.692	0.0171308
740.770	0.0170305
740.848	0.0170139
740.926	0.0167522
741.004	0.0168369
741.082	0.0168896
741.160	0.0166376
741.238	0.0164723
741.317	0.0164395
741.395	0.0163284
741.473	0.0162005
741.551	0.0160497
741.629	0.0159837
741.707	0.0160624
741.785	0.0159894
741.863	0.0157935
741.942	0.0158251
742.020	0.0158965
742.098	0.0159165
742.176	0.0158833
742.254	0.0157350
742.332	0.0159158
742.410	0.0160909
742.488	0.0159106
742.567	0.0159557
742.645	0.0160549
742.723	0.0161739
742.801	0.0160059
742.879	0.0160000
742.957	0.0160532
743.035	0.0161286
743.113	0.0159821
743.192	0.0159497
743.270	0.0159174
743.348	0.0159309
743.426	0.0158788
743.504	0.0159987
743.582	0.0158285
743.660	0.0158849
743.738	0.0158834
743.817	0.0158935
743.895	0.0159694
743.973	0.0160404
744.051	0.0159528
744.129	0.0159420
744.207	0.0160318
744.285	0.0162325
744.363	0.0162579
744.442	0.0163306
744.520	0.0165417
744.598	0.0166205
744.676	0.0166672
744.754	0.0166646
744.832	0.0169427
744.910	0.0168789
744.988	0.0170395
745.067	0.0169440
745.145	0.0170709
745.223	0.0170474
745.301	0.0169562
745.379	0.0170192
745.457	0.0170111
745.535	0.0171218
745.613	0.0169307
745.692	0.0168530
745.770	0.0167941
745.848	0.0168037
745.926	0.0166325
746.004	0.0166568
746.082	0.0166484
746.160	0.0165504
746.238	0.0164159
746.317	0.0164249
746.395	0.0164151
746.473	0.0164205
746.551	0.0162802
746.629	0.0164454
746.707	0.0163686
746.785	0.0164479
746.863	0.0165524
746.942	0.0165733
747.020	0.0165182
747.098	0.0164280
747.176	0.0166374
747.254	0.0166600
747.332	0.0165916
747.410	0.0166179
747.488	0.0167608
747.567	0.0167050
747.645	0.0165885
747.723	0.0166721
747.801	0.0164642
747.879	0.0164493
747.957	0.0164951
748.035	0.0165459
748.113	0.0164746
748.192	0.0165224
748.270	0.0163687
748.348	0.0163568
748.426	0.0163811
748.504	0.0161683
748.582	0.0161285
748.660	0.0162865
748.738	0.0161246
748.817	0.0161063
748.895	0.0160612
748.973	0.0160505
749.051	0.0160365
749.129	0.0159150
749.207	0.0159875
749.285	0.0160635
749.363	0.0159927
749.442	0.0160204
749.520	0.0161545
749.598	0.0161745
749.676	0.0160947
749.754	0.0161619
749.832	0.0162495
749.910	0.0161966
749.988	0.0163129
750.067	0.0163662
750.145	0.0164953
750.223	0.0165714
750.301	0.0165627
750.379	0.0164892
750.457	0.0165750
750.535	0.0165141
750.613	0.0166509
750.692	0.0166029
750.770	0.0165553
750.848	0.0164956
750.926	0.0165270
751.004	0.0164098
751.082	0.0163913
751.160	0.0162602
751.238	0.0161814
751.317	0.0161733
751.395	0.0162199
751.473	0.0160764
751.551	0.0161465
751.629	0.0160625
751.707	0.0161069
751.785	0.0162320
751.863	0.0161901
751.942	0.0162455
752.020	0.0162549
752.098	0.0164882
752.176	0.0165247
752.254	0.0165064
752.332	0.0166007
752.410	0.0166633
752.488	0.0166687
752.567	0.0168481
752.645	0.0167493
752.723	0.0167635
752.801	0.0167467
752.879	0.0168726
752.957	0.0169971
753.035	0.0168941
753.113	0.0168987
753.192	0.0168903
753.270	0.0168526
753.348	0.0167280
753.426	0.0167895
753.504	0.0167829
753.582	0.0167667
753.660	0.0166680
753.738	0.0167340
753.817	0.0165938
753.895	0.0166238
753.973	0.0165884
754.051	0.0166682
754.129	0.0167378
754.207	0.0166919
754.285	0.0167033
754.363	0.0166836
754.442	0.0166305
754.520	0.0167500
754.598	0.0166962
754.676	0.0167419
754.754	0.0168014
754.832	0.0167828
754.910	0.0167549
754.988	0.0165198
755.067	0.0167366
755.145	0.0168028
755.223	0.0164843
755.301	0.0166274
755.379	0.0165737
755.457	0.0164197
755.535	0.0163601
755.613	0.0161994
755.692	0.0161710
755.770	0.0163768
755.848	0.0162106
755.926	0.0161733
756.004	0.0161626
756.082	0.0162907
756.160	0.0162649
756.238	0.0163039
756.317	0.0162717
756.395	0.0162691
756.473	0.0163326
756.551	0.0164148
756.629	0.0164567
756.707	0.0163406
756.785	0.0163485
756.863	0.0164086
756.942	0.0163944
757.020	0.0164641
757.098	0.0162405
757.176	0.0162798
757.254	0.0162722
757.332	0.0160927
757.410	0.0160904
757.488	0.0161614
757.567	0.0161195
757.645	0.0160065
757.723	0.0159663
757.801	0.0160215
757.879	0.0161472
757.957	0.0160579
758.035	0.0162629
758.113	0.0161555
758.192	0.0163099
758.270	0.0162692
758.348	0.0164007
758.426	0.0162634
758.504	0.0164236
758.582	0.0163788
758.660	0.0163974
758.738	0.0164642
758.817	0.0165511
758.895	0.0164824
758.973	0.0164841
759.051	0.0164694
759.129	0.0164698
759.207	0.0164848
759.285	0.0165870
759.363	0.0166922
759.442	0.0165580
759.520	0.0165664
759.598	0.0166026
759.676	0.0166734
759.754	0.0167614
759.832	0.0165514
759.910	0.0166715
759.988	0.0166270
760.067	0.0165382
760.145	0.0165767
760.223	0.0166216
760.301	0.0164748
760.379	0.0165961
760.457	0.0164596
760.535	0.0166102
760.613	0.0165258
760.692	0.0165154
760.770	0.0163693
760.848	0.0165315
760.926	0.0164439
761.004	0.0165256
761.082	0.0165048
761.160	0.0162527
761.238	0.0163982
761.317	0.0163925
761.395	0.0162902
761.473	0.0164730
761.551	0.0163541
761.629	0.0163630
761.707	0.0163853
761.785	0.0165607
761.863	0.0164167
761.942	0.0164077
762.020	0.0165024
762.098	0.0165925
762.176	0.0164424
762.254	0.0164162
762.332	0.0165018
762.410	0.0165459
762.488	0.0165697
762.567	0.0167699
762.645	0.0167213
762.723	0.0166438
762.801	0.0165942
762.879	0.0166675
762.957	0.0167287
763.035	0.0165923
763.113	0.0166686
763.192	0.0166962
763.270	0.0166037
763.348	0.0166514
763.426	0.0166199
763.504	0.0168124
763.582	0.0166499
763.660	0.0168343
763.738	0.0167925
763.817	0.0168671
763.895	0.0166865
763.973	0.0166898
764.051	0.0168291
764.129	0.0169941
764.207	0.0168020
764.285	0.0166663
764.363	0.0166284
764.442	0.0167817
764.520	0.0167022
764.598	0.0164981
764.676	0.0164982
764.754	0.0165731
764.832	0.0165083
764.910	0.0166010
764.988	0.0165529
765.067	0.0165005
765.145	0.0164941
765.223	0.0164908
765.301	0.0165498
765.379	0.0166157
765.457	0.0165430
765.535	0.0165560
765.613	0.0164928
765.692	0.0163938
765.770	0.0164217
765.848	0.0164148
765.926	0.0164698
766.004	0.0164384
766.082	0.0165002
766.160	0.0163969
766.238	0.0164386
766.317	0.0165244
766.395	0.0165942
766.473	0.0164858
766.551	0.0165559
766.629	0.0165255
766.707	0.0165597
766.785	0.0165980
766.863	0.0167066
766.942	0.0165647
767.020	0.0165380
767.098	0.0166526
767.176	0.0166319
767.254	0.0167376
767.332	0.0166331
767.410	0.0166515
767.488	0.0166370
767.567	0.0168220
767.645	0.0166211
767.723	0.0164775
767.801	0.0165988
767.879	0.0166731
767.957	0.0167203
768.035	0.0166307
768.113	0.0166562
768.192	0.0165683
768.270	0.0166161
768.348	0.0166079
768.426	0.0164524
768.504	0.0165749
768.582	0.0165435
768.660	0.0166902
768.738	0.0167200
768.817	0.0166846
768.895	0.0166271
768.973	0.0165201
769.051	0.0164275
769.129	0.0166015
769.207	0.0165431
769.285	0.0164722
769.363	0.0164111
769.442	0.0163936
769.520	0.0163863
769.598	0.0162358
769.676	0.0162337
769.754	0.0162332
769.832	0.0162409
769.910	0.0161253
769.988	0.0163000
770.067	0.0162691
770.145	0.0161850
770.223	0.0162989
770.301	0.0161975
770.379	0.0161581
770.457	0.0161330
770.535	0.0162555
770.613	0.0164187
770.692	0.0161855
770.770	0.0162700
770.848	0.0162794
770.926	0.0163240
771.004	0.0163519
771.082	0.0164731
771.160	0.0163911
771.238	0.0164365
771.317	0.0165782
771.395	0.0165246
771.473	0.0163410
771.551	0.0165642
771.629	0.0167274
771.707	0.0164137
771.785	0.0164835
771.863	0.0165476
771.942	0.0165093
772.020	0.0166166
772.098	0.0165699
772.176	0.0165430
772.254	0.0164246
772.332	0.0164692
772.410	0.0163631
772.488	0.0163596
772.567	0.0162530
772.645	0.0161908
772.723	0.0160966
772.801	0.0160344
772.879	0.0160064
772.957	0.0159174
773.035	0.0159627
773.113	0.0158181
773.192	0.0157475
773.270	0.0158030
773.348	0.0157850
773.426	0.0158083
773.504	0.0157760
773.582	0.0158930
773.660	0.0158015
773.738	0.0158482
773.817	0.0159502
773.895	0.0161161
773.973	0.0160895
774.051	0.0160945
774.129	0.0161915
774.207	0.0160474
774.285	0.0162382
774.363	0.0162592
774.442	0.0163445
774.520	0.0163022
774.598	0.0162895
774.676	0.0163846
774.754	0.0162997
774.832	0.0163838
774.910	0.0163869
774.988	0.0163058
775.067	0.0164198
775.145	0.0163507
775.223	0.0163946
775.301	0.0163004
775.379	0.0162174
775.457	0.0162436
775.535	0.0164266
775.613	0.0164380
775.692	0.0163614
775.770	0.0165376
775.848	0.0164619
775.926	0.0165659
776.004	0.0164531
776.082	0.0165573
776.160	0.0164983
776.238	0.0166106
776.317	0.0166055
776.395	0.0166177
776.473	0.0166821
776.551	0.0166306
776.629	0.0168127
776.707	0.0168887
776.785	0.0166291
776.863	0.0168250
776.942	0.0169360
777.020	0.0167371
777.098	0.0167365
777.176	0.0168195
777.254	0.0166571
777.332	0.0166764
777.410	0.0167428
777.488	0.0167668
777.567	0.0166833
777.645	0.0167322
777.723	0.0167633
777.801	0.0168576
777.879	0.0167580
777.957	0.0166220
778.035	0.0168403
778.113	0.0168177
778.192	0.0168199
778.270	0.0168799
778.348	0.0169368
778.426	0.0170259
778.504	0.0168330
778.582	0.0169777
778.660	0.0169770
778.738	0.0168809
778.817	0.0169423
778.895	0.0169448
778.973	0.0168849
779.051	0.0167702
779.129	0.0168491
779.207	0.0168161
779.285	0.0168356
779.363	0.0167216
779.442	0.0167334
779.520	0.0167570
779.598	0.0167815
779.676	0.0167226
779.754	0.0166423
779.832	0.0166051
779.910	0.0166631
779.988	0.0163797
780.067	0.0163985
780.145	0.0165577
780.223	0.0167602
780.301	0.0165402
780.379	0.0164922
780.457	0.0163461
780.535	0.0163548
780.613	0.0163580
780.692	0.0164189
780.770	0.0163299
780.848	0.0162618
780.926	0.0162904
781.004	0.0161735
781.082	0.0162027
781.160	0.0162753
781.238	0.0158655
781.317	0.0162666
781.395	0.0160633
781.473	0.0160297
781.551	0.0158656
781.629	0.0159668
781.707	0.0159699
781.785	0.0159198
781.863	0.0160433
781.942	0.0162627
782.020	0.0160361
782.098	0.0161391
782.176	0.0161797
782.254	0.0163271
782.332	0.0164562
782.410	0.0164076
782.488	0.0163730
782.567	0.0163897
782.645	0.0164497
782.723	0.0165675
782.801	0.0165302
782.879	0.0165665
782.957	0.0164450
783.035	0.0164906
783.113	0.0165027
783.192	0.0163693
783.270	0.0163175
783.348	0.0163881
783.426	0.0163714
783.504	0.0162738
783.582	0.0163995
783.660	0.0165098
783.738	0.0163790
783.817	0.0165187
783.895	0.0164114
783.973	0.0163162
784.051	0.0164038
784.129	0.0165800
784.207	0.0165746
784.285	0.0164573
784.363	0.0165643
784.442	0.0165042
784.520	0.0165528
784.598	0.0166592
784.676	0.0165950
784.754	0.0165840
784.832	0.0166312
784.910	0.0167125
784.988	0.0167124
785.067	0.0166703
785.145	0.0166203
785.223	0.0166330
785.301	0.0165958
785.379	0.0166483
785.457	0.0166634
785.535	0.0167243
785.613	0.0166083
785.692	0.0167763
785.770	0.0166776
785.848	0.0166757
785.926	0.0168032
786.004	0.0168359
786.082	0.0168151
786.160	0.0168438
786.238	0.0168807
786.317	0.0170301
786.395	0.0170996
786.473	0.0168883
786.551	0.0168935
786.629	0.0169588
786.707	0.0169276
786.785	0.0170306
786.863	0.0169465
786.942	0.0168540
787.020	0.0168540
787.098	0.0168963
787.176	0.0168352
787.254	0.0169661
787.332	0.0169370
787.410	0.0166953
787.488	0.0167659
787.567	0.0167309
787.645	0.0164963
787.723	0.0165125
787.801	0.0164293
787.879	0.0164267
787.957	0.0165944
788.035	0.0163587
788.113	0.0162891
788.192	0.0163997
788.270	0.0163554
788.348	0.0162596
788.426	0.0163194
788.504	0.0161673
788.582	0.0161441
788.660	0.0160686
788.738	0.0160413
788.817	0.0160267
788.895	0.0160520
788.973	0.0160617
789.051	0.0160282
789.129	0.0159518
789.207	0.0161255
789.285	0.0159711
789.363	0.0160557
789.442	0.0162466
789.520	0.0162466
789.598	0.0162627
789.676	0.0163934
789.754	0.0164741
789.832	0.0166238
789.910	0.0166780
789.988	0.0166814
790.067	0.0168416
790.145	0.0167012
790.223	0.0168754
790.301	0.0168963
790.379	0.0167594
790.457	0.0168903
790.535	0.0167542
790.613	0.0169212
790.692	0.0169297
790.770	0.0167379
790.848	0.0166190
790.926	0.0166042
791.004	0.0167622
791.082	0.0168504
791.160	0.0166882
791.238	0.0168002
791.317	0.0167057
791.395	0.0167971
791.473	0.0168414
791.551	0.0169425
791.629	0.0170062
791.707	0.0168492
791.785	0.0169463
791.863	0.0169854
791.942	0.0170560
792.020	0.0170164
792.098	0.0170678
792.176	0.0172622
792.254	0.0172125
792.332	0.0171142
792.410	0.0171032
792.488	0.0170303
792.567	0.0169299
792.645	0.0167805
792.723	0.0166633
792.801	0.0166506
792.879	0.0165387
792.957	0.0163998
793.035	0.0163576
793.113	0.0162296
793.192	0.0162560
793.270	0.0162048
793.348	0.0162359
793.426	0.0160827
793.504	0.0160930
793.582	0.0160838
793.660	0.0160825
793.738	0.0161478
793.817	0.0162276
793.895	0.0163396
793.973	0.0163306
794.051	0.0165486
794.129	0.0165768
794.207	0.0166437
794.285	0.0165350
794.363	0.0166156
794.442	0.0167639
794.520	0.0168739
794.598	0.0168829
794.676	0.0168642
794.754	0.0169894
794.832	0.0169013
794.910	0.0169442
794.988	0.0168913
795.067	0.0170438
795.145	0.0169192
795.223	0.0167293
795.301	0.0167853
795.379	0.0168332
795.457	0.0166784
795.535	0.0166673
795.613	0.0166099
795.692	0.0165196
795.770	0.0164286
795.848	0.0164690
795.926	0.0164674
796.004	0.0162586
796.082	0.0162145
796.160	0.0162881
796.238	0.0160758
796.317	0.0160498
796.395	0.0160281
796.473	0.0157998
796.551	0.0157638
796.629	0.0157411
796.707	0.0156396
796.785	0.0157131
796.863	0.0156593
796.942	0.0156216
797.020	0.0156248
797.098	0.0155486
797.176	0.0155441
797.254	0.0156011
797.332	0.0156201
797.410	0.0157073
797.488	0.0156987
797.567	0.0156553
797.645	0.0157518
797.723	0.0157425
797.801	0.0158640
797.879	0.0159534
797.957	0.0158466
798.035	0.0158810
798.113	0.0160324
798.192	0.0160338
798.270	0.0160667
798.348	0.0160975
798.426	0.0160644
798.504	0.0158888
798.582	0.0160380
798.660	0.0161608
798.738	0.0161519
798.817	0.0161120
798.895	0.0162334
798.973	0.0162489
799.051	0.0162178
799.129	0.0162797
799.207	0.0163988
799.285	0.0165076
799.363	0.0166806
799.442	0.0166649
799.520	0.0167677
799.598	0.0168572
799.676	0.0169154
799.754	0.0170779
799.832	0.0171259
799.910	0.0169461
799.988	0.0171154
800.067	0.0170563
800.145	0.0172009
800.223	0.0171232
800.301	0.0170278
800.379	0.0168935
800.457	0.0169828
800.535	0.0168520
800.613	0.0167883
800.692	0.0166510
800.770	0.0167002
800.848	0.0167217
800.926	0.0165440
801.004	0.0163647
801.082	0.0163656
801.160	0.0161721
801.238	0.0161459
801.317	0.0162408
801.395	0.0161391
801.473	0.0161977
801.551	0.0161497
801.629	0.0161075
801.707	0.0161725
801.785	0.0160438
801.863	0.0162625
801.942	0.0162768
802.020	0.0163377
802.098	0.0162708
802.176	0.0163145
802.254	0.0163173
802.332	0.0162777
802.410	0.0164027
802.488	0.0162648
802.567	0.0163259
802.645	0.0163885
802.723	0.0163548
802.801	0.0164985
802.879	0.0163809
802.957	0.0164852
803.035	0.0165656
803.113	0.0164759
803.192	0.0164397
803.270	0.0165602
803.348	0.0164964
803.426	0.0163062
803.504	0.0163952
803.582	0.0165211
803.660	0.0165045
803.738	0.0165145
803.817	0.0162970
803.895	0.0163306
803.973	0.0163863
804.051	0.0161886
804.129	0.0161298
804.207	0.0159695
804.285	0.0160863
804.363	0.0160146
804.442	0.0158707
804.520	0.0157549
804.598	0.0159194
804.676	0.0159796
804.754	0.0158696
804.832	0.0158946
804.910	0.0158501
804.988	0.0158115
805.067	0.0160941
805.145	0.0162388
805.223	0.0163618
805.301	0.0163547
805.379	0.0163622
805.457	0.0164163
805.535	0.0165276
805.613	0.0165047
805.692	0.0164731
805.770	0.0165591
805.848	0.0165002
805.926	0.0166784
806.004	0.0167257
806.082	0.0166397
806.160	0.0165607
806.238	0.0165276
806.317	0.0165636
806.395	0.0166879
806.473	0.0166638
806.551	0.0165994
806.629	0.0168037
806.707	0.0166953
806.785	0.0167661
806.863	0.0167747
806.942	0.0169148
807.020	0.0168997
807.098	0.0170607
807.176	0.0168552
807.254	0.0170942
807.332	0.0172381
807.410	0.0171077
807.488	0.0172243
807.567	0.0173073
807.645	0.0172240
807.723	0.0171130
807.801	0.0172742
807.879	0.0170518
807.957	0.0169796
808.035	0.0169338
808.113	0.0168575
808.192	0.0167880
808.270	0.0166833
808.348	0.0165979
808.426	0.0164954
808.504	0.0166132
808.582	0.0163257
808.660	0.0164504
808.738	0.0165540
808.817	0.0163554
808.895	0.0162591
808.973	0.0165579
809.051	0.0165864
809.129	0.0164745
809.207	0.0164230
809.285	0.0165926
809.363	0.0165563
809.442	0.0167145
809.520	0.0167356
809.598	0.0167115
809.676	0.0166606
809.754	0.0166654
809.832	0.0168429
809.910	0.0167522
809.988	0.0166766
810.067	0.0167422
810.145	0.0166492
810.223	0.0168377
810.301	0.0167183
810.379	0.0168493
810.457	0.0166875
810.535	0.0166698
810.613	0.0167050
810.692	0.0167666
810.770	0.0167148
810.848	0.0168145
810.926	0.0168515
811.004	0.0167705
811.082	0.0167044
811.160	0.0169076
811.238	0.0167596
811.317	0.0167831
811.395	0.0168472
811.473	0.0166446
811.551	0.0167506
811.629	0.0166079
811.707	0.0166050
811.785	0.0165450
811.863	0.0164165
811.942	0.0162443
812.020	0.0163385
812.098	0.0162026
812.176	0.0160581
812.254	0.0161085
812.332	0.0161393
812.410	0.0159402
812.488	0.0158024
812.567	0.0158850
812.645	0.0158932
812.723	0.0158197
812.801	0.0158686
812.879	0.0159569
812.957	0.0159757
813.035	0.0160459
813.113	0.0161938
813.192	0.0160408
813.270	0.0162327
813.348	0.0162626
813.426	0.0161873
813.504	0.0163168
813.582	0.0163560
813.660	0.0165069
813.738	0.0163503
813.817	0.0164189
813.895	0.0163663
813.973	0.0165371
814.051	0.0163508
814.129	0.0163485
814.207	0.0163148
814.285	0.0164433
814.363	0.0164414
814.442	0.0164669
814.520	0.0164800
814.598	0.0163132
814.676	0.0165067
814.754	0.0166843
814.832	0.0164830
814.910	0.0166645
814.988	0.0165681
815.067	0.0166913
815.145	0.0167262
815.223	0.0167283
815.301	0.0167615
815.379	0.0168346
815.457	0.0169070
815.535	0.0168091
815.613	0.0167896
815.692	0.0167559
815.770	0.0169280
815.848	0.0167216
815.926	0.0164854
816.004	0.0164526
816.082	0.0165219
816.160	0.0165726
816.238	0.0163453
816.317	0.0160257
816.395	0.0162190
816.473	0.0162625
816.551	0.0161515
816.629	0.0162675
816.707	0.0161837
816.785	0.0160477
816.863	0.0161708
816.942	0.0162247
817.020	0.0163268
817.098	0.0163142
817.176	0.0163741
817.254	0.0163629
817.332	0.0163097
817.410	0.0164024
817.488	0.0163584
817.567	0.0164948
817.645	0.0165035
817.723	0.0166317
817.801	0.0165800
817.879	0.0167123
817.957	0.0166124
818.035	0.0166793
818.113	0.0166844
818.192	0.0166347
818.270	0.0165997
818.348	0.0165199
818.426	0.0165541
818.504	0.0164530
818.582	0.0163394
818.660	0.0163293
818.738	0.0163966
818.817	0.0163959
818.895	0.0162991
818.973	0.0162828
819.051	0.0162429
819.129	0.0163363
819.207	0.0162582
819.285	0.0162083
819.363	0.0161784
819.442	0.0161497
819.520	0.0160201
819.598	0.0160436
819.676	0.0160955
819.754	0.0159512
819.832	0.0159665
819.910	0.0157814
819.988	0.0158257
820.067	0.0157988
820.145	0.0157691
820.223	0.0158527
820.301	0.0157809
820.379	0.0157668
820.457	0.0158668
820.535	0.0157908
820.613	0.0159980
820.692	0.0160134
820.770	0.0160967
820.848	0.0162177
820.926	0.0162622
821.004	0.0165088
821.082	0.0166087
821.160	0.0164905
821.238	0.0164441
821.317	0.0165919
821.395	0.0164981
821.473	0.0167253
821.551	0.0165229
821.629	0.0166048
821.707	0.0167001
821.785	0.0166789
821.863	0.0165802
821.942	0.0164641
822.020	0.0164487
822.098	0.0166113
822.176	0.0166165
822.254	0.0166588
822.332	0.0166557
822.410	0.0166954
822.488	0.0166317
822.567	0.0167919
822.645	0.0168041
822.723	0.0169307
822.801	0.0168719
822.879	0.0170197
822.957	0.0170928
823.035	0.0170012
823.113	0.0170351
823.192	0.0170578
823.270	0.0169832
823.348	0.0170782
823.426	0.0171089
823.504	0.0170231
823.582	0.0169534
823.660	0.0169333
823.738	0.0168153
823.817	0.0167724
823.895	0.0167117
823.973	0.0167646
824.051	0.0165157
824.129	0.0164616
824.207	0.0164325
824.285	0.0164774
824.363	0.0163328
824.442	0.0163376
824.520	0.0163422
824.598	0.0162975
824.676	0.0163805
824.754	0.0163603
824.832	0.0164288
824.910	0.0164121
824.988	0.0162207
825.067	0.0164201
825.145	0.0163979
825.223	0.0163789
825.301	0.0165051
825.379	0.0163641
825.457	0.0163810
825.535	0.0166373
825.613	0.0164635
825.692	0.0163273
825.770	0.0164830
825.848	0.0165462
825.926	0.0163946
826.004	0.0165307
826.082	0.0162833
826.160	0.0162563
826.238	0.0163010
826.317	0.0164220
826.395	0.0163348
826.473	0.0162558
826.551	0.0163589
826.629	0.0161621
826.707	0.0162788
826.785	0.0161922
826.863	0.0161107
826.942	0.0161115
827.020	0.0161124
827.098	0.0162543
827.176	0.0160702
827.254	0.0160760
827.332	0.0159963
827.410	0.0159549
827.488	0.0160596
827.567	0.0160187
827.645	0.0159606
827.723	0.0160132
827.801	0.0157826
827.879	0.0158563
827.957	0.0160954
828.035	0.0159828
828.113	0.0158624
828.192	0.0159389
828.270	0.0160347
828.348	0.0161828
828.426	0.0161164
828.504	0.0160187
828.582	0.0161550
828.660	0.0163041
828.738	0.0162453
828.817	0.0163275
828.895	0.0164568
828.973	0.0163966
829.051	0.0165867
829.129	0.0163603
829.207	0.0164503
829.285	0.0165702
829.363	0.0165650
829.442	0.0167384
829.520	0.0166032
829.598	0.0166492
829.676	0.0167915
829.754	0.0166410
829.832	0.0166747
829.910	0.0167175
829.988	0.0167584
830.067	0.0167742
830.145	0.0168781
830.223	0.0168172
830.301	0.0168512
830.379	0.0166576
830.457	0.0167664
830.535	0.0168185
830.613	0.0168182
830.692	0.0168722
830.770	0.0169742
830.848	0.0167800
830.926	0.0166911
831.004	0.0168233
831.082	0.0167307
831.160	0.0166481
831.238	0.0168076
831.317	0.0167261
831.395	0.0167074
831.473	0.0167730
831.551	0.0167130
831.629	0.0167030
831.707	0.0167315
831.785	0.0167252
831.863	0.0165367
831.942	0.0165809
832.020	0.0166059
832.098	0.0166135
832.176	0.0165916
832.254	0.0165950
832.332	0.0165712
832.410	0.0165460
832.488	0.0166110
832.567	0.0165537
832.645	0.0166001
832.723	0.0166012
832.801	0.0166092
832.879	0.0165868
832.957	0.0166312
833.035	0.0165683
833.113	0.0165117
833.192	0.0166069
833.270	0.0168066
833.348	0.0165997
833.426	0.0165550
833.504	0.0167190
833.582	0.0167222
833.660	0.0165892
833.738	0.0165826
833.817	0.0165587
833.895	0.0166620
833.973	0.0165476
834.051	0.0164565
834.129	0.0164871
834.207	0.0163934
834.285	0.0164696
834.363	0.0163379
834.442	0.0162431
834.520	0.0164426
834.598	0.0162354
834.676	0.0164254
834.754	0.0163853
834.832	0.0161768
834.910	0.0162519
834.988	0.0163094
835.067	0.0161755
835.145	0.0161317
835.223	0.0160308
835.301	0.0160595
835.379	0.0161702
835.457	0.0161426
835.535	0.0160548
835.613	0.0161306
835.692	0.0160316
835.770	0.0162910
835.848	0.0161534
835.926	0.0161052
836.004	0.0162027
836.082	0.0162739
836.160	0.0162775
836.238	0.0164165
836.317	0.0164124
836.395	0.0165599
836.473	0.0164309
836.551	0.0163723
836.629	0.0165753
836.707	0.0165874
836.785	0.0165865
836.863	0.0164805
836.942	0.0165634
837.020	0.0164195
837.098	0.0164899
837.176	0.0163796
837.254	0.0165173
837.332	0.0164232
837.410	0.0165318
837.488	0.0163930
837.567	0.0163454
837.645	0.0164323
837.723	0.0164909
837.801	0.0163992
837.879	0.0164907
837.957	0.0165224
838.035	0.0163027
838.113	0.0164017
838.192	0.0163244
838.270	0.0163213
838.348	0.0164376
838.426	0.0164458
838.504	0.0164011
838.582	0.0164219
838.660	0.0165343
838.738	0.0165586
838.817	0.0164795
838.895	0.0164865
838.973	0.0164576
839.051	0.0163989
839.129	0.0164712
839.207	0.0164365
839.285	0.0164423
839.363	0.0164233
839.442	0.0165417
839.520	0.0164638
839.598	0.0163966
839.676	0.0163425
839.754	0.0163018
839.832	0.0163469
839.910	0.0163778
839.988	0.0162182
840.067	0.0163351
840.145	0.0160981
840.223	0.0161974
840.301	0.0163785
840.379	0.0164095
840.457	0.0165944
840.535	0.0165327
840.613	0.0164166
840.692	0.0165494
840.770	0.0167022
840.848	0.0167039
840.926	0.0166527
841.004	0.0167018
841.082	0.0167406
841.160	0.0167484
841.238	0.0167246
841.317	0.0167157
841.395	0.0168233
841.473	0.0168221
841.551	0.0168131
841.629	0.0168684
841.707	0.0167655
841.785	0.0167040
841.863	0.0167130
841.942	0.0167200
842.020	0.0167126
842.098	0.0165131
842.176	0.0166387
842.254	0.0165126
842.332	0.0166043
842.410	0.0165305
842.488	0.0165644
842.567	0.0164332
842.645	0.0164262
842.723	0.0163511
842.801	0.0163368
842.879	0.0162188
842.957	0.0161659
843.035	0.0162253
843.113	0.0161832
843.192	0.0161063
843.270	0.0160465
843.348	0.0159210
843.426	0.0160833
843.504	0.0160401
843.582	0.0161165
843.660	0.0160423
843.738	0.0160736
843.817	0.0160712
843.895	0.0161864
843.973	0.0162059
844.051	0.0161317
844.129	0.0163264
844.207	0.0164486
844.285	0.0164027
844.363	0.0164183
844.442	0.0163811
844.520	0.0164680
844.598	0.0165079
844.676	0.0164790
844.754	0.0165399
844.832	0.0166860
844.910	0.0166254
844.988	0.0167120
845.067	0.0166676
845.145	0.0165289
845.223	0.0166816
845.301	0.0166944
845.379	0.0165161
845.457	0.0164137
845.535	0.0163809
845.613	0.0166435
845.692	0.0165867
845.770	0.0164985
845.848	0.0165732
845.926	0.0165820
846.004	0.0165498
846.082	0.0164857
846.160	0.0165565
846.238	0.0166520
846.317	0.0165989
846.395	0.0165521
846.473	0.0164865
846.551	0.0165028
846.629	0.0166814
846.707	0.0165215
846.785	0.0166596
846.863	0.0166238
846.942	0.0167096
847.020	0.0167458
847.098	0.0167439
847.176	0.0168392
847.254	0.0167005
847.332	0.0166190
847.410	0.0167048
847.488	0.0167133
847.567	0.0165948
847.645	0.0165313
847.723	0.0166177
847.801	0.0167474
847.879	0.0165722
847.957	0.0165504
848.035	0.0166171
848.113	0.0166602
848.192	0.0166414
848.270	0.0165134
848.348	0.0166660
848.426	0.0166048
848.504	0.0166587
848.582	0.0167316
848.660	0.0167427
848.738	0.0166401
848.817	0.0166764
848.895	0.0168742
848.973	0.0167908
849.051	0.0168301
849.129	0.0168099
849.207	0.0168532
849.285	0.0168592
849.363	0.0168962
849.442	0.0168427
849.520	0.0167021
849.598	0.0166666
849.676	0.0167248
849.754	0.0165873
849.832	0.0165069
849.910	0.0166445
849.988	0.0166769
850.067	0.0164047
850.145	0.0164481
850.223	0.0163894
850.301	0.0164268
850.379	0.0163106
850.457	0.0163476
850.535	0.0164783
850.613	0.0163194
850.692	0.0163100
850.770	0.0163164
850.848	0.0161129
850.926	0.0160894
851.004	0.0160731
851.082	0.0160717
851.160	0.0160329
851.238	0.0160527
851.317	0.0161053
851.395	0.0160402
851.473	0.0160282
851.551	0.0160931
851.629	0.0161861
851.707	0.0162549
851.785	0.0161688
851.863	0.0162370
851.942	0.0161424
852.020	0.0160883
852.098	0.0163827
852.176	0.0164848
852.254	0.0164081
852.332	0.0165357
852.410	0.0166377
852.488	0.0165605
852.567	0.0167770
852.645	0.0166949
852.723	0.0165060
852.801	0.0166394
852.879	0.0167088
852.957	0.0167490
853.035	0.0165921
853.113	0.0166390
853.192	0.0167536
853.270	0.0165868
853.348	0.0166107
853.426	0.0167102
853.504	0.0165479
853.582	0.0166827
853.660	0.0164631
853.738	0.0166012
853.817	0.0165563
853.895	0.0164614
853.973	0.0165767
854.051	0.0165621
854.129	0.0165502
854.207	0.0165612
854.285	0.0165410
854.363	0.0165099
854.442	0.0166436
854.520	0.0166777
854.598	0.0167432
854.676	0.0166856
854.754	0.0167379
854.832	0.0166582
854.910	0.0167501
854.988	0.0166318
855.067	0.0166263
855.145	0.0166829
855.223	0.0165809
855.301	0.0167730
855.379	0.0167821
855.457	0.0167108
855.535	0.0164287
855.613	0.0165753
855.692	0.0165044
855.770	0.0163058
855.848	0.0165630
855.926	0.0164326
856.004	0.0163094
856.082	0.0164334
856.160	0.0163681
856.238	0.0163835
856.317	0.0163423
856.395	0.0165153
856.473	0.0163253
856.551	0.0163393
856.629	0.0165266
856.707	0.0165427
856.785	0.0165810
856.863	0.0164342
856.942	0.0165041
857.020	0.0165444
857.098	0.0165498
857.176	0.0165855
857.254	0.0164468
857.332	0.0165006
857.410	0.0166051
857.488	0.0163653
857.567	0.0164880
857.645	0.0164774
857.723	0.0164054
857.801	0.0162547
857.879	0.0163795
857.957	0.0162552
858.035	0.0165170
858.113	0.0162686
858.192	0.0160757
858.270	0.0162392
858.348	0.0162287
858.426	0.0161156
858.504	0.0160413
858.582	0.0160435
858.660	0.0159875
858.738	0.0159079
858.817	0.0159401
858.895	0.0159036
858.973	0.0159742
859.051	0.0159705
859.129	0.0159331
859.207	0.0159661
859.285	0.0157919
859.363	0.0160696
859.442	0.0160264
859.520	0.0159615
859.598	0.0161600
859.676	0.0160702
859.754	0.0161823
859.832	0.0163303
859.910	0.0163013
859.988	0.0163367
860.067	0.0163316
860.145	0.0163770
860.223	0.0164612
860.301	0.0164211
860.379	0.0163607
860.457	0.0165389
860.535	0.0164756
860.613	0.0165613
860.692	0.0166401
860.770	0.0165459
860.848	0.0164584
860.926	0.0165164
861.004	0.0165429
861.082	0.0164341
861.160	0.0164955
861.238	0.0163340
861.317	0.0163180
861.395	0.0163703
861.473	0.0162230
861.551	0.0162364
861.629	0.0162837
861.707	0.0162979
861.785	0.0163414
861.863	0.0162641
861.942	0.0163889
862.020	0.0162615
862.098	0.0164163
862.176	0.0164648
862.254	0.0163825
862.332	0.0164864
862.410	0.0165646
862.488	0.0164787
862.567	0.0166036
862.645	0.0166969
862.723	0.0165086
862.801	0.0166531
862.879	0.0166359
862.957	0.0166078
863.035	0.0167016
863.113	0.0167196
863.192	0.0167754
863.270	0.0167033
863.348	0.0167126
863.426	0.0168269
863.504	0.0166702
863.582	0.0165804
863.660	0.0167691
863.738	0.0166898
863.817	0.0167330
863.895	0.0166808
863.973	0.0166527
864.051	0.0167579
864.129	0.0166467
864.207	0.0166850
864.285	0.0167474
864.363	0.0168198
864.442	0.0168168
864.520	0.0167545
864.598	0.0165350
864.676	0.0166484
864.754	0.0167725
864.832	0.0169716
864.910	0.0168560
864.988	0.0168098
865.067	0.0166856
865.145	0.0166786
865.223	0.0168372
865.301	0.0168373
865.379	0.0166654
865.457	0.0167994
865.535	0.0167220
865.613	0.0166370
865.692	0.0165999
865.770	0.0167728
865.848	0.0166201
865.926	0.0165435
866.004	0.0164596
866.082	0.0165334
866.160	0.0163924
866.238	0.0165336
866.317	0.0162403
866.395	0.0163004
866.473	0.0163053
866.551	0.0162441
866.629	0.0163307
866.707	0.0161906
866.785	0.0161342
866.863	0.0162038
866.942	0.0161835
867.020	0.0161172
867.098	0.0161005
867.176	0.0160857
867.254	0.0161579
867.332	0.0162968
867.410	0.0162621
867.488	0.0163182
867.567	0.0163077
867.645	0.0163585
867.723	0.0163205
867.801	0.0164438
867.879	0.0165482
867.957	0.0165936
868.035	0.0166269
868.113	0.0167213
868.192	0.0166775
868.270	0.0167656
868.348	0.0168302
868.426	0.0168610
868.504	0.0167068
868.582	0.0167392
868.660	0.0166958
868.738	0.0168959
868.817	0.0167694
868.895	0.0165023
868.973	0.0165255
869.051	0.0166246
869.129	0.0166557
869.207	0.0166192
869.285	0.0166738
869.363	0.0164964
869.442	0.0165350
869.520	0.0166591
869.598	0.0167040
869.676	0.0164546
869.754	0.0164663
869.832	0.0166879
869.910	0.0167492
869.988	0.0166428
870.067	0.0166663
870.145	0.0166236
870.223	0.0168326
870.301	0.0167295
870.379	0.0167686
870.457	0.0168362
870.535	0.0167614
870.613	0.0167350
870.692	0.0166905
870.770	0.0167670
870.848	0.0168645
870.926	0.0169485
871.004	0.0168853
871.082	0.0169418
871.160	0.0168813
871.238	0.0168879
871.317	0.0167711
871.395	0.0167542
871.473	0.0167443
871.551	0.0168735
871.629	0.0167070
871.707	0.0168229
871.785	0.0168089
871.863	0.0166806
871.942	0.0165447
872.020	0.0166080
872.098	0.0166888
872.176	0.0165876
872.254	0.0165890
872.332	0.0165359
872.410	0.0167393
872.488	0.0165874
872.567	0.0166943
872.645	0.0165675
872.723	0.0165520
872.801	0.0166399
872.879	0.0165534
872.957	0.0166195
873.035	0.0165548
873.113	0.0165540
873.192	0.0166228
873.270	0.0166194
873.348	0.0165575
873.426	0.0166259
873.504	0.0166438
873.582	0.0165778
873.660	0.0165187
873.738	0.0165297
873.817	0.0165358
873.895	0.0164497
873.973	0.0164925
874.051	0.0164433
874.129	0.0163788
874.207	0.0163563
874.285	0.0163459
874.363	0.0163439
874.442	0.0162028
874.520	0.0162961
874.598	0.0163319
874.676	0.0162571
874.754	0.0162322
874.832	0.0162138
874.910	0.0162012
874.988	0.0161563
875.067	0.0162254
875.145	0.0160831
875.223	0.0161320
875.301	0.0160551
875.379	0.0161709
875.457	0.0163000
875.535	0.0162687
875.613	0.0163586
875.692	0.0164138
875.770	0.0163275
875.848	0.0164089
875.926	0.0165833
876.004	0.0165362
876.082	0.0166422
876.160	0.0165489
876.238	0.0164970
876.317	0.0166427
876.395	0.0167294
876.473	0.0167243
876.551	0.0167059
876.629	0.0166368
876.707	0.0166596
876.785	0.0166804
876.863	0.0163929
876.942	0.0166279
877.020	0.0165651
877.098	0.0164497
877.176	0.0163660
877.254	0.0165125
877.332	0.0164621
877.410	0.0163506
877.488	0.0164198
877.567	0.0166505
877.645	0.0164731
877.723	0.0165549
877.801	0.0166222
877.879	0.0166061
877.957	0.0165733
878.035	0.0165416
878.113	0.0165010
878.192	0.0166978
878.270	0.0166439
878.348	0.0167272
878.426	0.0167435
878.504	0.0167119
878.582	0.0167355
878.660	0.0167017
878.738	0.0167168
878.817	0.0167086
878.895	0.0166250
878.973	0.0168085
879.051	0.0167122
879.129	0.0167149
879.207	0.0165408
879.285	0.0165878
879.363	0.0165210
879.442	0.0166392
879.520	0.0164799
879.598	0.0164228
879.676	0.0166736
879.754	0.0165894
879.832	0.0164945
879.910	0.0166335
879.988	0.0164615
880.067	0.0165614
880.145	0.0164953
880.223	0.0164860
880.301	0.0166384
880.379	0.0164427
880.457	0.0165147
880.535	0.0165798
880.613	0.0164668
880.692	0.0164426
880.770	0.0164754
880.848	0.0165746
880.926	0.0166911
881.004	0.0165900
881.082	0.0167088
881.160	0.0166171
881.238	0.0166069
881.317	0.0165411
881.395	0.0165054
881.473	0.0165823
881.551	0.0165233
881.629	0.0164861
881.707	0.0162982
881.785	0.0163988
881.863	0.0162110
881.942	0.0164247
882.020	0.0162458
882.098	0.0161636
882.176	0.0161160
882.254	0.0162113
882.332	0.0161853
882.410	0.0163080
882.488	0.0163148
882.567	0.0160863
882.645	0.0163332
882.723	0.0164219
882.801	0.0163040
882.879	0.0161250
882.957	0.0163400
883.035	0.0164986
883.113	0.0163528
883.192	0.0163574
883.270	0.0163312
883.348	0.0165039
883.426	0.0164504
883.504	0.0164020
883.582	0.0165759
883.660	0.0165204
883.738	0.0164861
883.817	0.0166601
883.895	0.0166581
883.973	0.0166389
884.051	0.0166699
884.129	0.0165952
884.207	0.0166747
884.285	0.0165679
884.363	0.0165833
884.442	0.0166829
884.520	0.0165883
884.598	0.0166776
884.676	0.0164468
884.754	0.0165012
884.832	0.0164504
884.910	0.0164697
884.988	0.0165223
885.067	0.0164607
885.145	0.0164974
885.223	0.0166115
885.301	0.0165945
885.379	0.0166019
885.457	0.0165350
885.535	0.0165790
885.613	0.0165704
885.692	0.0167068
885.770	0.0166860
885.848	0.0165895
885.926	0.0166408
886.004	0.0166161
886.082	0.0166328
886.160	0.0167195
886.238	0.0167834
886.317	0.0166860
886.395	0.0166444
886.473	0.0167208
886.551	0.0166991
886.629	0.0166750
886.707	0.0167543
886.785	0.0165754
886.863	0.0167064
886.942	0.0166821
887.020	0.0167122
887.098	0.0168085
887.176	0.0166666
887.254	0.0166189
887.332	0.0165427
887.410	0.0166782
887.488	0.0166249
887.567	0.0166103
887.645	0.0164783
887.723	0.0165018
887.801	0.0164237
887.879	0.0163260
887.957	0.0163062
888.035	0.0164072
888.113	0.0163950
888.192	0.0163708
888.270	0.0163611
888.348	0.0161938
888.426	0.0163879
888.504	0.0163573
888.582	0.0163934
888.660	0.0162399
888.738	0.0161788
888.817	0.0164291
888.895	0.0164235
888.973	0.0163319
889.051	0.0163384
889.129	0.0162659
889.207	0.0163937
889.285	0.0163784
889.363	0.0161957
889.442	0.0164764
889.520	0.0164499
889.598	0.0162875
889.676	0.0163003
889.754	0.0164748
889.832	0.0164435
889.910	0.0163821
889.988	0.0164516
890.067	0.0163464
890.145	0.0164372
890.223	0.0163304
890.301	0.0163328
890.379	0.0163537
890.457	0.0164928
890.535	0.0162543
890.613	0.0163917
890.692	0.0165042
890.770	0.0165282
890.848	0.0164326
890.926	0.0165884
891.004	0.0164319
891.082	0.0165241
891.160	0.0165305
891.238	0.0164890
891.317	0.0163960
891.395	0.0164911
891.473	0.0165450
891.551	0.0165829
891.629	0.0164445
891.707	0.0163785
891.785	0.0164684
891.863	0.0164091
891.942	0.0164465
892.020	0.0163750
892.098	0.0165195
892.176	0.0165476
892.254	0.0164986
892.332	0.0166270
892.410	0.0165102
892.488	0.0164453
892.567	0.0164986
892.645	0.0164969
892.723	0.0164217
892.801	0.0164240
892.879	0.0165079
892.957	0.0164925
893.035	0.0163564
893.113	0.0164474
893.192	0.0163550
893.270	0.0165335
893.348	0.0164171
893.426	0.0164167
893.504	0.0165137
893.582	0.0165614
893.660	0.0166039
893.738	0.0164848
893.817	0.0165649
893.895	0.0163467
893.973	0.0164353
894.051	0.0166507
894.129	0.0165239
894.207	0.0166071
894.285	0.0166291
894.363	0.0166054
894.442	0.0164625
894.520	0.0165131
894.598	0.0167590
894.676	0.0166721
894.754	0.0165629
894.832	0.0166703
894.910	0.0167661
894.988	0.0167914
895.067	0.0167161
895.145	0.0167166
895.223	0.0167583
895.301	0.0167728
895.379	0.0168552
895.457	0.0168274
895.535	0.0168200
895.613	0.0168234
895.692	0.0167046
895.770	0.0166854
895.848	0.0166211
895.926	0.0165845
896.004	0.0166742
896.082	0.0165707
896.160	0.0165943
896.238	0.0164942
896.317	0.0165030
896.395	0.0165605
896.473	0.0166125
896.551	0.0163604
896.629	0.0164282
896.707	0.0163568
896.785	0.0163844
896.863	0.0164531
896.942	0.0163068
897.020	0.0162583
897.098	0.0164075
897.176	0.0162714
897.254	0.0163911
897.332	0.0163007
897.410	0.0162043
897.488	0.0161474
897.567	0.0163721
897.645	0.0163882
897.723	0.0163222
897.801	0.0161993
897.879	0.0162064
897.957	0.0163567
898.035	0.0163471
898.113	0.0161891
898.192	0.0164679
898.270	0.0164252
898.348	0.0163849
898.426	0.0164027
898.504	0.0162736
898.582	0.0164306
898.660	0.0164003
898.738	0.0165039
898.817	0.0164369
898.895	0.0164488
898.973	0.0164060
899.051	0.0164252
899.129	0.0165612
899.207	0.0163882
899.285	0.0164596
899.363	0.0163652
899.442	0.0164375
899.520	0.0165379
899.598	0.0163132
899.676	0.0163989
899.754	0.0164946
899.832	0.0165132
899.910	0.0164226
899.988	0.0164255
900.067	0.0164329
900.145	0.0164089
900.223	0.0163802
900.301	0.0162637
900.379	0.0164080
900.457	0.0164513
900.535	0.0163870
900.613	0.0163133
900.692	0.0163659
900.770	0.0163671
900.848	0.0162877
900.926	0.0164299
901.004	0.0162045
901.082	0.0163335
901.160	0.0162859
901.238	0.0163573
901.317	0.0163470
901.395	0.0164710
901.473	0.0163535
901.551	0.0162920
901.629	0.0163676
901.707	0.0162305
901.785	0.0163039
901.863	0.0162453
901.942	0.0162583
902.020	0.0162148
902.098	0.0163583
902.176	0.0164314
902.254	0.0163357
902.332	0.0162558
902.410	0.0162087
902.488	0.0163463
902.567	0.0163775
902.645	0.0163615
902.723	0.0164084
902.801	0.0164050
902.879	0.0165245
902.957	0.0165019
903.035	0.0164024
903.113	0.0163351
903.192	0.0165591
903.270	0.0166310
903.348	0.0165723
903.426	0.0165199
903.504	0.0165117
903.582	0.0165486
903.660	0.0165610
903.738	0.0164564
903.817	0.0165346
903.895	0.0165414
903.973	0.0165897
904.051	0.0165722
904.129	0.0164888
904.207	0.0165383
904.285	0.0166831
904.363	0.0165969
904.442	0.0164912
904.520	0.0165569
904.598	0.0167054
904.676	0.0165860
904.754	0.0164548
904.832	0.0165298
904.910	0.0164153
904.988	0.0162394
905.067	0.0164289
905.145	0.0165043
905.223	0.0164317
905.301	0.0164677
905.379	0.0165185
905.457	0.0165003
905.535	0.0163964
905.613	0.0164484
905.692	0.0164886
905.770	0.0164410
905.848	0.0165525
905.926	0.0165390
906.004	0.0165205
906.082	0.0165639
906.160	0.0164754
906.238	0.0163772
906.317	0.0164176
906.395	0.0164762
906.473	0.0165810
906.551	0.0164356
906.629	0.0165760
906.707	0.0165038
906.785	0.0164732
906.863	0.0165921
906.942	0.0166046
907.020	0.0165742
907.098	0.0165991
907.176	0.0167888
907.254	0.0166817
907.332	0.0166965
907.410	0.0167615
907.488	0.0168685
907.567	0.0166959
907.645	0.0167932
907.723	0.0167575
907.801	0.0166779
907.879	0.0168073
907.957	0.0166521
908.035	0.0165721
908.113	0.0166348
908.192	0.0165704
908.270	0.0166866
908.348	0.0165518
908.426	0.0164922
908.504	0.0165163
908.582	0.0165040
908.660	0.0165305
908.738	0.0166523
908.817	0.0164434
908.895	0.0164914
908.973	0.0164909
909.051	0.0165196
909.129	0.0164777
909.207	0.0164352
909.285	0.0165049
909.363	0.0163673
909.442	0.0164760
909.520	0.0164130
909.598	0.0162690
909.676	0.0162638
909.754	0.0163770
909.832	0.0163329
909.910	0.0164496
909.988	0.0164238
910.067	0.0164520
910.145	0.0164320
910.223	0.0163786
910.301	0.0163873
910.379	0.0164768
910.457	0.0164297
910.535	0.0164236
910.613	0.0164713
910.692	0.0164857
910.770	0.0164096
910.848	0.0165079
910.926	0.0165347
911.004	0.0165457
911.082	0.0165058
911.160	0.0164719
911.238	0.0164134
911.317	0.0165523
911.395	0.0165321
911.473	0.0164639
911.551	0.0164840
911.629	0.0164558
911.707	0.0163869
911.785	0.0164122
911.863	0.0162866
911.942	0.0163993
912.020	0.0163760
912.098	0.0163129
912.176	0.0162820
912.254	0.0161810
912.332	0.0161285
912.410	0.0163027
912.488	0.0163689
912.567	0.0162891
912.645	0.0163733
912.723	0.0161036
912.801	0.0162135
912.879	0.0161831
912.957	0.0162807
913.035	0.0163749
913.113	0.0163204
913.192	0.0164082
913.270	0.0162466
913.348	0.0164158
913.426	0.0163129
913.504	0.0163813
913.582	0.0166227
913.660	0.0164533
913.738	0.0164217
913.817	0.0165676
913.895	0.0165619
913.973	0.0164877
914.051	0.0164408
914.129	0.0165408
914.207	0.0165656
914.285	0.0164781
914.363	0.0163879
914.442	0.0164583
914.520	0.0164534
914.598	0.0164481
914.676	0.0163642
914.754	0.0164600
914.832	0.0164962
914.910	0.0163342
914.988	0.0162587
915.067	0.0163500
915.145	0.0163149
915.223	0.0163594
915.301	0.0163036
915.379	0.0164909
915.457	0.0164681
915.535	0.0164181
915.613	0.0162431
915.692	0.0163628
915.770	0.0163747
915.848	0.0163921
915.926	0.0163971
916.004	0.0162894
916.082	0.0163953
916.160	0.0164548
916.238	0.0164027
916.317	0.0163622
916.395	0.0163698
916.473	0.0164190
916.551	0.0162392
916.629	0.0162675
916.707	0.0162419
916.785	0.0161330
916.863	0.0162000
916.942	0.0161607
917.020	0.0160713
917.098	0.0161273
917.176	0.0161232
917.254	0.0160516
917.332	0.0162403
917.410	0.0162610
917.488	0.0161715
917.567	0.0162392
917.645	0.0162740
917.723	0.0163174
917.801	0.0163760
917.879	0.0165028
917.957	0.0163824
918.035	0.0165417
918.113	0.0163962
918.192	0.0163127
918.270	0.0165001
918.348	0.0165715
918.426	0.0164114
918.504	0.0165217
918.582	0.0164669
918.660	0.0165487
918.738	0.0165423
918.817	0.0164780
918.895	0.0165331
918.973	0.0166875
919.051	0.0165438
919.129	0.0165893
919.207	0.0167596
919.285	0.0165603
919.363	0.0166411
919.442	0.0166084
919.520	0.0164723
919.598	0.0165395
919.676	0.0165297
919.754	0.0164622
919.832	0.0164309
919.910	0.0164787
