06/01/2022	22:01:33	Ver.	4.1	UNKNOWN
Optical Delay	599.988409	Delta X		0.078125	Sweeps	1	Scan Rate	0/0
Coordinates	Axis 1	NaN	Axis 2	NaN	Axis 3	NaN	Axis 4	NaN	Axis 5	NaN	Axis 6	0.000000
TX Power	0.000000	RX Power	0.000000

599.988	0.0165889
600.067	0.0164751
600.145	0.0164213
600.223	0.0164994
600.301	0.0165195
600.379	0.0165247
600.457	0.0165693
600.535	0.0166299
600.613	0.0165033
600.692	0.0166395
600.770	0.0166689
600.848	0.0166392
600.926	0.0165460
601.004	0.0165138
601.082	0.0165747
601.160	0.0166261
601.238	0.0164476
601.317	0.0165821
601.395	0.0166758
601.473	0.0165880
601.551	0.0166089
601.629	0.0165568
601.707	0.0165773
601.785	0.0165681
601.863	0.0165356
601.942	0.0166140
602.020	0.0167035
602.098	0.0166870
602.176	0.0165477
602.254	0.0167580
602.332	0.0166658
602.410	0.0166830
602.488	0.0168291
602.567	0.0167657
602.645	0.0168725
602.723	0.0167308
602.801	0.0169026
602.879	0.0167979
602.957	0.0168145
603.035	0.0166972
603.113	0.0167152
603.192	0.0167632
603.270	0.0167680
603.348	0.0166943
603.426	0.0169260
603.504	0.0166611
603.582	0.0166867
603.660	0.0168228
603.738	0.0168752
603.817	0.0167804
603.895	0.0168221
603.973	0.0167808
604.051	0.0167509
604.129	0.0167403
604.207	0.0167467
604.285	0.0169289
604.363	0.0167267
604.442	0.0166714
604.520	0.0167720
604.598	0.0167629
604.676	0.0167339
604.754	0.0167767
604.832	0.0167945
604.910	0.0168391
604.988	0.0167487
605.067	0.0167657
605.145	0.0167875
605.223	0.0167032
605.301	0.0166998
605.379	0.0168987
605.457	0.0168811
605.535	0.0167264
605.613	0.0167350
605.692	0.0168704
605.770	0.0167302
605.848	0.0167440
605.926	0.0167382
606.004	0.0165845
606.082	0.0166361
606.160	0.0167100
606.238	0.0167619
606.317	0.0166083
606.395	0.0167612
606.473	0.0168166
606.551	0.0166016
606.629	0.0165902
606.707	0.0167023
606.785	0.0167329
606.863	0.0167349
606.942	0.0166358
607.020	0.0167049
607.098	0.0167227
607.176	0.0167104
607.254	0.0166792
607.332	0.0167319
607.410	0.0167833
607.488	0.0165458
607.567	0.0167987
607.645	0.0166020
607.723	0.0167245
607.801	0.0168304
607.879	0.0166714
607.957	0.0167457
608.035	0.0167126
608.113	0.0167666
608.192	0.0167145
608.270	0.0164727
608.348	0.0165556
608.426	0.0167261
608.504	0.0166544
608.582	0.0166625
608.660	0.0166013
608.738	0.0166406
608.817	0.0167286
608.895	0.0166631
608.973	0.0166740
609.051	0.0166098
609.129	0.0165124
609.207	0.0166438
609.285	0.0166367
609.363	0.0165680
609.442	0.0165974
609.520	0.0165877
609.598	0.0166482
609.676	0.0165378
609.754	0.0164783
609.832	0.0164674
609.910	0.0166975
609.988	0.0165045
610.067	0.0165800
610.145	0.0165479
610.223	0.0165791
610.301	0.0165189
610.379	0.0164653
610.457	0.0164925
610.535	0.0164494
610.613	0.0166167
610.692	0.0165554
610.770	0.0165592
610.848	0.0165208
610.926	0.0164911
611.004	0.0165038
611.082	0.0165894
611.160	0.0165753
611.238	0.0165814
611.317	0.0165479
611.395	0.0166923
611.473	0.0166856
611.551	0.0165823
611.629	0.0165384
611.707	0.0166598
611.785	0.0166720
611.863	0.0167361
611.942	0.0166380
612.020	0.0166000
612.098	0.0166266
612.176	0.0167161
612.254	0.0166080
612.332	0.0166532
612.410	0.0166489
612.488	0.0165495
612.567	0.0166352
612.645	0.0166554
612.723	0.0165665
612.801	0.0166724
612.879	0.0167340
612.957	0.0166045
613.035	0.0166454
613.113	0.0166024
613.192	0.0166401
613.270	0.0167205
613.348	0.0164739
613.426	0.0165453
613.504	0.0167399
613.582	0.0166277
613.660	0.0166479
613.738	0.0166448
613.817	0.0165806
613.895	0.0166688
613.973	0.0166672
614.051	0.0167459
614.129	0.0166676
614.207	0.0165792
614.285	0.0165559
614.363	0.0164912
614.442	0.0166186
614.520	0.0164881
614.598	0.0164125
614.676	0.0165228
614.754	0.0165791
614.832	0.0164774
614.910	0.0164796
614.988	0.0165411
615.067	0.0166230
615.145	0.0165749
615.223	0.0165545
615.301	0.0165726
615.379	0.0164846
615.457	0.0166141
615.535	0.0164896
615.613	0.0165560
615.692	0.0165294
615.770	0.0165268
615.848	0.0166716
615.926	0.0166512
616.004	0.0166181
616.082	0.0166405
616.160	0.0165701
616.238	0.0165707
616.317	0.0164677
616.395	0.0166193
616.473	0.0164677
616.551	0.0165821
616.629	0.0167084
616.707	0.0166080
616.785	0.0165269
616.863	0.0165861
616.942	0.0166151
617.020	0.0164717
617.098	0.0165278
617.176	0.0165274
617.254	0.0165401
617.332	0.0164503
617.410	0.0164240
617.488	0.0164635
617.567	0.0165589
617.645	0.0164269
617.723	0.0166104
617.801	0.0166223
617.879	0.0165475
617.957	0.0166553
618.035	0.0166472
618.113	0.0165468
618.192	0.0165922
618.270	0.0166670
618.348	0.0166045
618.426	0.0165348
618.504	0.0166906
618.582	0.0165361
618.660	0.0166674
618.738	0.0166404
618.817	0.0165450
618.895	0.0166521
618.973	0.0164666
619.051	0.0165051
619.129	0.0165443
619.207	0.0165968
619.285	0.0165385
619.363	0.0166558
619.442	0.0166783
619.520	0.0166142
619.598	0.0165833
619.676	0.0166444
619.754	0.0167009
619.832	0.0165807
619.910	0.0168369
619.988	0.0167099
620.067	0.0166164
620.145	0.0167056
620.223	0.0166043
620.301	0.0166080
620.379	0.0166817
620.457	0.0166754
620.535	0.0167345
620.613	0.0165043
620.692	0.0165797
620.770	0.0167025
620.848	0.0166516
620.926	0.0167550
621.004	0.0167310
621.082	0.0166545
621.160	0.0167706
621.238	0.0166275
621.317	0.0167002
621.395	0.0167349
621.473	0.0167335
621.551	0.0166666
621.629	0.0166174
621.707	0.0167370
621.785	0.0167501
621.863	0.0167044
621.942	0.0166243
622.020	0.0167915
622.098	0.0167590
622.176	0.0166656
622.254	0.0167027
622.332	0.0166467
622.410	0.0166998
622.488	0.0166978
622.567	0.0167170
622.645	0.0165981
622.723	0.0167469
622.801	0.0167484
622.879	0.0166547
622.957	0.0166650
623.035	0.0166866
623.113	0.0166548
623.192	0.0167133
623.270	0.0166920
623.348	0.0166422
623.426	0.0168587
623.504	0.0168259
623.582	0.0167687
623.660	0.0167724
623.738	0.0168217
623.817	0.0167210
623.895	0.0167060
623.973	0.0168098
624.051	0.0167711
624.129	0.0166138
624.207	0.0166180
624.285	0.0167480
624.363	0.0167123
624.442	0.0165789
624.520	0.0167155
624.598	0.0167344
624.676	0.0166808
624.754	0.0168156
624.832	0.0168407
624.910	0.0167455
624.988	0.0166764
625.067	0.0166768
625.145	0.0167303
625.223	0.0167369
625.301	0.0167617
625.379	0.0167714
625.457	0.0167751
625.535	0.0169061
625.613	0.0166454
625.692	0.0167386
625.770	0.0167479
625.848	0.0167435
625.926	0.0168044
626.004	0.0167435
626.082	0.0167077
626.160	0.0166402
626.238	0.0166752
626.317	0.0166982
626.395	0.0166310
626.473	0.0166890
626.551	0.0166032
626.629	0.0166556
626.707	0.0166096
626.785	0.0167517
626.863	0.0166965
626.942	0.0166811
627.020	0.0166763
627.098	0.0167548
627.176	0.0167953
627.254	0.0167306
627.332	0.0167168
627.410	0.0167972
627.488	0.0166862
627.567	0.0167225
627.645	0.0167127
627.723	0.0167487
627.801	0.0168285
627.879	0.0167724
627.957	0.0167172
628.035	0.0165399
628.113	0.0165511
628.192	0.0167193
628.270	0.0166676
628.348	0.0165747
628.426	0.0166751
628.504	0.0165827
628.582	0.0166715
628.660	0.0167169
628.738	0.0167126
628.817	0.0165697
628.895	0.0165599
628.973	0.0165637
629.051	0.0165261
629.129	0.0165682
629.207	0.0166418
629.285	0.0166802
629.363	0.0167490
629.442	0.0167129
629.520	0.0165655
629.598	0.0165737
629.676	0.0167329
629.754	0.0167905
629.832	0.0165915
629.910	0.0166679
629.988	0.0166396
630.067	0.0165646
630.145	0.0167645
630.223	0.0166862
630.301	0.0165746
630.379	0.0165879
630.457	0.0167518
630.535	0.0167062
630.613	0.0166606
630.692	0.0166807
630.770	0.0165063
630.848	0.0165739
630.926	0.0166415
631.004	0.0165688
631.082	0.0166541
631.160	0.0167760
631.238	0.0164792
631.317	0.0164304
631.395	0.0165930
631.473	0.0165072
631.551	0.0165714
631.629	0.0166086
631.707	0.0165726
631.785	0.0164349
631.863	0.0166117
631.942	0.0166694
632.020	0.0165302
632.098	0.0165049
632.176	0.0166457
632.254	0.0166269
632.332	0.0166652
632.410	0.0165566
632.488	0.0167136
632.567	0.0166730
632.645	0.0166754
632.723	0.0165572
632.801	0.0165499
632.879	0.0165677
632.957	0.0165282
633.035	0.0165198
633.113	0.0166601
633.192	0.0164931
633.270	0.0164774
633.348	0.0165852
633.426	0.0163559
633.504	0.0163932
633.582	0.0163952
633.660	0.0163440
633.738	0.0164702
633.817	0.0164464
633.895	0.0165135
633.973	0.0165379
634.051	0.0163306
634.129	0.0165237
634.207	0.0165508
634.285	0.0165001
634.363	0.0164765
634.442	0.0164678
634.520	0.0164491
634.598	0.0164812
634.676	0.0166069
634.754	0.0166937
634.832	0.0167038
634.910	0.0165943
634.988	0.0166814
635.067	0.0165679
635.145	0.0165878
635.223	0.0166182
635.301	0.0165463
635.379	0.0165136
635.457	0.0164523
635.535	0.0164479
635.613	0.0165047
635.692	0.0165698
635.770	0.0164817
635.848	0.0164426
635.926	0.0165577
636.004	0.0163674
636.082	0.0163921
636.160	0.0163082
636.238	0.0166074
636.317	0.0165179
636.395	0.0165106
636.473	0.0165866
636.551	0.0166233
636.629	0.0165028
636.707	0.0163929
636.785	0.0166394
636.863	0.0166281
636.942	0.0166263
637.020	0.0165487
637.098	0.0165981
637.176	0.0165337
637.254	0.0166712
637.332	0.0164212
637.410	0.0167034
637.488	0.0166814
637.567	0.0163701
637.645	0.0163670
637.723	0.0164559
637.801	0.0163700
637.879	0.0164179
637.957	0.0163649
638.035	0.0164589
638.113	0.0163737
638.192	0.0163178
638.270	0.0165409
638.348	0.0165424
638.426	0.0165043
638.504	0.0163997
638.582	0.0163571
638.660	0.0164767
638.738	0.0164378
638.817	0.0163650
638.895	0.0165894
638.973	0.0165243
639.051	0.0165093
639.129	0.0164793
639.207	0.0163928
639.285	0.0165903
639.363	0.0164737
639.442	0.0165312
639.520	0.0166100
639.598	0.0165362
639.676	0.0163624
639.754	0.0164194
639.832	0.0165796
639.910	0.0166168
639.988	0.0164851
640.067	0.0165575
640.145	0.0165610
640.223	0.0165580
640.301	0.0165479
640.379	0.0164371
640.457	0.0164503
640.535	0.0164536
640.613	0.0164742
640.692	0.0164135
640.770	0.0164596
640.848	0.0165353
640.926	0.0166768
641.004	0.0165543
641.082	0.0165671
641.160	0.0165942
641.238	0.0165455
641.317	0.0165934
641.395	0.0165664
641.473	0.0167392
641.551	0.0165061
641.629	0.0164099
641.707	0.0165417
641.785	0.0165068
641.863	0.0165831
641.942	0.0165086
642.020	0.0164320
642.098	0.0165739
642.176	0.0165326
642.254	0.0165849
642.332	0.0165862
642.410	0.0165784
642.488	0.0165614
642.567	0.0166762
642.645	0.0166843
642.723	0.0166623
642.801	0.0165077
642.879	0.0164974
642.957	0.0166866
643.035	0.0165150
643.113	0.0166818
643.192	0.0167005
643.270	0.0167364
643.348	0.0165399
643.426	0.0167188
643.504	0.0167088
643.582	0.0167022
643.660	0.0166322
643.738	0.0166375
643.817	0.0166100
643.895	0.0167184
643.973	0.0166673
644.051	0.0167534
644.129	0.0167250
644.207	0.0167130
644.285	0.0165902
644.363	0.0167427
644.442	0.0167160
644.520	0.0166203
644.598	0.0167250
644.676	0.0166817
644.754	0.0166400
644.832	0.0166602
644.910	0.0167808
644.988	0.0167414
645.067	0.0168052
645.145	0.0165870
645.223	0.0166461
645.301	0.0167203
645.379	0.0166512
645.457	0.0166222
645.535	0.0166240
645.613	0.0165649
645.692	0.0165340
645.770	0.0167028
645.848	0.0166762
645.926	0.0166415
646.004	0.0166264
646.082	0.0165612
646.160	0.0168073
646.238	0.0168147
646.317	0.0168044
646.395	0.0168058
646.473	0.0167511
646.551	0.0167027
646.629	0.0167752
646.707	0.0167072
646.785	0.0167628
646.863	0.0167311
646.942	0.0168674
647.020	0.0167950
647.098	0.0167289
647.176	0.0168481
647.254	0.0169125
647.332	0.0166941
647.410	0.0168742
647.488	0.0166837
647.567	0.0167007
647.645	0.0167249
647.723	0.0167693
647.801	0.0167484
647.879	0.0165416
647.957	0.0168868
648.035	0.0168163
648.113	0.0165823
648.192	0.0167294
648.270	0.0166311
648.348	0.0167198
648.426	0.0168003
648.504	0.0166161
648.582	0.0165872
648.660	0.0167530
648.738	0.0166570
648.817	0.0167004
648.895	0.0167493
648.973	0.0166764
649.051	0.0168317
649.129	0.0167255
649.207	0.0166677
649.285	0.0166928
649.363	0.0167538
649.442	0.0167176
649.520	0.0167853
649.598	0.0167373
649.676	0.0167285
649.754	0.0168089
649.832	0.0166845
649.910	0.0166905
649.988	0.0168092
650.067	0.0167940
650.145	0.0165902
650.223	0.0166875
650.301	0.0169180
650.379	0.0166930
650.457	0.0168106
650.535	0.0167187
650.613	0.0168550
650.692	0.0168298
650.770	0.0167641
650.848	0.0166911
650.926	0.0166671
651.004	0.0166584
651.082	0.0167732
651.160	0.0167036
651.238	0.0165579
651.317	0.0168066
651.395	0.0167512
651.473	0.0167112
651.551	0.0165394
651.629	0.0166295
651.707	0.0165038
651.785	0.0166255
651.863	0.0166187
651.942	0.0165269
652.020	0.0164651
652.098	0.0164371
652.176	0.0164500
652.254	0.0165499
652.332	0.0165112
652.410	0.0166065
652.488	0.0164807
652.567	0.0164221
652.645	0.0165964
652.723	0.0166537
652.801	0.0167427
652.879	0.0164925
652.957	0.0165830
653.035	0.0166807
653.113	0.0166547
653.192	0.0166820
653.270	0.0168195
653.348	0.0167490
653.426	0.0167041
653.504	0.0166580
653.582	0.0166952
653.660	0.0167254
653.738	0.0168314
653.817	0.0168161
653.895	0.0167908
653.973	0.0166177
654.051	0.0165329
654.129	0.0166473
654.207	0.0167088
654.285	0.0167575
654.363	0.0168136
654.442	0.0167144
654.520	0.0166328
654.598	0.0166390
654.676	0.0166415
654.754	0.0165699
654.832	0.0166562
654.910	0.0165924
654.988	0.0166021
655.067	0.0166715
655.145	0.0165266
655.223	0.0165829
655.301	0.0165871
655.379	0.0165719
655.457	0.0166115
655.535	0.0166424
655.613	0.0164353
655.692	0.0163769
655.770	0.0165424
655.848	0.0165002
655.926	0.0164906
656.004	0.0164238
656.082	0.0162386
656.160	0.0164043
656.238	0.0163950
656.317	0.0163271
656.395	0.0164300
656.473	0.0164672
656.551	0.0165157
656.629	0.0165400
656.707	0.0164206
656.785	0.0164588
656.863	0.0164300
656.942	0.0165543
657.020	0.0164065
657.098	0.0164284
657.176	0.0164259
657.254	0.0162941
657.332	0.0164078
657.410	0.0165015
657.488	0.0164818
657.567	0.0163905
657.645	0.0165189
657.723	0.0165104
657.801	0.0162241
657.879	0.0164898
657.957	0.0164638
658.035	0.0164455
658.113	0.0164014
658.192	0.0163168
658.270	0.0164799
658.348	0.0165110
658.426	0.0165538
658.504	0.0164383
658.582	0.0163372
658.660	0.0164187
658.738	0.0165348
658.817	0.0163890
658.895	0.0163433
658.973	0.0164815
659.051	0.0165556
659.129	0.0165150
659.207	0.0163391
659.285	0.0163599
659.363	0.0164728
659.442	0.0164510
659.520	0.0163767
659.598	0.0163886
659.676	0.0163850
659.754	0.0162939
659.832	0.0162981
659.910	0.0163591
659.988	0.0162907
660.067	0.0161965
660.145	0.0163273
660.223	0.0164478
660.301	0.0162482
660.379	0.0164452
660.457	0.0163376
660.535	0.0164156
660.613	0.0164291
660.692	0.0164427
660.770	0.0164314
660.848	0.0163531
660.926	0.0165562
661.004	0.0165408
661.082	0.0163432
661.160	0.0164100
661.238	0.0166083
661.317	0.0164691
661.395	0.0166261
661.473	0.0165411
661.551	0.0166088
661.629	0.0166373
661.707	0.0164835
661.785	0.0167139
661.863	0.0165696
661.942	0.0165766
662.020	0.0166118
662.098	0.0166271
662.176	0.0165321
662.254	0.0166465
662.332	0.0166026
662.410	0.0165180
662.488	0.0165623
662.567	0.0165991
662.645	0.0166211
662.723	0.0165153
662.801	0.0165737
662.879	0.0165885
662.957	0.0165511
663.035	0.0166280
663.113	0.0165752
663.192	0.0166592
663.270	0.0166067
663.348	0.0166357
663.426	0.0165925
663.504	0.0165060
663.582	0.0165440
663.660	0.0165639
663.738	0.0165323
663.817	0.0164993
663.895	0.0164462
663.973	0.0164351
664.051	0.0165386
664.129	0.0164024
664.207	0.0164991
664.285	0.0163943
664.363	0.0162421
664.442	0.0164014
664.520	0.0164768
664.598	0.0163958
664.676	0.0163338
664.754	0.0163042
664.832	0.0163879
664.910	0.0164966
664.988	0.0165701
665.067	0.0164244
665.145	0.0164893
665.223	0.0164788
665.301	0.0166148
665.379	0.0164268
665.457	0.0165910
665.535	0.0165432
665.613	0.0165465
665.692	0.0165041
665.770	0.0164341
665.848	0.0166173
665.926	0.0165197
666.004	0.0164594
666.082	0.0163838
666.160	0.0164983
666.238	0.0165999
666.317	0.0165990
666.395	0.0165118
666.473	0.0165405
666.551	0.0165617
666.629	0.0165314
666.707	0.0164551
666.785	0.0166360
666.863	0.0165614
666.942	0.0164793
667.020	0.0164930
667.098	0.0166165
667.176	0.0164872
667.254	0.0164563
667.332	0.0167471
667.410	0.0166669
667.488	0.0165759
667.567	0.0165208
667.645	0.0166776
667.723	0.0166494
667.801	0.0167027
667.879	0.0166814
667.957	0.0166470
668.035	0.0165602
668.113	0.0165835
668.192	0.0166378
668.270	0.0167865
668.348	0.0166081
668.426	0.0167336
668.504	0.0167948
668.582	0.0167935
668.660	0.0167411
668.738	0.0166766
668.817	0.0167979
668.895	0.0168304
668.973	0.0168347
669.051	0.0167858
669.129	0.0168498
669.207	0.0167556
669.285	0.0168029
669.363	0.0169122
669.442	0.0168584
669.520	0.0167779
669.598	0.0166846
669.676	0.0167895
669.754	0.0168270
669.832	0.0167090
669.910	0.0168514
669.988	0.0168518
670.067	0.0168068
670.145	0.0168549
670.223	0.0168571
670.301	0.0167850
670.379	0.0169381
670.457	0.0168513
670.535	0.0167902
670.613	0.0166529
670.692	0.0165817
670.770	0.0166956
670.848	0.0167178
670.926	0.0166917
671.004	0.0167673
671.082	0.0167944
671.160	0.0167091
671.238	0.0166528
671.317	0.0166677
671.395	0.0167248
671.473	0.0165800
671.551	0.0165279
671.629	0.0167686
671.707	0.0165894
671.785	0.0165679
671.863	0.0166084
671.942	0.0165563
672.020	0.0165478
672.098	0.0164144
672.176	0.0165041
672.254	0.0166251
672.332	0.0165732
672.410	0.0166338
672.488	0.0167290
672.567	0.0165832
672.645	0.0167304
672.723	0.0166766
672.801	0.0167866
672.879	0.0167054
672.957	0.0168685
673.035	0.0168398
673.113	0.0168417
673.192	0.0168748
673.270	0.0167848
673.348	0.0168465
673.426	0.0166568
673.504	0.0167622
673.582	0.0166998
673.660	0.0167238
673.738	0.0166449
673.817	0.0168362
673.895	0.0166866
673.973	0.0167188
674.051	0.0169215
674.129	0.0168484
674.207	0.0169118
674.285	0.0167426
674.363	0.0169630
674.442	0.0170438
674.520	0.0169419
674.598	0.0170153
674.676	0.0170692
674.754	0.0168606
674.832	0.0168125
674.910	0.0167438
674.988	0.0167966
675.067	0.0166575
675.145	0.0166772
675.223	0.0166055
675.301	0.0165588
675.379	0.0164541
675.457	0.0164500
675.535	0.0163474
675.613	0.0164828
675.692	0.0163328
675.770	0.0162854
675.848	0.0162917
675.926	0.0163973
676.004	0.0163316
676.082	0.0163376
676.160	0.0163015
676.238	0.0166191
676.317	0.0164677
676.395	0.0165062
676.473	0.0165266
676.551	0.0166508
676.629	0.0166731
676.707	0.0165961
676.785	0.0167030
676.863	0.0168698
676.942	0.0169367
677.020	0.0169971
677.098	0.0169513
677.176	0.0169724
677.254	0.0170603
677.332	0.0170694
677.410	0.0171115
677.488	0.0169690
677.567	0.0169218
677.645	0.0168432
677.723	0.0166901
677.801	0.0165833
677.879	0.0166405
677.957	0.0164854
678.035	0.0164444
678.113	0.0163443
678.192	0.0162827
678.270	0.0161969
678.348	0.0161027
678.426	0.0161613
678.504	0.0162183
678.582	0.0163132
678.660	0.0164034
678.738	0.0162823
678.817	0.0164111
678.895	0.0165134
678.973	0.0166845
679.051	0.0168532
679.129	0.0168548
679.207	0.0168227
679.285	0.0170364
679.363	0.0168008
679.442	0.0170138
679.520	0.0170124
679.598	0.0170016
679.676	0.0169051
679.754	0.0169587
679.832	0.0169284
679.910	0.0168530
679.988	0.0167098
680.067	0.0165599
680.145	0.0164366
680.223	0.0164253
680.301	0.0162700
680.379	0.0162637
680.457	0.0164041
680.535	0.0160697
680.613	0.0160824
680.692	0.0160228
680.770	0.0159940
680.848	0.0161187
680.926	0.0160075
681.004	0.0160281
681.082	0.0161459
681.160	0.0162904
681.238	0.0163722
681.317	0.0165264
681.395	0.0165623
681.473	0.0166079
681.551	0.0168260
681.629	0.0168232
681.707	0.0170744
681.785	0.0171500
681.863	0.0171703
681.942	0.0172039
682.020	0.0172462
682.098	0.0173581
682.176	0.0173389
682.254	0.0173553
682.332	0.0174911
682.410	0.0173675
682.488	0.0173575
682.567	0.0172224
682.645	0.0171767
682.723	0.0171512
682.801	0.0171184
682.879	0.0169976
682.957	0.0170253
683.035	0.0167583
683.113	0.0165895
683.192	0.0163944
683.270	0.0162203
683.348	0.0162057
683.426	0.0160308
683.504	0.0158240
683.582	0.0157975
683.660	0.0157158
683.738	0.0154889
683.817	0.0154383
683.895	0.0153686
683.973	0.0153928
684.051	0.0154152
684.129	0.0153976
684.207	0.0154414
684.285	0.0154407
684.363	0.0155029
684.442	0.0157018
684.520	0.0157571
684.598	0.0158232
684.676	0.0159084
684.754	0.0163293
684.832	0.0162914
684.910	0.0165095
684.988	0.0167459
685.067	0.0169747
685.145	0.0170786
685.223	0.0173842
685.301	0.0175976
685.379	0.0177008
685.457	0.0178453
685.535	0.0178946
685.613	0.0179404
685.692	0.0180787
685.770	0.0181022
685.848	0.0179678
685.926	0.0179985
686.004	0.0180605
686.082	0.0180038
686.160	0.0177682
686.238	0.0177914
686.317	0.0176565
686.395	0.0176418
686.473	0.0174025
686.551	0.0172657
686.629	0.0170827
686.707	0.0168929
686.785	0.0168402
686.863	0.0164061
686.942	0.0161833
687.020	0.0161794
687.098	0.0158744
687.176	0.0156154
687.254	0.0154885
687.332	0.0153606
687.410	0.0152620
687.488	0.0151380
687.567	0.0150824
687.645	0.0152419
687.723	0.0152081
687.801	0.0150037
687.879	0.0150600
687.957	0.0151078
688.035	0.0152258
688.113	0.0153099
688.192	0.0155387
688.270	0.0155485
688.348	0.0156190
688.426	0.0158647
688.504	0.0160704
688.582	0.0161810
688.660	0.0162079
688.738	0.0164192
688.817	0.0164954
688.895	0.0165919
688.973	0.0168405
689.051	0.0168362
689.129	0.0168719
689.207	0.0169147
689.285	0.0171232
689.363	0.0172701
689.442	0.0173911
689.520	0.0174527
689.598	0.0174616
689.676	0.0176291
689.754	0.0176186
689.832	0.0176302
689.910	0.0177998
689.988	0.0177830
690.067	0.0178344
690.145	0.0177644
690.223	0.0177440
690.301	0.0177290
690.379	0.0177736
690.457	0.0179227
690.535	0.0178169
690.613	0.0177269
690.692	0.0176725
690.770	0.0175275
690.848	0.0174916
690.926	0.0175244
691.004	0.0173203
691.082	0.0171215
691.160	0.0170251
691.238	0.0168557
691.317	0.0166690
691.395	0.0164144
691.473	0.0160484
691.551	0.0160886
691.629	0.0156834
691.707	0.0155730
691.785	0.0154951
691.863	0.0153307
691.942	0.0152630
692.020	0.0151042
692.098	0.0150871
692.176	0.0151900
692.254	0.0151293
692.332	0.0150591
692.410	0.0151099
692.488	0.0152004
692.567	0.0153696
692.645	0.0153135
692.723	0.0155716
692.801	0.0154815
692.879	0.0156435
692.957	0.0156661
693.035	0.0157770
693.113	0.0158463
693.192	0.0159602
693.270	0.0159850
693.348	0.0159795
693.426	0.0160838
693.504	0.0162719
693.582	0.0165227
693.660	0.0166853
693.738	0.0168733
693.817	0.0170210
693.895	0.0171084
693.973	0.0173263
694.051	0.0175082
694.129	0.0177255
694.207	0.0180000
694.285	0.0181029
694.363	0.0182105
694.442	0.0183099
694.520	0.0183807
694.598	0.0185236
694.676	0.0187234
694.754	0.0186481
694.832	0.0186034
694.910	0.0185588
694.988	0.0185724
695.067	0.0184914
695.145	0.0183815
695.223	0.0183044
695.301	0.0180733
695.379	0.0178897
695.457	0.0178781
695.535	0.0175956
695.613	0.0174616
695.692	0.0171954
695.770	0.0171371
695.848	0.0168302
695.926	0.0166628
696.004	0.0163857
696.082	0.0162592
696.160	0.0161105
696.238	0.0157860
696.317	0.0156376
696.395	0.0152804
696.473	0.0152522
696.551	0.0149549
696.629	0.0146987
696.707	0.0147250
696.785	0.0145019
696.863	0.0145043
696.942	0.0144317
697.020	0.0143288
697.098	0.0145183
697.176	0.0142934
697.254	0.0145003
697.332	0.0146597
697.410	0.0147488
697.488	0.0149094
697.567	0.0152092
697.645	0.0154332
697.723	0.0157910
697.801	0.0161665
697.879	0.0163228
697.957	0.0165608
698.035	0.0169734
698.113	0.0173637
698.192	0.0176291
698.270	0.0178192
698.348	0.0181698
698.426	0.0184683
698.504	0.0186731
698.582	0.0188942
698.660	0.0190160
698.738	0.0191306
698.817	0.0192106
698.895	0.0192009
698.973	0.0191441
699.051	0.0193436
699.129	0.0192197
699.207	0.0189825
699.285	0.0188438
699.363	0.0185059
699.442	0.0183458
699.520	0.0183113
699.598	0.0179911
699.676	0.0176632
699.754	0.0175613
699.832	0.0173478
699.910	0.0170222
699.988	0.0168910
700.067	0.0166453
700.145	0.0163869
700.223	0.0162686
700.301	0.0162273
700.379	0.0161279
700.457	0.0158930
700.535	0.0159789
700.613	0.0159908
700.692	0.0160431
700.770	0.0159779
700.848	0.0157285
700.926	0.0157526
701.004	0.0158214
701.082	0.0157218
701.160	0.0157114
701.238	0.0155843
701.317	0.0155000
701.395	0.0156716
701.473	0.0153670
701.551	0.0154293
701.629	0.0153401
701.707	0.0152134
701.785	0.0152905
701.863	0.0151884
701.942	0.0151589
702.020	0.0150298
702.098	0.0150783
702.176	0.0149915
702.254	0.0150469
702.332	0.0150990
702.410	0.0151894
702.488	0.0154035
702.567	0.0153271
702.645	0.0156129
702.723	0.0160056
702.801	0.0160527
702.879	0.0163313
702.957	0.0165060
703.035	0.0168267
703.113	0.0172018
703.192	0.0174923
703.270	0.0176395
703.348	0.0179916
703.426	0.0182716
703.504	0.0184268
703.582	0.0186594
703.660	0.0187270
703.738	0.0188359
703.817	0.0189137
703.895	0.0188204
703.973	0.0187542
704.051	0.0188339
704.129	0.0187311
704.207	0.0186709
704.285	0.0185442
704.363	0.0184135
704.442	0.0180967
704.520	0.0180148
704.598	0.0177563
704.676	0.0176084
704.754	0.0172668
704.832	0.0171162
704.910	0.0169120
704.988	0.0165388
705.067	0.0164507
705.145	0.0162077
705.223	0.0159900
705.301	0.0156255
705.379	0.0154687
705.457	0.0153271
705.535	0.0149106
705.613	0.0147655
705.692	0.0146016
705.770	0.0143965
705.848	0.0144701
705.926	0.0144476
706.004	0.0145615
706.082	0.0145666
706.160	0.0148084
706.238	0.0149094
706.317	0.0150719
706.395	0.0153827
706.473	0.0155803
706.551	0.0158137
706.629	0.0160195
706.707	0.0163732
706.785	0.0165710
706.863	0.0167239
706.942	0.0169852
707.020	0.0170486
707.098	0.0172993
707.176	0.0171983
707.254	0.0172623
707.332	0.0173135
707.410	0.0174606
707.488	0.0173273
707.567	0.0172709
707.645	0.0172883
707.723	0.0172724
707.801	0.0170784
707.879	0.0172004
707.957	0.0171713
708.035	0.0169999
708.113	0.0169446
708.192	0.0167814
708.270	0.0167216
708.348	0.0166206
708.426	0.0166676
708.504	0.0164586
708.582	0.0165001
708.660	0.0163982
708.738	0.0164598
708.817	0.0162794
708.895	0.0162620
708.973	0.0162819
709.051	0.0160670
709.129	0.0162443
709.207	0.0160767
709.285	0.0161521
709.363	0.0162160
709.442	0.0161948
709.520	0.0162121
709.598	0.0163429
709.676	0.0166978
709.754	0.0165796
709.832	0.0166669
709.910	0.0168069
709.988	0.0169507
710.067	0.0170210
710.145	0.0171596
710.223	0.0172227
710.301	0.0174095
710.379	0.0174286
710.457	0.0174348
710.535	0.0173370
710.613	0.0172792
710.692	0.0173215
710.770	0.0172013
710.848	0.0171376
710.926	0.0171609
711.004	0.0169151
711.082	0.0167064
711.160	0.0166644
711.238	0.0165182
711.317	0.0164780
711.395	0.0163618
711.473	0.0164169
711.551	0.0163168
711.629	0.0160619
711.707	0.0162123
711.785	0.0162606
711.863	0.0161681
711.942	0.0162530
712.020	0.0164159
712.098	0.0163458
712.176	0.0164494
712.254	0.0164719
712.332	0.0163715
712.410	0.0165105
712.488	0.0164288
712.567	0.0164152
712.645	0.0163557
712.723	0.0162737
712.801	0.0161411
712.879	0.0161725
712.957	0.0161291
713.035	0.0159811
713.113	0.0160074
713.192	0.0159092
713.270	0.0158130
713.348	0.0158430
713.426	0.0158291
713.504	0.0159476
713.582	0.0159416
713.660	0.0160400
713.738	0.0160408
713.817	0.0162048
713.895	0.0164039
713.973	0.0163426
714.051	0.0165173
714.129	0.0164235
714.207	0.0167276
714.285	0.0167334
714.363	0.0168671
714.442	0.0169678
714.520	0.0171752
714.598	0.0170608
714.676	0.0170884
714.754	0.0170923
714.832	0.0172326
714.910	0.0173363
714.988	0.0172936
715.067	0.0173170
715.145	0.0173071
715.223	0.0173829
715.301	0.0175503
715.379	0.0175092
715.457	0.0177254
715.535	0.0177145
715.613	0.0177719
715.692	0.0178217
715.770	0.0177745
715.848	0.0178735
715.926	0.0179128
716.004	0.0177592
716.082	0.0176601
716.160	0.0176065
716.238	0.0175583
716.317	0.0174104
716.395	0.0171714
716.473	0.0170753
716.551	0.0168502
716.629	0.0168226
716.707	0.0164932
716.785	0.0164716
716.863	0.0162819
716.942	0.0160606
717.020	0.0158944
717.098	0.0158751
717.176	0.0156202
717.254	0.0155912
717.332	0.0156216
717.410	0.0155933
717.488	0.0155016
717.567	0.0156259
717.645	0.0154942
717.723	0.0157092
717.801	0.0157276
717.879	0.0157792
717.957	0.0159748
718.035	0.0159141
718.113	0.0160560
718.192	0.0160350
718.270	0.0162093
718.348	0.0161711
718.426	0.0162951
718.504	0.0162698
718.582	0.0162975
718.660	0.0163500
718.738	0.0163777
718.817	0.0165174
718.895	0.0166888
718.973	0.0166071
719.051	0.0166954
719.129	0.0167091
719.207	0.0167290
719.285	0.0167104
719.363	0.0167709
719.442	0.0167974
719.520	0.0167642
719.598	0.0167226
719.676	0.0167680
719.754	0.0168588
719.832	0.0167308
719.910	0.0167269
719.988	0.0167652
720.067	0.0166111
720.145	0.0168265
720.223	0.0168390
720.301	0.0168923
720.379	0.0169923
720.457	0.0170123
720.535	0.0169209
720.613	0.0169830
720.692	0.0169522
720.770	0.0169928
720.848	0.0171903
720.926	0.0171996
721.004	0.0172006
721.082	0.0171353
721.160	0.0172408
721.238	0.0173895
721.317	0.0173528
721.395	0.0174955
721.473	0.0175547
721.551	0.0176422
721.629	0.0176110
721.707	0.0175652
721.785	0.0176527
721.863	0.0178039
721.942	0.0176949
722.020	0.0176653
722.098	0.0177564
722.176	0.0179119
722.254	0.0177673
722.332	0.0175838
722.410	0.0175244
722.488	0.0174532
722.567	0.0170864
722.645	0.0170639
722.723	0.0171300
722.801	0.0169193
722.879	0.0167542
722.957	0.0164951
723.035	0.0162972
723.113	0.0161899
723.192	0.0160960
723.270	0.0160354
723.348	0.0157608
723.426	0.0157342
723.504	0.0157313
723.582	0.0158161
723.660	0.0156094
723.738	0.0155972
723.817	0.0154916
723.895	0.0155630
723.973	0.0155835
724.051	0.0155801
724.129	0.0156802
724.207	0.0157433
724.285	0.0157121
724.363	0.0157188
724.442	0.0159644
724.520	0.0160175
724.598	0.0162121
724.676	0.0161763
724.754	0.0163318
724.832	0.0164748
724.910	0.0163889
724.988	0.0164348
725.067	0.0164449
725.145	0.0165173
725.223	0.0165443
725.301	0.0166025
725.379	0.0164255
725.457	0.0164732
725.535	0.0165466
725.613	0.0165333
725.692	0.0164606
725.770	0.0164568
725.848	0.0165322
725.926	0.0164771
726.004	0.0165220
726.082	0.0165559
726.160	0.0165086
726.238	0.0165438
726.317	0.0166311
726.395	0.0167979
726.473	0.0167831
726.551	0.0169095
726.629	0.0168996
726.707	0.0169014
726.785	0.0170708
726.863	0.0169482
726.942	0.0170491
727.020	0.0171220
727.098	0.0172448
727.176	0.0170864
727.254	0.0172271
727.332	0.0173494
727.410	0.0172586
727.488	0.0171378
727.567	0.0173306
727.645	0.0171600
727.723	0.0171025
727.801	0.0172823
727.879	0.0170597
727.957	0.0170920
728.035	0.0169645
728.113	0.0169906
728.192	0.0168068
728.270	0.0166376
728.348	0.0166679
728.426	0.0165049
728.504	0.0164035
728.582	0.0163510
728.660	0.0162150
728.738	0.0161348
728.817	0.0160430
728.895	0.0160564
728.973	0.0161659
729.051	0.0161511
729.129	0.0161050
729.207	0.0161050
729.285	0.0162423
729.363	0.0162331
729.442	0.0161165
729.520	0.0161692
729.598	0.0160686
729.676	0.0162132
729.754	0.0161774
729.832	0.0161436
729.910	0.0160698
729.988	0.0160480
730.067	0.0159067
730.145	0.0160960
730.223	0.0159289
730.301	0.0159574
730.379	0.0160816
730.457	0.0159373
730.535	0.0158171
730.613	0.0158639
730.692	0.0158928
730.770	0.0159815
730.848	0.0160035
730.926	0.0159039
731.004	0.0160684
731.082	0.0159833
731.160	0.0161587
731.238	0.0162506
731.317	0.0161291
731.395	0.0162874
731.473	0.0164210
731.551	0.0164466
731.629	0.0166093
731.707	0.0166743
731.785	0.0166994
731.863	0.0167754
731.942	0.0168506
732.020	0.0167738
732.098	0.0169538
732.176	0.0170594
732.254	0.0170094
732.332	0.0170634
732.410	0.0170911
732.488	0.0171520
732.567	0.0170430
732.645	0.0170363
732.723	0.0170235
732.801	0.0170812
732.879	0.0170551
732.957	0.0171240
733.035	0.0170893
733.113	0.0170289
733.192	0.0169453
733.270	0.0169166
733.348	0.0169264
733.426	0.0170770
733.504	0.0168812
733.582	0.0169286
733.660	0.0171255
733.738	0.0170729
733.817	0.0171921
733.895	0.0172437
733.973	0.0171957
734.051	0.0172122
734.129	0.0171722
734.207	0.0174927
734.285	0.0174805
734.363	0.0173302
734.442	0.0172749
734.520	0.0172021
734.598	0.0172238
734.676	0.0173748
734.754	0.0171074
734.832	0.0169670
734.910	0.0169344
734.988	0.0168078
735.067	0.0166556
735.145	0.0165975
735.223	0.0165092
735.301	0.0163989
735.379	0.0163247
735.457	0.0162990
735.535	0.0160889
735.613	0.0162392
735.692	0.0160183
735.770	0.0159515
735.848	0.0159477
735.926	0.0159908
736.004	0.0160957
736.082	0.0159621
736.160	0.0159978
736.238	0.0162843
736.317	0.0161459
736.395	0.0162221
736.473	0.0161885
736.551	0.0162171
736.629	0.0161813
736.707	0.0161127
736.785	0.0161737
736.863	0.0160072
736.942	0.0159432
737.020	0.0160220
737.098	0.0160452
737.176	0.0159654
737.254	0.0159921
737.332	0.0159154
737.410	0.0159951
737.488	0.0160507
737.567	0.0160353
737.645	0.0162004
737.723	0.0162936
737.801	0.0164134
737.879	0.0163071
737.957	0.0165916
738.035	0.0166679
738.113	0.0167233
738.192	0.0168238
738.270	0.0167295
738.348	0.0167924
738.426	0.0168559
738.504	0.0169479
738.582	0.0169743
738.660	0.0170326
738.738	0.0170408
738.817	0.0170150
738.895	0.0169940
738.973	0.0171018
739.051	0.0171581
739.129	0.0170451
739.207	0.0170703
739.285	0.0169502
739.363	0.0169315
739.442	0.0170377
739.520	0.0171101
739.598	0.0171788
739.676	0.0168939
739.754	0.0170066
739.832	0.0170382
739.910	0.0171582
739.988	0.0172519
740.067	0.0170528
740.145	0.0170676
740.223	0.0172292
740.301	0.0173396
740.379	0.0172408
740.457	0.0172217
740.535	0.0173639
740.613	0.0175843
740.692	0.0174192
740.770	0.0173963
740.848	0.0174506
740.926	0.0174631
741.004	0.0174105
741.082	0.0173689
741.160	0.0172727
741.238	0.0172527
741.317	0.0172971
741.395	0.0172260
741.473	0.0171520
741.551	0.0169224
741.629	0.0167847
741.707	0.0169327
741.785	0.0167072
741.863	0.0167025
741.942	0.0165805
742.020	0.0164896
742.098	0.0162733
742.176	0.0165113
742.254	0.0164014
742.332	0.0162359
742.410	0.0163181
742.488	0.0160477
742.567	0.0161317
742.645	0.0159929
742.723	0.0160728
742.801	0.0159794
742.879	0.0159431
742.957	0.0158375
743.035	0.0158645
743.113	0.0159710
743.192	0.0159177
743.270	0.0158864
743.348	0.0159675
743.426	0.0159681
743.504	0.0160332
743.582	0.0158931
743.660	0.0160786
743.738	0.0160599
743.817	0.0160195
743.895	0.0161059
743.973	0.0160596
744.051	0.0159218
744.129	0.0159476
744.207	0.0159739
744.285	0.0160548
744.363	0.0161766
744.442	0.0160114
744.520	0.0161674
744.598	0.0162390
744.676	0.0161941
744.754	0.0161716
744.832	0.0162756
744.910	0.0166129
744.988	0.0164718
745.067	0.0165312
745.145	0.0165886
745.223	0.0168849
745.301	0.0168925
745.379	0.0167773
745.457	0.0169764
745.535	0.0170000
745.613	0.0169935
745.692	0.0169023
745.770	0.0169279
745.848	0.0169946
745.926	0.0169763
746.004	0.0170975
746.082	0.0169231
746.160	0.0169378
746.238	0.0169560
746.317	0.0168589
746.395	0.0167565
746.473	0.0167934
746.551	0.0168208
746.629	0.0167081
746.707	0.0167670
746.785	0.0167995
746.863	0.0169446
746.942	0.0168169
747.020	0.0168723
747.098	0.0169293
747.176	0.0167805
747.254	0.0169948
747.332	0.0170467
747.410	0.0170595
747.488	0.0171786
747.567	0.0171962
747.645	0.0172570
747.723	0.0172468
747.801	0.0173006
747.879	0.0171331
747.957	0.0171337
748.035	0.0170904
748.113	0.0170954
748.192	0.0170704
748.270	0.0170752
748.348	0.0168692
748.426	0.0168934
748.504	0.0167381
748.582	0.0167188
748.660	0.0165971
748.738	0.0164938
748.817	0.0164456
748.895	0.0164642
748.973	0.0163055
749.051	0.0160693
749.129	0.0160723
749.207	0.0160387
749.285	0.0159005
749.363	0.0159571
749.442	0.0158569
749.520	0.0158833
749.598	0.0158099
749.676	0.0157782
749.754	0.0158906
749.832	0.0159879
749.910	0.0158930
749.988	0.0158676
750.067	0.0161225
750.145	0.0162441
750.223	0.0162121
750.301	0.0163603
750.379	0.0165344
750.457	0.0165549
750.535	0.0164883
750.613	0.0164637
750.692	0.0164278
750.770	0.0165327
750.848	0.0164505
750.926	0.0164059
751.004	0.0164278
751.082	0.0164151
751.160	0.0164363
751.238	0.0163079
751.317	0.0162742
751.395	0.0162221
751.473	0.0163630
751.551	0.0161459
751.629	0.0161452
751.707	0.0162375
751.785	0.0162165
751.863	0.0162588
751.942	0.0163963
752.020	0.0165233
752.098	0.0165633
752.176	0.0167197
752.254	0.0165810
752.332	0.0166853
752.410	0.0168299
752.488	0.0168162
752.567	0.0169108
752.645	0.0170051
752.723	0.0170348
752.801	0.0170831
752.879	0.0169204
752.957	0.0169010
753.035	0.0169093
753.113	0.0169697
753.192	0.0171159
753.270	0.0169897
753.348	0.0169197
753.426	0.0167982
753.504	0.0169049
753.582	0.0170265
753.660	0.0170116
753.738	0.0169534
753.817	0.0170098
753.895	0.0170130
753.973	0.0171597
754.051	0.0170184
754.129	0.0170514
754.207	0.0172346
754.285	0.0171887
754.363	0.0170930
754.442	0.0171359
754.520	0.0171069
754.598	0.0172112
754.676	0.0171891
754.754	0.0171352
754.832	0.0170793
754.910	0.0171218
754.988	0.0170649
755.067	0.0170254
755.145	0.0169495
755.223	0.0169411
755.301	0.0169789
755.379	0.0169904
755.457	0.0170467
755.535	0.0169843
755.613	0.0167798
755.692	0.0165995
755.770	0.0167556
755.848	0.0166097
755.926	0.0166276
756.004	0.0165698
756.082	0.0165985
756.160	0.0165495
756.238	0.0163550
756.317	0.0165445
756.395	0.0163708
756.473	0.0164752
756.551	0.0163421
756.629	0.0162659
756.707	0.0161525
756.785	0.0164102
756.863	0.0162395
756.942	0.0164156
757.020	0.0163325
757.098	0.0163602
757.176	0.0162909
757.254	0.0162588
757.332	0.0164183
757.410	0.0162908
757.488	0.0162137
757.567	0.0162724
757.645	0.0162424
757.723	0.0163662
757.801	0.0162815
757.879	0.0163220
757.957	0.0163978
758.035	0.0165664
758.113	0.0163516
758.192	0.0163173
758.270	0.0163766
758.348	0.0165090
758.426	0.0163329
758.504	0.0163483
758.582	0.0165005
758.660	0.0163721
758.738	0.0165151
758.817	0.0164523
758.895	0.0164400
758.973	0.0164137
759.051	0.0164729
759.129	0.0164855
759.207	0.0165482
759.285	0.0166282
759.363	0.0166059
759.442	0.0166383
759.520	0.0167280
759.598	0.0167537
759.676	0.0165900
759.754	0.0166713
759.832	0.0168395
759.910	0.0167938
759.988	0.0168738
760.067	0.0168937
760.145	0.0169448
760.223	0.0168137
760.301	0.0167741
760.379	0.0169682
760.457	0.0167087
760.535	0.0167173
760.613	0.0167435
760.692	0.0167842
760.770	0.0167020
760.848	0.0166634
760.926	0.0168571
761.004	0.0166393
761.082	0.0166013
761.160	0.0165871
761.238	0.0167255
761.317	0.0166412
761.395	0.0166487
761.473	0.0167080
761.551	0.0166957
761.629	0.0166344
761.707	0.0166527
761.785	0.0165995
761.863	0.0166604
761.942	0.0165623
762.020	0.0166584
762.098	0.0167159
762.176	0.0166347
762.254	0.0165783
762.332	0.0167021
762.410	0.0168330
762.488	0.0166259
762.567	0.0166094
762.645	0.0166304
762.723	0.0165945
762.801	0.0166872
762.879	0.0165825
762.957	0.0166714
763.035	0.0166738
763.113	0.0167041
763.192	0.0165418
763.270	0.0166651
763.348	0.0166319
763.426	0.0165977
763.504	0.0165848
763.582	0.0164857
763.660	0.0165102
763.738	0.0166000
763.817	0.0166408
763.895	0.0167001
763.973	0.0167018
764.051	0.0167831
764.129	0.0167543
764.207	0.0166560
764.285	0.0167311
764.363	0.0166415
764.442	0.0164900
764.520	0.0166212
764.598	0.0166759
764.676	0.0165020
764.754	0.0164293
764.832	0.0163295
764.910	0.0164316
764.988	0.0163770
765.067	0.0165141
765.145	0.0164828
765.223	0.0165138
765.301	0.0165381
765.379	0.0165105
765.457	0.0166632
765.535	0.0165121
765.613	0.0165290
765.692	0.0165385
765.770	0.0165567
765.848	0.0166167
765.926	0.0164940
766.004	0.0164089
766.082	0.0164935
766.160	0.0163594
766.238	0.0164429
766.317	0.0163867
766.395	0.0165668
766.473	0.0163999
766.551	0.0164938
766.629	0.0165483
766.707	0.0165744
766.785	0.0165015
766.863	0.0165981
766.942	0.0164893
767.020	0.0166431
767.098	0.0167513
767.176	0.0167634
767.254	0.0168069
767.332	0.0167062
767.410	0.0167499
767.488	0.0167160
767.567	0.0167236
767.645	0.0166979
767.723	0.0168800
767.801	0.0169738
767.879	0.0169663
767.957	0.0169814
768.035	0.0169700
768.113	0.0169060
768.192	0.0169101
768.270	0.0168376
768.348	0.0170417
768.426	0.0170182
768.504	0.0170459
768.582	0.0170180
768.660	0.0169785
768.738	0.0170601
768.817	0.0171563
768.895	0.0170419
768.973	0.0169046
769.051	0.0169395
769.129	0.0169363
769.207	0.0169831
769.285	0.0169886
769.363	0.0168707
769.442	0.0168552
769.520	0.0168146
769.598	0.0168417
769.676	0.0167934
769.754	0.0166846
769.832	0.0167019
769.910	0.0166273
769.988	0.0165282
770.067	0.0165136
770.145	0.0164998
770.223	0.0164948
770.301	0.0165627
770.379	0.0163688
770.457	0.0162302
770.535	0.0162439
770.613	0.0162778
770.692	0.0162055
770.770	0.0161770
770.848	0.0163631
770.926	0.0162494
771.004	0.0162067
771.082	0.0163023
771.160	0.0164378
771.238	0.0162771
771.317	0.0163765
771.395	0.0165244
771.473	0.0163265
771.551	0.0162813
771.629	0.0165313
771.707	0.0164975
771.785	0.0165971
771.863	0.0165195
771.942	0.0165759
772.020	0.0165631
772.098	0.0164692
772.176	0.0166048
772.254	0.0164724
772.332	0.0164446
772.410	0.0164006
772.488	0.0166021
772.567	0.0165396
772.645	0.0163983
772.723	0.0166332
772.801	0.0163052
772.879	0.0163744
772.957	0.0162408
773.035	0.0162805
773.113	0.0162616
773.192	0.0163372
773.270	0.0163638
773.348	0.0161622
773.426	0.0162618
773.504	0.0162203
773.582	0.0161563
773.660	0.0162182
773.738	0.0164145
773.817	0.0162839
773.895	0.0162939
773.973	0.0165528
774.051	0.0165051
774.129	0.0163580
774.207	0.0165305
774.285	0.0166801
774.363	0.0165979
774.442	0.0167038
774.520	0.0167796
774.598	0.0167784
774.676	0.0168182
774.754	0.0168530
774.832	0.0167262
774.910	0.0168284
774.988	0.0167422
775.067	0.0166507
775.145	0.0167960
775.223	0.0167169
775.301	0.0167404
775.379	0.0167837
775.457	0.0166599
775.535	0.0166978
775.613	0.0167497
775.692	0.0166274
775.770	0.0165788
775.848	0.0168015
775.926	0.0167163
776.004	0.0166853
776.082	0.0167426
776.160	0.0166148
776.238	0.0167886
776.317	0.0166221
776.395	0.0165757
776.473	0.0166708
776.551	0.0167658
776.629	0.0167740
776.707	0.0165343
776.785	0.0166422
776.863	0.0167429
776.942	0.0166959
777.020	0.0165827
777.098	0.0167233
777.176	0.0167966
777.254	0.0166990
777.332	0.0167806
777.410	0.0166557
777.488	0.0166634
777.567	0.0168399
777.645	0.0166978
777.723	0.0167529
777.801	0.0167444
777.879	0.0166712
777.957	0.0168285
778.035	0.0168256
778.113	0.0168363
778.192	0.0169267
778.270	0.0169066
778.348	0.0168133
778.426	0.0167334
778.504	0.0169318
778.582	0.0171396
778.660	0.0170737
778.738	0.0169688
778.817	0.0170175
778.895	0.0171252
778.973	0.0171181
779.051	0.0171609
779.129	0.0171140
779.207	0.0172296
779.285	0.0170227
779.363	0.0170261
779.442	0.0170838
779.520	0.0171748
779.598	0.0169957
779.676	0.0170773
779.754	0.0170317
779.832	0.0170339
779.910	0.0167837
779.988	0.0167094
780.067	0.0167300
780.145	0.0166635
780.223	0.0166926
780.301	0.0166691
780.379	0.0167140
780.457	0.0166476
780.535	0.0164879
780.613	0.0165585
780.692	0.0165066
780.770	0.0165800
780.848	0.0164804
780.926	0.0164314
781.004	0.0164928
781.082	0.0164388
781.160	0.0164639
781.238	0.0165575
781.317	0.0166408
781.395	0.0165887
781.473	0.0166405
781.551	0.0166712
781.629	0.0167117
781.707	0.0165211
781.785	0.0166807
781.863	0.0167297
781.942	0.0165150
782.020	0.0165915
782.098	0.0166799
782.176	0.0166763
782.254	0.0166167
782.332	0.0166357
782.410	0.0165229
782.488	0.0164928
782.567	0.0166091
782.645	0.0165481
782.723	0.0165660
782.801	0.0165458
782.879	0.0165921
782.957	0.0166100
783.035	0.0164072
783.113	0.0166309
783.192	0.0167060
783.270	0.0165996
783.348	0.0166852
783.426	0.0166452
783.504	0.0166576
783.582	0.0165115
783.660	0.0166077
783.738	0.0165206
783.817	0.0165311
783.895	0.0166070
783.973	0.0166311
784.051	0.0165694
784.129	0.0164677
784.207	0.0165247
784.285	0.0164709
784.363	0.0164114
784.442	0.0164145
784.520	0.0164900
784.598	0.0164408
784.676	0.0164725
784.754	0.0164832
784.832	0.0163972
784.910	0.0163899
784.988	0.0163734
785.067	0.0164165
785.145	0.0161909
785.223	0.0162746
785.301	0.0163463
785.379	0.0163010
785.457	0.0163744
785.535	0.0162773
785.613	0.0163930
785.692	0.0164069
785.770	0.0164973
785.848	0.0164958
785.926	0.0164577
786.004	0.0165879
786.082	0.0167719
786.160	0.0166808
786.238	0.0167506
786.317	0.0166995
786.395	0.0168265
786.473	0.0168383
786.551	0.0168743
786.629	0.0167856
786.707	0.0167705
786.785	0.0168555
786.863	0.0168491
786.942	0.0168095
787.020	0.0167088
787.098	0.0167397
787.176	0.0166170
787.254	0.0166557
787.332	0.0166656
787.410	0.0165598
787.488	0.0166817
787.567	0.0165021
787.645	0.0165071
787.723	0.0164845
787.801	0.0163531
787.879	0.0163464
787.957	0.0163289
788.035	0.0163176
788.113	0.0162928
788.192	0.0162005
788.270	0.0161640
788.348	0.0161617
788.426	0.0161352
788.504	0.0161979
788.582	0.0160798
788.660	0.0161471
788.738	0.0162506
788.817	0.0161231
788.895	0.0162296
788.973	0.0161615
789.051	0.0161868
789.129	0.0161980
789.207	0.0162695
789.285	0.0161349
789.363	0.0162201
789.442	0.0163105
789.520	0.0162705
789.598	0.0163342
789.676	0.0163922
789.754	0.0165413
789.832	0.0165288
789.910	0.0165919
789.988	0.0166618
790.067	0.0168143
790.145	0.0168393
790.223	0.0169658
790.301	0.0168826
790.379	0.0169639
790.457	0.0169642
790.535	0.0167845
790.613	0.0169612
790.692	0.0169865
790.770	0.0168951
790.848	0.0170492
790.926	0.0169227
791.004	0.0167962
791.082	0.0168092
791.160	0.0168213
791.238	0.0166927
791.317	0.0167757
791.395	0.0167926
791.473	0.0168866
791.551	0.0166724
791.629	0.0169141
791.707	0.0168585
791.785	0.0168148
791.863	0.0167934
791.942	0.0168147
792.020	0.0168215
792.098	0.0167287
792.176	0.0168549
792.254	0.0167974
792.332	0.0168659
792.410	0.0167935
792.488	0.0168881
792.567	0.0167593
792.645	0.0166880
792.723	0.0167123
792.801	0.0165946
792.879	0.0164214
792.957	0.0164664
793.035	0.0163306
793.113	0.0162020
793.192	0.0163243
793.270	0.0163072
793.348	0.0161792
793.426	0.0161296
793.504	0.0161399
793.582	0.0162345
793.660	0.0163330
793.738	0.0160634
793.817	0.0161326
793.895	0.0162505
793.973	0.0162402
794.051	0.0163860
794.129	0.0165501
794.207	0.0164619
794.285	0.0164135
794.363	0.0166058
794.442	0.0166501
794.520	0.0166364
794.598	0.0168711
794.676	0.0168533
794.754	0.0169793
794.832	0.0169746
794.910	0.0168682
794.988	0.0171079
795.067	0.0171239
795.145	0.0171256
795.223	0.0171271
795.301	0.0171528
795.379	0.0170685
795.457	0.0171128
795.535	0.0170912
795.613	0.0171856
795.692	0.0169990
795.770	0.0169465
795.848	0.0169765
795.926	0.0168738
796.004	0.0168518
796.082	0.0168106
796.160	0.0168913
796.238	0.0166877
796.317	0.0166995
796.395	0.0167008
796.473	0.0165056
796.551	0.0164875
796.629	0.0164469
796.707	0.0164899
796.785	0.0163474
796.863	0.0164030
796.942	0.0165007
797.020	0.0164368
797.098	0.0162791
797.176	0.0164252
797.254	0.0163269
797.332	0.0163737
797.410	0.0165273
797.488	0.0165117
797.567	0.0163960
797.645	0.0164648
797.723	0.0165797
797.801	0.0164959
797.879	0.0164797
797.957	0.0165219
798.035	0.0165410
798.113	0.0166297
798.192	0.0166949
798.270	0.0165356
798.348	0.0165897
798.426	0.0165774
798.504	0.0164361
798.582	0.0164910
798.660	0.0165601
798.738	0.0165594
798.817	0.0166196
798.895	0.0165395
798.973	0.0166876
799.051	0.0166039
799.129	0.0166114
799.207	0.0167204
799.285	0.0167539
799.363	0.0168755
799.442	0.0169438
799.520	0.0168394
799.598	0.0169793
799.676	0.0171126
799.754	0.0171967
799.832	0.0171535
799.910	0.0171799
799.988	0.0172056
800.067	0.0171790
800.145	0.0173722
800.223	0.0172686
800.301	0.0171730
800.379	0.0172959
800.457	0.0172482
800.535	0.0171844
800.613	0.0171474
800.692	0.0169808
800.770	0.0169125
800.848	0.0168454
800.926	0.0168233
801.004	0.0168322
801.082	0.0165642
801.160	0.0165698
801.238	0.0166132
801.317	0.0166048
801.395	0.0164989
801.473	0.0163824
801.551	0.0163606
801.629	0.0164254
801.707	0.0163268
801.785	0.0163112
801.863	0.0163872
801.942	0.0165081
802.020	0.0165018
802.098	0.0163689
802.176	0.0163636
802.254	0.0164085
802.332	0.0164566
802.410	0.0165077
802.488	0.0165910
802.567	0.0165974
802.645	0.0164463
802.723	0.0165160
802.801	0.0166054
802.879	0.0164998
802.957	0.0164079
803.035	0.0164633
803.113	0.0165298
803.192	0.0166229
803.270	0.0164697
803.348	0.0165015
803.426	0.0163117
803.504	0.0165353
803.582	0.0164308
803.660	0.0165525
803.738	0.0165078
803.817	0.0164941
803.895	0.0163895
803.973	0.0164026
804.051	0.0164057
804.129	0.0163813
804.207	0.0164507
804.285	0.0164412
804.363	0.0162413
804.442	0.0163270
804.520	0.0161816
804.598	0.0161383
804.676	0.0162566
804.754	0.0162977
804.832	0.0162119
804.910	0.0161231
804.988	0.0162239
805.067	0.0162080
805.145	0.0163038
805.223	0.0162957
805.301	0.0163488
805.379	0.0163945
805.457	0.0163084
805.535	0.0165321
805.613	0.0165592
805.692	0.0166416
805.770	0.0164507
805.848	0.0163961
805.926	0.0165551
806.004	0.0165369
806.082	0.0164095
806.160	0.0165465
806.238	0.0165257
806.317	0.0163857
806.395	0.0164677
806.473	0.0165842
806.551	0.0163587
806.629	0.0165080
806.707	0.0164333
806.785	0.0164856
806.863	0.0165081
806.942	0.0164106
807.020	0.0164455
807.098	0.0166404
807.176	0.0165588
807.254	0.0166639
807.332	0.0167120
807.410	0.0166811
807.488	0.0166663
807.567	0.0167223
807.645	0.0168099
807.723	0.0168225
807.801	0.0167163
807.879	0.0166865
807.957	0.0166763
808.035	0.0166860
808.113	0.0165936
808.192	0.0165865
808.270	0.0165985
808.348	0.0162632
808.426	0.0163525
808.504	0.0164980
808.582	0.0164570
808.660	0.0163200
808.738	0.0163496
808.817	0.0164007
808.895	0.0163513
808.973	0.0163033
809.051	0.0163990
809.129	0.0163469
809.207	0.0164159
809.285	0.0164375
809.363	0.0163423
809.442	0.0163879
809.520	0.0165128
809.598	0.0165321
809.676	0.0165269
809.754	0.0164329
809.832	0.0166734
809.910	0.0166553
809.988	0.0165743
810.067	0.0166250
810.145	0.0167352
810.223	0.0166689
810.301	0.0166570
810.379	0.0166133
810.457	0.0166256
810.535	0.0166273
810.613	0.0166113
810.692	0.0166801
810.770	0.0165904
810.848	0.0164733
810.926	0.0165911
811.004	0.0165928
811.082	0.0166148
811.160	0.0166444
811.238	0.0166436
811.317	0.0166362
811.395	0.0165448
811.473	0.0165929
811.551	0.0165858
811.629	0.0164467
811.707	0.0164852
811.785	0.0166155
811.863	0.0165082
811.942	0.0163174
812.020	0.0163885
812.098	0.0163792
812.176	0.0163264
812.254	0.0163103
812.332	0.0163757
812.410	0.0163342
812.488	0.0162492
812.567	0.0162120
812.645	0.0161979
812.723	0.0161699
812.801	0.0162273
812.879	0.0162336
812.957	0.0162843
813.035	0.0163129
813.113	0.0163475
813.192	0.0164004
813.270	0.0163382
813.348	0.0163472
813.426	0.0165339
813.504	0.0165482
813.582	0.0164591
813.660	0.0164585
813.738	0.0164377
813.817	0.0165226
813.895	0.0165048
813.973	0.0164498
814.051	0.0165668
814.129	0.0164388
814.207	0.0164593
814.285	0.0167010
814.363	0.0166068
814.442	0.0166111
814.520	0.0165956
814.598	0.0168300
814.676	0.0168415
814.754	0.0167198
814.832	0.0168124
814.910	0.0169250
814.988	0.0168693
815.067	0.0170877
815.145	0.0169765
815.223	0.0170445
815.301	0.0169724
815.379	0.0169920
815.457	0.0169521
815.535	0.0169927
815.613	0.0170189
815.692	0.0172337
815.770	0.0170231
815.848	0.0169649
815.926	0.0168621
816.004	0.0169092
816.082	0.0168273
816.160	0.0168394
816.238	0.0168867
816.317	0.0167828
816.395	0.0166113
816.473	0.0166652
816.551	0.0166401
816.629	0.0166425
816.707	0.0165919
816.785	0.0166496
816.863	0.0165031
816.942	0.0166716
817.020	0.0166348
817.098	0.0166253
817.176	0.0166065
817.254	0.0165553
817.332	0.0167308
817.410	0.0168363
817.488	0.0167888
817.567	0.0167423
817.645	0.0167097
817.723	0.0168224
817.801	0.0167842
817.879	0.0169126
817.957	0.0168595
818.035	0.0168885
818.113	0.0168169
818.192	0.0168863
818.270	0.0167625
818.348	0.0168078
818.426	0.0168871
818.504	0.0170165
818.582	0.0168575
818.660	0.0167986
818.738	0.0168711
818.817	0.0166885
818.895	0.0167445
818.973	0.0167301
819.051	0.0165744
819.129	0.0166850
819.207	0.0165417
819.285	0.0164448
819.363	0.0165803
819.442	0.0165183
819.520	0.0162373
819.598	0.0162975
819.676	0.0162239
819.754	0.0162959
819.832	0.0161146
819.910	0.0161926
819.988	0.0160823
820.067	0.0160530
820.145	0.0160985
820.223	0.0160986
820.301	0.0160977
820.379	0.0161535
820.457	0.0160583
820.535	0.0161531
820.613	0.0160763
820.692	0.0161893
820.770	0.0163108
820.848	0.0163965
820.926	0.0163886
821.004	0.0164432
821.082	0.0165148
821.160	0.0165407
821.238	0.0166669
821.317	0.0167102
821.395	0.0165712
821.473	0.0166573
821.551	0.0167023
821.629	0.0166553
821.707	0.0168063
821.785	0.0167505
821.863	0.0165799
821.942	0.0166751
822.020	0.0167075
822.098	0.0166849
822.176	0.0167211
822.254	0.0166008
822.332	0.0166704
822.410	0.0168410
822.488	0.0166322
822.567	0.0167903
822.645	0.0168523
822.723	0.0169407
822.801	0.0168346
822.879	0.0169895
822.957	0.0170011
823.035	0.0172264
823.113	0.0171738
823.192	0.0171511
823.270	0.0170750
823.348	0.0171419
823.426	0.0171895
823.504	0.0171212
823.582	0.0168257
823.660	0.0170513
823.738	0.0169906
823.817	0.0169782
823.895	0.0168796
823.973	0.0167355
824.051	0.0166594
824.129	0.0166790
824.207	0.0165748
824.285	0.0166187
824.363	0.0166904
824.442	0.0165896
824.520	0.0165260
824.598	0.0165507
824.676	0.0164857
824.754	0.0165121
824.832	0.0166224
824.910	0.0166051
824.988	0.0166989
825.067	0.0167138
825.145	0.0165131
825.223	0.0166637
825.301	0.0166174
825.379	0.0165582
825.457	0.0166145
825.535	0.0166308
825.613	0.0166814
825.692	0.0166432
825.770	0.0164580
825.848	0.0165926
825.926	0.0165923
826.004	0.0166031
826.082	0.0164962
826.160	0.0164815
826.238	0.0166660
826.317	0.0164214
826.395	0.0163842
826.473	0.0164329
826.551	0.0164577
826.629	0.0163692
826.707	0.0164898
826.785	0.0163901
826.863	0.0164224
826.942	0.0165466
827.020	0.0165925
827.098	0.0164133
827.176	0.0164037
827.254	0.0163902
827.332	0.0162576
827.410	0.0163718
827.488	0.0162113
827.567	0.0162277
827.645	0.0162904
827.723	0.0160860
827.801	0.0160314
827.879	0.0160847
827.957	0.0161393
828.035	0.0159924
828.113	0.0160578
828.192	0.0161114
828.270	0.0160972
828.348	0.0160751
828.426	0.0161112
828.504	0.0162152
828.582	0.0162423
828.660	0.0163783
828.738	0.0164525
828.817	0.0165055
828.895	0.0164732
828.973	0.0164488
829.051	0.0165898
829.129	0.0165868
829.207	0.0166882
829.285	0.0164971
829.363	0.0165302
829.442	0.0166151
829.520	0.0164957
829.598	0.0167338
829.676	0.0166103
829.754	0.0166299
829.832	0.0164219
829.910	0.0167039
829.988	0.0165416
830.067	0.0166090
830.145	0.0168084
830.223	0.0166885
830.301	0.0167939
830.379	0.0168362
830.457	0.0167516
830.535	0.0167572
830.613	0.0168932
830.692	0.0169133
830.770	0.0168841
830.848	0.0168551
830.926	0.0168264
831.004	0.0170164
831.082	0.0168652
831.160	0.0169375
831.238	0.0168042
831.317	0.0168868
831.395	0.0169975
831.473	0.0167849
831.551	0.0168588
831.629	0.0167171
831.707	0.0166470
831.785	0.0167150
831.863	0.0166216
831.942	0.0165614
832.020	0.0165178
832.098	0.0164991
832.176	0.0165407
832.254	0.0164962
832.332	0.0165297
832.410	0.0164980
832.488	0.0165829
832.567	0.0165450
832.645	0.0166502
832.723	0.0166436
832.801	0.0167576
832.879	0.0167693
832.957	0.0168108
833.035	0.0165988
833.113	0.0167676
833.192	0.0167173
833.270	0.0168339
833.348	0.0167276
833.426	0.0167506
833.504	0.0167061
833.582	0.0168425
833.660	0.0167313
833.738	0.0166953
833.817	0.0166171
833.895	0.0165755
833.973	0.0166107
834.051	0.0163435
834.129	0.0164638
834.207	0.0165083
834.285	0.0165622
834.363	0.0163764
834.442	0.0164529
834.520	0.0165997
834.598	0.0164903
834.676	0.0164558
834.754	0.0164803
834.832	0.0164465
834.910	0.0164181
834.988	0.0165284
835.067	0.0164742
835.145	0.0164555
835.223	0.0164251
835.301	0.0163913
835.379	0.0163657
835.457	0.0163235
835.535	0.0161998
835.613	0.0163876
835.692	0.0163718
835.770	0.0165327
835.848	0.0164113
835.926	0.0162662
836.004	0.0164448
836.082	0.0165754
836.160	0.0165844
836.238	0.0164851
836.317	0.0166651
836.395	0.0167997
836.473	0.0168553
836.551	0.0168739
836.629	0.0169622
836.707	0.0168859
836.785	0.0169730
836.863	0.0168672
836.942	0.0170567
837.020	0.0170129
837.098	0.0171111
837.176	0.0170576
837.254	0.0169286
837.332	0.0168143
837.410	0.0169495
837.488	0.0167429
837.567	0.0168457
837.645	0.0168295
837.723	0.0167474
837.801	0.0168678
837.879	0.0166557
837.957	0.0166577
838.035	0.0168074
838.113	0.0168081
838.192	0.0166244
838.270	0.0166537
838.348	0.0168238
838.426	0.0168067
838.504	0.0167013
838.582	0.0167407
838.660	0.0167532
838.738	0.0167198
838.817	0.0167630
838.895	0.0167550
838.973	0.0167268
839.051	0.0167830
839.129	0.0168156
839.207	0.0167282
839.285	0.0165930
839.363	0.0166984
839.442	0.0165691
839.520	0.0164942
839.598	0.0166534
839.676	0.0165703
839.754	0.0164810
839.832	0.0162849
839.910	0.0164072
839.988	0.0162749
840.067	0.0165562
840.145	0.0164098
840.223	0.0164823
840.301	0.0163920
840.379	0.0163825
840.457	0.0165144
840.535	0.0165010
840.613	0.0166329
840.692	0.0166512
840.770	0.0165327
840.848	0.0166122
840.926	0.0167673
841.004	0.0166771
841.082	0.0168172
841.160	0.0168876
841.238	0.0168954
841.317	0.0169598
841.395	0.0168613
841.473	0.0169978
841.551	0.0168612
841.629	0.0168466
841.707	0.0168443
841.785	0.0168616
841.863	0.0169437
841.942	0.0169675
842.020	0.0168266
842.098	0.0167747
842.176	0.0168182
842.254	0.0168310
842.332	0.0166717
842.410	0.0166201
842.488	0.0165944
842.567	0.0166742
842.645	0.0165417
842.723	0.0165495
842.801	0.0164413
842.879	0.0163746
842.957	0.0163813
843.035	0.0164600
843.113	0.0164346
843.192	0.0164076
843.270	0.0163376
843.348	0.0162434
843.426	0.0163366
843.504	0.0162653
843.582	0.0163108
843.660	0.0162567
843.738	0.0164032
843.817	0.0162968
843.895	0.0164482
843.973	0.0165065
844.051	0.0164242
844.129	0.0165201
844.207	0.0166171
844.285	0.0164394
844.363	0.0164736
844.442	0.0165267
844.520	0.0166863
844.598	0.0165963
844.676	0.0166634
844.754	0.0167056
844.832	0.0166654
844.910	0.0165835
844.988	0.0166750
845.067	0.0166455
845.145	0.0166677
845.223	0.0164605
845.301	0.0165662
845.379	0.0166090
845.457	0.0166252
845.535	0.0164704
845.613	0.0165035
845.692	0.0163714
845.770	0.0164401
845.848	0.0165079
845.926	0.0165477
846.004	0.0165413
846.082	0.0165249
846.160	0.0164957
846.238	0.0166756
846.317	0.0165186
846.395	0.0167502
846.473	0.0165650
846.551	0.0164297
846.629	0.0164304
846.707	0.0165686
846.785	0.0166486
846.863	0.0165479
846.942	0.0164970
847.020	0.0166872
847.098	0.0164481
847.176	0.0163965
847.254	0.0165123
847.332	0.0164597
847.410	0.0163425
847.488	0.0165190
847.567	0.0163882
847.645	0.0163766
847.723	0.0165446
847.801	0.0163946
847.879	0.0164478
847.957	0.0164919
848.035	0.0164956
848.113	0.0164642
848.192	0.0165829
848.270	0.0166022
848.348	0.0165707
848.426	0.0164930
848.504	0.0166083
848.582	0.0166041
848.660	0.0165285
848.738	0.0166090
848.817	0.0166344
848.895	0.0167015
848.973	0.0166891
849.051	0.0165533
849.129	0.0167519
849.207	0.0167881
849.285	0.0167650
849.363	0.0166869
849.442	0.0167792
849.520	0.0166647
849.598	0.0166286
849.676	0.0166405
849.754	0.0166782
849.832	0.0166521
849.910	0.0167211
849.988	0.0167813
850.067	0.0165781
850.145	0.0165566
850.223	0.0164625
850.301	0.0164731
850.379	0.0165894
850.457	0.0165897
850.535	0.0165102
850.613	0.0164375
850.692	0.0166082
850.770	0.0164908
850.848	0.0163860
850.926	0.0164080
851.004	0.0163834
851.082	0.0163422
851.160	0.0165431
851.238	0.0164521
851.317	0.0164267
851.395	0.0164219
851.473	0.0163741
851.551	0.0163889
851.629	0.0166016
851.707	0.0165115
851.785	0.0166203
851.863	0.0166702
851.942	0.0167352
852.020	0.0167680
852.098	0.0166898
852.176	0.0165807
852.254	0.0166535
852.332	0.0167302
852.410	0.0168317
852.488	0.0169066
852.567	0.0168816
852.645	0.0169408
852.723	0.0169273
852.801	0.0168154
852.879	0.0168153
852.957	0.0168526
853.035	0.0169109
853.113	0.0168928
853.192	0.0167685
853.270	0.0168396
853.348	0.0168900
853.426	0.0167894
853.504	0.0167474
853.582	0.0167394
853.660	0.0168199
853.738	0.0168123
853.817	0.0167106
853.895	0.0168195
853.973	0.0167743
854.051	0.0169292
854.129	0.0166506
854.207	0.0168114
854.285	0.0166464
854.363	0.0167642
854.442	0.0167694
854.520	0.0166611
854.598	0.0167847
854.676	0.0168317
854.754	0.0167591
854.832	0.0166521
854.910	0.0166624
854.988	0.0167178
855.067	0.0166409
855.145	0.0166570
855.223	0.0168325
855.301	0.0166984
855.379	0.0166063
855.457	0.0166917
855.535	0.0164796
855.613	0.0164794
855.692	0.0167232
855.770	0.0164709
855.848	0.0165968
855.926	0.0167165
856.004	0.0166892
856.082	0.0167682
856.160	0.0165099
856.238	0.0166082
856.317	0.0167780
856.395	0.0166361
856.473	0.0167149
856.551	0.0167508
856.629	0.0166833
856.707	0.0167918
856.785	0.0168030
856.863	0.0167571
856.942	0.0167102
857.020	0.0167980
857.098	0.0167632
857.176	0.0168129
857.254	0.0167315
857.332	0.0168581
857.410	0.0167144
857.488	0.0169051
857.567	0.0165670
857.645	0.0166137
857.723	0.0167670
857.801	0.0168347
857.879	0.0165985
857.957	0.0166261
858.035	0.0167099
858.113	0.0166824
858.192	0.0165984
858.270	0.0166509
858.348	0.0164960
858.426	0.0164456
858.504	0.0163654
858.582	0.0165137
858.660	0.0166477
858.738	0.0164529
858.817	0.0164059
858.895	0.0163363
858.973	0.0163294
859.051	0.0164049
859.129	0.0164162
859.207	0.0163407
859.285	0.0163686
859.363	0.0164837
859.442	0.0164943
859.520	0.0164222
859.598	0.0164699
859.676	0.0166631
859.754	0.0165750
859.832	0.0167796
859.910	0.0166705
859.988	0.0167472
860.067	0.0167905
860.145	0.0168998
860.223	0.0168095
860.301	0.0168548
860.379	0.0168051
860.457	0.0167471
860.535	0.0167442
860.613	0.0168901
860.692	0.0167910
860.770	0.0168539
860.848	0.0170027
860.926	0.0167312
861.004	0.0166984
861.082	0.0169339
861.160	0.0167679
861.238	0.0166678
861.317	0.0166644
861.395	0.0166113
861.473	0.0166379
861.551	0.0167237
861.629	0.0167796
861.707	0.0166424
861.785	0.0166587
861.863	0.0167265
861.942	0.0166995
862.020	0.0166755
862.098	0.0167189
862.176	0.0167300
862.254	0.0169057
862.332	0.0168806
862.410	0.0167980
862.488	0.0167890
862.567	0.0169002
862.645	0.0169167
862.723	0.0168925
862.801	0.0167594
862.879	0.0167775
862.957	0.0168970
863.035	0.0168014
863.113	0.0169074
863.192	0.0167680
863.270	0.0167548
863.348	0.0167989
863.426	0.0167935
863.504	0.0169456
863.582	0.0166096
863.660	0.0167384
863.738	0.0167739
863.817	0.0167899
863.895	0.0167888
863.973	0.0167677
864.051	0.0168238
864.129	0.0168331
864.207	0.0169013
864.285	0.0169604
864.363	0.0167930
864.442	0.0169012
864.520	0.0170126
864.598	0.0169572
864.676	0.0168987
864.754	0.0168491
864.832	0.0168364
864.910	0.0166528
864.988	0.0167146
865.067	0.0167979
865.145	0.0168032
865.223	0.0167495
865.301	0.0167843
865.379	0.0166248
865.457	0.0166877
865.535	0.0165462
865.613	0.0165789
865.692	0.0166796
865.770	0.0164369
865.848	0.0164316
865.926	0.0164044
866.004	0.0163818
866.082	0.0164305
866.160	0.0163721
866.238	0.0163229
866.317	0.0161479
866.395	0.0162157
866.473	0.0162849
866.551	0.0161710
866.629	0.0161194
866.707	0.0162952
866.785	0.0161565
866.863	0.0161877
866.942	0.0161070
867.020	0.0162690
867.098	0.0162080
867.176	0.0162474
867.254	0.0163985
867.332	0.0163608
867.410	0.0162897
867.488	0.0163152
867.567	0.0164339
867.645	0.0165063
867.723	0.0165121
867.801	0.0165259
867.879	0.0163885
867.957	0.0165429
868.035	0.0166534
868.113	0.0166640
868.192	0.0166330
868.270	0.0167006
868.348	0.0167589
868.426	0.0167307
868.504	0.0167158
868.582	0.0167978
868.660	0.0168092
868.738	0.0167873
868.817	0.0167683
868.895	0.0167289
868.973	0.0167323
869.051	0.0165664
869.129	0.0166465
869.207	0.0166739
869.285	0.0165564
869.363	0.0165012
869.442	0.0165414
869.520	0.0165222
869.598	0.0165192
869.676	0.0163721
869.754	0.0165332
869.832	0.0164820
869.910	0.0164506
869.988	0.0165415
870.067	0.0165707
870.145	0.0166694
870.223	0.0166806
870.301	0.0167543
870.379	0.0166959
870.457	0.0166573
870.535	0.0167384
870.613	0.0168004
870.692	0.0167573
870.770	0.0168913
870.848	0.0166821
870.926	0.0167429
871.004	0.0167549
871.082	0.0167088
871.160	0.0166926
871.238	0.0166492
871.317	0.0167292
871.395	0.0166646
871.473	0.0166650
871.551	0.0167458
871.629	0.0166930
871.707	0.0166348
871.785	0.0166134
871.863	0.0165141
871.942	0.0165652
872.020	0.0165118
872.098	0.0164718
872.176	0.0166602
872.254	0.0165825
872.332	0.0165260
872.410	0.0165385
872.488	0.0165978
872.567	0.0165815
872.645	0.0164835
872.723	0.0166076
872.801	0.0165860
872.879	0.0166934
872.957	0.0166290
873.035	0.0165601
873.113	0.0166240
873.192	0.0166877
873.270	0.0166922
873.348	0.0166488
873.426	0.0165402
873.504	0.0167296
873.582	0.0164208
873.660	0.0165652
873.738	0.0164189
873.817	0.0165451
873.895	0.0165717
873.973	0.0162690
874.051	0.0163998
874.129	0.0164707
874.207	0.0164696
874.285	0.0164909
874.363	0.0162320
874.442	0.0163303
874.520	0.0163186
874.598	0.0164515
874.676	0.0164410
874.754	0.0162460
874.832	0.0164264
874.910	0.0164690
874.988	0.0163551
875.067	0.0162771
875.145	0.0163635
875.223	0.0164346
875.301	0.0165125
875.379	0.0164552
875.457	0.0163474
875.535	0.0165936
875.613	0.0166225
875.692	0.0165381
875.770	0.0166158
875.848	0.0164996
875.926	0.0165845
876.004	0.0166931
876.082	0.0168347
876.160	0.0167609
876.238	0.0166621
876.317	0.0165794
876.395	0.0166998
876.473	0.0167923
876.551	0.0168554
876.629	0.0168365
876.707	0.0167647
876.785	0.0166833
876.863	0.0167842
876.942	0.0167413
877.020	0.0166829
877.098	0.0166901
877.176	0.0167705
877.254	0.0165965
877.332	0.0168331
877.410	0.0168115
877.488	0.0166842
877.567	0.0166916
877.645	0.0167664
877.723	0.0167350
877.801	0.0165508
877.879	0.0167325
877.957	0.0166232
878.035	0.0168789
878.113	0.0167883
878.192	0.0167687
878.270	0.0168243
878.348	0.0169158
878.426	0.0168407
878.504	0.0167617
878.582	0.0167991
878.660	0.0169888
878.738	0.0169469
878.817	0.0167467
878.895	0.0168703
878.973	0.0168332
879.051	0.0168198
879.129	0.0167624
879.207	0.0165884
879.285	0.0167558
879.363	0.0167329
879.442	0.0166525
879.520	0.0166710
879.598	0.0166351
879.676	0.0165694
879.754	0.0165411
879.832	0.0165746
879.910	0.0165719
879.988	0.0163755
880.067	0.0165744
880.145	0.0165038
880.223	0.0165744
880.301	0.0164635
880.379	0.0166973
880.457	0.0167741
880.535	0.0165593
880.613	0.0165316
880.692	0.0165087
880.770	0.0166175
880.848	0.0165781
880.926	0.0166911
881.004	0.0167183
881.082	0.0166675
881.160	0.0166094
881.238	0.0165560
881.317	0.0166563
881.395	0.0167651
881.473	0.0165459
881.551	0.0165325
881.629	0.0165621
881.707	0.0164854
881.785	0.0164899
881.863	0.0165746
881.942	0.0164394
882.020	0.0164603
882.098	0.0163721
882.176	0.0162843
882.254	0.0163367
882.332	0.0161793
882.410	0.0163342
882.488	0.0163623
882.567	0.0162828
882.645	0.0163029
882.723	0.0162682
882.801	0.0164693
882.879	0.0165351
882.957	0.0164213
883.035	0.0164304
883.113	0.0164912
883.192	0.0165332
883.270	0.0166405
883.348	0.0165695
883.426	0.0165727
883.504	0.0167122
883.582	0.0166702
883.660	0.0167668
883.738	0.0167716
883.817	0.0166577
883.895	0.0166400
883.973	0.0166908
884.051	0.0167676
884.129	0.0167388
884.207	0.0167027
884.285	0.0167265
884.363	0.0167228
884.442	0.0165739
884.520	0.0165056
884.598	0.0164601
884.676	0.0165358
884.754	0.0166061
884.832	0.0165100
884.910	0.0164632
884.988	0.0164153
885.067	0.0164075
885.145	0.0164640
885.223	0.0165205
885.301	0.0165475
885.379	0.0165913
885.457	0.0164849
885.535	0.0166537
885.613	0.0165326
885.692	0.0167211
885.770	0.0167412
885.848	0.0166916
885.926	0.0167577
886.004	0.0168786
886.082	0.0167573
886.160	0.0168824
886.238	0.0168133
886.317	0.0168414
886.395	0.0168615
886.473	0.0168475
886.551	0.0167203
886.629	0.0169839
886.707	0.0169122
886.785	0.0168478
886.863	0.0169576
886.942	0.0168365
887.020	0.0168169
887.098	0.0169269
887.176	0.0168910
887.254	0.0167467
887.332	0.0167053
887.410	0.0167339
887.488	0.0166739
887.567	0.0166949
887.645	0.0168289
887.723	0.0167905
887.801	0.0166702
887.879	0.0166288
887.957	0.0166924
888.035	0.0166031
888.113	0.0165137
888.192	0.0165299
888.270	0.0165408
888.348	0.0164632
888.426	0.0165343
888.504	0.0164552
888.582	0.0165800
888.660	0.0164465
888.738	0.0162958
888.817	0.0163459
888.895	0.0164265
888.973	0.0162781
889.051	0.0163191
889.129	0.0162891
889.207	0.0164146
889.285	0.0163665
889.363	0.0162735
889.442	0.0163587
889.520	0.0164298
889.598	0.0164702
889.676	0.0163136
889.754	0.0163742
889.832	0.0162070
889.910	0.0161623
889.988	0.0161695
890.067	0.0163536
890.145	0.0161696
890.223	0.0162649
890.301	0.0163052
890.379	0.0162055
890.457	0.0163280
890.535	0.0163776
890.613	0.0163512
890.692	0.0163134
890.770	0.0163690
890.848	0.0164509
890.926	0.0164706
891.004	0.0163759
891.082	0.0163445
891.160	0.0163834
891.238	0.0164838
891.317	0.0164242
891.395	0.0165415
891.473	0.0165431
891.551	0.0165382
891.629	0.0165804
891.707	0.0165278
891.785	0.0165347
891.863	0.0166068
891.942	0.0166776
892.020	0.0166989
892.098	0.0167097
892.176	0.0166859
892.254	0.0166680
892.332	0.0166402
892.410	0.0165917
892.488	0.0166453
892.567	0.0167535
892.645	0.0166070
892.723	0.0165753
892.801	0.0166015
892.879	0.0164745
892.957	0.0165948
893.035	0.0166150
893.113	0.0166185
893.192	0.0165628
893.270	0.0166476
893.348	0.0165832
893.426	0.0165582
893.504	0.0165634
893.582	0.0166005
893.660	0.0165655
893.738	0.0165635
893.817	0.0165517
893.895	0.0166733
893.973	0.0165751
894.051	0.0165588
894.129	0.0164761
894.207	0.0166376
894.285	0.0167580
894.363	0.0167276
894.442	0.0168153
894.520	0.0167920
894.598	0.0167355
894.676	0.0167088
894.754	0.0166366
894.832	0.0167992
894.910	0.0169468
894.988	0.0166974
895.067	0.0168832
895.145	0.0166586
895.223	0.0166885
895.301	0.0168778
895.379	0.0167958
895.457	0.0168040
895.535	0.0167984
895.613	0.0168410
895.692	0.0169733
895.770	0.0170062
895.848	0.0168758
895.926	0.0167809
896.004	0.0168465
896.082	0.0168288
896.160	0.0168900
896.238	0.0168535
896.317	0.0167214
896.395	0.0167248
896.473	0.0167220
896.551	0.0166791
896.629	0.0167118
896.707	0.0166222
896.785	0.0166461
896.863	0.0165791
896.942	0.0165714
897.020	0.0164941
897.098	0.0164502
897.176	0.0163918
897.254	0.0164272
897.332	0.0164045
897.410	0.0162697
897.488	0.0163490
897.567	0.0163618
897.645	0.0163987
897.723	0.0163814
897.801	0.0163431
897.879	0.0163958
897.957	0.0164461
898.035	0.0162811
898.113	0.0163189
898.192	0.0163821
898.270	0.0162906
898.348	0.0163500
898.426	0.0162313
898.504	0.0163186
898.582	0.0163187
898.660	0.0163985
898.738	0.0163359
898.817	0.0162444
898.895	0.0163595
898.973	0.0163107
899.051	0.0163997
899.129	0.0163345
899.207	0.0163843
899.285	0.0162993
899.363	0.0164233
899.442	0.0165273
899.520	0.0164832
899.598	0.0164465
899.676	0.0165766
899.754	0.0166225
899.832	0.0165680
899.910	0.0165211
899.988	0.0165858
900.067	0.0167052
900.145	0.0167517
900.223	0.0166891
900.301	0.0166228
900.379	0.0165820
900.457	0.0165965
900.535	0.0166432
900.613	0.0165954
900.692	0.0165375
900.770	0.0165092
900.848	0.0166136
900.926	0.0166023
901.004	0.0164405
901.082	0.0163199
901.160	0.0165236
901.238	0.0164458
901.317	0.0165193
901.395	0.0165770
901.473	0.0166146
901.551	0.0165574
901.629	0.0163827
901.707	0.0165229
901.785	0.0165556
901.863	0.0165594
901.942	0.0167455
902.020	0.0166021
902.098	0.0166166
902.176	0.0166312
902.254	0.0167059
902.332	0.0166901
902.410	0.0166691
902.488	0.0166637
902.567	0.0167533
902.645	0.0166214
902.723	0.0165439
902.801	0.0165740
902.879	0.0167780
902.957	0.0167421
903.035	0.0167191
903.113	0.0167822
903.192	0.0165954
903.270	0.0166526
903.348	0.0167007
903.426	0.0166676
903.504	0.0166069
903.582	0.0167014
903.660	0.0166471
903.738	0.0167329
903.817	0.0167003
903.895	0.0166772
903.973	0.0167187
904.051	0.0166918
904.129	0.0167212
904.207	0.0168050
904.285	0.0165977
904.363	0.0166803
904.442	0.0165794
904.520	0.0164954
904.598	0.0165533
904.676	0.0166006
904.754	0.0165112
904.832	0.0165366
904.910	0.0165607
904.988	0.0165161
905.067	0.0165191
905.145	0.0164698
905.223	0.0164466
905.301	0.0163721
905.379	0.0164954
905.457	0.0164313
905.535	0.0164785
905.613	0.0163889
905.692	0.0164429
905.770	0.0163593
905.848	0.0164854
905.926	0.0164529
906.004	0.0165237
906.082	0.0164641
906.160	0.0165495
906.238	0.0165351
906.317	0.0165006
906.395	0.0165237
906.473	0.0164047
906.551	0.0165120
906.629	0.0164902
906.707	0.0164156
906.785	0.0166181
906.863	0.0164854
906.942	0.0164626
907.020	0.0165730
907.098	0.0165698
907.176	0.0165809
907.254	0.0166309
907.332	0.0165440
907.410	0.0165978
907.488	0.0167183
907.567	0.0166664
907.645	0.0165923
907.723	0.0166843
907.801	0.0167821
907.879	0.0167008
907.957	0.0166306
908.035	0.0166219
908.113	0.0167669
908.192	0.0165798
908.270	0.0166312
908.348	0.0166457
908.426	0.0166127
908.504	0.0166418
908.582	0.0165999
908.660	0.0165002
908.738	0.0165783
908.817	0.0166414
908.895	0.0165797
908.973	0.0166453
909.051	0.0166358
909.129	0.0164594
909.207	0.0165969
909.285	0.0165639
909.363	0.0164243
909.442	0.0165307
909.520	0.0165565
909.598	0.0164024
909.676	0.0165520
909.754	0.0165726
909.832	0.0163785
909.910	0.0165502
909.988	0.0165160
910.067	0.0166922
910.145	0.0165757
910.223	0.0166351
910.301	0.0166315
910.379	0.0167029
910.457	0.0168990
910.535	0.0168517
910.613	0.0166557
910.692	0.0167132
910.770	0.0168810
910.848	0.0168675
910.926	0.0168513
911.004	0.0168140
911.082	0.0168947
911.160	0.0169446
911.238	0.0168130
911.317	0.0169600
911.395	0.0167972
911.473	0.0168098
911.551	0.0168794
911.629	0.0167924
911.707	0.0168030
911.785	0.0169185
911.863	0.0168272
911.942	0.0166775
912.020	0.0168526
912.098	0.0168165
912.176	0.0166087
912.254	0.0166575
912.332	0.0167062
912.410	0.0165627
912.488	0.0167782
912.567	0.0165721
912.645	0.0164006
912.723	0.0164594
912.801	0.0164979
912.879	0.0164686
912.957	0.0164220
913.035	0.0164443
913.113	0.0162755
913.192	0.0165018
913.270	0.0164725
913.348	0.0162906
913.426	0.0163470
913.504	0.0162898
913.582	0.0163857
913.660	0.0162158
913.738	0.0163951
913.817	0.0163305
913.895	0.0163369
913.973	0.0164070
914.051	0.0164522
914.129	0.0163310
914.207	0.0164669
914.285	0.0164061
914.363	0.0164352
914.442	0.0164832
914.520	0.0163415
914.598	0.0163507
914.676	0.0164219
914.754	0.0164635
914.832	0.0165478
914.910	0.0164688
914.988	0.0165012
915.067	0.0165276
915.145	0.0164287
915.223	0.0163956
915.301	0.0166397
915.379	0.0164981
915.457	0.0165771
915.535	0.0165604
915.613	0.0164887
915.692	0.0165121
915.770	0.0165746
915.848	0.0166025
915.926	0.0165245
916.004	0.0166125
916.082	0.0166508
916.160	0.0166238
916.238	0.0166139
916.317	0.0166314
916.395	0.0165844
916.473	0.0166910
916.551	0.0166869
916.629	0.0165853
916.707	0.0165923
916.785	0.0166407
916.863	0.0165347
916.942	0.0167158
917.020	0.0166474
917.098	0.0165688
917.176	0.0165598
917.254	0.0164417
917.332	0.0166039
917.410	0.0166603
917.488	0.0165821
917.567	0.0166216
917.645	0.0166446
917.723	0.0166125
917.801	0.0166356
917.879	0.0166586
917.957	0.0167624
918.035	0.0165539
918.113	0.0165038
918.192	0.0167420
918.270	0.0167304
918.348	0.0166426
918.426	0.0167622
918.504	0.0167770
918.582	0.0166474
918.660	0.0167097
918.738	0.0167337
918.817	0.0169110
918.895	0.0168740
918.973	0.0167494
919.051	0.0167883
919.129	0.0167811
919.207	0.0167617
919.285	0.0169917
919.363	0.0169767
919.442	0.0168192
919.520	0.0167647
919.598	0.0169035
919.676	0.0168639
919.754	0.0168427
919.832	0.0167607
919.910	0.0166204
