06/01/2022	22:01:48	Ver.	4.1	UNKNOWN
Optical Delay	599.988409	Delta X		0.078125	Sweeps	1	Scan Rate	0/0
Coordinates	Axis 1	NaN	Axis 2	NaN	Axis 3	NaN	Axis 4	NaN	Axis 5	NaN	Axis 6	0.000000
TX Power	0.000000	RX Power	0.000000

599.988	0.0166105
600.067	0.0168407
600.145	0.0167463
600.223	0.0166878
600.301	0.0168288
600.379	0.0167785
600.457	0.0167090
600.535	0.0167986
600.613	0.0166927
600.692	0.0167927
600.770	0.0168748
600.848	0.0167823
600.926	0.0167087
601.004	0.0166814
601.082	0.0166378
601.160	0.0167280
601.238	0.0167456
601.317	0.0165174
601.395	0.0166149
601.473	0.0166105
601.551	0.0167036
601.629	0.0167002
601.707	0.0167551
601.785	0.0167004
601.863	0.0166601
601.942	0.0165971
602.020	0.0167084
602.098	0.0166616
602.176	0.0166566
602.254	0.0165919
602.332	0.0166811
602.410	0.0166062
602.488	0.0167585
602.567	0.0164922
602.645	0.0166222
602.723	0.0166847
602.801	0.0167255
602.879	0.0165933
602.957	0.0166489
603.035	0.0165244
603.113	0.0165607
603.192	0.0166523
603.270	0.0166876
603.348	0.0165668
603.426	0.0166047
603.504	0.0167544
603.582	0.0166898
603.660	0.0166046
603.738	0.0166536
603.817	0.0166829
603.895	0.0165528
603.973	0.0165908
604.051	0.0167536
604.129	0.0166723
604.207	0.0166293
604.285	0.0164408
604.363	0.0166769
604.442	0.0165299
604.520	0.0164760
604.598	0.0165677
604.676	0.0164910
604.754	0.0164468
604.832	0.0165501
604.910	0.0164093
604.988	0.0165141
605.067	0.0166730
605.145	0.0165273
605.223	0.0165408
605.301	0.0165728
605.379	0.0165540
605.457	0.0164646
605.535	0.0163528
605.613	0.0165823
605.692	0.0164864
605.770	0.0165863
605.848	0.0164217
605.926	0.0164369
606.004	0.0164324
606.082	0.0164108
606.160	0.0164807
606.238	0.0164987
606.317	0.0165440
606.395	0.0165829
606.473	0.0164308
606.551	0.0164896
606.629	0.0164800
606.707	0.0164071
606.785	0.0164235
606.863	0.0164490
606.942	0.0165202
607.020	0.0164254
607.098	0.0163397
607.176	0.0165046
607.254	0.0163670
607.332	0.0162734
607.410	0.0164727
607.488	0.0164642
607.567	0.0162755
607.645	0.0164239
607.723	0.0164053
607.801	0.0162460
607.879	0.0163289
607.957	0.0164999
608.035	0.0162458
608.113	0.0164114
608.192	0.0163866
608.270	0.0163289
608.348	0.0163932
608.426	0.0162617
608.504	0.0164820
608.582	0.0164875
608.660	0.0163623
608.738	0.0165231
608.817	0.0164848
608.895	0.0164172
608.973	0.0163706
609.051	0.0163091
609.129	0.0163968
609.207	0.0163302
609.285	0.0163557
609.363	0.0164098
609.442	0.0162273
609.520	0.0163438
609.598	0.0163824
609.676	0.0164320
609.754	0.0163950
609.832	0.0164297
609.910	0.0165293
609.988	0.0164422
610.067	0.0165249
610.145	0.0163826
610.223	0.0163736
610.301	0.0166112
610.379	0.0165159
610.457	0.0164426
610.535	0.0164765
610.613	0.0164587
610.692	0.0163396
610.770	0.0164596
610.848	0.0165522
610.926	0.0164748
611.004	0.0165112
611.082	0.0165111
611.160	0.0165049
611.238	0.0164137
611.317	0.0164910
611.395	0.0164091
611.473	0.0164854
611.551	0.0164254
611.629	0.0164037
611.707	0.0164221
611.785	0.0165023
611.863	0.0164899
611.942	0.0164354
612.020	0.0164455
612.098	0.0164236
612.176	0.0163931
612.254	0.0165651
612.332	0.0165928
612.410	0.0164716
612.488	0.0164919
612.567	0.0165082
612.645	0.0165070
612.723	0.0166118
612.801	0.0165898
612.879	0.0163920
612.957	0.0165543
613.035	0.0165090
613.113	0.0163503
613.192	0.0164592
613.270	0.0164717
613.348	0.0165128
613.426	0.0164902
613.504	0.0165645
613.582	0.0164260
613.660	0.0164346
613.738	0.0164948
613.817	0.0164974
613.895	0.0165703
613.973	0.0165208
614.051	0.0165265
614.129	0.0165240
614.207	0.0164224
614.285	0.0164101
614.363	0.0165922
614.442	0.0165823
614.520	0.0165366
614.598	0.0165711
614.676	0.0166045
614.754	0.0166006
614.832	0.0167396
614.910	0.0165327
614.988	0.0164925
615.067	0.0164727
615.145	0.0165076
615.223	0.0166022
615.301	0.0165107
615.379	0.0165639
615.457	0.0164529
615.535	0.0164786
615.613	0.0166136
615.692	0.0165054
615.770	0.0165072
615.848	0.0163631
615.926	0.0164676
616.004	0.0164079
616.082	0.0164298
616.160	0.0166082
616.238	0.0164796
616.317	0.0164768
616.395	0.0164150
616.473	0.0165495
616.551	0.0166251
616.629	0.0165347
616.707	0.0165720
616.785	0.0165745
616.863	0.0166129
616.942	0.0165675
617.020	0.0167033
617.098	0.0166411
617.176	0.0166320
617.254	0.0164799
617.332	0.0165093
617.410	0.0166971
617.488	0.0166843
617.567	0.0166074
617.645	0.0167438
617.723	0.0165837
617.801	0.0166639
617.879	0.0165481
617.957	0.0166225
618.035	0.0167178
618.113	0.0165512
618.192	0.0166523
618.270	0.0166431
618.348	0.0166827
618.426	0.0166736
618.504	0.0165551
618.582	0.0166607
618.660	0.0167679
618.738	0.0167722
618.817	0.0166370
618.895	0.0167994
618.973	0.0167281
619.051	0.0167336
619.129	0.0166032
619.207	0.0167538
619.285	0.0168206
619.363	0.0168156
619.442	0.0167964
619.520	0.0167948
619.598	0.0167799
619.676	0.0166718
619.754	0.0166869
619.832	0.0167867
619.910	0.0169393
619.988	0.0167226
620.067	0.0166762
620.145	0.0167192
620.223	0.0167747
620.301	0.0166952
620.379	0.0164166
620.457	0.0166966
620.535	0.0166441
620.613	0.0165820
620.692	0.0166798
620.770	0.0166298
620.848	0.0166166
620.926	0.0165240
621.004	0.0166817
621.082	0.0165907
621.160	0.0164852
621.238	0.0166112
621.317	0.0165374
621.395	0.0166963
621.473	0.0164840
621.551	0.0166069
621.629	0.0166313
621.707	0.0167665
621.785	0.0166985
621.863	0.0166792
621.942	0.0166572
622.020	0.0167175
622.098	0.0166161
622.176	0.0166630
622.254	0.0164302
622.332	0.0165477
622.410	0.0164420
622.488	0.0165388
622.567	0.0165234
622.645	0.0166364
622.723	0.0166315
622.801	0.0165025
622.879	0.0166689
622.957	0.0165569
623.035	0.0166252
623.113	0.0163815
623.192	0.0166373
623.270	0.0166138
623.348	0.0167516
623.426	0.0166898
623.504	0.0165668
623.582	0.0166951
623.660	0.0166802
623.738	0.0166227
623.817	0.0166395
623.895	0.0166846
623.973	0.0166676
624.051	0.0166757
624.129	0.0167345
624.207	0.0167225
624.285	0.0165582
624.363	0.0165607
624.442	0.0166930
624.520	0.0166791
624.598	0.0165987
624.676	0.0166313
624.754	0.0165464
624.832	0.0164722
624.910	0.0164645
624.988	0.0164961
625.067	0.0163757
625.145	0.0164368
625.223	0.0165335
625.301	0.0165379
625.379	0.0165143
625.457	0.0164883
625.535	0.0164738
625.613	0.0164785
625.692	0.0163808
625.770	0.0165318
625.848	0.0167142
625.926	0.0165156
626.004	0.0164876
626.082	0.0165884
626.160	0.0166306
626.238	0.0164395
626.317	0.0164597
626.395	0.0165876
626.473	0.0163705
626.551	0.0164145
626.629	0.0164314
626.707	0.0164024
626.785	0.0165347
626.863	0.0165603
626.942	0.0163869
627.020	0.0163705
627.098	0.0164042
627.176	0.0164370
627.254	0.0164385
627.332	0.0164439
627.410	0.0163818
627.488	0.0163914
627.567	0.0163029
627.645	0.0164939
627.723	0.0165323
627.801	0.0163290
627.879	0.0164816
627.957	0.0164382
628.035	0.0164438
628.113	0.0164650
628.192	0.0164678
628.270	0.0163667
628.348	0.0163599
628.426	0.0164394
628.504	0.0165453
628.582	0.0164249
628.660	0.0164120
628.738	0.0165354
628.817	0.0164075
628.895	0.0165299
628.973	0.0164375
629.051	0.0163634
629.129	0.0163951
629.207	0.0165773
629.285	0.0164561
629.363	0.0165427
629.442	0.0164413
629.520	0.0163686
629.598	0.0164562
629.676	0.0163943
629.754	0.0163596
629.832	0.0164886
629.910	0.0164249
629.988	0.0164055
630.067	0.0163739
630.145	0.0163784
630.223	0.0164211
630.301	0.0164371
630.379	0.0162849
630.457	0.0163742
630.535	0.0165292
630.613	0.0164911
630.692	0.0163992
630.770	0.0163530
630.848	0.0163622
630.926	0.0165759
631.004	0.0165951
631.082	0.0165048
631.160	0.0164544
631.238	0.0165829
631.317	0.0164500
631.395	0.0165733
631.473	0.0165064
631.551	0.0163944
631.629	0.0164082
631.707	0.0164993
631.785	0.0164565
631.863	0.0163279
631.942	0.0164407
632.020	0.0164099
632.098	0.0162974
632.176	0.0164240
632.254	0.0163131
632.332	0.0162915
632.410	0.0164809
632.488	0.0164161
632.567	0.0164096
632.645	0.0163775
632.723	0.0163287
632.801	0.0162676
632.879	0.0164983
632.957	0.0164271
633.035	0.0164549
633.113	0.0165525
633.192	0.0164886
633.270	0.0165565
633.348	0.0165798
633.426	0.0164541
633.504	0.0164275
633.582	0.0165987
633.660	0.0164587
633.738	0.0163942
633.817	0.0163616
633.895	0.0163441
633.973	0.0163878
634.051	0.0163169
634.129	0.0162601
634.207	0.0163673
634.285	0.0163061
634.363	0.0162330
634.442	0.0163095
634.520	0.0163078
634.598	0.0165054
634.676	0.0163087
634.754	0.0162671
634.832	0.0162296
634.910	0.0163060
634.988	0.0164633
635.067	0.0164336
635.145	0.0163892
635.223	0.0165439
635.301	0.0164219
635.379	0.0164410
635.457	0.0166233
635.535	0.0165218
635.613	0.0164076
635.692	0.0164185
635.770	0.0164872
635.848	0.0165546
635.926	0.0164133
636.004	0.0165630
636.082	0.0165976
636.160	0.0164209
636.238	0.0164774
636.317	0.0164642
636.395	0.0163992
636.473	0.0162601
636.551	0.0163480
636.629	0.0164817
636.707	0.0165072
636.785	0.0164342
636.863	0.0163564
636.942	0.0164267
637.020	0.0164667
637.098	0.0164981
637.176	0.0164727
637.254	0.0163911
637.332	0.0164177
637.410	0.0164748
637.488	0.0165166
637.567	0.0164182
637.645	0.0165709
637.723	0.0165845
637.801	0.0164033
637.879	0.0164536
637.957	0.0166833
638.035	0.0166393
638.113	0.0165785
638.192	0.0164673
638.270	0.0164038
638.348	0.0164534
638.426	0.0165308
638.504	0.0163569
638.582	0.0164272
638.660	0.0165090
638.738	0.0165459
638.817	0.0164397
638.895	0.0164377
638.973	0.0164567
639.051	0.0163409
639.129	0.0166145
639.207	0.0166479
639.285	0.0166730
639.363	0.0165196
639.442	0.0165346
639.520	0.0166663
639.598	0.0166036
639.676	0.0166491
639.754	0.0166071
639.832	0.0165009
639.910	0.0166260
639.988	0.0165462
640.067	0.0166715
640.145	0.0166446
640.223	0.0165579
640.301	0.0167104
640.379	0.0167535
640.457	0.0165121
640.535	0.0166335
640.613	0.0166570
640.692	0.0167013
640.770	0.0166743
640.848	0.0165517
640.926	0.0164899
641.004	0.0164791
641.082	0.0166254
641.160	0.0165675
641.238	0.0165006
641.317	0.0166962
641.395	0.0166514
641.473	0.0165726
641.551	0.0167268
641.629	0.0167432
641.707	0.0166061
641.785	0.0166022
641.863	0.0167167
641.942	0.0166412
642.020	0.0168392
642.098	0.0166673
642.176	0.0166479
642.254	0.0166482
642.332	0.0167628
642.410	0.0167384
642.488	0.0166631
642.567	0.0166389
642.645	0.0167063
642.723	0.0167167
642.801	0.0165822
642.879	0.0166089
642.957	0.0167512
643.035	0.0167776
643.113	0.0166929
643.192	0.0166511
643.270	0.0166278
643.348	0.0167565
643.426	0.0166512
643.504	0.0165655
643.582	0.0165203
643.660	0.0166624
643.738	0.0165003
643.817	0.0166016
643.895	0.0165581
643.973	0.0165479
644.051	0.0165081
644.129	0.0166274
644.207	0.0165730
644.285	0.0164661
644.363	0.0166578
644.442	0.0165545
644.520	0.0165004
644.598	0.0165397
644.676	0.0165630
644.754	0.0165839
644.832	0.0165726
644.910	0.0166477
644.988	0.0165825
645.067	0.0166155
645.145	0.0166766
645.223	0.0165575
645.301	0.0167044
645.379	0.0164529
645.457	0.0165240
645.535	0.0166346
645.613	0.0166650
645.692	0.0165585
645.770	0.0165411
645.848	0.0165778
645.926	0.0165676
646.004	0.0166863
646.082	0.0165701
646.160	0.0165408
646.238	0.0166089
646.317	0.0166158
646.395	0.0167080
646.473	0.0164790
646.551	0.0165749
646.629	0.0164749
646.707	0.0164846
646.785	0.0165074
646.863	0.0165920
646.942	0.0164896
647.020	0.0165506
647.098	0.0167216
647.176	0.0165118
647.254	0.0164490
647.332	0.0165867
647.410	0.0165401
647.488	0.0164885
647.567	0.0166355
647.645	0.0164764
647.723	0.0165941
647.801	0.0164375
647.879	0.0164994
647.957	0.0164541
648.035	0.0164815
648.113	0.0165147
648.192	0.0164833
648.270	0.0164319
648.348	0.0163995
648.426	0.0163937
648.504	0.0163864
648.582	0.0164925
648.660	0.0164253
648.738	0.0164925
648.817	0.0165779
648.895	0.0166621
648.973	0.0163786
649.051	0.0165403
649.129	0.0164764
649.207	0.0164847
649.285	0.0165085
649.363	0.0164853
649.442	0.0165797
649.520	0.0165674
649.598	0.0165322
649.676	0.0165466
649.754	0.0166024
649.832	0.0165331
649.910	0.0165279
649.988	0.0166180
650.067	0.0164118
650.145	0.0165150
650.223	0.0166586
650.301	0.0165948
650.379	0.0164812
650.457	0.0166167
650.535	0.0164171
650.613	0.0164566
650.692	0.0164899
650.770	0.0164181
650.848	0.0164280
650.926	0.0164933
651.004	0.0163924
651.082	0.0163612
651.160	0.0164362
651.238	0.0162960
651.317	0.0163886
651.395	0.0162586
651.473	0.0163109
651.551	0.0162786
651.629	0.0162521
651.707	0.0162283
651.785	0.0163713
651.863	0.0162794
651.942	0.0162672
652.020	0.0163326
652.098	0.0162728
652.176	0.0163083
652.254	0.0162752
652.332	0.0163343
652.410	0.0163554
652.488	0.0164835
652.567	0.0163214
652.645	0.0163651
652.723	0.0164373
652.801	0.0164130
652.879	0.0164902
652.957	0.0164785
653.035	0.0163874
653.113	0.0165206
653.192	0.0163873
653.270	0.0166024
653.348	0.0165317
653.426	0.0165334
653.504	0.0165900
653.582	0.0166408
653.660	0.0164908
653.738	0.0165039
653.817	0.0164796
653.895	0.0163242
653.973	0.0163574
654.051	0.0164925
654.129	0.0163707
654.207	0.0165688
654.285	0.0164407
654.363	0.0163695
654.442	0.0163824
654.520	0.0164172
654.598	0.0163429
654.676	0.0164551
654.754	0.0163586
654.832	0.0163806
654.910	0.0163545
654.988	0.0163075
655.067	0.0164323
655.145	0.0163681
655.223	0.0162764
655.301	0.0164305
655.379	0.0162254
655.457	0.0162916
655.535	0.0164539
655.613	0.0162672
655.692	0.0164322
655.770	0.0164140
655.848	0.0164558
655.926	0.0163900
656.004	0.0163605
656.082	0.0164027
656.160	0.0162989
656.238	0.0164823
656.317	0.0164494
656.395	0.0163074
656.473	0.0164714
656.551	0.0164773
656.629	0.0163352
656.707	0.0163403
656.785	0.0164531
656.863	0.0163756
656.942	0.0165281
657.020	0.0165028
657.098	0.0164781
657.176	0.0163765
657.254	0.0165009
657.332	0.0165647
657.410	0.0164905
657.488	0.0165009
657.567	0.0166681
657.645	0.0165228
657.723	0.0164729
657.801	0.0165725
657.879	0.0165686
657.957	0.0165821
658.035	0.0164938
658.113	0.0164520
658.192	0.0164278
658.270	0.0164191
658.348	0.0165309
658.426	0.0163497
658.504	0.0162530
658.582	0.0163905
658.660	0.0163441
658.738	0.0164045
658.817	0.0163530
658.895	0.0163244
658.973	0.0162996
659.051	0.0162465
659.129	0.0163850
659.207	0.0162876
659.285	0.0162016
659.363	0.0162299
659.442	0.0163387
659.520	0.0161832
659.598	0.0163298
659.676	0.0163704
659.754	0.0164186
659.832	0.0163204
659.910	0.0164541
659.988	0.0163435
660.067	0.0164232
660.145	0.0164526
660.223	0.0164864
660.301	0.0163883
660.379	0.0164557
660.457	0.0164289
660.535	0.0164952
660.613	0.0164175
660.692	0.0164880
660.770	0.0165726
660.848	0.0164948
660.926	0.0164806
661.004	0.0165576
661.082	0.0164182
661.160	0.0163660
661.238	0.0165106
661.317	0.0165715
661.395	0.0164581
661.473	0.0165368
661.551	0.0166220
661.629	0.0165498
661.707	0.0164852
661.785	0.0166114
661.863	0.0166132
661.942	0.0165163
662.020	0.0165561
662.098	0.0166106
662.176	0.0165619
662.254	0.0166573
662.332	0.0166022
662.410	0.0166698
662.488	0.0167257
662.567	0.0166019
662.645	0.0166164
662.723	0.0166636
662.801	0.0166111
662.879	0.0165755
662.957	0.0166254
663.035	0.0166680
663.113	0.0166246
663.192	0.0166757
663.270	0.0165907
663.348	0.0167047
663.426	0.0165450
663.504	0.0166037
663.582	0.0166889
663.660	0.0166169
663.738	0.0165958
663.817	0.0164805
663.895	0.0167336
663.973	0.0166364
664.051	0.0167132
664.129	0.0167042
664.207	0.0165756
664.285	0.0166097
664.363	0.0166053
664.442	0.0166647
664.520	0.0166747
664.598	0.0165465
664.676	0.0166376
664.754	0.0166834
664.832	0.0165174
664.910	0.0166677
664.988	0.0165278
665.067	0.0165958
665.145	0.0166182
665.223	0.0166778
665.301	0.0166473
665.379	0.0166881
665.457	0.0166806
665.535	0.0167352
665.613	0.0167327
665.692	0.0166737
665.770	0.0165158
665.848	0.0166224
665.926	0.0167532
666.004	0.0166223
666.082	0.0166738
666.160	0.0164608
666.238	0.0166055
666.317	0.0166193
666.395	0.0164348
666.473	0.0165109
666.551	0.0164907
666.629	0.0165496
666.707	0.0165156
666.785	0.0165814
666.863	0.0163809
666.942	0.0164393
667.020	0.0166039
667.098	0.0165076
667.176	0.0165803
667.254	0.0166071
667.332	0.0165780
667.410	0.0164309
667.488	0.0165520
667.567	0.0165791
667.645	0.0166310
667.723	0.0167766
667.801	0.0166739
667.879	0.0167242
667.957	0.0165173
668.035	0.0166309
668.113	0.0166296
668.192	0.0166735
668.270	0.0166187
668.348	0.0167303
668.426	0.0167364
668.504	0.0166652
668.582	0.0164694
668.660	0.0166374
668.738	0.0166795
668.817	0.0165763
668.895	0.0166251
668.973	0.0165726
669.051	0.0166427
669.129	0.0165369
669.207	0.0166093
669.285	0.0166389
669.363	0.0168053
669.442	0.0166949
669.520	0.0165829
669.598	0.0167239
669.676	0.0167214
669.754	0.0167822
669.832	0.0167009
669.910	0.0166277
669.988	0.0165878
670.067	0.0165450
670.145	0.0167184
670.223	0.0166000
670.301	0.0165227
670.379	0.0165655
670.457	0.0166571
670.535	0.0165216
670.613	0.0164420
670.692	0.0164769
670.770	0.0164314
670.848	0.0166441
670.926	0.0165908
671.004	0.0165104
671.082	0.0164065
671.160	0.0164504
671.238	0.0165054
671.317	0.0165303
671.395	0.0165317
671.473	0.0166164
671.551	0.0166162
671.629	0.0166057
671.707	0.0165763
671.785	0.0167190
671.863	0.0165371
671.942	0.0165939
672.020	0.0166103
672.098	0.0164643
672.176	0.0165363
672.254	0.0167474
672.332	0.0168446
672.410	0.0166657
672.488	0.0165536
672.567	0.0166772
672.645	0.0167094
672.723	0.0165638
672.801	0.0166808
672.879	0.0165888
672.957	0.0166373
673.035	0.0166064
673.113	0.0166480
673.192	0.0164698
673.270	0.0164729
673.348	0.0165409
673.426	0.0164324
673.504	0.0165578
673.582	0.0165194
673.660	0.0164375
673.738	0.0165917
673.817	0.0165675
673.895	0.0165051
673.973	0.0166115
674.051	0.0166749
674.129	0.0168284
674.207	0.0167872
674.285	0.0166658
674.363	0.0166873
674.442	0.0167423
674.520	0.0168205
674.598	0.0168214
674.676	0.0166028
674.754	0.0165771
674.832	0.0165602
674.910	0.0165080
674.988	0.0164103
675.067	0.0164146
675.145	0.0163770
675.223	0.0163261
675.301	0.0163111
675.379	0.0161179
675.457	0.0163103
675.535	0.0160198
675.613	0.0162309
675.692	0.0162067
675.770	0.0161943
675.848	0.0161907
675.926	0.0162875
676.004	0.0162502
676.082	0.0163869
676.160	0.0164459
676.238	0.0164510
676.317	0.0165102
676.395	0.0165704
676.473	0.0167212
676.551	0.0166244
676.629	0.0167623
676.707	0.0168079
676.785	0.0168725
676.863	0.0169380
676.942	0.0170625
677.020	0.0169852
677.098	0.0166875
677.176	0.0169719
677.254	0.0167963
677.332	0.0167924
677.410	0.0168330
677.488	0.0166515
677.567	0.0165224
677.645	0.0166326
677.723	0.0164848
677.801	0.0163776
677.879	0.0163586
677.957	0.0162674
678.035	0.0162029
678.113	0.0160782
678.192	0.0159752
678.270	0.0162498
678.348	0.0161634
678.426	0.0160977
678.504	0.0161887
678.582	0.0162653
678.660	0.0164034
678.738	0.0163792
678.817	0.0164806
678.895	0.0165905
678.973	0.0165622
679.051	0.0166598
679.129	0.0168729
679.207	0.0168906
679.285	0.0168982
679.363	0.0168935
679.442	0.0168713
679.520	0.0168742
679.598	0.0168159
679.676	0.0167744
679.754	0.0167767
679.832	0.0168669
679.910	0.0165871
679.988	0.0164619
680.067	0.0165446
680.145	0.0163875
680.223	0.0162098
680.301	0.0161674
680.379	0.0161160
680.457	0.0159711
680.535	0.0159249
680.613	0.0158219
680.692	0.0158400
680.770	0.0159219
680.848	0.0160516
680.926	0.0159544
681.004	0.0160278
681.082	0.0162000
681.160	0.0163152
681.238	0.0164259
681.317	0.0166179
681.395	0.0167589
681.473	0.0168430
681.551	0.0168217
681.629	0.0169469
681.707	0.0171772
681.785	0.0173101
681.863	0.0171877
681.942	0.0171842
682.020	0.0170314
682.098	0.0173093
682.176	0.0174222
682.254	0.0171936
682.332	0.0171204
682.410	0.0170210
682.488	0.0170145
682.567	0.0171866
682.645	0.0169245
682.723	0.0168848
682.801	0.0166283
682.879	0.0165953
682.957	0.0165999
683.035	0.0163936
683.113	0.0163755
683.192	0.0161843
683.270	0.0160228
683.348	0.0159689
683.426	0.0157973
683.504	0.0157175
683.582	0.0155579
683.660	0.0154812
683.738	0.0153842
683.817	0.0154078
683.895	0.0154229
683.973	0.0154309
684.051	0.0153655
684.129	0.0154717
684.207	0.0155575
684.285	0.0155970
684.363	0.0157117
684.442	0.0156148
684.520	0.0157281
684.598	0.0159447
684.676	0.0160815
684.754	0.0163876
684.832	0.0166148
684.910	0.0167774
684.988	0.0168935
685.067	0.0171577
685.145	0.0173122
685.223	0.0174226
685.301	0.0176890
685.379	0.0177067
685.457	0.0178302
685.535	0.0178295
685.613	0.0178661
685.692	0.0179409
685.770	0.0179337
685.848	0.0177872
685.926	0.0176794
686.004	0.0176994
686.082	0.0176011
686.160	0.0173873
686.238	0.0171538
686.317	0.0171029
686.395	0.0169164
686.473	0.0167171
686.551	0.0167149
686.629	0.0164010
686.707	0.0162904
686.785	0.0160899
686.863	0.0158831
686.942	0.0156945
687.020	0.0154424
687.098	0.0153112
687.176	0.0152227
687.254	0.0152054
687.332	0.0152235
687.410	0.0150153
687.488	0.0149385
687.567	0.0151346
687.645	0.0152530
687.723	0.0152276
687.801	0.0152015
687.879	0.0151708
687.957	0.0155163
688.035	0.0155839
688.113	0.0155688
688.192	0.0158152
688.270	0.0158566
688.348	0.0160146
688.426	0.0159786
688.504	0.0162147
688.582	0.0164217
688.660	0.0165093
688.738	0.0165881
688.817	0.0168016
688.895	0.0168855
688.973	0.0168704
689.051	0.0168559
689.129	0.0169355
689.207	0.0171709
689.285	0.0173088
689.363	0.0173749
689.442	0.0173147
689.520	0.0173481
689.598	0.0173767
689.676	0.0174929
689.754	0.0176382
689.832	0.0176807
689.910	0.0177837
689.988	0.0178397
690.067	0.0178803
690.145	0.0179819
690.223	0.0179997
690.301	0.0179706
690.379	0.0179896
690.457	0.0180857
690.535	0.0180270
690.613	0.0179203
690.692	0.0177921
690.770	0.0176010
690.848	0.0174976
690.926	0.0174610
691.004	0.0172666
691.082	0.0170056
691.160	0.0167473
691.238	0.0166248
691.317	0.0161884
691.395	0.0160618
691.473	0.0158631
691.551	0.0155744
691.629	0.0155246
691.707	0.0152977
691.785	0.0152508
691.863	0.0152699
691.942	0.0152592
692.020	0.0149561
692.098	0.0149200
692.176	0.0149396
692.254	0.0151723
692.332	0.0153227
692.410	0.0153365
692.488	0.0152379
692.567	0.0153941
692.645	0.0155117
692.723	0.0155600
692.801	0.0157747
692.879	0.0157195
692.957	0.0157533
693.035	0.0159766
693.113	0.0159610
693.192	0.0161671
693.270	0.0161346
693.348	0.0162389
693.426	0.0165800
693.504	0.0165855
693.582	0.0166816
693.660	0.0167642
693.738	0.0171230
693.817	0.0172279
693.895	0.0173400
693.973	0.0175182
694.051	0.0177644
694.129	0.0177930
694.207	0.0182161
694.285	0.0182239
694.363	0.0183335
694.442	0.0183344
694.520	0.0185050
694.598	0.0186318
694.676	0.0185573
694.754	0.0185186
694.832	0.0185755
694.910	0.0185805
694.988	0.0185688
695.067	0.0183767
695.145	0.0181158
695.223	0.0180456
695.301	0.0179136
695.379	0.0178117
695.457	0.0176117
695.535	0.0175090
695.613	0.0173335
695.692	0.0170305
695.770	0.0168439
695.848	0.0166371
695.926	0.0164254
696.004	0.0160569
696.082	0.0156970
696.160	0.0156706
696.238	0.0152811
696.317	0.0152209
696.395	0.0148595
696.473	0.0144928
696.551	0.0145046
696.629	0.0144138
696.707	0.0143004
696.785	0.0141295
696.863	0.0139944
696.942	0.0140755
697.020	0.0141774
697.098	0.0140568
697.176	0.0140668
697.254	0.0145000
697.332	0.0145531
697.410	0.0147643
697.488	0.0149237
697.567	0.0152513
697.645	0.0156177
697.723	0.0156935
697.801	0.0161852
697.879	0.0166263
697.957	0.0168182
698.035	0.0171847
698.113	0.0174822
698.192	0.0177090
698.270	0.0179101
698.348	0.0181386
698.426	0.0181631
698.504	0.0184686
698.582	0.0187684
698.660	0.0187215
698.738	0.0188776
698.817	0.0189263
698.895	0.0187823
698.973	0.0189722
699.051	0.0189407
699.129	0.0188538
699.207	0.0186530
699.285	0.0185242
699.363	0.0183447
699.442	0.0182083
699.520	0.0179971
699.598	0.0178293
699.676	0.0175111
699.754	0.0173229
699.832	0.0170966
699.910	0.0167848
699.988	0.0164729
700.067	0.0162524
700.145	0.0160394
700.223	0.0160084
700.301	0.0157761
700.379	0.0155943
700.457	0.0155630
700.535	0.0154689
700.613	0.0153875
700.692	0.0153198
700.770	0.0153082
700.848	0.0153184
700.926	0.0151734
701.004	0.0151557
701.082	0.0151652
701.160	0.0153513
701.238	0.0153300
701.317	0.0151128
701.395	0.0151455
701.473	0.0151148
701.551	0.0150732
701.629	0.0150262
701.707	0.0149080
701.785	0.0148721
701.863	0.0148680
701.942	0.0147589
702.020	0.0148993
702.098	0.0150752
702.176	0.0152044
702.254	0.0152176
702.332	0.0151962
702.410	0.0153570
702.488	0.0154643
702.567	0.0154990
702.645	0.0158387
702.723	0.0161221
702.801	0.0163071
702.879	0.0163965
702.957	0.0167870
703.035	0.0171906
703.113	0.0174319
703.192	0.0176497
703.270	0.0178672
703.348	0.0181959
703.426	0.0183974
703.504	0.0186353
703.582	0.0188457
703.660	0.0188413
703.738	0.0189055
703.817	0.0188866
703.895	0.0189324
703.973	0.0188136
704.051	0.0186664
704.129	0.0186092
704.207	0.0184512
704.285	0.0182244
704.363	0.0181040
704.442	0.0177151
704.520	0.0174441
704.598	0.0173388
704.676	0.0172702
704.754	0.0169158
704.832	0.0166982
704.910	0.0163601
704.988	0.0160580
705.067	0.0159219
705.145	0.0157230
705.223	0.0155759
705.301	0.0153310
705.379	0.0150644
705.457	0.0149931
705.535	0.0149007
705.613	0.0146626
705.692	0.0146841
705.770	0.0146416
705.848	0.0146971
705.926	0.0146899
706.004	0.0147536
706.082	0.0148271
706.160	0.0150204
706.238	0.0151654
706.317	0.0152479
706.395	0.0153692
706.473	0.0155812
706.551	0.0158865
706.629	0.0161662
706.707	0.0162371
706.785	0.0164424
706.863	0.0167331
706.942	0.0168359
707.020	0.0167876
707.098	0.0169515
707.176	0.0170026
707.254	0.0170353
707.332	0.0170452
707.410	0.0169788
707.488	0.0170960
707.567	0.0171190
707.645	0.0169654
707.723	0.0168867
707.801	0.0168442
707.879	0.0169010
707.957	0.0169030
708.035	0.0169720
708.113	0.0168589
708.192	0.0168641
708.270	0.0169376
708.348	0.0168124
708.426	0.0167448
708.504	0.0167283
708.582	0.0166668
708.660	0.0166522
708.738	0.0166079
708.817	0.0167156
708.895	0.0164423
708.973	0.0164509
709.051	0.0164783
709.129	0.0163811
709.207	0.0165367
709.285	0.0163941
709.363	0.0164365
709.442	0.0165385
709.520	0.0165166
709.598	0.0165688
709.676	0.0166044
709.754	0.0168356
709.832	0.0169255
709.910	0.0169566
709.988	0.0169821
710.067	0.0171773
710.145	0.0171943
710.223	0.0172083
710.301	0.0171374
710.379	0.0173087
710.457	0.0172703
710.535	0.0172173
710.613	0.0172520
710.692	0.0172195
710.770	0.0171220
710.848	0.0168890
710.926	0.0167260
711.004	0.0165942
711.082	0.0165040
711.160	0.0164336
711.238	0.0162603
711.317	0.0160435
711.395	0.0161156
711.473	0.0160081
711.551	0.0159557
711.629	0.0160495
711.707	0.0160851
711.785	0.0160567
711.863	0.0161170
711.942	0.0161427
712.020	0.0162037
712.098	0.0162923
712.176	0.0163985
712.254	0.0163918
712.332	0.0163766
712.410	0.0164891
712.488	0.0164711
712.567	0.0164679
712.645	0.0164371
712.723	0.0163389
712.801	0.0163048
712.879	0.0162238
712.957	0.0162183
713.035	0.0160620
713.113	0.0160323
713.192	0.0159397
713.270	0.0158617
713.348	0.0159007
713.426	0.0158636
713.504	0.0160492
713.582	0.0161491
713.660	0.0161268
713.738	0.0161649
713.817	0.0163662
713.895	0.0164527
713.973	0.0164429
714.051	0.0165079
714.129	0.0166142
714.207	0.0167825
714.285	0.0168347
714.363	0.0167701
714.442	0.0170126
714.520	0.0170499
714.598	0.0169935
714.676	0.0169166
714.754	0.0170574
714.832	0.0172308
714.910	0.0171264
714.988	0.0170280
715.067	0.0170887
715.145	0.0171805
715.223	0.0172752
715.301	0.0172884
715.379	0.0173318
715.457	0.0173627
715.535	0.0173673
715.613	0.0174183
715.692	0.0175079
715.770	0.0175994
715.848	0.0175134
715.926	0.0175778
716.004	0.0174448
716.082	0.0174278
716.160	0.0174548
716.238	0.0172994
716.317	0.0172662
716.395	0.0171175
716.473	0.0168666
716.551	0.0169469
716.629	0.0168213
716.707	0.0166783
716.785	0.0163708
716.863	0.0161387
716.942	0.0161297
717.020	0.0159981
717.098	0.0158376
717.176	0.0158993
717.254	0.0156516
717.332	0.0157269
717.410	0.0155345
717.488	0.0156978
717.567	0.0156763
717.645	0.0156945
717.723	0.0157657
717.801	0.0157467
717.879	0.0158354
717.957	0.0159604
718.035	0.0159492
718.113	0.0160398
718.192	0.0161636
718.270	0.0161024
718.348	0.0161669
718.426	0.0162485
718.504	0.0163379
718.582	0.0163161
718.660	0.0162399
718.738	0.0164544
718.817	0.0165800
718.895	0.0166831
718.973	0.0165810
719.051	0.0167693
719.129	0.0166366
719.207	0.0166646
719.285	0.0167402
719.363	0.0165803
719.442	0.0167234
719.520	0.0168129
719.598	0.0166921
719.676	0.0167762
719.754	0.0167550
719.832	0.0165889
719.910	0.0166521
719.988	0.0165872
720.067	0.0165652
720.145	0.0165855
720.223	0.0165442
720.301	0.0165460
720.379	0.0165195
720.457	0.0165341
720.535	0.0165141
720.613	0.0164840
720.692	0.0165289
720.770	0.0165303
720.848	0.0166542
720.926	0.0164988
721.004	0.0165345
721.082	0.0165392
721.160	0.0165485
721.238	0.0166236
721.317	0.0167911
721.395	0.0168362
721.473	0.0170973
721.551	0.0169380
721.629	0.0170323
721.707	0.0171422
721.785	0.0171900
721.863	0.0173793
721.942	0.0174165
722.020	0.0173321
722.098	0.0172846
722.176	0.0172401
722.254	0.0172091
722.332	0.0171056
722.410	0.0171346
722.488	0.0169226
722.567	0.0167396
722.645	0.0164975
722.723	0.0163955
722.801	0.0164114
722.879	0.0160273
722.957	0.0158511
723.035	0.0156927
723.113	0.0155824
723.192	0.0155164
723.270	0.0153420
723.348	0.0152541
723.426	0.0152457
723.504	0.0150563
723.582	0.0150512
723.660	0.0149999
723.738	0.0150861
723.817	0.0150166
723.895	0.0151581
723.973	0.0152391
724.051	0.0152914
724.129	0.0154158
724.207	0.0157046
724.285	0.0156882
724.363	0.0157253
724.442	0.0159026
724.520	0.0159702
724.598	0.0160081
724.676	0.0162798
724.754	0.0162608
724.832	0.0162836
724.910	0.0162936
724.988	0.0163899
725.067	0.0164906
725.145	0.0164846
725.223	0.0164723
725.301	0.0165023
725.379	0.0165167
725.457	0.0165613
725.535	0.0164116
725.613	0.0163932
725.692	0.0165893
725.770	0.0165011
725.848	0.0167168
725.926	0.0166523
726.004	0.0167525
726.082	0.0167200
726.160	0.0166765
726.238	0.0168204
726.317	0.0168523
726.395	0.0168620
726.473	0.0170019
726.551	0.0170811
726.629	0.0170507
726.707	0.0172128
726.785	0.0170739
726.863	0.0171460
726.942	0.0172330
727.020	0.0170847
727.098	0.0171037
727.176	0.0172516
727.254	0.0173006
727.332	0.0172869
727.410	0.0171255
727.488	0.0171289
727.567	0.0171127
727.645	0.0171762
727.723	0.0172868
727.801	0.0170276
727.879	0.0168364
727.957	0.0169215
728.035	0.0167770
728.113	0.0168252
728.192	0.0167398
728.270	0.0167455
728.348	0.0166097
728.426	0.0166714
728.504	0.0165427
728.582	0.0164574
728.660	0.0164566
728.738	0.0164452
728.817	0.0163918
728.895	0.0164902
728.973	0.0162397
729.051	0.0162016
729.129	0.0163243
729.207	0.0162844
729.285	0.0161823
729.363	0.0163857
729.442	0.0162750
729.520	0.0162273
729.598	0.0161408
729.676	0.0160848
729.754	0.0162318
729.832	0.0161102
729.910	0.0161074
729.988	0.0160831
730.067	0.0160124
730.145	0.0161357
730.223	0.0159015
730.301	0.0159473
730.379	0.0159302
730.457	0.0158239
730.535	0.0157590
730.613	0.0158227
730.692	0.0157924
730.770	0.0158475
730.848	0.0159303
730.926	0.0160209
731.004	0.0159229
731.082	0.0159206
731.160	0.0160560
731.238	0.0159859
731.317	0.0162067
731.395	0.0161799
731.473	0.0163583
731.551	0.0164803
731.629	0.0163975
731.707	0.0164816
731.785	0.0165118
731.863	0.0165385
731.942	0.0167095
732.020	0.0167786
732.098	0.0166740
732.176	0.0168415
732.254	0.0169170
732.332	0.0167514
732.410	0.0169392
732.488	0.0169356
732.567	0.0169160
732.645	0.0168558
732.723	0.0169604
732.801	0.0169521
732.879	0.0168938
732.957	0.0169573
733.035	0.0169195
733.113	0.0169793
733.192	0.0169547
733.270	0.0169579
733.348	0.0169862
733.426	0.0170459
733.504	0.0170818
733.582	0.0171392
733.660	0.0171231
733.738	0.0170876
733.817	0.0172363
733.895	0.0173231
733.973	0.0173287
734.051	0.0172324
734.129	0.0172459
734.207	0.0173306
734.285	0.0173380
734.363	0.0173605
734.442	0.0171928
734.520	0.0171081
734.598	0.0171387
734.676	0.0169577
734.754	0.0169941
734.832	0.0168293
734.910	0.0167119
734.988	0.0166663
735.067	0.0165771
735.145	0.0165565
735.223	0.0165080
735.301	0.0163330
735.379	0.0163226
735.457	0.0163769
735.535	0.0162490
735.613	0.0162522
735.692	0.0162374
735.770	0.0163517
735.848	0.0161744
735.926	0.0161058
736.004	0.0161138
736.082	0.0161858
736.160	0.0161373
736.238	0.0161279
736.317	0.0161314
736.395	0.0162512
736.473	0.0161262
736.551	0.0161206
736.629	0.0161395
736.707	0.0161724
736.785	0.0159947
736.863	0.0161433
736.942	0.0161412
737.020	0.0160950
737.098	0.0159063
737.176	0.0158618
737.254	0.0161049
737.332	0.0160711
737.410	0.0159454
737.488	0.0161686
737.567	0.0161884
737.645	0.0162014
737.723	0.0162740
737.801	0.0162022
737.879	0.0162158
737.957	0.0163628
738.035	0.0165610
738.113	0.0164542
738.192	0.0164959
738.270	0.0166000
738.348	0.0165289
738.426	0.0164674
738.504	0.0165668
738.582	0.0166602
738.660	0.0166525
738.738	0.0165720
738.817	0.0167315
738.895	0.0166652
738.973	0.0167201
739.051	0.0166331
739.129	0.0166541
739.207	0.0167086
739.285	0.0167793
739.363	0.0167416
739.442	0.0168350
739.520	0.0168960
739.598	0.0166853
739.676	0.0167737
739.754	0.0168497
739.832	0.0166275
739.910	0.0168993
739.988	0.0168537
740.067	0.0169209
740.145	0.0170026
740.223	0.0168982
740.301	0.0169092
740.379	0.0170092
740.457	0.0169962
740.535	0.0170264
740.613	0.0170538
740.692	0.0170020
740.770	0.0169957
740.848	0.0169444
740.926	0.0169687
741.004	0.0170115
741.082	0.0168572
741.160	0.0168262
741.238	0.0168004
741.317	0.0166969
741.395	0.0167279
741.473	0.0165633
741.551	0.0164117
741.629	0.0164001
741.707	0.0163721
741.785	0.0164333
741.863	0.0164755
741.942	0.0164133
742.020	0.0162829
742.098	0.0163896
742.176	0.0163189
742.254	0.0161716
742.332	0.0161522
742.410	0.0161201
742.488	0.0160831
742.567	0.0159460
742.645	0.0160186
742.723	0.0158026
742.801	0.0158401
742.879	0.0157959
742.957	0.0159057
743.035	0.0157440
743.113	0.0158173
743.192	0.0159380
743.270	0.0158162
743.348	0.0157994
743.426	0.0159387
743.504	0.0159973
743.582	0.0160355
743.660	0.0159460
743.738	0.0159052
743.817	0.0159266
743.895	0.0160159
743.973	0.0160464
744.051	0.0159554
744.129	0.0158916
744.207	0.0160542
744.285	0.0159490
744.363	0.0159011
744.442	0.0159198
744.520	0.0160095
744.598	0.0161694
744.676	0.0159962
744.754	0.0160236
744.832	0.0160934
744.910	0.0161398
744.988	0.0161522
745.067	0.0164938
745.145	0.0165567
745.223	0.0165003
745.301	0.0166053
745.379	0.0168373
745.457	0.0167856
745.535	0.0168730
745.613	0.0168381
745.692	0.0168773
745.770	0.0169786
745.848	0.0169106
745.926	0.0168569
746.004	0.0168214
746.082	0.0169020
746.160	0.0170042
746.238	0.0167833
746.317	0.0167622
746.395	0.0168333
746.473	0.0168888
746.551	0.0168623
746.629	0.0168716
746.707	0.0168427
746.785	0.0169524
746.863	0.0169592
746.942	0.0169637
747.020	0.0170979
747.098	0.0169827
747.176	0.0172249
747.254	0.0172612
747.332	0.0171794
747.410	0.0172345
747.488	0.0173428
747.567	0.0172662
747.645	0.0172787
747.723	0.0172070
747.801	0.0173016
747.879	0.0173704
747.957	0.0172805
748.035	0.0171106
748.113	0.0170983
748.192	0.0170298
748.270	0.0171043
748.348	0.0169259
748.426	0.0168080
748.504	0.0167133
748.582	0.0167889
748.660	0.0165594
748.738	0.0164400
748.817	0.0164426
748.895	0.0163916
748.973	0.0161078
749.051	0.0162327
749.129	0.0160893
749.207	0.0160117
749.285	0.0160271
749.363	0.0158228
749.442	0.0158402
749.520	0.0159385
749.598	0.0158900
749.676	0.0159352
749.754	0.0160060
749.832	0.0159460
749.910	0.0160798
749.988	0.0163024
750.067	0.0163843
750.145	0.0164548
750.223	0.0164520
750.301	0.0164635
750.379	0.0165888
750.457	0.0166013
750.535	0.0165862
750.613	0.0165005
750.692	0.0166531
750.770	0.0166101
750.848	0.0165591
750.926	0.0164177
751.004	0.0163768
751.082	0.0163210
751.160	0.0163326
751.238	0.0161842
751.317	0.0162727
751.395	0.0161974
751.473	0.0162861
751.551	0.0163235
751.629	0.0162880
751.707	0.0162582
751.785	0.0162894
751.863	0.0164268
751.942	0.0164516
752.020	0.0164287
752.098	0.0164170
752.176	0.0166880
752.254	0.0166245
752.332	0.0166489
752.410	0.0167593
752.488	0.0165555
752.567	0.0165826
752.645	0.0167635
752.723	0.0168406
752.801	0.0166778
752.879	0.0166065
752.957	0.0166768
753.035	0.0166958
753.113	0.0165244
753.192	0.0165215
753.270	0.0166302
753.348	0.0164931
753.426	0.0165622
753.504	0.0164034
753.582	0.0164768
753.660	0.0166039
753.738	0.0165714
753.817	0.0166972
753.895	0.0166895
753.973	0.0168255
754.051	0.0169334
754.129	0.0168102
754.207	0.0168674
754.285	0.0169082
754.363	0.0169653
754.442	0.0169650
754.520	0.0169755
754.598	0.0168458
754.676	0.0169699
754.754	0.0169964
754.832	0.0169115
754.910	0.0170119
754.988	0.0167736
755.067	0.0167129
755.145	0.0168507
755.223	0.0167717
755.301	0.0167162
755.379	0.0166183
755.457	0.0163660
755.535	0.0164272
755.613	0.0165493
755.692	0.0163390
755.770	0.0163454
755.848	0.0163686
755.926	0.0163623
756.004	0.0162704
756.082	0.0161427
756.160	0.0162907
756.238	0.0160782
756.317	0.0160803
756.395	0.0162210
756.473	0.0162461
756.551	0.0160460
756.629	0.0161335
756.707	0.0162255
756.785	0.0161878
756.863	0.0162772
756.942	0.0161729
757.020	0.0162756
757.098	0.0161836
757.176	0.0162934
757.254	0.0163631
757.332	0.0162981
757.410	0.0163053
757.488	0.0161896
757.567	0.0163255
757.645	0.0163218
757.723	0.0164453
757.801	0.0163728
757.879	0.0164229
757.957	0.0164285
758.035	0.0165173
758.113	0.0165025
758.192	0.0164765
758.270	0.0163459
758.348	0.0165336
758.426	0.0164322
758.504	0.0164780
758.582	0.0165004
758.660	0.0166128
758.738	0.0166682
758.817	0.0165872
758.895	0.0165836
758.973	0.0165843
759.051	0.0167550
759.129	0.0168121
759.207	0.0166808
759.285	0.0167580
759.363	0.0167513
759.442	0.0167648
759.520	0.0168994
759.598	0.0168643
759.676	0.0168169
759.754	0.0168708
759.832	0.0167083
759.910	0.0167607
759.988	0.0169261
760.067	0.0168054
760.145	0.0169070
760.223	0.0167556
760.301	0.0168413
760.379	0.0167114
760.457	0.0168926
760.535	0.0167175
760.613	0.0166177
760.692	0.0166296
760.770	0.0166515
760.848	0.0165652
760.926	0.0166688
761.004	0.0166187
761.082	0.0165809
761.160	0.0164764
761.238	0.0167493
761.317	0.0167429
761.395	0.0167462
761.473	0.0168566
761.551	0.0166850
761.629	0.0167771
761.707	0.0167654
761.785	0.0167493
761.863	0.0166920
761.942	0.0166079
762.020	0.0167727
762.098	0.0168048
762.176	0.0166880
762.254	0.0168071
762.332	0.0167290
762.410	0.0168649
762.488	0.0168878
762.567	0.0167850
762.645	0.0169169
762.723	0.0168337
762.801	0.0168539
762.879	0.0167426
762.957	0.0167688
763.035	0.0166301
763.113	0.0164783
763.192	0.0165311
763.270	0.0165924
763.348	0.0165671
763.426	0.0163325
763.504	0.0164796
763.582	0.0164809
763.660	0.0165313
763.738	0.0165214
763.817	0.0165314
763.895	0.0163624
763.973	0.0164758
764.051	0.0164581
764.129	0.0163586
764.207	0.0163545
764.285	0.0163671
764.363	0.0163032
764.442	0.0162476
764.520	0.0162445
764.598	0.0162074
764.676	0.0162766
764.754	0.0163449
764.832	0.0161821
764.910	0.0161316
764.988	0.0163094
765.067	0.0164251
765.145	0.0163072
765.223	0.0163016
765.301	0.0163934
765.379	0.0164343
765.457	0.0166210
765.535	0.0164030
765.613	0.0162305
765.692	0.0163757
765.770	0.0163732
765.848	0.0164330
765.926	0.0161861
766.004	0.0161501
766.082	0.0162216
766.160	0.0161497
766.238	0.0160055
766.317	0.0161311
766.395	0.0161051
766.473	0.0162332
766.551	0.0162277
766.629	0.0161933
766.707	0.0160797
766.785	0.0162445
766.863	0.0162516
766.942	0.0162904
767.020	0.0164695
767.098	0.0164394
767.176	0.0165515
767.254	0.0166152
767.332	0.0164827
767.410	0.0163629
767.488	0.0165661
767.567	0.0165380
767.645	0.0165951
767.723	0.0166525
767.801	0.0165872
767.879	0.0167971
767.957	0.0167393
768.035	0.0165607
768.113	0.0167355
768.192	0.0166566
768.270	0.0166922
768.348	0.0168797
768.426	0.0168283
768.504	0.0166917
768.582	0.0167385
768.660	0.0166827
768.738	0.0168057
768.817	0.0167166
768.895	0.0167239
768.973	0.0168259
769.051	0.0168649
769.129	0.0166746
769.207	0.0167045
769.285	0.0167091
769.363	0.0167101
769.442	0.0166482
769.520	0.0166124
769.598	0.0165923
769.676	0.0166016
769.754	0.0165989
769.832	0.0165266
769.910	0.0164967
769.988	0.0165107
770.067	0.0164107
770.145	0.0163992
770.223	0.0162372
770.301	0.0162794
770.379	0.0162489
770.457	0.0162874
770.535	0.0162565
770.613	0.0162904
770.692	0.0162825
770.770	0.0164188
770.848	0.0163828
770.926	0.0163594
771.004	0.0164164
771.082	0.0164072
771.160	0.0165192
771.238	0.0165429
771.317	0.0164790
771.395	0.0165011
771.473	0.0165928
771.551	0.0164989
771.629	0.0165109
771.707	0.0164226
771.785	0.0166676
771.863	0.0164204
771.942	0.0165456
772.020	0.0164826
772.098	0.0165228
772.176	0.0165520
772.254	0.0164101
772.332	0.0163526
772.410	0.0165324
772.488	0.0163705
772.567	0.0164130
772.645	0.0164449
772.723	0.0164915
772.801	0.0164967
772.879	0.0164552
772.957	0.0164661
773.035	0.0164949
773.113	0.0164155
773.192	0.0163519
773.270	0.0164520
773.348	0.0164727
773.426	0.0165197
773.504	0.0164443
773.582	0.0166575
773.660	0.0167463
773.738	0.0165895
773.817	0.0166200
773.895	0.0166673
773.973	0.0167171
774.051	0.0168893
774.129	0.0167897
774.207	0.0167882
774.285	0.0167355
774.363	0.0167732
774.442	0.0167988
774.520	0.0168713
774.598	0.0167531
774.676	0.0167834
774.754	0.0167689
774.832	0.0168713
774.910	0.0167905
774.988	0.0167128
775.067	0.0168901
775.145	0.0167876
775.223	0.0166792
775.301	0.0167000
775.379	0.0168451
775.457	0.0167504
775.535	0.0167067
775.613	0.0167694
775.692	0.0167160
775.770	0.0167242
775.848	0.0167554
775.926	0.0167977
776.004	0.0167178
776.082	0.0167461
776.160	0.0167021
776.238	0.0166984
776.317	0.0165725
776.395	0.0165239
776.473	0.0165611
776.551	0.0164751
776.629	0.0166330
776.707	0.0165945
776.785	0.0166112
776.863	0.0164503
776.942	0.0164536
777.020	0.0165777
777.098	0.0164075
777.176	0.0164274
777.254	0.0166392
777.332	0.0165216
777.410	0.0166462
777.488	0.0164848
777.567	0.0164693
777.645	0.0165027
777.723	0.0164823
777.801	0.0165809
777.879	0.0164841
777.957	0.0164885
778.035	0.0164962
778.113	0.0164278
778.192	0.0163962
778.270	0.0165266
778.348	0.0164898
778.426	0.0164499
778.504	0.0165297
778.582	0.0165331
778.660	0.0165878
778.738	0.0165058
778.817	0.0164510
778.895	0.0166197
778.973	0.0165300
779.051	0.0165547
779.129	0.0166030
779.207	0.0164922
779.285	0.0164908
779.363	0.0166796
779.442	0.0166263
779.520	0.0164786
779.598	0.0166331
779.676	0.0163233
779.754	0.0163891
779.832	0.0164154
779.910	0.0164409
779.988	0.0163652
780.067	0.0162431
780.145	0.0162413
780.223	0.0161488
780.301	0.0160653
780.379	0.0160358
780.457	0.0159975
780.535	0.0160244
780.613	0.0160923
780.692	0.0160310
780.770	0.0159904
780.848	0.0160471
780.926	0.0161027
781.004	0.0161437
781.082	0.0160115
781.160	0.0160970
781.238	0.0162095
781.317	0.0161903
781.395	0.0163314
781.473	0.0162756
781.551	0.0162703
781.629	0.0163326
781.707	0.0163152
781.785	0.0162879
781.863	0.0163363
781.942	0.0163818
782.020	0.0163106
782.098	0.0162058
782.176	0.0162936
782.254	0.0162432
782.332	0.0163756
782.410	0.0162400
782.488	0.0163305
782.567	0.0162560
782.645	0.0163485
782.723	0.0163574
782.801	0.0164288
782.879	0.0163832
782.957	0.0163918
783.035	0.0164074
783.113	0.0164074
783.192	0.0163573
783.270	0.0166212
783.348	0.0165999
783.426	0.0164233
783.504	0.0165012
783.582	0.0166094
783.660	0.0164953
783.738	0.0165172
783.817	0.0165622
783.895	0.0164853
783.973	0.0164429
784.051	0.0164598
784.129	0.0165717
784.207	0.0165372
784.285	0.0164787
784.363	0.0165539
784.442	0.0164642
784.520	0.0164583
784.598	0.0166103
784.676	0.0165944
784.754	0.0167171
784.832	0.0166171
784.910	0.0165014
784.988	0.0164349
785.067	0.0165075
785.145	0.0164356
785.223	0.0165749
785.301	0.0165930
785.379	0.0165795
785.457	0.0167097
785.535	0.0166666
785.613	0.0166078
785.692	0.0167517
785.770	0.0165365
785.848	0.0166806
785.926	0.0166422
786.004	0.0167517
786.082	0.0168642
786.160	0.0169754
786.238	0.0166512
786.317	0.0168789
786.395	0.0170526
786.473	0.0169997
786.551	0.0169317
786.629	0.0168443
786.707	0.0167646
786.785	0.0166820
786.863	0.0168813
786.942	0.0169543
787.020	0.0168516
787.098	0.0165861
787.176	0.0165511
787.254	0.0165992
787.332	0.0165757
787.410	0.0165964
787.488	0.0164236
787.567	0.0164594
787.645	0.0164152
787.723	0.0161736
787.801	0.0162940
787.879	0.0162775
787.957	0.0161483
788.035	0.0161108
788.113	0.0162425
788.192	0.0161703
788.270	0.0160347
788.348	0.0160511
788.426	0.0159435
788.504	0.0159927
788.582	0.0160578
788.660	0.0160400
788.738	0.0160317
788.817	0.0159743
788.895	0.0161322
788.973	0.0159415
789.051	0.0159906
789.129	0.0162449
789.207	0.0161859
789.285	0.0161858
789.363	0.0162322
789.442	0.0161902
789.520	0.0163100
789.598	0.0164108
789.676	0.0162859
789.754	0.0164867
789.832	0.0166051
789.910	0.0166132
789.988	0.0165704
790.067	0.0165939
790.145	0.0167410
790.223	0.0166273
790.301	0.0167015
790.379	0.0168024
790.457	0.0167029
790.535	0.0167337
790.613	0.0167152
790.692	0.0168087
790.770	0.0167637
790.848	0.0169019
790.926	0.0169447
791.004	0.0169257
791.082	0.0168845
791.160	0.0169144
791.238	0.0169404
791.317	0.0169029
791.395	0.0168537
791.473	0.0168413
791.551	0.0169577
791.629	0.0169524
791.707	0.0169051
791.785	0.0170647
791.863	0.0169405
791.942	0.0169297
792.020	0.0169499
792.098	0.0169769
792.176	0.0171632
792.254	0.0168811
792.332	0.0168223
792.410	0.0168366
792.488	0.0168909
792.567	0.0166470
792.645	0.0166610
792.723	0.0166043
792.801	0.0166331
792.879	0.0163934
792.957	0.0163869
793.035	0.0164536
793.113	0.0163148
793.192	0.0162064
793.270	0.0162999
793.348	0.0162041
793.426	0.0162738
793.504	0.0163377
793.582	0.0161668
793.660	0.0160909
793.738	0.0162801
793.817	0.0163570
793.895	0.0163634
793.973	0.0163932
794.051	0.0163522
794.129	0.0164544
794.207	0.0164985
794.285	0.0165338
794.363	0.0167422
794.442	0.0165884
794.520	0.0166219
794.598	0.0167010
794.676	0.0168492
794.754	0.0168554
794.832	0.0169226
794.910	0.0168435
794.988	0.0169186
795.067	0.0168346
795.145	0.0168813
795.223	0.0168563
795.301	0.0169477
795.379	0.0167954
795.457	0.0167194
795.535	0.0166762
795.613	0.0167798
795.692	0.0166318
795.770	0.0166312
795.848	0.0165248
795.926	0.0164830
796.004	0.0164603
796.082	0.0163570
796.160	0.0163809
796.238	0.0162869
796.317	0.0161481
796.395	0.0162833
796.473	0.0161589
796.551	0.0161201
796.629	0.0161577
796.707	0.0161737
796.785	0.0161827
796.863	0.0160794
796.942	0.0161424
797.020	0.0160806
797.098	0.0159608
797.176	0.0160287
797.254	0.0160710
797.332	0.0162513
797.410	0.0160697
797.488	0.0160735
797.567	0.0160753
797.645	0.0161030
797.723	0.0160255
797.801	0.0161549
797.879	0.0160007
797.957	0.0161657
798.035	0.0162565
798.113	0.0160375
798.192	0.0160377
798.270	0.0160257
798.348	0.0160916
798.426	0.0161078
798.504	0.0161966
798.582	0.0161744
798.660	0.0162247
798.738	0.0162029
798.817	0.0161249
798.895	0.0164014
798.973	0.0165249
799.051	0.0164846
799.129	0.0164401
799.207	0.0166684
799.285	0.0166682
799.363	0.0166182
799.442	0.0168433
799.520	0.0167722
799.598	0.0170152
799.676	0.0169420
799.754	0.0169633
799.832	0.0170498
799.910	0.0170016
799.988	0.0170818
800.067	0.0171046
800.145	0.0169944
800.223	0.0168723
800.301	0.0169227
800.379	0.0169990
800.457	0.0169239
800.535	0.0169386
800.613	0.0167547
800.692	0.0167738
800.770	0.0166615
800.848	0.0167766
800.926	0.0167558
801.004	0.0166922
801.082	0.0165630
801.160	0.0166132
801.238	0.0164572
801.317	0.0163926
801.395	0.0163663
801.473	0.0164090
801.551	0.0164738
801.629	0.0163818
801.707	0.0163023
801.785	0.0162536
801.863	0.0163551
801.942	0.0163628
802.020	0.0162354
802.098	0.0163618
802.176	0.0162563
802.254	0.0162127
802.332	0.0163875
802.410	0.0162709
802.488	0.0162400
802.567	0.0162484
802.645	0.0163278
802.723	0.0161777
802.801	0.0161636
802.879	0.0162592
802.957	0.0161652
803.035	0.0160554
803.113	0.0161549
803.192	0.0162009
803.270	0.0161983
803.348	0.0161452
803.426	0.0161104
803.504	0.0163419
803.582	0.0162457
803.660	0.0161537
803.738	0.0162608
803.817	0.0163062
803.895	0.0161261
803.973	0.0161967
804.051	0.0160300
804.129	0.0161301
804.207	0.0161449
804.285	0.0161698
804.363	0.0162048
804.442	0.0159443
804.520	0.0160132
804.598	0.0161219
804.676	0.0161500
804.754	0.0162399
804.832	0.0161660
804.910	0.0162569
804.988	0.0163217
805.067	0.0163533
805.145	0.0163044
805.223	0.0163383
805.301	0.0163927
805.379	0.0165724
805.457	0.0164620
805.535	0.0163890
805.613	0.0164341
805.692	0.0165525
805.770	0.0165575
805.848	0.0165100
805.926	0.0164693
806.004	0.0164533
806.082	0.0163211
806.160	0.0163542
806.238	0.0164012
806.317	0.0164507
806.395	0.0164648
806.473	0.0164944
806.551	0.0165570
806.629	0.0165904
806.707	0.0166039
806.785	0.0165946
806.863	0.0166402
806.942	0.0167463
807.020	0.0167576
807.098	0.0166302
807.176	0.0167765
807.254	0.0169873
807.332	0.0169083
807.410	0.0168789
807.488	0.0169559
807.567	0.0168382
807.645	0.0169328
807.723	0.0168655
807.801	0.0168043
807.879	0.0167967
807.957	0.0167371
808.035	0.0168096
808.113	0.0166548
808.192	0.0165432
808.270	0.0166691
808.348	0.0166689
808.426	0.0165106
808.504	0.0165972
808.582	0.0165253
808.660	0.0165174
808.738	0.0164482
808.817	0.0163818
808.895	0.0163769
808.973	0.0164722
809.051	0.0165976
809.129	0.0166982
809.207	0.0165034
809.285	0.0166409
809.363	0.0164771
809.442	0.0166497
809.520	0.0165219
809.598	0.0165290
809.676	0.0167005
809.754	0.0165598
809.832	0.0166973
809.910	0.0167153
809.988	0.0166853
810.067	0.0167420
810.145	0.0166541
810.223	0.0168289
810.301	0.0167149
810.379	0.0166597
810.457	0.0166037
810.535	0.0166609
810.613	0.0166547
810.692	0.0167062
810.770	0.0166284
810.848	0.0167307
810.926	0.0165178
811.004	0.0165599
811.082	0.0166233
811.160	0.0165234
811.238	0.0165910
811.317	0.0165530
811.395	0.0164997
811.473	0.0166359
811.551	0.0164436
811.629	0.0163779
811.707	0.0162765
811.785	0.0163902
811.863	0.0162836
811.942	0.0163577
812.020	0.0163107
812.098	0.0162055
812.176	0.0162855
812.254	0.0162576
812.332	0.0162011
812.410	0.0164088
812.488	0.0163049
812.567	0.0161535
812.645	0.0162550
812.723	0.0162669
812.801	0.0163851
812.879	0.0163364
812.957	0.0162908
813.035	0.0164339
813.113	0.0164032
813.192	0.0165092
813.270	0.0165899
813.348	0.0164217
813.426	0.0164069
813.504	0.0165646
813.582	0.0166116
813.660	0.0165160
813.738	0.0166525
813.817	0.0164613
813.895	0.0165391
813.973	0.0166354
814.051	0.0165033
814.129	0.0164991
814.207	0.0165407
814.285	0.0165133
814.363	0.0166093
814.442	0.0166024
814.520	0.0166273
814.598	0.0166432
814.676	0.0166581
814.754	0.0166866
814.832	0.0167607
814.910	0.0168063
814.988	0.0169926
815.067	0.0168154
815.145	0.0169904
815.223	0.0169964
815.301	0.0168963
815.379	0.0168916
815.457	0.0169938
815.535	0.0169703
815.613	0.0169637
815.692	0.0168034
815.770	0.0167923
815.848	0.0167435
815.926	0.0167610
816.004	0.0167285
816.082	0.0167500
816.160	0.0167311
816.238	0.0166509
816.317	0.0164902
816.395	0.0165753
816.473	0.0166148
816.551	0.0165014
816.629	0.0164703
816.707	0.0164733
816.785	0.0165638
816.863	0.0164565
816.942	0.0165341
817.020	0.0165597
817.098	0.0165445
817.176	0.0165192
817.254	0.0165247
817.332	0.0165836
817.410	0.0167738
817.488	0.0165785
817.567	0.0167131
817.645	0.0166387
817.723	0.0165837
817.801	0.0166083
817.879	0.0165250
817.957	0.0166509
818.035	0.0165955
818.113	0.0167056
818.192	0.0166580
818.270	0.0167822
818.348	0.0166824
818.426	0.0166287
818.504	0.0165911
818.582	0.0166679
818.660	0.0166412
818.738	0.0165144
818.817	0.0164780
818.895	0.0163411
818.973	0.0163872
819.051	0.0163918
819.129	0.0163265
819.207	0.0161985
819.285	0.0162214
819.363	0.0161754
819.442	0.0163026
819.520	0.0160776
819.598	0.0161227
819.676	0.0160830
819.754	0.0161801
819.832	0.0161587
819.910	0.0160468
819.988	0.0160091
820.067	0.0161395
820.145	0.0161983
820.223	0.0161689
820.301	0.0161565
820.379	0.0160504
820.457	0.0161658
820.535	0.0160600
820.613	0.0163729
820.692	0.0162505
820.770	0.0164188
820.848	0.0164281
820.926	0.0164037
821.004	0.0163846
821.082	0.0162758
821.160	0.0162735
821.238	0.0165652
821.317	0.0164819
821.395	0.0164294
821.473	0.0164249
821.551	0.0164751
821.629	0.0164890
821.707	0.0164928
821.785	0.0163698
821.863	0.0164976
821.942	0.0163995
822.020	0.0164644
822.098	0.0165854
822.176	0.0167208
822.254	0.0167989
822.332	0.0167083
822.410	0.0166807
822.488	0.0169373
822.567	0.0167210
822.645	0.0168123
822.723	0.0167799
822.801	0.0169460
822.879	0.0171031
822.957	0.0169149
823.035	0.0168694
823.113	0.0168626
823.192	0.0168935
823.270	0.0169260
823.348	0.0169613
823.426	0.0168295
823.504	0.0167634
823.582	0.0168470
823.660	0.0166579
823.738	0.0166553
823.817	0.0165636
823.895	0.0167480
823.973	0.0166580
824.051	0.0163309
824.129	0.0164063
824.207	0.0164456
824.285	0.0165408
824.363	0.0163036
824.442	0.0164426
824.520	0.0165855
824.598	0.0164703
824.676	0.0163773
824.754	0.0163974
824.832	0.0165336
824.910	0.0164808
824.988	0.0164461
825.067	0.0164557
825.145	0.0163011
825.223	0.0164708
825.301	0.0164449
825.379	0.0163383
825.457	0.0165274
825.535	0.0164389
825.613	0.0163080
825.692	0.0164268
825.770	0.0163230
825.848	0.0163902
825.926	0.0164275
826.004	0.0165307
826.082	0.0163844
826.160	0.0164802
826.238	0.0163519
826.317	0.0163490
826.395	0.0165368
826.473	0.0163923
826.551	0.0165585
826.629	0.0164017
826.707	0.0162962
826.785	0.0164049
826.863	0.0163937
826.942	0.0164265
827.020	0.0164334
827.098	0.0162516
827.176	0.0163029
827.254	0.0162928
827.332	0.0163509
827.410	0.0162262
827.488	0.0161356
827.567	0.0162708
827.645	0.0162694
827.723	0.0161315
827.801	0.0162740
827.879	0.0162286
827.957	0.0162146
828.035	0.0162472
828.113	0.0161951
828.192	0.0163880
828.270	0.0164632
828.348	0.0163345
828.426	0.0164500
828.504	0.0165216
828.582	0.0165411
828.660	0.0166650
828.738	0.0165143
828.817	0.0165458
828.895	0.0166794
828.973	0.0166266
829.051	0.0166935
829.129	0.0167067
829.207	0.0165791
829.285	0.0166609
829.363	0.0166251
829.442	0.0165237
829.520	0.0167221
829.598	0.0167328
829.676	0.0167598
829.754	0.0167074
829.832	0.0166297
829.910	0.0166035
829.988	0.0168624
830.067	0.0168058
830.145	0.0169453
830.223	0.0167419
830.301	0.0167785
830.379	0.0169439
830.457	0.0168935
830.535	0.0169345
830.613	0.0169570
830.692	0.0169493
830.770	0.0168484
830.848	0.0171313
830.926	0.0169118
831.004	0.0168961
831.082	0.0168227
831.160	0.0168679
831.238	0.0166671
831.317	0.0167598
831.395	0.0167096
831.473	0.0166586
831.551	0.0166724
831.629	0.0166106
831.707	0.0165948
831.785	0.0165173
831.863	0.0166612
831.942	0.0166381
832.020	0.0166522
832.098	0.0165985
832.176	0.0166557
832.254	0.0167472
832.332	0.0166257
832.410	0.0167381
832.488	0.0167354
832.567	0.0167164
832.645	0.0165753
832.723	0.0166952
832.801	0.0166908
832.879	0.0166207
832.957	0.0166159
833.035	0.0167106
833.113	0.0167450
833.192	0.0167208
833.270	0.0165398
833.348	0.0164417
833.426	0.0164285
833.504	0.0165101
833.582	0.0166245
833.660	0.0163686
833.738	0.0163998
833.817	0.0163534
833.895	0.0164020
833.973	0.0163718
834.051	0.0163692
834.129	0.0162714
834.207	0.0163052
834.285	0.0163174
834.363	0.0162270
834.442	0.0164075
834.520	0.0163540
834.598	0.0162654
834.676	0.0162052
834.754	0.0161348
834.832	0.0162321
834.910	0.0162627
834.988	0.0161955
835.067	0.0162000
835.145	0.0162003
835.223	0.0162060
835.301	0.0160912
835.379	0.0160351
835.457	0.0161909
835.535	0.0161973
835.613	0.0162177
835.692	0.0163574
835.770	0.0163192
835.848	0.0164291
835.926	0.0164531
836.004	0.0164741
836.082	0.0165450
836.160	0.0167334
836.238	0.0167065
836.317	0.0167889
836.395	0.0167917
836.473	0.0168707
836.551	0.0168720
836.629	0.0168497
836.707	0.0168382
836.785	0.0167374
836.863	0.0168896
836.942	0.0168983
837.020	0.0168954
837.098	0.0167520
837.176	0.0167467
837.254	0.0167859
837.332	0.0166503
837.410	0.0164999
837.488	0.0165636
837.567	0.0165578
837.645	0.0166801
837.723	0.0166385
837.801	0.0165759
837.879	0.0166499
837.957	0.0165479
838.035	0.0167194
838.113	0.0166367
838.192	0.0167370
838.270	0.0166888
838.348	0.0166697
838.426	0.0168269
838.504	0.0167662
838.582	0.0168758
838.660	0.0167496
838.738	0.0165380
838.817	0.0166868
838.895	0.0166328
838.973	0.0166487
839.051	0.0165224
839.129	0.0163994
839.207	0.0164597
839.285	0.0165963
839.363	0.0163892
839.442	0.0162843
839.520	0.0162026
839.598	0.0162213
839.676	0.0163239
839.754	0.0162888
839.832	0.0161893
839.910	0.0162591
839.988	0.0161906
840.067	0.0162531
840.145	0.0162149
840.223	0.0164730
840.301	0.0164883
840.379	0.0164237
840.457	0.0164250
840.535	0.0165170
840.613	0.0164944
840.692	0.0165266
840.770	0.0166406
840.848	0.0166093
840.926	0.0167084
841.004	0.0166670
841.082	0.0165576
841.160	0.0165138
841.238	0.0166651
841.317	0.0166396
841.395	0.0166247
841.473	0.0166338
841.551	0.0165117
841.629	0.0165422
841.707	0.0165940
841.785	0.0164481
841.863	0.0164617
841.942	0.0163432
842.020	0.0163610
842.098	0.0163613
842.176	0.0164885
842.254	0.0164336
842.332	0.0164111
842.410	0.0163824
842.488	0.0163737
842.567	0.0162954
842.645	0.0161520
842.723	0.0163255
842.801	0.0162226
842.879	0.0161366
842.957	0.0162093
843.035	0.0163554
843.113	0.0162480
843.192	0.0161572
843.270	0.0161809
843.348	0.0163453
843.426	0.0162838
843.504	0.0164175
843.582	0.0163494
843.660	0.0162804
843.738	0.0163558
843.817	0.0163979
843.895	0.0165762
843.973	0.0164491
844.051	0.0164816
844.129	0.0165630
844.207	0.0166391
844.285	0.0167229
844.363	0.0166718
844.442	0.0166194
844.520	0.0165742
844.598	0.0165623
844.676	0.0166829
844.754	0.0167148
844.832	0.0165070
844.910	0.0165599
844.988	0.0166586
845.067	0.0166042
845.145	0.0166627
845.223	0.0165428
845.301	0.0165419
845.379	0.0164561
845.457	0.0165769
845.535	0.0165192
845.613	0.0164729
845.692	0.0165678
845.770	0.0165295
845.848	0.0166033
845.926	0.0167325
846.004	0.0165968
846.082	0.0166896
846.160	0.0167901
846.238	0.0166770
846.317	0.0167249
846.395	0.0166241
846.473	0.0167262
846.551	0.0166781
846.629	0.0166963
846.707	0.0168098
846.785	0.0166283
846.863	0.0165502
846.942	0.0166796
847.020	0.0166732
847.098	0.0166047
847.176	0.0165632
847.254	0.0165410
847.332	0.0165663
847.410	0.0165496
847.488	0.0166359
847.567	0.0165951
847.645	0.0165112
847.723	0.0165633
847.801	0.0167130
847.879	0.0166096
847.957	0.0167982
848.035	0.0167760
848.113	0.0168192
848.192	0.0166147
848.270	0.0168352
848.348	0.0168577
848.426	0.0168601
848.504	0.0168095
848.582	0.0167085
848.660	0.0168533
848.738	0.0167460
848.817	0.0168343
848.895	0.0166953
848.973	0.0168013
849.051	0.0166962
849.129	0.0168033
849.207	0.0168416
849.285	0.0166242
849.363	0.0167316
849.442	0.0167890
849.520	0.0166096
849.598	0.0165517
849.676	0.0167852
849.754	0.0164957
849.832	0.0166088
849.910	0.0164931
849.988	0.0164317
850.067	0.0164432
850.145	0.0163419
850.223	0.0165649
850.301	0.0163519
850.379	0.0162682
850.457	0.0163974
850.535	0.0163406
850.613	0.0162579
850.692	0.0164494
850.770	0.0162545
850.848	0.0163078
850.926	0.0162831
851.004	0.0162396
851.082	0.0164177
851.160	0.0162982
851.238	0.0162356
851.317	0.0163432
851.395	0.0163926
851.473	0.0163777
851.551	0.0163815
851.629	0.0165102
851.707	0.0163765
851.785	0.0164518
851.863	0.0165586
851.942	0.0165455
852.020	0.0164829
852.098	0.0166068
852.176	0.0164262
852.254	0.0165783
852.332	0.0165613
852.410	0.0164465
852.488	0.0164458
852.567	0.0165657
852.645	0.0165276
852.723	0.0162862
852.801	0.0164822
852.879	0.0165355
852.957	0.0165192
853.035	0.0165511
853.113	0.0166158
853.192	0.0165646
853.270	0.0165173
853.348	0.0166186
853.426	0.0165293
853.504	0.0165809
853.582	0.0167189
853.660	0.0164996
853.738	0.0165894
853.817	0.0166888
853.895	0.0167365
853.973	0.0168356
854.051	0.0166675
854.129	0.0168161
854.207	0.0167669
854.285	0.0168248
854.363	0.0168431
854.442	0.0167956
854.520	0.0166865
854.598	0.0167938
854.676	0.0168696
854.754	0.0166698
854.832	0.0166039
854.910	0.0166633
854.988	0.0168163
855.067	0.0167019
855.145	0.0166073
855.223	0.0166133
855.301	0.0166132
855.379	0.0167339
855.457	0.0165328
855.535	0.0165713
855.613	0.0166950
855.692	0.0166537
855.770	0.0166589
855.848	0.0165776
855.926	0.0166203
856.004	0.0167321
856.082	0.0166990
856.160	0.0166455
856.238	0.0168092
856.317	0.0165408
856.395	0.0166816
856.473	0.0167612
856.551	0.0166908
856.629	0.0166497
856.707	0.0166757
856.785	0.0167201
856.863	0.0166758
856.942	0.0167123
857.020	0.0166678
857.098	0.0166930
857.176	0.0167381
857.254	0.0166119
857.332	0.0166469
857.410	0.0167081
857.488	0.0166759
857.567	0.0167017
857.645	0.0165810
857.723	0.0166826
857.801	0.0164449
857.879	0.0165232
857.957	0.0164921
858.035	0.0163649
858.113	0.0163697
858.192	0.0162014
858.270	0.0163397
858.348	0.0163359
858.426	0.0162473
858.504	0.0161478
858.582	0.0162434
858.660	0.0162167
858.738	0.0162556
858.817	0.0161266
858.895	0.0161463
858.973	0.0161629
859.051	0.0163515
859.129	0.0162943
859.207	0.0162701
859.285	0.0162760
859.363	0.0165717
859.442	0.0163181
859.520	0.0163248
859.598	0.0165014
859.676	0.0165334
859.754	0.0164862
859.832	0.0165228
859.910	0.0167465
859.988	0.0167608
860.067	0.0167442
860.145	0.0168329
860.223	0.0168886
860.301	0.0168223
860.379	0.0168977
860.457	0.0169193
860.535	0.0168258
860.613	0.0168080
860.692	0.0167244
860.770	0.0166677
860.848	0.0166362
860.926	0.0168487
861.004	0.0166615
861.082	0.0167568
861.160	0.0167828
861.238	0.0167319
861.317	0.0167717
861.395	0.0166595
861.473	0.0168076
861.551	0.0165789
861.629	0.0168035
861.707	0.0166885
861.785	0.0166734
861.863	0.0167596
861.942	0.0166193
862.020	0.0167881
862.098	0.0168250
862.176	0.0168182
862.254	0.0168492
862.332	0.0168327
862.410	0.0166469
862.488	0.0166902
862.567	0.0167015
862.645	0.0166352
862.723	0.0165482
862.801	0.0165903
862.879	0.0166737
862.957	0.0165946
863.035	0.0164661
863.113	0.0165876
863.192	0.0164749
863.270	0.0164783
863.348	0.0165824
863.426	0.0164139
863.504	0.0163784
863.582	0.0166027
863.660	0.0166288
863.738	0.0165345
863.817	0.0166645
863.895	0.0163583
863.973	0.0164210
864.051	0.0164973
864.129	0.0164920
864.207	0.0166502
864.285	0.0164649
864.363	0.0165736
864.442	0.0165176
864.520	0.0164993
864.598	0.0165997
864.676	0.0165540
864.754	0.0165860
864.832	0.0165560
864.910	0.0165473
864.988	0.0164729
865.067	0.0164371
865.145	0.0163776
865.223	0.0164588
865.301	0.0165192
865.379	0.0163946
865.457	0.0163137
865.535	0.0163204
865.613	0.0162377
865.692	0.0162436
865.770	0.0162879
865.848	0.0161621
865.926	0.0160417
866.004	0.0161858
866.082	0.0161733
866.160	0.0162203
866.238	0.0161949
866.317	0.0160375
866.395	0.0159272
866.473	0.0159646
866.551	0.0160252
866.629	0.0160503
866.707	0.0160365
866.785	0.0160360
866.863	0.0158410
866.942	0.0160681
867.020	0.0162414
867.098	0.0162273
867.176	0.0161613
867.254	0.0162696
867.332	0.0162933
867.410	0.0163173
867.488	0.0162899
867.567	0.0163742
867.645	0.0163985
867.723	0.0164253
867.801	0.0164259
867.879	0.0165141
867.957	0.0165037
868.035	0.0165676
868.113	0.0165801
868.192	0.0163952
868.270	0.0165870
868.348	0.0165859
868.426	0.0164356
868.504	0.0165564
868.582	0.0165664
868.660	0.0165987
868.738	0.0163416
868.817	0.0165441
868.895	0.0164793
868.973	0.0163750
869.051	0.0165752
869.129	0.0165961
869.207	0.0164217
869.285	0.0166722
869.363	0.0166254
869.442	0.0166261
869.520	0.0165529
869.598	0.0165973
869.676	0.0166336
869.754	0.0166596
869.832	0.0167050
869.910	0.0167091
869.988	0.0167110
870.067	0.0168288
870.145	0.0167496
870.223	0.0167675
870.301	0.0167091
870.379	0.0168201
870.457	0.0168354
870.535	0.0168011
870.613	0.0167672
870.692	0.0167897
870.770	0.0168238
870.848	0.0167583
870.926	0.0167845
871.004	0.0167612
871.082	0.0168041
871.160	0.0167661
871.238	0.0167354
871.317	0.0167725
871.395	0.0166846
871.473	0.0165897
871.551	0.0166613
871.629	0.0165530
871.707	0.0166673
871.785	0.0166229
871.863	0.0167830
871.942	0.0165833
872.020	0.0167039
872.098	0.0165703
872.176	0.0166016
872.254	0.0167350
872.332	0.0165601
872.410	0.0165995
872.488	0.0165541
872.567	0.0164968
872.645	0.0165753
872.723	0.0165807
872.801	0.0166073
872.879	0.0166533
872.957	0.0166482
873.035	0.0166287
873.113	0.0164785
873.192	0.0166198
873.270	0.0164787
873.348	0.0165196
873.426	0.0165199
873.504	0.0166084
873.582	0.0165739
873.660	0.0166416
873.738	0.0165241
873.817	0.0165218
873.895	0.0164536
873.973	0.0163750
874.051	0.0164433
874.129	0.0163947
874.207	0.0164409
874.285	0.0163744
874.363	0.0164373
874.442	0.0163109
874.520	0.0164344
874.598	0.0164253
874.676	0.0164130
874.754	0.0165417
874.832	0.0164069
874.910	0.0163453
874.988	0.0164257
875.067	0.0164112
875.145	0.0165283
875.223	0.0164131
875.301	0.0163773
875.379	0.0164439
875.457	0.0164694
875.535	0.0164888
875.613	0.0165630
875.692	0.0165112
875.770	0.0165223
875.848	0.0166748
875.926	0.0165508
876.004	0.0165005
876.082	0.0165568
876.160	0.0166451
876.238	0.0166137
876.317	0.0165340
876.395	0.0164237
876.473	0.0166904
876.551	0.0165301
876.629	0.0166018
876.707	0.0163732
876.785	0.0164873
876.863	0.0165948
876.942	0.0164104
877.020	0.0164341
877.098	0.0164011
877.176	0.0164664
877.254	0.0165009
877.332	0.0165005
877.410	0.0164680
877.488	0.0165191
877.567	0.0164940
877.645	0.0165816
877.723	0.0166183
877.801	0.0166253
877.879	0.0165453
877.957	0.0165100
878.035	0.0165744
878.113	0.0167127
878.192	0.0167611
878.270	0.0167430
878.348	0.0165893
878.426	0.0167650
878.504	0.0166522
878.582	0.0166267
878.660	0.0166428
878.738	0.0166771
878.817	0.0166465
878.895	0.0165405
878.973	0.0165329
879.051	0.0166222
879.129	0.0166013
879.207	0.0164487
879.285	0.0164799
879.363	0.0165046
879.442	0.0163746
879.520	0.0164606
879.598	0.0163755
879.676	0.0163669
879.754	0.0164262
879.832	0.0162846
879.910	0.0164121
879.988	0.0163058
880.067	0.0164212
880.145	0.0163825
880.223	0.0163519
880.301	0.0163538
880.379	0.0164606
880.457	0.0164609
880.535	0.0164879
880.613	0.0165466
880.692	0.0163291
880.770	0.0165507
880.848	0.0164207
880.926	0.0164513
881.004	0.0163985
881.082	0.0164583
881.160	0.0164741
881.238	0.0164152
881.317	0.0164383
881.395	0.0164967
881.473	0.0164126
881.551	0.0163579
881.629	0.0164710
881.707	0.0163204
881.785	0.0164388
881.863	0.0162641
881.942	0.0162540
882.020	0.0163461
882.098	0.0162901
882.176	0.0162059
882.254	0.0163177
882.332	0.0162479
882.410	0.0162577
882.488	0.0163329
882.567	0.0163126
882.645	0.0164911
882.723	0.0162890
882.801	0.0164155
882.879	0.0164229
882.957	0.0164837
883.035	0.0165369
883.113	0.0164014
883.192	0.0166120
883.270	0.0166048
883.348	0.0166582
883.426	0.0166483
883.504	0.0166474
883.582	0.0166972
883.660	0.0167662
883.738	0.0167783
883.817	0.0167764
883.895	0.0166969
883.973	0.0166515
884.051	0.0166721
884.129	0.0167444
884.207	0.0167255
884.285	0.0166314
884.363	0.0165917
884.442	0.0166573
884.520	0.0165559
884.598	0.0165128
884.676	0.0164592
884.754	0.0164272
884.832	0.0164597
884.910	0.0164352
884.988	0.0163498
885.067	0.0164507
885.145	0.0166444
885.223	0.0164471
885.301	0.0165120
885.379	0.0164798
885.457	0.0166126
885.535	0.0166984
885.613	0.0165517
885.692	0.0165442
885.770	0.0167489
885.848	0.0165384
885.926	0.0164476
886.004	0.0167411
886.082	0.0167045
886.160	0.0167126
886.238	0.0168462
886.317	0.0166660
886.395	0.0166741
886.473	0.0166756
886.551	0.0166557
886.629	0.0165440
886.707	0.0165179
886.785	0.0167307
886.863	0.0165949
886.942	0.0167329
887.020	0.0166264
887.098	0.0165590
887.176	0.0166062
887.254	0.0166070
887.332	0.0165302
887.410	0.0165576
887.488	0.0165710
887.567	0.0165054
887.645	0.0164502
887.723	0.0164575
887.801	0.0164160
887.879	0.0163737
887.957	0.0164191
888.035	0.0163878
888.113	0.0164289
888.192	0.0163593
888.270	0.0164634
888.348	0.0165112
888.426	0.0162765
888.504	0.0164468
888.582	0.0163665
888.660	0.0163841
888.738	0.0162419
888.817	0.0163319
888.895	0.0163963
888.973	0.0163380
889.051	0.0163795
889.129	0.0162714
889.207	0.0162666
889.285	0.0163329
889.363	0.0165079
889.442	0.0162809
889.520	0.0162106
889.598	0.0162495
889.676	0.0163194
889.754	0.0163614
889.832	0.0163046
889.910	0.0162971
889.988	0.0161881
890.067	0.0163889
890.145	0.0164137
890.223	0.0164931
890.301	0.0164619
890.379	0.0164043
890.457	0.0164919
890.535	0.0165448
890.613	0.0163282
890.692	0.0163756
890.770	0.0165469
890.848	0.0165947
890.926	0.0165241
891.004	0.0164383
891.082	0.0166284
891.160	0.0165710
891.238	0.0166498
891.317	0.0166998
891.395	0.0164682
891.473	0.0167235
891.551	0.0167314
891.629	0.0164689
891.707	0.0164609
891.785	0.0166137
891.863	0.0166360
891.942	0.0164836
892.020	0.0165079
892.098	0.0166736
892.176	0.0167016
892.254	0.0166978
892.332	0.0165102
892.410	0.0165773
892.488	0.0167403
892.567	0.0167034
892.645	0.0165166
892.723	0.0165208
892.801	0.0164993
892.879	0.0165475
892.957	0.0165645
893.035	0.0164866
893.113	0.0163964
893.192	0.0163444
893.270	0.0165570
893.348	0.0165748
893.426	0.0163608
893.504	0.0163601
893.582	0.0164290
893.660	0.0163771
893.738	0.0164211
893.817	0.0165002
893.895	0.0164229
893.973	0.0164500
894.051	0.0164224
894.129	0.0165141
894.207	0.0165019
894.285	0.0165237
894.363	0.0165740
894.442	0.0167225
894.520	0.0166664
894.598	0.0165638
894.676	0.0165073
894.754	0.0165828
894.832	0.0166315
894.910	0.0164977
894.988	0.0166209
895.067	0.0166663
895.145	0.0166750
895.223	0.0166476
895.301	0.0167121
895.379	0.0166400
895.457	0.0165990
895.535	0.0166246
895.613	0.0166078
895.692	0.0167115
895.770	0.0167122
895.848	0.0165849
895.926	0.0167023
896.004	0.0167408
896.082	0.0165770
896.160	0.0165165
896.238	0.0164842
896.317	0.0165676
896.395	0.0166283
896.473	0.0165594
896.551	0.0164229
896.629	0.0164316
896.707	0.0163348
896.785	0.0162553
896.863	0.0162398
896.942	0.0164803
897.020	0.0164468
897.098	0.0165079
897.176	0.0161928
897.254	0.0163237
897.332	0.0163988
897.410	0.0162688
897.488	0.0162856
897.567	0.0164030
897.645	0.0163091
897.723	0.0164557
897.801	0.0160512
897.879	0.0164038
897.957	0.0163152
898.035	0.0162489
898.113	0.0163579
898.192	0.0163511
898.270	0.0162516
898.348	0.0164816
898.426	0.0164732
898.504	0.0163731
898.582	0.0164246
898.660	0.0164249
898.738	0.0165260
898.817	0.0164798
898.895	0.0164963
898.973	0.0162701
899.051	0.0164888
899.129	0.0163261
899.207	0.0164526
899.285	0.0165051
899.363	0.0165559
899.442	0.0164507
899.520	0.0165144
899.598	0.0165745
899.676	0.0164561
899.754	0.0166825
899.832	0.0165963
899.910	0.0165762
899.988	0.0165125
900.067	0.0164871
900.145	0.0164844
900.223	0.0166874
900.301	0.0164478
900.379	0.0164639
900.457	0.0165506
900.535	0.0164697
900.613	0.0164439
900.692	0.0163911
900.770	0.0164968
900.848	0.0165081
900.926	0.0165624
901.004	0.0164808
901.082	0.0164613
901.160	0.0165691
901.238	0.0165049
901.317	0.0165601
901.395	0.0166136
901.473	0.0164465
901.551	0.0164867
901.629	0.0164651
901.707	0.0165234
901.785	0.0166924
901.863	0.0165593
901.942	0.0166401
902.020	0.0164978
902.098	0.0165107
902.176	0.0165314
902.254	0.0163880
902.332	0.0164650
902.410	0.0165479
902.488	0.0165081
902.567	0.0165923
902.645	0.0165595
902.723	0.0164414
902.801	0.0165897
902.879	0.0166328
902.957	0.0164908
903.035	0.0164938
903.113	0.0165759
903.192	0.0164420
903.270	0.0165588
903.348	0.0166080
903.426	0.0164777
903.504	0.0165551
903.582	0.0165961
903.660	0.0166865
903.738	0.0166223
903.817	0.0165510
903.895	0.0167481
903.973	0.0167394
904.051	0.0166756
904.129	0.0164933
904.207	0.0165323
904.285	0.0165061
904.363	0.0166934
904.442	0.0164696
904.520	0.0165733
904.598	0.0164159
904.676	0.0164423
904.754	0.0163793
904.832	0.0163680
904.910	0.0164120
904.988	0.0164814
905.067	0.0163410
905.145	0.0163714
905.223	0.0162543
905.301	0.0164358
905.379	0.0164160
905.457	0.0163041
905.535	0.0164136
905.613	0.0164571
905.692	0.0164622
905.770	0.0164442
905.848	0.0165302
905.926	0.0165057
906.004	0.0164716
906.082	0.0164616
906.160	0.0165982
906.238	0.0164160
906.317	0.0165652
906.395	0.0166506
906.473	0.0165223
906.551	0.0166313
906.629	0.0166021
906.707	0.0164405
906.785	0.0165231
906.863	0.0165471
906.942	0.0165115
907.020	0.0165424
907.098	0.0165899
907.176	0.0165719
907.254	0.0166412
907.332	0.0166542
907.410	0.0165886
907.488	0.0166413
907.567	0.0167768
907.645	0.0167459
907.723	0.0166103
907.801	0.0165555
907.879	0.0166427
907.957	0.0166719
908.035	0.0165609
908.113	0.0165447
908.192	0.0165155
908.270	0.0165734
908.348	0.0165257
908.426	0.0165739
908.504	0.0166231
908.582	0.0164875
908.660	0.0164764
908.738	0.0164982
908.817	0.0163294
908.895	0.0164851
908.973	0.0163357
909.051	0.0164094
909.129	0.0163895
909.207	0.0163953
909.285	0.0163023
909.363	0.0163110
909.442	0.0163316
909.520	0.0162817
909.598	0.0161432
909.676	0.0163367
909.754	0.0163318
909.832	0.0162954
909.910	0.0162434
909.988	0.0162477
910.067	0.0162498
910.145	0.0163325
910.223	0.0162861
910.301	0.0163560
910.379	0.0163850
910.457	0.0162616
910.535	0.0163605
910.613	0.0164128
910.692	0.0163841
910.770	0.0165031
910.848	0.0164688
910.926	0.0163857
911.004	0.0164230
911.082	0.0165703
911.160	0.0166430
911.238	0.0166371
911.317	0.0163602
911.395	0.0164889
911.473	0.0164742
911.551	0.0164884
911.629	0.0163981
911.707	0.0163273
911.785	0.0164076
911.863	0.0163995
911.942	0.0165729
912.020	0.0164265
912.098	0.0162889
912.176	0.0164394
912.254	0.0164867
912.332	0.0164497
912.410	0.0163837
912.488	0.0164056
912.567	0.0163448
912.645	0.0163065
912.723	0.0162427
912.801	0.0164568
912.879	0.0164121
912.957	0.0163115
913.035	0.0163702
913.113	0.0163953
913.192	0.0164743
913.270	0.0165400
913.348	0.0164002
913.426	0.0164036
913.504	0.0163441
913.582	0.0165668
913.660	0.0166496
913.738	0.0165162
913.817	0.0165804
913.895	0.0166310
913.973	0.0165002
914.051	0.0165661
914.129	0.0166119
914.207	0.0165010
914.285	0.0165595
914.363	0.0165527
914.442	0.0164533
914.520	0.0165022
914.598	0.0165556
914.676	0.0165377
914.754	0.0166057
914.832	0.0164893
914.910	0.0164852
914.988	0.0165641
915.067	0.0164060
915.145	0.0165535
915.223	0.0165601
915.301	0.0164194
915.379	0.0165615
915.457	0.0164785
915.535	0.0165062
915.613	0.0165816
915.692	0.0165392
915.770	0.0165017
915.848	0.0164833
915.926	0.0165816
916.004	0.0165824
916.082	0.0166656
916.160	0.0165598
916.238	0.0166890
916.317	0.0165148
916.395	0.0165700
916.473	0.0165023
916.551	0.0166759
916.629	0.0165691
916.707	0.0165514
916.785	0.0164928
916.863	0.0165819
916.942	0.0164884
917.020	0.0165722
917.098	0.0164175
917.176	0.0165430
917.254	0.0164904
917.332	0.0165348
917.410	0.0164828
917.488	0.0165528
917.567	0.0165311
917.645	0.0165341
917.723	0.0165018
917.801	0.0165845
917.879	0.0164749
917.957	0.0164165
918.035	0.0166407
918.113	0.0164920
918.192	0.0165900
918.270	0.0164268
918.348	0.0164705
918.426	0.0166123
918.504	0.0163869
918.582	0.0164683
918.660	0.0165976
918.738	0.0164541
918.817	0.0163708
918.895	0.0164795
918.973	0.0164510
919.051	0.0165421
919.129	0.0164884
919.207	0.0163987
919.285	0.0164988
919.363	0.0165341
919.442	0.0165149
919.520	0.0163525
919.598	0.0163778
919.676	0.0164149
919.754	0.0162572
919.832	0.0162246
919.910	0.0163562
