06/01/2022	22:02:03	Ver.	4.1	UNKNOWN
Optical Delay	599.988409	Delta X		0.078125	Sweeps	1	Scan Rate	0/0
Coordinates	Axis 1	NaN	Axis 2	NaN	Axis 3	NaN	Axis 4	NaN	Axis 5	NaN	Axis 6	0.000000
TX Power	0.000000	RX Power	0.000000

599.988	0.0171590
600.067	0.0171707
600.145	0.0171574
600.223	0.0172321
600.301	0.0170472
600.379	0.0171077
600.457	0.0170652
600.535	0.0170983
600.613	0.0170589
600.692	0.0170494
600.770	0.0171305
600.848	0.0170378
600.926	0.0170875
601.004	0.0170545
601.082	0.0170860
601.160	0.0169825
601.238	0.0171877
601.317	0.0171062
601.395	0.0170693
601.473	0.0170419
601.551	0.0171144
601.629	0.0171037
601.707	0.0169576
601.785	0.0169698
601.863	0.0170468
601.942	0.0170033
602.020	0.0170619
602.098	0.0170267
602.176	0.0170766
602.254	0.0170821
602.332	0.0169892
602.410	0.0169539
602.488	0.0169315
602.567	0.0169291
602.645	0.0169779
602.723	0.0169392
602.801	0.0169139
602.879	0.0169073
602.957	0.0169836
603.035	0.0168375
603.113	0.0170356
603.192	0.0169821
603.270	0.0169321
603.348	0.0169416
603.426	0.0168396
603.504	0.0167790
603.582	0.0169594
603.660	0.0168920
603.738	0.0169068
603.817	0.0168394
603.895	0.0168643
603.973	0.0169859
604.051	0.0168317
604.129	0.0169254
604.207	0.0167984
604.285	0.0168791
604.363	0.0167768
604.442	0.0168747
604.520	0.0167892
604.598	0.0169445
604.676	0.0169051
604.754	0.0169279
604.832	0.0168035
604.910	0.0169474
604.988	0.0168631
605.067	0.0167752
605.145	0.0169483
605.223	0.0168723
605.301	0.0169035
605.379	0.0170373
605.457	0.0168560
605.535	0.0171033
605.613	0.0170408
605.692	0.0169061
605.770	0.0170865
605.848	0.0169193
605.926	0.0169501
606.004	0.0168742
606.082	0.0169026
606.160	0.0170732
606.238	0.0169347
606.317	0.0169102
606.395	0.0168694
606.473	0.0169571
606.551	0.0170216
606.629	0.0168872
606.707	0.0170329
606.785	0.0169707
606.863	0.0169961
606.942	0.0169310
607.020	0.0168916
607.098	0.0169416
607.176	0.0171339
607.254	0.0169538
607.332	0.0169825
607.410	0.0170998
607.488	0.0170595
607.567	0.0169297
607.645	0.0170438
607.723	0.0169618
607.801	0.0169383
607.879	0.0171131
607.957	0.0169881
608.035	0.0169622
608.113	0.0170203
608.192	0.0168908
608.270	0.0168867
608.348	0.0169624
608.426	0.0170437
608.504	0.0169045
608.582	0.0169941
608.660	0.0169549
608.738	0.0169849
608.817	0.0170242
608.895	0.0170920
608.973	0.0169952
609.051	0.0170623
609.129	0.0171020
609.207	0.0171441
609.285	0.0170256
609.363	0.0170663
609.442	0.0171206
609.520	0.0170150
609.598	0.0170666
609.676	0.0170800
609.754	0.0169674
609.832	0.0170528
609.910	0.0170901
609.988	0.0169440
610.067	0.0170363
610.145	0.0170280
610.223	0.0169193
610.301	0.0169551
610.379	0.0171081
610.457	0.0170712
610.535	0.0170346
610.613	0.0171249
610.692	0.0169974
610.770	0.0169913
610.848	0.0171454
610.926	0.0170364
611.004	0.0170810
611.082	0.0169865
611.160	0.0170387
611.238	0.0170918
611.317	0.0170445
611.395	0.0171255
611.473	0.0170727
611.551	0.0172614
611.629	0.0171555
611.707	0.0171989
611.785	0.0171275
611.863	0.0171568
611.942	0.0171009
612.020	0.0171193
612.098	0.0170509
612.176	0.0171846
612.254	0.0172051
612.332	0.0172264
612.410	0.0170576
612.488	0.0171565
612.567	0.0170664
612.645	0.0171093
612.723	0.0170831
612.801	0.0172000
612.879	0.0171874
612.957	0.0171172
613.035	0.0171741
613.113	0.0171515
613.192	0.0171735
613.270	0.0171172
613.348	0.0171683
613.426	0.0172216
613.504	0.0170551
613.582	0.0172129
613.660	0.0171926
613.738	0.0172763
613.817	0.0171437
613.895	0.0171205
613.973	0.0171746
614.051	0.0170258
614.129	0.0170439
614.207	0.0172279
614.285	0.0171197
614.363	0.0171229
614.442	0.0170825
614.520	0.0170684
614.598	0.0170443
614.676	0.0172189
614.754	0.0171494
614.832	0.0170338
614.910	0.0172302
614.988	0.0171021
615.067	0.0171704
615.145	0.0172166
615.223	0.0172989
615.301	0.0171542
615.379	0.0171567
615.457	0.0171198
615.535	0.0171527
615.613	0.0171102
615.692	0.0171876
615.770	0.0172008
615.848	0.0172425
615.926	0.0172351
616.004	0.0171745
616.082	0.0171562
616.160	0.0172419
616.238	0.0171118
616.317	0.0173016
616.395	0.0171616
616.473	0.0172868
616.551	0.0172458
616.629	0.0172394
616.707	0.0171942
616.785	0.0170866
616.863	0.0172693
616.942	0.0171964
617.020	0.0171329
617.098	0.0171751
617.176	0.0172115
617.254	0.0171267
617.332	0.0170546
617.410	0.0173570
617.488	0.0171300
617.567	0.0171775
617.645	0.0171824
617.723	0.0170604
617.801	0.0172916
617.879	0.0172073
617.957	0.0172797
618.035	0.0172458
618.113	0.0171655
618.192	0.0171620
618.270	0.0172047
618.348	0.0171693
618.426	0.0172534
618.504	0.0174439
618.582	0.0173743
618.660	0.0172938
618.738	0.0173452
618.817	0.0171548
618.895	0.0172092
618.973	0.0173270
619.051	0.0172063
619.129	0.0173359
619.207	0.0171662
619.285	0.0172008
619.363	0.0171873
619.442	0.0171897
619.520	0.0171315
619.598	0.0170426
619.676	0.0171616
619.754	0.0171941
619.832	0.0172269
619.910	0.0171413
619.988	0.0170917
620.067	0.0170148
620.145	0.0171019
620.223	0.0172583
620.301	0.0171687
620.379	0.0170344
620.457	0.0172411
620.535	0.0172553
620.613	0.0172623
620.692	0.0172589
620.770	0.0171826
620.848	0.0170435
620.926	0.0171068
621.004	0.0172167
621.082	0.0171762
621.160	0.0171071
621.238	0.0172019
621.317	0.0170998
621.395	0.0169973
621.473	0.0171250
621.551	0.0170882
621.629	0.0170260
621.707	0.0168739
621.785	0.0171021
621.863	0.0171995
621.942	0.0170695
622.020	0.0169696
622.098	0.0171424
622.176	0.0170750
622.254	0.0171010
622.332	0.0171608
622.410	0.0170695
622.488	0.0170029
622.567	0.0170996
622.645	0.0171348
622.723	0.0170929
622.801	0.0170948
622.879	0.0171423
622.957	0.0172133
623.035	0.0170766
623.113	0.0172225
623.192	0.0171721
623.270	0.0172858
623.348	0.0171281
623.426	0.0169921
623.504	0.0170023
623.582	0.0170589
623.660	0.0171314
623.738	0.0170982
623.817	0.0170483
623.895	0.0169469
623.973	0.0170168
624.051	0.0169693
624.129	0.0169548
624.207	0.0171185
624.285	0.0169506
624.363	0.0170233
624.442	0.0169677
624.520	0.0170483
624.598	0.0171582
624.676	0.0169912
624.754	0.0170139
624.832	0.0171129
624.910	0.0172199
624.988	0.0169894
625.067	0.0169623
625.145	0.0169948
625.223	0.0170328
625.301	0.0170762
625.379	0.0170355
625.457	0.0170316
625.535	0.0170545
625.613	0.0170309
625.692	0.0170693
625.770	0.0169346
625.848	0.0169440
625.926	0.0168541
626.004	0.0170486
626.082	0.0170362
626.160	0.0169846
626.238	0.0170128
626.317	0.0169000
626.395	0.0168834
626.473	0.0169289
626.551	0.0169339
626.629	0.0170067
626.707	0.0170169
626.785	0.0169080
626.863	0.0168974
626.942	0.0169444
627.020	0.0168752
627.098	0.0170431
627.176	0.0170212
627.254	0.0169532
627.332	0.0169389
627.410	0.0169145
627.488	0.0170514
627.567	0.0169199
627.645	0.0170162
627.723	0.0170625
627.801	0.0169238
627.879	0.0169841
627.957	0.0170658
628.035	0.0169716
628.113	0.0170150
628.192	0.0170906
628.270	0.0168467
628.348	0.0169230
628.426	0.0171271
628.504	0.0170313
628.582	0.0170090
628.660	0.0169254
628.738	0.0169025
628.817	0.0169736
628.895	0.0168040
628.973	0.0167185
629.051	0.0168433
629.129	0.0169065
629.207	0.0169919
629.285	0.0169185
629.363	0.0167929
629.442	0.0168855
629.520	0.0168063
629.598	0.0168150
629.676	0.0169987
629.754	0.0170595
629.832	0.0170534
629.910	0.0169267
629.988	0.0170399
630.067	0.0171633
630.145	0.0171207
630.223	0.0170364
630.301	0.0170450
630.379	0.0170027
630.457	0.0170616
630.535	0.0170322
630.613	0.0170070
630.692	0.0168305
630.770	0.0167527
630.848	0.0169317
630.926	0.0168799
631.004	0.0168898
631.082	0.0168708
631.160	0.0168945
631.238	0.0169682
631.317	0.0170423
631.395	0.0170169
631.473	0.0168314
631.551	0.0168517
631.629	0.0169110
631.707	0.0169859
631.785	0.0170806
631.863	0.0171627
631.942	0.0170994
632.020	0.0169740
632.098	0.0170467
632.176	0.0170885
632.254	0.0171100
632.332	0.0170802
632.410	0.0171507
632.488	0.0170094
632.567	0.0169281
632.645	0.0171581
632.723	0.0171870
632.801	0.0169775
632.879	0.0170103
632.957	0.0170618
633.035	0.0169497
633.113	0.0168732
633.192	0.0169669
633.270	0.0169971
633.348	0.0168784
633.426	0.0169805
633.504	0.0169524
633.582	0.0169427
633.660	0.0170444
633.738	0.0169706
633.817	0.0170051
633.895	0.0169629
633.973	0.0170305
634.051	0.0170943
634.129	0.0171516
634.207	0.0171373
634.285	0.0170699
634.363	0.0172172
634.442	0.0169956
634.520	0.0170434
634.598	0.0169936
634.676	0.0170105
634.754	0.0168839
634.832	0.0171144
634.910	0.0169956
634.988	0.0169830
635.067	0.0169697
635.145	0.0170072
635.223	0.0170060
635.301	0.0168324
635.379	0.0170116
635.457	0.0169985
635.535	0.0170882
635.613	0.0170043
635.692	0.0170023
635.770	0.0169791
635.848	0.0170112
635.926	0.0170270
636.004	0.0169707
636.082	0.0171532
636.160	0.0172060
636.238	0.0171789
636.317	0.0171029
636.395	0.0169955
636.473	0.0171462
636.551	0.0171547
636.629	0.0173148
636.707	0.0171806
636.785	0.0172569
636.863	0.0171001
636.942	0.0172334
637.020	0.0170799
637.098	0.0170595
637.176	0.0171303
637.254	0.0169833
637.332	0.0171310
637.410	0.0171154
637.488	0.0170350
637.567	0.0171191
637.645	0.0170965
637.723	0.0170106
637.801	0.0170711
637.879	0.0170162
637.957	0.0170435
638.035	0.0172486
638.113	0.0171507
638.192	0.0172411
638.270	0.0171756
638.348	0.0171458
638.426	0.0172033
638.504	0.0172395
638.582	0.0172883
638.660	0.0171199
638.738	0.0171178
638.817	0.0172884
638.895	0.0173572
638.973	0.0171962
639.051	0.0170216
639.129	0.0172665
639.207	0.0172807
639.285	0.0172202
639.363	0.0171647
639.442	0.0172671
639.520	0.0172532
639.598	0.0172704
639.676	0.0171516
639.754	0.0170875
639.832	0.0170679
639.910	0.0171479
639.988	0.0171769
640.067	0.0172231
640.145	0.0170804
640.223	0.0171431
640.301	0.0171719
640.379	0.0171548
640.457	0.0170944
640.535	0.0170628
640.613	0.0170311
640.692	0.0171493
640.770	0.0171195
640.848	0.0169955
640.926	0.0170078
641.004	0.0171456
641.082	0.0170969
641.160	0.0171774
641.238	0.0170993
641.317	0.0171563
641.395	0.0171721
641.473	0.0171860
641.551	0.0172733
641.629	0.0172026
641.707	0.0170184
641.785	0.0171516
641.863	0.0172407
641.942	0.0172728
642.020	0.0171307
642.098	0.0170775
642.176	0.0170932
642.254	0.0172401
642.332	0.0170934
642.410	0.0170816
642.488	0.0171761
642.567	0.0172689
642.645	0.0171783
642.723	0.0169397
642.801	0.0170252
642.879	0.0170864
642.957	0.0170540
643.035	0.0170325
643.113	0.0170907
643.192	0.0170821
643.270	0.0170430
643.348	0.0170457
643.426	0.0171049
643.504	0.0170784
643.582	0.0169837
643.660	0.0169646
643.738	0.0172176
643.817	0.0170996
643.895	0.0169969
643.973	0.0171390
644.051	0.0169892
644.129	0.0169283
644.207	0.0171285
644.285	0.0171062
644.363	0.0169835
644.442	0.0168993
644.520	0.0169529
644.598	0.0169281
644.676	0.0170346
644.754	0.0169501
644.832	0.0170027
644.910	0.0170956
644.988	0.0170511
645.067	0.0169418
645.145	0.0169191
645.223	0.0169016
645.301	0.0169430
645.379	0.0168996
645.457	0.0170192
645.535	0.0169127
645.613	0.0170265
645.692	0.0170521
645.770	0.0170771
645.848	0.0171180
645.926	0.0170291
646.004	0.0169872
646.082	0.0170541
646.160	0.0170719
646.238	0.0170138
646.317	0.0170325
646.395	0.0171069
646.473	0.0169447
646.551	0.0170771
646.629	0.0169935
646.707	0.0169759
646.785	0.0169924
646.863	0.0170012
646.942	0.0169087
647.020	0.0170608
647.098	0.0168831
647.176	0.0169656
647.254	0.0169035
647.332	0.0168845
647.410	0.0170348
647.488	0.0168932
647.567	0.0169722
647.645	0.0170102
647.723	0.0169418
647.801	0.0169170
647.879	0.0169949
647.957	0.0169543
648.035	0.0170985
648.113	0.0171375
648.192	0.0171862
648.270	0.0171405
648.348	0.0171004
648.426	0.0170393
648.504	0.0168630
648.582	0.0171777
648.660	0.0171619
648.738	0.0171265
648.817	0.0170562
648.895	0.0170764
648.973	0.0171087
649.051	0.0171335
649.129	0.0171353
649.207	0.0171263
649.285	0.0171352
649.363	0.0171939
649.442	0.0171071
649.520	0.0171078
649.598	0.0171336
649.676	0.0172371
649.754	0.0171379
649.832	0.0171788
649.910	0.0171091
649.988	0.0172757
650.067	0.0170854
650.145	0.0169871
650.223	0.0171268
650.301	0.0172122
650.379	0.0170939
650.457	0.0171667
650.535	0.0171227
650.613	0.0170564
650.692	0.0171702
650.770	0.0169722
650.848	0.0170104
650.926	0.0169657
651.004	0.0169817
651.082	0.0169813
651.160	0.0169244
651.238	0.0171339
651.317	0.0168382
651.395	0.0168900
651.473	0.0169652
651.551	0.0168249
651.629	0.0169276
651.707	0.0168980
651.785	0.0169110
651.863	0.0170632
651.942	0.0170058
652.020	0.0169647
652.098	0.0171178
652.176	0.0171359
652.254	0.0170838
652.332	0.0171937
652.410	0.0171327
652.488	0.0172295
652.567	0.0171344
652.645	0.0172321
652.723	0.0170602
652.801	0.0172366
652.879	0.0171893
652.957	0.0171624
653.035	0.0170877
653.113	0.0170222
653.192	0.0170979
653.270	0.0170126
653.348	0.0170677
653.426	0.0171535
653.504	0.0170100
653.582	0.0169881
653.660	0.0170007
653.738	0.0169769
653.817	0.0170282
653.895	0.0170332
653.973	0.0170394
654.051	0.0167886
654.129	0.0169773
654.207	0.0167876
654.285	0.0169276
654.363	0.0169556
654.442	0.0169096
654.520	0.0168729
654.598	0.0168410
654.676	0.0169563
654.754	0.0169878
654.832	0.0167722
654.910	0.0168184
654.988	0.0169111
655.067	0.0168053
655.145	0.0168429
655.223	0.0168830
655.301	0.0168281
655.379	0.0168712
655.457	0.0168861
655.535	0.0168545
655.613	0.0168494
655.692	0.0169051
655.770	0.0168834
655.848	0.0168573
655.926	0.0168280
656.004	0.0169133
656.082	0.0169978
656.160	0.0170692
656.238	0.0169753
656.317	0.0168864
656.395	0.0169055
656.473	0.0169825
656.551	0.0169445
656.629	0.0170422
656.707	0.0169624
656.785	0.0169576
656.863	0.0169317
656.942	0.0169905
657.020	0.0170460
657.098	0.0170875
657.176	0.0171304
657.254	0.0170457
657.332	0.0170737
657.410	0.0170909
657.488	0.0172632
657.567	0.0171445
657.645	0.0170341
657.723	0.0171757
657.801	0.0172788
657.879	0.0170425
657.957	0.0171166
658.035	0.0172620
658.113	0.0171825
658.192	0.0171916
658.270	0.0171486
658.348	0.0169997
658.426	0.0172265
658.504	0.0171444
658.582	0.0170139
658.660	0.0170284
658.738	0.0170740
658.817	0.0172119
658.895	0.0170579
658.973	0.0169968
659.051	0.0169611
659.129	0.0169460
659.207	0.0170800
659.285	0.0171493
659.363	0.0169741
659.442	0.0170242
659.520	0.0171051
659.598	0.0170576
659.676	0.0171091
659.754	0.0169965
659.832	0.0172435
659.910	0.0171014
659.988	0.0171391
660.067	0.0171855
660.145	0.0171202
660.223	0.0170621
660.301	0.0171024
660.379	0.0171894
660.457	0.0172321
660.535	0.0172144
660.613	0.0171293
660.692	0.0171813
660.770	0.0170633
660.848	0.0172031
660.926	0.0172694
661.004	0.0171375
661.082	0.0171268
661.160	0.0170822
661.238	0.0171354
661.317	0.0171842
661.395	0.0171155
661.473	0.0172166
661.551	0.0171322
661.629	0.0170898
661.707	0.0171623
661.785	0.0173355
661.863	0.0171813
661.942	0.0170930
662.020	0.0170206
662.098	0.0171402
662.176	0.0171809
662.254	0.0172097
662.332	0.0171256
662.410	0.0171626
662.488	0.0170786
662.567	0.0171806
662.645	0.0171304
662.723	0.0172411
662.801	0.0172017
662.879	0.0172224
662.957	0.0172037
663.035	0.0172852
663.113	0.0170596
663.192	0.0170742
663.270	0.0171159
663.348	0.0170932
663.426	0.0171756
663.504	0.0171004
663.582	0.0171301
663.660	0.0170567
663.738	0.0171675
663.817	0.0171451
663.895	0.0170364
663.973	0.0171131
664.051	0.0171037
664.129	0.0172079
664.207	0.0171148
664.285	0.0171985
664.363	0.0172166
664.442	0.0170679
664.520	0.0171442
664.598	0.0171609
664.676	0.0171672
664.754	0.0173030
664.832	0.0171797
664.910	0.0171034
664.988	0.0172781
665.067	0.0172863
665.145	0.0171452
665.223	0.0172726
665.301	0.0171676
665.379	0.0171595
665.457	0.0171951
665.535	0.0172852
665.613	0.0173883
665.692	0.0172639
665.770	0.0172115
665.848	0.0172820
665.926	0.0171729
666.004	0.0170847
666.082	0.0171126
666.160	0.0171400
666.238	0.0170612
666.317	0.0169593
666.395	0.0172531
666.473	0.0171925
666.551	0.0170420
666.629	0.0172429
666.707	0.0172479
666.785	0.0170615
666.863	0.0171106
666.942	0.0171106
667.020	0.0171539
667.098	0.0171426
667.176	0.0171912
667.254	0.0172279
667.332	0.0172227
667.410	0.0171855
667.488	0.0172283
667.567	0.0172424
667.645	0.0172662
667.723	0.0171394
667.801	0.0171799
667.879	0.0170477
667.957	0.0171490
668.035	0.0173276
668.113	0.0172221
668.192	0.0171809
668.270	0.0171077
668.348	0.0171371
668.426	0.0170542
668.504	0.0171265
668.582	0.0172247
668.660	0.0172230
668.738	0.0172498
668.817	0.0172906
668.895	0.0173591
668.973	0.0172842
669.051	0.0173212
669.129	0.0172533
669.207	0.0172402
669.285	0.0172219
669.363	0.0173032
669.442	0.0172736
669.520	0.0172118
669.598	0.0173420
669.676	0.0171436
669.754	0.0171563
669.832	0.0170910
669.910	0.0171607
669.988	0.0170624
670.067	0.0171677
670.145	0.0170754
670.223	0.0169564
670.301	0.0168815
670.379	0.0168621
670.457	0.0170303
670.535	0.0170099
670.613	0.0168856
670.692	0.0169433
670.770	0.0170461
670.848	0.0170695
670.926	0.0170152
671.004	0.0170021
671.082	0.0170596
671.160	0.0169788
671.238	0.0169505
671.317	0.0170551
671.395	0.0170852
671.473	0.0171055
671.551	0.0170982
671.629	0.0170073
671.707	0.0169527
671.785	0.0170908
671.863	0.0170421
671.942	0.0170460
672.020	0.0171103
672.098	0.0169557
672.176	0.0167970
672.254	0.0170721
672.332	0.0170969
672.410	0.0172280
672.488	0.0171113
672.567	0.0170595
672.645	0.0170637
672.723	0.0171014
672.801	0.0171671
672.879	0.0171341
672.957	0.0172720
673.035	0.0171454
673.113	0.0171677
673.192	0.0171937
673.270	0.0171201
673.348	0.0171379
673.426	0.0170689
673.504	0.0170951
673.582	0.0170538
673.660	0.0170818
673.738	0.0170585
673.817	0.0171474
673.895	0.0172292
673.973	0.0171355
674.051	0.0171896
674.129	0.0171588
674.207	0.0172518
674.285	0.0172923
674.363	0.0173373
674.442	0.0170415
674.520	0.0172649
674.598	0.0172770
674.676	0.0170185
674.754	0.0171556
674.832	0.0172441
674.910	0.0170451
674.988	0.0170581
675.067	0.0169299
675.145	0.0170664
675.223	0.0168883
675.301	0.0168230
675.379	0.0169001
675.457	0.0167565
675.535	0.0167683
675.613	0.0168983
675.692	0.0169164
675.770	0.0168780
675.848	0.0168394
675.926	0.0168686
676.004	0.0168243
676.082	0.0168031
676.160	0.0168465
676.238	0.0170317
676.317	0.0170624
676.395	0.0171775
676.473	0.0171223
676.551	0.0171431
676.629	0.0171874
676.707	0.0173459
676.785	0.0173054
676.863	0.0174264
676.942	0.0174678
677.020	0.0175884
677.098	0.0174355
677.176	0.0174567
677.254	0.0173948
677.332	0.0174490
677.410	0.0172569
677.488	0.0173202
677.567	0.0171613
677.645	0.0171247
677.723	0.0171272
677.801	0.0171093
677.879	0.0169290
677.957	0.0168164
678.035	0.0167241
678.113	0.0166650
678.192	0.0167450
678.270	0.0164342
678.348	0.0164368
678.426	0.0165531
678.504	0.0165531
678.582	0.0166617
678.660	0.0166864
678.738	0.0166952
678.817	0.0167651
678.895	0.0169224
678.973	0.0170264
679.051	0.0170949
679.129	0.0171429
679.207	0.0172852
679.285	0.0173395
679.363	0.0171844
679.442	0.0174581
679.520	0.0173552
679.598	0.0173898
679.676	0.0173029
679.754	0.0172140
679.832	0.0172202
679.910	0.0171737
679.988	0.0171744
680.067	0.0169586
680.145	0.0168499
680.223	0.0166840
680.301	0.0167938
680.379	0.0166689
680.457	0.0166055
680.535	0.0164567
680.613	0.0164863
680.692	0.0164330
680.770	0.0164906
680.848	0.0163680
680.926	0.0165536
681.004	0.0165870
681.082	0.0165665
681.160	0.0165698
681.238	0.0167053
681.317	0.0168832
681.395	0.0170683
681.473	0.0172005
681.551	0.0172910
681.629	0.0174060
681.707	0.0174995
681.785	0.0175278
681.863	0.0176217
681.942	0.0175841
682.020	0.0177867
682.098	0.0178031
682.176	0.0176678
682.254	0.0176398
682.332	0.0176238
682.410	0.0175859
682.488	0.0175407
682.567	0.0175909
682.645	0.0176889
682.723	0.0174168
682.801	0.0172779
682.879	0.0175375
682.957	0.0172848
683.035	0.0171031
683.113	0.0170729
683.192	0.0168711
683.270	0.0167271
683.348	0.0167664
683.426	0.0166148
683.504	0.0164497
683.582	0.0164152
683.660	0.0163505
683.738	0.0161806
683.817	0.0161722
683.895	0.0161118
683.973	0.0161961
684.051	0.0159576
684.129	0.0159666
684.207	0.0161522
684.285	0.0161515
684.363	0.0160481
684.442	0.0163575
684.520	0.0165523
684.598	0.0164434
684.676	0.0166777
684.754	0.0167515
684.832	0.0169645
684.910	0.0171401
684.988	0.0172775
685.067	0.0173727
685.145	0.0177394
685.223	0.0179638
685.301	0.0179771
685.379	0.0182511
685.457	0.0183553
685.535	0.0183416
685.613	0.0186518
685.692	0.0185893
685.770	0.0186742
685.848	0.0187481
685.926	0.0186217
686.004	0.0185131
686.082	0.0184651
686.160	0.0181993
686.238	0.0181439
686.317	0.0179847
686.395	0.0178452
686.473	0.0178263
686.551	0.0176508
686.629	0.0175774
686.707	0.0173725
686.785	0.0169987
686.863	0.0170069
686.942	0.0167858
687.020	0.0166048
687.098	0.0165290
687.176	0.0162848
687.254	0.0161488
687.332	0.0161349
687.410	0.0159597
687.488	0.0158881
687.567	0.0159908
687.645	0.0158610
687.723	0.0159100
687.801	0.0158186
687.879	0.0160206
687.957	0.0160188
688.035	0.0160635
688.113	0.0160862
688.192	0.0163073
688.270	0.0164797
688.348	0.0165829
688.426	0.0166313
688.504	0.0168603
688.582	0.0170528
688.660	0.0169207
688.738	0.0171104
688.817	0.0172150
688.895	0.0172292
688.973	0.0172843
689.051	0.0174165
689.129	0.0175964
689.207	0.0176471
689.285	0.0176984
689.363	0.0177484
689.442	0.0177625
689.520	0.0178577
689.598	0.0178759
689.676	0.0179400
689.754	0.0178773
689.832	0.0180202
689.910	0.0180227
689.988	0.0181433
690.067	0.0181282
690.145	0.0183330
690.223	0.0183910
690.301	0.0184579
690.379	0.0184791
690.457	0.0185980
690.535	0.0185575
690.613	0.0185957
690.692	0.0186000
690.770	0.0185758
690.848	0.0183589
690.926	0.0182021
691.004	0.0182414
691.082	0.0180598
691.160	0.0178847
691.238	0.0176490
691.317	0.0174652
691.395	0.0171778
691.473	0.0169798
691.551	0.0166405
691.629	0.0165853
691.707	0.0163806
691.785	0.0161122
691.863	0.0158486
691.942	0.0159227
692.020	0.0157478
692.098	0.0156895
692.176	0.0155520
692.254	0.0155119
692.332	0.0154922
692.410	0.0157266
692.488	0.0154211
692.567	0.0156960
692.645	0.0157801
692.723	0.0158233
692.801	0.0159206
692.879	0.0161453
692.957	0.0161252
693.035	0.0162535
693.113	0.0162795
693.192	0.0162946
693.270	0.0165172
693.348	0.0166312
693.426	0.0166537
693.504	0.0166957
693.582	0.0169714
693.660	0.0170820
693.738	0.0173040
693.817	0.0174559
693.895	0.0176358
693.973	0.0176640
694.051	0.0176889
694.129	0.0179408
694.207	0.0181508
694.285	0.0181810
694.363	0.0182439
694.442	0.0182879
694.520	0.0187122
694.598	0.0187231
694.676	0.0187838
694.754	0.0189061
694.832	0.0188359
694.910	0.0188914
694.988	0.0189150
695.067	0.0188441
695.145	0.0187766
695.223	0.0187549
695.301	0.0186820
695.379	0.0185478
695.457	0.0184690
695.535	0.0182754
695.613	0.0181273
695.692	0.0178217
695.770	0.0178745
695.848	0.0176151
695.926	0.0173573
696.004	0.0169281
696.082	0.0168230
696.160	0.0165635
696.238	0.0163377
696.317	0.0161289
696.395	0.0158421
696.473	0.0155147
696.551	0.0152126
696.629	0.0152063
696.707	0.0150777
696.785	0.0146503
696.863	0.0145427
696.942	0.0144324
697.020	0.0143954
697.098	0.0144488
697.176	0.0144191
697.254	0.0144063
697.332	0.0146835
697.410	0.0146152
697.488	0.0149050
697.567	0.0152514
697.645	0.0153444
697.723	0.0156433
697.801	0.0159445
697.879	0.0162637
697.957	0.0165353
698.035	0.0170108
698.113	0.0172552
698.192	0.0175671
698.270	0.0177867
698.348	0.0181287
698.426	0.0183725
698.504	0.0184994
698.582	0.0185001
698.660	0.0189257
698.738	0.0190031
698.817	0.0190308
698.895	0.0191853
698.973	0.0193299
699.051	0.0193176
699.129	0.0193307
699.207	0.0193076
699.285	0.0192051
699.363	0.0192967
699.442	0.0191866
699.520	0.0191043
699.598	0.0189880
699.676	0.0188673
699.754	0.0186616
699.832	0.0183274
699.910	0.0181715
699.988	0.0178945
700.067	0.0176661
700.145	0.0175874
700.223	0.0172422
700.301	0.0170191
700.379	0.0166597
700.457	0.0165058
700.535	0.0162862
700.613	0.0162191
700.692	0.0158886
700.770	0.0158466
700.848	0.0157054
700.926	0.0157733
701.004	0.0158445
701.082	0.0156128
701.160	0.0155147
701.238	0.0157081
701.317	0.0156126
701.395	0.0155240
701.473	0.0154919
701.551	0.0155354
701.629	0.0154888
701.707	0.0155376
701.785	0.0155825
701.863	0.0154003
701.942	0.0153878
702.020	0.0154853
702.098	0.0154980
702.176	0.0155116
702.254	0.0155705
702.332	0.0156114
702.410	0.0158298
702.488	0.0158020
702.567	0.0160683
702.645	0.0161991
702.723	0.0165223
702.801	0.0165781
702.879	0.0168125
702.957	0.0170270
703.035	0.0171949
703.113	0.0176810
703.192	0.0178393
703.270	0.0179628
703.348	0.0182543
703.426	0.0184310
703.504	0.0187592
703.582	0.0190076
703.660	0.0190078
703.738	0.0192990
703.817	0.0194367
703.895	0.0194241
703.973	0.0193959
704.051	0.0194688
704.129	0.0193809
704.207	0.0192798
704.285	0.0193459
704.363	0.0190943
704.442	0.0187920
704.520	0.0186381
704.598	0.0184288
704.676	0.0182101
704.754	0.0179705
704.832	0.0176606
704.910	0.0174251
704.988	0.0171971
705.067	0.0170053
705.145	0.0168185
705.223	0.0165975
705.301	0.0164542
705.379	0.0161933
705.457	0.0160786
705.535	0.0159235
705.613	0.0158266
705.692	0.0156635
705.770	0.0155852
705.848	0.0155429
705.926	0.0155688
706.004	0.0155824
706.082	0.0154764
706.160	0.0155840
706.238	0.0156226
706.317	0.0157522
706.395	0.0158124
706.473	0.0159772
706.551	0.0161536
706.629	0.0161514
706.707	0.0163551
706.785	0.0165041
706.863	0.0165986
706.942	0.0167068
707.020	0.0169102
707.098	0.0171737
707.176	0.0172222
707.254	0.0171257
707.332	0.0173728
707.410	0.0173840
707.488	0.0174454
707.567	0.0174440
707.645	0.0174181
707.723	0.0174823
707.801	0.0175430
707.879	0.0175055
707.957	0.0174571
708.035	0.0175918
708.113	0.0174529
708.192	0.0174065
708.270	0.0174677
708.348	0.0174020
708.426	0.0175602
708.504	0.0176429
708.582	0.0174170
708.660	0.0173977
708.738	0.0174184
708.817	0.0175450
708.895	0.0175360
708.973	0.0174077
709.051	0.0172211
709.129	0.0172818
709.207	0.0172002
709.285	0.0172963
709.363	0.0172181
709.442	0.0171082
709.520	0.0171603
709.598	0.0174069
709.676	0.0173024
709.754	0.0173080
709.832	0.0174104
709.910	0.0173312
709.988	0.0174391
710.067	0.0174635
710.145	0.0174967
710.223	0.0174243
710.301	0.0175157
710.379	0.0176482
710.457	0.0174847
710.535	0.0176783
710.613	0.0176173
710.692	0.0175958
710.770	0.0174774
710.848	0.0172980
710.926	0.0172988
711.004	0.0173186
711.082	0.0170480
711.160	0.0170102
711.238	0.0170185
711.317	0.0168860
711.395	0.0167083
711.473	0.0167310
711.551	0.0166004
711.629	0.0165707
711.707	0.0165393
711.785	0.0165060
711.863	0.0164842
711.942	0.0164582
712.020	0.0166595
712.098	0.0166753
712.176	0.0168488
712.254	0.0167805
712.332	0.0167094
712.410	0.0169805
712.488	0.0170536
712.567	0.0171903
712.645	0.0171391
712.723	0.0171084
712.801	0.0171411
712.879	0.0170886
712.957	0.0171414
713.035	0.0169923
713.113	0.0169277
713.192	0.0170118
713.270	0.0169872
713.348	0.0168204
713.426	0.0168723
713.504	0.0168764
713.582	0.0168369
713.660	0.0168204
713.738	0.0167036
713.817	0.0168360
713.895	0.0170133
713.973	0.0171226
714.051	0.0170322
714.129	0.0170109
714.207	0.0171267
714.285	0.0173250
714.363	0.0172826
714.442	0.0173064
714.520	0.0171793
714.598	0.0172678
714.676	0.0172576
714.754	0.0172270
714.832	0.0174465
714.910	0.0173693
714.988	0.0173643
715.067	0.0173100
715.145	0.0174499
715.223	0.0174831
715.301	0.0174354
715.379	0.0173029
715.457	0.0174348
715.535	0.0174364
715.613	0.0176012
715.692	0.0177181
715.770	0.0177194
715.848	0.0177333
715.926	0.0177561
716.004	0.0176736
716.082	0.0177023
716.160	0.0175348
716.238	0.0176778
716.317	0.0175974
716.395	0.0174724
716.473	0.0174979
716.551	0.0173555
716.629	0.0173215
716.707	0.0172429
716.785	0.0170924
716.863	0.0168739
716.942	0.0167845
717.020	0.0166273
717.098	0.0165951
717.176	0.0163927
717.254	0.0163099
717.332	0.0161960
717.410	0.0161188
717.488	0.0160999
717.567	0.0161344
717.645	0.0161529
717.723	0.0161493
717.801	0.0161240
717.879	0.0160711
717.957	0.0160718
718.035	0.0162373
718.113	0.0162858
718.192	0.0162582
718.270	0.0162376
718.348	0.0163510
718.426	0.0164436
718.504	0.0163923
718.582	0.0165281
718.660	0.0165614
718.738	0.0167799
718.817	0.0166368
718.895	0.0167866
718.973	0.0167534
719.051	0.0167639
719.129	0.0169425
719.207	0.0168092
719.285	0.0168289
719.363	0.0169713
719.442	0.0169303
719.520	0.0170237
719.598	0.0169969
719.676	0.0169353
719.754	0.0170638
719.832	0.0168275
719.910	0.0170554
719.988	0.0170766
720.067	0.0170215
720.145	0.0169859
720.223	0.0169499
720.301	0.0169341
720.379	0.0170922
720.457	0.0170645
720.535	0.0170824
720.613	0.0170212
720.692	0.0171651
720.770	0.0172323
720.848	0.0172672
720.926	0.0174059
721.004	0.0172803
721.082	0.0173695
721.160	0.0173344
721.238	0.0174357
721.317	0.0174217
721.395	0.0173587
721.473	0.0173968
721.551	0.0174208
721.629	0.0174991
721.707	0.0176637
721.785	0.0177010
721.863	0.0177492
721.942	0.0178477
722.020	0.0178003
722.098	0.0179348
722.176	0.0179379
722.254	0.0180083
722.332	0.0179559
722.410	0.0179340
722.488	0.0179769
722.567	0.0180439
722.645	0.0177819
722.723	0.0178311
722.801	0.0176431
722.879	0.0174928
722.957	0.0173184
723.035	0.0171726
723.113	0.0169086
723.192	0.0168953
723.270	0.0167635
723.348	0.0164330
723.426	0.0163933
723.504	0.0162377
723.582	0.0162924
723.660	0.0161298
723.738	0.0161405
723.817	0.0159466
723.895	0.0158768
723.973	0.0159416
724.051	0.0159890
724.129	0.0159337
724.207	0.0160955
724.285	0.0162769
724.363	0.0163329
724.442	0.0162550
724.520	0.0166571
724.598	0.0165721
724.676	0.0166020
724.754	0.0169452
724.832	0.0167991
724.910	0.0170789
724.988	0.0169691
725.067	0.0171118
725.145	0.0172160
725.223	0.0171472
725.301	0.0171523
725.379	0.0170684
725.457	0.0171239
725.535	0.0170683
725.613	0.0171348
725.692	0.0170422
725.770	0.0169619
725.848	0.0170634
725.926	0.0170074
726.004	0.0170589
726.082	0.0170370
726.160	0.0171136
726.238	0.0173208
726.317	0.0175034
726.395	0.0173895
726.473	0.0174279
726.551	0.0174798
726.629	0.0175632
726.707	0.0175475
726.785	0.0177246
726.863	0.0176683
726.942	0.0177238
727.020	0.0178216
727.098	0.0176649
727.176	0.0176447
727.254	0.0177159
727.332	0.0176267
727.410	0.0175196
727.488	0.0176295
727.567	0.0174598
727.645	0.0176031
727.723	0.0174369
727.801	0.0174156
727.879	0.0173697
727.957	0.0173727
728.035	0.0172396
728.113	0.0172131
728.192	0.0172849
728.270	0.0171724
728.348	0.0170460
728.426	0.0170495
728.504	0.0170499
728.582	0.0170599
728.660	0.0170827
728.738	0.0169919
728.817	0.0170057
728.895	0.0169585
728.973	0.0170102
729.051	0.0171397
729.129	0.0171294
729.207	0.0169664
729.285	0.0171533
729.363	0.0171452
729.442	0.0170823
729.520	0.0169718
729.598	0.0169843
729.676	0.0169440
729.754	0.0169967
729.832	0.0169060
729.910	0.0170421
729.988	0.0170317
730.067	0.0170875
730.145	0.0169103
730.223	0.0167287
730.301	0.0166886
730.379	0.0166683
730.457	0.0165759
730.535	0.0164892
730.613	0.0165466
730.692	0.0164539
730.770	0.0164675
730.848	0.0165585
730.926	0.0165886
731.004	0.0165353
731.082	0.0165417
731.160	0.0166718
731.238	0.0167406
731.317	0.0166779
731.395	0.0169265
731.473	0.0170020
731.551	0.0169968
731.629	0.0171632
731.707	0.0171485
731.785	0.0173251
731.863	0.0171818
731.942	0.0172039
732.020	0.0171224
732.098	0.0175334
732.176	0.0174581
732.254	0.0173298
732.332	0.0173724
732.410	0.0174007
732.488	0.0173793
732.567	0.0174346
732.645	0.0175341
732.723	0.0174425
732.801	0.0173051
732.879	0.0173160
732.957	0.0173676
733.035	0.0174020
733.113	0.0173662
733.192	0.0175173
733.270	0.0174286
733.348	0.0174203
733.426	0.0175430
733.504	0.0175052
733.582	0.0175210
733.660	0.0176106
733.738	0.0176628
733.817	0.0177090
733.895	0.0178088
733.973	0.0178266
734.051	0.0177956
734.129	0.0179255
734.207	0.0179429
734.285	0.0178468
734.363	0.0177386
734.442	0.0176626
734.520	0.0176920
734.598	0.0175273
734.676	0.0174386
734.754	0.0174699
734.832	0.0171726
734.910	0.0171484
734.988	0.0169624
735.067	0.0168002
735.145	0.0169779
735.223	0.0167645
735.301	0.0167519
735.379	0.0167062
735.457	0.0166917
735.535	0.0165823
735.613	0.0164935
735.692	0.0166272
735.770	0.0164846
735.848	0.0164693
735.926	0.0165929
736.004	0.0166366
736.082	0.0165452
736.160	0.0165112
736.238	0.0166469
736.317	0.0165305
736.395	0.0165603
736.473	0.0167158
736.551	0.0165646
736.629	0.0166579
736.707	0.0164904
736.785	0.0165246
736.863	0.0166473
736.942	0.0165310
737.020	0.0166256
737.098	0.0165479
737.176	0.0165005
737.254	0.0163374
737.332	0.0164215
737.410	0.0165278
737.488	0.0164266
737.567	0.0165890
737.645	0.0165047
737.723	0.0164891
737.801	0.0165513
737.879	0.0165718
737.957	0.0167159
738.035	0.0168287
738.113	0.0167099
738.192	0.0166392
738.270	0.0169677
738.348	0.0168389
738.426	0.0168633
738.504	0.0168729
738.582	0.0169375
738.660	0.0169894
738.738	0.0169833
738.817	0.0169351
738.895	0.0169496
738.973	0.0171082
739.051	0.0171275
739.129	0.0172243
739.207	0.0170928
739.285	0.0171164
739.363	0.0170470
739.442	0.0171893
739.520	0.0173413
739.598	0.0171379
739.676	0.0171873
739.754	0.0173309
739.832	0.0173331
739.910	0.0172861
739.988	0.0172671
740.067	0.0173742
740.145	0.0174502
740.223	0.0173901
740.301	0.0174512
740.379	0.0175018
740.457	0.0176939
740.535	0.0175388
740.613	0.0175929
740.692	0.0176300
740.770	0.0177184
740.848	0.0175689
740.926	0.0174738
741.004	0.0175205
741.082	0.0175468
741.160	0.0174213
741.238	0.0172343
741.317	0.0172623
741.395	0.0172234
741.473	0.0171804
741.551	0.0173082
741.629	0.0172166
741.707	0.0172155
741.785	0.0171852
741.863	0.0169530
741.942	0.0170205
742.020	0.0169946
742.098	0.0171769
742.176	0.0170789
742.254	0.0170913
742.332	0.0170445
742.410	0.0169884
742.488	0.0168815
742.567	0.0168721
742.645	0.0168344
742.723	0.0167930
742.801	0.0167104
742.879	0.0167141
742.957	0.0167262
743.035	0.0167850
743.113	0.0167237
743.192	0.0166942
743.270	0.0167385
743.348	0.0167936
743.426	0.0168508
743.504	0.0167627
743.582	0.0168520
743.660	0.0168611
743.738	0.0170316
743.817	0.0169874
743.895	0.0169380
743.973	0.0170139
744.051	0.0172114
744.129	0.0171484
744.207	0.0170013
744.285	0.0169112
744.363	0.0168969
744.442	0.0169161
744.520	0.0168391
744.598	0.0169444
744.676	0.0168273
744.754	0.0169473
744.832	0.0167919
744.910	0.0169510
744.988	0.0170152
745.067	0.0169581
745.145	0.0170303
745.223	0.0171838
745.301	0.0172598
745.379	0.0172985
745.457	0.0173773
745.535	0.0174219
745.613	0.0174261
745.692	0.0173904
745.770	0.0175015
745.848	0.0175457
745.926	0.0174624
746.004	0.0173591
746.082	0.0173910
746.160	0.0173391
746.238	0.0173573
746.317	0.0173415
746.395	0.0172833
746.473	0.0171821
746.551	0.0173384
746.629	0.0173744
746.707	0.0172301
746.785	0.0173489
746.863	0.0174644
746.942	0.0174998
747.020	0.0174557
747.098	0.0174287
747.176	0.0175707
747.254	0.0176604
747.332	0.0176468
747.410	0.0178219
747.488	0.0177685
747.567	0.0176622
747.645	0.0176664
747.723	0.0176147
747.801	0.0176143
747.879	0.0176575
747.957	0.0174925
748.035	0.0175740
748.113	0.0174246
748.192	0.0173619
748.270	0.0172127
748.348	0.0171508
748.426	0.0171845
748.504	0.0170868
748.582	0.0170313
748.660	0.0168633
748.738	0.0167481
748.817	0.0167841
748.895	0.0166496
748.973	0.0165543
749.051	0.0164242
749.129	0.0165620
749.207	0.0164725
749.285	0.0164240
749.363	0.0163680
749.442	0.0162199
749.520	0.0162459
749.598	0.0161388
749.676	0.0162211
749.754	0.0163395
749.832	0.0163081
749.910	0.0162276
749.988	0.0164377
750.067	0.0165387
750.145	0.0164338
750.223	0.0166415
750.301	0.0167541
750.379	0.0167989
750.457	0.0167126
750.535	0.0168640
750.613	0.0168265
750.692	0.0169809
750.770	0.0169298
750.848	0.0169560
750.926	0.0169090
751.004	0.0167699
751.082	0.0169093
751.160	0.0167426
751.238	0.0166808
751.317	0.0166951
751.395	0.0168072
751.473	0.0166598
751.551	0.0167279
751.629	0.0166479
751.707	0.0167789
751.785	0.0168154
751.863	0.0168175
751.942	0.0168562
752.020	0.0169576
752.098	0.0172414
752.176	0.0172497
752.254	0.0172514
752.332	0.0174174
752.410	0.0174174
752.488	0.0174606
752.567	0.0174586
752.645	0.0174811
752.723	0.0175291
752.801	0.0174909
752.879	0.0175560
752.957	0.0174963
753.035	0.0174218
753.113	0.0174402
753.192	0.0173579
753.270	0.0174158
753.348	0.0174202
753.426	0.0173269
753.504	0.0174263
753.582	0.0173840
753.660	0.0173476
753.738	0.0173913
753.817	0.0174712
753.895	0.0175315
753.973	0.0175010
754.051	0.0174989
754.129	0.0175156
754.207	0.0176048
754.285	0.0175855
754.363	0.0175217
754.442	0.0176980
754.520	0.0177312
754.598	0.0177698
754.676	0.0176534
754.754	0.0177460
754.832	0.0177134
754.910	0.0175798
754.988	0.0176501
755.067	0.0177445
755.145	0.0174582
755.223	0.0175818
755.301	0.0175470
755.379	0.0174305
755.457	0.0173665
755.535	0.0173480
755.613	0.0173703
755.692	0.0172900
755.770	0.0171914
755.848	0.0170646
755.926	0.0168806
756.004	0.0168070
756.082	0.0168983
756.160	0.0167931
756.238	0.0167487
756.317	0.0167416
756.395	0.0166700
756.473	0.0166658
756.551	0.0166812
756.629	0.0166501
756.707	0.0166644
756.785	0.0165215
756.863	0.0166315
756.942	0.0168604
757.020	0.0167019
757.098	0.0167196
757.176	0.0166692
757.254	0.0167462
757.332	0.0168743
757.410	0.0167924
757.488	0.0168227
757.567	0.0168954
757.645	0.0169190
757.723	0.0169955
757.801	0.0169803
757.879	0.0169379
757.957	0.0170184
758.035	0.0169548
758.113	0.0169781
758.192	0.0170068
758.270	0.0170747
758.348	0.0171162
758.426	0.0170409
758.504	0.0168742
758.582	0.0170432
758.660	0.0171671
758.738	0.0170026
758.817	0.0170502
758.895	0.0172897
758.973	0.0170174
759.051	0.0171073
759.129	0.0170859
759.207	0.0171682
759.285	0.0171378
759.363	0.0173014
759.442	0.0174150
759.520	0.0172949
759.598	0.0174654
759.676	0.0174828
759.754	0.0174506
759.832	0.0175981
759.910	0.0176009
759.988	0.0175526
760.067	0.0174430
760.145	0.0175229
760.223	0.0173724
760.301	0.0173119
760.379	0.0173052
760.457	0.0173271
760.535	0.0172174
760.613	0.0170981
760.692	0.0169852
760.770	0.0170771
760.848	0.0169450
760.926	0.0169228
761.004	0.0168539
761.082	0.0168742
761.160	0.0167703
761.238	0.0168372
761.317	0.0167252
761.395	0.0168053
761.473	0.0168934
761.551	0.0169388
761.629	0.0168732
761.707	0.0168482
761.785	0.0170142
761.863	0.0170402
761.942	0.0170107
762.020	0.0170760
762.098	0.0170717
762.176	0.0171406
762.254	0.0173131
762.332	0.0172834
762.410	0.0171329
762.488	0.0172823
762.567	0.0173162
762.645	0.0173412
762.723	0.0173141
762.801	0.0173165
762.879	0.0172663
762.957	0.0173167
763.035	0.0171741
763.113	0.0169820
763.192	0.0172199
763.270	0.0171487
763.348	0.0170768
763.426	0.0169395
763.504	0.0170039
763.582	0.0169172
763.660	0.0169609
763.738	0.0169226
763.817	0.0169904
763.895	0.0169090
763.973	0.0167648
764.051	0.0168467
764.129	0.0167987
764.207	0.0166944
764.285	0.0167686
764.363	0.0168492
764.442	0.0168781
764.520	0.0166080
764.598	0.0166986
764.676	0.0167024
764.754	0.0165710
764.832	0.0166594
764.910	0.0166739
764.988	0.0167844
765.067	0.0167424
765.145	0.0168321
765.223	0.0167609
765.301	0.0168069
765.379	0.0168172
765.457	0.0169427
765.535	0.0170287
765.613	0.0170708
765.692	0.0169351
765.770	0.0170053
765.848	0.0170863
765.926	0.0171032
766.004	0.0170691
766.082	0.0169482
766.160	0.0169526
766.238	0.0168429
766.317	0.0169291
766.395	0.0168018
766.473	0.0168860
766.551	0.0168740
766.629	0.0169084
766.707	0.0168270
766.785	0.0168999
766.863	0.0169895
766.942	0.0172066
767.020	0.0170054
767.098	0.0170233
767.176	0.0172910
767.254	0.0170707
767.332	0.0171984
767.410	0.0172427
767.488	0.0172815
767.567	0.0173316
767.645	0.0173926
767.723	0.0172878
767.801	0.0174110
767.879	0.0173238
767.957	0.0174336
768.035	0.0173639
768.113	0.0172370
768.192	0.0173045
768.270	0.0173409
768.348	0.0175066
768.426	0.0172572
768.504	0.0172126
768.582	0.0172978
768.660	0.0172689
768.738	0.0173859
768.817	0.0174341
768.895	0.0172489
768.973	0.0173788
769.051	0.0174149
769.129	0.0173686
769.207	0.0173122
769.285	0.0175506
769.363	0.0174316
769.442	0.0173386
769.520	0.0173000
769.598	0.0173899
769.676	0.0173846
769.754	0.0173223
769.832	0.0172652
769.910	0.0173080
769.988	0.0172358
770.067	0.0172705
770.145	0.0172198
770.223	0.0169724
770.301	0.0171890
770.379	0.0171227
770.457	0.0169208
770.535	0.0170040
770.613	0.0170114
770.692	0.0168089
770.770	0.0169003
770.848	0.0169478
770.926	0.0169254
771.004	0.0170477
771.082	0.0169775
771.160	0.0168719
771.238	0.0169572
771.317	0.0170240
771.395	0.0169542
771.473	0.0170380
771.551	0.0169811
771.629	0.0171423
771.707	0.0170847
771.785	0.0170791
771.863	0.0170507
771.942	0.0171365
772.020	0.0170988
772.098	0.0170717
772.176	0.0169949
772.254	0.0169283
772.332	0.0169244
772.410	0.0170036
772.488	0.0167516
772.567	0.0169937
772.645	0.0168454
772.723	0.0167303
772.801	0.0168172
772.879	0.0167979
772.957	0.0168399
773.035	0.0167757
773.113	0.0168233
773.192	0.0169485
773.270	0.0169975
773.348	0.0169757
773.426	0.0169543
773.504	0.0170753
773.582	0.0170243
773.660	0.0169263
773.738	0.0170737
773.817	0.0172103
773.895	0.0172089
773.973	0.0172235
774.051	0.0171427
774.129	0.0172026
774.207	0.0172198
774.285	0.0172048
774.363	0.0172903
774.442	0.0172922
774.520	0.0172772
774.598	0.0172317
774.676	0.0172663
774.754	0.0172090
774.832	0.0171664
774.910	0.0172540
774.988	0.0173072
775.067	0.0171851
775.145	0.0171822
775.223	0.0171915
775.301	0.0172741
775.379	0.0171770
775.457	0.0171889
775.535	0.0172781
775.613	0.0169765
775.692	0.0171075
775.770	0.0172038
775.848	0.0171432
775.926	0.0170979
776.004	0.0171710
776.082	0.0171533
776.160	0.0169452
776.238	0.0170693
776.317	0.0170878
776.395	0.0170000
776.473	0.0169537
776.551	0.0168489
776.629	0.0168396
776.707	0.0168943
776.785	0.0168468
776.863	0.0168548
776.942	0.0169544
777.020	0.0168400
777.098	0.0169086
777.176	0.0169703
777.254	0.0168874
777.332	0.0167708
777.410	0.0169528
777.488	0.0169939
777.567	0.0167198
777.645	0.0168743
777.723	0.0170010
777.801	0.0169861
777.879	0.0167800
777.957	0.0169104
778.035	0.0168114
778.113	0.0168002
778.192	0.0168641
778.270	0.0169276
778.348	0.0169327
778.426	0.0169685
778.504	0.0169123
778.582	0.0168629
778.660	0.0168906
778.738	0.0169557
778.817	0.0169892
778.895	0.0168814
778.973	0.0169722
779.051	0.0170940
779.129	0.0170143
779.207	0.0170714
779.285	0.0168748
779.363	0.0170648
779.442	0.0170959
779.520	0.0171248
779.598	0.0171911
779.676	0.0169160
779.754	0.0171355
779.832	0.0170920
779.910	0.0169823
779.988	0.0170153
780.067	0.0170180
780.145	0.0169979
780.223	0.0171181
780.301	0.0169472
780.379	0.0169438
780.457	0.0170306
780.535	0.0169260
780.613	0.0169891
780.692	0.0170385
780.770	0.0169091
780.848	0.0169301
780.926	0.0170126
781.004	0.0171524
781.082	0.0172541
781.160	0.0171297
781.238	0.0171696
781.317	0.0171138
781.395	0.0171176
781.473	0.0173669
781.551	0.0171535
781.629	0.0173681
781.707	0.0173447
781.785	0.0172823
781.863	0.0172258
781.942	0.0172076
782.020	0.0173041
782.098	0.0171919
782.176	0.0173312
782.254	0.0170464
782.332	0.0171525
782.410	0.0171485
782.488	0.0171755
782.567	0.0171388
782.645	0.0170683
782.723	0.0170322
782.801	0.0170314
782.879	0.0169531
782.957	0.0171681
783.035	0.0171703
783.113	0.0171041
783.192	0.0171320
783.270	0.0171348
783.348	0.0170824
783.426	0.0170992
783.504	0.0172623
783.582	0.0171320
783.660	0.0173283
783.738	0.0171339
783.817	0.0171867
783.895	0.0172237
783.973	0.0171716
784.051	0.0171510
784.129	0.0170272
784.207	0.0170274
784.285	0.0170504
784.363	0.0169521
784.442	0.0169795
784.520	0.0170432
784.598	0.0168860
784.676	0.0170782
784.754	0.0169813
784.832	0.0170687
784.910	0.0169957
784.988	0.0170766
785.067	0.0170859
785.145	0.0169746
785.223	0.0170438
785.301	0.0170296
785.379	0.0169956
785.457	0.0172068
785.535	0.0171633
785.613	0.0170888
785.692	0.0173785
785.770	0.0172955
785.848	0.0173519
785.926	0.0173814
786.004	0.0176045
786.082	0.0175729
786.160	0.0175293
786.238	0.0175757
786.317	0.0177211
786.395	0.0176251
786.473	0.0178779
786.551	0.0177862
786.629	0.0177630
786.707	0.0177605
786.785	0.0176834
786.863	0.0176736
786.942	0.0176862
787.020	0.0173988
787.098	0.0173910
787.176	0.0174934
787.254	0.0174305
787.332	0.0174409
787.410	0.0171574
787.488	0.0172249
787.567	0.0170666
787.645	0.0171221
787.723	0.0169527
787.801	0.0169381
787.879	0.0170129
787.957	0.0168575
788.035	0.0169514
788.113	0.0167671
788.192	0.0166679
788.270	0.0167995
788.348	0.0168308
788.426	0.0167720
788.504	0.0167437
788.582	0.0165715
788.660	0.0166281
788.738	0.0167018
788.817	0.0167800
788.895	0.0167229
788.973	0.0166779
789.051	0.0168887
789.129	0.0168648
789.207	0.0168668
789.285	0.0167872
789.363	0.0169406
789.442	0.0169402
789.520	0.0168751
789.598	0.0169160
789.676	0.0169403
789.754	0.0168786
789.832	0.0168555
789.910	0.0168615
789.988	0.0170361
790.067	0.0170348
790.145	0.0170953
790.223	0.0170462
790.301	0.0170139
790.379	0.0170292
790.457	0.0171027
790.535	0.0171819
790.613	0.0171141
790.692	0.0172006
790.770	0.0172498
790.848	0.0173662
790.926	0.0172858
791.004	0.0173077
791.082	0.0173029
791.160	0.0172577
791.238	0.0171912
791.317	0.0171925
791.395	0.0171933
791.473	0.0173823
791.551	0.0172241
791.629	0.0173308
791.707	0.0172092
791.785	0.0172681
791.863	0.0173055
791.942	0.0172357
792.020	0.0170905
792.098	0.0172267
792.176	0.0171481
792.254	0.0172018
792.332	0.0171796
792.410	0.0170617
792.488	0.0171319
792.567	0.0171371
792.645	0.0169922
792.723	0.0167754
792.801	0.0169508
792.879	0.0167919
792.957	0.0167443
793.035	0.0166451
793.113	0.0167186
793.192	0.0167589
793.270	0.0167782
793.348	0.0165822
793.426	0.0166408
793.504	0.0167300
793.582	0.0166753
793.660	0.0168578
793.738	0.0167773
793.817	0.0166601
793.895	0.0166473
793.973	0.0168088
794.051	0.0169241
794.129	0.0168698
794.207	0.0168766
794.285	0.0169119
794.363	0.0169678
794.442	0.0170944
794.520	0.0170776
794.598	0.0171840
794.676	0.0171729
794.754	0.0172432
794.832	0.0171934
794.910	0.0173801
794.988	0.0172681
795.067	0.0172506
795.145	0.0171779
795.223	0.0172449
795.301	0.0171898
795.379	0.0172139
795.457	0.0171973
795.535	0.0171500
795.613	0.0171407
795.692	0.0169514
795.770	0.0170614
795.848	0.0170943
795.926	0.0170537
796.004	0.0169610
796.082	0.0169130
796.160	0.0169395
796.238	0.0168453
796.317	0.0168314
796.395	0.0170492
796.473	0.0168857
796.551	0.0167893
796.629	0.0168668
796.707	0.0168243
796.785	0.0167966
796.863	0.0167970
796.942	0.0168357
797.020	0.0168962
797.098	0.0168225
797.176	0.0168172
797.254	0.0168782
797.332	0.0169311
797.410	0.0169878
797.488	0.0166594
797.567	0.0167657
797.645	0.0168134
797.723	0.0168547
797.801	0.0166473
797.879	0.0166061
797.957	0.0167329
798.035	0.0166792
798.113	0.0167390
798.192	0.0166911
798.270	0.0169070
798.348	0.0167694
798.426	0.0167131
798.504	0.0166143
798.582	0.0166270
798.660	0.0168317
798.738	0.0167472
798.817	0.0167365
798.895	0.0168398
798.973	0.0169036
799.051	0.0169274
799.129	0.0169260
799.207	0.0169969
799.285	0.0170742
799.363	0.0170810
799.442	0.0171259
799.520	0.0172115
799.598	0.0172826
799.676	0.0174767
799.754	0.0174517
799.832	0.0173325
799.910	0.0175491
799.988	0.0175479
800.067	0.0175460
800.145	0.0176365
800.223	0.0176728
800.301	0.0176241
800.379	0.0174752
800.457	0.0175544
800.535	0.0176542
800.613	0.0175596
800.692	0.0174516
800.770	0.0174381
800.848	0.0175040
800.926	0.0173344
801.004	0.0173058
801.082	0.0172289
801.160	0.0171363
801.238	0.0171768
801.317	0.0171558
801.395	0.0171594
801.473	0.0170908
801.551	0.0169766
801.629	0.0170055
801.707	0.0169947
801.785	0.0169913
801.863	0.0170277
801.942	0.0170631
802.020	0.0169512
802.098	0.0170643
802.176	0.0169230
802.254	0.0170850
802.332	0.0169936
802.410	0.0168641
802.488	0.0168199
802.567	0.0170911
802.645	0.0168977
802.723	0.0168441
802.801	0.0169030
802.879	0.0168640
802.957	0.0168970
803.035	0.0168099
803.113	0.0166824
803.192	0.0168331
803.270	0.0168380
803.348	0.0168621
803.426	0.0169390
803.504	0.0168787
803.582	0.0168693
803.660	0.0170007
803.738	0.0170071
803.817	0.0169209
803.895	0.0169815
803.973	0.0171246
804.051	0.0169744
804.129	0.0169890
804.207	0.0170782
804.285	0.0171040
804.363	0.0170137
804.442	0.0169086
804.520	0.0171492
804.598	0.0171420
804.676	0.0170924
804.754	0.0169581
804.832	0.0171455
804.910	0.0169480
804.988	0.0170224
805.067	0.0171196
805.145	0.0172240
805.223	0.0169980
805.301	0.0171617
805.379	0.0172375
805.457	0.0170910
805.535	0.0172541
805.613	0.0173111
805.692	0.0171091
805.770	0.0171520
805.848	0.0171889
805.926	0.0171015
806.004	0.0169776
806.082	0.0171674
806.160	0.0171978
806.238	0.0171739
806.317	0.0171540
806.395	0.0170810
806.473	0.0170224
806.551	0.0170646
806.629	0.0171561
806.707	0.0171046
806.785	0.0171527
806.863	0.0173396
806.942	0.0172354
807.020	0.0172533
807.098	0.0171799
807.176	0.0174323
807.254	0.0171976
807.332	0.0173080
807.410	0.0173466
807.488	0.0173161
807.567	0.0174306
807.645	0.0175365
807.723	0.0173711
807.801	0.0174046
807.879	0.0172936
807.957	0.0173339
808.035	0.0173060
808.113	0.0172047
808.192	0.0173500
808.270	0.0172166
808.348	0.0170532
808.426	0.0171059
808.504	0.0171127
808.582	0.0171381
808.660	0.0170090
808.738	0.0170697
808.817	0.0171109
808.895	0.0171288
808.973	0.0171176
809.051	0.0169482
809.129	0.0171258
809.207	0.0169678
809.285	0.0170231
809.363	0.0171092
809.442	0.0171002
809.520	0.0171016
809.598	0.0172228
809.676	0.0170474
809.754	0.0172184
809.832	0.0170800
809.910	0.0172061
809.988	0.0172795
810.067	0.0172118
810.145	0.0171760
810.223	0.0172471
810.301	0.0171928
810.379	0.0171937
810.457	0.0172812
810.535	0.0172866
810.613	0.0171487
810.692	0.0171729
810.770	0.0171748
810.848	0.0171857
810.926	0.0171447
811.004	0.0171409
811.082	0.0173049
811.160	0.0170853
811.238	0.0171301
811.317	0.0171149
811.395	0.0171548
811.473	0.0170819
811.551	0.0169114
811.629	0.0169576
811.707	0.0170135
811.785	0.0169312
811.863	0.0169119
811.942	0.0169489
812.020	0.0168773
812.098	0.0168336
812.176	0.0168147
812.254	0.0168815
812.332	0.0169341
812.410	0.0169704
812.488	0.0167767
812.567	0.0169067
812.645	0.0169205
812.723	0.0169057
812.801	0.0170116
812.879	0.0169954
812.957	0.0169031
813.035	0.0168555
813.113	0.0169942
813.192	0.0169176
813.270	0.0170057
813.348	0.0171349
813.426	0.0170686
813.504	0.0171529
813.582	0.0169061
813.660	0.0169511
813.738	0.0170386
813.817	0.0169579
813.895	0.0169637
813.973	0.0169835
814.051	0.0170981
814.129	0.0170834
814.207	0.0169284
814.285	0.0170039
814.363	0.0170708
814.442	0.0169883
814.520	0.0170441
814.598	0.0171996
814.676	0.0171488
814.754	0.0172342
814.832	0.0172309
814.910	0.0172754
814.988	0.0172895
815.067	0.0172662
815.145	0.0172298
815.223	0.0174210
815.301	0.0173511
815.379	0.0174369
815.457	0.0174551
815.535	0.0174735
815.613	0.0173141
815.692	0.0173316
815.770	0.0174642
815.848	0.0172639
815.926	0.0171898
816.004	0.0170901
816.082	0.0171460
816.160	0.0172713
816.238	0.0170740
816.317	0.0170770
816.395	0.0172192
816.473	0.0170116
816.551	0.0170170
816.629	0.0168610
816.707	0.0169924
816.785	0.0169647
816.863	0.0170787
816.942	0.0169976
817.020	0.0169154
817.098	0.0171720
817.176	0.0171111
817.254	0.0171883
817.332	0.0170229
817.410	0.0170819
817.488	0.0169031
817.567	0.0169444
817.645	0.0170126
817.723	0.0171838
817.801	0.0170893
817.879	0.0171206
817.957	0.0169189
818.035	0.0171759
818.113	0.0171011
818.192	0.0171077
818.270	0.0171493
818.348	0.0170245
818.426	0.0170451
818.504	0.0170903
818.582	0.0170014
818.660	0.0169275
818.738	0.0169086
818.817	0.0169308
818.895	0.0169606
818.973	0.0168752
819.051	0.0167575
819.129	0.0168037
819.207	0.0168571
819.285	0.0167880
819.363	0.0167582
819.442	0.0167435
819.520	0.0167245
819.598	0.0166832
819.676	0.0167207
819.754	0.0166846
819.832	0.0165876
819.910	0.0165108
819.988	0.0166370
820.067	0.0167789
820.145	0.0166471
820.223	0.0166466
820.301	0.0166338
820.379	0.0167654
820.457	0.0167347
820.535	0.0167426
820.613	0.0168497
820.692	0.0168925
820.770	0.0168066
820.848	0.0169751
820.926	0.0169757
821.004	0.0171209
821.082	0.0170947
821.160	0.0171560
821.238	0.0170445
821.317	0.0171674
821.395	0.0171346
821.473	0.0171799
821.551	0.0172131
821.629	0.0170610
821.707	0.0171863
821.785	0.0171346
821.863	0.0171821
821.942	0.0171051
822.020	0.0172638
822.098	0.0171814
822.176	0.0172001
822.254	0.0171761
822.332	0.0171960
822.410	0.0172938
822.488	0.0172992
822.567	0.0171944
822.645	0.0172795
822.723	0.0174416
822.801	0.0174311
822.879	0.0174085
822.957	0.0175018
823.035	0.0175016
823.113	0.0175319
823.192	0.0176488
823.270	0.0176028
823.348	0.0175119
823.426	0.0177139
823.504	0.0175490
823.582	0.0174597
823.660	0.0173612
823.738	0.0173572
823.817	0.0172292
823.895	0.0173304
823.973	0.0173186
824.051	0.0171682
824.129	0.0171557
824.207	0.0171200
824.285	0.0171723
824.363	0.0170926
824.442	0.0170956
824.520	0.0171640
824.598	0.0172437
824.676	0.0171723
824.754	0.0170726
824.832	0.0171610
824.910	0.0171745
824.988	0.0170304
825.067	0.0171172
825.145	0.0170351
825.223	0.0170483
825.301	0.0170586
825.379	0.0170667
825.457	0.0171392
825.535	0.0171308
825.613	0.0170369
825.692	0.0171294
825.770	0.0172507
825.848	0.0170766
825.926	0.0170027
826.004	0.0172071
826.082	0.0171048
826.160	0.0171011
826.238	0.0171700
826.317	0.0171626
826.395	0.0169440
826.473	0.0170856
826.551	0.0170521
826.629	0.0170639
826.707	0.0169843
826.785	0.0170039
826.863	0.0169370
826.942	0.0169378
827.020	0.0170189
827.098	0.0169677
827.176	0.0168872
827.254	0.0168844
827.332	0.0168782
827.410	0.0169631
827.488	0.0168751
827.567	0.0167593
827.645	0.0167336
827.723	0.0167661
827.801	0.0167217
827.879	0.0169501
827.957	0.0168277
828.035	0.0167078
828.113	0.0168600
828.192	0.0168700
828.270	0.0169405
828.348	0.0169179
828.426	0.0168869
828.504	0.0169405
828.582	0.0171111
828.660	0.0170139
828.738	0.0169649
828.817	0.0170785
828.895	0.0171156
828.973	0.0171628
829.051	0.0171041
829.129	0.0171420
829.207	0.0169568
829.285	0.0171393
829.363	0.0171222
829.442	0.0171960
829.520	0.0172166
829.598	0.0171837
829.676	0.0171281
829.754	0.0171637
829.832	0.0172867
829.910	0.0173459
829.988	0.0174306
830.067	0.0173672
830.145	0.0172804
830.223	0.0173588
830.301	0.0173454
830.379	0.0173220
830.457	0.0173291
830.535	0.0174573
830.613	0.0174685
830.692	0.0175022
830.770	0.0172712
830.848	0.0173239
830.926	0.0174403
831.004	0.0174027
831.082	0.0173126
831.160	0.0172793
831.238	0.0173415
831.317	0.0173226
831.395	0.0171269
831.473	0.0171983
831.551	0.0171489
831.629	0.0171476
831.707	0.0171178
831.785	0.0171022
831.863	0.0172540
831.942	0.0170941
832.020	0.0171609
832.098	0.0172105
832.176	0.0171313
832.254	0.0171174
832.332	0.0170900
832.410	0.0172402
832.488	0.0171150
832.567	0.0170632
832.645	0.0172366
832.723	0.0172635
832.801	0.0170766
832.879	0.0169725
832.957	0.0170794
833.035	0.0171186
833.113	0.0170475
833.192	0.0171256
833.270	0.0169015
833.348	0.0169408
833.426	0.0169771
833.504	0.0170493
833.582	0.0168894
833.660	0.0169552
833.738	0.0169377
833.817	0.0168770
833.895	0.0169609
833.973	0.0168198
834.051	0.0168800
834.129	0.0169578
834.207	0.0168180
834.285	0.0169318
834.363	0.0167568
834.442	0.0167939
834.520	0.0168021
834.598	0.0168963
834.676	0.0168652
834.754	0.0167417
834.832	0.0166468
834.910	0.0166668
834.988	0.0165645
835.067	0.0165996
835.145	0.0166721
835.223	0.0167480
835.301	0.0167078
835.379	0.0166232
835.457	0.0166998
835.535	0.0166192
835.613	0.0166773
835.692	0.0167657
835.770	0.0168182
835.848	0.0168865
835.926	0.0170610
836.004	0.0170196
836.082	0.0172002
836.160	0.0171211
836.238	0.0171629
836.317	0.0172803
836.395	0.0173089
836.473	0.0173573
836.551	0.0173011
836.629	0.0174221
836.707	0.0174813
836.785	0.0174408
836.863	0.0173663
836.942	0.0174162
837.020	0.0172884
837.098	0.0172689
837.176	0.0170972
837.254	0.0172513
837.332	0.0172737
837.410	0.0171437
837.488	0.0172569
837.567	0.0171544
837.645	0.0170952
837.723	0.0172820
837.801	0.0172366
837.879	0.0171220
837.957	0.0171558
838.035	0.0172307
838.113	0.0172031
838.192	0.0171554
838.270	0.0172264
838.348	0.0172855
838.426	0.0172005
838.504	0.0173642
838.582	0.0173356
838.660	0.0171870
838.738	0.0172184
838.817	0.0172166
838.895	0.0171113
838.973	0.0170722
839.051	0.0170577
839.129	0.0170399
839.207	0.0170101
839.285	0.0168636
839.363	0.0169562
839.442	0.0170293
839.520	0.0168674
839.598	0.0168459
839.676	0.0169468
839.754	0.0168868
839.832	0.0168995
839.910	0.0167995
839.988	0.0170095
840.067	0.0169831
840.145	0.0168980
840.223	0.0169373
840.301	0.0168820
840.379	0.0171416
840.457	0.0170520
840.535	0.0171123
840.613	0.0172038
840.692	0.0172722
840.770	0.0170058
840.848	0.0172256
840.926	0.0173542
841.004	0.0171423
841.082	0.0171485
841.160	0.0172588
841.238	0.0171365
841.317	0.0170746
841.395	0.0171835
841.473	0.0170860
841.551	0.0171275
841.629	0.0171372
841.707	0.0170861
841.785	0.0171271
841.863	0.0170600
841.942	0.0171161
842.020	0.0169233
842.098	0.0169672
842.176	0.0171277
842.254	0.0171056
842.332	0.0170815
842.410	0.0170071
842.488	0.0169443
842.567	0.0169196
842.645	0.0169139
842.723	0.0169080
842.801	0.0169187
842.879	0.0169430
842.957	0.0169741
843.035	0.0167538
843.113	0.0167524
843.192	0.0168560
843.270	0.0168939
843.348	0.0168834
843.426	0.0167182
843.504	0.0168836
843.582	0.0169142
843.660	0.0170348
843.738	0.0170672
843.817	0.0171853
843.895	0.0171246
843.973	0.0171191
844.051	0.0172128
844.129	0.0172581
844.207	0.0171442
844.285	0.0174507
844.363	0.0173637
844.442	0.0172604
844.520	0.0173314
844.598	0.0174362
844.676	0.0173226
844.754	0.0172575
844.832	0.0174039
844.910	0.0172024
844.988	0.0171445
845.067	0.0172200
845.145	0.0173042
845.223	0.0171954
845.301	0.0172198
845.379	0.0171069
845.457	0.0171757
845.535	0.0171328
845.613	0.0171937
845.692	0.0171459
845.770	0.0173429
845.848	0.0173161
845.926	0.0171809
846.004	0.0171728
846.082	0.0174018
846.160	0.0173235
846.238	0.0174018
846.317	0.0173594
846.395	0.0174617
846.473	0.0173414
846.551	0.0173784
846.629	0.0173558
846.707	0.0173027
846.785	0.0172469
846.863	0.0172894
846.942	0.0171687
847.020	0.0172247
847.098	0.0170779
847.176	0.0171878
847.254	0.0171405
847.332	0.0170840
847.410	0.0171767
847.488	0.0171397
847.567	0.0172234
847.645	0.0172886
847.723	0.0172906
847.801	0.0171651
847.879	0.0172702
847.957	0.0172092
848.035	0.0171316
848.113	0.0172774
848.192	0.0173936
848.270	0.0173209
848.348	0.0173306
848.426	0.0173032
848.504	0.0172098
848.582	0.0172690
848.660	0.0172546
848.738	0.0172240
848.817	0.0172401
848.895	0.0173220
848.973	0.0173054
849.051	0.0173049
849.129	0.0171447
849.207	0.0171696
849.285	0.0171038
849.363	0.0171365
849.442	0.0170501
849.520	0.0171062
849.598	0.0171254
849.676	0.0170822
849.754	0.0170251
849.832	0.0170190
849.910	0.0170984
849.988	0.0169048
850.067	0.0169330
850.145	0.0169555
850.223	0.0168890
850.301	0.0169337
850.379	0.0169968
850.457	0.0167889
850.535	0.0169113
850.613	0.0168595
850.692	0.0169051
850.770	0.0168490
850.848	0.0169401
850.926	0.0168145
851.004	0.0168111
851.082	0.0168037
851.160	0.0168564
851.238	0.0169360
851.317	0.0169064
851.395	0.0167263
851.473	0.0169328
851.551	0.0169109
851.629	0.0169285
851.707	0.0168364
851.785	0.0169307
851.863	0.0170686
851.942	0.0171490
852.020	0.0170412
852.098	0.0170536
852.176	0.0171014
852.254	0.0170164
852.332	0.0171422
852.410	0.0173259
852.488	0.0171308
852.567	0.0172551
852.645	0.0171702
852.723	0.0172227
852.801	0.0170746
852.879	0.0170337
852.957	0.0169871
853.035	0.0171239
853.113	0.0172958
853.192	0.0171951
853.270	0.0171010
853.348	0.0171003
853.426	0.0171030
853.504	0.0170287
853.582	0.0171847
853.660	0.0171998
853.738	0.0171385
853.817	0.0172608
853.895	0.0172528
853.973	0.0173034
854.051	0.0173503
854.129	0.0174105
854.207	0.0172304
854.285	0.0173920
854.363	0.0173293
854.442	0.0172678
854.520	0.0171366
854.598	0.0173250
854.676	0.0174039
854.754	0.0172076
854.832	0.0173550
854.910	0.0173549
854.988	0.0172907
855.067	0.0174358
855.145	0.0172025
855.223	0.0171555
855.301	0.0172865
855.379	0.0173925
855.457	0.0173198
855.535	0.0172407
855.613	0.0172994
855.692	0.0172749
855.770	0.0173180
855.848	0.0172614
855.926	0.0173099
856.004	0.0173188
856.082	0.0173068
856.160	0.0171718
856.238	0.0172980
856.317	0.0173682
856.395	0.0172116
856.473	0.0172121
856.551	0.0172397
856.629	0.0171880
856.707	0.0173860
856.785	0.0173142
856.863	0.0172481
856.942	0.0174215
857.020	0.0172797
857.098	0.0173002
857.176	0.0171318
857.254	0.0173270
857.332	0.0172527
857.410	0.0172855
857.488	0.0171326
857.567	0.0169763
857.645	0.0170522
857.723	0.0169928
857.801	0.0170375
857.879	0.0169798
857.957	0.0168503
858.035	0.0169468
858.113	0.0167606
858.192	0.0166552
858.270	0.0166059
858.348	0.0168317
858.426	0.0166818
858.504	0.0167606
858.582	0.0167258
858.660	0.0167538
858.738	0.0168472
858.817	0.0165316
858.895	0.0166112
858.973	0.0166408
859.051	0.0167109
859.129	0.0168099
859.207	0.0167725
859.285	0.0164870
859.363	0.0166952
859.442	0.0167191
859.520	0.0167918
859.598	0.0168230
859.676	0.0169217
859.754	0.0169102
859.832	0.0167667
859.910	0.0169257
859.988	0.0169692
860.067	0.0170054
860.145	0.0170612
860.223	0.0170659
860.301	0.0169788
860.379	0.0170994
860.457	0.0170515
860.535	0.0169329
860.613	0.0169108
860.692	0.0170119
860.770	0.0169533
860.848	0.0169898
860.926	0.0168955
861.004	0.0169418
861.082	0.0169606
861.160	0.0169439
861.238	0.0169096
861.317	0.0169057
861.395	0.0168435
861.473	0.0168770
861.551	0.0169048
861.629	0.0169338
861.707	0.0169425
861.785	0.0169558
861.863	0.0169630
861.942	0.0169070
862.020	0.0170409
862.098	0.0169573
862.176	0.0170348
862.254	0.0170039
862.332	0.0170819
862.410	0.0172093
862.488	0.0171047
862.567	0.0170090
862.645	0.0169904
862.723	0.0169322
862.801	0.0171139
862.879	0.0171802
862.957	0.0170142
863.035	0.0169794
863.113	0.0171064
863.192	0.0171234
863.270	0.0171071
863.348	0.0172607
863.426	0.0170808
863.504	0.0171754
863.582	0.0170482
863.660	0.0170822
863.738	0.0169955
863.817	0.0170922
863.895	0.0172192
863.973	0.0172121
864.051	0.0170200
864.129	0.0173963
864.207	0.0172990
864.285	0.0171768
864.363	0.0172559
864.442	0.0172331
864.520	0.0172062
864.598	0.0171533
864.676	0.0173381
864.754	0.0173245
864.832	0.0173584
864.910	0.0172681
864.988	0.0174520
865.067	0.0173634
865.145	0.0173215
865.223	0.0172453
865.301	0.0174170
865.379	0.0172787
865.457	0.0172727
865.535	0.0171264
865.613	0.0171289
865.692	0.0171338
865.770	0.0171648
865.848	0.0171273
865.926	0.0170522
866.004	0.0169547
866.082	0.0169527
866.160	0.0168705
866.238	0.0167968
866.317	0.0166560
866.395	0.0168684
866.473	0.0168340
866.551	0.0168095
866.629	0.0168984
866.707	0.0168949
866.785	0.0168571
866.863	0.0168416
866.942	0.0167875
867.020	0.0168108
867.098	0.0168467
867.176	0.0168135
867.254	0.0170364
867.332	0.0171600
867.410	0.0168965
867.488	0.0170921
867.567	0.0171059
867.645	0.0171478
867.723	0.0170621
867.801	0.0173474
867.879	0.0172554
867.957	0.0173679
868.035	0.0173724
868.113	0.0173058
868.192	0.0171967
868.270	0.0172836
868.348	0.0172665
868.426	0.0172720
868.504	0.0173169
868.582	0.0171459
868.660	0.0172337
868.738	0.0172102
868.817	0.0171336
868.895	0.0171561
868.973	0.0171725
869.051	0.0172482
869.129	0.0170811
869.207	0.0170888
869.285	0.0171756
869.363	0.0172495
869.442	0.0171198
869.520	0.0172182
869.598	0.0172174
869.676	0.0171178
869.754	0.0171365
869.832	0.0171419
869.910	0.0172839
869.988	0.0172018
870.067	0.0172385
870.145	0.0172938
870.223	0.0170975
870.301	0.0172377
870.379	0.0171704
870.457	0.0172027
870.535	0.0171475
870.613	0.0172393
870.692	0.0172093
870.770	0.0172009
870.848	0.0172241
870.926	0.0173076
871.004	0.0171589
871.082	0.0172445
871.160	0.0171281
871.238	0.0171481
871.317	0.0170167
871.395	0.0171906
871.473	0.0172563
871.551	0.0173142
871.629	0.0170654
871.707	0.0170895
871.785	0.0170489
871.863	0.0170853
871.942	0.0170896
872.020	0.0170182
872.098	0.0171309
872.176	0.0170875
872.254	0.0169598
872.332	0.0170233
872.410	0.0169522
872.488	0.0170087
872.567	0.0169656
872.645	0.0169701
872.723	0.0169209
872.801	0.0169740
872.879	0.0169529
872.957	0.0170187
873.035	0.0170634
873.113	0.0168402
873.192	0.0170615
873.270	0.0169732
873.348	0.0170330
873.426	0.0168719
873.504	0.0169631
873.582	0.0167943
873.660	0.0168960
873.738	0.0169614
873.817	0.0168650
873.895	0.0166157
873.973	0.0167817
874.051	0.0167804
874.129	0.0167515
874.207	0.0167390
874.285	0.0168064
874.363	0.0167400
874.442	0.0167311
874.520	0.0167232
874.598	0.0167830
874.676	0.0167513
874.754	0.0167905
874.832	0.0167405
874.910	0.0169249
874.988	0.0168877
875.067	0.0168532
875.145	0.0168219
875.223	0.0169233
875.301	0.0169261
875.379	0.0168147
875.457	0.0169680
875.535	0.0171228
875.613	0.0169070
875.692	0.0169774
875.770	0.0170602
875.848	0.0168068
875.926	0.0168576
876.004	0.0170090
876.082	0.0170384
876.160	0.0170525
876.238	0.0170463
876.317	0.0169785
876.395	0.0170605
876.473	0.0169112
876.551	0.0169544
876.629	0.0169638
876.707	0.0169434
876.785	0.0169333
876.863	0.0169205
876.942	0.0168700
877.020	0.0169489
877.098	0.0169588
877.176	0.0170724
877.254	0.0170896
877.332	0.0170451
877.410	0.0169891
877.488	0.0171191
877.567	0.0171633
877.645	0.0170917
877.723	0.0171234
877.801	0.0171313
877.879	0.0171665
877.957	0.0171917
878.035	0.0172720
878.113	0.0173251
878.192	0.0172969
878.270	0.0172199
878.348	0.0171498
878.426	0.0172159
878.504	0.0173104
878.582	0.0172363
878.660	0.0173300
878.738	0.0174049
878.817	0.0172959
878.895	0.0173010
878.973	0.0172762
879.051	0.0172874
879.129	0.0172952
879.207	0.0171352
879.285	0.0171181
879.363	0.0172405
879.442	0.0172485
879.520	0.0171690
879.598	0.0172793
879.676	0.0170218
879.754	0.0171251
879.832	0.0173221
879.910	0.0171196
879.988	0.0171865
880.067	0.0171826
880.145	0.0171168
880.223	0.0171316
880.301	0.0171361
880.379	0.0171809
880.457	0.0171785
880.535	0.0171355
880.613	0.0171738
880.692	0.0171449
880.770	0.0170532
880.848	0.0172261
880.926	0.0171799
881.004	0.0171481
881.082	0.0172524
881.160	0.0171810
881.238	0.0172017
881.317	0.0171735
881.395	0.0171895
881.473	0.0169869
881.551	0.0170064
881.629	0.0170422
881.707	0.0169430
881.785	0.0169327
881.863	0.0170245
881.942	0.0170048
882.020	0.0167798
882.098	0.0169671
882.176	0.0169341
882.254	0.0167621
882.332	0.0168301
882.410	0.0167564
882.488	0.0169469
882.567	0.0169552
882.645	0.0167332
882.723	0.0168922
882.801	0.0169006
882.879	0.0169478
882.957	0.0169592
883.035	0.0167538
883.113	0.0168513
883.192	0.0169604
883.270	0.0168023
883.348	0.0169642
883.426	0.0169095
883.504	0.0169496
883.582	0.0170552
883.660	0.0169986
883.738	0.0169204
883.817	0.0169984
883.895	0.0170195
883.973	0.0169800
884.051	0.0170342
884.129	0.0169366
884.207	0.0170871
884.285	0.0170314
884.363	0.0169367
884.442	0.0170135
884.520	0.0169446
884.598	0.0169958
884.676	0.0169708
884.754	0.0168246
884.832	0.0170170
884.910	0.0168930
884.988	0.0168298
885.067	0.0169170
885.145	0.0169371
885.223	0.0167686
885.301	0.0169586
885.379	0.0170338
885.457	0.0169986
885.535	0.0170609
885.613	0.0172501
885.692	0.0171814
885.770	0.0172195
885.848	0.0172369
885.926	0.0172203
886.004	0.0173178
886.082	0.0171885
886.160	0.0172882
886.238	0.0173389
886.317	0.0173204
886.395	0.0173679
886.473	0.0171588
886.551	0.0174302
886.629	0.0173595
886.707	0.0173203
886.785	0.0173499
886.863	0.0171735
886.942	0.0172170
887.020	0.0171485
887.098	0.0172629
887.176	0.0171055
887.254	0.0170660
887.332	0.0171284
887.410	0.0169981
887.488	0.0171221
887.567	0.0170768
887.645	0.0171680
887.723	0.0170063
887.801	0.0169863
887.879	0.0170958
887.957	0.0172166
888.035	0.0170628
888.113	0.0169904
888.192	0.0169764
888.270	0.0171773
888.348	0.0170174
888.426	0.0170138
888.504	0.0171311
888.582	0.0169181
888.660	0.0169983
888.738	0.0169544
888.817	0.0168869
888.895	0.0169772
888.973	0.0168044
889.051	0.0168610
889.129	0.0167154
889.207	0.0169773
889.285	0.0168773
889.363	0.0167353
889.442	0.0167959
889.520	0.0167973
889.598	0.0167233
889.676	0.0169383
889.754	0.0167002
889.832	0.0168704
889.910	0.0169320
889.988	0.0168195
890.067	0.0168651
890.145	0.0169336
890.223	0.0169861
890.301	0.0168972
890.379	0.0169486
890.457	0.0169554
890.535	0.0169340
890.613	0.0170025
890.692	0.0171191
890.770	0.0171547
890.848	0.0171286
890.926	0.0170660
891.004	0.0170707
891.082	0.0172472
891.160	0.0170670
891.238	0.0172211
891.317	0.0171989
891.395	0.0172775
891.473	0.0173296
891.551	0.0170796
891.629	0.0172704
891.707	0.0173122
891.785	0.0171080
891.863	0.0172376
891.942	0.0172982
892.020	0.0172790
892.098	0.0170696
892.176	0.0171216
892.254	0.0171594
892.332	0.0172668
892.410	0.0171834
892.488	0.0171720
892.567	0.0171266
892.645	0.0171471
892.723	0.0171080
892.801	0.0171199
892.879	0.0171573
892.957	0.0171505
893.035	0.0170142
893.113	0.0170408
893.192	0.0169705
893.270	0.0170309
893.348	0.0169202
893.426	0.0170863
893.504	0.0170371
893.582	0.0169794
893.660	0.0170294
893.738	0.0171693
893.817	0.0172276
893.895	0.0171492
893.973	0.0170969
894.051	0.0170311
894.129	0.0170555
894.207	0.0170935
894.285	0.0170914
894.363	0.0172808
894.442	0.0171218
894.520	0.0169879
894.598	0.0170176
894.676	0.0170739
894.754	0.0171311
894.832	0.0170544
894.910	0.0171235
894.988	0.0170567
895.067	0.0171368
895.145	0.0170604
895.223	0.0170377
895.301	0.0170393
895.379	0.0171248
895.457	0.0169894
895.535	0.0171735
895.613	0.0171736
895.692	0.0172243
895.770	0.0170649
895.848	0.0169738
895.926	0.0170823
896.004	0.0170821
896.082	0.0171871
896.160	0.0170110
896.238	0.0168092
896.317	0.0171392
896.395	0.0169896
896.473	0.0170007
896.551	0.0169756
896.629	0.0169725
896.707	0.0170407
896.785	0.0170528
896.863	0.0170464
896.942	0.0167982
897.020	0.0168600
897.098	0.0168102
897.176	0.0167255
897.254	0.0169106
897.332	0.0169085
897.410	0.0167018
897.488	0.0166901
897.567	0.0167322
897.645	0.0167197
897.723	0.0167862
897.801	0.0167844
897.879	0.0167720
897.957	0.0168105
898.035	0.0169222
898.113	0.0168820
898.192	0.0168188
898.270	0.0170192
898.348	0.0169000
898.426	0.0169457
898.504	0.0170305
898.582	0.0171017
898.660	0.0169865
898.738	0.0171074
898.817	0.0171646
898.895	0.0171563
898.973	0.0170976
899.051	0.0171839
899.129	0.0170693
899.207	0.0170656
899.285	0.0172141
899.363	0.0171768
899.442	0.0171070
899.520	0.0172881
899.598	0.0173112
899.676	0.0171356
899.754	0.0171481
899.832	0.0172807
899.910	0.0172036
899.988	0.0172309
900.067	0.0172428
900.145	0.0172026
900.223	0.0171268
900.301	0.0172615
900.379	0.0172011
900.457	0.0171464
900.535	0.0171993
900.613	0.0172658
900.692	0.0171363
900.770	0.0172260
900.848	0.0173194
900.926	0.0171298
901.004	0.0171471
901.082	0.0170811
901.160	0.0172274
901.238	0.0171407
901.317	0.0171524
901.395	0.0172091
901.473	0.0171920
901.551	0.0172883
901.629	0.0173240
901.707	0.0171934
901.785	0.0173132
901.863	0.0173571
901.942	0.0173888
902.020	0.0172360
902.098	0.0173017
902.176	0.0174069
902.254	0.0174462
902.332	0.0172344
902.410	0.0173141
902.488	0.0173282
902.567	0.0172412
902.645	0.0172222
902.723	0.0172797
902.801	0.0171922
902.879	0.0171397
902.957	0.0171936
903.035	0.0170000
903.113	0.0170454
903.192	0.0170261
903.270	0.0171009
903.348	0.0171300
903.426	0.0170747
903.504	0.0169957
903.582	0.0170061
903.660	0.0169617
903.738	0.0170510
903.817	0.0169698
903.895	0.0169972
903.973	0.0170658
904.051	0.0169573
904.129	0.0168897
904.207	0.0169995
904.285	0.0170973
904.363	0.0169503
904.442	0.0168888
904.520	0.0169125
904.598	0.0170427
904.676	0.0168472
904.754	0.0168172
904.832	0.0167563
904.910	0.0168738
904.988	0.0167886
905.067	0.0167725
905.145	0.0166863
905.223	0.0166263
905.301	0.0168806
905.379	0.0167976
905.457	0.0167824
905.535	0.0165950
905.613	0.0167056
905.692	0.0167311
905.770	0.0166306
905.848	0.0166566
905.926	0.0167465
906.004	0.0167094
906.082	0.0168060
906.160	0.0168075
906.238	0.0169416
906.317	0.0168660
906.395	0.0168965
906.473	0.0168748
906.551	0.0168538
906.629	0.0169749
906.707	0.0170202
906.785	0.0170165
906.863	0.0170036
906.942	0.0170333
907.020	0.0171937
907.098	0.0170760
907.176	0.0171014
907.254	0.0170496
907.332	0.0171071
907.410	0.0171511
907.488	0.0172577
907.567	0.0171616
907.645	0.0171255
907.723	0.0171122
907.801	0.0171113
907.879	0.0171718
907.957	0.0172062
908.035	0.0170937
908.113	0.0170850
908.192	0.0171703
908.270	0.0172652
908.348	0.0170374
908.426	0.0171536
908.504	0.0172066
908.582	0.0171828
908.660	0.0170419
908.738	0.0171270
908.817	0.0170370
908.895	0.0171609
908.973	0.0172147
909.051	0.0171774
909.129	0.0169869
909.207	0.0170597
909.285	0.0169755
909.363	0.0171817
909.442	0.0170512
909.520	0.0171985
909.598	0.0171380
909.676	0.0171404
909.754	0.0170403
909.832	0.0170988
909.910	0.0171243
909.988	0.0171618
910.067	0.0170377
910.145	0.0171424
910.223	0.0171629
910.301	0.0171054
910.379	0.0171403
910.457	0.0170545
910.535	0.0171845
910.613	0.0169938
910.692	0.0171452
910.770	0.0171245
910.848	0.0170916
910.926	0.0172413
911.004	0.0171196
911.082	0.0172083
911.160	0.0171071
911.238	0.0171523
911.317	0.0170633
911.395	0.0170541
911.473	0.0171651
911.551	0.0171022
911.629	0.0172411
911.707	0.0170526
911.785	0.0169572
911.863	0.0169436
911.942	0.0171770
912.020	0.0171725
912.098	0.0169247
912.176	0.0170620
912.254	0.0170860
912.332	0.0170011
912.410	0.0170296
912.488	0.0168712
912.567	0.0169347
912.645	0.0170052
912.723	0.0167206
912.801	0.0169935
912.879	0.0168940
912.957	0.0170293
913.035	0.0169466
913.113	0.0169407
913.192	0.0170618
913.270	0.0169700
913.348	0.0169151
913.426	0.0169323
913.504	0.0170541
913.582	0.0172175
913.660	0.0170270
913.738	0.0170067
913.817	0.0170387
913.895	0.0171371
913.973	0.0169472
914.051	0.0170876
914.129	0.0171777
914.207	0.0170635
914.285	0.0169818
914.363	0.0170000
914.442	0.0169707
914.520	0.0170034
914.598	0.0171537
914.676	0.0170895
914.754	0.0170564
914.832	0.0171181
914.910	0.0170256
914.988	0.0170831
915.067	0.0170401
915.145	0.0170499
915.223	0.0170373
915.301	0.0170340
915.379	0.0171886
915.457	0.0170785
915.535	0.0169846
915.613	0.0170429
915.692	0.0172089
915.770	0.0170594
915.848	0.0170192
915.926	0.0170683
916.004	0.0170267
916.082	0.0169781
916.160	0.0171198
916.238	0.0170570
916.317	0.0170983
916.395	0.0170568
916.473	0.0169437
916.551	0.0169617
916.629	0.0171744
916.707	0.0171104
916.785	0.0170102
916.863	0.0170162
916.942	0.0169620
917.020	0.0170652
917.098	0.0170927
917.176	0.0172276
917.254	0.0171790
917.332	0.0171185
917.410	0.0171001
917.488	0.0171327
917.567	0.0171246
917.645	0.0171423
917.723	0.0172366
917.801	0.0173528
917.879	0.0172047
917.957	0.0173209
918.035	0.0173860
918.113	0.0172723
918.192	0.0172665
918.270	0.0172477
918.348	0.0174138
918.426	0.0173357
918.504	0.0172472
918.582	0.0173486
918.660	0.0171542
918.738	0.0172724
918.817	0.0172306
918.895	0.0172514
918.973	0.0171584
919.051	0.0173376
919.129	0.0172174
919.207	0.0172403
919.285	0.0172705
919.363	0.0172140
919.442	0.0172473
919.520	0.0172410
919.598	0.0173064
919.676	0.0172282
919.754	0.0172432
919.832	0.0171412
919.910	0.0172297
