06/29/2022	23:11:41	Ver.	4.1	UNKNOWN
Optical Delay	630.002507	Delta X		0.078125	Sweeps	1	Scan Rate	0/0
Coordinates	Axis 1	NaN	Axis 2	NaN	Axis 3	NaN	Axis 4	NaN	Axis 5	NaN	Axis 6	0.000000
TX Power	0.000000	RX Power	0.000000

630.003	0.0154070
630.081	0.0153184
630.159	0.0154346
630.237	0.0154774
630.315	0.0155163
630.393	0.0154968
630.471	0.0154316
630.549	0.0154231
630.628	0.0154414
630.706	0.0154345
630.784	0.0155284
630.862	0.0154308
630.940	0.0153747
631.018	0.0155020
631.096	0.0153683
631.174	0.0155077
631.253	0.0154262
631.331	0.0154668
631.409	0.0156166
631.487	0.0153629
631.565	0.0155054
631.643	0.0154031
631.721	0.0154929
631.799	0.0153300
631.878	0.0153617
631.956	0.0153936
632.034	0.0153890
632.112	0.0154988
632.190	0.0153535
632.268	0.0152801
632.346	0.0153594
632.424	0.0154823
632.503	0.0154839
632.581	0.0153300
632.659	0.0154568
632.737	0.0154650
632.815	0.0153798
632.893	0.0154222
632.971	0.0154855
633.049	0.0153869
633.128	0.0153683
633.206	0.0153593
633.284	0.0153924
633.362	0.0154475
633.440	0.0152850
633.518	0.0152927
633.596	0.0153587
633.674	0.0152634
633.753	0.0152206
633.831	0.0153334
633.909	0.0153159
633.987	0.0153576
634.065	0.0153102
634.143	0.0153439
634.221	0.0156020
634.299	0.0151846
634.378	0.0153439
634.456	0.0153299
634.534	0.0154334
634.612	0.0155270
634.690	0.0153941
634.768	0.0153961
634.846	0.0152931
634.924	0.0153427
635.003	0.0153259
635.081	0.0153198
635.159	0.0154115
635.237	0.0154239
635.315	0.0154041
635.393	0.0154533
635.471	0.0153069
635.549	0.0153831
635.628	0.0153051
635.706	0.0154155
635.784	0.0155007
635.862	0.0154357
635.940	0.0154638
636.018	0.0154582
636.096	0.0154036
636.174	0.0155228
636.253	0.0153696
636.331	0.0153676
636.409	0.0154592
636.487	0.0154291
636.565	0.0154140
636.643	0.0154704
636.721	0.0154159
636.799	0.0153849
636.878	0.0152878
636.956	0.0153986
637.034	0.0154824
637.112	0.0153352
637.190	0.0153619
637.268	0.0154691
637.346	0.0154552
637.424	0.0153425
637.503	0.0154297
637.581	0.0155621
637.659	0.0154066
637.737	0.0155106
637.815	0.0154510
637.893	0.0156078
637.971	0.0155834
638.049	0.0154798
638.128	0.0154588
638.206	0.0155878
638.284	0.0154130
638.362	0.0155209
638.440	0.0154911
638.518	0.0154255
638.596	0.0155357
638.674	0.0155251
638.753	0.0156577
638.831	0.0156607
638.909	0.0154720
638.987	0.0155913
639.065	0.0154943
639.143	0.0156493
639.221	0.0156312
639.299	0.0154771
639.378	0.0154974
639.456	0.0154515
639.534	0.0155939
639.612	0.0155608
639.690	0.0156463
639.768	0.0155701
639.846	0.0154832
639.924	0.0155853
640.003	0.0154363
640.081	0.0154220
640.159	0.0156589
640.237	0.0155921
640.315	0.0155649
640.393	0.0155141
640.471	0.0155707
640.549	0.0156045
640.628	0.0154282
640.706	0.0155309
640.784	0.0155312
640.862	0.0154817
640.940	0.0154404
641.018	0.0155036
641.096	0.0156233
641.174	0.0154649
641.253	0.0155656
641.331	0.0155544
641.409	0.0155574
641.487	0.0155876
641.565	0.0153518
641.643	0.0154209
641.721	0.0155408
641.799	0.0155759
641.878	0.0156056
641.956	0.0157436
642.034	0.0156689
642.112	0.0154602
642.190	0.0155315
642.268	0.0155157
642.346	0.0155656
642.424	0.0154920
642.503	0.0155836
642.581	0.0156704
642.659	0.0155657
642.737	0.0156949
642.815	0.0155785
642.893	0.0156320
642.971	0.0156767
643.049	0.0155930
643.128	0.0155862
643.206	0.0156141
643.284	0.0155577
643.362	0.0155423
643.440	0.0153519
643.518	0.0156029
643.596	0.0155064
643.674	0.0155172
643.753	0.0154986
643.831	0.0154861
643.909	0.0155151
643.987	0.0155674
644.065	0.0154803
644.143	0.0155967
644.221	0.0154044
644.299	0.0155649
644.378	0.0154556
644.456	0.0155649
644.534	0.0154739
644.612	0.0155283
644.690	0.0155624
644.768	0.0155620
644.846	0.0155267
644.924	0.0155695
645.003	0.0153947
645.081	0.0156145
645.159	0.0155019
645.237	0.0155116
645.315	0.0155471
645.393	0.0154200
645.471	0.0155469
645.549	0.0154987
645.628	0.0154412
645.706	0.0154330
645.784	0.0154739
645.862	0.0154443
645.940	0.0155933
646.018	0.0155211
646.096	0.0155215
646.174	0.0154984
646.253	0.0155112
646.331	0.0155838
646.409	0.0156047
646.487	0.0154755
646.565	0.0156231
646.643	0.0155374
646.721	0.0154700
646.799	0.0154982
646.878	0.0155949
646.956	0.0154664
647.034	0.0154442
647.112	0.0156113
647.190	0.0155064
647.268	0.0155370
647.346	0.0155071
647.424	0.0154983
647.503	0.0155359
647.581	0.0154914
647.659	0.0155222
647.737	0.0155817
647.815	0.0154980
647.893	0.0154800
647.971	0.0153995
648.049	0.0154390
648.128	0.0155727
648.206	0.0155568
648.284	0.0154853
648.362	0.0154785
648.440	0.0155752
648.518	0.0154643
648.596	0.0153738
648.674	0.0155582
648.753	0.0155760
648.831	0.0154567
648.909	0.0153838
648.987	0.0154734
649.065	0.0154483
649.143	0.0154755
649.221	0.0154104
649.299	0.0154764
649.378	0.0155585
649.456	0.0155538
649.534	0.0156205
649.612	0.0153745
649.690	0.0155471
649.768	0.0154651
649.846	0.0155297
649.924	0.0155441
650.003	0.0154630
650.081	0.0154015
650.159	0.0154771
650.237	0.0155618
650.315	0.0154453
650.393	0.0154359
650.471	0.0155347
650.549	0.0155920
650.628	0.0154311
650.706	0.0155009
650.784	0.0155202
650.862	0.0155535
650.940	0.0153290
651.018	0.0154769
651.096	0.0154671
651.174	0.0155228
651.253	0.0153798
651.331	0.0155057
651.409	0.0154716
651.487	0.0154700
651.565	0.0155133
651.643	0.0155219
651.721	0.0154565
651.799	0.0155583
651.878	0.0155112
651.956	0.0154208
652.034	0.0155069
652.112	0.0154857
652.190	0.0153110
652.268	0.0154951
652.346	0.0154965
652.424	0.0154807
652.503	0.0154935
652.581	0.0154811
652.659	0.0154951
652.737	0.0153777
652.815	0.0153927
652.893	0.0155259
652.971	0.0155244
653.049	0.0155610
653.128	0.0154510
653.206	0.0154122
653.284	0.0152324
653.362	0.0154254
653.440	0.0154613
653.518	0.0155325
653.596	0.0154800
653.674	0.0153759
653.753	0.0155960
653.831	0.0154079
653.909	0.0155760
653.987	0.0154439
654.065	0.0154837
654.143	0.0153878
654.221	0.0154406
654.299	0.0156059
654.378	0.0156565
654.456	0.0154191
654.534	0.0154218
654.612	0.0154549
654.690	0.0154667
654.768	0.0155131
654.846	0.0154237
654.924	0.0155451
655.003	0.0154933
655.081	0.0154183
655.159	0.0155037
655.237	0.0154117
655.315	0.0153857
655.393	0.0155797
655.471	0.0154777
655.549	0.0155092
655.628	0.0155485
655.706	0.0155592
655.784	0.0154796
655.862	0.0154264
655.940	0.0156369
656.018	0.0155499
656.096	0.0155314
656.174	0.0154601
656.253	0.0155041
656.331	0.0155141
656.409	0.0153262
656.487	0.0155927
656.565	0.0155863
656.643	0.0155196
656.721	0.0155466
656.799	0.0154615
656.878	0.0155178
656.956	0.0155353
657.034	0.0155462
657.112	0.0155025
657.190	0.0154378
657.268	0.0153107
657.346	0.0155106
657.424	0.0154284
657.503	0.0155333
657.581	0.0154689
657.659	0.0154291
657.737	0.0154389
657.815	0.0153759
657.893	0.0153688
657.971	0.0154549
658.049	0.0155663
658.128	0.0154237
658.206	0.0155118
658.284	0.0155772
658.362	0.0155322
658.440	0.0154372
658.518	0.0154877
658.596	0.0155283
658.674	0.0155372
658.753	0.0153696
658.831	0.0153756
658.909	0.0153961
658.987	0.0154943
659.065	0.0154839
659.143	0.0154783
659.221	0.0155609
659.299	0.0155214
659.378	0.0154786
659.456	0.0154184
659.534	0.0154764
659.612	0.0153268
659.690	0.0154204
659.768	0.0156694
659.846	0.0153980
659.924	0.0155105
660.003	0.0154379
660.081	0.0152659
660.159	0.0153751
660.237	0.0154006
660.315	0.0155392
660.393	0.0154822
660.471	0.0153487
660.549	0.0154173
660.628	0.0155186
660.706	0.0154222
660.784	0.0153902
660.862	0.0154087
660.940	0.0154622
661.018	0.0154653
661.096	0.0154277
661.174	0.0154391
661.253	0.0155563
661.331	0.0156510
661.409	0.0155234
661.487	0.0155323
661.565	0.0154550
661.643	0.0155280
661.721	0.0155241
661.799	0.0156040
661.878	0.0155102
661.956	0.0154365
662.034	0.0155336
662.112	0.0153803
662.190	0.0153817
662.268	0.0154305
662.346	0.0155747
662.424	0.0154784
662.503	0.0154494
662.581	0.0153429
662.659	0.0154938
662.737	0.0154511
662.815	0.0155061
662.893	0.0154912
662.971	0.0154935
663.049	0.0155402
663.128	0.0154918
663.206	0.0154781
663.284	0.0154194
663.362	0.0156361
663.440	0.0155327
663.518	0.0155231
663.596	0.0154609
663.674	0.0154636
663.753	0.0155415
663.831	0.0154036
663.909	0.0154412
663.987	0.0154902
664.065	0.0153278
664.143	0.0155225
664.221	0.0155367
664.299	0.0154785
664.378	0.0153568
664.456	0.0154620
664.534	0.0155438
664.612	0.0154488
664.690	0.0154179
664.768	0.0154144
664.846	0.0154515
664.924	0.0153843
665.003	0.0154713
665.081	0.0153848
665.159	0.0154800
665.237	0.0155502
665.315	0.0154530
665.393	0.0154756
665.471	0.0155441
665.549	0.0155795
665.628	0.0153960
665.706	0.0154175
665.784	0.0154494
665.862	0.0154416
665.940	0.0153815
666.018	0.0154343
666.096	0.0154097
666.174	0.0153793
666.253	0.0154629
666.331	0.0154046
666.409	0.0153822
666.487	0.0154447
666.565	0.0153545
666.643	0.0154376
666.721	0.0153592
666.799	0.0154327
666.878	0.0154675
666.956	0.0153526
667.034	0.0153229
667.112	0.0154929
667.190	0.0154484
667.268	0.0153434
667.346	0.0153241
667.424	0.0153989
667.503	0.0154906
667.581	0.0152950
667.659	0.0153544
667.737	0.0153861
667.815	0.0154626
667.893	0.0153713
667.971	0.0153345
668.049	0.0153738
668.128	0.0155252
668.206	0.0154095
668.284	0.0152824
668.362	0.0154465
668.440	0.0153922
668.518	0.0153612
668.596	0.0154751
668.674	0.0154623
668.753	0.0154341
668.831	0.0153927
668.909	0.0152917
668.987	0.0153389
669.065	0.0154020
669.143	0.0154894
669.221	0.0153718
669.299	0.0153194
669.378	0.0154561
669.456	0.0153866
669.534	0.0153348
669.612	0.0154748
669.690	0.0153185
669.768	0.0153973
669.846	0.0154398
669.924	0.0153235
670.003	0.0153768
670.081	0.0153772
670.159	0.0154083
670.237	0.0155516
670.315	0.0154310
670.393	0.0154048
670.471	0.0155437
670.549	0.0153571
670.628	0.0153780
670.706	0.0154695
670.784	0.0153552
670.862	0.0154664
670.940	0.0153657
671.018	0.0154182
671.096	0.0155217
671.174	0.0155510
671.253	0.0154009
671.331	0.0153345
671.409	0.0153525
671.487	0.0154535
671.565	0.0154678
671.643	0.0153741
671.721	0.0154581
671.799	0.0153618
671.878	0.0153273
671.956	0.0154429
672.034	0.0153605
672.112	0.0154057
672.190	0.0153977
672.268	0.0154113
672.346	0.0153911
672.424	0.0153732
672.503	0.0153519
672.581	0.0153069
672.659	0.0152483
672.737	0.0154472
672.815	0.0155549
672.893	0.0154146
672.971	0.0152666
673.049	0.0155013
673.128	0.0152354
673.206	0.0155240
673.284	0.0153423
673.362	0.0155032
673.440	0.0154276
673.518	0.0153519
673.596	0.0153522
673.674	0.0155096
673.753	0.0155061
673.831	0.0153879
673.909	0.0153891
673.987	0.0154056
674.065	0.0152958
674.143	0.0153236
674.221	0.0153764
674.299	0.0152940
674.378	0.0153860
674.456	0.0154221
674.534	0.0153808
674.612	0.0154604
674.690	0.0153391
674.768	0.0154336
674.846	0.0154923
674.924	0.0154543
675.003	0.0153310
675.081	0.0155032
675.159	0.0155342
675.237	0.0153999
675.315	0.0154956
675.393	0.0155389
675.471	0.0153513
675.549	0.0154047
675.628	0.0155506
675.706	0.0154471
675.784	0.0153593
675.862	0.0154839
675.940	0.0153665
676.018	0.0155258
676.096	0.0155022
676.174	0.0154347
676.253	0.0153188
676.331	0.0155143
676.409	0.0153722
676.487	0.0153246
676.565	0.0154388
676.643	0.0155206
676.721	0.0152862
676.799	0.0153886
676.878	0.0154288
676.956	0.0154596
677.034	0.0154203
677.112	0.0154318
677.190	0.0154989
677.268	0.0154446
677.346	0.0152991
677.424	0.0154006
677.503	0.0154417
677.581	0.0154715
677.659	0.0154975
677.737	0.0154094
677.815	0.0152972
677.893	0.0154987
677.971	0.0153816
678.049	0.0154014
678.128	0.0153851
678.206	0.0153676
678.284	0.0154732
678.362	0.0154218
678.440	0.0155045
678.518	0.0153741
678.596	0.0154866
678.674	0.0154785
678.753	0.0153893
678.831	0.0154004
678.909	0.0153137
678.987	0.0154160
679.065	0.0154041
679.143	0.0152753
679.221	0.0155026
679.299	0.0155137
679.378	0.0153875
679.456	0.0153545
679.534	0.0154968
679.612	0.0153456
679.690	0.0152186
679.768	0.0153927
679.846	0.0154653
679.924	0.0153634
680.003	0.0153934
680.081	0.0154243
680.159	0.0154733
680.237	0.0154920
680.315	0.0154720
680.393	0.0154247
680.471	0.0154210
680.549	0.0153321
680.628	0.0153833
680.706	0.0153809
680.784	0.0154749
680.862	0.0155348
680.940	0.0153674
681.018	0.0153417
681.096	0.0154420
681.174	0.0154240
681.253	0.0154795
681.331	0.0154266
681.409	0.0154469
681.487	0.0153411
681.565	0.0154128
681.643	0.0154282
681.721	0.0154224
681.799	0.0153931
681.878	0.0155411
681.956	0.0154384
682.034	0.0154227
682.112	0.0154860
682.190	0.0153189
682.268	0.0153970
682.346	0.0153454
682.424	0.0153691
682.503	0.0154878
682.581	0.0154443
682.659	0.0154815
682.737	0.0154366
682.815	0.0152580
682.893	0.0154444
682.971	0.0154219
683.049	0.0152986
683.128	0.0153890
683.206	0.0154131
683.284	0.0153273
683.362	0.0154359
683.440	0.0153356
683.518	0.0153920
683.596	0.0154018
683.674	0.0154596
683.753	0.0154510
683.831	0.0154183
683.909	0.0152142
683.987	0.0154131
684.065	0.0153764
684.143	0.0153488
684.221	0.0153394
684.299	0.0153886
684.378	0.0153921
684.456	0.0153130
684.534	0.0153453
684.612	0.0153777
684.690	0.0153680
684.768	0.0153857
684.846	0.0154253
684.924	0.0154478
685.003	0.0153712
685.081	0.0153525
685.159	0.0153464
685.237	0.0152730
685.315	0.0153451
685.393	0.0154298
685.471	0.0155447
685.549	0.0153040
685.628	0.0152933
685.706	0.0155654
685.784	0.0154654
685.862	0.0153317
685.940	0.0151984
686.018	0.0153678
686.096	0.0154211
686.174	0.0154247
686.253	0.0154696
686.331	0.0154729
686.409	0.0154435
686.487	0.0154630
686.565	0.0154510
686.643	0.0153887
686.721	0.0154864
686.799	0.0154492
686.878	0.0154677
686.956	0.0154079
687.034	0.0154570
687.112	0.0153979
687.190	0.0154490
687.268	0.0152516
687.346	0.0154443
687.424	0.0155222
687.503	0.0155278
687.581	0.0154127
687.659	0.0153802
687.737	0.0155386
687.815	0.0154002
687.893	0.0154942
687.971	0.0153793
688.049	0.0154236
688.128	0.0153213
688.206	0.0154263
688.284	0.0153386
688.362	0.0154566
688.440	0.0154892
688.518	0.0153975
688.596	0.0154893
688.674	0.0153525
688.753	0.0153819
688.831	0.0154880
688.909	0.0155013
688.987	0.0154744
689.065	0.0154446
689.143	0.0153621
689.221	0.0154247
689.299	0.0153544
689.378	0.0154853
689.456	0.0155274
689.534	0.0153549
689.612	0.0152986
689.690	0.0153664
689.768	0.0153861
689.846	0.0154231
689.924	0.0154510
690.003	0.0154061
690.081	0.0153978
690.159	0.0154507
690.237	0.0153603
690.315	0.0154230
690.393	0.0154350
690.471	0.0153069
690.549	0.0154385
690.628	0.0154700
690.706	0.0154240
690.784	0.0152908
690.862	0.0153806
690.940	0.0154272
691.018	0.0154264
691.096	0.0152819
691.174	0.0154106
691.253	0.0154444
691.331	0.0153372
691.409	0.0154258
691.487	0.0153250
691.565	0.0154385
691.643	0.0154338
691.721	0.0153050
691.799	0.0151266
691.878	0.0153085
691.956	0.0154041
692.034	0.0152231
692.112	0.0153670
692.190	0.0153321
692.268	0.0152071
692.346	0.0153910
692.424	0.0152824
692.503	0.0153968
692.581	0.0153896
692.659	0.0153677
692.737	0.0153768
692.815	0.0153484
692.893	0.0152539
692.971	0.0153703
693.049	0.0154974
693.128	0.0153107
693.206	0.0152505
693.284	0.0153866
693.362	0.0153556
693.440	0.0153828
693.518	0.0152937
693.596	0.0154292
693.674	0.0154110
693.753	0.0154242
693.831	0.0154737
693.909	0.0154237
693.987	0.0155692
694.065	0.0154522
694.143	0.0153149
694.221	0.0154410
694.299	0.0154066
694.378	0.0153226
694.456	0.0153088
694.534	0.0153225
694.612	0.0155158
694.690	0.0154276
694.768	0.0154240
694.846	0.0153844
694.924	0.0152939
695.003	0.0153171
695.081	0.0152917
695.159	0.0152990
695.237	0.0153935
695.315	0.0153201
695.393	0.0152857
695.471	0.0153468
695.549	0.0153451
695.628	0.0153546
695.706	0.0153474
695.784	0.0153258
695.862	0.0153994
695.940	0.0154305
696.018	0.0153635
696.096	0.0153651
696.174	0.0153090
696.253	0.0153502
696.331	0.0154277
696.409	0.0153939
696.487	0.0153456
696.565	0.0154220
696.643	0.0154175
696.721	0.0154457
696.799	0.0155044
696.878	0.0154711
696.956	0.0156365
697.034	0.0156137
697.112	0.0156242
697.190	0.0155280
697.268	0.0155427
697.346	0.0155918
697.424	0.0155572
697.503	0.0154504
697.581	0.0155627
697.659	0.0156302
697.737	0.0155793
697.815	0.0154855
697.893	0.0155964
697.971	0.0155990
698.049	0.0155721
698.128	0.0155304
698.206	0.0154903
698.284	0.0153372
698.362	0.0154959
698.440	0.0154749
698.518	0.0154772
698.596	0.0153526
698.674	0.0154930
698.753	0.0153969
698.831	0.0153992
698.909	0.0154700
698.987	0.0155405
699.065	0.0155036
699.143	0.0154346
699.221	0.0153916
699.299	0.0154230
699.378	0.0156837
699.456	0.0155948
699.534	0.0155066
699.612	0.0155143
699.690	0.0156342
699.768	0.0154910
699.846	0.0154229
699.924	0.0155093
700.003	0.0154188
700.081	0.0154188
700.159	0.0155019
700.237	0.0156451
700.315	0.0154250
700.393	0.0153856
700.471	0.0153760
700.549	0.0155041
700.628	0.0154134
700.706	0.0153623
700.784	0.0152174
700.862	0.0152901
700.940	0.0153288
701.018	0.0154104
701.096	0.0154707
701.174	0.0154477
701.253	0.0155358
701.331	0.0154520
701.409	0.0154777
701.487	0.0155180
701.565	0.0153755
701.643	0.0154404
701.721	0.0154970
701.799	0.0154230
701.878	0.0155939
701.956	0.0155140
702.034	0.0156375
702.112	0.0155672
702.190	0.0154709
702.268	0.0155085
702.346	0.0154006
702.424	0.0154230
702.503	0.0154180
702.581	0.0153999
702.659	0.0153552
702.737	0.0153762
702.815	0.0154271
702.893	0.0153785
702.971	0.0151826
703.049	0.0154532
703.128	0.0153687
703.206	0.0152831
703.284	0.0153313
703.362	0.0154852
703.440	0.0153825
703.518	0.0154303
703.596	0.0151659
703.674	0.0153476
703.753	0.0154370
703.831	0.0153461
703.909	0.0154375
703.987	0.0154425
704.065	0.0154720
704.143	0.0153785
704.221	0.0154620
704.299	0.0154948
704.378	0.0154106
704.456	0.0155698
704.534	0.0153786
704.612	0.0153963
704.690	0.0154950
704.768	0.0154300
704.846	0.0154653
704.924	0.0153905
705.003	0.0154390
705.081	0.0152825
705.159	0.0153943
705.237	0.0153672
705.315	0.0151482
705.393	0.0153214
705.471	0.0154603
705.549	0.0154069
705.628	0.0152998
705.706	0.0152014
705.784	0.0154073
705.862	0.0153412
705.940	0.0154062
706.018	0.0153504
706.096	0.0151864
706.174	0.0152661
706.253	0.0153053
706.331	0.0153088
706.409	0.0153914
706.487	0.0155747
706.565	0.0155297
706.643	0.0154971
706.721	0.0155103
706.799	0.0155218
706.878	0.0155186
706.956	0.0154651
707.034	0.0155215
707.112	0.0156622
707.190	0.0155311
707.268	0.0155258
707.346	0.0156129
707.424	0.0155531
707.503	0.0155064
707.581	0.0154929
707.659	0.0153616
707.737	0.0154620
707.815	0.0155086
707.893	0.0154851
707.971	0.0154831
708.049	0.0155337
708.128	0.0153864
708.206	0.0155045
708.284	0.0153881
708.362	0.0154446
708.440	0.0153951
708.518	0.0153603
708.596	0.0153149
708.674	0.0155027
708.753	0.0155453
708.831	0.0154922
708.909	0.0155099
708.987	0.0154089
709.065	0.0154522
709.143	0.0154855
709.221	0.0154843
709.299	0.0155264
709.378	0.0154585
709.456	0.0155145
709.534	0.0154849
709.612	0.0154494
709.690	0.0154362
709.768	0.0152677
709.846	0.0154477
709.924	0.0156200
710.003	0.0154450
710.081	0.0154915
710.159	0.0153194
710.237	0.0153190
710.315	0.0153935
710.393	0.0154009
710.471	0.0153455
710.549	0.0152754
710.628	0.0153355
710.706	0.0154443
710.784	0.0152490
710.862	0.0153680
710.940	0.0153158
711.018	0.0153922
711.096	0.0154835
711.174	0.0154005
711.253	0.0153916
711.331	0.0154324
711.409	0.0155122
711.487	0.0154188
711.565	0.0155406
711.643	0.0155003
711.721	0.0155034
711.799	0.0155459
711.878	0.0155805
711.956	0.0154987
712.034	0.0157174
712.112	0.0155170
712.190	0.0155223
712.268	0.0155713
712.346	0.0156330
712.424	0.0153796
712.503	0.0154720
712.581	0.0154877
712.659	0.0154034
712.737	0.0154728
712.815	0.0153431
712.893	0.0152952
712.971	0.0152966
713.049	0.0152464
713.128	0.0152064
713.206	0.0152919
713.284	0.0152418
713.362	0.0153203
713.440	0.0153502
713.518	0.0153439
713.596	0.0152447
713.674	0.0152233
713.753	0.0152905
713.831	0.0153738
713.909	0.0153851
713.987	0.0154670
714.065	0.0155196
714.143	0.0154906
714.221	0.0155927
714.299	0.0155586
714.378	0.0155526
714.456	0.0155398
714.534	0.0155647
714.612	0.0157500
714.690	0.0155058
714.768	0.0156712
714.846	0.0154906
714.924	0.0155611
715.003	0.0157516
715.081	0.0155307
715.159	0.0154507
715.237	0.0155271
715.315	0.0155654
715.393	0.0156308
715.471	0.0155378
715.549	0.0153548
715.628	0.0155460
715.706	0.0155203
715.784	0.0154790
715.862	0.0155373
715.940	0.0155099
716.018	0.0155708
716.096	0.0155404
716.174	0.0154675
716.253	0.0155211
716.331	0.0155971
716.409	0.0155647
716.487	0.0154735
716.565	0.0155384
716.643	0.0157334
716.721	0.0156906
716.799	0.0155634
716.878	0.0157114
716.956	0.0157178
717.034	0.0157126
717.112	0.0156105
717.190	0.0158153
717.268	0.0157081
717.346	0.0155108
717.424	0.0155582
717.503	0.0155715
717.581	0.0155885
717.659	0.0155401
717.737	0.0154488
717.815	0.0153334
717.893	0.0153391
717.971	0.0152574
718.049	0.0151048
718.128	0.0152314
718.206	0.0151064
718.284	0.0151060
718.362	0.0152191
718.440	0.0151822
718.518	0.0151916
718.596	0.0153082
718.674	0.0151759
718.753	0.0153409
718.831	0.0153338
718.909	0.0155013
718.987	0.0154402
719.065	0.0155104
719.143	0.0156752
719.221	0.0156441
719.299	0.0157456
719.378	0.0159796
719.456	0.0158714
719.534	0.0158316
719.612	0.0158858
719.690	0.0160677
719.768	0.0159739
719.846	0.0160564
719.924	0.0160061
720.003	0.0159729
720.081	0.0161021
720.159	0.0160178
720.237	0.0160246
720.315	0.0158403
720.393	0.0158170
720.471	0.0157632
720.549	0.0156417
720.628	0.0155730
720.706	0.0155823
720.784	0.0155701
720.862	0.0154038
720.940	0.0153702
721.018	0.0152095
721.096	0.0151894
721.174	0.0151220
721.253	0.0150175
721.331	0.0149186
721.409	0.0148636
721.487	0.0150707
721.565	0.0149274
721.643	0.0149693
721.721	0.0150155
721.799	0.0151183
721.878	0.0150550
721.956	0.0150382
722.034	0.0152888
722.112	0.0152631
722.190	0.0154575
722.268	0.0155230
722.346	0.0154671
722.424	0.0154895
722.503	0.0157496
722.581	0.0159370
722.659	0.0158411
722.737	0.0158936
722.815	0.0158676
722.893	0.0159929
722.971	0.0160705
723.049	0.0159596
723.128	0.0159249
723.206	0.0162128
723.284	0.0158762
723.362	0.0157677
723.440	0.0157722
723.518	0.0157743
723.596	0.0157545
723.674	0.0156261
723.753	0.0156570
723.831	0.0154579
723.909	0.0153347
723.987	0.0154172
724.065	0.0152837
724.143	0.0152694
724.221	0.0151926
724.299	0.0152651
724.378	0.0152990
724.456	0.0153805
724.534	0.0153519
724.612	0.0155089
724.690	0.0154040
724.768	0.0154240
724.846	0.0156046
724.924	0.0156580
725.003	0.0155599
725.081	0.0156338
725.159	0.0159287
725.237	0.0157607
725.315	0.0155705
725.393	0.0157594
725.471	0.0156108
725.549	0.0156258
725.628	0.0156203
725.706	0.0155235
725.784	0.0154330
725.862	0.0154559
725.940	0.0153000
726.018	0.0152346
726.096	0.0150603
726.174	0.0150901
726.253	0.0151328
726.331	0.0150305
726.409	0.0150995
726.487	0.0153134
726.565	0.0151317
726.643	0.0153933
726.721	0.0153222
726.799	0.0154247
726.878	0.0156695
726.956	0.0157010
727.034	0.0158340
727.112	0.0159124
727.190	0.0160039
727.268	0.0162136
727.346	0.0161859
727.424	0.0161949
727.503	0.0164098
727.581	0.0164632
727.659	0.0162914
727.737	0.0161809
727.815	0.0163426
727.893	0.0160654
727.971	0.0160626
728.049	0.0160435
728.128	0.0160497
728.206	0.0159588
728.284	0.0157487
728.362	0.0156467
728.440	0.0156947
728.518	0.0155188
728.596	0.0154852
728.674	0.0153863
728.753	0.0151785
728.831	0.0151566
728.909	0.0150948
728.987	0.0148103
729.065	0.0149078
729.143	0.0147153
729.221	0.0145376
729.299	0.0145693
729.378	0.0144363
729.456	0.0144277
729.534	0.0144365
729.612	0.0143788
729.690	0.0143105
729.768	0.0144403
729.846	0.0142940
729.924	0.0145250
730.003	0.0143648
730.081	0.0146031
730.159	0.0147908
730.237	0.0149495
730.315	0.0150507
730.393	0.0151434
730.471	0.0155828
730.549	0.0157335
730.628	0.0158254
730.706	0.0159375
730.784	0.0160912
730.862	0.0162723
730.940	0.0164842
731.018	0.0166324
731.096	0.0168828
731.174	0.0168681
731.253	0.0169304
731.331	0.0171152
731.409	0.0171871
731.487	0.0170174
731.565	0.0169495
731.643	0.0169735
731.721	0.0168729
731.799	0.0168417
731.878	0.0166669
731.956	0.0163795
732.034	0.0163789
732.112	0.0161113
732.190	0.0158219
732.268	0.0156715
732.346	0.0155036
732.424	0.0152248
732.503	0.0148975
732.581	0.0149226
732.659	0.0146442
732.737	0.0144503
732.815	0.0143989
732.893	0.0144283
732.971	0.0143137
733.049	0.0141452
733.128	0.0141665
733.206	0.0140553
733.284	0.0140285
733.362	0.0141686
733.440	0.0142501
733.518	0.0143050
733.596	0.0142483
733.674	0.0142730
733.753	0.0145102
733.831	0.0143978
733.909	0.0144881
733.987	0.0146601
734.065	0.0147747
734.143	0.0148471
734.221	0.0149125
734.299	0.0148687
734.378	0.0150635
734.456	0.0151913
734.534	0.0151842
734.612	0.0153049
734.690	0.0153245
734.768	0.0154388
734.846	0.0155951
734.924	0.0157445
735.003	0.0158765
735.081	0.0159863
735.159	0.0160722
735.237	0.0161935
735.315	0.0162682
735.393	0.0165192
735.471	0.0165210
735.549	0.0163985
735.628	0.0165240
735.706	0.0166632
735.784	0.0166006
735.862	0.0166154
735.940	0.0164969
736.018	0.0165763
736.096	0.0162267
736.174	0.0164404
736.253	0.0162408
736.331	0.0161695
736.409	0.0159711
736.487	0.0158607
736.565	0.0157480
736.643	0.0155917
736.721	0.0154770
736.799	0.0154955
736.878	0.0154333
736.956	0.0151085
737.034	0.0151498
737.112	0.0151179
737.190	0.0149656
737.268	0.0151550
737.346	0.0150848
737.424	0.0148831
737.503	0.0148817
737.581	0.0148790
737.659	0.0147511
737.737	0.0149207
737.815	0.0149292
737.893	0.0149245
737.971	0.0148815
738.049	0.0147704
738.128	0.0149654
738.206	0.0149751
738.284	0.0149538
738.362	0.0148993
738.440	0.0150449
738.518	0.0150611
738.596	0.0151165
738.674	0.0150263
738.753	0.0149097
738.831	0.0149200
738.909	0.0149716
738.987	0.0151846
739.065	0.0152173
739.143	0.0150291
739.221	0.0151469
739.299	0.0152499
739.378	0.0152605
739.456	0.0153024
739.534	0.0152100
739.612	0.0152512
739.690	0.0153908
739.768	0.0155797
739.846	0.0155253
739.924	0.0156566
740.003	0.0158128
740.081	0.0159939
740.159	0.0160395
740.237	0.0160404
740.315	0.0162833
740.393	0.0163534
740.471	0.0162401
740.549	0.0164182
740.628	0.0162765
740.706	0.0162688
740.784	0.0162006
740.862	0.0162240
740.940	0.0162127
741.018	0.0161900
741.096	0.0160465
741.174	0.0160486
741.253	0.0160016
741.331	0.0155946
741.409	0.0155892
741.487	0.0154144
741.565	0.0155677
741.643	0.0153962
741.721	0.0152398
741.799	0.0152694
741.878	0.0153678
741.956	0.0152743
742.034	0.0151854
742.112	0.0151708
742.190	0.0150561
742.268	0.0152019
742.346	0.0152505
742.424	0.0152776
742.503	0.0152809
742.581	0.0153832
742.659	0.0153416
742.737	0.0153965
742.815	0.0154979
742.893	0.0155508
742.971	0.0154427
743.049	0.0154620
743.128	0.0154305
743.206	0.0154042
743.284	0.0154366
743.362	0.0154224
743.440	0.0153672
743.518	0.0153153
743.596	0.0152429
743.674	0.0151511
743.753	0.0151090
743.831	0.0150198
743.909	0.0151569
743.987	0.0149438
744.065	0.0148287
744.143	0.0149408
744.221	0.0151035
744.299	0.0150149
744.378	0.0149801
744.456	0.0149519
744.534	0.0150777
744.612	0.0149846
744.690	0.0150308
744.768	0.0150627
744.846	0.0151672
744.924	0.0152597
745.003	0.0152148
745.081	0.0153891
745.159	0.0153958
745.237	0.0155262
745.315	0.0156178
745.393	0.0157869
745.471	0.0158591
745.549	0.0158362
745.628	0.0159198
745.706	0.0162180
745.784	0.0162357
745.862	0.0162473
745.940	0.0161758
746.018	0.0162761
746.096	0.0163193
746.174	0.0161597
746.253	0.0162010
746.331	0.0161469
746.409	0.0159743
746.487	0.0158738
746.565	0.0158855
746.643	0.0155220
746.721	0.0156125
746.799	0.0154400
746.878	0.0154777
746.956	0.0152587
747.034	0.0151751
747.112	0.0151682
747.190	0.0151854
747.268	0.0150778
747.346	0.0150356
747.424	0.0150083
747.503	0.0149567
747.581	0.0150187
747.659	0.0150438
747.737	0.0152023
747.815	0.0150759
747.893	0.0150097
747.971	0.0152047
748.049	0.0152647
748.128	0.0152475
748.206	0.0155029
748.284	0.0152247
748.362	0.0152872
748.440	0.0152754
748.518	0.0153362
748.596	0.0153581
748.674	0.0153792
748.753	0.0154295
748.831	0.0156007
748.909	0.0155992
748.987	0.0155357
749.065	0.0155447
749.143	0.0155504
749.221	0.0156470
749.299	0.0155608
749.378	0.0155068
749.456	0.0155739
749.534	0.0156034
749.612	0.0157092
749.690	0.0155058
749.768	0.0155665
749.846	0.0154833
749.924	0.0154829
750.003	0.0154579
750.081	0.0154299
750.159	0.0154768
750.237	0.0154479
750.315	0.0153838
750.393	0.0155226
750.471	0.0154689
750.549	0.0153619
750.628	0.0152986
750.706	0.0153117
750.784	0.0153842
750.862	0.0153412
750.940	0.0153372
751.018	0.0155330
751.096	0.0154879
751.174	0.0154190
751.253	0.0155241
751.331	0.0154850
751.409	0.0156458
751.487	0.0156010
751.565	0.0155814
751.643	0.0156281
751.721	0.0155611
751.799	0.0155079
751.878	0.0156817
751.956	0.0157095
752.034	0.0155476
752.112	0.0156533
752.190	0.0155416
752.268	0.0156747
752.346	0.0155068
752.424	0.0155701
752.503	0.0156417
752.581	0.0154420
752.659	0.0154842
752.737	0.0155523
752.815	0.0154648
752.893	0.0154910
752.971	0.0153944
753.049	0.0153002
753.128	0.0153909
753.206	0.0153402
753.284	0.0152940
753.362	0.0152222
753.440	0.0152005
753.518	0.0151851
753.596	0.0152177
753.674	0.0151511
753.753	0.0151243
753.831	0.0150272
753.909	0.0152039
753.987	0.0153477
754.065	0.0152966
754.143	0.0153166
754.221	0.0152801
754.299	0.0152666
754.378	0.0154050
754.456	0.0153977
754.534	0.0154128
754.612	0.0153461
754.690	0.0154125
754.768	0.0154498
754.846	0.0154504
754.924	0.0155404
755.003	0.0153953
755.081	0.0154983
755.159	0.0153773
755.237	0.0153518
755.315	0.0153732
755.393	0.0152755
755.471	0.0153800
755.549	0.0152917
755.628	0.0153176
755.706	0.0154007
755.784	0.0153230
755.862	0.0152389
755.940	0.0152483
756.018	0.0153349
756.096	0.0152884
756.174	0.0152940
756.253	0.0153735
756.331	0.0155350
756.409	0.0155614
756.487	0.0153190
756.565	0.0154874
756.643	0.0156504
756.721	0.0155820
756.799	0.0156747
756.878	0.0158857
756.956	0.0158572
757.034	0.0158921
757.112	0.0158543
757.190	0.0159740
757.268	0.0159158
757.346	0.0159915
757.424	0.0157405
757.503	0.0159018
757.581	0.0157745
757.659	0.0156103
757.737	0.0154836
757.815	0.0152539
757.893	0.0151183
757.971	0.0151024
758.049	0.0149755
758.128	0.0148991
758.206	0.0148773
758.284	0.0146488
758.362	0.0147351
758.440	0.0147781
758.518	0.0146876
758.596	0.0146231
758.674	0.0147199
758.753	0.0147610
758.831	0.0148355
758.909	0.0148728
758.987	0.0148621
759.065	0.0148451
759.143	0.0151367
759.221	0.0150233
759.299	0.0150453
759.378	0.0152766
759.456	0.0153451
759.534	0.0155481
759.612	0.0155187
759.690	0.0155791
759.768	0.0156189
759.846	0.0156357
759.924	0.0155508
760.003	0.0156604
760.081	0.0156308
760.159	0.0156059
760.237	0.0156189
760.315	0.0156048
760.393	0.0156557
760.471	0.0155412
760.549	0.0155883
760.628	0.0155405
760.706	0.0154344
760.784	0.0154794
760.862	0.0155496
760.940	0.0154343
761.018	0.0153273
761.096	0.0156142
761.174	0.0153194
761.253	0.0154108
761.331	0.0153413
761.409	0.0153133
761.487	0.0152084
761.565	0.0151871
761.643	0.0152160
761.721	0.0151110
761.799	0.0150344
761.878	0.0149501
761.956	0.0150655
762.034	0.0150628
762.112	0.0150072
762.190	0.0149333
762.268	0.0150912
762.346	0.0149895
762.424	0.0151138
762.503	0.0153069
762.581	0.0153798
762.659	0.0153580
762.737	0.0154077
762.815	0.0155223
762.893	0.0155838
762.971	0.0157568
763.049	0.0158321
763.128	0.0157465
763.206	0.0158563
763.284	0.0157103
763.362	0.0156869
763.440	0.0155476
763.518	0.0155163
763.596	0.0153679
763.674	0.0154199
763.753	0.0152057
763.831	0.0152438
763.909	0.0151749
763.987	0.0150693
764.065	0.0149529
764.143	0.0147885
764.221	0.0148519
764.299	0.0149233
764.378	0.0147284
764.456	0.0147727
764.534	0.0147863
764.612	0.0149137
764.690	0.0148970
764.768	0.0149520
764.846	0.0151787
764.924	0.0151543
765.003	0.0151406
765.081	0.0152074
765.159	0.0154602
765.237	0.0152198
765.315	0.0155222
765.393	0.0155616
765.471	0.0155494
765.549	0.0155505
765.628	0.0154906
765.706	0.0155691
765.784	0.0157137
765.862	0.0157558
765.940	0.0157260
766.018	0.0158215
766.096	0.0158588
766.174	0.0157941
766.253	0.0157837
766.331	0.0157339
766.409	0.0158397
766.487	0.0157537
766.565	0.0157957
766.643	0.0156893
766.721	0.0154646
766.799	0.0155981
766.878	0.0154233
766.956	0.0154067
767.034	0.0152962
767.112	0.0152345
767.190	0.0152795
767.268	0.0152569
767.346	0.0151364
767.424	0.0151455
767.503	0.0152929
767.581	0.0151960
767.659	0.0149877
767.737	0.0151110
767.815	0.0151862
767.893	0.0152464
767.971	0.0153529
768.049	0.0153503
768.128	0.0152093
768.206	0.0154041
768.284	0.0155134
768.362	0.0155891
768.440	0.0155918
768.518	0.0156821
768.596	0.0156899
768.674	0.0157758
768.753	0.0157516
768.831	0.0158357
768.909	0.0156450
768.987	0.0156036
769.065	0.0156744
769.143	0.0156487
769.221	0.0154298
769.299	0.0153486
769.378	0.0153609
769.456	0.0151665
769.534	0.0150900
769.612	0.0150655
769.690	0.0149168
769.768	0.0149647
769.846	0.0148714
769.924	0.0149061
770.003	0.0149904
770.081	0.0150452
770.159	0.0149391
770.237	0.0150623
770.315	0.0149146
770.393	0.0150578
770.471	0.0151170
770.549	0.0153515
770.628	0.0151682
770.706	0.0152828
770.784	0.0153647
770.862	0.0155238
770.940	0.0154264
771.018	0.0153997
771.096	0.0154443
771.174	0.0155854
771.253	0.0156881
771.331	0.0156597
771.409	0.0156178
771.487	0.0156239
771.565	0.0156469
771.643	0.0156454
771.721	0.0158086
771.799	0.0157671
771.878	0.0157726
771.956	0.0158816
772.034	0.0157796
772.112	0.0157598
772.190	0.0157546
772.268	0.0156506
772.346	0.0157001
772.424	0.0157244
772.503	0.0153776
772.581	0.0154686
772.659	0.0153841
772.737	0.0152993
772.815	0.0154085
772.893	0.0153497
772.971	0.0151865
773.049	0.0151292
773.128	0.0152026
773.206	0.0151384
773.284	0.0151588
773.362	0.0150945
773.440	0.0152125
773.518	0.0151993
773.596	0.0150176
773.674	0.0151141
773.753	0.0152213
773.831	0.0152731
773.909	0.0152216
773.987	0.0153094
774.065	0.0153931
774.143	0.0153175
774.221	0.0154314
774.299	0.0154840
774.378	0.0155434
774.456	0.0157151
774.534	0.0157790
774.612	0.0156216
774.690	0.0158136
774.768	0.0158060
774.846	0.0159285
774.924	0.0158926
775.003	0.0156724
775.081	0.0157746
775.159	0.0156322
775.237	0.0157001
775.315	0.0155982
775.393	0.0153915
775.471	0.0154868
775.549	0.0152303
775.628	0.0152410
775.706	0.0152180
775.784	0.0152052
775.862	0.0151058
775.940	0.0150261
776.018	0.0153149
776.096	0.0152195
776.174	0.0150734
776.253	0.0149856
776.331	0.0151007
776.409	0.0150208
776.487	0.0152341
776.565	0.0155091
776.643	0.0152675
776.721	0.0153675
776.799	0.0155137
776.878	0.0153466
776.956	0.0153725
777.034	0.0154957
777.112	0.0155735
777.190	0.0155556
777.268	0.0155910
777.346	0.0156087
777.424	0.0155833
777.503	0.0157044
777.581	0.0155367
777.659	0.0155247
777.737	0.0154980
777.815	0.0155494
777.893	0.0156334
777.971	0.0156318
778.049	0.0154665
778.128	0.0154517
778.206	0.0154449
778.284	0.0153597
778.362	0.0153493
778.440	0.0152803
778.518	0.0151696
778.596	0.0150467
778.674	0.0150562
778.753	0.0150130
778.831	0.0150038
778.909	0.0149136
778.987	0.0149418
779.065	0.0149313
779.143	0.0150417
779.221	0.0149506
779.299	0.0151385
779.378	0.0151378
779.456	0.0152245
779.534	0.0152790
779.612	0.0153677
779.690	0.0153955
779.768	0.0154451
779.846	0.0155401
779.924	0.0156384
780.003	0.0156596
780.081	0.0156201
780.159	0.0157505
780.237	0.0157689
780.315	0.0158741
780.393	0.0159092
780.471	0.0159548
780.549	0.0158997
780.628	0.0158501
780.706	0.0158666
780.784	0.0159680
780.862	0.0157951
780.940	0.0156839
781.018	0.0157862
781.096	0.0157703
781.174	0.0155442
781.253	0.0156741
781.331	0.0155996
781.409	0.0154255
781.487	0.0152000
781.565	0.0151736
781.643	0.0151699
781.721	0.0151045
781.799	0.0150127
781.878	0.0151176
781.956	0.0149190
782.034	0.0148837
782.112	0.0149757
782.190	0.0146383
782.268	0.0148130
782.346	0.0148483
782.424	0.0147832
782.503	0.0148858
782.581	0.0149660
782.659	0.0149027
782.737	0.0150477
782.815	0.0148717
782.893	0.0150607
782.971	0.0151542
783.049	0.0153426
783.128	0.0153079
783.206	0.0153255
783.284	0.0155990
783.362	0.0156440
783.440	0.0155395
783.518	0.0156033
783.596	0.0158953
783.674	0.0158220
783.753	0.0159681
783.831	0.0158492
783.909	0.0157616
783.987	0.0158949
784.065	0.0158968
784.143	0.0157005
784.221	0.0156473
784.299	0.0157028
784.378	0.0155281
784.456	0.0155927
784.534	0.0156677
784.612	0.0155670
784.690	0.0155442
784.768	0.0154176
784.846	0.0153461
784.924	0.0155085
785.003	0.0152806
785.081	0.0152734
785.159	0.0152678
785.237	0.0153664
785.315	0.0153692
785.393	0.0154851
785.471	0.0155102
785.549	0.0154484
785.628	0.0154747
785.706	0.0154374
785.784	0.0154559
785.862	0.0153967
785.940	0.0154829
786.018	0.0153973
786.096	0.0153960
786.174	0.0153931
786.253	0.0153236
786.331	0.0151810
786.409	0.0151885
786.487	0.0154114
786.565	0.0152922
786.643	0.0153951
786.721	0.0154282
786.799	0.0153385
786.878	0.0154130
786.956	0.0153558
787.034	0.0153809
787.112	0.0153761
787.190	0.0153518
787.268	0.0153759
787.346	0.0154616
787.424	0.0153452
787.503	0.0153580
787.581	0.0152741
787.659	0.0152793
787.737	0.0153738
787.815	0.0153712
787.893	0.0152499
787.971	0.0153489
788.049	0.0153807
788.128	0.0152876
788.206	0.0153049
788.284	0.0152355
788.362	0.0153506
788.440	0.0152471
788.518	0.0153898
788.596	0.0154323
788.674	0.0154506
788.753	0.0154443
788.831	0.0154972
788.909	0.0154958
788.987	0.0155728
789.065	0.0157140
789.143	0.0156676
789.221	0.0157874
789.299	0.0156151
789.378	0.0157198
789.456	0.0156930
789.534	0.0155418
789.612	0.0156980
789.690	0.0157748
789.768	0.0155941
789.846	0.0155074
789.924	0.0154062
790.003	0.0153778
790.081	0.0153546
790.159	0.0153988
790.237	0.0153780
790.315	0.0153252
790.393	0.0154085
790.471	0.0153745
790.549	0.0153682
790.628	0.0153432
790.706	0.0154807
790.784	0.0154164
790.862	0.0152534
790.940	0.0155049
791.018	0.0155051
791.096	0.0155513
791.174	0.0155462
791.253	0.0154885
791.331	0.0153620
791.409	0.0155459
791.487	0.0155647
791.565	0.0155283
791.643	0.0156073
791.721	0.0154729
791.799	0.0155301
791.878	0.0155720
791.956	0.0155139
792.034	0.0156043
792.112	0.0156606
792.190	0.0155778
792.268	0.0155647
792.346	0.0155250
792.424	0.0156184
792.503	0.0154872
792.581	0.0156510
792.659	0.0156153
792.737	0.0154266
792.815	0.0155609
792.893	0.0156380
792.971	0.0154759
793.049	0.0155566
793.128	0.0155565
793.206	0.0154810
793.284	0.0156152
793.362	0.0156576
793.440	0.0154762
793.518	0.0155807
793.596	0.0155494
793.674	0.0155725
793.753	0.0155784
793.831	0.0156520
793.909	0.0154897
793.987	0.0154786
794.065	0.0153979
794.143	0.0154440
794.221	0.0153448
794.299	0.0154052
794.378	0.0154820
794.456	0.0153350
794.534	0.0153063
794.612	0.0153886
794.690	0.0153461
794.768	0.0153039
794.846	0.0154359
794.924	0.0153076
795.003	0.0152797
795.081	0.0153555
795.159	0.0154041
795.237	0.0153823
795.315	0.0152893
795.393	0.0154858
795.471	0.0153799
795.549	0.0155698
795.628	0.0157030
795.706	0.0156200
795.784	0.0154791
795.862	0.0155038
795.940	0.0156614
796.018	0.0157207
796.096	0.0157388
796.174	0.0157962
796.253	0.0157981
796.331	0.0158152
796.409	0.0157400
796.487	0.0156433
796.565	0.0156329
796.643	0.0157510
796.721	0.0158232
796.799	0.0157715
796.878	0.0157120
796.956	0.0157146
797.034	0.0156724
797.112	0.0155955
797.190	0.0155296
797.268	0.0155669
797.346	0.0155486
797.424	0.0155452
797.503	0.0152892
797.581	0.0152949
797.659	0.0153074
797.737	0.0152322
797.815	0.0154117
797.893	0.0152546
797.971	0.0153279
798.049	0.0152671
798.128	0.0152742
798.206	0.0153073
798.284	0.0153112
798.362	0.0152058
798.440	0.0152139
798.518	0.0151849
798.596	0.0152450
798.674	0.0152858
798.753	0.0152581
798.831	0.0152741
798.909	0.0152803
798.987	0.0153398
799.065	0.0151504
799.143	0.0152886
799.221	0.0153397
799.299	0.0153052
799.378	0.0154214
799.456	0.0153356
799.534	0.0155218
799.612	0.0154375
799.690	0.0154159
799.768	0.0153999
799.846	0.0155132
799.924	0.0155282
800.003	0.0154935
800.081	0.0154475
800.159	0.0154230
800.237	0.0154613
800.315	0.0153973
800.393	0.0154350
800.471	0.0153491
800.549	0.0154953
800.628	0.0152882
800.706	0.0154170
800.784	0.0152995
800.862	0.0152867
800.940	0.0152848
801.018	0.0153073
801.096	0.0152780
801.174	0.0152309
801.253	0.0152737
801.331	0.0152397
801.409	0.0153379
801.487	0.0152700
801.565	0.0153375
801.643	0.0154131
801.721	0.0153330
801.799	0.0153307
801.878	0.0153570
801.956	0.0154427
802.034	0.0153429
802.112	0.0155298
802.190	0.0155298
802.268	0.0154964
802.346	0.0154341
802.424	0.0153661
802.503	0.0155397
802.581	0.0155875
802.659	0.0155118
802.737	0.0153992
802.815	0.0154974
802.893	0.0156059
802.971	0.0154211
803.049	0.0153426
803.128	0.0153890
803.206	0.0154961
803.284	0.0155116
803.362	0.0155447
803.440	0.0154727
803.518	0.0154613
803.596	0.0153425
803.674	0.0155637
803.753	0.0153914
803.831	0.0154441
803.909	0.0155015
803.987	0.0154731
804.065	0.0154440
804.143	0.0155256
804.221	0.0155644
804.299	0.0156415
804.378	0.0155376
804.456	0.0155279
804.534	0.0155729
804.612	0.0154711
804.690	0.0153473
804.768	0.0155260
804.846	0.0156221
804.924	0.0152909
805.003	0.0154689
805.081	0.0151933
805.159	0.0154501
805.237	0.0154591
805.315	0.0153716
805.393	0.0153503
805.471	0.0152579
805.549	0.0154881
805.628	0.0155357
805.706	0.0154294
805.784	0.0154807
805.862	0.0154791
805.940	0.0154273
806.018	0.0155206
806.096	0.0155737
806.174	0.0156967
806.253	0.0154566
806.331	0.0154747
806.409	0.0156441
806.487	0.0156384
806.565	0.0156765
806.643	0.0156979
806.721	0.0157294
806.799	0.0155743
806.878	0.0155962
806.956	0.0156401
807.034	0.0156499
807.112	0.0155994
807.190	0.0154786
807.268	0.0154482
807.346	0.0156165
807.424	0.0156770
807.503	0.0154325
807.581	0.0155392
807.659	0.0157503
807.737	0.0156245
807.815	0.0155682
807.893	0.0155042
807.971	0.0155407
808.049	0.0157140
808.128	0.0157373
808.206	0.0155956
808.284	0.0157390
808.362	0.0156236
808.440	0.0157001
808.518	0.0155794
808.596	0.0156414
808.674	0.0155827
808.753	0.0156087
808.831	0.0157166
808.909	0.0157011
808.987	0.0154609
809.065	0.0156200
809.143	0.0155322
809.221	0.0154794
809.299	0.0156233
809.378	0.0155377
809.456	0.0155327
809.534	0.0155826
809.612	0.0154483
809.690	0.0153567
809.768	0.0156034
809.846	0.0156298
809.924	0.0155219
810.003	0.0154832
810.081	0.0155611
810.159	0.0156856
810.237	0.0155863
810.315	0.0154794
810.393	0.0154456
810.471	0.0155405
810.549	0.0157637
810.628	0.0156120
810.706	0.0156356
810.784	0.0155585
810.862	0.0155569
810.940	0.0154651
811.018	0.0155889
811.096	0.0156332
811.174	0.0154762
811.253	0.0155370
811.331	0.0156245
811.409	0.0155032
811.487	0.0154144
811.565	0.0153336
811.643	0.0154651
811.721	0.0155419
811.799	0.0153323
811.878	0.0152377
811.956	0.0154768
812.034	0.0155105
812.112	0.0153617
812.190	0.0153237
812.268	0.0153805
812.346	0.0155477
812.424	0.0154386
812.503	0.0155001
812.581	0.0155081
812.659	0.0156190
812.737	0.0154421
812.815	0.0155202
812.893	0.0156126
812.971	0.0155602
813.049	0.0154701
813.128	0.0156571
813.206	0.0154480
813.284	0.0155447
813.362	0.0153862
813.440	0.0154620
813.518	0.0153606
813.596	0.0154057
813.674	0.0154443
813.753	0.0153728
813.831	0.0154121
813.909	0.0153555
813.987	0.0153130
814.065	0.0153622
814.143	0.0152958
814.221	0.0152346
814.299	0.0152229
814.378	0.0152607
814.456	0.0152565
814.534	0.0152356
814.612	0.0152762
814.690	0.0153450
814.768	0.0153111
814.846	0.0154523
814.924	0.0154993
815.003	0.0154115
815.081	0.0155602
815.159	0.0154509
815.237	0.0155470
815.315	0.0156467
815.393	0.0156744
815.471	0.0155991
815.549	0.0155618
815.628	0.0157460
815.706	0.0156125
815.784	0.0155714
815.862	0.0156404
815.940	0.0156361
816.018	0.0155588
816.096	0.0156151
816.174	0.0158080
816.253	0.0156879
816.331	0.0156227
816.409	0.0156508
816.487	0.0156441
816.565	0.0156403
816.643	0.0156292
816.721	0.0155414
816.799	0.0154858
816.878	0.0154624
816.956	0.0156573
817.034	0.0156379
817.112	0.0155356
817.190	0.0152847
817.268	0.0154373
817.346	0.0155227
817.424	0.0153368
817.503	0.0153626
817.581	0.0152848
817.659	0.0153284
817.737	0.0151083
817.815	0.0151557
817.893	0.0150861
817.971	0.0150780
818.049	0.0151086
818.128	0.0151737
818.206	0.0151307
818.284	0.0151296
818.362	0.0153211
818.440	0.0152806
818.518	0.0153606
818.596	0.0154453
818.674	0.0154307
818.753	0.0154271
818.831	0.0153983
818.909	0.0155229
818.987	0.0155326
819.065	0.0154890
819.143	0.0154671
819.221	0.0156230
819.299	0.0157018
819.378	0.0156363
819.456	0.0156477
819.534	0.0156355
819.612	0.0156532
819.690	0.0156995
819.768	0.0157194
819.846	0.0156403
819.924	0.0154861
820.003	0.0154649
820.081	0.0155462
820.159	0.0155479
820.237	0.0153863
820.315	0.0155898
820.393	0.0154573
820.471	0.0154362
820.549	0.0153670
820.628	0.0152927
820.706	0.0154115
820.784	0.0153880
820.862	0.0154469
820.940	0.0153475
821.018	0.0152814
821.096	0.0152260
821.174	0.0154263
821.253	0.0152730
821.331	0.0152940
821.409	0.0153464
821.487	0.0154523
821.565	0.0152659
821.643	0.0153535
821.721	0.0154048
821.799	0.0153827
821.878	0.0154295
821.956	0.0153339
822.034	0.0151537
822.112	0.0151587
822.190	0.0152952
822.268	0.0152855
822.346	0.0152468
822.424	0.0152879
822.503	0.0153954
822.581	0.0152593
822.659	0.0152081
822.737	0.0152747
822.815	0.0152325
822.893	0.0153286
822.971	0.0153387
823.049	0.0155082
823.128	0.0153241
823.206	0.0153991
823.284	0.0153773
823.362	0.0154892
823.440	0.0155420
823.518	0.0155471
823.596	0.0155222
823.674	0.0155237
823.753	0.0155847
823.831	0.0155480
823.909	0.0156427
823.987	0.0155701
824.065	0.0156087
824.143	0.0154118
824.221	0.0156248
824.299	0.0156020
824.378	0.0155020
824.456	0.0154520
824.534	0.0154842
824.612	0.0154179
824.690	0.0155349
824.768	0.0154518
824.846	0.0154624
824.924	0.0154048
825.003	0.0152367
825.081	0.0153173
825.159	0.0154196
825.237	0.0153158
825.315	0.0153695
825.393	0.0152885
825.471	0.0152450
825.549	0.0153372
825.628	0.0153744
825.706	0.0152545
825.784	0.0152559
825.862	0.0152859
825.940	0.0152367
826.018	0.0153533
826.096	0.0152513
826.174	0.0152538
826.253	0.0152834
826.331	0.0152855
826.409	0.0153390
826.487	0.0152231
826.565	0.0152290
826.643	0.0152917
826.721	0.0152399
826.799	0.0153342
826.878	0.0153934
826.956	0.0152750
827.034	0.0152275
827.112	0.0154716
827.190	0.0154763
827.268	0.0154724
827.346	0.0154448
827.424	0.0156015
827.503	0.0154585
827.581	0.0154999
827.659	0.0155708
827.737	0.0157896
827.815	0.0158463
827.893	0.0156384
827.971	0.0157442
828.049	0.0158912
828.128	0.0159032
828.206	0.0157143
828.284	0.0158595
828.362	0.0157688
828.440	0.0158133
828.518	0.0158120
828.596	0.0157384
828.674	0.0156650
828.753	0.0158850
828.831	0.0156575
828.909	0.0154998
828.987	0.0156792
829.065	0.0154642
829.143	0.0154837
829.221	0.0154538
829.299	0.0153831
829.378	0.0155209
829.456	0.0152868
829.534	0.0153138
829.612	0.0154038
829.690	0.0151674
829.768	0.0151960
829.846	0.0153210
829.924	0.0153638
830.003	0.0151093
830.081	0.0151955
830.159	0.0153024
830.237	0.0152479
830.315	0.0152907
830.393	0.0151894
830.471	0.0152412
830.549	0.0152560
830.628	0.0152931
830.706	0.0153101
830.784	0.0154642
830.862	0.0153544
830.940	0.0155600
831.018	0.0153726
831.096	0.0153446
831.174	0.0153942
831.253	0.0155540
831.331	0.0154282
831.409	0.0156758
831.487	0.0156063
831.565	0.0156158
831.643	0.0156123
831.721	0.0156303
831.799	0.0156322
831.878	0.0156483
831.956	0.0157353
832.034	0.0156963
832.112	0.0157100
832.190	0.0157755
832.268	0.0158916
832.346	0.0159501
832.424	0.0158920
832.503	0.0157978
832.581	0.0157951
832.659	0.0157585
832.737	0.0155579
832.815	0.0156791
832.893	0.0158476
832.971	0.0156528
833.049	0.0156116
833.128	0.0155341
833.206	0.0155505
833.284	0.0154571
833.362	0.0154285
833.440	0.0153687
833.518	0.0153860
833.596	0.0153374
833.674	0.0153328
833.753	0.0154575
833.831	0.0153924
833.909	0.0151581
833.987	0.0152939
834.065	0.0152404
834.143	0.0152262
834.221	0.0152573
834.299	0.0152486
834.378	0.0152814
834.456	0.0151298
834.534	0.0151344
834.612	0.0152976
834.690	0.0152456
834.768	0.0153458
834.846	0.0153423
834.924	0.0150235
835.003	0.0151402
835.081	0.0151986
835.159	0.0151376
835.237	0.0151369
835.315	0.0152042
835.393	0.0152962
835.471	0.0152258
835.549	0.0151915
835.628	0.0152731
835.706	0.0153268
835.784	0.0151942
835.862	0.0151912
835.940	0.0152414
836.018	0.0152766
836.096	0.0153592
836.174	0.0154082
836.253	0.0152949
836.331	0.0153892
836.409	0.0154259
836.487	0.0154501
836.565	0.0152366
836.643	0.0152631
836.721	0.0154282
836.799	0.0153188
836.878	0.0155018
836.956	0.0154472
837.034	0.0154887
837.112	0.0153243
837.190	0.0155762
837.268	0.0155616
837.346	0.0153814
837.424	0.0155212
837.503	0.0154751
837.581	0.0155097
837.659	0.0155031
837.737	0.0152917
837.815	0.0153790
837.893	0.0154233
837.971	0.0153233
838.049	0.0154314
838.128	0.0154058
838.206	0.0154440
838.284	0.0154100
838.362	0.0154494
838.440	0.0155199
838.518	0.0153359
838.596	0.0154247
838.674	0.0154939
838.753	0.0154662
838.831	0.0154163
838.909	0.0154120
838.987	0.0153948
839.065	0.0154478
839.143	0.0154801
839.221	0.0155265
839.299	0.0153211
839.378	0.0154163
839.456	0.0154977
839.534	0.0153686
839.612	0.0152674
839.690	0.0154045
839.768	0.0153919
839.846	0.0153925
839.924	0.0153659
840.003	0.0153883
840.081	0.0153327
840.159	0.0153802
840.237	0.0152392
840.315	0.0152915
840.393	0.0153685
840.471	0.0152173
840.549	0.0152524
840.628	0.0152954
840.706	0.0152804
840.784	0.0152526
840.862	0.0151574
840.940	0.0152808
841.018	0.0153601
841.096	0.0152490
841.174	0.0151724
841.253	0.0153735
841.331	0.0154673
841.409	0.0154686
841.487	0.0152533
841.565	0.0152714
841.643	0.0153469
841.721	0.0153445
841.799	0.0153997
841.878	0.0153784
841.956	0.0154137
842.034	0.0153621
842.112	0.0153616
842.190	0.0154391
842.268	0.0154422
842.346	0.0153529
842.424	0.0155055
842.503	0.0154216
842.581	0.0156551
842.659	0.0155918
842.737	0.0156629
842.815	0.0155934
842.893	0.0156432
842.971	0.0157861
843.049	0.0155695
843.128	0.0155408
843.206	0.0155405
843.284	0.0155527
843.362	0.0155883
843.440	0.0154459
843.518	0.0154198
843.596	0.0155521
843.674	0.0154804
843.753	0.0153777
843.831	0.0154552
843.909	0.0154237
843.987	0.0154879
844.065	0.0153668
844.143	0.0153923
844.221	0.0153582
844.299	0.0153139
844.378	0.0153839
844.456	0.0153290
844.534	0.0151842
844.612	0.0152341
844.690	0.0152023
844.768	0.0153603
844.846	0.0154051
844.924	0.0153809
845.003	0.0153978
845.081	0.0155363
845.159	0.0153391
845.237	0.0152032
845.315	0.0152678
845.393	0.0153058
845.471	0.0154517
845.549	0.0155437
845.628	0.0153165
845.706	0.0153796
845.784	0.0154357
845.862	0.0154507
845.940	0.0153329
846.018	0.0154774
846.096	0.0154052
846.174	0.0154206
846.253	0.0155534
846.331	0.0155086
846.409	0.0155257
846.487	0.0155579
846.565	0.0154655
846.643	0.0154348
846.721	0.0155108
846.799	0.0155052
846.878	0.0154605
846.956	0.0154955
847.034	0.0153497
847.112	0.0155925
847.190	0.0155795
847.268	0.0154470
847.346	0.0155777
847.424	0.0154112
847.503	0.0155812
847.581	0.0155166
847.659	0.0155952
847.737	0.0156229
847.815	0.0155400
847.893	0.0155739
847.971	0.0155791
848.049	0.0156248
848.128	0.0156026
848.206	0.0155753
848.284	0.0155421
848.362	0.0156454
848.440	0.0153967
848.518	0.0155183
848.596	0.0155283
848.674	0.0154492
848.753	0.0155633
848.831	0.0155506
848.909	0.0156001
848.987	0.0155113
849.065	0.0154533
849.143	0.0155872
849.221	0.0155250
849.299	0.0154982
849.378	0.0154289
849.456	0.0153855
849.534	0.0153640
849.612	0.0154914
849.690	0.0155539
849.768	0.0155366
849.846	0.0154989
849.924	0.0155415
850.003	0.0154665
850.081	0.0154560
850.159	0.0155087
850.237	0.0153601
850.315	0.0154398
850.393	0.0156052
850.471	0.0154159
850.549	0.0154264
850.628	0.0155042
850.706	0.0153812
850.784	0.0153886
850.862	0.0155316
850.940	0.0156099
851.018	0.0154760
851.096	0.0154110
851.174	0.0155189
851.253	0.0156326
851.331	0.0154229
851.409	0.0155799
851.487	0.0156052
851.565	0.0154916
851.643	0.0154421
851.721	0.0155861
851.799	0.0154945
851.878	0.0154784
851.956	0.0155205
852.034	0.0153912
852.112	0.0155481
852.190	0.0155730
852.268	0.0153712
852.346	0.0155116
852.424	0.0155199
852.503	0.0154388
852.581	0.0155327
852.659	0.0154206
852.737	0.0154621
852.815	0.0154843
852.893	0.0155199
852.971	0.0156016
853.049	0.0154302
853.128	0.0154329
853.206	0.0153271
853.284	0.0154129
853.362	0.0155022
853.440	0.0154391
853.518	0.0154369
853.596	0.0154768
853.674	0.0155469
853.753	0.0155587
853.831	0.0154693
853.909	0.0155320
853.987	0.0154531
854.065	0.0154573
854.143	0.0156087
854.221	0.0154965
854.299	0.0155417
854.378	0.0155001
854.456	0.0155990
854.534	0.0156294
854.612	0.0155247
854.690	0.0154445
854.768	0.0156097
854.846	0.0154551
854.924	0.0153782
855.003	0.0153892
855.081	0.0155875
855.159	0.0154390
855.237	0.0155334
855.315	0.0155575
855.393	0.0152966
855.471	0.0154131
855.549	0.0153923
855.628	0.0154561
855.706	0.0154079
855.784	0.0154504
855.862	0.0154125
855.940	0.0155381
856.018	0.0155296
856.096	0.0154980
856.174	0.0154506
856.253	0.0154681
856.331	0.0154063
856.409	0.0153721
856.487	0.0154195
856.565	0.0153711
856.643	0.0153635
856.721	0.0155381
856.799	0.0151630
856.878	0.0153856
856.956	0.0154026
857.034	0.0153545
857.112	0.0152862
857.190	0.0152989
857.268	0.0152999
857.346	0.0153936
857.424	0.0153531
857.503	0.0153476
857.581	0.0153114
857.659	0.0153172
857.737	0.0154033
857.815	0.0153517
857.893	0.0152809
857.971	0.0153571
858.049	0.0153852
858.128	0.0156371
858.206	0.0153250
858.284	0.0154608
858.362	0.0154649
858.440	0.0153996
858.518	0.0155873
858.596	0.0155556
858.674	0.0155711
858.753	0.0154670
858.831	0.0155227
858.909	0.0155579
858.987	0.0155349
859.065	0.0156252
859.143	0.0156516
859.221	0.0154749
859.299	0.0153944
859.378	0.0153438
859.456	0.0153111
859.534	0.0154536
859.612	0.0154465
859.690	0.0155248
859.768	0.0154111
859.846	0.0153738
859.924	0.0153036
860.003	0.0154050
860.081	0.0153036
860.159	0.0152823
860.237	0.0152509
860.315	0.0153397
860.393	0.0153269
860.471	0.0153547
860.549	0.0153815
860.628	0.0152728
860.706	0.0152313
860.784	0.0154085
860.862	0.0153870
860.940	0.0151815
861.018	0.0154305
861.096	0.0154000
861.174	0.0152578
861.253	0.0153802
861.331	0.0153602
861.409	0.0154243
861.487	0.0153106
861.565	0.0153706
861.643	0.0154605
861.721	0.0154147
861.799	0.0153467
861.878	0.0153546
861.956	0.0154243
862.034	0.0154021
862.112	0.0153548
862.190	0.0154383
862.268	0.0153894
862.346	0.0154305
862.424	0.0153645
862.503	0.0155128
862.581	0.0154295
862.659	0.0154643
862.737	0.0155456
862.815	0.0154237
862.893	0.0154427
862.971	0.0153304
863.049	0.0155985
863.128	0.0155717
863.206	0.0154576
863.284	0.0153825
863.362	0.0153445
863.440	0.0153159
863.518	0.0154022
863.596	0.0155161
863.674	0.0154262
863.753	0.0153162
863.831	0.0153889
863.909	0.0155322
863.987	0.0154143
864.065	0.0154592
864.143	0.0153749
864.221	0.0155161
864.299	0.0156017
864.378	0.0153709
864.456	0.0154291
864.534	0.0153979
864.612	0.0154933
864.690	0.0154151
864.768	0.0155375
864.846	0.0155553
864.924	0.0154599
865.003	0.0155201
865.081	0.0154543
865.159	0.0154082
865.237	0.0155008
865.315	0.0153893
865.393	0.0154237
865.471	0.0154402
865.549	0.0153790
865.628	0.0154506
865.706	0.0154263
865.784	0.0153519
865.862	0.0153141
865.940	0.0153712
866.018	0.0152085
866.096	0.0153173
866.174	0.0154466
866.253	0.0153902
866.331	0.0152384
866.409	0.0154247
866.487	0.0152061
866.565	0.0152834
866.643	0.0154034
866.721	0.0153765
866.799	0.0153715
866.878	0.0154367
866.956	0.0153147
867.034	0.0153868
867.112	0.0154454
867.190	0.0154822
867.268	0.0155611
867.346	0.0153672
867.424	0.0154166
867.503	0.0154554
867.581	0.0155378
867.659	0.0154267
867.737	0.0154864
867.815	0.0154807
867.893	0.0155579
867.971	0.0155775
868.049	0.0155109
868.128	0.0155652
868.206	0.0155943
868.284	0.0154936
868.362	0.0155453
868.440	0.0155334
868.518	0.0155613
868.596	0.0155155
868.674	0.0155334
868.753	0.0155079
868.831	0.0154237
868.909	0.0154108
868.987	0.0155806
869.065	0.0155122
869.143	0.0155511
869.221	0.0155549
869.299	0.0156248
869.378	0.0156319
869.456	0.0155219
869.534	0.0154573
869.612	0.0154189
869.690	0.0155363
869.768	0.0154885
869.846	0.0154714
869.924	0.0154031
870.003	0.0155914
870.081	0.0154730
870.159	0.0154282
870.237	0.0155564
870.315	0.0153779
870.393	0.0153490
870.471	0.0154327
870.549	0.0154061
870.628	0.0155630
870.706	0.0153905
870.784	0.0152872
870.862	0.0154830
870.940	0.0154485
871.018	0.0153687
871.096	0.0153775
871.174	0.0154784
871.253	0.0154214
871.331	0.0155631
871.409	0.0154539
871.487	0.0154875
871.565	0.0154875
871.643	0.0153513
871.721	0.0156197
871.799	0.0154982
871.878	0.0154420
871.956	0.0153625
872.034	0.0154871
872.112	0.0155329
872.190	0.0154961
872.268	0.0154024
872.346	0.0152711
872.424	0.0154276
872.503	0.0155238
872.581	0.0155223
872.659	0.0154991
872.737	0.0153343
872.815	0.0155489
872.893	0.0155981
872.971	0.0153931
873.049	0.0153742
873.128	0.0154304
873.206	0.0154057
873.284	0.0154754
873.362	0.0154044
873.440	0.0155246
873.518	0.0154408
873.596	0.0154756
873.674	0.0154676
873.753	0.0154276
873.831	0.0154881
873.909	0.0154773
873.987	0.0155369
874.065	0.0154627
874.143	0.0156628
874.221	0.0154964
874.299	0.0154995
874.378	0.0154028
874.456	0.0153824
874.534	0.0153242
874.612	0.0155153
874.690	0.0153539
874.768	0.0153048
874.846	0.0153803
874.924	0.0153123
875.003	0.0153504
875.081	0.0153326
875.159	0.0153958
875.237	0.0152210
875.315	0.0152204
875.393	0.0152222
875.471	0.0153132
875.549	0.0154178
875.628	0.0152981
875.706	0.0153635
875.784	0.0152181
875.862	0.0151277
875.940	0.0152143
876.018	0.0154104
876.096	0.0152570
876.174	0.0151377
876.253	0.0153514
876.331	0.0152774
876.409	0.0152193
876.487	0.0153325
876.565	0.0153230
876.643	0.0152505
876.721	0.0152244
876.799	0.0152520
876.878	0.0152626
876.956	0.0154368
877.034	0.0153387
877.112	0.0153785
877.190	0.0152789
877.268	0.0153516
877.346	0.0154362
877.424	0.0153335
877.503	0.0154797
877.581	0.0153577
877.659	0.0155402
877.737	0.0153779
877.815	0.0154045
877.893	0.0154722
877.971	0.0156045
878.049	0.0154962
878.128	0.0154458
878.206	0.0154684
878.284	0.0154718
878.362	0.0154570
878.440	0.0155119
878.518	0.0156108
878.596	0.0155010
878.674	0.0154356
878.753	0.0154192
878.831	0.0154221
878.909	0.0153568
878.987	0.0152247
879.065	0.0153603
879.143	0.0153772
879.221	0.0153884
879.299	0.0154473
879.378	0.0153209
879.456	0.0153435
879.534	0.0153710
879.612	0.0154557
879.690	0.0153492
879.768	0.0154045
879.846	0.0153020
879.924	0.0154958
880.003	0.0154749
880.081	0.0154162
880.159	0.0154109
880.237	0.0154432
880.315	0.0155901
880.393	0.0155030
880.471	0.0154136
880.549	0.0155384
880.628	0.0154692
880.706	0.0155193
880.784	0.0155225
880.862	0.0154855
880.940	0.0155369
881.018	0.0155007
881.096	0.0154660
881.174	0.0153645
881.253	0.0154440
881.331	0.0154873
881.409	0.0155733
881.487	0.0155460
881.565	0.0153844
881.643	0.0154282
881.721	0.0153885
881.799	0.0154720
881.878	0.0154026
881.956	0.0155638
882.034	0.0155340
882.112	0.0154192
882.190	0.0154427
882.268	0.0153545
882.346	0.0154663
882.424	0.0153322
882.503	0.0154490
882.581	0.0154993
882.659	0.0155376
882.737	0.0155639
882.815	0.0154401
882.893	0.0154425
882.971	0.0154430
883.049	0.0155504
883.128	0.0154750
883.206	0.0154237
883.284	0.0155757
883.362	0.0153903
883.440	0.0154749
883.518	0.0154811
883.596	0.0154520
883.674	0.0154192
883.753	0.0153690
883.831	0.0154710
883.909	0.0153156
883.987	0.0154551
884.065	0.0155122
884.143	0.0154363
884.221	0.0154047
884.299	0.0153563
884.378	0.0155399
884.456	0.0155505
884.534	0.0153435
884.612	0.0155120
884.690	0.0155570
884.768	0.0153502
884.846	0.0155299
884.924	0.0155360
885.003	0.0154086
885.081	0.0154111
885.159	0.0156838
885.237	0.0154485
885.315	0.0154487
885.393	0.0155161
885.471	0.0155814
885.549	0.0155170
885.628	0.0154760
885.706	0.0154763
885.784	0.0154182
885.862	0.0153957
885.940	0.0153934
886.018	0.0154866
886.096	0.0155363
886.174	0.0154713
886.253	0.0154357
886.331	0.0153798
886.409	0.0154074
886.487	0.0154033
886.565	0.0154483
886.643	0.0154598
886.721	0.0154992
886.799	0.0154637
886.878	0.0153765
886.956	0.0154549
887.034	0.0153525
887.112	0.0153809
887.190	0.0154856
887.268	0.0154691
887.346	0.0154778
887.424	0.0153796
887.503	0.0156351
887.581	0.0155296
887.659	0.0154747
887.737	0.0155133
887.815	0.0156116
887.893	0.0154816
887.971	0.0153106
888.049	0.0153796
888.128	0.0153870
888.206	0.0155399
888.284	0.0154481
888.362	0.0154016
888.440	0.0154761
888.518	0.0153606
888.596	0.0154034
888.674	0.0155453
888.753	0.0155854
888.831	0.0154485
888.909	0.0155788
888.987	0.0154868
889.065	0.0155611
889.143	0.0154104
889.221	0.0154703
889.299	0.0155239
889.378	0.0155730
889.456	0.0156577
889.534	0.0155016
889.612	0.0155033
889.690	0.0154306
889.768	0.0154822
889.846	0.0155101
889.924	0.0155233
890.003	0.0155821
890.081	0.0156438
890.159	0.0155621
890.237	0.0156429
890.315	0.0155003
890.393	0.0155287
890.471	0.0155834
890.549	0.0156357
890.628	0.0156737
890.706	0.0156354
890.784	0.0155907
890.862	0.0155502
890.940	0.0155577
891.018	0.0156449
891.096	0.0157213
891.174	0.0156059
891.253	0.0154835
891.331	0.0156512
891.409	0.0156298
891.487	0.0156940
891.565	0.0155010
891.643	0.0156257
891.721	0.0158273
891.799	0.0156425
891.878	0.0155868
891.956	0.0155760
892.034	0.0156116
892.112	0.0155985
892.190	0.0155795
892.268	0.0156172
892.346	0.0155789
892.424	0.0156675
892.503	0.0155942
892.581	0.0154706
892.659	0.0156300
892.737	0.0155943
892.815	0.0156427
892.893	0.0156956
892.971	0.0155454
893.049	0.0155853
893.128	0.0155694
893.206	0.0155141
893.284	0.0154811
893.362	0.0154824
893.440	0.0156065
893.518	0.0155099
893.596	0.0155482
893.674	0.0155277
893.753	0.0155545
893.831	0.0156915
893.909	0.0154953
893.987	0.0155091
894.065	0.0155634
894.143	0.0156120
894.221	0.0154785
894.299	0.0155618
894.378	0.0154950
894.456	0.0155127
894.534	0.0154234
894.612	0.0154105
894.690	0.0156527
894.768	0.0153958
894.846	0.0152382
894.924	0.0154630
895.003	0.0156367
895.081	0.0155943
895.159	0.0153959
895.237	0.0154094
895.315	0.0154552
895.393	0.0155848
895.471	0.0155914
895.549	0.0155703
895.628	0.0154954
895.706	0.0154818
895.784	0.0155133
895.862	0.0154891
895.940	0.0154749
896.018	0.0154578
896.096	0.0154595
896.174	0.0156239
896.253	0.0153901
896.331	0.0155245
896.409	0.0154454
896.487	0.0152637
896.565	0.0153834
896.643	0.0154440
896.721	0.0152206
896.799	0.0154014
896.878	0.0152843
896.956	0.0152885
897.034	0.0153607
897.112	0.0152848
897.190	0.0152259
897.268	0.0153030
897.346	0.0153596
897.424	0.0154134
897.503	0.0152259
897.581	0.0152745
897.659	0.0152492
897.737	0.0152957
897.815	0.0154359
897.893	0.0153371
897.971	0.0154140
898.049	0.0155145
898.128	0.0153539
898.206	0.0153510
898.284	0.0154802
898.362	0.0154943
898.440	0.0155093
898.518	0.0154326
898.596	0.0153724
898.674	0.0154620
898.753	0.0154208
898.831	0.0155178
898.909	0.0153504
898.987	0.0154436
899.065	0.0154890
899.143	0.0153827
899.221	0.0153716
899.299	0.0152445
899.378	0.0154237
899.456	0.0153355
899.534	0.0154794
899.612	0.0154764
899.690	0.0154164
899.768	0.0152367
899.846	0.0152741
899.924	0.0153207
900.003	0.0154929
900.081	0.0154127
900.159	0.0153130
900.237	0.0153365
900.315	0.0153349
900.393	0.0154064
900.471	0.0152829
900.549	0.0152142
900.628	0.0153941
900.706	0.0152748
900.784	0.0154240
900.862	0.0152164
900.940	0.0152642
901.018	0.0153790
901.096	0.0154463
901.174	0.0153430
901.253	0.0153069
901.331	0.0152400
901.409	0.0153842
901.487	0.0152838
901.565	0.0153189
901.643	0.0153529
901.721	0.0152931
901.799	0.0153341
901.878	0.0153647
901.956	0.0153328
902.034	0.0153347
902.112	0.0152094
902.190	0.0153053
902.268	0.0152810
902.346	0.0152082
902.424	0.0152919
902.503	0.0153139
902.581	0.0152951
902.659	0.0154274
902.737	0.0153487
902.815	0.0153294
902.893	0.0153394
902.971	0.0153670
903.049	0.0154929
903.128	0.0152484
903.206	0.0152283
903.284	0.0152628
903.362	0.0152767
903.440	0.0153644
903.518	0.0152119
903.596	0.0153928
903.674	0.0154271
903.753	0.0153146
903.831	0.0154613
903.909	0.0153893
903.987	0.0155175
904.065	0.0155471
904.143	0.0153056
904.221	0.0153752
904.299	0.0154201
904.378	0.0154392
904.456	0.0155243
904.534	0.0154102
904.612	0.0155495
904.690	0.0154719
904.768	0.0155707
904.846	0.0156182
904.924	0.0153918
905.003	0.0155017
905.081	0.0154728
905.159	0.0155209
905.237	0.0155849
905.315	0.0154991
905.393	0.0156230
905.471	0.0154755
905.549	0.0154606
905.628	0.0155168
905.706	0.0156287
905.784	0.0155178
905.862	0.0155898
905.940	0.0154901
906.018	0.0155106
906.096	0.0155214
906.174	0.0156477
906.253	0.0155850
906.331	0.0156609
906.409	0.0155422
906.487	0.0156476
906.565	0.0155899
906.643	0.0154894
906.721	0.0153407
906.799	0.0155870
906.878	0.0153913
906.956	0.0154288
907.034	0.0154971
907.112	0.0154594
907.190	0.0155271
907.268	0.0154726
907.346	0.0154713
907.424	0.0152840
907.503	0.0154774
907.581	0.0155683
907.659	0.0154422
907.737	0.0154694
907.815	0.0154732
907.893	0.0153680
907.971	0.0154059
908.049	0.0154536
908.128	0.0154192
908.206	0.0155119
908.284	0.0155685
908.362	0.0156282
908.440	0.0154570
908.518	0.0153207
908.596	0.0155185
908.674	0.0156199
908.753	0.0153595
908.831	0.0153431
908.909	0.0154614
908.987	0.0155018
909.065	0.0154209
909.143	0.0155487
909.221	0.0155694
909.299	0.0154470
909.378	0.0154325
909.456	0.0155253
909.534	0.0153876
909.612	0.0153835
909.690	0.0156338
909.768	0.0154745
909.846	0.0155515
909.924	0.0154044
910.003	0.0155790
910.081	0.0154785
910.159	0.0154749
910.237	0.0155752
910.315	0.0156317
910.393	0.0155500
910.471	0.0155121
910.549	0.0155069
910.628	0.0155133
910.706	0.0156267
910.784	0.0155986
910.862	0.0156070
910.940	0.0155779
911.018	0.0155360
911.096	0.0154685
911.174	0.0154346
911.253	0.0154757
911.331	0.0154840
911.409	0.0154289
911.487	0.0153877
911.565	0.0155037
911.643	0.0153999
911.721	0.0154333
911.799	0.0154922
911.878	0.0154596
911.956	0.0154154
912.034	0.0153587
912.112	0.0153696
912.190	0.0154398
912.268	0.0154116
912.346	0.0154598
912.424	0.0154391
912.503	0.0155145
912.581	0.0153701
912.659	0.0154176
912.737	0.0153423
912.815	0.0154707
912.893	0.0155173
912.971	0.0154739
913.049	0.0153391
913.128	0.0154424
913.206	0.0155088
913.284	0.0154394
913.362	0.0153721
913.440	0.0155020
913.518	0.0155126
913.596	0.0155349
913.674	0.0154986
913.753	0.0155412
913.831	0.0153130
913.909	0.0153339
913.987	0.0155305
914.065	0.0153334
914.143	0.0153940
914.221	0.0154532
914.299	0.0154711
914.378	0.0154343
914.456	0.0154165
914.534	0.0154253
914.612	0.0153594
914.690	0.0153460
914.768	0.0153207
914.846	0.0152935
914.924	0.0154942
915.003	0.0153707
915.081	0.0152020
915.159	0.0153661
915.237	0.0152377
915.315	0.0153292
915.393	0.0153758
915.471	0.0152910
915.549	0.0153553
915.628	0.0154652
915.706	0.0153524
915.784	0.0154840
915.862	0.0154837
915.940	0.0154917
916.018	0.0155276
916.096	0.0153594
916.174	0.0155212
916.253	0.0154088
916.331	0.0156096
916.409	0.0153723
916.487	0.0155618
916.565	0.0156418
916.643	0.0155946
916.721	0.0156364
916.799	0.0154560
916.878	0.0155755
916.956	0.0155196
917.034	0.0155293
917.112	0.0154506
917.190	0.0155686
917.268	0.0155145
917.346	0.0155800
917.424	0.0155387
917.503	0.0155016
917.581	0.0155518
917.659	0.0155019
917.737	0.0153027
917.815	0.0155821
917.893	0.0154504
917.971	0.0153637
918.049	0.0153812
918.128	0.0155115
918.206	0.0153654
918.284	0.0154584
918.362	0.0154837
918.440	0.0154417
918.518	0.0153893
918.596	0.0153690
918.674	0.0155477
918.753	0.0155643
918.831	0.0156459
918.909	0.0154281
918.987	0.0155553
919.065	0.0155808
919.143	0.0156457
919.221	0.0156028
919.299	0.0154726
919.378	0.0154841
919.456	0.0157123
919.534	0.0156017
919.612	0.0153959
919.690	0.0154167
919.768	0.0154391
919.846	0.0154886
919.924	0.0153772
920.003	0.0154315
920.081	0.0155220
920.159	0.0153600
920.237	0.0153149
920.315	0.0153582
920.393	0.0153431
920.471	0.0153725
920.549	0.0155275
920.628	0.0154182
920.706	0.0154408
920.784	0.0154104
920.862	0.0154978
920.940	0.0153719
921.018	0.0154605
921.096	0.0154385
921.174	0.0154829
921.253	0.0154604
921.331	0.0155350
921.409	0.0155724
921.487	0.0154562
921.565	0.0157106
921.643	0.0156209
921.721	0.0154624
921.799	0.0155260
921.878	0.0155934
921.956	0.0154572
922.034	0.0155804
922.112	0.0154975
922.190	0.0156432
922.268	0.0156050
922.346	0.0155758
922.424	0.0154990
922.503	0.0154551
922.581	0.0156084
922.659	0.0155012
922.737	0.0155483
922.815	0.0154372
922.893	0.0154009
922.971	0.0154591
923.049	0.0154013
923.128	0.0153708
923.206	0.0153663
923.284	0.0154063
923.362	0.0154215
923.440	0.0154186
923.518	0.0153325
923.596	0.0152472
923.674	0.0152709
923.753	0.0153123
923.831	0.0152959
923.909	0.0152743
923.987	0.0153117
924.065	0.0153157
924.143	0.0153154
924.221	0.0152331
924.299	0.0152086
924.378	0.0154636
924.456	0.0153077
924.534	0.0151939
924.612	0.0152686
924.690	0.0152582
924.768	0.0154670
924.846	0.0153941
924.924	0.0154111
925.003	0.0154964
925.081	0.0152551
925.159	0.0154594
925.237	0.0154545
925.315	0.0154810
925.393	0.0155889
925.471	0.0155269
925.549	0.0155434
925.628	0.0154230
925.706	0.0155866
925.784	0.0155411
925.862	0.0155334
925.940	0.0155585
926.018	0.0154803
926.096	0.0155029
926.174	0.0154615
926.253	0.0154790
926.331	0.0154014
926.409	0.0155235
926.487	0.0154423
926.565	0.0154411
926.643	0.0155407
926.721	0.0153999
926.799	0.0154683
926.878	0.0155878
926.956	0.0153120
927.034	0.0155125
927.112	0.0156139
927.190	0.0154955
927.268	0.0154627
927.346	0.0154197
927.424	0.0155891
927.503	0.0154590
927.581	0.0154427
927.659	0.0154254
927.737	0.0155469
927.815	0.0154738
927.893	0.0153525
927.971	0.0155257
928.049	0.0154594
928.128	0.0154025
928.206	0.0154382
928.284	0.0154839
928.362	0.0154415
928.440	0.0154290
928.518	0.0154848
928.596	0.0154064
928.674	0.0153355
928.753	0.0153345
928.831	0.0153758
928.909	0.0154929
928.987	0.0153423
929.065	0.0154205
929.143	0.0153075
929.221	0.0155014
929.299	0.0155653
929.378	0.0153696
929.456	0.0153152
929.534	0.0153917
929.612	0.0154203
929.690	0.0155287
929.768	0.0154522
929.846	0.0155560
929.924	0.0154002
930.003	0.0155436
930.081	0.0155422
930.159	0.0154884
930.237	0.0155007
930.315	0.0154176
930.393	0.0156567
930.471	0.0154513
930.549	0.0154314
930.628	0.0155717
930.706	0.0153744
930.784	0.0153802
930.862	0.0153932
930.940	0.0154913
931.018	0.0154097
931.096	0.0154938
931.174	0.0154147
931.253	0.0154826
931.331	0.0154090
931.409	0.0153340
931.487	0.0154381
931.565	0.0154440
931.643	0.0154636
931.721	0.0153689
931.799	0.0154314
931.878	0.0154400
931.956	0.0154687
932.034	0.0155873
932.112	0.0155694
932.190	0.0154480
932.268	0.0155051
932.346	0.0153706
932.424	0.0154842
932.503	0.0155519
932.581	0.0155061
932.659	0.0154781
932.737	0.0154427
932.815	0.0153909
932.893	0.0154221
932.971	0.0154400
933.049	0.0154184
933.128	0.0154575
933.206	0.0153206
933.284	0.0153814
933.362	0.0154287
933.440	0.0154053
933.518	0.0153942
933.596	0.0153734
933.674	0.0153468
933.753	0.0152767
933.831	0.0152893
933.909	0.0154481
933.987	0.0153197
934.065	0.0153810
934.143	0.0152572
934.221	0.0153030
934.299	0.0152531
934.378	0.0154035
934.456	0.0154141
934.534	0.0152511
934.612	0.0152959
934.690	0.0153882
934.768	0.0152892
934.846	0.0152070
934.924	0.0152727
935.003	0.0152660
935.081	0.0153057
935.159	0.0152872
935.237	0.0153251
935.315	0.0151970
935.393	0.0152229
935.471	0.0154008
935.549	0.0153259
935.628	0.0153542
935.706	0.0152555
935.784	0.0152664
935.862	0.0153460
935.940	0.0155785
936.018	0.0154778
936.096	0.0153283
936.174	0.0154798
936.253	0.0154347
936.331	0.0153058
936.409	0.0155511
936.487	0.0154275
936.565	0.0153140
936.643	0.0153101
936.721	0.0154169
936.799	0.0154901
936.878	0.0154040
936.956	0.0153584
937.034	0.0154423
937.112	0.0152429
937.190	0.0152618
937.268	0.0154272
937.346	0.0154336
937.424	0.0153661
937.503	0.0154675
937.581	0.0153805
937.659	0.0153337
937.737	0.0154250
937.815	0.0152809
937.893	0.0153402
937.971	0.0153503
938.049	0.0153819
938.128	0.0153189
938.206	0.0152009
938.284	0.0154761
938.362	0.0153567
938.440	0.0154608
938.518	0.0154719
938.596	0.0152607
938.674	0.0151765
938.753	0.0153325
938.831	0.0152558
938.909	0.0154505
938.987	0.0152990
939.065	0.0152330
939.143	0.0153911
939.221	0.0153374
939.299	0.0152535
939.378	0.0154855
939.456	0.0152409
939.534	0.0153196
939.612	0.0153841
939.690	0.0152402
939.768	0.0152854
939.846	0.0154897
939.924	0.0153661
940.003	0.0154173
940.081	0.0154303
940.159	0.0154795
940.237	0.0154911
940.315	0.0153830
940.393	0.0153416
940.471	0.0154124
940.549	0.0153864
940.628	0.0153915
940.706	0.0152801
940.784	0.0154096
940.862	0.0152653
940.940	0.0153975
941.018	0.0155155
941.096	0.0153302
941.174	0.0153864
941.253	0.0154880
941.331	0.0153216
941.409	0.0153491
941.487	0.0153864
941.565	0.0154369
941.643	0.0154787
941.721	0.0153362
941.799	0.0154369
941.878	0.0153050
941.956	0.0154459
942.034	0.0153899
942.112	0.0154620
942.190	0.0155524
942.268	0.0153630
942.346	0.0153068
942.424	0.0154105
942.503	0.0151464
942.581	0.0152576
942.659	0.0153494
942.737	0.0152522
942.815	0.0152300
942.893	0.0154095
942.971	0.0153540
943.049	0.0154150
943.128	0.0154249
943.206	0.0153851
943.284	0.0154275
943.362	0.0154461
943.440	0.0154393
943.518	0.0155807
943.596	0.0154207
943.674	0.0154467
943.753	0.0155624
943.831	0.0154445
943.909	0.0154111
943.987	0.0155785
944.065	0.0154749
944.143	0.0154476
944.221	0.0154720
944.299	0.0152868
944.378	0.0154015
944.456	0.0153705
944.534	0.0155468
944.612	0.0155961
944.690	0.0155117
944.768	0.0154346
944.846	0.0153489
944.924	0.0154924
945.003	0.0154052
945.081	0.0153094
945.159	0.0154206
945.237	0.0154504
945.315	0.0154566
945.393	0.0154195
945.471	0.0154590
945.549	0.0153289
945.628	0.0155117
945.706	0.0155714
945.784	0.0155078
945.862	0.0155368
945.940	0.0154554
946.018	0.0155936
946.096	0.0155844
946.174	0.0155522
946.253	0.0154962
946.331	0.0155268
946.409	0.0155344
946.487	0.0155103
946.565	0.0155285
946.643	0.0155747
946.721	0.0154347
946.799	0.0153838
946.878	0.0155522
946.956	0.0154002
947.034	0.0157002
947.112	0.0155740
947.190	0.0154576
947.268	0.0155017
947.346	0.0155045
947.424	0.0153334
947.503	0.0153876
947.581	0.0155278
947.659	0.0155394
947.737	0.0155075
947.815	0.0154192
947.893	0.0154014
947.971	0.0154905
948.049	0.0153600
948.128	0.0153935
948.206	0.0155101
948.284	0.0153547
948.362	0.0154500
948.440	0.0152892
948.518	0.0155521
948.596	0.0155730
948.674	0.0154547
948.753	0.0154601
948.831	0.0155595
948.909	0.0154653
948.987	0.0153750
949.065	0.0155499
949.143	0.0154404
949.221	0.0154656
949.299	0.0153174
949.378	0.0154928
949.456	0.0153825
949.534	0.0152638
949.612	0.0154594
949.690	0.0155888
949.768	0.0154584
949.846	0.0153467
949.924	0.0153074
