06/29/2022	23:12:01	Ver.	4.1	UNKNOWN
Optical Delay	630.002507	Delta X		0.078125	Sweeps	1	Scan Rate	0/0
Coordinates	Axis 1	NaN	Axis 2	NaN	Axis 3	NaN	Axis 4	NaN	Axis 5	NaN	Axis 6	0.000000
TX Power	0.000000	RX Power	0.000000

630.003	0.0150839
630.081	0.0150083
630.159	0.0150700
630.237	0.0151099
630.315	0.0150533
630.393	0.0150130
630.471	0.0151163
630.549	0.0150298
630.628	0.0152357
630.706	0.0151681
630.784	0.0152042
630.862	0.0150388
630.940	0.0151040
631.018	0.0152114
631.096	0.0151743
631.174	0.0149802
631.253	0.0151214
631.331	0.0151391
631.409	0.0151293
631.487	0.0151830
631.565	0.0150739
631.643	0.0151933
631.721	0.0150891
631.799	0.0151395
631.878	0.0151582
631.956	0.0151482
632.034	0.0150323
632.112	0.0150803
632.190	0.0150867
632.268	0.0151810
632.346	0.0152109
632.424	0.0151373
632.503	0.0152147
632.581	0.0152530
632.659	0.0151426
632.737	0.0151003
632.815	0.0151333
632.893	0.0151612
632.971	0.0151396
633.049	0.0150317
633.128	0.0153217
633.206	0.0151950
633.284	0.0151682
633.362	0.0150397
633.440	0.0152251
633.518	0.0151848
633.596	0.0151562
633.674	0.0151206
633.753	0.0151469
633.831	0.0152041
633.909	0.0151331
633.987	0.0151601
634.065	0.0150787
634.143	0.0151219
634.221	0.0150743
634.299	0.0151686
634.378	0.0151616
634.456	0.0151598
634.534	0.0151881
634.612	0.0151554
634.690	0.0151399
634.768	0.0150961
634.846	0.0152017
634.924	0.0151810
635.003	0.0152463
635.081	0.0152618
635.159	0.0150069
635.237	0.0151917
635.315	0.0152808
635.393	0.0151572
635.471	0.0151019
635.549	0.0151180
635.628	0.0150751
635.706	0.0151411
635.784	0.0150242
635.862	0.0149760
635.940	0.0150840
636.018	0.0150914
636.096	0.0150037
636.174	0.0150906
636.253	0.0150959
636.331	0.0151695
636.409	0.0151711
636.487	0.0152012
636.565	0.0151488
636.643	0.0151364
636.721	0.0151285
636.799	0.0153287
636.878	0.0150725
636.956	0.0150743
637.034	0.0150681
637.112	0.0152493
637.190	0.0152964
637.268	0.0151392
637.346	0.0151587
637.424	0.0152842
637.503	0.0151218
637.581	0.0149950
637.659	0.0151457
637.737	0.0152048
637.815	0.0151841
637.893	0.0152599
637.971	0.0151851
638.049	0.0151175
638.128	0.0152143
638.206	0.0153719
638.284	0.0151339
638.362	0.0151553
638.440	0.0151246
638.518	0.0151964
638.596	0.0151177
638.674	0.0152724
638.753	0.0151951
638.831	0.0152119
638.909	0.0149324
638.987	0.0151584
639.065	0.0152735
639.143	0.0152366
639.221	0.0153279
639.299	0.0152357
639.378	0.0151511
639.456	0.0151204
639.534	0.0152657
639.612	0.0152508
639.690	0.0152148
639.768	0.0150726
639.846	0.0151019
639.924	0.0151496
640.003	0.0151936
640.081	0.0152517
640.159	0.0151965
640.237	0.0152652
640.315	0.0153075
640.393	0.0151198
640.471	0.0152422
640.549	0.0151991
640.628	0.0151382
640.706	0.0151058
640.784	0.0152346
640.862	0.0151867
640.940	0.0151925
641.018	0.0152083
641.096	0.0152230
641.174	0.0152392
641.253	0.0151926
641.331	0.0152654
641.409	0.0152462
641.487	0.0152086
641.565	0.0153380
641.643	0.0152811
641.721	0.0151909
641.799	0.0152042
641.878	0.0151443
641.956	0.0151817
642.034	0.0151794
642.112	0.0151608
642.190	0.0151878
642.268	0.0151521
642.346	0.0152039
642.424	0.0151019
642.503	0.0150927
642.581	0.0150932
642.659	0.0151054
642.737	0.0152298
642.815	0.0152309
642.893	0.0150911
642.971	0.0150986
643.049	0.0151231
643.128	0.0150804
643.206	0.0152657
643.284	0.0151174
643.362	0.0153131
643.440	0.0151561
643.518	0.0151369
643.596	0.0150702
643.674	0.0152338
643.753	0.0152592
643.831	0.0151181
643.909	0.0151133
643.987	0.0151804
644.065	0.0150552
644.143	0.0150240
644.221	0.0153518
644.299	0.0151237
644.378	0.0150955
644.456	0.0150885
644.534	0.0150919
644.612	0.0152080
644.690	0.0150553
644.768	0.0151001
644.846	0.0150391
644.924	0.0150870
645.003	0.0151176
645.081	0.0151591
645.159	0.0151636
645.237	0.0151568
645.315	0.0151797
645.393	0.0152068
645.471	0.0150284
645.549	0.0150752
645.628	0.0151759
645.706	0.0150210
645.784	0.0151946
645.862	0.0150793
645.940	0.0150853
646.018	0.0150433
646.096	0.0151542
646.174	0.0151469
646.253	0.0151685
646.331	0.0150610
646.409	0.0151983
646.487	0.0151356
646.565	0.0150795
646.643	0.0152467
646.721	0.0151218
646.799	0.0151675
646.878	0.0150359
646.956	0.0150023
647.034	0.0151388
647.112	0.0150897
647.190	0.0152350
647.268	0.0150859
647.346	0.0151956
647.424	0.0152422
647.503	0.0150265
647.581	0.0150433
647.659	0.0151033
647.737	0.0151646
647.815	0.0150765
647.893	0.0150748
647.971	0.0150091
648.049	0.0150266
648.128	0.0151200
648.206	0.0151645
648.284	0.0151196
648.362	0.0150177
648.440	0.0149934
648.518	0.0151268
648.596	0.0151664
648.674	0.0150597
648.753	0.0151078
648.831	0.0151612
648.909	0.0151427
648.987	0.0151666
649.065	0.0150738
649.143	0.0150741
649.221	0.0152571
649.299	0.0150839
649.378	0.0150107
649.456	0.0151592
649.534	0.0150935
649.612	0.0152343
649.690	0.0150900
649.768	0.0150816
649.846	0.0149728
649.924	0.0151551
650.003	0.0151058
650.081	0.0150024
650.159	0.0151443
650.237	0.0152294
650.315	0.0150977
650.393	0.0151862
650.471	0.0151650
650.549	0.0151678
650.628	0.0150758
650.706	0.0150988
650.784	0.0150175
650.862	0.0151660
650.940	0.0152604
651.018	0.0151422
651.096	0.0152238
651.174	0.0152032
651.253	0.0151611
651.331	0.0151249
651.409	0.0151843
651.487	0.0150826
651.565	0.0151662
651.643	0.0152123
651.721	0.0152666
651.799	0.0151041
651.878	0.0151937
651.956	0.0152007
652.034	0.0150513
652.112	0.0150414
652.190	0.0151102
652.268	0.0149881
652.346	0.0151253
652.424	0.0151077
652.503	0.0150124
652.581	0.0151431
652.659	0.0150968
652.737	0.0152757
652.815	0.0152361
652.893	0.0151302
652.971	0.0150351
653.049	0.0151406
653.128	0.0152557
653.206	0.0151290
653.284	0.0150730
653.362	0.0150861
653.440	0.0151535
653.518	0.0151409
653.596	0.0152308
653.674	0.0151812
653.753	0.0150814
653.831	0.0150674
653.909	0.0152628
653.987	0.0151840
654.065	0.0151648
654.143	0.0151795
654.221	0.0151158
654.299	0.0151289
654.378	0.0151615
654.456	0.0151556
654.534	0.0152090
654.612	0.0150941
654.690	0.0151078
654.768	0.0151813
654.846	0.0150668
654.924	0.0151354
655.003	0.0152155
655.081	0.0151208
655.159	0.0149178
655.237	0.0151060
655.315	0.0152410
655.393	0.0151410
655.471	0.0150462
655.549	0.0149924
655.628	0.0151625
655.706	0.0151119
655.784	0.0150562
655.862	0.0151878
655.940	0.0150523
656.018	0.0150857
656.096	0.0150594
656.174	0.0151070
656.253	0.0151128
656.331	0.0151251
656.409	0.0150710
656.487	0.0151210
656.565	0.0151867
656.643	0.0150661
656.721	0.0151019
656.799	0.0151704
656.878	0.0150322
656.956	0.0149480
657.034	0.0151279
657.112	0.0150368
657.190	0.0151209
657.268	0.0150763
657.346	0.0150031
657.424	0.0150455
657.503	0.0150922
657.581	0.0150858
657.659	0.0150716
657.737	0.0150182
657.815	0.0150952
657.893	0.0150574
657.971	0.0150509
658.049	0.0150618
658.128	0.0150706
658.206	0.0150005
658.284	0.0151510
658.362	0.0151118
658.440	0.0151072
658.518	0.0150187
658.596	0.0150032
658.674	0.0150626
658.753	0.0151640
658.831	0.0151850
658.909	0.0151330
658.987	0.0151102
659.065	0.0150513
659.143	0.0151508
659.221	0.0151291
659.299	0.0150938
659.378	0.0149818
659.456	0.0150434
659.534	0.0151492
659.612	0.0151576
659.690	0.0151535
659.768	0.0150367
659.846	0.0149628
659.924	0.0150652
660.003	0.0150151
660.081	0.0150700
660.159	0.0150236
660.237	0.0151702
660.315	0.0151479
660.393	0.0151473
660.471	0.0150662
660.549	0.0151021
660.628	0.0150929
660.706	0.0150020
660.784	0.0151886
660.862	0.0149987
660.940	0.0151025
661.018	0.0151853
661.096	0.0151658
661.174	0.0151424
661.253	0.0150896
661.331	0.0150294
661.409	0.0152414
661.487	0.0151955
661.565	0.0150825
661.643	0.0151528
661.721	0.0151404
661.799	0.0151127
661.878	0.0151118
661.956	0.0149421
662.034	0.0150658
662.112	0.0150683
662.190	0.0150755
662.268	0.0151428
662.346	0.0151464
662.424	0.0151283
662.503	0.0150176
662.581	0.0150997
662.659	0.0150937
662.737	0.0151448
662.815	0.0151497
662.893	0.0151196
662.971	0.0150859
663.049	0.0151299
663.128	0.0150777
663.206	0.0151508
663.284	0.0149526
663.362	0.0152109
663.440	0.0150757
663.518	0.0151292
663.596	0.0151622
663.674	0.0152167
663.753	0.0151889
663.831	0.0150258
663.909	0.0151117
663.987	0.0151706
664.065	0.0151482
664.143	0.0150329
664.221	0.0151269
664.299	0.0151016
664.378	0.0151005
664.456	0.0151612
664.534	0.0150560
664.612	0.0151275
664.690	0.0150763
664.768	0.0150121
664.846	0.0150487
664.924	0.0151662
665.003	0.0150558
665.081	0.0150837
665.159	0.0150784
665.237	0.0151652
665.315	0.0150167
665.393	0.0151519
665.471	0.0150444
665.549	0.0150693
665.628	0.0152747
665.706	0.0150562
665.784	0.0151456
665.862	0.0151319
665.940	0.0150568
666.018	0.0149930
666.096	0.0151978
666.174	0.0151609
666.253	0.0151251
666.331	0.0151242
666.409	0.0150281
666.487	0.0151417
666.565	0.0150197
666.643	0.0151361
666.721	0.0150123
666.799	0.0150909
666.878	0.0150333
666.956	0.0150614
667.034	0.0151038
667.112	0.0150997
667.190	0.0150166
667.268	0.0150731
667.346	0.0150335
667.424	0.0149915
667.503	0.0151050
667.581	0.0151555
667.659	0.0150347
667.737	0.0150648
667.815	0.0149751
667.893	0.0149884
667.971	0.0150426
668.049	0.0151276
668.128	0.0151775
668.206	0.0150853
668.284	0.0151641
668.362	0.0151626
668.440	0.0152071
668.518	0.0149907
668.596	0.0149226
668.674	0.0150051
668.753	0.0150230
668.831	0.0150860
668.909	0.0151737
668.987	0.0150576
669.065	0.0151456
669.143	0.0151744
669.221	0.0150588
669.299	0.0150924
669.378	0.0150305
669.456	0.0150477
669.534	0.0151277
669.612	0.0149807
669.690	0.0150060
669.768	0.0151860
669.846	0.0151530
669.924	0.0151291
670.003	0.0150352
670.081	0.0151467
670.159	0.0151062
670.237	0.0150019
670.315	0.0150950
670.393	0.0151218
670.471	0.0150882
670.549	0.0151639
670.628	0.0152078
670.706	0.0151616
670.784	0.0152122
670.862	0.0150164
670.940	0.0152081
671.018	0.0150864
671.096	0.0149994
671.174	0.0151579
671.253	0.0149951
671.331	0.0150435
671.409	0.0150868
671.487	0.0152112
671.565	0.0151085
671.643	0.0150819
671.721	0.0149413
671.799	0.0152420
671.878	0.0150546
671.956	0.0150256
672.034	0.0151244
672.112	0.0150533
672.190	0.0149924
672.268	0.0150135
672.346	0.0151740
672.424	0.0150591
672.503	0.0150179
672.581	0.0150238
672.659	0.0149576
672.737	0.0150688
672.815	0.0150566
672.893	0.0150769
672.971	0.0151561
673.049	0.0150248
673.128	0.0151468
673.206	0.0150442
673.284	0.0150713
673.362	0.0150424
673.440	0.0150280
673.518	0.0150545
673.596	0.0150410
673.674	0.0150384
673.753	0.0150495
673.831	0.0151608
673.909	0.0150600
673.987	0.0150095
674.065	0.0150926
674.143	0.0149925
674.221	0.0150195
674.299	0.0152544
674.378	0.0151294
674.456	0.0150967
674.534	0.0150127
674.612	0.0150713
674.690	0.0150550
674.768	0.0151399
674.846	0.0151169
674.924	0.0151587
675.003	0.0150999
675.081	0.0150840
675.159	0.0150533
675.237	0.0150900
675.315	0.0150489
675.393	0.0151277
675.471	0.0150146
675.549	0.0148718
675.628	0.0150046
675.706	0.0151070
675.784	0.0150648
675.862	0.0150246
675.940	0.0150951
676.018	0.0150883
676.096	0.0150235
676.174	0.0150504
676.253	0.0151083
676.331	0.0151732
676.409	0.0151105
676.487	0.0151414
676.565	0.0152005
676.643	0.0150580
676.721	0.0149780
676.799	0.0150626
676.878	0.0151909
676.956	0.0152023
677.034	0.0151390
677.112	0.0150420
677.190	0.0150621
677.268	0.0151730
677.346	0.0151690
677.424	0.0150242
677.503	0.0149924
677.581	0.0150342
677.659	0.0149877
677.737	0.0150208
677.815	0.0150861
677.893	0.0150896
677.971	0.0151163
678.049	0.0150865
678.128	0.0149648
678.206	0.0150620
678.284	0.0150203
678.362	0.0148349
678.440	0.0151737
678.518	0.0150748
678.596	0.0151338
678.674	0.0151371
678.753	0.0150795
678.831	0.0150971
678.909	0.0150278
678.987	0.0149263
679.065	0.0149899
679.143	0.0150628
679.221	0.0148802
679.299	0.0151519
679.378	0.0150848
679.456	0.0150086
679.534	0.0149020
679.612	0.0150248
679.690	0.0151188
679.768	0.0149758
679.846	0.0150549
679.924	0.0150041
680.003	0.0149713
680.081	0.0149931
680.159	0.0150602
680.237	0.0149767
680.315	0.0149361
680.393	0.0149793
680.471	0.0150359
680.549	0.0149477
680.628	0.0150210
680.706	0.0150807
680.784	0.0149255
680.862	0.0150875
680.940	0.0151234
681.018	0.0148639
681.096	0.0150186
681.174	0.0151129
681.253	0.0151347
681.331	0.0150364
681.409	0.0150341
681.487	0.0149773
681.565	0.0149963
681.643	0.0150337
681.721	0.0150993
681.799	0.0149577
681.878	0.0149290
681.956	0.0150393
682.034	0.0150275
682.112	0.0150330
682.190	0.0149937
682.268	0.0150154
682.346	0.0151877
682.424	0.0149792
682.503	0.0150877
682.581	0.0150368
682.659	0.0150372
682.737	0.0149392
682.815	0.0149917
682.893	0.0150625
682.971	0.0150456
683.049	0.0150762
683.128	0.0150288
683.206	0.0148482
683.284	0.0151530
683.362	0.0150526
683.440	0.0149755
683.518	0.0151193
683.596	0.0150596
683.674	0.0149323
683.753	0.0149879
683.831	0.0151105
683.909	0.0151085
683.987	0.0149287
684.065	0.0150874
684.143	0.0151391
684.221	0.0150537
684.299	0.0150259
684.378	0.0151281
684.456	0.0150779
684.534	0.0150871
684.612	0.0150143
684.690	0.0152014
684.768	0.0150428
684.846	0.0151151
684.924	0.0151373
685.003	0.0149264
685.081	0.0149554
685.159	0.0151320
685.237	0.0151202
685.315	0.0151939
685.393	0.0152929
685.471	0.0149925
685.549	0.0152111
685.628	0.0151161
685.706	0.0150543
685.784	0.0151107
685.862	0.0150756
685.940	0.0151088
686.018	0.0150959
686.096	0.0150936
686.174	0.0151078
686.253	0.0149538
686.331	0.0150481
686.409	0.0151192
686.487	0.0150362
686.565	0.0150751
686.643	0.0150150
686.721	0.0151703
686.799	0.0150743
686.878	0.0150059
686.956	0.0150476
687.034	0.0150887
687.112	0.0150689
687.190	0.0150292
687.268	0.0150297
687.346	0.0150460
687.424	0.0150614
687.503	0.0150658
687.581	0.0148770
687.659	0.0151082
687.737	0.0151936
687.815	0.0152600
687.893	0.0150727
687.971	0.0150963
688.049	0.0151009
688.128	0.0150680
688.206	0.0151198
688.284	0.0151630
688.362	0.0149642
688.440	0.0150272
688.518	0.0150346
688.596	0.0150394
688.674	0.0151496
688.753	0.0150414
688.831	0.0151034
688.909	0.0149807
688.987	0.0149348
689.065	0.0151287
689.143	0.0150043
689.221	0.0149316
689.299	0.0151690
689.378	0.0149763
689.456	0.0149213
689.534	0.0149977
689.612	0.0151315
689.690	0.0151988
689.768	0.0150031
689.846	0.0150498
689.924	0.0149998
690.003	0.0150712
690.081	0.0151314
690.159	0.0151548
690.237	0.0151804
690.315	0.0151235
690.393	0.0151987
690.471	0.0152201
690.549	0.0150485
690.628	0.0151595
690.706	0.0151188
690.784	0.0150368
690.862	0.0150763
690.940	0.0151388
691.018	0.0150025
691.096	0.0150333
691.174	0.0150890
691.253	0.0150797
691.331	0.0152604
691.409	0.0150567
691.487	0.0149809
691.565	0.0150798
691.643	0.0149964
691.721	0.0151309
691.799	0.0149858
691.878	0.0150618
691.956	0.0150986
692.034	0.0149885
692.112	0.0150524
692.190	0.0150622
692.268	0.0149406
692.346	0.0151328
692.424	0.0151031
692.503	0.0151000
692.581	0.0149467
692.659	0.0148560
692.737	0.0149330
692.815	0.0149290
692.893	0.0149282
692.971	0.0150037
693.049	0.0150729
693.128	0.0149043
693.206	0.0152267
693.284	0.0149973
693.362	0.0150431
693.440	0.0150741
693.518	0.0150476
693.596	0.0150555
693.674	0.0151846
693.753	0.0151269
693.831	0.0149495
693.909	0.0150378
693.987	0.0150584
694.065	0.0149448
694.143	0.0151456
694.221	0.0151325
694.299	0.0150819
694.378	0.0150972
694.456	0.0151926
694.534	0.0150147
694.612	0.0149754
694.690	0.0150983
694.768	0.0151502
694.846	0.0150573
694.924	0.0150665
695.003	0.0150008
695.081	0.0149895
695.159	0.0151242
695.237	0.0150033
695.315	0.0149728
695.393	0.0150196
695.471	0.0150161
695.549	0.0149629
695.628	0.0151461
695.706	0.0150377
695.784	0.0150972
695.862	0.0150543
695.940	0.0147939
696.018	0.0148862
696.096	0.0150755
696.174	0.0151138
696.253	0.0151891
696.331	0.0150721
696.409	0.0150266
696.487	0.0150835
696.565	0.0151981
696.643	0.0150758
696.721	0.0151900
696.799	0.0151058
696.878	0.0151433
696.956	0.0151466
697.034	0.0152572
697.112	0.0152206
697.190	0.0151357
697.268	0.0152327
697.346	0.0149802
697.424	0.0150383
697.503	0.0151704
697.581	0.0151235
697.659	0.0149331
697.737	0.0149878
697.815	0.0151040
697.893	0.0151128
697.971	0.0149561
698.049	0.0150545
698.128	0.0149612
698.206	0.0149650
698.284	0.0150383
698.362	0.0150826
698.440	0.0150697
698.518	0.0150281
698.596	0.0150535
698.674	0.0149827
698.753	0.0149886
698.831	0.0150277
698.909	0.0152341
698.987	0.0151394
699.065	0.0151450
699.143	0.0150822
699.221	0.0150636
699.299	0.0150271
699.378	0.0150764
699.456	0.0151114
699.534	0.0151214
699.612	0.0150728
699.690	0.0151183
699.768	0.0150499
699.846	0.0149773
699.924	0.0151774
700.003	0.0151247
700.081	0.0149807
700.159	0.0149056
700.237	0.0151575
700.315	0.0149370
700.393	0.0148621
700.471	0.0149299
700.549	0.0149967
700.628	0.0150903
700.706	0.0149462
700.784	0.0151794
700.862	0.0150329
700.940	0.0149583
701.018	0.0152063
701.096	0.0152357
701.174	0.0150938
701.253	0.0152731
701.331	0.0152412
701.409	0.0151138
701.487	0.0151999
701.565	0.0150639
701.643	0.0152218
701.721	0.0150951
701.799	0.0150766
701.878	0.0152499
701.956	0.0150713
702.034	0.0151305
702.112	0.0150980
702.190	0.0151862
702.268	0.0150700
702.346	0.0151525
702.424	0.0149442
702.503	0.0150362
702.581	0.0151522
702.659	0.0150866
702.737	0.0149860
702.815	0.0150336
702.893	0.0151116
702.971	0.0151460
703.049	0.0151022
703.128	0.0149704
703.206	0.0150827
703.284	0.0150140
703.362	0.0149632
703.440	0.0150651
703.518	0.0150135
703.596	0.0152087
703.674	0.0151082
703.753	0.0150971
703.831	0.0152296
703.909	0.0152020
703.987	0.0151902
704.065	0.0151141
704.143	0.0151903
704.221	0.0152662
704.299	0.0151549
704.378	0.0150435
704.456	0.0151878
704.534	0.0152377
704.612	0.0151439
704.690	0.0151625
704.768	0.0151630
704.846	0.0151561
704.924	0.0151833
705.003	0.0150589
705.081	0.0151588
705.159	0.0150874
705.237	0.0150973
705.315	0.0150703
705.393	0.0151092
705.471	0.0150505
705.549	0.0150084
705.628	0.0149837
705.706	0.0150899
705.784	0.0150214
705.862	0.0150591
705.940	0.0150411
706.018	0.0150811
706.096	0.0151471
706.174	0.0151293
706.253	0.0151373
706.331	0.0151562
706.409	0.0150970
706.487	0.0152463
706.565	0.0151715
706.643	0.0152258
706.721	0.0152577
706.799	0.0151565
706.878	0.0152512
706.956	0.0153311
707.034	0.0151727
707.112	0.0153255
707.190	0.0152489
707.268	0.0151804
707.346	0.0152549
707.424	0.0152113
707.503	0.0151408
707.581	0.0151453
707.659	0.0150665
707.737	0.0151741
707.815	0.0150912
707.893	0.0150536
707.971	0.0151237
708.049	0.0150417
708.128	0.0149177
708.206	0.0150510
708.284	0.0150532
708.362	0.0151701
708.440	0.0152201
708.518	0.0150092
708.596	0.0150478
708.674	0.0151772
708.753	0.0151361
708.831	0.0149965
708.909	0.0151038
708.987	0.0151315
709.065	0.0152046
709.143	0.0151769
709.221	0.0151759
709.299	0.0152160
709.378	0.0150072
709.456	0.0151704
709.534	0.0150536
709.612	0.0152032
709.690	0.0151889
709.768	0.0150770
709.846	0.0152052
709.924	0.0152132
710.003	0.0151250
710.081	0.0150184
710.159	0.0151376
710.237	0.0151972
710.315	0.0150375
710.393	0.0150575
710.471	0.0151947
710.549	0.0151686
710.628	0.0151982
710.706	0.0151311
710.784	0.0151683
710.862	0.0150081
710.940	0.0150655
711.018	0.0153799
711.096	0.0153254
711.174	0.0151699
711.253	0.0151476
711.331	0.0153791
711.409	0.0153329
711.487	0.0153191
711.565	0.0152024
711.643	0.0153036
711.721	0.0153867
711.799	0.0152247
711.878	0.0151409
711.956	0.0151981
712.034	0.0152663
712.112	0.0152550
712.190	0.0149152
712.268	0.0153327
712.346	0.0152345
712.424	0.0151777
712.503	0.0150857
712.581	0.0151569
712.659	0.0151154
712.737	0.0151500
712.815	0.0151281
712.893	0.0149911
712.971	0.0149744
713.049	0.0149982
713.128	0.0149950
713.206	0.0150313
713.284	0.0150648
713.362	0.0150168
713.440	0.0150066
713.518	0.0149362
713.596	0.0151367
713.674	0.0150612
713.753	0.0150225
713.831	0.0150974
713.909	0.0152016
713.987	0.0152496
714.065	0.0151998
714.143	0.0152390
714.221	0.0151550
714.299	0.0153018
714.378	0.0153590
714.456	0.0153577
714.534	0.0154698
714.612	0.0154179
714.690	0.0153525
714.768	0.0153749
714.846	0.0153328
714.924	0.0153305
715.003	0.0152486
715.081	0.0152328
715.159	0.0154243
715.237	0.0151972
715.315	0.0151904
715.393	0.0152483
715.471	0.0150948
715.549	0.0151025
715.628	0.0151724
715.706	0.0152509
715.784	0.0152000
715.862	0.0150357
715.940	0.0152002
716.018	0.0151394
716.096	0.0151099
716.174	0.0151526
716.253	0.0151862
716.331	0.0151788
716.409	0.0152566
716.487	0.0152670
716.565	0.0152711
716.643	0.0152805
716.721	0.0153426
716.799	0.0154027
716.878	0.0153043
716.956	0.0153972
717.034	0.0155383
717.112	0.0154156
717.190	0.0152802
717.268	0.0153797
717.346	0.0154647
717.424	0.0152718
717.503	0.0152502
717.581	0.0152213
717.659	0.0150647
717.737	0.0149885
717.815	0.0149364
717.893	0.0149840
717.971	0.0149357
718.049	0.0147675
718.128	0.0148885
718.206	0.0148302
718.284	0.0148977
718.362	0.0147646
718.440	0.0147410
718.518	0.0149235
718.596	0.0150059
718.674	0.0148740
718.753	0.0149319
718.831	0.0151929
718.909	0.0151527
718.987	0.0153189
719.065	0.0151620
719.143	0.0154290
719.221	0.0153434
719.299	0.0154346
719.378	0.0155297
719.456	0.0156892
719.534	0.0156321
719.612	0.0156704
719.690	0.0156390
719.768	0.0156338
719.846	0.0157081
719.924	0.0157281
720.003	0.0156951
720.081	0.0157021
720.159	0.0156288
720.237	0.0156136
720.315	0.0153896
720.393	0.0154583
720.471	0.0153288
720.549	0.0153144
720.628	0.0152377
720.706	0.0150556
720.784	0.0150971
720.862	0.0150000
720.940	0.0149369
721.018	0.0148979
721.096	0.0147968
721.174	0.0146645
721.253	0.0146364
721.331	0.0145892
721.409	0.0144984
721.487	0.0145422
721.565	0.0146180
721.643	0.0146436
721.721	0.0146796
721.799	0.0145704
721.878	0.0147963
721.956	0.0149333
722.034	0.0149448
722.112	0.0151159
722.190	0.0150817
722.268	0.0150966
722.346	0.0151902
722.424	0.0155430
722.503	0.0153761
722.581	0.0153344
722.659	0.0157742
722.737	0.0156642
722.815	0.0157304
722.893	0.0157056
722.971	0.0157770
723.049	0.0156322
723.128	0.0157868
723.206	0.0156662
723.284	0.0156984
723.362	0.0154820
723.440	0.0154787
723.518	0.0154259
723.596	0.0154317
723.674	0.0153374
723.753	0.0151697
723.831	0.0150873
723.909	0.0151851
723.987	0.0149716
724.065	0.0148008
724.143	0.0149016
724.221	0.0148779
724.299	0.0148544
724.378	0.0150198
724.456	0.0148877
724.534	0.0148940
724.612	0.0150739
724.690	0.0150848
724.768	0.0151730
724.846	0.0152114
724.924	0.0154076
725.003	0.0153246
725.081	0.0153548
725.159	0.0154353
725.237	0.0152502
725.315	0.0153875
725.393	0.0153961
725.471	0.0154013
725.549	0.0151653
725.628	0.0151280
725.706	0.0150500
725.784	0.0151164
725.862	0.0150933
725.940	0.0148444
726.018	0.0148646
726.096	0.0147488
726.174	0.0148013
726.253	0.0149238
726.331	0.0148266
726.409	0.0146886
726.487	0.0147851
726.565	0.0147878
726.643	0.0148177
726.721	0.0150109
726.799	0.0151375
726.878	0.0152141
726.956	0.0152580
727.034	0.0154182
727.112	0.0154981
727.190	0.0155050
727.268	0.0155952
727.346	0.0156114
727.424	0.0157205
727.503	0.0157211
727.581	0.0157415
727.659	0.0158087
727.737	0.0158709
727.815	0.0157013
727.893	0.0157336
727.971	0.0157582
728.049	0.0155470
728.128	0.0155479
728.206	0.0154948
728.284	0.0154755
728.362	0.0153569
728.440	0.0154836
728.518	0.0152291
728.596	0.0151241
728.674	0.0150907
728.753	0.0149846
728.831	0.0149311
728.909	0.0146578
728.987	0.0145981
729.065	0.0146011
729.143	0.0143145
729.221	0.0143153
729.299	0.0141809
729.378	0.0141804
729.456	0.0140996
729.534	0.0140034
729.612	0.0140395
729.690	0.0141061
729.768	0.0142052
729.846	0.0141360
729.924	0.0141385
730.003	0.0143036
730.081	0.0143408
730.159	0.0143233
730.237	0.0145579
730.315	0.0145820
730.393	0.0148495
730.471	0.0152214
730.549	0.0152330
730.628	0.0154161
730.706	0.0156775
730.784	0.0157920
730.862	0.0160687
730.940	0.0162993
731.018	0.0162964
731.096	0.0165537
731.174	0.0165540
731.253	0.0167497
731.331	0.0167084
731.409	0.0168616
731.487	0.0167007
731.565	0.0166298
731.643	0.0166493
731.721	0.0165277
731.799	0.0162955
731.878	0.0162672
731.956	0.0160741
732.034	0.0158684
732.112	0.0156522
732.190	0.0154631
732.268	0.0151895
732.346	0.0149435
732.424	0.0148501
732.503	0.0147054
732.581	0.0145789
732.659	0.0143504
732.737	0.0141412
732.815	0.0141399
732.893	0.0140466
732.971	0.0138680
733.049	0.0139128
733.128	0.0138180
733.206	0.0137782
733.284	0.0138777
733.362	0.0138985
733.440	0.0139431
733.518	0.0137560
733.596	0.0140651
733.674	0.0139744
733.753	0.0140624
733.831	0.0141960
733.909	0.0142741
733.987	0.0142415
734.065	0.0144012
734.143	0.0143514
734.221	0.0144005
734.299	0.0145055
734.378	0.0148463
734.456	0.0147659
734.534	0.0149584
734.612	0.0150476
734.690	0.0151529
734.768	0.0151196
734.846	0.0153269
734.924	0.0156568
735.003	0.0155815
735.081	0.0156538
735.159	0.0158032
735.237	0.0159476
735.315	0.0161323
735.393	0.0161983
735.471	0.0162254
735.549	0.0162331
735.628	0.0162279
735.706	0.0161903
735.784	0.0162262
735.862	0.0161530
735.940	0.0162344
736.018	0.0162063
736.096	0.0159961
736.174	0.0159751
736.253	0.0157770
736.331	0.0156930
736.409	0.0156052
736.487	0.0154230
736.565	0.0154642
736.643	0.0151733
736.721	0.0151435
736.799	0.0150222
736.878	0.0149968
736.956	0.0148154
737.034	0.0147398
737.112	0.0146771
737.190	0.0147431
737.268	0.0146115
737.346	0.0145572
737.424	0.0144897
737.503	0.0145088
737.581	0.0145494
737.659	0.0144041
737.737	0.0144240
737.815	0.0144030
737.893	0.0143900
737.971	0.0144465
738.049	0.0145248
738.128	0.0144221
738.206	0.0144866
738.284	0.0144917
738.362	0.0144283
738.440	0.0144395
738.518	0.0145324
738.596	0.0146093
738.674	0.0146645
738.753	0.0146173
738.831	0.0145975
738.909	0.0147322
738.987	0.0148158
739.065	0.0145610
739.143	0.0147132
739.221	0.0147851
739.299	0.0149354
739.378	0.0149844
739.456	0.0147691
739.534	0.0149477
739.612	0.0150886
739.690	0.0152439
739.768	0.0152708
739.846	0.0154794
739.924	0.0155733
740.003	0.0156867
740.081	0.0156863
740.159	0.0158073
740.237	0.0158829
740.315	0.0160391
740.393	0.0160854
740.471	0.0159869
740.549	0.0160638
740.628	0.0160725
740.706	0.0161247
740.784	0.0159331
740.862	0.0160014
740.940	0.0158733
741.018	0.0157422
741.096	0.0158200
741.174	0.0155758
741.253	0.0153885
741.331	0.0154416
741.409	0.0153593
741.487	0.0152106
741.565	0.0150335
741.643	0.0149840
741.721	0.0149236
741.799	0.0147989
741.878	0.0148634
741.956	0.0148518
742.034	0.0146775
742.112	0.0148017
742.190	0.0148045
742.268	0.0148599
742.346	0.0146941
742.424	0.0148650
742.503	0.0149287
742.581	0.0148453
742.659	0.0149670
742.737	0.0148885
742.815	0.0149508
742.893	0.0149277
742.971	0.0149853
743.049	0.0149227
743.128	0.0149213
743.206	0.0150456
743.284	0.0149743
743.362	0.0148570
743.440	0.0149381
743.518	0.0148987
743.596	0.0147189
743.674	0.0148565
743.753	0.0147218
743.831	0.0148253
743.909	0.0148173
743.987	0.0147505
744.065	0.0148824
744.143	0.0146323
744.221	0.0146225
744.299	0.0146681
744.378	0.0146857
744.456	0.0147539
744.534	0.0147166
744.612	0.0148011
744.690	0.0148499
744.768	0.0147475
744.846	0.0148936
744.924	0.0150443
745.003	0.0149880
745.081	0.0151830
745.159	0.0152859
745.237	0.0152706
745.315	0.0154729
745.393	0.0155296
745.471	0.0155666
745.549	0.0158286
745.628	0.0157832
745.706	0.0158224
745.784	0.0159152
745.862	0.0159053
745.940	0.0159304
746.018	0.0158752
746.096	0.0158903
746.174	0.0158468
746.253	0.0157122
746.331	0.0156137
746.409	0.0154579
746.487	0.0154797
746.565	0.0155143
746.643	0.0152477
746.721	0.0150139
746.799	0.0150244
746.878	0.0149992
746.956	0.0149151
747.034	0.0146113
747.112	0.0147832
747.190	0.0146236
747.268	0.0146896
747.346	0.0147313
747.424	0.0147562
747.503	0.0147610
747.581	0.0146391
747.659	0.0148212
747.737	0.0147498
747.815	0.0148179
747.893	0.0148982
747.971	0.0150155
748.049	0.0149086
748.128	0.0150081
748.206	0.0150169
748.284	0.0149649
748.362	0.0149336
748.440	0.0149586
748.518	0.0150586
748.596	0.0149512
748.674	0.0151912
748.753	0.0150845
748.831	0.0150260
748.909	0.0151391
748.987	0.0149707
749.065	0.0149965
749.143	0.0150784
749.221	0.0150967
749.299	0.0151572
749.378	0.0151333
749.456	0.0151780
749.534	0.0151759
749.612	0.0151367
749.690	0.0150778
749.768	0.0151727
749.846	0.0151749
749.924	0.0152031
750.003	0.0151565
750.081	0.0152651
750.159	0.0150983
750.237	0.0149789
750.315	0.0151726
750.393	0.0151884
750.471	0.0151028
750.549	0.0151127
750.628	0.0151199
750.706	0.0150666
750.784	0.0150558
750.862	0.0150317
750.940	0.0150705
751.018	0.0152088
751.096	0.0151601
751.174	0.0152697
751.253	0.0150803
751.331	0.0150628
751.409	0.0151498
751.487	0.0151659
751.565	0.0152853
751.643	0.0152188
751.721	0.0152485
751.799	0.0152373
751.878	0.0152196
751.956	0.0151637
752.034	0.0152812
752.112	0.0152585
752.190	0.0152943
752.268	0.0151865
752.346	0.0151049
752.424	0.0152151
752.503	0.0150233
752.581	0.0150742
752.659	0.0150710
752.737	0.0150567
752.815	0.0150457
752.893	0.0150262
752.971	0.0150266
753.049	0.0150324
753.128	0.0149905
753.206	0.0149694
753.284	0.0149930
753.362	0.0148195
753.440	0.0150574
753.518	0.0148772
753.596	0.0149022
753.674	0.0148675
753.753	0.0149519
753.831	0.0148102
753.909	0.0148104
753.987	0.0149067
754.065	0.0149483
754.143	0.0148847
754.221	0.0149306
754.299	0.0149725
754.378	0.0149783
754.456	0.0149084
754.534	0.0149841
754.612	0.0148441
754.690	0.0148404
754.768	0.0147537
754.846	0.0150039
754.924	0.0149233
755.003	0.0148540
755.081	0.0149271
755.159	0.0148638
755.237	0.0148657
755.315	0.0149186
755.393	0.0148509
755.471	0.0147522
755.549	0.0148257
755.628	0.0148583
755.706	0.0147211
755.784	0.0146881
755.862	0.0148048
755.940	0.0148425
756.018	0.0148409
756.096	0.0150130
756.174	0.0148975
756.253	0.0150001
756.331	0.0150747
756.409	0.0151141
756.487	0.0152232
756.565	0.0153819
756.643	0.0153818
756.721	0.0154869
756.799	0.0153505
756.878	0.0154437
756.956	0.0155410
757.034	0.0155801
757.112	0.0155190
757.190	0.0154322
757.268	0.0155655
757.346	0.0154944
757.424	0.0153382
757.503	0.0153672
757.581	0.0154002
757.659	0.0151228
757.737	0.0150161
757.815	0.0149458
757.893	0.0148223
757.971	0.0147014
758.049	0.0146172
758.128	0.0144818
758.206	0.0144480
758.284	0.0142928
758.362	0.0143200
758.440	0.0143460
758.518	0.0142650
758.596	0.0143410
758.674	0.0143221
758.753	0.0144103
758.831	0.0145135
758.909	0.0146439
758.987	0.0147810
759.065	0.0147751
759.143	0.0147171
759.221	0.0149283
759.299	0.0150634
759.378	0.0151287
759.456	0.0151025
759.534	0.0151801
759.612	0.0152234
759.690	0.0153459
759.768	0.0154240
759.846	0.0154397
759.924	0.0154601
760.003	0.0154866
760.081	0.0153864
760.159	0.0153101
760.237	0.0153421
760.315	0.0153987
760.393	0.0154837
760.471	0.0153337
760.549	0.0153017
760.628	0.0153377
760.706	0.0152235
760.784	0.0152858
760.862	0.0152964
760.940	0.0153440
761.018	0.0153403
761.096	0.0151639
761.174	0.0152730
761.253	0.0152078
761.331	0.0152539
761.409	0.0151248
761.487	0.0151768
761.565	0.0149622
761.643	0.0149673
761.721	0.0149268
761.799	0.0147794
761.878	0.0147614
761.956	0.0147610
762.034	0.0148219
762.112	0.0146661
762.190	0.0146227
762.268	0.0148169
762.346	0.0149324
762.424	0.0149849
762.503	0.0151280
762.581	0.0151405
762.659	0.0152606
762.737	0.0153422
762.815	0.0154623
762.893	0.0155569
762.971	0.0156949
763.049	0.0157884
763.128	0.0157222
763.206	0.0157096
763.284	0.0155595
763.362	0.0154456
763.440	0.0154241
763.518	0.0153380
763.596	0.0152862
763.674	0.0150035
763.753	0.0150149
763.831	0.0151085
763.909	0.0147832
763.987	0.0147321
764.065	0.0147254
764.143	0.0147947
764.221	0.0146873
764.299	0.0144958
764.378	0.0144558
764.456	0.0146804
764.534	0.0146567
764.612	0.0145952
764.690	0.0146172
764.768	0.0146261
764.846	0.0147894
764.924	0.0148047
765.003	0.0148297
765.081	0.0149738
765.159	0.0148074
765.237	0.0149686
765.315	0.0150562
765.393	0.0151691
765.471	0.0151750
765.549	0.0151383
765.628	0.0152795
765.706	0.0152554
765.784	0.0153978
765.862	0.0155004
765.940	0.0154501
766.018	0.0154634
766.096	0.0155900
766.174	0.0155872
766.253	0.0156008
766.331	0.0155358
766.409	0.0153963
766.487	0.0155344
766.565	0.0155458
766.643	0.0154006
766.721	0.0152781
766.799	0.0151727
766.878	0.0151456
766.956	0.0152095
767.034	0.0150414
767.112	0.0150784
767.190	0.0150300
767.268	0.0149582
767.346	0.0149685
767.424	0.0147696
767.503	0.0147807
767.581	0.0148215
767.659	0.0148242
767.737	0.0147443
767.815	0.0147778
767.893	0.0149733
767.971	0.0149541
768.049	0.0148793
768.128	0.0151080
768.206	0.0151891
768.284	0.0153862
768.362	0.0155116
768.440	0.0152443
768.518	0.0154889
768.596	0.0155746
768.674	0.0154588
768.753	0.0155489
768.831	0.0155670
768.909	0.0152766
768.987	0.0153682
769.065	0.0153613
769.143	0.0152900
769.221	0.0151076
769.299	0.0150040
769.378	0.0148864
769.456	0.0147211
769.534	0.0147221
769.612	0.0146953
769.690	0.0146043
769.768	0.0145599
769.846	0.0143810
769.924	0.0143776
770.003	0.0144750
770.081	0.0145606
770.159	0.0147340
770.237	0.0146162
770.315	0.0146890
770.393	0.0146874
770.471	0.0148030
770.549	0.0146365
770.628	0.0149391
770.706	0.0150146
770.784	0.0150756
770.862	0.0152007
770.940	0.0152552
771.018	0.0151658
771.096	0.0152758
771.174	0.0153053
771.253	0.0153991
771.331	0.0151402
771.409	0.0154111
771.487	0.0154431
771.565	0.0154083
771.643	0.0154865
771.721	0.0154827
771.799	0.0155473
771.878	0.0155775
771.956	0.0155513
772.034	0.0155268
772.112	0.0154089
772.190	0.0155982
772.268	0.0155147
772.346	0.0153014
772.424	0.0151759
772.503	0.0152306
772.581	0.0152081
772.659	0.0151098
772.737	0.0150058
772.815	0.0149448
772.893	0.0148708
772.971	0.0146468
773.049	0.0147794
773.128	0.0147275
773.206	0.0146691
773.284	0.0146555
773.362	0.0146037
773.440	0.0145990
773.518	0.0147701
773.596	0.0147462
773.674	0.0147466
773.753	0.0147555
773.831	0.0146885
773.909	0.0147191
773.987	0.0147430
774.065	0.0150130
774.143	0.0151066
774.221	0.0150580
774.299	0.0151187
774.378	0.0153065
774.456	0.0152540
774.534	0.0153570
774.612	0.0153742
774.690	0.0152811
774.768	0.0154540
774.846	0.0155019
774.924	0.0153965
775.003	0.0153094
775.081	0.0152113
775.159	0.0152744
775.237	0.0151977
775.315	0.0151406
775.393	0.0151187
775.471	0.0152005
775.549	0.0149529
775.628	0.0148940
775.706	0.0148746
775.784	0.0146915
775.862	0.0148009
775.940	0.0147652
776.018	0.0146798
776.096	0.0147710
776.174	0.0146106
776.253	0.0148221
776.331	0.0147371
776.409	0.0146693
776.487	0.0147716
776.565	0.0148533
776.643	0.0149877
776.721	0.0150755
776.799	0.0151694
776.878	0.0151614
776.956	0.0151475
777.034	0.0151253
777.112	0.0152614
777.190	0.0153026
777.268	0.0152390
777.346	0.0151593
777.424	0.0152134
777.503	0.0153634
777.581	0.0154367
777.659	0.0153381
777.737	0.0152441
777.815	0.0153481
777.893	0.0152900
777.971	0.0151948
778.049	0.0152454
778.128	0.0151075
778.206	0.0150995
778.284	0.0151024
778.362	0.0151443
778.440	0.0149489
778.518	0.0149870
778.596	0.0147585
778.674	0.0147313
778.753	0.0147198
778.831	0.0148591
778.909	0.0147418
778.987	0.0146947
779.065	0.0146803
779.143	0.0145679
779.221	0.0145404
779.299	0.0146177
779.378	0.0146577
779.456	0.0147690
779.534	0.0147965
779.612	0.0149768
779.690	0.0152072
779.768	0.0151476
779.846	0.0151944
779.924	0.0151308
780.003	0.0152893
780.081	0.0154536
780.159	0.0153146
780.237	0.0155032
780.315	0.0155667
780.393	0.0156366
780.471	0.0156553
780.549	0.0155010
780.628	0.0155899
780.706	0.0155822
780.784	0.0156228
780.862	0.0154601
780.940	0.0154405
781.018	0.0153456
781.096	0.0154282
781.174	0.0153346
781.253	0.0151665
781.331	0.0152645
781.409	0.0152268
781.487	0.0151944
781.565	0.0149639
781.643	0.0149696
781.721	0.0147952
781.799	0.0146933
781.878	0.0147279
781.956	0.0145133
782.034	0.0148724
782.112	0.0147760
782.190	0.0144820
782.268	0.0145355
782.346	0.0146774
782.424	0.0146072
782.503	0.0147913
782.581	0.0146515
782.659	0.0147762
782.737	0.0148071
782.815	0.0149160
782.893	0.0148646
782.971	0.0150233
783.049	0.0149700
783.128	0.0149822
783.206	0.0150513
783.284	0.0152304
783.362	0.0153155
783.440	0.0152927
783.518	0.0155007
783.596	0.0154282
783.674	0.0154877
783.753	0.0154516
783.831	0.0155746
783.909	0.0155566
783.987	0.0155906
784.065	0.0154349
784.143	0.0155884
784.221	0.0154593
784.299	0.0155090
784.378	0.0152798
784.456	0.0153761
784.534	0.0151966
784.612	0.0151471
784.690	0.0151263
784.768	0.0150598
784.846	0.0149961
784.924	0.0150713
785.003	0.0150967
785.081	0.0149720
785.159	0.0150887
785.237	0.0151208
785.315	0.0150690
785.393	0.0151188
785.471	0.0150867
785.549	0.0150166
785.628	0.0151723
785.706	0.0151936
785.784	0.0152164
785.862	0.0150729
785.940	0.0150683
786.018	0.0154131
786.096	0.0152207
786.174	0.0152077
786.253	0.0151175
786.331	0.0152628
786.409	0.0151170
786.487	0.0151048
786.565	0.0152025
786.643	0.0152164
786.721	0.0153687
786.799	0.0150874
786.878	0.0152531
786.956	0.0153039
787.034	0.0153498
787.112	0.0151843
787.190	0.0152327
787.268	0.0151675
787.346	0.0151375
787.424	0.0152415
787.503	0.0150757
787.581	0.0151318
787.659	0.0151722
787.737	0.0150909
787.815	0.0150253
787.893	0.0150520
787.971	0.0149836
788.049	0.0148779
788.128	0.0149137
788.206	0.0148903
788.284	0.0149325
788.362	0.0149615
788.440	0.0150191
788.518	0.0149980
788.596	0.0150046
788.674	0.0150830
788.753	0.0152393
788.831	0.0152044
788.909	0.0151849
788.987	0.0153359
789.065	0.0154571
789.143	0.0154166
789.221	0.0152345
789.299	0.0154121
789.378	0.0154575
789.456	0.0155182
789.534	0.0154676
789.612	0.0153561
789.690	0.0154747
789.768	0.0153558
789.846	0.0153526
789.924	0.0154212
790.003	0.0153989
790.081	0.0151252
790.159	0.0152966
790.237	0.0152118
790.315	0.0153149
790.393	0.0153396
790.471	0.0151213
790.549	0.0151285
790.628	0.0151821
790.706	0.0151747
790.784	0.0153307
790.862	0.0150500
790.940	0.0151411
791.018	0.0152888
791.096	0.0152596
791.174	0.0152712
791.253	0.0151586
791.331	0.0152223
791.409	0.0152242
791.487	0.0151360
791.565	0.0152297
791.643	0.0152171
791.721	0.0153216
791.799	0.0153813
791.878	0.0154171
791.956	0.0153529
792.034	0.0152953
792.112	0.0152785
792.190	0.0151740
792.268	0.0151855
792.346	0.0153176
792.424	0.0153275
792.503	0.0154088
792.581	0.0153006
792.659	0.0152157
792.737	0.0151954
792.815	0.0153569
792.893	0.0152235
792.971	0.0151917
793.049	0.0152016
793.128	0.0152411
793.206	0.0152111
793.284	0.0152374
793.362	0.0150616
793.440	0.0151725
793.518	0.0151883
793.596	0.0152257
793.674	0.0150993
793.753	0.0151223
793.831	0.0150928
793.909	0.0150037
793.987	0.0149265
794.065	0.0149940
794.143	0.0149364
794.221	0.0149469
794.299	0.0149643
794.378	0.0150127
794.456	0.0149662
794.534	0.0147800
794.612	0.0148575
794.690	0.0148779
794.768	0.0149649
794.846	0.0147935
794.924	0.0148103
795.003	0.0149606
795.081	0.0148401
795.159	0.0150222
795.237	0.0151454
795.315	0.0148601
795.393	0.0148896
795.471	0.0151320
795.549	0.0152002
795.628	0.0151602
795.706	0.0149769
795.784	0.0151726
795.862	0.0151799
795.940	0.0151880
796.018	0.0152956
796.096	0.0152885
796.174	0.0153101
796.253	0.0152000
796.331	0.0151637
796.409	0.0153326
796.487	0.0152227
796.565	0.0152486
796.643	0.0152658
796.721	0.0151280
796.799	0.0152679
796.878	0.0151674
796.956	0.0151418
797.034	0.0152921
797.112	0.0151714
797.190	0.0150837
797.268	0.0151245
797.346	0.0151777
797.424	0.0149418
797.503	0.0149003
797.581	0.0149129
797.659	0.0148239
797.737	0.0148815
797.815	0.0148376
797.893	0.0148441
797.971	0.0148531
798.049	0.0149580
798.128	0.0149570
798.206	0.0149112
798.284	0.0149963
798.362	0.0150183
798.440	0.0149409
798.518	0.0149525
798.596	0.0149393
798.674	0.0150155
798.753	0.0149129
798.831	0.0150206
798.909	0.0149115
798.987	0.0150626
799.065	0.0150037
799.143	0.0151068
799.221	0.0151866
799.299	0.0150847
799.378	0.0150676
799.456	0.0149611
799.534	0.0151342
799.612	0.0151428
799.690	0.0151019
799.768	0.0150796
799.846	0.0151062
799.924	0.0152502
800.003	0.0153975
800.081	0.0152687
800.159	0.0151709
800.237	0.0151928
800.315	0.0152030
800.393	0.0152110
800.471	0.0151721
800.549	0.0152592
800.628	0.0152245
800.706	0.0151466
800.784	0.0150213
800.862	0.0150983
800.940	0.0152094
801.018	0.0148932
801.096	0.0149837
801.174	0.0150793
801.253	0.0151129
801.331	0.0150270
801.409	0.0151945
801.487	0.0151231
801.565	0.0151538
801.643	0.0150102
801.721	0.0152074
801.799	0.0152127
801.878	0.0151818
801.956	0.0150803
802.034	0.0151566
802.112	0.0152753
802.190	0.0153512
802.268	0.0153168
802.346	0.0154263
802.424	0.0153690
802.503	0.0153381
802.581	0.0153082
802.659	0.0153579
802.737	0.0154382
802.815	0.0154458
802.893	0.0153146
802.971	0.0152841
803.049	0.0153284
803.128	0.0153553
803.206	0.0153963
803.284	0.0153809
803.362	0.0153691
803.440	0.0152419
803.518	0.0152689
803.596	0.0154232
803.674	0.0152199
803.753	0.0151270
803.831	0.0153390
803.909	0.0151279
803.987	0.0150000
804.065	0.0150456
804.143	0.0150613
804.221	0.0150579
804.299	0.0152435
804.378	0.0152083
804.456	0.0151436
804.534	0.0151121
804.612	0.0151204
804.690	0.0152637
804.768	0.0151888
804.846	0.0151803
804.924	0.0151701
805.003	0.0150808
805.081	0.0150088
805.159	0.0150463
805.237	0.0151261
805.315	0.0150955
805.393	0.0151189
805.471	0.0150549
805.549	0.0150668
805.628	0.0150900
805.706	0.0150184
805.784	0.0151427
805.862	0.0150665
805.940	0.0151982
806.018	0.0151847
806.096	0.0152407
806.174	0.0153407
806.253	0.0152051
806.331	0.0151776
806.409	0.0154115
806.487	0.0151866
806.565	0.0152514
806.643	0.0152693
806.721	0.0152382
806.799	0.0153667
806.878	0.0150483
806.956	0.0150733
807.034	0.0152950
807.112	0.0154639
807.190	0.0153062
807.268	0.0152635
807.346	0.0151538
807.424	0.0152381
807.503	0.0152657
807.581	0.0152450
807.659	0.0152534
807.737	0.0152191
807.815	0.0152528
807.893	0.0151911
807.971	0.0153454
808.049	0.0152676
808.128	0.0151826
808.206	0.0153854
808.284	0.0153060
808.362	0.0152716
808.440	0.0153545
808.518	0.0152353
808.596	0.0154221
808.674	0.0153285
808.753	0.0151481
808.831	0.0152470
808.909	0.0153388
808.987	0.0152466
809.065	0.0151629
809.143	0.0151388
809.221	0.0153306
809.299	0.0152250
809.378	0.0151648
809.456	0.0151851
809.534	0.0151920
809.612	0.0151334
809.690	0.0151028
809.768	0.0149673
809.846	0.0149626
809.924	0.0151271
810.003	0.0151651
810.081	0.0151146
810.159	0.0151904
810.237	0.0152267
810.315	0.0151100
810.393	0.0150858
810.471	0.0151829
810.549	0.0152357
810.628	0.0152378
810.706	0.0151675
810.784	0.0151295
810.862	0.0150352
810.940	0.0151756
811.018	0.0151315
811.096	0.0151979
811.174	0.0151575
811.253	0.0151798
811.331	0.0151398
811.409	0.0151528
811.487	0.0150204
811.565	0.0150578
811.643	0.0150942
811.721	0.0151243
811.799	0.0151145
811.878	0.0152294
811.956	0.0150869
812.034	0.0151219
812.112	0.0151152
812.190	0.0151765
812.268	0.0152416
812.346	0.0151692
812.424	0.0150956
812.503	0.0152306
812.581	0.0152657
812.659	0.0152018
812.737	0.0151922
812.815	0.0152447
812.893	0.0151619
812.971	0.0150852
813.049	0.0151630
813.128	0.0152309
813.206	0.0152013
813.284	0.0153175
813.362	0.0152022
813.440	0.0150938
813.518	0.0152486
813.596	0.0151874
813.674	0.0151180
813.753	0.0150974
813.831	0.0150996
813.909	0.0150871
813.987	0.0150529
814.065	0.0150661
814.143	0.0149902
814.221	0.0150517
814.299	0.0149609
814.378	0.0150245
814.456	0.0149674
814.534	0.0150159
814.612	0.0149906
814.690	0.0149747
814.768	0.0151072
814.846	0.0150983
814.924	0.0151484
815.003	0.0150411
815.081	0.0150456
815.159	0.0150748
815.237	0.0151663
815.315	0.0151491
815.393	0.0151976
815.471	0.0152271
815.549	0.0151540
815.628	0.0152740
815.706	0.0152151
815.784	0.0152817
815.862	0.0151860
815.940	0.0152586
816.018	0.0152702
816.096	0.0151874
816.174	0.0152302
816.253	0.0153222
816.331	0.0152470
816.409	0.0152773
816.487	0.0151176
816.565	0.0150572
816.643	0.0152747
816.721	0.0151628
816.799	0.0151581
816.878	0.0151429
816.956	0.0150818
817.034	0.0150983
817.112	0.0151682
817.190	0.0150359
817.268	0.0151973
817.346	0.0150227
817.424	0.0149670
817.503	0.0148958
817.581	0.0148891
817.659	0.0148835
817.737	0.0148531
817.815	0.0147701
817.893	0.0147984
817.971	0.0149596
818.049	0.0146971
818.128	0.0147208
818.206	0.0147156
818.284	0.0148714
818.362	0.0149445
818.440	0.0148862
818.518	0.0149333
818.596	0.0150232
818.674	0.0151034
818.753	0.0151450
818.831	0.0153230
818.909	0.0151177
818.987	0.0152681
819.065	0.0153837
819.143	0.0153532
819.221	0.0154202
819.299	0.0153943
819.378	0.0155511
819.456	0.0152435
819.534	0.0153233
819.612	0.0154507
819.690	0.0154005
819.768	0.0153485
819.846	0.0153054
819.924	0.0152565
820.003	0.0153182
820.081	0.0150553
820.159	0.0152615
820.237	0.0151737
820.315	0.0152107
820.393	0.0151764
820.471	0.0150385
820.549	0.0151414
820.628	0.0150701
820.706	0.0150835
820.784	0.0150944
820.862	0.0150712
820.940	0.0150647
821.018	0.0149917
821.096	0.0150255
821.174	0.0150652
821.253	0.0150393
821.331	0.0150706
821.409	0.0149335
821.487	0.0149706
821.565	0.0151272
821.643	0.0151260
821.721	0.0150757
821.799	0.0151157
821.878	0.0150623
821.956	0.0150246
822.034	0.0149919
822.112	0.0150459
822.190	0.0150967
822.268	0.0150691
822.346	0.0149876
822.424	0.0151828
822.503	0.0150298
822.581	0.0148888
822.659	0.0150529
822.737	0.0150709
822.815	0.0152378
822.893	0.0152983
822.971	0.0151774
823.049	0.0152040
823.128	0.0151195
823.206	0.0151493
823.284	0.0153861
823.362	0.0152515
823.440	0.0151945
823.518	0.0151820
823.596	0.0153034
823.674	0.0153960
823.753	0.0154548
823.831	0.0152232
823.909	0.0153561
823.987	0.0154210
824.065	0.0153660
824.143	0.0155640
824.221	0.0154112
824.299	0.0154274
824.378	0.0153744
824.456	0.0152832
824.534	0.0152309
824.612	0.0153696
824.690	0.0155051
824.768	0.0154757
824.846	0.0151741
824.924	0.0152532
825.003	0.0151202
825.081	0.0151841
825.159	0.0153424
825.237	0.0150605
825.315	0.0150816
825.393	0.0150730
825.471	0.0150896
825.549	0.0150208
825.628	0.0151027
825.706	0.0150867
825.784	0.0149717
825.862	0.0149369
825.940	0.0150993
826.018	0.0150206
826.096	0.0148804
826.174	0.0149438
826.253	0.0151496
826.331	0.0150555
826.409	0.0149483
826.487	0.0150765
826.565	0.0150439
826.643	0.0149486
826.721	0.0150172
826.799	0.0150353
826.878	0.0150574
826.956	0.0151028
827.034	0.0151254
827.112	0.0151733
827.190	0.0151424
827.268	0.0151408
827.346	0.0152301
827.424	0.0152940
827.503	0.0152794
827.581	0.0153075
827.659	0.0154054
827.737	0.0153135
827.815	0.0154113
827.893	0.0154830
827.971	0.0154372
828.049	0.0154285
828.128	0.0154466
828.206	0.0153745
828.284	0.0154741
828.362	0.0154186
828.440	0.0153555
828.518	0.0153763
828.596	0.0153590
828.674	0.0154255
828.753	0.0153316
828.831	0.0151923
828.909	0.0151355
828.987	0.0151221
829.065	0.0151247
829.143	0.0150900
829.221	0.0150717
829.299	0.0150169
829.378	0.0148778
829.456	0.0148254
829.534	0.0149255
829.612	0.0148359
829.690	0.0147816
829.768	0.0146452
829.846	0.0147990
829.924	0.0147887
830.003	0.0148414
830.081	0.0148195
830.159	0.0148534
830.237	0.0148158
830.315	0.0148690
830.393	0.0147653
830.471	0.0148827
830.549	0.0148403
830.628	0.0149142
830.706	0.0149878
830.784	0.0150441
830.862	0.0150224
830.940	0.0150409
831.018	0.0150206
831.096	0.0149948
831.174	0.0150569
831.253	0.0150693
831.331	0.0151358
831.409	0.0151920
831.487	0.0152041
831.565	0.0152009
831.643	0.0152753
831.721	0.0153510
831.799	0.0153985
831.878	0.0152049
831.956	0.0153873
832.034	0.0153012
832.112	0.0153083
832.190	0.0153204
832.268	0.0154675
832.346	0.0155553
832.424	0.0153298
832.503	0.0154709
832.581	0.0153964
832.659	0.0153175
832.737	0.0153775
832.815	0.0151357
832.893	0.0152239
832.971	0.0153288
833.049	0.0153535
833.128	0.0151826
833.206	0.0152319
833.284	0.0151064
833.362	0.0150679
833.440	0.0150323
833.518	0.0150656
833.596	0.0150394
833.674	0.0150408
833.753	0.0149716
833.831	0.0149528
833.909	0.0148962
833.987	0.0150291
834.065	0.0151159
834.143	0.0149313
834.221	0.0149707
834.299	0.0149403
834.378	0.0149568
834.456	0.0149265
834.534	0.0148572
834.612	0.0147930
834.690	0.0149158
834.768	0.0150535
834.846	0.0149514
834.924	0.0149388
835.003	0.0148658
835.081	0.0149143
835.159	0.0150587
835.237	0.0148844
835.315	0.0148555
835.393	0.0150993
835.471	0.0149781
835.549	0.0149370
835.628	0.0149660
835.706	0.0149935
835.784	0.0151710
835.862	0.0149860
835.940	0.0150494
836.018	0.0150758
836.096	0.0149043
836.174	0.0150664
836.253	0.0151315
836.331	0.0150401
836.409	0.0151552
836.487	0.0152006
836.565	0.0151959
836.643	0.0151281
836.721	0.0152780
836.799	0.0152582
836.878	0.0152128
836.956	0.0151611
837.034	0.0151339
837.112	0.0152098
837.190	0.0152711
837.268	0.0152213
837.346	0.0151753
837.424	0.0151678
837.503	0.0151513
837.581	0.0150751
837.659	0.0151418
837.737	0.0151440
837.815	0.0151403
837.893	0.0151488
837.971	0.0150703
838.049	0.0150697
838.128	0.0150914
838.206	0.0150744
838.284	0.0150562
838.362	0.0149712
838.440	0.0151015
838.518	0.0150476
838.596	0.0150320
838.674	0.0150145
838.753	0.0149857
838.831	0.0150713
838.909	0.0149152
838.987	0.0148994
839.065	0.0150182
839.143	0.0150657
839.221	0.0150471
839.299	0.0149396
839.378	0.0149394
839.456	0.0149530
839.534	0.0149068
839.612	0.0149262
839.690	0.0150149
839.768	0.0150815
839.846	0.0149132
839.924	0.0149801
840.003	0.0150079
840.081	0.0150086
840.159	0.0149969
840.237	0.0149425
840.315	0.0149789
840.393	0.0148885
840.471	0.0148514
840.549	0.0149585
840.628	0.0148723
840.706	0.0149760
840.784	0.0150349
840.862	0.0150726
840.940	0.0151408
841.018	0.0149390
841.096	0.0150253
841.174	0.0149514
841.253	0.0150118
841.331	0.0149763
841.409	0.0150713
841.487	0.0150866
841.565	0.0151479
841.643	0.0150978
841.721	0.0151169
841.799	0.0150967
841.878	0.0150472
841.956	0.0152351
842.034	0.0151998
842.112	0.0152914
842.190	0.0152915
842.268	0.0153445
842.346	0.0152805
842.424	0.0152866
842.503	0.0152245
842.581	0.0153416
842.659	0.0151867
842.737	0.0150255
842.815	0.0152293
842.893	0.0152580
842.971	0.0152583
843.049	0.0151914
843.128	0.0152895
843.206	0.0152780
843.284	0.0152046
843.362	0.0151794
843.440	0.0152594
843.518	0.0152371
843.596	0.0153275
843.674	0.0151580
843.753	0.0150519
843.831	0.0151527
843.909	0.0151503
843.987	0.0150721
844.065	0.0152223
844.143	0.0151375
844.221	0.0149792
844.299	0.0151183
844.378	0.0149952
844.456	0.0151351
844.534	0.0151094
844.612	0.0151137
844.690	0.0151437
844.768	0.0150358
844.846	0.0151130
844.924	0.0149187
845.003	0.0151288
845.081	0.0151805
845.159	0.0150468
845.237	0.0150902
845.315	0.0151161
845.393	0.0151206
845.471	0.0150468
845.549	0.0150205
845.628	0.0150973
845.706	0.0152692
845.784	0.0150829
845.862	0.0152355
845.940	0.0151390
846.018	0.0151322
846.096	0.0150681
846.174	0.0151567
846.253	0.0151026
846.331	0.0150655
846.409	0.0152677
846.487	0.0151629
846.565	0.0150696
846.643	0.0150265
846.721	0.0149652
846.799	0.0151231
846.878	0.0151146
846.956	0.0149876
847.034	0.0151275
847.112	0.0150505
847.190	0.0151381
847.268	0.0150806
847.346	0.0151841
847.424	0.0150507
847.503	0.0151600
847.581	0.0151844
847.659	0.0150640
847.737	0.0150462
847.815	0.0151772
847.893	0.0150513
847.971	0.0151160
848.049	0.0150292
848.128	0.0150625
848.206	0.0153108
848.284	0.0150964
848.362	0.0151267
848.440	0.0151829
848.518	0.0151563
848.596	0.0150488
848.674	0.0150053
848.753	0.0151534
848.831	0.0151274
848.909	0.0151053
848.987	0.0150572
849.065	0.0150095
849.143	0.0150209
849.221	0.0150957
849.299	0.0150711
849.378	0.0150166
849.456	0.0152004
849.534	0.0150697
849.612	0.0150346
849.690	0.0150466
849.768	0.0151229
849.846	0.0150889
849.924	0.0150055
850.003	0.0149589
850.081	0.0149889
850.159	0.0151437
850.237	0.0149518
850.315	0.0151528
850.393	0.0150760
850.471	0.0150848
850.549	0.0150317
850.628	0.0150322
850.706	0.0149468
850.784	0.0149461
850.862	0.0151396
850.940	0.0151041
851.018	0.0150783
851.096	0.0150750
851.174	0.0151330
851.253	0.0149667
851.331	0.0151885
851.409	0.0152151
851.487	0.0151597
851.565	0.0150995
851.643	0.0150368
851.721	0.0150592
851.799	0.0150365
851.878	0.0151197
851.956	0.0150838
852.034	0.0151991
852.112	0.0149889
852.190	0.0151849
852.268	0.0153518
852.346	0.0150797
852.424	0.0152216
852.503	0.0151553
852.581	0.0150517
852.659	0.0152485
852.737	0.0151178
852.815	0.0151020
852.893	0.0150475
852.971	0.0151240
853.049	0.0151940
853.128	0.0150837
853.206	0.0150575
853.284	0.0150437
853.362	0.0151752
853.440	0.0151871
853.518	0.0152400
853.596	0.0150322
853.674	0.0150990
853.753	0.0151013
853.831	0.0151807
853.909	0.0150819
853.987	0.0150738
854.065	0.0152438
854.143	0.0151716
854.221	0.0151325
854.299	0.0150275
854.378	0.0150877
854.456	0.0149650
854.534	0.0150574
854.612	0.0149002
854.690	0.0149846
854.768	0.0149950
854.846	0.0149637
854.924	0.0150047
855.003	0.0150189
855.081	0.0149688
855.159	0.0149840
855.237	0.0149294
855.315	0.0148341
855.393	0.0148608
855.471	0.0150975
855.549	0.0149648
855.628	0.0150447
855.706	0.0148356
855.784	0.0149756
855.862	0.0150626
855.940	0.0149663
856.018	0.0150134
856.096	0.0149566
856.174	0.0150389
856.253	0.0152215
856.331	0.0150436
856.409	0.0149886
856.487	0.0150466
856.565	0.0150180
856.643	0.0148206
856.721	0.0149019
856.799	0.0151012
856.878	0.0151245
856.956	0.0149088
857.034	0.0149150
857.112	0.0150365
857.190	0.0148540
857.268	0.0149181
857.346	0.0149885
857.424	0.0150761
857.503	0.0151005
857.581	0.0149574
857.659	0.0149565
857.737	0.0149005
857.815	0.0150108
857.893	0.0150483
857.971	0.0150619
858.049	0.0149862
858.128	0.0150993
858.206	0.0150083
858.284	0.0149516
858.362	0.0151202
858.440	0.0149849
858.518	0.0151079
858.596	0.0150719
858.674	0.0150358
858.753	0.0150968
858.831	0.0149564
858.909	0.0150321
858.987	0.0151016
859.065	0.0152229
859.143	0.0151408
859.221	0.0151182
859.299	0.0149774
859.378	0.0151792
859.456	0.0151749
859.534	0.0151757
859.612	0.0150117
859.690	0.0150859
859.768	0.0151685
859.846	0.0151037
859.924	0.0150866
860.003	0.0151212
860.081	0.0151684
860.159	0.0150823
860.237	0.0150455
860.315	0.0151688
860.393	0.0151179
860.471	0.0150214
860.549	0.0152057
860.628	0.0149882
860.706	0.0150375
860.784	0.0150275
860.862	0.0151077
860.940	0.0151065
861.018	0.0150618
861.096	0.0149806
861.174	0.0149161
861.253	0.0150623
861.331	0.0149472
861.409	0.0150404
861.487	0.0151842
861.565	0.0151195
861.643	0.0151067
861.721	0.0150492
861.799	0.0150840
861.878	0.0151318
861.956	0.0150506
862.034	0.0151208
862.112	0.0151374
862.190	0.0151779
862.268	0.0153091
862.346	0.0152087
862.424	0.0150484
862.503	0.0152465
862.581	0.0150939
862.659	0.0151676
862.737	0.0151212
862.815	0.0152611
862.893	0.0151784
862.971	0.0151396
863.049	0.0151987
863.128	0.0153350
863.206	0.0151674
863.284	0.0151259
863.362	0.0152757
863.440	0.0151687
863.518	0.0151859
863.596	0.0151582
863.674	0.0151141
863.753	0.0152208
863.831	0.0152171
863.909	0.0152118
863.987	0.0149921
864.065	0.0151940
864.143	0.0152416
864.221	0.0149638
864.299	0.0149947
864.378	0.0150137
864.456	0.0150999
864.534	0.0150552
864.612	0.0149313
864.690	0.0151173
864.768	0.0151968
864.846	0.0149815
864.924	0.0149412
865.003	0.0150996
865.081	0.0150602
865.159	0.0150406
865.237	0.0149580
865.315	0.0152003
865.393	0.0150776
865.471	0.0150868
865.549	0.0150188
865.628	0.0148842
865.706	0.0150439
865.784	0.0150561
865.862	0.0150881
865.940	0.0150724
866.018	0.0149006
866.096	0.0149339
866.174	0.0150615
866.253	0.0150801
866.331	0.0149931
866.409	0.0150278
866.487	0.0150176
866.565	0.0150043
866.643	0.0150908
866.721	0.0151076
866.799	0.0151134
866.878	0.0150806
866.956	0.0152303
867.034	0.0150414
867.112	0.0151194
867.190	0.0153395
867.268	0.0151414
867.346	0.0152610
867.424	0.0151471
867.503	0.0150667
867.581	0.0151838
867.659	0.0152351
867.737	0.0152058
867.815	0.0154204
867.893	0.0153371
867.971	0.0152732
868.049	0.0152586
868.128	0.0153706
868.206	0.0152551
868.284	0.0151422
868.362	0.0153154
868.440	0.0151716
868.518	0.0153267
868.596	0.0152284
868.674	0.0153573
868.753	0.0153500
868.831	0.0151884
868.909	0.0152988
868.987	0.0152213
869.065	0.0151605
869.143	0.0152237
869.221	0.0150279
869.299	0.0151115
869.378	0.0151562
869.456	0.0151945
869.534	0.0151307
869.612	0.0151817
869.690	0.0151499
869.768	0.0150735
869.846	0.0150238
869.924	0.0152348
870.003	0.0151048
870.081	0.0150517
870.159	0.0150005
870.237	0.0149718
870.315	0.0151231
870.393	0.0150043
870.471	0.0148356
870.549	0.0150841
870.628	0.0150436
870.706	0.0150720
870.784	0.0149607
870.862	0.0149851
870.940	0.0150573
871.018	0.0149943
871.096	0.0150008
871.174	0.0151125
871.253	0.0150430
871.331	0.0150407
871.409	0.0149796
871.487	0.0151828
871.565	0.0150081
871.643	0.0150120
871.721	0.0150262
871.799	0.0149702
871.878	0.0150643
871.956	0.0151016
872.034	0.0149814
872.112	0.0148402
872.190	0.0150482
872.268	0.0149249
872.346	0.0150306
872.424	0.0150349
872.503	0.0149513
872.581	0.0150050
872.659	0.0150111
872.737	0.0148465
872.815	0.0150433
872.893	0.0150183
872.971	0.0149043
873.049	0.0149416
873.128	0.0150569
873.206	0.0150652
873.284	0.0152335
873.362	0.0151041
873.440	0.0151099
873.518	0.0150857
873.596	0.0150462
873.674	0.0151765
873.753	0.0151525
873.831	0.0150436
873.909	0.0151256
873.987	0.0151512
874.065	0.0152083
874.143	0.0150824
874.221	0.0150836
874.299	0.0151003
874.378	0.0151286
874.456	0.0151450
874.534	0.0151576
874.612	0.0151311
874.690	0.0150223
874.768	0.0150096
874.846	0.0152299
874.924	0.0150309
875.003	0.0150651
875.081	0.0150166
875.159	0.0150713
875.237	0.0150149
875.315	0.0149964
875.393	0.0149649
875.471	0.0150788
875.549	0.0150048
875.628	0.0150143
875.706	0.0148850
875.784	0.0148374
875.862	0.0147898
875.940	0.0148695
876.018	0.0149181
876.096	0.0150374
876.174	0.0149629
876.253	0.0151104
876.331	0.0149442
876.409	0.0150183
876.487	0.0148804
876.565	0.0150507
876.643	0.0150815
876.721	0.0148803
876.799	0.0149741
876.878	0.0151440
876.956	0.0151088
877.034	0.0150211
877.112	0.0150345
877.190	0.0151416
877.268	0.0151356
877.346	0.0150211
877.424	0.0152271
877.503	0.0152756
877.581	0.0153237
877.659	0.0153072
877.737	0.0150674
877.815	0.0154411
877.893	0.0151786
877.971	0.0152717
878.049	0.0152176
878.128	0.0152669
878.206	0.0153210
878.284	0.0153355
878.362	0.0152710
878.440	0.0152263
878.518	0.0152163
878.596	0.0150942
878.674	0.0151687
878.753	0.0153340
878.831	0.0151301
878.909	0.0150706
878.987	0.0152972
879.065	0.0151981
879.143	0.0150677
879.221	0.0150921
879.299	0.0152465
879.378	0.0150619
879.456	0.0151080
879.534	0.0151754
879.612	0.0150909
879.690	0.0152492
879.768	0.0151581
879.846	0.0150396
879.924	0.0151746
880.003	0.0151611
880.081	0.0152208
880.159	0.0151183
880.237	0.0150181
880.315	0.0150223
880.393	0.0150510
880.471	0.0151647
880.549	0.0151920
880.628	0.0150824
880.706	0.0151129
880.784	0.0152013
880.862	0.0151324
880.940	0.0151775
881.018	0.0150061
881.096	0.0151491
881.174	0.0151583
881.253	0.0150889
881.331	0.0151742
881.409	0.0149613
881.487	0.0151139
881.565	0.0151224
881.643	0.0151195
881.721	0.0148922
881.799	0.0151067
881.878	0.0150690
881.956	0.0150832
882.034	0.0149841
882.112	0.0150849
882.190	0.0149566
882.268	0.0149905
882.346	0.0150722
882.424	0.0151273
882.503	0.0152075
882.581	0.0149728
882.659	0.0149477
882.737	0.0151750
882.815	0.0150813
882.893	0.0150602
882.971	0.0152517
883.049	0.0150941
883.128	0.0150270
883.206	0.0152223
883.284	0.0151143
883.362	0.0150587
883.440	0.0150425
883.518	0.0151906
883.596	0.0150019
883.674	0.0151612
883.753	0.0152338
883.831	0.0151281
883.909	0.0152223
883.987	0.0150864
884.065	0.0151005
884.143	0.0150791
884.221	0.0151712
884.299	0.0152824
884.378	0.0153902
884.456	0.0151917
884.534	0.0152592
884.612	0.0151775
884.690	0.0153481
884.768	0.0152005
884.846	0.0152428
884.924	0.0152849
885.003	0.0152242
885.081	0.0152280
885.159	0.0151979
885.237	0.0151235
885.315	0.0152501
885.393	0.0152934
885.471	0.0152126
885.549	0.0152401
885.628	0.0151926
885.706	0.0151186
885.784	0.0151963
885.862	0.0152196
885.940	0.0153402
886.018	0.0152390
886.096	0.0151909
886.174	0.0151840
886.253	0.0152261
886.331	0.0152933
886.409	0.0152209
886.487	0.0151923
886.565	0.0152480
886.643	0.0152539
886.721	0.0152198
886.799	0.0152666
886.878	0.0152742
886.956	0.0152058
887.034	0.0152399
887.112	0.0152055
887.190	0.0152309
887.268	0.0152326
887.346	0.0151810
887.424	0.0153098
887.503	0.0151441
887.581	0.0153113
887.659	0.0150844
887.737	0.0150683
887.815	0.0150960
887.893	0.0151661
887.971	0.0152057
888.049	0.0151203
888.128	0.0150725
888.206	0.0151605
888.284	0.0151959
888.362	0.0150545
888.440	0.0151391
888.518	0.0152007
888.596	0.0152557
888.674	0.0153104
888.753	0.0152818
888.831	0.0151502
888.909	0.0151219
888.987	0.0150854
889.065	0.0152300
889.143	0.0151624
889.221	0.0151629
889.299	0.0152525
889.378	0.0151303
889.456	0.0151428
889.534	0.0152421
889.612	0.0150549
889.690	0.0151527
889.768	0.0151892
889.846	0.0151605
889.924	0.0152847
890.003	0.0152329
890.081	0.0151567
890.159	0.0150751
890.237	0.0151112
890.315	0.0151969
890.393	0.0151170
890.471	0.0151717
890.549	0.0151636
890.628	0.0150894
890.706	0.0151715
890.784	0.0153272
890.862	0.0152213
890.940	0.0151482
891.018	0.0150645
891.096	0.0151679
891.174	0.0151873
891.253	0.0151122
891.331	0.0151987
891.409	0.0150984
891.487	0.0150955
891.565	0.0151056
891.643	0.0150953
891.721	0.0152340
891.799	0.0151314
891.878	0.0152734
891.956	0.0151661
892.034	0.0151714
892.112	0.0150954
892.190	0.0152474
892.268	0.0151121
892.346	0.0151244
892.424	0.0151855
892.503	0.0152260
892.581	0.0150740
892.659	0.0148516
892.737	0.0150813
892.815	0.0151705
892.893	0.0150633
892.971	0.0151794
893.049	0.0151627
893.128	0.0149750
893.206	0.0151278
893.284	0.0152721
893.362	0.0151511
893.440	0.0150754
893.518	0.0150602
893.596	0.0151475
893.674	0.0151385
893.753	0.0151062
893.831	0.0151796
893.909	0.0151569
893.987	0.0151405
894.065	0.0151457
894.143	0.0152378
894.221	0.0151598
894.299	0.0150554
894.378	0.0150755
894.456	0.0150475
894.534	0.0149659
894.612	0.0150372
894.690	0.0150432
894.768	0.0149651
894.846	0.0149315
894.924	0.0149393
895.003	0.0150730
895.081	0.0150888
895.159	0.0151350
895.237	0.0151279
895.315	0.0150901
895.393	0.0148995
895.471	0.0149124
895.549	0.0150571
895.628	0.0151305
895.706	0.0150287
895.784	0.0150669
895.862	0.0151395
895.940	0.0150234
896.018	0.0149908
896.096	0.0150027
896.174	0.0150765
896.253	0.0150120
896.331	0.0150340
896.409	0.0149860
896.487	0.0150014
896.565	0.0150919
896.643	0.0149386
896.721	0.0148728
896.799	0.0150177
896.878	0.0149473
896.956	0.0148475
897.034	0.0150007
897.112	0.0148653
897.190	0.0149316
897.268	0.0147709
897.346	0.0146894
897.424	0.0148422
897.503	0.0150149
897.581	0.0147758
897.659	0.0150133
897.737	0.0150505
897.815	0.0149082
897.893	0.0149311
897.971	0.0150085
898.049	0.0150643
898.128	0.0149760
898.206	0.0150793
898.284	0.0149979
898.362	0.0151205
898.440	0.0149925
898.518	0.0150372
898.596	0.0151128
898.674	0.0150624
898.753	0.0150117
898.831	0.0150505
898.909	0.0151485
898.987	0.0151521
899.065	0.0150277
899.143	0.0151252
899.221	0.0150314
899.299	0.0151425
899.378	0.0149921
899.456	0.0149865
899.534	0.0152335
899.612	0.0150847
899.690	0.0151223
899.768	0.0151352
899.846	0.0150935
899.924	0.0151785
900.003	0.0149908
900.081	0.0150375
900.159	0.0151816
900.237	0.0151770
900.315	0.0150453
900.393	0.0151689
900.471	0.0151160
900.549	0.0150400
900.628	0.0151401
900.706	0.0151892
900.784	0.0152576
900.862	0.0150842
900.940	0.0151386
901.018	0.0153139
901.096	0.0151431
901.174	0.0152450
901.253	0.0153979
901.331	0.0152388
901.409	0.0151722
901.487	0.0152596
901.565	0.0152574
901.643	0.0151667
901.721	0.0153451
901.799	0.0152824
901.878	0.0152278
901.956	0.0152965
902.034	0.0152313
902.112	0.0152210
902.190	0.0153014
902.268	0.0153931
902.346	0.0152708
902.424	0.0153105
902.503	0.0152901
902.581	0.0151414
902.659	0.0152564
902.737	0.0150853
902.815	0.0151434
902.893	0.0152522
902.971	0.0153145
903.049	0.0151819
903.128	0.0152724
903.206	0.0150941
903.284	0.0151518
903.362	0.0153908
903.440	0.0151939
903.518	0.0154114
903.596	0.0151527
903.674	0.0152426
903.753	0.0151852
903.831	0.0153317
903.909	0.0151790
903.987	0.0151700
904.065	0.0151252
904.143	0.0152045
904.221	0.0152223
904.299	0.0151031
904.378	0.0150784
904.456	0.0152083
904.534	0.0151733
904.612	0.0151231
904.690	0.0152410
904.768	0.0152369
904.846	0.0152659
904.924	0.0152106
905.003	0.0152277
905.081	0.0152751
905.159	0.0150089
905.237	0.0153192
905.315	0.0153158
905.393	0.0151727
905.471	0.0151320
905.549	0.0151466
905.628	0.0153280
905.706	0.0151517
905.784	0.0152373
905.862	0.0152949
905.940	0.0151813
906.018	0.0152458
906.096	0.0153093
906.174	0.0153349
906.253	0.0151691
906.331	0.0152471
906.409	0.0152673
906.487	0.0153158
906.565	0.0153240
906.643	0.0153276
906.721	0.0153642
906.799	0.0150589
906.878	0.0151728
906.956	0.0153286
907.034	0.0152420
907.112	0.0151548
907.190	0.0152119
907.268	0.0152190
907.346	0.0151779
907.424	0.0152111
907.503	0.0151134
907.581	0.0151962
907.659	0.0151338
907.737	0.0150793
907.815	0.0151952
907.893	0.0150467
907.971	0.0150100
908.049	0.0150544
908.128	0.0151608
908.206	0.0151376
908.284	0.0150306
908.362	0.0150301
908.440	0.0150315
908.518	0.0149790
908.596	0.0151502
908.674	0.0151124
908.753	0.0150720
908.831	0.0150589
908.909	0.0150710
908.987	0.0150752
909.065	0.0150509
909.143	0.0150437
909.221	0.0152550
909.299	0.0149548
909.378	0.0149805
909.456	0.0150930
909.534	0.0150349
909.612	0.0152933
909.690	0.0151964
909.768	0.0151053
909.846	0.0150293
909.924	0.0151043
910.003	0.0151146
910.081	0.0150600
910.159	0.0151106
910.237	0.0151048
910.315	0.0151015
910.393	0.0149657
910.471	0.0150397
910.549	0.0150972
910.628	0.0149474
910.706	0.0150257
910.784	0.0151257
910.862	0.0150911
910.940	0.0150759
911.018	0.0151939
911.096	0.0151350
911.174	0.0150562
911.253	0.0149802
911.331	0.0149820
911.409	0.0149556
911.487	0.0150542
911.565	0.0150637
911.643	0.0150656
911.721	0.0150913
911.799	0.0150814
911.878	0.0149198
911.956	0.0149039
912.034	0.0150874
912.112	0.0150928
912.190	0.0150887
912.268	0.0151666
912.346	0.0151224
912.424	0.0150172
912.503	0.0151458
912.581	0.0150993
912.659	0.0152222
912.737	0.0151363
912.815	0.0150859
912.893	0.0151579
912.971	0.0151266
913.049	0.0151006
913.128	0.0152139
913.206	0.0152114
913.284	0.0152129
913.362	0.0153071
913.440	0.0152532
913.518	0.0151811
913.596	0.0150884
913.674	0.0152599
913.753	0.0153273
913.831	0.0152489
913.909	0.0152607
913.987	0.0152656
914.065	0.0152376
914.143	0.0153631
914.221	0.0150427
914.299	0.0152568
914.378	0.0151760
914.456	0.0152942
914.534	0.0151595
914.612	0.0151919
914.690	0.0150970
914.768	0.0150528
914.846	0.0151313
914.924	0.0151196
915.003	0.0151677
915.081	0.0151991
915.159	0.0151347
915.237	0.0152132
915.315	0.0151347
915.393	0.0152065
915.471	0.0151488
915.549	0.0151097
915.628	0.0151171
915.706	0.0152434
915.784	0.0152168
915.862	0.0150391
915.940	0.0150716
916.018	0.0152431
916.096	0.0151656
916.174	0.0150268
916.253	0.0151460
916.331	0.0150510
916.409	0.0151512
916.487	0.0151867
916.565	0.0152879
916.643	0.0150658
916.721	0.0151283
916.799	0.0151920
916.878	0.0151935
916.956	0.0152244
917.034	0.0151774
917.112	0.0151578
917.190	0.0151000
917.268	0.0150723
917.346	0.0151380
917.424	0.0150356
917.503	0.0150901
917.581	0.0151545
917.659	0.0149861
917.737	0.0151035
917.815	0.0151096
917.893	0.0150891
917.971	0.0150883
918.049	0.0150389
918.128	0.0151313
918.206	0.0150614
918.284	0.0151675
918.362	0.0150518
918.440	0.0150745
918.518	0.0153131
918.596	0.0151791
918.674	0.0152386
918.753	0.0152112
918.831	0.0152560
918.909	0.0153085
918.987	0.0151096
919.065	0.0152525
919.143	0.0152785
919.221	0.0151065
919.299	0.0151087
919.378	0.0151759
919.456	0.0151289
919.534	0.0152794
919.612	0.0151077
919.690	0.0151872
919.768	0.0151202
919.846	0.0150800
919.924	0.0150808
920.003	0.0149690
920.081	0.0150510
920.159	0.0149701
920.237	0.0150592
920.315	0.0149715
920.393	0.0149471
920.471	0.0150700
920.549	0.0151341
920.628	0.0150382
920.706	0.0148888
920.784	0.0149407
920.862	0.0151234
920.940	0.0150583
921.018	0.0150357
921.096	0.0150880
921.174	0.0151830
921.253	0.0150020
921.331	0.0151296
921.409	0.0150137
921.487	0.0150686
921.565	0.0151901
921.643	0.0151693
921.721	0.0150010
921.799	0.0151302
921.878	0.0152902
921.956	0.0151829
922.034	0.0151864
922.112	0.0152551
922.190	0.0152209
922.268	0.0151810
922.346	0.0151561
922.424	0.0151041
922.503	0.0153132
922.581	0.0153202
922.659	0.0150755
922.737	0.0151923
922.815	0.0151253
922.893	0.0152477
922.971	0.0150933
923.049	0.0152129
923.128	0.0149568
923.206	0.0151160
923.284	0.0151292
923.362	0.0150222
923.440	0.0149430
923.518	0.0148181
923.596	0.0149174
923.674	0.0149895
923.753	0.0149910
923.831	0.0149377
923.909	0.0150717
923.987	0.0148929
924.065	0.0150198
924.143	0.0149924
924.221	0.0151118
924.299	0.0150011
924.378	0.0149749
924.456	0.0150336
924.534	0.0149945
924.612	0.0151163
924.690	0.0151878
924.768	0.0151135
924.846	0.0152876
924.924	0.0152186
925.003	0.0151545
925.081	0.0151170
925.159	0.0151230
925.237	0.0151732
925.315	0.0151990
925.393	0.0150205
925.471	0.0151703
925.549	0.0152466
925.628	0.0151525
925.706	0.0152101
925.784	0.0152060
925.862	0.0152787
925.940	0.0150563
926.018	0.0151884
926.096	0.0150834
926.174	0.0150333
926.253	0.0149265
926.331	0.0150710
926.409	0.0150546
926.487	0.0150058
926.565	0.0151135
926.643	0.0150616
926.721	0.0151122
926.799	0.0150234
926.878	0.0149847
926.956	0.0151431
927.034	0.0151802
927.112	0.0151173
927.190	0.0151105
927.268	0.0150559
927.346	0.0151257
927.424	0.0151097
927.503	0.0150690
927.581	0.0151189
927.659	0.0150315
927.737	0.0150414
927.815	0.0150749
927.893	0.0150835
927.971	0.0148735
928.049	0.0150382
928.128	0.0151128
928.206	0.0150611
928.284	0.0150448
928.362	0.0150597
928.440	0.0149773
928.518	0.0149880
928.596	0.0149278
928.674	0.0150439
928.753	0.0150404
928.831	0.0149928
928.909	0.0149309
928.987	0.0149122
929.065	0.0149144
929.143	0.0150828
929.221	0.0149994
929.299	0.0150140
929.378	0.0151086
929.456	0.0148839
929.534	0.0149013
929.612	0.0150304
929.690	0.0149265
929.768	0.0150586
929.846	0.0149300
929.924	0.0150831
930.003	0.0151398
930.081	0.0150874
930.159	0.0149974
930.237	0.0151012
930.315	0.0150243
930.393	0.0149646
930.471	0.0151260
930.549	0.0151205
930.628	0.0150578
930.706	0.0152022
930.784	0.0150377
930.862	0.0150266
930.940	0.0151387
931.018	0.0151424
931.096	0.0149944
931.174	0.0151440
931.253	0.0151189
931.331	0.0148812
931.409	0.0150095
931.487	0.0151225
931.565	0.0149906
931.643	0.0149990
931.721	0.0150628
931.799	0.0151131
931.878	0.0150386
931.956	0.0152530
932.034	0.0151081
932.112	0.0150773
932.190	0.0150542
932.268	0.0150420
932.346	0.0151323
932.424	0.0150885
932.503	0.0150912
932.581	0.0150534
932.659	0.0150524
932.737	0.0151180
932.815	0.0150370
932.893	0.0150399
932.971	0.0149747
933.049	0.0151511
933.128	0.0149975
933.206	0.0150533
933.284	0.0150715
933.362	0.0150213
933.440	0.0149940
933.518	0.0149603
933.596	0.0150078
933.674	0.0150198
933.753	0.0149239
933.831	0.0148927
933.909	0.0151196
933.987	0.0149985
934.065	0.0147704
934.143	0.0151526
934.221	0.0150424
934.299	0.0150158
934.378	0.0149565
934.456	0.0149925
934.534	0.0149760
934.612	0.0149371
934.690	0.0149370
934.768	0.0149915
934.846	0.0150795
934.924	0.0149115
935.003	0.0149821
935.081	0.0149297
935.159	0.0148257
935.237	0.0149947
935.315	0.0149676
935.393	0.0149940
935.471	0.0148722
935.549	0.0150996
935.628	0.0149335
935.706	0.0149611
935.784	0.0151006
935.862	0.0151590
935.940	0.0148666
936.018	0.0150574
936.096	0.0151059
936.174	0.0152006
936.253	0.0151332
936.331	0.0151644
936.409	0.0150522
936.487	0.0151483
936.565	0.0150567
936.643	0.0151793
936.721	0.0152215
936.799	0.0151467
936.878	0.0149937
936.956	0.0150664
937.034	0.0151377
937.112	0.0150680
937.190	0.0150952
937.268	0.0151584
937.346	0.0150941
937.424	0.0149544
937.503	0.0150333
937.581	0.0151869
937.659	0.0150321
937.737	0.0150980
937.815	0.0150585
937.893	0.0151820
937.971	0.0151246
938.049	0.0148857
938.128	0.0150231
938.206	0.0149610
938.284	0.0149775
938.362	0.0149389
938.440	0.0150552
938.518	0.0150011
938.596	0.0149815
938.674	0.0149658
938.753	0.0151305
938.831	0.0150373
938.909	0.0149718
938.987	0.0150351
939.065	0.0149390
939.143	0.0150223
939.221	0.0148868
939.299	0.0149421
939.378	0.0151184
939.456	0.0149419
939.534	0.0150967
939.612	0.0151535
939.690	0.0151172
939.768	0.0150206
939.846	0.0151802
939.924	0.0150881
940.003	0.0150607
940.081	0.0151205
940.159	0.0151283
940.237	0.0150293
940.315	0.0151183
940.393	0.0151389
940.471	0.0149565
940.549	0.0150579
940.628	0.0150155
940.706	0.0150241
940.784	0.0150953
940.862	0.0150546
940.940	0.0151369
941.018	0.0151359
941.096	0.0150642
941.174	0.0151445
941.253	0.0151946
941.331	0.0150861
941.409	0.0151492
941.487	0.0151140
941.565	0.0151368
941.643	0.0150697
941.721	0.0150688
941.799	0.0152264
941.878	0.0150585
941.956	0.0149702
942.034	0.0150224
942.112	0.0150869
942.190	0.0149286
942.268	0.0148323
942.346	0.0150607
942.424	0.0150597
942.503	0.0149726
942.581	0.0150140
942.659	0.0149627
942.737	0.0151175
942.815	0.0150139
942.893	0.0150564
942.971	0.0150181
943.049	0.0149509
943.128	0.0151251
943.206	0.0149978
943.284	0.0149836
943.362	0.0150723
943.440	0.0151668
943.518	0.0151514
943.596	0.0151231
943.674	0.0150977
943.753	0.0149421
943.831	0.0151333
943.909	0.0149111
943.987	0.0150524
944.065	0.0151113
944.143	0.0151363
944.221	0.0151353
944.299	0.0149480
944.378	0.0149308
944.456	0.0151156
944.534	0.0151867
944.612	0.0150327
944.690	0.0150272
944.768	0.0150695
944.846	0.0150238
944.924	0.0150494
945.003	0.0151672
945.081	0.0150719
945.159	0.0151040
945.237	0.0149505
945.315	0.0151196
945.393	0.0151817
945.471	0.0150260
945.549	0.0151788
945.628	0.0151647
945.706	0.0150776
945.784	0.0150328
945.862	0.0151339
945.940	0.0151105
946.018	0.0150577
946.096	0.0153107
946.174	0.0152678
946.253	0.0151532
946.331	0.0151001
946.409	0.0151342
946.487	0.0150932
946.565	0.0151856
946.643	0.0152136
946.721	0.0151678
946.799	0.0152812
946.878	0.0151704
946.956	0.0151083
947.034	0.0151846
947.112	0.0152872
947.190	0.0150651
947.268	0.0150089
947.346	0.0151742
947.424	0.0151664
947.503	0.0151836
947.581	0.0152033
947.659	0.0152012
947.737	0.0151628
947.815	0.0150821
947.893	0.0151981
947.971	0.0152771
948.049	0.0152020
948.128	0.0152190
948.206	0.0151195
948.284	0.0151643
948.362	0.0151645
948.440	0.0151834
948.518	0.0151131
948.596	0.0151091
948.674	0.0150551
948.753	0.0150951
948.831	0.0151731
948.909	0.0151386
948.987	0.0151923
949.065	0.0151646
949.143	0.0150587
949.221	0.0150572
949.299	0.0151181
949.378	0.0149396
949.456	0.0151019
949.534	0.0151739
949.612	0.0150901
949.690	0.0149759
949.768	0.0150507
949.846	0.0149921
949.924	0.0150751
