06/29/2022	23:12:31	Ver.	4.1	UNKNOWN
Optical Delay	630.002507	Delta X		0.078125	Sweeps	1	Scan Rate	0/0
Coordinates	Axis 1	NaN	Axis 2	NaN	Axis 3	NaN	Axis 4	NaN	Axis 5	NaN	Axis 6	0.000000
TX Power	0.000000	RX Power	0.000000

630.003	0.0159220
630.081	0.0159663
630.159	0.0158298
630.237	0.0159684
630.315	0.0159473
630.393	0.0159870
630.471	0.0159244
630.549	0.0158092
630.628	0.0160191
630.706	0.0159210
630.784	0.0158521
630.862	0.0159225
630.940	0.0158691
631.018	0.0159195
631.096	0.0160061
631.174	0.0159018
631.253	0.0159377
631.331	0.0158363
631.409	0.0158298
631.487	0.0160068
631.565	0.0158817
631.643	0.0158294
631.721	0.0159403
631.799	0.0159800
631.878	0.0160544
631.956	0.0159698
632.034	0.0159978
632.112	0.0160067
632.190	0.0160683
632.268	0.0159908
632.346	0.0160667
632.424	0.0159341
632.503	0.0159650
632.581	0.0160242
632.659	0.0160639
632.737	0.0159499
632.815	0.0159199
632.893	0.0160290
632.971	0.0160362
633.049	0.0161533
633.128	0.0159174
633.206	0.0160764
633.284	0.0161863
633.362	0.0159020
633.440	0.0160094
633.518	0.0162328
633.596	0.0160747
633.674	0.0160663
633.753	0.0160175
633.831	0.0159946
633.909	0.0161081
633.987	0.0161600
634.065	0.0160049
634.143	0.0160505
634.221	0.0161408
634.299	0.0160130
634.378	0.0159983
634.456	0.0159795
634.534	0.0159167
634.612	0.0159546
634.690	0.0160127
634.768	0.0158672
634.846	0.0160234
634.924	0.0160400
635.003	0.0160262
635.081	0.0160530
635.159	0.0159650
635.237	0.0160253
635.315	0.0159958
635.393	0.0161224
635.471	0.0160560
635.549	0.0159596
635.628	0.0161488
635.706	0.0160562
635.784	0.0160976
635.862	0.0161104
635.940	0.0162830
636.018	0.0159962
636.096	0.0160585
636.174	0.0161008
636.253	0.0161784
636.331	0.0162364
636.409	0.0161536
636.487	0.0161378
636.565	0.0161613
636.643	0.0160616
636.721	0.0159772
636.799	0.0160736
636.878	0.0161325
636.956	0.0161484
637.034	0.0160272
637.112	0.0162178
637.190	0.0160273
637.268	0.0161246
637.346	0.0160052
637.424	0.0160842
637.503	0.0160536
637.581	0.0159536
637.659	0.0160934
637.737	0.0161858
637.815	0.0160403
637.893	0.0159724
637.971	0.0161298
638.049	0.0160811
638.128	0.0159091
638.206	0.0159570
638.284	0.0160436
638.362	0.0160618
638.440	0.0159757
638.518	0.0159383
638.596	0.0157993
638.674	0.0159760
638.753	0.0160524
638.831	0.0160252
638.909	0.0158847
638.987	0.0159694
639.065	0.0160111
639.143	0.0160017
639.221	0.0158804
639.299	0.0158850
639.378	0.0159380
639.456	0.0160118
639.534	0.0160277
639.612	0.0159930
639.690	0.0161227
639.768	0.0159427
639.846	0.0159908
639.924	0.0159552
640.003	0.0160179
640.081	0.0160324
640.159	0.0160747
640.237	0.0159871
640.315	0.0159730
640.393	0.0160791
640.471	0.0159363
640.549	0.0159885
640.628	0.0160851
640.706	0.0158697
640.784	0.0159443
640.862	0.0159008
640.940	0.0159311
641.018	0.0160327
641.096	0.0159814
641.174	0.0159129
641.253	0.0159554
641.331	0.0159338
641.409	0.0159835
641.487	0.0159721
641.565	0.0159998
641.643	0.0159995
641.721	0.0159600
641.799	0.0158652
641.878	0.0158514
641.956	0.0160098
642.034	0.0159947
642.112	0.0159245
642.190	0.0159754
642.268	0.0158682
642.346	0.0159692
642.424	0.0162085
642.503	0.0161237
642.581	0.0158720
642.659	0.0159452
642.737	0.0159272
642.815	0.0159805
642.893	0.0160219
642.971	0.0160918
643.049	0.0159802
643.128	0.0159969
643.206	0.0159754
643.284	0.0160756
643.362	0.0159682
643.440	0.0158801
643.518	0.0160582
643.596	0.0159596
643.674	0.0159485
643.753	0.0159403
643.831	0.0159434
643.909	0.0160393
643.987	0.0160180
644.065	0.0160197
644.143	0.0158557
644.221	0.0160303
644.299	0.0159206
644.378	0.0161132
644.456	0.0159603
644.534	0.0158747
644.612	0.0159244
644.690	0.0159718
644.768	0.0159400
644.846	0.0160849
644.924	0.0158921
645.003	0.0159739
645.081	0.0159928
645.159	0.0159589
645.237	0.0160336
645.315	0.0158949
645.393	0.0159128
645.471	0.0158488
645.549	0.0160493
645.628	0.0159882
645.706	0.0159934
645.784	0.0160002
645.862	0.0159913
645.940	0.0160123
646.018	0.0159946
646.096	0.0159707
646.174	0.0161172
646.253	0.0159270
646.331	0.0159599
646.409	0.0158696
646.487	0.0159769
646.565	0.0159978
646.643	0.0160289
646.721	0.0159575
646.799	0.0159129
646.878	0.0159071
646.956	0.0159525
647.034	0.0159433
647.112	0.0159573
647.190	0.0159949
647.268	0.0158917
647.346	0.0159948
647.424	0.0160654
647.503	0.0160001
647.581	0.0159505
647.659	0.0159600
647.737	0.0159184
647.815	0.0159676
647.893	0.0159236
647.971	0.0158929
648.049	0.0159423
648.128	0.0159654
648.206	0.0159663
648.284	0.0161144
648.362	0.0159850
648.440	0.0159299
648.518	0.0159720
648.596	0.0159439
648.674	0.0160103
648.753	0.0159063
648.831	0.0159111
648.909	0.0159843
648.987	0.0158402
649.065	0.0159799
649.143	0.0159795
649.221	0.0158643
649.299	0.0159015
649.378	0.0160184
649.456	0.0159690
649.534	0.0160476
649.612	0.0158520
649.690	0.0159012
649.768	0.0160838
649.846	0.0160486
649.924	0.0158683
650.003	0.0157962
650.081	0.0161068
650.159	0.0160493
650.237	0.0158918
650.315	0.0157860
650.393	0.0158327
650.471	0.0158754
650.549	0.0159779
650.628	0.0158653
650.706	0.0158798
650.784	0.0158791
650.862	0.0158556
650.940	0.0159023
651.018	0.0159203
651.096	0.0158491
651.174	0.0159383
651.253	0.0157935
651.331	0.0159127
651.409	0.0158888
651.487	0.0158575
651.565	0.0158160
651.643	0.0159003
651.721	0.0159402
651.799	0.0158642
651.878	0.0158560
651.956	0.0159698
652.034	0.0157464
652.112	0.0158727
652.190	0.0159876
652.268	0.0159380
652.346	0.0158792
652.424	0.0158797
652.503	0.0160134
652.581	0.0158173
652.659	0.0158991
652.737	0.0158641
652.815	0.0158679
652.893	0.0160039
652.971	0.0160176
653.049	0.0159624
653.128	0.0158099
653.206	0.0157605
653.284	0.0159473
653.362	0.0157907
653.440	0.0158452
653.518	0.0158853
653.596	0.0157944
653.674	0.0157738
653.753	0.0158935
653.831	0.0159314
653.909	0.0159467
653.987	0.0158179
654.065	0.0158527
654.143	0.0159566
654.221	0.0158947
654.299	0.0158497
654.378	0.0158588
654.456	0.0158788
654.534	0.0157887
654.612	0.0159631
654.690	0.0158552
654.768	0.0157867
654.846	0.0159163
654.924	0.0159064
655.003	0.0160564
655.081	0.0158275
655.159	0.0159726
655.237	0.0159117
655.315	0.0159983
655.393	0.0158188
655.471	0.0158723
655.549	0.0158674
655.628	0.0157525
655.706	0.0159564
655.784	0.0160681
655.862	0.0160043
655.940	0.0158850
656.018	0.0158414
656.096	0.0158633
656.174	0.0159361
656.253	0.0159476
656.331	0.0158909
656.409	0.0159679
656.487	0.0159565
656.565	0.0158375
656.643	0.0160275
656.721	0.0160298
656.799	0.0158113
656.878	0.0159325
656.956	0.0159866
657.034	0.0160565
657.112	0.0159599
657.190	0.0160163
657.268	0.0159842
657.346	0.0160284
657.424	0.0160978
657.503	0.0160165
657.581	0.0159571
657.659	0.0159506
657.737	0.0160045
657.815	0.0160281
657.893	0.0159454
657.971	0.0160449
658.049	0.0160183
658.128	0.0159330
658.206	0.0161053
658.284	0.0161233
658.362	0.0160500
658.440	0.0159867
658.518	0.0160066
658.596	0.0160049
658.674	0.0158987
658.753	0.0159974
658.831	0.0161097
658.909	0.0160178
658.987	0.0160651
659.065	0.0160386
659.143	0.0159348
659.221	0.0160015
659.299	0.0160471
659.378	0.0160031
659.456	0.0159073
659.534	0.0160093
659.612	0.0161843
659.690	0.0158990
659.768	0.0158243
659.846	0.0159324
659.924	0.0159993
660.003	0.0160204
660.081	0.0160723
660.159	0.0159982
660.237	0.0160377
660.315	0.0158853
660.393	0.0158357
660.471	0.0160009
660.549	0.0159734
660.628	0.0160362
660.706	0.0160214
660.784	0.0160010
660.862	0.0161214
660.940	0.0160180
661.018	0.0158580
661.096	0.0158751
661.174	0.0158841
661.253	0.0159264
661.331	0.0159950
661.409	0.0160269
661.487	0.0160223
661.565	0.0159774
661.643	0.0158066
661.721	0.0159367
661.799	0.0159657
661.878	0.0158531
661.956	0.0158754
662.034	0.0159647
662.112	0.0158311
662.190	0.0157963
662.268	0.0159772
662.346	0.0158524
662.424	0.0157817
662.503	0.0157556
662.581	0.0159032
662.659	0.0157590
662.737	0.0158567
662.815	0.0158430
662.893	0.0158833
662.971	0.0158792
663.049	0.0156998
663.128	0.0159390
663.206	0.0159418
663.284	0.0158604
663.362	0.0158933
663.440	0.0157384
663.518	0.0157529
663.596	0.0158740
663.674	0.0157409
663.753	0.0158190
663.831	0.0158470
663.909	0.0159222
663.987	0.0157728
664.065	0.0158455
664.143	0.0158723
664.221	0.0159161
664.299	0.0157874
664.378	0.0158369
664.456	0.0159609
664.534	0.0159247
664.612	0.0156776
664.690	0.0159016
664.768	0.0158887
664.846	0.0157710
664.924	0.0157219
665.003	0.0158617
665.081	0.0157668
665.159	0.0158955
665.237	0.0158923
665.315	0.0158698
665.393	0.0157139
665.471	0.0158255
665.549	0.0157584
665.628	0.0157897
665.706	0.0157844
665.784	0.0157919
665.862	0.0157516
665.940	0.0158303
666.018	0.0158221
666.096	0.0157429
666.174	0.0157765
666.253	0.0157991
666.331	0.0157958
666.409	0.0159254
666.487	0.0158089
666.565	0.0157706
666.643	0.0157331
666.721	0.0159239
666.799	0.0159058
666.878	0.0159308
666.956	0.0159872
667.034	0.0158881
667.112	0.0157025
667.190	0.0158753
667.268	0.0157426
667.346	0.0157202
667.424	0.0159571
667.503	0.0158530
667.581	0.0159245
667.659	0.0159521
667.737	0.0158036
667.815	0.0157973
667.893	0.0158897
667.971	0.0158504
668.049	0.0157268
668.128	0.0157576
668.206	0.0158564
668.284	0.0157819
668.362	0.0156441
668.440	0.0159594
668.518	0.0159129
668.596	0.0159265
668.674	0.0157738
668.753	0.0158936
668.831	0.0158878
668.909	0.0158352
668.987	0.0158303
669.065	0.0157946
669.143	0.0158572
669.221	0.0159811
669.299	0.0159208
669.378	0.0157949
669.456	0.0157788
669.534	0.0158075
669.612	0.0158987
669.690	0.0159624
669.768	0.0159466
669.846	0.0158980
669.924	0.0157327
670.003	0.0159389
670.081	0.0158613
670.159	0.0158382
670.237	0.0157809
670.315	0.0159653
670.393	0.0159434
670.471	0.0157625
670.549	0.0159390
670.628	0.0158630
670.706	0.0158746
670.784	0.0158015
670.862	0.0159829
670.940	0.0159051
671.018	0.0159312
671.096	0.0158798
671.174	0.0159215
671.253	0.0159340
671.331	0.0157323
671.409	0.0157970
671.487	0.0159119
671.565	0.0159508
671.643	0.0159204
671.721	0.0158394
671.799	0.0156858
671.878	0.0156630
671.956	0.0158092
672.034	0.0160671
672.112	0.0158571
672.190	0.0157854
672.268	0.0159088
672.346	0.0158496
672.424	0.0158487
672.503	0.0159231
672.581	0.0158362
672.659	0.0157434
672.737	0.0159551
672.815	0.0159116
672.893	0.0158469
672.971	0.0159334
673.049	0.0158768
673.128	0.0157964
673.206	0.0157639
673.284	0.0159440
673.362	0.0159944
673.440	0.0157787
673.518	0.0158681
673.596	0.0156934
673.674	0.0159061
673.753	0.0157634
673.831	0.0157959
673.909	0.0158681
673.987	0.0159158
674.065	0.0159093
674.143	0.0159095
674.221	0.0158287
674.299	0.0156640
674.378	0.0157336
674.456	0.0157293
674.534	0.0158566
674.612	0.0157645
674.690	0.0157994
674.768	0.0158469
674.846	0.0157848
674.924	0.0159092
675.003	0.0159933
675.081	0.0158199
675.159	0.0159111
675.237	0.0158947
675.315	0.0158913
675.393	0.0156811
675.471	0.0158801
675.549	0.0158488
675.628	0.0158898
675.706	0.0159215
675.784	0.0158727
675.862	0.0157497
675.940	0.0157964
676.018	0.0157703
676.096	0.0157628
676.174	0.0158444
676.253	0.0157668
676.331	0.0157347
676.409	0.0157523
676.487	0.0157592
676.565	0.0158743
676.643	0.0156570
676.721	0.0157870
676.799	0.0158958
676.878	0.0157723
676.956	0.0157817
677.034	0.0157355
677.112	0.0159127
677.190	0.0158499
677.268	0.0158664
677.346	0.0158365
677.424	0.0159566
677.503	0.0158956
677.581	0.0159569
677.659	0.0159493
677.737	0.0159579
677.815	0.0158677
677.893	0.0158358
677.971	0.0158602
678.049	0.0159261
678.128	0.0157577
678.206	0.0159120
678.284	0.0158681
678.362	0.0157272
678.440	0.0160307
678.518	0.0159795
678.596	0.0157996
678.674	0.0157859
678.753	0.0159361
678.831	0.0158019
678.909	0.0158875
678.987	0.0158913
679.065	0.0159309
679.143	0.0159322
679.221	0.0159560
679.299	0.0160251
679.378	0.0158939
679.456	0.0158857
679.534	0.0158913
679.612	0.0158816
679.690	0.0160145
679.768	0.0158244
679.846	0.0159641
679.924	0.0159215
680.003	0.0159216
680.081	0.0158319
680.159	0.0159150
680.237	0.0159217
680.315	0.0158474
680.393	0.0159548
680.471	0.0160242
680.549	0.0159684
680.628	0.0159348
680.706	0.0159786
680.784	0.0160370
680.862	0.0159418
680.940	0.0159146
681.018	0.0158382
681.096	0.0158901
681.174	0.0159673
681.253	0.0158738
681.331	0.0159010
681.409	0.0157365
681.487	0.0158219
681.565	0.0159144
681.643	0.0158830
681.721	0.0158440
681.799	0.0158887
681.878	0.0158698
681.956	0.0158505
682.034	0.0159338
682.112	0.0158167
682.190	0.0159987
682.268	0.0158389
682.346	0.0159901
682.424	0.0158738
682.503	0.0159187
682.581	0.0158761
682.659	0.0160006
682.737	0.0157905
682.815	0.0158543
682.893	0.0159262
682.971	0.0158755
683.049	0.0158891
683.128	0.0159612
683.206	0.0159535
683.284	0.0159352
683.362	0.0158693
683.440	0.0159755
683.518	0.0159769
683.596	0.0159209
683.674	0.0159951
683.753	0.0160258
683.831	0.0159160
683.909	0.0160430
683.987	0.0160056
684.065	0.0159694
684.143	0.0159848
684.221	0.0159478
684.299	0.0159051
684.378	0.0159010
684.456	0.0160105
684.534	0.0160125
684.612	0.0160384
684.690	0.0160421
684.768	0.0159235
684.846	0.0159707
684.924	0.0159074
685.003	0.0160312
685.081	0.0159271
685.159	0.0159582
685.237	0.0159937
685.315	0.0160411
685.393	0.0158883
685.471	0.0159100
685.549	0.0158673
685.628	0.0159874
685.706	0.0158968
685.784	0.0158830
685.862	0.0159458
685.940	0.0159831
686.018	0.0160372
686.096	0.0158917
686.174	0.0159592
686.253	0.0159097
686.331	0.0159180
686.409	0.0159097
686.487	0.0159891
686.565	0.0158644
686.643	0.0158223
686.721	0.0158851
686.799	0.0157896
686.878	0.0158226
686.956	0.0159900
687.034	0.0158625
687.112	0.0158390
687.190	0.0158794
687.268	0.0158997
687.346	0.0158425
687.424	0.0159815
687.503	0.0158793
687.581	0.0159328
687.659	0.0159432
687.737	0.0158524
687.815	0.0159195
687.893	0.0158817
687.971	0.0158310
688.049	0.0157384
688.128	0.0158408
688.206	0.0159017
688.284	0.0158691
688.362	0.0158653
688.440	0.0158102
688.518	0.0158701
688.596	0.0158035
688.674	0.0158318
688.753	0.0158559
688.831	0.0157883
688.909	0.0158485
688.987	0.0158839
689.065	0.0157864
689.143	0.0158061
689.221	0.0157750
689.299	0.0157705
689.378	0.0157922
689.456	0.0158618
689.534	0.0158807
689.612	0.0157825
689.690	0.0157063
689.768	0.0159074
689.846	0.0159026
689.924	0.0157832
690.003	0.0157661
690.081	0.0158478
690.159	0.0159267
690.237	0.0157993
690.315	0.0158796
690.393	0.0159235
690.471	0.0158369
690.549	0.0157333
690.628	0.0158882
690.706	0.0159160
690.784	0.0157751
690.862	0.0157873
690.940	0.0157767
691.018	0.0157824
691.096	0.0157917
691.174	0.0157602
691.253	0.0158064
691.331	0.0159077
691.409	0.0158742
691.487	0.0159224
691.565	0.0157188
691.643	0.0157921
691.721	0.0157566
691.799	0.0157928
691.878	0.0158469
691.956	0.0160651
692.034	0.0158465
692.112	0.0158628
692.190	0.0159769
692.268	0.0159856
692.346	0.0158844
692.424	0.0159115
692.503	0.0158701
692.581	0.0159071
692.659	0.0159171
692.737	0.0158997
692.815	0.0159549
692.893	0.0158978
692.971	0.0160059
693.049	0.0160081
693.128	0.0160005
693.206	0.0159471
693.284	0.0160474
693.362	0.0159592
693.440	0.0160158
693.518	0.0159383
693.596	0.0161072
693.674	0.0160332
693.753	0.0159826
693.831	0.0159341
693.909	0.0160266
693.987	0.0159829
694.065	0.0159691
694.143	0.0158598
694.221	0.0159974
694.299	0.0158321
694.378	0.0159850
694.456	0.0159958
694.534	0.0159550
694.612	0.0159875
694.690	0.0159713
694.768	0.0159665
694.846	0.0159917
694.924	0.0160230
695.003	0.0159859
695.081	0.0160075
695.159	0.0159560
695.237	0.0160434
695.315	0.0161079
695.393	0.0160600
695.471	0.0160236
695.549	0.0160709
695.628	0.0160048
695.706	0.0160938
695.784	0.0161243
695.862	0.0160463
695.940	0.0160182
696.018	0.0160873
696.096	0.0160528
696.174	0.0161405
696.253	0.0160396
696.331	0.0161921
696.409	0.0160880
696.487	0.0159999
696.565	0.0160468
696.643	0.0160266
696.721	0.0161421
696.799	0.0160089
696.878	0.0158521
696.956	0.0158526
697.034	0.0158051
697.112	0.0159888
697.190	0.0160101
697.268	0.0159359
697.346	0.0158981
697.424	0.0159861
697.503	0.0158350
697.581	0.0160011
697.659	0.0158808
697.737	0.0158736
697.815	0.0160040
697.893	0.0159824
697.971	0.0159961
698.049	0.0159946
698.128	0.0159670
698.206	0.0159089
698.284	0.0159732
698.362	0.0160789
698.440	0.0160528
698.518	0.0159428
698.596	0.0159583
698.674	0.0160310
698.753	0.0160103
698.831	0.0160508
698.909	0.0161452
698.987	0.0158633
699.065	0.0157932
699.143	0.0159190
699.221	0.0159309
699.299	0.0159729
699.378	0.0159113
699.456	0.0159370
699.534	0.0159212
699.612	0.0159455
699.690	0.0159004
699.768	0.0157150
699.846	0.0158727
699.924	0.0158675
700.003	0.0158246
700.081	0.0158721
700.159	0.0159176
700.237	0.0158286
700.315	0.0159758
700.393	0.0159723
700.471	0.0159225
700.549	0.0159460
700.628	0.0160675
700.706	0.0160741
700.784	0.0160239
700.862	0.0162551
700.940	0.0161641
701.018	0.0161185
701.096	0.0160159
701.174	0.0159484
701.253	0.0160419
701.331	0.0160863
701.409	0.0161710
701.487	0.0159966
701.565	0.0159161
701.643	0.0159805
701.721	0.0160143
701.799	0.0158854
701.878	0.0159550
701.956	0.0157841
702.034	0.0158914
702.112	0.0159061
702.190	0.0158085
702.268	0.0158755
702.346	0.0159807
702.424	0.0159973
702.503	0.0159811
702.581	0.0159119
702.659	0.0160316
702.737	0.0160559
702.815	0.0159489
702.893	0.0159758
702.971	0.0159904
703.049	0.0159991
703.128	0.0161813
703.206	0.0160664
703.284	0.0159304
703.362	0.0160651
703.440	0.0161784
703.518	0.0160291
703.596	0.0159660
703.674	0.0161056
703.753	0.0160487
703.831	0.0160361
703.909	0.0160025
703.987	0.0160297
704.065	0.0159082
704.143	0.0159799
704.221	0.0161203
704.299	0.0159389
704.378	0.0159894
704.456	0.0160682
704.534	0.0160181
704.612	0.0160646
704.690	0.0160144
704.768	0.0159104
704.846	0.0158801
704.924	0.0158966
705.003	0.0158942
705.081	0.0158671
705.159	0.0159551
705.237	0.0160043
705.315	0.0158696
705.393	0.0160510
705.471	0.0159968
705.549	0.0160804
705.628	0.0158567
705.706	0.0159394
705.784	0.0159839
705.862	0.0161118
705.940	0.0161658
706.018	0.0159557
706.096	0.0161201
706.174	0.0160113
706.253	0.0161777
706.331	0.0162659
706.409	0.0161868
706.487	0.0160877
706.565	0.0160350
706.643	0.0160918
706.721	0.0160486
706.799	0.0161548
706.878	0.0162499
706.956	0.0160464
707.034	0.0159993
707.112	0.0160368
707.190	0.0160839
707.268	0.0160055
707.346	0.0159709
707.424	0.0160473
707.503	0.0158849
707.581	0.0158298
707.659	0.0159695
707.737	0.0159652
707.815	0.0158894
707.893	0.0159290
707.971	0.0158607
708.049	0.0158721
708.128	0.0160408
708.206	0.0159767
708.284	0.0159084
708.362	0.0159263
708.440	0.0160229
708.518	0.0160144
708.596	0.0159462
708.674	0.0160157
708.753	0.0159537
708.831	0.0159500
708.909	0.0160314
708.987	0.0161047
709.065	0.0161890
709.143	0.0160423
709.221	0.0159557
709.299	0.0159341
709.378	0.0158768
709.456	0.0159236
709.534	0.0159213
709.612	0.0159658
709.690	0.0159135
709.768	0.0158779
709.846	0.0158932
709.924	0.0158912
710.003	0.0159003
710.081	0.0159412
710.159	0.0158772
710.237	0.0158448
710.315	0.0158910
710.393	0.0157018
710.471	0.0159643
710.549	0.0159583
710.628	0.0159406
710.706	0.0158923
710.784	0.0159393
710.862	0.0160257
710.940	0.0160605
711.018	0.0161163
711.096	0.0160782
711.174	0.0160282
711.253	0.0161459
711.331	0.0159259
711.409	0.0159413
711.487	0.0159008
711.565	0.0159522
711.643	0.0159567
711.721	0.0160967
711.799	0.0160199
711.878	0.0158168
711.956	0.0161104
712.034	0.0160113
712.112	0.0160117
712.190	0.0159536
712.268	0.0159061
712.346	0.0159668
712.424	0.0159560
712.503	0.0160434
712.581	0.0158878
712.659	0.0159425
712.737	0.0160021
712.815	0.0160242
712.893	0.0159747
712.971	0.0158641
713.049	0.0157937
713.128	0.0159097
713.206	0.0160039
713.284	0.0160114
713.362	0.0160246
713.440	0.0160420
713.518	0.0159555
713.596	0.0159340
713.674	0.0160507
713.753	0.0162811
713.831	0.0161031
713.909	0.0160912
713.987	0.0162248
714.065	0.0163004
714.143	0.0162751
714.221	0.0162061
714.299	0.0163422
714.378	0.0163123
714.456	0.0162834
714.534	0.0161417
714.612	0.0161770
714.690	0.0162369
714.768	0.0162957
714.846	0.0162349
714.924	0.0160298
715.003	0.0161296
715.081	0.0159486
715.159	0.0159798
715.237	0.0160860
715.315	0.0162094
715.393	0.0158765
715.471	0.0159555
715.549	0.0159436
715.628	0.0159397
715.706	0.0158536
715.784	0.0158775
715.862	0.0160139
715.940	0.0159438
716.018	0.0159315
716.096	0.0159525
716.174	0.0160069
716.253	0.0160474
716.331	0.0160658
716.409	0.0160374
716.487	0.0160470
716.565	0.0160879
716.643	0.0160599
716.721	0.0161869
716.799	0.0160776
716.878	0.0162543
716.956	0.0160979
717.034	0.0163200
717.112	0.0162617
717.190	0.0161977
717.268	0.0161390
717.346	0.0161241
717.424	0.0159760
717.503	0.0159585
717.581	0.0159133
717.659	0.0158874
717.737	0.0158759
717.815	0.0159869
717.893	0.0156811
717.971	0.0158431
718.049	0.0157648
718.128	0.0156938
718.206	0.0157176
718.284	0.0156989
718.362	0.0157858
718.440	0.0158076
718.518	0.0157793
718.596	0.0158733
718.674	0.0158004
718.753	0.0159362
718.831	0.0161787
718.909	0.0160184
718.987	0.0160964
719.065	0.0163060
719.143	0.0163496
719.221	0.0163847
719.299	0.0163790
719.378	0.0164018
719.456	0.0165837
719.534	0.0165637
719.612	0.0165131
719.690	0.0163593
719.768	0.0164237
719.846	0.0165766
719.924	0.0164437
720.003	0.0163241
720.081	0.0162988
720.159	0.0162929
720.237	0.0162717
720.315	0.0161510
720.393	0.0159864
720.471	0.0160851
720.549	0.0158591
720.628	0.0158425
720.706	0.0158065
720.784	0.0156874
720.862	0.0157848
720.940	0.0156220
721.018	0.0155509
721.096	0.0152907
721.174	0.0155138
721.253	0.0154107
721.331	0.0153529
721.409	0.0152876
721.487	0.0153680
721.565	0.0155000
721.643	0.0154095
721.721	0.0154600
721.799	0.0155845
721.878	0.0156752
721.956	0.0156912
722.034	0.0157359
722.112	0.0159448
722.190	0.0160925
722.268	0.0161538
722.346	0.0162479
722.424	0.0162033
722.503	0.0163342
722.581	0.0164426
722.659	0.0165114
722.737	0.0165579
722.815	0.0166064
722.893	0.0165797
722.971	0.0166068
723.049	0.0165130
723.128	0.0167399
723.206	0.0166783
723.284	0.0165343
723.362	0.0165657
723.440	0.0164204
723.518	0.0164194
723.596	0.0162518
723.674	0.0161539
723.753	0.0160532
723.831	0.0159946
723.909	0.0159289
723.987	0.0159494
724.065	0.0159835
724.143	0.0158475
724.221	0.0157234
724.299	0.0157509
724.378	0.0157005
724.456	0.0157596
724.534	0.0158016
724.612	0.0159173
724.690	0.0156955
724.768	0.0159023
724.846	0.0160639
724.924	0.0159165
725.003	0.0159433
725.081	0.0157957
725.159	0.0160290
725.237	0.0160566
725.315	0.0159520
725.393	0.0160622
725.471	0.0159679
725.549	0.0159040
725.628	0.0158570
725.706	0.0157748
725.784	0.0157552
725.862	0.0156802
725.940	0.0156873
726.018	0.0157027
726.096	0.0155832
726.174	0.0157494
726.253	0.0157047
726.331	0.0156698
726.409	0.0157334
726.487	0.0157232
726.565	0.0158140
726.643	0.0157047
726.721	0.0158700
726.799	0.0159097
726.878	0.0160222
726.956	0.0159334
727.034	0.0160320
727.112	0.0161212
727.190	0.0163074
727.268	0.0162032
727.346	0.0162858
727.424	0.0162910
727.503	0.0164630
727.581	0.0162837
727.659	0.0165695
727.737	0.0164500
727.815	0.0165062
727.893	0.0163104
727.971	0.0164748
728.049	0.0162717
728.128	0.0162690
728.206	0.0161948
728.284	0.0162847
728.362	0.0161594
728.440	0.0161230
728.518	0.0160506
728.596	0.0160115
728.674	0.0160065
728.753	0.0158624
728.831	0.0157223
728.909	0.0156511
728.987	0.0155679
729.065	0.0154869
729.143	0.0154368
729.221	0.0151737
729.299	0.0151159
729.378	0.0151034
729.456	0.0150131
729.534	0.0149516
729.612	0.0149289
729.690	0.0147854
729.768	0.0149323
729.846	0.0150694
729.924	0.0149588
730.003	0.0150085
730.081	0.0151064
730.159	0.0153093
730.237	0.0152318
730.315	0.0154021
730.393	0.0155562
730.471	0.0158504
730.549	0.0159876
730.628	0.0162610
730.706	0.0163670
730.784	0.0167049
730.862	0.0168753
730.940	0.0168763
731.018	0.0169071
731.096	0.0171452
731.174	0.0172102
731.253	0.0174177
731.331	0.0174462
731.409	0.0173109
731.487	0.0172400
731.565	0.0172117
731.643	0.0172292
731.721	0.0172252
731.799	0.0169181
731.878	0.0167065
731.956	0.0166538
732.034	0.0164668
732.112	0.0163065
732.190	0.0161082
732.268	0.0159203
732.346	0.0158948
732.424	0.0156469
732.503	0.0153276
732.581	0.0152616
732.659	0.0151954
732.737	0.0150780
732.815	0.0149262
732.893	0.0148314
732.971	0.0148729
733.049	0.0147404
733.128	0.0147694
733.206	0.0146706
733.284	0.0147139
733.362	0.0147082
733.440	0.0147474
733.518	0.0148277
733.596	0.0147482
733.674	0.0148344
733.753	0.0149564
733.831	0.0149901
733.909	0.0150598
733.987	0.0151922
734.065	0.0151582
734.143	0.0153252
734.221	0.0154915
734.299	0.0155755
734.378	0.0156766
734.456	0.0158557
734.534	0.0160281
734.612	0.0160086
734.690	0.0161248
734.768	0.0162307
734.846	0.0164758
734.924	0.0166257
735.003	0.0166851
735.081	0.0168397
735.159	0.0170453
735.237	0.0170116
735.315	0.0169994
735.393	0.0170900
735.471	0.0170835
735.549	0.0171795
735.628	0.0171227
735.706	0.0170364
735.784	0.0170778
735.862	0.0170729
735.940	0.0169784
736.018	0.0168751
736.096	0.0167357
736.174	0.0168217
736.253	0.0166348
736.331	0.0166109
736.409	0.0165156
736.487	0.0163728
736.565	0.0161372
736.643	0.0160228
736.721	0.0158888
736.799	0.0158873
736.878	0.0157592
736.956	0.0157751
737.034	0.0155541
737.112	0.0155680
737.190	0.0153746
737.268	0.0152789
737.346	0.0153735
737.424	0.0151714
737.503	0.0151304
737.581	0.0151257
737.659	0.0151116
737.737	0.0151920
737.815	0.0150897
737.893	0.0151792
737.971	0.0150855
738.049	0.0151759
738.128	0.0151659
738.206	0.0152242
738.284	0.0153080
738.362	0.0152269
738.440	0.0152942
738.518	0.0153681
738.596	0.0154660
738.674	0.0154527
738.753	0.0154449
738.831	0.0155537
738.909	0.0155643
738.987	0.0156205
739.065	0.0156298
739.143	0.0156682
739.221	0.0156168
739.299	0.0158221
739.378	0.0158201
739.456	0.0159132
739.534	0.0160771
739.612	0.0160217
739.690	0.0161097
739.768	0.0162836
739.846	0.0163679
739.924	0.0165704
740.003	0.0166874
740.081	0.0167798
740.159	0.0168108
740.237	0.0169278
740.315	0.0169585
740.393	0.0170091
740.471	0.0170393
740.549	0.0169901
740.628	0.0169851
740.706	0.0170129
740.784	0.0168177
740.862	0.0166864
740.940	0.0167057
741.018	0.0166462
741.096	0.0164920
741.174	0.0162398
741.253	0.0160403
741.331	0.0158803
741.409	0.0156767
741.487	0.0158495
741.565	0.0158287
741.643	0.0156264
741.721	0.0156941
741.799	0.0154985
741.878	0.0154420
741.956	0.0154414
742.034	0.0154619
742.112	0.0154243
742.190	0.0155230
742.268	0.0155531
742.346	0.0155568
742.424	0.0154238
742.503	0.0155930
742.581	0.0155534
742.659	0.0158033
742.737	0.0158910
742.815	0.0156479
742.893	0.0156992
742.971	0.0156486
743.049	0.0157152
743.128	0.0157938
743.206	0.0157688
743.284	0.0156148
743.362	0.0155941
743.440	0.0155910
743.518	0.0154256
743.596	0.0153423
743.674	0.0153521
743.753	0.0155934
743.831	0.0154826
743.909	0.0152596
743.987	0.0153370
744.065	0.0155297
744.143	0.0153828
744.221	0.0155132
744.299	0.0155056
744.378	0.0154333
744.456	0.0154476
744.534	0.0157034
744.612	0.0156335
744.690	0.0156132
744.768	0.0157738
744.846	0.0158800
744.924	0.0159108
745.003	0.0160474
745.081	0.0161259
745.159	0.0162107
745.237	0.0162611
745.315	0.0163306
745.393	0.0163947
745.471	0.0165372
745.549	0.0165593
745.628	0.0167245
745.706	0.0168437
745.784	0.0167861
745.862	0.0167725
745.940	0.0164973
746.018	0.0167214
746.096	0.0166524
746.174	0.0165604
746.253	0.0163945
746.331	0.0161810
746.409	0.0160870
746.487	0.0159870
746.565	0.0159686
746.643	0.0158997
746.721	0.0158016
746.799	0.0155639
746.878	0.0154990
746.956	0.0155650
747.034	0.0154124
747.112	0.0155158
747.190	0.0154996
747.268	0.0154958
747.346	0.0153864
747.424	0.0154906
747.503	0.0155716
747.581	0.0154589
747.659	0.0155699
747.737	0.0156683
747.815	0.0156728
747.893	0.0157095
747.971	0.0156394
748.049	0.0157999
748.128	0.0158115
748.206	0.0157766
748.284	0.0157407
748.362	0.0157693
748.440	0.0158119
748.518	0.0157657
748.596	0.0156659
748.674	0.0155752
748.753	0.0156361
748.831	0.0157745
748.909	0.0155746
748.987	0.0157083
749.065	0.0156386
749.143	0.0156291
749.221	0.0156982
749.299	0.0156641
749.378	0.0158213
749.456	0.0158881
749.534	0.0158432
749.612	0.0158908
749.690	0.0158295
749.768	0.0159324
749.846	0.0160398
749.924	0.0160093
750.003	0.0160938
750.081	0.0160816
750.159	0.0159602
750.237	0.0159963
750.315	0.0161333
750.393	0.0160772
750.471	0.0160578
750.549	0.0160493
750.628	0.0160334
750.706	0.0158786
750.784	0.0160571
750.862	0.0160400
750.940	0.0160503
751.018	0.0159087
751.096	0.0157443
751.174	0.0160178
751.253	0.0162910
751.331	0.0160568
751.409	0.0157902
751.487	0.0159772
751.565	0.0158643
751.643	0.0159586
751.721	0.0159148
751.799	0.0158524
751.878	0.0159227
751.956	0.0158721
752.034	0.0159663
752.112	0.0158799
752.190	0.0159036
752.268	0.0157598
752.346	0.0158481
752.424	0.0158326
752.503	0.0158360
752.581	0.0159114
752.659	0.0158224
752.737	0.0158656
752.815	0.0157586
752.893	0.0157983
752.971	0.0159894
753.049	0.0159376
753.128	0.0160864
753.206	0.0161650
753.284	0.0160423
753.362	0.0160297
753.440	0.0160417
753.518	0.0162028
753.596	0.0161175
753.674	0.0161634
753.753	0.0160796
753.831	0.0160432
753.909	0.0160970
753.987	0.0159155
754.065	0.0159150
754.143	0.0159167
754.221	0.0158802
754.299	0.0159237
754.378	0.0158138
754.456	0.0157076
754.534	0.0157548
754.612	0.0156573
754.690	0.0155146
754.768	0.0156522
754.846	0.0154895
754.924	0.0155775
755.003	0.0155602
755.081	0.0156709
755.159	0.0153481
755.237	0.0154632
755.315	0.0156226
755.393	0.0155251
755.471	0.0155377
755.549	0.0154428
755.628	0.0155140
755.706	0.0157967
755.784	0.0156246
755.862	0.0156161
755.940	0.0156673
756.018	0.0158050
756.096	0.0159113
756.174	0.0160866
756.253	0.0159988
756.331	0.0161182
756.409	0.0162332
756.487	0.0162127
756.565	0.0163971
756.643	0.0164130
756.721	0.0164973
756.799	0.0166477
756.878	0.0166312
756.956	0.0165603
757.034	0.0166855
757.112	0.0166864
757.190	0.0166569
757.268	0.0166708
757.346	0.0166652
757.424	0.0164842
757.503	0.0164586
757.581	0.0162522
757.659	0.0162826
757.737	0.0161364
757.815	0.0159559
757.893	0.0157856
757.971	0.0156387
758.049	0.0155185
758.128	0.0155464
758.206	0.0153204
758.284	0.0153376
758.362	0.0152460
758.440	0.0152764
758.518	0.0151443
758.596	0.0152296
758.674	0.0153224
758.753	0.0153008
758.831	0.0153470
758.909	0.0155183
758.987	0.0155802
759.065	0.0156575
759.143	0.0156779
759.221	0.0157858
759.299	0.0158437
759.378	0.0158939
759.456	0.0159452
759.534	0.0161407
759.612	0.0160018
759.690	0.0161786
759.768	0.0161069
759.846	0.0161582
759.924	0.0161475
760.003	0.0161617
760.081	0.0161581
760.159	0.0161515
760.237	0.0160354
760.315	0.0162400
760.393	0.0161781
760.471	0.0160795
760.549	0.0161315
760.628	0.0160523
760.706	0.0160740
760.784	0.0160319
760.862	0.0159452
760.940	0.0160680
761.018	0.0159998
761.096	0.0158910
761.174	0.0158391
761.253	0.0158175
761.331	0.0158791
761.409	0.0157970
761.487	0.0158060
761.565	0.0156280
761.643	0.0155160
761.721	0.0155327
761.799	0.0155433
761.878	0.0154884
761.956	0.0154845
762.034	0.0156976
762.112	0.0156296
762.190	0.0156542
762.268	0.0157398
762.346	0.0157198
762.424	0.0158124
762.503	0.0158369
762.581	0.0160672
762.659	0.0161355
762.737	0.0161208
762.815	0.0162462
762.893	0.0161506
762.971	0.0162333
763.049	0.0164900
763.128	0.0164211
763.206	0.0162661
763.284	0.0162566
763.362	0.0162880
763.440	0.0162545
763.518	0.0161403
763.596	0.0160057
763.674	0.0160001
763.753	0.0158221
763.831	0.0156558
763.909	0.0156944
763.987	0.0156404
764.065	0.0155385
764.143	0.0155812
764.221	0.0154369
764.299	0.0155344
764.378	0.0155124
764.456	0.0153966
764.534	0.0156264
764.612	0.0154404
764.690	0.0153554
764.768	0.0155791
764.846	0.0155886
764.924	0.0155419
765.003	0.0156425
765.081	0.0156493
765.159	0.0156637
765.237	0.0156767
765.315	0.0155779
765.393	0.0157993
765.471	0.0157787
765.549	0.0159657
765.628	0.0159798
765.706	0.0159002
765.784	0.0160718
765.862	0.0161315
765.940	0.0161339
766.018	0.0162064
766.096	0.0162302
766.174	0.0163258
766.253	0.0161450
766.331	0.0163454
766.409	0.0161499
766.487	0.0161624
766.565	0.0162818
766.643	0.0161330
766.721	0.0160525
766.799	0.0159456
766.878	0.0160896
766.956	0.0159275
767.034	0.0156853
767.112	0.0158605
767.190	0.0156535
767.268	0.0157999
767.346	0.0156767
767.424	0.0156047
767.503	0.0154792
767.581	0.0155046
767.659	0.0156376
767.737	0.0155471
767.815	0.0155006
767.893	0.0157090
767.971	0.0157816
768.049	0.0158385
768.128	0.0159021
768.206	0.0160021
768.284	0.0161263
768.362	0.0162447
768.440	0.0164775
768.518	0.0164043
768.596	0.0163676
768.674	0.0164059
768.753	0.0164303
768.831	0.0163472
768.909	0.0164468
768.987	0.0162167
769.065	0.0161424
769.143	0.0160240
769.221	0.0158990
769.299	0.0158103
769.378	0.0155546
769.456	0.0154625
769.534	0.0154523
769.612	0.0153837
769.690	0.0153590
769.768	0.0154386
769.846	0.0152234
769.924	0.0151540
770.003	0.0152121
770.081	0.0151088
770.159	0.0152388
770.237	0.0152306
770.315	0.0152387
770.393	0.0153471
770.471	0.0155694
770.549	0.0155802
770.628	0.0155201
770.706	0.0155459
770.784	0.0159014
770.862	0.0157040
770.940	0.0158972
771.018	0.0160487
771.096	0.0160509
771.174	0.0160500
771.253	0.0161324
771.331	0.0160923
771.409	0.0162226
771.487	0.0163213
771.565	0.0163292
771.643	0.0164215
771.721	0.0166177
771.799	0.0164733
771.878	0.0164655
771.956	0.0165340
772.034	0.0161668
772.112	0.0164249
772.190	0.0162541
772.268	0.0163879
772.346	0.0161759
772.424	0.0160336
772.503	0.0160623
772.581	0.0160129
772.659	0.0158081
772.737	0.0159325
772.815	0.0157098
772.893	0.0156551
772.971	0.0156300
773.049	0.0157735
773.128	0.0156006
773.206	0.0156189
773.284	0.0156389
773.362	0.0154738
773.440	0.0154761
773.518	0.0155989
773.596	0.0155978
773.674	0.0155505
773.753	0.0156593
773.831	0.0157407
773.909	0.0156597
773.987	0.0158253
774.065	0.0158163
774.143	0.0159573
774.221	0.0161016
774.299	0.0160835
774.378	0.0160866
774.456	0.0163075
774.534	0.0161977
774.612	0.0163419
774.690	0.0162163
774.768	0.0162261
774.846	0.0162172
774.924	0.0162733
775.003	0.0161976
775.081	0.0162714
775.159	0.0162415
775.237	0.0161736
775.315	0.0160554
775.393	0.0160230
775.471	0.0157854
775.549	0.0158059
775.628	0.0156671
775.706	0.0156612
775.784	0.0157154
775.862	0.0156693
775.940	0.0155650
776.018	0.0155680
776.096	0.0155547
776.174	0.0155804
776.253	0.0156596
776.331	0.0157450
776.409	0.0158009
776.487	0.0160047
776.565	0.0158319
776.643	0.0159335
776.721	0.0160403
776.799	0.0161261
776.878	0.0161250
776.956	0.0161909
777.034	0.0162118
777.112	0.0164619
777.190	0.0163240
777.268	0.0163612
777.346	0.0162476
777.424	0.0162728
777.503	0.0163721
777.581	0.0164257
777.659	0.0162737
777.737	0.0164376
777.815	0.0162210
777.893	0.0163663
777.971	0.0162763
778.049	0.0160241
778.128	0.0161057
778.206	0.0161189
778.284	0.0159396
778.362	0.0160825
778.440	0.0159997
778.518	0.0157605
778.596	0.0157596
778.674	0.0158879
778.753	0.0155914
778.831	0.0158037
778.909	0.0157054
778.987	0.0155797
779.065	0.0158310
779.143	0.0155373
779.221	0.0157497
779.299	0.0156602
779.378	0.0155613
779.456	0.0157102
779.534	0.0157187
779.612	0.0157353
779.690	0.0158199
779.768	0.0158708
779.846	0.0160287
779.924	0.0160966
780.003	0.0160313
780.081	0.0161174
780.159	0.0162118
780.237	0.0162870
780.315	0.0164423
780.393	0.0164062
780.471	0.0164173
780.549	0.0165166
780.628	0.0165953
780.706	0.0166363
780.784	0.0165364
780.862	0.0163905
780.940	0.0163875
781.018	0.0164314
781.096	0.0163525
781.174	0.0164319
781.253	0.0162166
781.331	0.0160880
781.409	0.0161178
781.487	0.0160390
781.565	0.0160870
781.643	0.0158728
781.721	0.0159572
781.799	0.0157742
781.878	0.0156905
781.956	0.0158242
782.034	0.0156774
782.112	0.0154816
782.190	0.0155480
782.268	0.0157211
782.346	0.0157245
782.424	0.0156361
782.503	0.0156525
782.581	0.0156966
782.659	0.0157151
782.737	0.0156488
782.815	0.0157855
782.893	0.0157011
782.971	0.0157028
783.049	0.0159669
783.128	0.0159739
783.206	0.0160814
783.284	0.0160666
783.362	0.0161049
783.440	0.0161195
783.518	0.0161482
783.596	0.0163241
783.674	0.0162402
783.753	0.0164218
783.831	0.0165035
783.909	0.0162398
783.987	0.0162795
784.065	0.0162209
784.143	0.0162458
784.221	0.0161675
784.299	0.0161678
784.378	0.0161096
784.456	0.0161030
784.534	0.0160604
784.612	0.0159326
784.690	0.0158323
784.768	0.0158583
784.846	0.0159001
784.924	0.0158329
785.003	0.0157305
785.081	0.0158340
785.159	0.0158211
785.237	0.0159104
785.315	0.0158961
785.393	0.0158540
785.471	0.0159544
785.549	0.0160093
785.628	0.0159780
785.706	0.0159311
785.784	0.0159731
785.862	0.0161182
785.940	0.0159528
786.018	0.0159673
786.096	0.0160962
786.174	0.0160515
786.253	0.0160448
786.331	0.0160048
786.409	0.0159999
786.487	0.0161150
786.565	0.0160828
786.643	0.0161327
786.721	0.0162453
786.799	0.0161826
786.878	0.0161402
786.956	0.0161330
787.034	0.0162331
787.112	0.0161533
787.190	0.0162732
787.268	0.0162934
787.346	0.0162153
787.424	0.0160824
787.503	0.0158753
787.581	0.0159471
787.659	0.0157949
787.737	0.0157729
787.815	0.0157595
787.893	0.0157001
787.971	0.0156935
788.049	0.0154739
788.128	0.0156155
788.206	0.0155850
788.284	0.0155979
788.362	0.0155238
788.440	0.0155953
788.518	0.0157320
788.596	0.0157717
788.674	0.0158270
788.753	0.0158086
788.831	0.0158932
788.909	0.0160507
788.987	0.0161047
789.065	0.0161125
789.143	0.0160715
789.221	0.0161334
789.299	0.0159984
789.378	0.0161488
789.456	0.0161378
789.534	0.0161220
789.612	0.0161059
789.690	0.0159586
789.768	0.0160738
789.846	0.0161580
789.924	0.0160252
790.003	0.0160625
790.081	0.0158711
790.159	0.0160630
790.237	0.0159745
790.315	0.0158540
790.393	0.0159245
790.471	0.0158716
790.549	0.0159072
790.628	0.0159156
790.706	0.0158385
790.784	0.0158459
790.862	0.0158710
790.940	0.0159391
791.018	0.0157993
791.096	0.0158797
791.174	0.0158610
791.253	0.0157402
791.331	0.0158965
791.409	0.0160110
791.487	0.0159828
791.565	0.0158975
791.643	0.0161024
791.721	0.0159002
791.799	0.0159616
791.878	0.0159866
791.956	0.0161872
792.034	0.0160381
792.112	0.0161130
792.190	0.0160826
792.268	0.0160448
792.346	0.0160566
792.424	0.0162123
792.503	0.0161336
792.581	0.0160339
792.659	0.0159550
792.737	0.0160916
792.815	0.0159811
792.893	0.0159440
792.971	0.0160392
793.049	0.0159763
793.128	0.0160892
793.206	0.0158581
793.284	0.0158781
793.362	0.0160574
793.440	0.0160620
793.518	0.0161059
793.596	0.0161040
793.674	0.0159353
793.753	0.0160220
793.831	0.0158909
793.909	0.0158247
793.987	0.0157957
794.065	0.0159030
794.143	0.0157509
794.221	0.0157549
794.299	0.0157311
794.378	0.0158235
794.456	0.0158327
794.534	0.0156828
794.612	0.0156830
794.690	0.0156395
794.768	0.0157482
794.846	0.0157815
794.924	0.0158342
795.003	0.0156784
795.081	0.0156767
795.159	0.0158378
795.237	0.0159972
795.315	0.0159177
795.393	0.0159398
795.471	0.0161000
795.549	0.0160895
795.628	0.0161189
795.706	0.0160477
795.784	0.0159831
795.862	0.0161201
795.940	0.0160746
796.018	0.0162017
796.096	0.0163160
796.174	0.0160788
796.253	0.0161266
796.331	0.0162420
796.409	0.0161790
796.487	0.0161540
796.565	0.0160834
796.643	0.0159374
796.721	0.0160744
796.799	0.0160829
796.878	0.0158659
796.956	0.0161040
797.034	0.0160463
797.112	0.0158988
797.190	0.0159974
797.268	0.0159904
797.346	0.0159474
797.424	0.0159569
797.503	0.0158803
797.581	0.0159605
797.659	0.0159585
797.737	0.0159195
797.815	0.0159119
797.893	0.0158479
797.971	0.0159059
798.049	0.0159649
798.128	0.0159584
798.206	0.0158851
798.284	0.0158832
798.362	0.0157841
798.440	0.0159502
798.518	0.0159683
798.596	0.0159695
798.674	0.0159783
798.753	0.0160469
798.831	0.0159297
798.909	0.0158687
798.987	0.0159905
799.065	0.0159247
799.143	0.0159288
799.221	0.0159726
799.299	0.0159828
799.378	0.0161461
799.456	0.0161013
799.534	0.0159822
799.612	0.0160555
799.690	0.0160281
799.768	0.0162090
799.846	0.0160844
799.924	0.0159242
800.003	0.0161664
800.081	0.0161200
800.159	0.0159502
800.237	0.0160164
800.315	0.0159236
800.393	0.0158432
800.471	0.0158807
800.549	0.0158497
800.628	0.0158759
800.706	0.0158651
800.784	0.0158841
800.862	0.0157379
800.940	0.0157256
801.018	0.0159870
801.096	0.0160036
801.174	0.0157616
801.253	0.0157291
801.331	0.0158875
801.409	0.0158453
801.487	0.0159075
801.565	0.0158379
801.643	0.0159440
801.721	0.0159864
801.799	0.0158478
801.878	0.0158234
801.956	0.0159170
802.034	0.0159335
802.112	0.0160227
802.190	0.0160588
802.268	0.0160175
802.346	0.0160594
802.424	0.0161140
802.503	0.0161501
802.581	0.0161507
802.659	0.0160686
802.737	0.0160709
802.815	0.0161321
802.893	0.0161636
802.971	0.0161031
803.049	0.0161682
803.128	0.0160574
803.206	0.0161231
803.284	0.0162108
803.362	0.0160132
803.440	0.0160158
803.518	0.0160136
803.596	0.0161789
803.674	0.0160977
803.753	0.0161425
803.831	0.0160132
803.909	0.0158949
803.987	0.0158985
804.065	0.0158664
804.143	0.0160807
804.221	0.0160378
804.299	0.0160699
804.378	0.0160100
804.456	0.0158929
804.534	0.0157480
804.612	0.0160684
804.690	0.0158990
804.768	0.0159491
804.846	0.0161263
804.924	0.0159163
805.003	0.0160074
805.081	0.0158897
805.159	0.0159830
805.237	0.0159641
805.315	0.0160310
805.393	0.0160141
805.471	0.0159579
805.549	0.0159533
805.628	0.0158990
805.706	0.0161266
805.784	0.0159193
805.862	0.0159826
805.940	0.0159148
806.018	0.0160039
806.096	0.0160693
806.174	0.0160135
806.253	0.0158939
806.331	0.0160030
806.409	0.0160273
806.487	0.0159722
806.565	0.0158513
806.643	0.0160217
806.721	0.0159511
806.799	0.0159806
806.878	0.0161162
806.956	0.0159326
807.034	0.0160417
807.112	0.0161170
807.190	0.0160553
807.268	0.0160417
807.346	0.0160326
807.424	0.0160429
807.503	0.0160304
807.581	0.0159519
807.659	0.0160184
807.737	0.0161346
807.815	0.0161198
807.893	0.0160830
807.971	0.0160938
808.049	0.0160230
808.128	0.0160558
808.206	0.0161021
808.284	0.0161095
808.362	0.0160882
808.440	0.0161410
808.518	0.0160796
808.596	0.0160648
808.674	0.0161775
808.753	0.0160815
808.831	0.0160329
808.909	0.0160603
808.987	0.0160946
809.065	0.0159515
809.143	0.0159778
809.221	0.0160992
809.299	0.0160190
809.378	0.0159944
809.456	0.0159677
809.534	0.0160363
809.612	0.0158296
809.690	0.0158253
809.768	0.0158220
809.846	0.0158984
809.924	0.0160558
810.003	0.0158347
810.081	0.0158779
810.159	0.0158695
810.237	0.0159960
810.315	0.0160356
810.393	0.0159705
810.471	0.0159170
810.549	0.0159004
810.628	0.0159428
810.706	0.0159108
810.784	0.0160212
810.862	0.0159570
810.940	0.0159971
811.018	0.0159956
811.096	0.0160458
811.174	0.0160117
811.253	0.0159178
811.331	0.0160176
811.409	0.0160315
811.487	0.0158814
811.565	0.0161227
811.643	0.0161238
811.721	0.0159692
811.799	0.0159175
811.878	0.0160382
811.956	0.0159995
812.034	0.0160361
812.112	0.0159934
812.190	0.0159262
812.268	0.0160406
812.346	0.0161002
812.424	0.0161467
812.503	0.0161282
812.581	0.0161470
812.659	0.0160395
812.737	0.0160025
812.815	0.0160177
812.893	0.0161206
812.971	0.0160894
813.049	0.0160982
813.128	0.0160583
813.206	0.0161823
813.284	0.0161488
813.362	0.0161681
813.440	0.0159401
813.518	0.0157864
813.596	0.0160471
813.674	0.0160625
813.753	0.0158598
813.831	0.0158706
813.909	0.0159015
813.987	0.0159771
814.065	0.0159527
814.143	0.0158848
814.221	0.0157574
814.299	0.0158125
814.378	0.0158176
814.456	0.0158601
814.534	0.0159199
814.612	0.0158759
814.690	0.0157986
814.768	0.0159009
814.846	0.0160025
814.924	0.0160532
815.003	0.0158861
815.081	0.0159254
815.159	0.0160815
815.237	0.0160632
815.315	0.0160496
815.393	0.0160078
815.471	0.0160108
815.549	0.0161227
815.628	0.0161016
815.706	0.0159354
815.784	0.0159911
815.862	0.0159311
815.940	0.0160387
816.018	0.0161215
816.096	0.0160410
816.174	0.0160134
816.253	0.0160332
816.331	0.0160707
816.409	0.0160216
816.487	0.0160734
816.565	0.0159905
816.643	0.0159264
816.721	0.0159556
816.799	0.0159490
816.878	0.0159599
816.956	0.0158744
817.034	0.0157994
817.112	0.0158730
817.190	0.0159200
817.268	0.0158557
817.346	0.0158070
817.424	0.0156755
817.503	0.0157990
817.581	0.0158298
817.659	0.0155856
817.737	0.0156308
817.815	0.0156455
817.893	0.0156915
817.971	0.0156798
818.049	0.0155692
818.128	0.0157222
818.206	0.0156439
818.284	0.0158524
818.362	0.0157149
818.440	0.0156287
818.518	0.0157523
818.596	0.0158295
818.674	0.0156389
818.753	0.0158214
818.831	0.0160521
818.909	0.0160442
818.987	0.0159003
819.065	0.0159111
819.143	0.0161429
819.221	0.0161948
819.299	0.0160926
819.378	0.0160548
819.456	0.0161829
819.534	0.0161726
819.612	0.0160056
819.690	0.0159780
819.768	0.0159747
819.846	0.0159756
819.924	0.0160760
820.003	0.0159235
820.081	0.0159690
820.159	0.0158324
820.237	0.0158205
820.315	0.0158400
820.393	0.0158784
820.471	0.0158221
820.549	0.0158955
820.628	0.0157299
820.706	0.0158379
820.784	0.0158920
820.862	0.0159150
820.940	0.0156415
821.018	0.0157893
821.096	0.0158065
821.174	0.0157273
821.253	0.0157082
821.331	0.0158049
821.409	0.0158125
821.487	0.0158239
821.565	0.0158895
821.643	0.0158385
821.721	0.0159141
821.799	0.0160318
821.878	0.0160249
821.956	0.0158790
822.034	0.0158916
822.112	0.0158704
822.190	0.0158149
822.268	0.0159730
822.346	0.0157944
822.424	0.0159799
822.503	0.0159498
822.581	0.0158460
822.659	0.0159763
822.737	0.0159438
822.815	0.0160616
822.893	0.0159085
822.971	0.0159067
823.049	0.0158888
823.128	0.0159161
823.206	0.0160677
823.284	0.0159834
823.362	0.0159880
823.440	0.0159061
823.518	0.0159033
823.596	0.0159763
823.674	0.0159358
823.753	0.0159441
823.831	0.0159052
823.909	0.0160683
823.987	0.0160587
824.065	0.0160188
824.143	0.0160737
824.221	0.0160339
824.299	0.0159869
824.378	0.0158883
824.456	0.0161214
824.534	0.0160561
824.612	0.0158720
824.690	0.0159767
824.768	0.0159876
824.846	0.0159031
824.924	0.0158892
825.003	0.0158917
825.081	0.0158181
825.159	0.0157843
825.237	0.0158653
825.315	0.0159149
825.393	0.0157699
825.471	0.0158344
825.549	0.0158848
825.628	0.0157864
825.706	0.0157874
825.784	0.0157101
825.862	0.0156968
825.940	0.0155710
826.018	0.0158084
826.096	0.0158059
826.174	0.0156250
826.253	0.0157305
826.331	0.0156941
826.409	0.0156962
826.487	0.0157199
826.565	0.0157578
826.643	0.0156442
826.721	0.0158036
826.799	0.0157238
826.878	0.0158195
826.956	0.0158499
827.034	0.0158503
827.112	0.0158071
827.190	0.0159741
827.268	0.0158725
827.346	0.0159661
827.424	0.0159904
827.503	0.0160788
827.581	0.0159629
827.659	0.0161157
827.737	0.0160751
827.815	0.0161098
827.893	0.0161566
827.971	0.0161660
828.049	0.0161988
828.128	0.0162928
828.206	0.0163590
828.284	0.0161848
828.362	0.0162809
828.440	0.0162555
828.518	0.0162002
828.596	0.0160766
828.674	0.0160358
828.753	0.0160886
828.831	0.0159808
828.909	0.0160209
828.987	0.0160327
829.065	0.0160383
829.143	0.0158814
829.221	0.0158805
829.299	0.0157281
829.378	0.0156616
829.456	0.0156580
829.534	0.0157074
829.612	0.0157184
829.690	0.0155985
829.768	0.0156428
829.846	0.0156312
829.924	0.0156806
830.003	0.0155202
830.081	0.0156017
830.159	0.0157538
830.237	0.0157297
830.315	0.0156429
830.393	0.0157116
830.471	0.0155625
830.549	0.0156734
830.628	0.0158067
830.706	0.0157655
830.784	0.0158987
830.862	0.0157437
830.940	0.0158562
831.018	0.0160487
831.096	0.0160030
831.174	0.0160812
831.253	0.0158289
831.331	0.0160292
831.409	0.0160435
831.487	0.0159982
831.565	0.0159892
831.643	0.0160874
831.721	0.0161063
831.799	0.0161185
831.878	0.0160541
831.956	0.0162284
832.034	0.0161591
832.112	0.0161743
832.190	0.0160934
832.268	0.0160998
832.346	0.0162953
832.424	0.0159997
832.503	0.0160404
832.581	0.0161086
832.659	0.0160262
832.737	0.0159872
832.815	0.0160422
832.893	0.0160652
832.971	0.0159190
833.049	0.0160292
833.128	0.0159203
833.206	0.0159106
833.284	0.0159851
833.362	0.0158730
833.440	0.0158732
833.518	0.0159267
833.596	0.0158622
833.674	0.0158790
833.753	0.0157070
833.831	0.0158356
833.909	0.0157679
833.987	0.0158965
834.065	0.0158247
834.143	0.0158419
834.221	0.0158559
834.299	0.0158936
834.378	0.0157669
834.456	0.0156226
834.534	0.0156854
834.612	0.0158173
834.690	0.0159259
834.768	0.0157243
834.846	0.0157220
834.924	0.0158129
835.003	0.0158624
835.081	0.0156834
835.159	0.0157437
835.237	0.0157391
835.315	0.0159084
835.393	0.0158648
835.471	0.0159486
835.549	0.0157726
835.628	0.0159873
835.706	0.0159492
835.784	0.0159487
835.862	0.0159212
835.940	0.0158721
836.018	0.0159777
836.096	0.0160464
836.174	0.0158991
836.253	0.0160731
836.331	0.0160555
836.409	0.0159998
836.487	0.0162289
836.565	0.0161830
836.643	0.0160137
836.721	0.0159872
836.799	0.0159605
836.878	0.0160126
836.956	0.0161273
837.034	0.0164024
837.112	0.0160520
837.190	0.0162364
837.268	0.0159680
837.346	0.0161931
837.424	0.0161294
837.503	0.0160832
837.581	0.0159838
837.659	0.0159676
837.737	0.0159454
837.815	0.0159151
837.893	0.0159823
837.971	0.0158815
838.049	0.0158925
838.128	0.0158064
838.206	0.0159092
838.284	0.0157584
838.362	0.0157029
838.440	0.0158115
838.518	0.0156564
838.596	0.0157715
838.674	0.0158180
838.753	0.0158161
838.831	0.0158063
838.909	0.0157018
838.987	0.0158112
839.065	0.0158010
839.143	0.0157612
839.221	0.0158717
839.299	0.0158253
839.378	0.0159816
839.456	0.0158693
839.534	0.0160254
839.612	0.0161060
839.690	0.0158643
839.768	0.0158367
839.846	0.0159839
839.924	0.0160326
840.003	0.0159419
840.081	0.0159737
840.159	0.0160580
840.237	0.0159135
840.315	0.0158390
840.393	0.0159396
840.471	0.0157824
840.549	0.0158899
840.628	0.0159964
840.706	0.0158524
840.784	0.0157832
840.862	0.0160172
840.940	0.0159042
841.018	0.0159212
841.096	0.0159987
841.174	0.0159317
841.253	0.0158566
841.331	0.0158822
841.409	0.0159698
841.487	0.0159429
841.565	0.0159737
841.643	0.0160586
841.721	0.0159959
841.799	0.0161584
841.878	0.0160081
841.956	0.0160060
842.034	0.0158192
842.112	0.0159591
842.190	0.0160300
842.268	0.0158739
842.346	0.0160753
842.424	0.0159719
842.503	0.0160577
842.581	0.0160217
842.659	0.0159910
842.737	0.0160654
842.815	0.0160760
842.893	0.0159681
842.971	0.0161088
843.049	0.0160719
843.128	0.0161115
843.206	0.0160516
843.284	0.0159730
843.362	0.0159308
843.440	0.0159384
843.518	0.0159420
843.596	0.0158434
843.674	0.0160594
843.753	0.0159600
843.831	0.0159004
843.909	0.0157723
843.987	0.0158900
844.065	0.0158726
844.143	0.0157935
844.221	0.0158291
844.299	0.0159380
844.378	0.0157326
844.456	0.0158220
844.534	0.0157391
844.612	0.0158261
844.690	0.0157222
844.768	0.0158371
844.846	0.0157778
844.924	0.0157568
845.003	0.0158370
845.081	0.0157766
845.159	0.0156353
845.237	0.0155613
845.315	0.0156120
845.393	0.0157732
845.471	0.0156769
845.549	0.0158004
845.628	0.0158608
845.706	0.0157809
845.784	0.0158303
845.862	0.0157733
845.940	0.0158787
846.018	0.0158485
846.096	0.0157832
846.174	0.0158308
846.253	0.0158915
846.331	0.0159130
846.409	0.0159662
846.487	0.0158663
846.565	0.0159241
846.643	0.0159298
846.721	0.0160028
846.799	0.0160256
846.878	0.0159035
846.956	0.0159222
847.034	0.0159831
847.112	0.0159832
847.190	0.0159793
847.268	0.0159840
847.346	0.0160562
847.424	0.0159687
847.503	0.0159660
847.581	0.0161428
847.659	0.0159560
847.737	0.0161009
847.815	0.0160260
847.893	0.0161282
847.971	0.0159760
848.049	0.0160506
848.128	0.0159412
848.206	0.0159944
848.284	0.0158829
848.362	0.0160327
848.440	0.0160071
848.518	0.0158486
848.596	0.0159249
848.674	0.0159241
848.753	0.0160025
848.831	0.0159330
848.909	0.0158171
848.987	0.0158826
849.065	0.0158949
849.143	0.0158739
849.221	0.0158696
849.299	0.0159569
849.378	0.0158413
849.456	0.0158298
849.534	0.0159451
849.612	0.0157358
849.690	0.0158102
849.768	0.0159187
849.846	0.0158051
849.924	0.0158707
850.003	0.0158481
850.081	0.0157703
850.159	0.0159032
850.237	0.0160022
850.315	0.0158092
850.393	0.0159282
850.471	0.0159857
850.549	0.0159692
850.628	0.0158699
850.706	0.0158876
850.784	0.0158044
850.862	0.0159428
850.940	0.0159958
851.018	0.0159287
851.096	0.0158682
851.174	0.0159073
851.253	0.0157807
851.331	0.0159541
851.409	0.0158644
851.487	0.0158287
851.565	0.0159581
851.643	0.0159467
851.721	0.0159087
851.799	0.0158610
851.878	0.0158589
851.956	0.0159265
852.034	0.0158140
852.112	0.0159681
852.190	0.0158500
852.268	0.0159695
852.346	0.0158865
852.424	0.0158822
852.503	0.0159760
852.581	0.0159698
852.659	0.0159761
852.737	0.0160722
852.815	0.0160026
852.893	0.0159362
852.971	0.0159002
853.049	0.0160078
853.128	0.0161086
853.206	0.0160184
853.284	0.0159978
853.362	0.0160699
853.440	0.0160985
853.518	0.0160381
853.596	0.0161694
853.674	0.0160287
853.753	0.0158873
853.831	0.0160016
853.909	0.0160624
853.987	0.0160336
854.065	0.0160101
854.143	0.0158535
854.221	0.0160415
854.299	0.0159788
854.378	0.0158790
854.456	0.0160487
854.534	0.0159443
854.612	0.0159341
854.690	0.0158794
854.768	0.0159467
854.846	0.0158587
854.924	0.0159804
855.003	0.0158967
855.081	0.0159977
855.159	0.0159410
855.237	0.0159532
855.315	0.0158646
855.393	0.0159019
855.471	0.0159534
855.549	0.0158462
855.628	0.0159858
855.706	0.0159047
855.784	0.0158028
855.862	0.0158741
855.940	0.0158696
856.018	0.0159320
856.096	0.0158998
856.174	0.0159367
856.253	0.0159772
856.331	0.0159396
856.409	0.0160048
856.487	0.0159973
856.565	0.0159434
856.643	0.0159490
856.721	0.0160634
856.799	0.0160163
856.878	0.0159089
856.956	0.0159247
857.034	0.0160997
857.112	0.0159089
857.190	0.0159324
857.268	0.0159957
857.346	0.0159646
857.424	0.0159481
857.503	0.0161557
857.581	0.0160385
857.659	0.0159735
857.737	0.0160349
857.815	0.0160384
857.893	0.0159873
857.971	0.0159942
858.049	0.0160918
858.128	0.0159495
858.206	0.0159995
858.284	0.0159892
858.362	0.0159521
858.440	0.0159696
858.518	0.0159083
858.596	0.0160612
858.674	0.0159851
858.753	0.0159538
858.831	0.0160155
858.909	0.0160161
858.987	0.0161638
859.065	0.0159934
859.143	0.0160114
859.221	0.0159951
859.299	0.0160112
859.378	0.0160777
859.456	0.0160048
859.534	0.0159325
859.612	0.0160725
859.690	0.0159785
859.768	0.0158331
859.846	0.0159300
859.924	0.0159477
860.003	0.0160284
860.081	0.0159454
860.159	0.0158978
860.237	0.0159564
860.315	0.0159480
860.393	0.0157946
860.471	0.0158974
860.549	0.0157454
860.628	0.0157590
860.706	0.0158968
860.784	0.0159364
860.862	0.0157627
860.940	0.0158351
861.018	0.0159039
861.096	0.0158768
861.174	0.0160300
861.253	0.0159818
861.331	0.0159434
861.409	0.0158104
861.487	0.0157893
861.565	0.0159024
861.643	0.0158579
861.721	0.0158347
861.799	0.0158335
861.878	0.0156912
861.956	0.0158816
862.034	0.0159843
862.112	0.0159023
862.190	0.0159610
862.268	0.0160004
862.346	0.0157286
862.424	0.0159714
862.503	0.0158867
862.581	0.0159093
862.659	0.0161230
862.737	0.0159502
862.815	0.0157970
862.893	0.0158965
862.971	0.0159128
863.049	0.0159305
863.128	0.0160445
863.206	0.0160176
863.284	0.0159025
863.362	0.0159945
863.440	0.0160941
863.518	0.0159369
863.596	0.0160531
863.674	0.0158889
863.753	0.0159093
863.831	0.0158898
863.909	0.0160100
863.987	0.0159070
864.065	0.0160186
864.143	0.0159111
864.221	0.0159687
864.299	0.0158963
864.378	0.0159160
864.456	0.0160077
864.534	0.0158546
864.612	0.0159518
864.690	0.0158971
864.768	0.0158662
864.846	0.0158244
864.924	0.0159423
865.003	0.0158882
865.081	0.0158893
865.159	0.0159722
865.237	0.0159385
865.315	0.0159250
865.393	0.0158272
865.471	0.0157964
865.549	0.0158098
865.628	0.0159572
865.706	0.0158150
865.784	0.0157848
865.862	0.0156707
865.940	0.0159650
866.018	0.0158858
866.096	0.0158443
866.174	0.0157249
866.253	0.0158328
866.331	0.0157889
866.409	0.0158775
866.487	0.0158482
866.565	0.0157793
866.643	0.0157397
866.721	0.0157327
866.799	0.0158060
866.878	0.0158716
866.956	0.0158153
867.034	0.0158032
867.112	0.0159743
867.190	0.0160763
867.268	0.0159460
867.346	0.0159095
867.424	0.0158723
867.503	0.0158167
867.581	0.0159998
867.659	0.0161176
867.737	0.0159916
867.815	0.0159879
867.893	0.0160320
867.971	0.0158872
868.049	0.0160043
868.128	0.0159927
868.206	0.0160405
868.284	0.0162106
868.362	0.0160972
868.440	0.0159505
868.518	0.0160592
868.596	0.0160514
868.674	0.0160100
868.753	0.0158678
868.831	0.0159809
868.909	0.0160124
868.987	0.0159855
869.065	0.0158740
869.143	0.0158665
869.221	0.0159415
869.299	0.0158098
869.378	0.0158147
869.456	0.0159088
869.534	0.0159891
869.612	0.0158855
869.690	0.0157580
869.768	0.0160260
869.846	0.0158759
869.924	0.0158882
870.003	0.0158471
870.081	0.0158039
870.159	0.0158304
870.237	0.0157631
870.315	0.0157667
870.393	0.0158546
870.471	0.0159532
870.549	0.0157994
870.628	0.0157656
870.706	0.0157451
870.784	0.0158992
870.862	0.0159296
870.940	0.0158525
871.018	0.0158428
871.096	0.0157794
871.174	0.0159019
871.253	0.0160551
871.331	0.0159842
871.409	0.0161196
871.487	0.0159175
871.565	0.0159821
871.643	0.0160218
871.721	0.0159251
871.799	0.0159486
871.878	0.0159059
871.956	0.0159145
872.034	0.0160048
872.112	0.0159157
872.190	0.0159677
872.268	0.0158848
872.346	0.0162350
872.424	0.0159840
872.503	0.0159464
872.581	0.0160141
872.659	0.0160839
872.737	0.0161071
872.815	0.0160700
872.893	0.0160028
872.971	0.0160583
873.049	0.0160110
873.128	0.0160970
873.206	0.0161514
873.284	0.0161749
873.362	0.0161713
873.440	0.0160870
873.518	0.0160109
873.596	0.0161110
873.674	0.0161495
873.753	0.0162214
873.831	0.0160036
873.909	0.0160939
873.987	0.0161572
874.065	0.0161646
874.143	0.0161712
874.221	0.0161720
874.299	0.0162804
874.378	0.0162188
874.456	0.0161140
874.534	0.0162049
874.612	0.0160965
874.690	0.0161292
874.768	0.0160383
874.846	0.0161699
874.924	0.0163249
875.003	0.0161214
875.081	0.0160687
875.159	0.0161105
875.237	0.0160266
875.315	0.0160991
875.393	0.0161230
875.471	0.0158976
875.549	0.0160295
875.628	0.0159589
875.706	0.0160180
875.784	0.0159708
875.862	0.0161250
875.940	0.0158692
876.018	0.0159215
876.096	0.0159048
876.174	0.0159473
876.253	0.0158974
876.331	0.0159344
876.409	0.0159003
876.487	0.0160020
876.565	0.0158214
876.643	0.0158847
876.721	0.0160040
876.799	0.0158263
876.878	0.0160578
876.956	0.0159505
877.034	0.0157684
877.112	0.0160175
877.190	0.0159640
877.268	0.0159904
877.346	0.0160192
877.424	0.0159081
877.503	0.0159560
877.581	0.0160886
877.659	0.0160835
877.737	0.0160732
877.815	0.0159208
877.893	0.0159534
877.971	0.0160336
878.049	0.0159970
878.128	0.0159330
878.206	0.0161228
878.284	0.0159621
878.362	0.0159157
878.440	0.0159139
878.518	0.0160020
878.596	0.0158874
878.674	0.0159508
878.753	0.0158803
878.831	0.0159492
878.909	0.0158524
878.987	0.0158599
879.065	0.0159882
879.143	0.0158763
879.221	0.0158590
879.299	0.0157725
879.378	0.0159258
879.456	0.0159136
879.534	0.0157998
879.612	0.0158270
879.690	0.0158375
879.768	0.0160398
879.846	0.0159049
879.924	0.0159572
880.003	0.0158932
880.081	0.0159176
880.159	0.0159543
880.237	0.0159245
880.315	0.0159706
880.393	0.0159714
880.471	0.0161181
880.549	0.0160069
880.628	0.0159712
880.706	0.0158746
880.784	0.0160387
880.862	0.0160371
880.940	0.0159943
881.018	0.0159372
881.096	0.0160219
881.174	0.0159991
881.253	0.0159557
881.331	0.0159972
881.409	0.0160468
881.487	0.0159315
881.565	0.0159762
881.643	0.0160352
881.721	0.0159990
881.799	0.0159709
881.878	0.0159766
881.956	0.0159558
882.034	0.0159255
882.112	0.0160019
882.190	0.0160173
882.268	0.0159186
882.346	0.0158606
882.424	0.0160090
882.503	0.0161224
882.581	0.0158818
882.659	0.0159364
882.737	0.0161228
882.815	0.0159905
882.893	0.0159785
882.971	0.0160448
883.049	0.0159283
883.128	0.0160640
883.206	0.0160583
883.284	0.0158939
883.362	0.0160009
883.440	0.0161411
883.518	0.0160457
883.596	0.0160714
883.674	0.0159949
883.753	0.0160279
883.831	0.0160490
883.909	0.0160915
883.987	0.0160487
884.065	0.0159470
884.143	0.0161785
884.221	0.0158857
884.299	0.0160668
884.378	0.0160282
884.456	0.0160157
884.534	0.0160638
884.612	0.0161152
884.690	0.0158537
884.768	0.0159796
884.846	0.0159782
884.924	0.0158567
885.003	0.0159421
885.081	0.0159834
885.159	0.0157538
885.237	0.0158264
885.315	0.0158663
885.393	0.0159905
885.471	0.0159240
885.549	0.0159740
885.628	0.0159077
885.706	0.0158450
885.784	0.0159381
885.862	0.0159419
885.940	0.0158175
886.018	0.0157999
886.096	0.0159251
886.174	0.0158835
886.253	0.0157847
886.331	0.0159296
886.409	0.0159591
886.487	0.0159790
886.565	0.0158734
886.643	0.0158273
886.721	0.0158226
886.799	0.0158397
886.878	0.0158361
886.956	0.0159414
887.034	0.0158237
887.112	0.0159402
887.190	0.0158142
887.268	0.0159623
887.346	0.0159577
887.424	0.0157501
887.503	0.0158219
887.581	0.0157954
887.659	0.0159000
887.737	0.0157581
887.815	0.0157580
887.893	0.0158283
887.971	0.0158132
888.049	0.0156563
888.128	0.0158488
888.206	0.0158495
888.284	0.0158278
888.362	0.0159875
888.440	0.0157217
888.518	0.0157868
888.596	0.0158529
888.674	0.0157124
888.753	0.0158154
888.831	0.0158607
888.909	0.0158421
888.987	0.0158270
889.065	0.0158153
889.143	0.0158275
889.221	0.0158371
889.299	0.0159446
889.378	0.0159023
889.456	0.0158562
889.534	0.0158872
889.612	0.0159734
889.690	0.0158551
889.768	0.0158490
889.846	0.0158937
889.924	0.0159489
890.003	0.0158904
890.081	0.0159198
890.159	0.0158414
890.237	0.0158446
890.315	0.0157443
890.393	0.0158348
890.471	0.0157597
890.549	0.0157923
890.628	0.0159017
890.706	0.0157878
890.784	0.0158906
890.862	0.0158466
890.940	0.0158132
891.018	0.0158820
891.096	0.0158210
891.174	0.0157896
891.253	0.0159125
891.331	0.0158025
891.409	0.0158073
891.487	0.0158100
891.565	0.0157975
891.643	0.0160848
891.721	0.0157668
891.799	0.0158598
891.878	0.0158432
891.956	0.0158645
892.034	0.0160086
892.112	0.0157964
892.190	0.0158628
892.268	0.0159074
892.346	0.0159240
892.424	0.0158348
892.503	0.0158135
892.581	0.0160683
892.659	0.0158910
892.737	0.0161530
892.815	0.0158521
892.893	0.0159702
892.971	0.0160784
893.049	0.0159366
893.128	0.0158466
893.206	0.0160471
893.284	0.0159008
893.362	0.0159893
893.440	0.0160416
893.518	0.0159174
893.596	0.0158344
893.674	0.0159370
893.753	0.0160594
893.831	0.0159386
893.909	0.0158591
893.987	0.0159696
894.065	0.0161300
894.143	0.0159848
894.221	0.0160355
894.299	0.0159141
894.378	0.0159103
894.456	0.0160329
894.534	0.0159561
894.612	0.0159203
894.690	0.0159676
894.768	0.0159838
894.846	0.0160154
894.924	0.0160089
895.003	0.0159528
895.081	0.0159415
895.159	0.0159154
895.237	0.0161471
895.315	0.0159594
895.393	0.0160143
895.471	0.0161034
895.549	0.0160560
895.628	0.0159956
895.706	0.0159393
895.784	0.0159251
895.862	0.0160464
895.940	0.0160818
896.018	0.0159624
896.096	0.0161790
896.174	0.0159272
896.253	0.0158539
896.331	0.0160505
896.409	0.0161266
896.487	0.0159320
896.565	0.0160210
896.643	0.0159563
896.721	0.0159252
896.799	0.0159763
896.878	0.0159312
896.956	0.0159353
897.034	0.0159532
897.112	0.0160744
897.190	0.0159148
897.268	0.0158989
897.346	0.0158646
897.424	0.0159701
897.503	0.0158834
897.581	0.0160470
897.659	0.0159518
897.737	0.0158693
897.815	0.0159805
897.893	0.0159524
897.971	0.0159794
898.049	0.0160267
898.128	0.0159679
898.206	0.0159868
898.284	0.0159409
898.362	0.0158682
898.440	0.0160136
898.518	0.0160468
898.596	0.0160962
898.674	0.0159342
898.753	0.0159861
898.831	0.0159611
898.909	0.0158767
898.987	0.0159845
899.065	0.0157229
899.143	0.0159012
899.221	0.0159254
899.299	0.0158543
899.378	0.0157725
899.456	0.0155504
899.534	0.0159438
899.612	0.0159442
899.690	0.0158647
899.768	0.0159891
899.846	0.0158111
899.924	0.0159103
900.003	0.0159565
900.081	0.0159359
900.159	0.0159851
900.237	0.0159380
900.315	0.0159823
900.393	0.0158280
900.471	0.0160820
900.549	0.0159019
900.628	0.0158748
900.706	0.0159452
900.784	0.0159770
900.862	0.0159669
900.940	0.0159195
901.018	0.0158611
901.096	0.0158904
901.174	0.0159665
901.253	0.0159769
901.331	0.0158097
901.409	0.0158269
901.487	0.0159188
901.565	0.0161423
901.643	0.0160658
901.721	0.0160625
901.799	0.0159275
901.878	0.0161369
901.956	0.0160083
902.034	0.0159805
902.112	0.0161000
902.190	0.0160393
902.268	0.0159282
902.346	0.0159711
902.424	0.0159724
902.503	0.0160796
902.581	0.0160526
902.659	0.0160141
902.737	0.0161308
902.815	0.0159288
902.893	0.0160180
902.971	0.0160862
903.049	0.0161213
903.128	0.0159853
903.206	0.0160105
903.284	0.0160354
903.362	0.0159263
903.440	0.0159592
903.518	0.0160582
903.596	0.0159676
903.674	0.0158823
903.753	0.0159107
903.831	0.0159077
903.909	0.0158978
903.987	0.0159590
904.065	0.0158863
904.143	0.0159219
904.221	0.0158360
904.299	0.0158627
904.378	0.0159003
904.456	0.0160722
904.534	0.0158098
904.612	0.0158724
904.690	0.0158786
904.768	0.0158055
904.846	0.0158069
904.924	0.0158965
905.003	0.0158844
905.081	0.0159246
905.159	0.0158787
905.237	0.0159454
905.315	0.0159434
905.393	0.0158991
905.471	0.0157989
905.549	0.0159032
905.628	0.0159236
905.706	0.0159844
905.784	0.0159801
905.862	0.0159607
905.940	0.0159997
906.018	0.0159534
906.096	0.0161050
906.174	0.0160645
906.253	0.0161210
906.331	0.0160320
906.409	0.0160281
906.487	0.0160786
906.565	0.0161443
906.643	0.0160738
906.721	0.0161091
906.799	0.0160378
906.878	0.0160723
906.956	0.0160827
907.034	0.0160431
907.112	0.0159454
907.190	0.0160139
907.268	0.0161487
907.346	0.0160699
907.424	0.0160899
907.503	0.0159854
907.581	0.0160224
907.659	0.0159911
907.737	0.0160113
907.815	0.0159384
907.893	0.0159671
907.971	0.0160197
908.049	0.0160094
908.128	0.0159121
908.206	0.0159725
908.284	0.0160072
908.362	0.0159904
908.440	0.0159258
908.518	0.0160339
908.596	0.0160396
908.674	0.0160624
908.753	0.0160322
908.831	0.0160008
908.909	0.0159702
908.987	0.0159084
909.065	0.0159295
909.143	0.0159310
909.221	0.0160604
909.299	0.0159444
909.378	0.0160033
909.456	0.0159407
909.534	0.0159901
909.612	0.0159119
909.690	0.0159528
909.768	0.0159018
909.846	0.0160271
909.924	0.0160616
910.003	0.0159609
910.081	0.0159050
910.159	0.0158659
910.237	0.0159377
910.315	0.0160989
910.393	0.0160838
910.471	0.0159882
910.549	0.0161367
910.628	0.0161810
910.706	0.0160520
910.784	0.0159507
910.862	0.0159171
910.940	0.0160164
911.018	0.0160300
911.096	0.0158852
911.174	0.0159235
911.253	0.0158753
911.331	0.0159375
911.409	0.0158897
911.487	0.0159199
911.565	0.0158759
911.643	0.0159432
911.721	0.0159531
911.799	0.0159032
911.878	0.0158085
911.956	0.0158946
912.034	0.0158930
912.112	0.0159056
912.190	0.0158452
912.268	0.0158469
912.346	0.0158766
912.424	0.0158706
912.503	0.0159019
912.581	0.0158561
912.659	0.0157789
912.737	0.0158123
912.815	0.0157835
912.893	0.0158668
912.971	0.0158549
913.049	0.0159302
913.128	0.0158469
913.206	0.0158586
913.284	0.0159140
913.362	0.0158822
913.440	0.0159707
913.518	0.0158088
913.596	0.0159272
913.674	0.0159326
913.753	0.0162172
913.831	0.0159723
913.909	0.0159027
913.987	0.0159557
914.065	0.0160596
914.143	0.0159985
914.221	0.0158556
914.299	0.0160337
914.378	0.0159017
914.456	0.0160410
914.534	0.0160598
914.612	0.0158688
914.690	0.0158304
914.768	0.0160141
914.846	0.0159276
914.924	0.0159425
915.003	0.0160829
915.081	0.0159221
915.159	0.0158464
915.237	0.0159512
915.315	0.0157680
915.393	0.0158114
915.471	0.0158828
915.549	0.0159070
915.628	0.0157831
915.706	0.0159632
915.784	0.0159254
915.862	0.0157813
915.940	0.0158153
916.018	0.0158366
916.096	0.0157323
916.174	0.0158480
916.253	0.0159634
916.331	0.0160513
916.409	0.0159730
916.487	0.0157602
916.565	0.0159018
916.643	0.0158926
916.721	0.0159380
916.799	0.0160500
916.878	0.0158997
916.956	0.0157822
917.034	0.0158190
917.112	0.0157164
917.190	0.0158773
917.268	0.0158072
917.346	0.0159370
917.424	0.0159042
917.503	0.0158923
917.581	0.0158278
917.659	0.0158834
917.737	0.0157870
917.815	0.0159304
917.893	0.0158851
917.971	0.0157640
918.049	0.0160159
918.128	0.0158164
918.206	0.0158306
918.284	0.0159357
918.362	0.0159766
918.440	0.0158562
918.518	0.0157832
918.596	0.0159580
918.674	0.0160141
918.753	0.0159081
918.831	0.0158664
918.909	0.0159628
918.987	0.0159596
919.065	0.0160157
919.143	0.0158372
919.221	0.0157788
919.299	0.0158949
919.378	0.0158857
919.456	0.0157996
919.534	0.0158237
919.612	0.0157809
919.690	0.0157846
919.768	0.0157895
919.846	0.0156467
919.924	0.0158124
920.003	0.0158524
920.081	0.0157226
920.159	0.0157497
920.237	0.0157340
920.315	0.0157364
920.393	0.0156444
920.471	0.0156409
920.549	0.0156641
920.628	0.0157929
920.706	0.0156825
920.784	0.0157345
920.862	0.0158299
920.940	0.0158128
921.018	0.0157475
921.096	0.0157589
921.174	0.0159543
921.253	0.0157501
921.331	0.0158940
921.409	0.0159190
921.487	0.0158909
921.565	0.0157835
921.643	0.0159239
921.721	0.0159154
921.799	0.0158463
921.878	0.0159616
921.956	0.0158690
922.034	0.0158024
922.112	0.0159058
922.190	0.0161147
922.268	0.0159796
922.346	0.0159789
922.424	0.0160033
922.503	0.0158899
922.581	0.0160000
922.659	0.0158731
922.737	0.0160800
922.815	0.0160208
922.893	0.0160091
922.971	0.0160255
923.049	0.0160703
923.128	0.0160714
923.206	0.0160519
923.284	0.0158984
923.362	0.0160079
923.440	0.0159468
923.518	0.0158603
923.596	0.0159158
923.674	0.0159213
923.753	0.0159694
923.831	0.0158289
923.909	0.0158899
923.987	0.0158904
924.065	0.0159499
924.143	0.0159024
924.221	0.0159082
924.299	0.0159095
924.378	0.0158949
924.456	0.0157877
924.534	0.0158857
924.612	0.0159129
924.690	0.0160444
924.768	0.0159503
924.846	0.0159674
924.924	0.0159778
925.003	0.0160052
925.081	0.0160600
925.159	0.0160600
925.237	0.0159445
925.315	0.0160600
925.393	0.0160965
925.471	0.0160810
925.549	0.0161219
925.628	0.0161182
925.706	0.0159847
925.784	0.0160208
925.862	0.0160882
925.940	0.0160211
926.018	0.0160941
926.096	0.0160003
926.174	0.0160645
926.253	0.0160619
926.331	0.0159618
926.409	0.0160085
926.487	0.0159827
926.565	0.0159505
926.643	0.0159521
926.721	0.0160065
926.799	0.0159573
926.878	0.0159996
926.956	0.0159824
927.034	0.0160390
927.112	0.0159437
927.190	0.0158752
927.268	0.0158917
927.346	0.0161520
927.424	0.0159206
927.503	0.0159234
927.581	0.0160846
927.659	0.0158316
927.737	0.0158389
927.815	0.0159751
927.893	0.0159270
927.971	0.0159458
928.049	0.0159895
928.128	0.0158297
928.206	0.0159758
928.284	0.0159738
928.362	0.0160033
928.440	0.0160609
928.518	0.0160258
928.596	0.0159457
928.674	0.0159601
928.753	0.0160452
928.831	0.0159785
928.909	0.0159769
928.987	0.0160312
929.065	0.0159283
929.143	0.0159753
929.221	0.0159033
929.299	0.0159386
929.378	0.0160201
929.456	0.0159725
929.534	0.0158735
929.612	0.0159538
929.690	0.0159771
929.768	0.0159782
929.846	0.0161404
929.924	0.0159155
930.003	0.0159679
930.081	0.0160170
930.159	0.0160136
930.237	0.0159335
930.315	0.0159373
930.393	0.0158984
930.471	0.0160608
930.549	0.0160538
930.628	0.0158997
930.706	0.0159447
930.784	0.0160144
930.862	0.0158379
930.940	0.0159319
931.018	0.0160706
931.096	0.0159135
931.174	0.0159821
931.253	0.0160391
931.331	0.0160336
931.409	0.0160672
931.487	0.0159247
931.565	0.0159959
931.643	0.0159226
931.721	0.0158237
931.799	0.0160038
931.878	0.0160977
931.956	0.0160032
932.034	0.0160175
932.112	0.0160578
932.190	0.0160348
932.268	0.0160546
932.346	0.0160658
932.424	0.0159093
932.503	0.0158257
932.581	0.0160720
932.659	0.0159011
932.737	0.0159496
932.815	0.0160043
932.893	0.0157791
932.971	0.0158255
933.049	0.0158370
933.128	0.0157422
933.206	0.0157605
933.284	0.0158894
933.362	0.0158621
933.440	0.0158014
933.518	0.0159375
933.596	0.0159258
933.674	0.0158431
933.753	0.0160212
933.831	0.0158727
933.909	0.0157388
933.987	0.0158775
934.065	0.0157371
934.143	0.0158764
934.221	0.0158767
934.299	0.0159181
934.378	0.0159209
934.456	0.0158494
934.534	0.0158533
934.612	0.0157364
934.690	0.0159390
934.768	0.0159108
934.846	0.0158518
934.924	0.0157877
935.003	0.0158709
935.081	0.0156340
935.159	0.0157645
935.237	0.0159159
935.315	0.0157764
935.393	0.0158849
935.471	0.0157475
935.549	0.0158325
935.628	0.0158382
935.706	0.0158273
935.784	0.0158681
935.862	0.0157944
935.940	0.0158630
936.018	0.0159373
936.096	0.0159809
936.174	0.0159349
936.253	0.0159093
936.331	0.0158862
936.409	0.0159525
936.487	0.0159164
936.565	0.0158541
936.643	0.0159468
936.721	0.0159244
936.799	0.0160368
936.878	0.0159171
936.956	0.0158519
937.034	0.0159429
937.112	0.0159464
937.190	0.0158887
937.268	0.0159922
937.346	0.0160075
937.424	0.0159666
937.503	0.0158299
937.581	0.0160194
937.659	0.0159595
937.737	0.0158525
937.815	0.0157880
937.893	0.0159336
937.971	0.0159013
938.049	0.0159374
938.128	0.0157899
938.206	0.0158471
938.284	0.0159192
938.362	0.0158285
938.440	0.0159071
938.518	0.0158559
938.596	0.0158792
938.674	0.0159834
938.753	0.0159888
938.831	0.0159056
938.909	0.0158652
938.987	0.0158768
939.065	0.0158969
939.143	0.0158737
939.221	0.0158114
939.299	0.0159956
939.378	0.0158506
939.456	0.0160564
939.534	0.0159640
939.612	0.0159245
939.690	0.0158466
939.768	0.0158917
939.846	0.0158419
939.924	0.0159654
940.003	0.0158437
940.081	0.0157563
940.159	0.0159654
940.237	0.0159636
940.315	0.0158956
940.393	0.0159084
940.471	0.0160107
940.549	0.0158129
940.628	0.0159013
940.706	0.0161075
940.784	0.0159724
940.862	0.0158707
940.940	0.0159644
941.018	0.0158556
941.096	0.0160938
941.174	0.0161105
941.253	0.0159819
941.331	0.0158932
941.409	0.0160415
941.487	0.0160320
941.565	0.0158749
941.643	0.0160428
941.721	0.0159862
941.799	0.0160203
941.878	0.0159135
941.956	0.0159578
942.034	0.0158630
942.112	0.0157439
942.190	0.0158425
942.268	0.0158250
942.346	0.0159209
942.424	0.0158952
942.503	0.0159167
942.581	0.0157961
942.659	0.0159613
942.737	0.0159753
942.815	0.0159366
942.893	0.0160251
942.971	0.0159322
943.049	0.0158692
943.128	0.0159028
943.206	0.0159100
943.284	0.0158443
943.362	0.0159603
943.440	0.0159140
943.518	0.0158304
943.596	0.0157818
943.674	0.0160354
943.753	0.0160264
943.831	0.0159386
943.909	0.0158598
943.987	0.0159247
944.065	0.0158888
944.143	0.0159667
944.221	0.0158088
944.299	0.0158894
944.378	0.0159158
944.456	0.0158965
944.534	0.0159907
944.612	0.0158745
944.690	0.0158116
944.768	0.0158288
944.846	0.0159742
944.924	0.0159586
945.003	0.0158266
945.081	0.0159914
945.159	0.0160114
945.237	0.0159234
945.315	0.0160068
945.393	0.0159115
945.471	0.0158504
945.549	0.0159380
945.628	0.0159895
945.706	0.0159541
945.784	0.0160081
945.862	0.0159387
945.940	0.0159754
946.018	0.0159943
946.096	0.0159459
946.174	0.0161223
946.253	0.0158250
946.331	0.0158578
946.409	0.0160054
946.487	0.0159678
946.565	0.0160184
946.643	0.0160329
946.721	0.0160246
946.799	0.0160505
946.878	0.0160722
946.956	0.0159112
947.034	0.0159636
947.112	0.0159776
947.190	0.0159034
947.268	0.0160443
947.346	0.0160323
947.424	0.0161525
947.503	0.0159953
947.581	0.0159433
947.659	0.0158727
947.737	0.0161153
947.815	0.0160819
947.893	0.0159803
947.971	0.0160297
948.049	0.0160441
948.128	0.0159855
948.206	0.0160614
948.284	0.0161407
948.362	0.0161220
948.440	0.0161987
948.518	0.0161665
948.596	0.0161554
948.674	0.0162663
948.753	0.0162160
948.831	0.0161772
948.909	0.0161356
948.987	0.0162260
949.065	0.0160888
949.143	0.0159996
949.221	0.0161154
949.299	0.0161833
949.378	0.0161320
949.456	0.0160746
949.534	0.0160405
949.612	0.0158504
949.690	0.0160630
949.768	0.0159927
949.846	0.0160130
949.924	0.0159586
