06/29/2022	23:13:06	Ver.	4.1	UNKNOWN
Optical Delay	630.002507	Delta X		0.078125	Sweeps	1	Scan Rate	0/0
Coordinates	Axis 1	NaN	Axis 2	NaN	Axis 3	NaN	Axis 4	NaN	Axis 5	NaN	Axis 6	0.000000
TX Power	0.000000	RX Power	0.000000

630.003	0.0160554
630.081	0.0161228
630.159	0.0160707
630.237	0.0161225
630.315	0.0161066
630.393	0.0161129
630.471	0.0160884
630.549	0.0161935
630.628	0.0161326
630.706	0.0162809
630.784	0.0161115
630.862	0.0161323
630.940	0.0161592
631.018	0.0160696
631.096	0.0161287
631.174	0.0161886
631.253	0.0160767
631.331	0.0161933
631.409	0.0161836
631.487	0.0160346
631.565	0.0161102
631.643	0.0160382
631.721	0.0161598
631.799	0.0161004
631.878	0.0161968
631.956	0.0161724
632.034	0.0160332
632.112	0.0160320
632.190	0.0160952
632.268	0.0160871
632.346	0.0161451
632.424	0.0160322
632.503	0.0161508
632.581	0.0161537
632.659	0.0160249
632.737	0.0159961
632.815	0.0161030
632.893	0.0160365
632.971	0.0159832
633.049	0.0159554
633.128	0.0160576
633.206	0.0159342
633.284	0.0161242
633.362	0.0161597
633.440	0.0160099
633.518	0.0158269
633.596	0.0160240
633.674	0.0162305
633.753	0.0160493
633.831	0.0159655
633.909	0.0160612
633.987	0.0159370
634.065	0.0160511
634.143	0.0161913
634.221	0.0162354
634.299	0.0159820
634.378	0.0161040
634.456	0.0160209
634.534	0.0160248
634.612	0.0158799
634.690	0.0160201
634.768	0.0159696
634.846	0.0160466
634.924	0.0161056
635.003	0.0161156
635.081	0.0161420
635.159	0.0159959
635.237	0.0159481
635.315	0.0159844
635.393	0.0161117
635.471	0.0160465
635.549	0.0159374
635.628	0.0159583
635.706	0.0159758
635.784	0.0160635
635.862	0.0161315
635.940	0.0158200
636.018	0.0159357
636.096	0.0160513
636.174	0.0160053
636.253	0.0159180
636.331	0.0159008
636.409	0.0159283
636.487	0.0160534
636.565	0.0158977
636.643	0.0160917
636.721	0.0160323
636.799	0.0159706
636.878	0.0158687
636.956	0.0160485
637.034	0.0159294
637.112	0.0160050
637.190	0.0160360
637.268	0.0160126
637.346	0.0160510
637.424	0.0160197
637.503	0.0159281
637.581	0.0160684
637.659	0.0160746
637.737	0.0159502
637.815	0.0158708
637.893	0.0159959
637.971	0.0160699
638.049	0.0161165
638.128	0.0160661
638.206	0.0160368
638.284	0.0159209
638.362	0.0160603
638.440	0.0161646
638.518	0.0160259
638.596	0.0159644
638.674	0.0159191
638.753	0.0160346
638.831	0.0158897
638.909	0.0161137
638.987	0.0159870
639.065	0.0158741
639.143	0.0159686
639.221	0.0160059
639.299	0.0159343
639.378	0.0159842
639.456	0.0159816
639.534	0.0160486
639.612	0.0161137
639.690	0.0161049
639.768	0.0160028
639.846	0.0161345
639.924	0.0159984
640.003	0.0159488
640.081	0.0160224
640.159	0.0159650
640.237	0.0159608
640.315	0.0161388
640.393	0.0161607
640.471	0.0161883
640.549	0.0161540
640.628	0.0159733
640.706	0.0160187
640.784	0.0159848
640.862	0.0160605
640.940	0.0160928
641.018	0.0160537
641.096	0.0160096
641.174	0.0161414
641.253	0.0161301
641.331	0.0160052
641.409	0.0161514
641.487	0.0160676
641.565	0.0161145
641.643	0.0160683
641.721	0.0161852
641.799	0.0161468
641.878	0.0160175
641.956	0.0161108
642.034	0.0161177
642.112	0.0161446
642.190	0.0161350
642.268	0.0161063
642.346	0.0162273
642.424	0.0160612
642.503	0.0160207
642.581	0.0159359
642.659	0.0159997
642.737	0.0160551
642.815	0.0160309
642.893	0.0161372
642.971	0.0160372
643.049	0.0160201
643.128	0.0160758
643.206	0.0159780
643.284	0.0161251
643.362	0.0161754
643.440	0.0160200
643.518	0.0160349
643.596	0.0161136
643.674	0.0160297
643.753	0.0160764
643.831	0.0160985
643.909	0.0160145
643.987	0.0160741
644.065	0.0159827
644.143	0.0159651
644.221	0.0161160
644.299	0.0161101
644.378	0.0160874
644.456	0.0159927
644.534	0.0160670
644.612	0.0160212
644.690	0.0160703
644.768	0.0160779
644.846	0.0159838
644.924	0.0160034
645.003	0.0160535
645.081	0.0159696
645.159	0.0160787
645.237	0.0162457
645.315	0.0160809
645.393	0.0160245
645.471	0.0159059
645.549	0.0159058
645.628	0.0159827
645.706	0.0158939
645.784	0.0160052
645.862	0.0159956
645.940	0.0158752
646.018	0.0159550
646.096	0.0159676
646.174	0.0159531
646.253	0.0160108
646.331	0.0161317
646.409	0.0160836
646.487	0.0160043
646.565	0.0159682
646.643	0.0159351
646.721	0.0159827
646.799	0.0159965
646.878	0.0159052
646.956	0.0159515
647.034	0.0159533
647.112	0.0160381
647.190	0.0159887
647.268	0.0159280
647.346	0.0159439
647.424	0.0160361
647.503	0.0161164
647.581	0.0159360
647.659	0.0158241
647.737	0.0160062
647.815	0.0161051
647.893	0.0160260
647.971	0.0159771
648.049	0.0159226
648.128	0.0160441
648.206	0.0159334
648.284	0.0158497
648.362	0.0158292
648.440	0.0158812
648.518	0.0159677
648.596	0.0158878
648.674	0.0159464
648.753	0.0158560
648.831	0.0159547
648.909	0.0159070
648.987	0.0158251
649.065	0.0158316
649.143	0.0158775
649.221	0.0158908
649.299	0.0159606
649.378	0.0158859
649.456	0.0158194
649.534	0.0159589
649.612	0.0160384
649.690	0.0159994
649.768	0.0160315
649.846	0.0159200
649.924	0.0160878
650.003	0.0160174
650.081	0.0158443
650.159	0.0158468
650.237	0.0158396
650.315	0.0159954
650.393	0.0160377
650.471	0.0160622
650.549	0.0160783
650.628	0.0159725
650.706	0.0160001
650.784	0.0160075
650.862	0.0159469
650.940	0.0159597
651.018	0.0159778
651.096	0.0160729
651.174	0.0159946
651.253	0.0159705
651.331	0.0160267
651.409	0.0159946
651.487	0.0159225
651.565	0.0159405
651.643	0.0157877
651.721	0.0160228
651.799	0.0161482
651.878	0.0161502
651.956	0.0159608
652.034	0.0159791
652.112	0.0159451
652.190	0.0159021
652.268	0.0160022
652.346	0.0159959
652.424	0.0158928
652.503	0.0159198
652.581	0.0160235
652.659	0.0159998
652.737	0.0159486
652.815	0.0160468
652.893	0.0159641
652.971	0.0158929
653.049	0.0159584
653.128	0.0160773
653.206	0.0159279
653.284	0.0160197
653.362	0.0161057
653.440	0.0160137
653.518	0.0160185
653.596	0.0161255
653.674	0.0160686
653.753	0.0160152
653.831	0.0159798
653.909	0.0158228
653.987	0.0161785
654.065	0.0160648
654.143	0.0160211
654.221	0.0160699
654.299	0.0159472
654.378	0.0160708
654.456	0.0158529
654.534	0.0159415
654.612	0.0158863
654.690	0.0159519
654.768	0.0160162
654.846	0.0160202
654.924	0.0159566
655.003	0.0159566
655.081	0.0157519
655.159	0.0160244
655.237	0.0161311
655.315	0.0158802
655.393	0.0159322
655.471	0.0158482
655.549	0.0159561
655.628	0.0159473
655.706	0.0161211
655.784	0.0158778
655.862	0.0160130
655.940	0.0159749
656.018	0.0159399
656.096	0.0159595
656.174	0.0160348
656.253	0.0160480
656.331	0.0160297
656.409	0.0159470
656.487	0.0158777
656.565	0.0159328
656.643	0.0159162
656.721	0.0159026
656.799	0.0160113
656.878	0.0160319
656.956	0.0159034
657.034	0.0159736
657.112	0.0160275
657.190	0.0159534
657.268	0.0158747
657.346	0.0159126
657.424	0.0159321
657.503	0.0160305
657.581	0.0158917
657.659	0.0160081
657.737	0.0160937
657.815	0.0159443
657.893	0.0159003
657.971	0.0159778
658.049	0.0158949
658.128	0.0158617
658.206	0.0159564
658.284	0.0160439
658.362	0.0159542
658.440	0.0158971
658.518	0.0158601
658.596	0.0158513
658.674	0.0158492
658.753	0.0160738
658.831	0.0159189
658.909	0.0159657
658.987	0.0158261
659.065	0.0159669
659.143	0.0160647
659.221	0.0159279
659.299	0.0159995
659.378	0.0159546
659.456	0.0159801
659.534	0.0159334
659.612	0.0160181
659.690	0.0159531
659.768	0.0159271
659.846	0.0159109
659.924	0.0160124
660.003	0.0160488
660.081	0.0160646
660.159	0.0159167
660.237	0.0159389
660.315	0.0159409
660.393	0.0160999
660.471	0.0159528
660.549	0.0160176
660.628	0.0158615
660.706	0.0159909
660.784	0.0161028
660.862	0.0159383
660.940	0.0158221
661.018	0.0159645
661.096	0.0159699
661.174	0.0160703
661.253	0.0159750
661.331	0.0159405
661.409	0.0161103
661.487	0.0158304
661.565	0.0159042
661.643	0.0158999
661.721	0.0159177
661.799	0.0160533
661.878	0.0160910
661.956	0.0159501
662.034	0.0159268
662.112	0.0159650
662.190	0.0158886
662.268	0.0158655
662.346	0.0159602
662.424	0.0157680
662.503	0.0159587
662.581	0.0159186
662.659	0.0159159
662.737	0.0158681
662.815	0.0159270
662.893	0.0159571
662.971	0.0160173
663.049	0.0159681
663.128	0.0159869
663.206	0.0159418
663.284	0.0161460
663.362	0.0160134
663.440	0.0158664
663.518	0.0159239
663.596	0.0159281
663.674	0.0159031
663.753	0.0160072
663.831	0.0159319
663.909	0.0160330
663.987	0.0160531
664.065	0.0160143
664.143	0.0158823
664.221	0.0161294
664.299	0.0160633
664.378	0.0162194
664.456	0.0160753
664.534	0.0160649
664.612	0.0159664
664.690	0.0160410
664.768	0.0160154
664.846	0.0160000
664.924	0.0160751
665.003	0.0159641
665.081	0.0161219
665.159	0.0160722
665.237	0.0160202
665.315	0.0159704
665.393	0.0159732
665.471	0.0159497
665.549	0.0160889
665.628	0.0160319
665.706	0.0161008
665.784	0.0160294
665.862	0.0159850
665.940	0.0160835
666.018	0.0160980
666.096	0.0160152
666.174	0.0160619
666.253	0.0160188
666.331	0.0161544
666.409	0.0158806
666.487	0.0159756
666.565	0.0159713
666.643	0.0160780
666.721	0.0160328
666.799	0.0160511
666.878	0.0159561
666.956	0.0158602
667.034	0.0159138
667.112	0.0159753
667.190	0.0159190
667.268	0.0159743
667.346	0.0159320
667.424	0.0158846
667.503	0.0159804
667.581	0.0159358
667.659	0.0160131
667.737	0.0159225
667.815	0.0160487
667.893	0.0160439
667.971	0.0158547
668.049	0.0158788
668.128	0.0160644
668.206	0.0158888
668.284	0.0159935
668.362	0.0159058
668.440	0.0160305
668.518	0.0160509
668.596	0.0158649
668.674	0.0158026
668.753	0.0158718
668.831	0.0159036
668.909	0.0158970
668.987	0.0159081
669.065	0.0159964
669.143	0.0159751
669.221	0.0159935
669.299	0.0158547
669.378	0.0160207
669.456	0.0160870
669.534	0.0159787
669.612	0.0160612
669.690	0.0160294
669.768	0.0160075
669.846	0.0158923
669.924	0.0160317
670.003	0.0159058
670.081	0.0159342
670.159	0.0160024
670.237	0.0159837
670.315	0.0159202
670.393	0.0160152
670.471	0.0160156
670.549	0.0159266
670.628	0.0158916
670.706	0.0159840
670.784	0.0160326
670.862	0.0159369
670.940	0.0158721
671.018	0.0160322
671.096	0.0160025
671.174	0.0159342
671.253	0.0159351
671.331	0.0160393
671.409	0.0159863
671.487	0.0159856
671.565	0.0158824
671.643	0.0160120
671.721	0.0159325
671.799	0.0158881
671.878	0.0160822
671.956	0.0158913
672.034	0.0159308
672.112	0.0160463
672.190	0.0158918
672.268	0.0159547
672.346	0.0159811
672.424	0.0160724
672.503	0.0159796
672.581	0.0157458
672.659	0.0159155
672.737	0.0159830
672.815	0.0159478
672.893	0.0158645
672.971	0.0159119
673.049	0.0159705
673.128	0.0160212
673.206	0.0159335
673.284	0.0159646
673.362	0.0159693
673.440	0.0160280
673.518	0.0159332
673.596	0.0159989
673.674	0.0161349
673.753	0.0160351
673.831	0.0159711
673.909	0.0159628
673.987	0.0160832
674.065	0.0159656
674.143	0.0160679
674.221	0.0160412
674.299	0.0159739
674.378	0.0160062
674.456	0.0159822
674.534	0.0158813
674.612	0.0160116
674.690	0.0159629
674.768	0.0161310
674.846	0.0160632
674.924	0.0159898
675.003	0.0159922
675.081	0.0161150
675.159	0.0161691
675.237	0.0160473
675.315	0.0159657
675.393	0.0161674
675.471	0.0159912
675.549	0.0160193
675.628	0.0161227
675.706	0.0160146
675.784	0.0160743
675.862	0.0160432
675.940	0.0159763
676.018	0.0160457
676.096	0.0159332
676.174	0.0159998
676.253	0.0160960
676.331	0.0159756
676.409	0.0159978
676.487	0.0160412
676.565	0.0160442
676.643	0.0159617
676.721	0.0160909
676.799	0.0159978
676.878	0.0159634
676.956	0.0160844
677.034	0.0160542
677.112	0.0160534
677.190	0.0160456
677.268	0.0159193
677.346	0.0159912
677.424	0.0160744
677.503	0.0160325
677.581	0.0160231
677.659	0.0160516
677.737	0.0160315
677.815	0.0160529
677.893	0.0160229
677.971	0.0158625
678.049	0.0159711
678.128	0.0160236
678.206	0.0160081
678.284	0.0159843
678.362	0.0160091
678.440	0.0160521
678.518	0.0160441
678.596	0.0159111
678.674	0.0159332
678.753	0.0159081
678.831	0.0159599
678.909	0.0160070
678.987	0.0159548
679.065	0.0159940
679.143	0.0160262
679.221	0.0160598
679.299	0.0160200
679.378	0.0159856
679.456	0.0159438
679.534	0.0159666
679.612	0.0159953
679.690	0.0159732
679.768	0.0158329
679.846	0.0160832
679.924	0.0160687
680.003	0.0160212
680.081	0.0159502
680.159	0.0159225
680.237	0.0160494
680.315	0.0159795
680.393	0.0160552
680.471	0.0162114
680.549	0.0160960
680.628	0.0158868
680.706	0.0158934
680.784	0.0160782
680.862	0.0160123
680.940	0.0160472
681.018	0.0158522
681.096	0.0159815
681.174	0.0159814
681.253	0.0160652
681.331	0.0160442
681.409	0.0160406
681.487	0.0160425
681.565	0.0161219
681.643	0.0159110
681.721	0.0160493
681.799	0.0158691
681.878	0.0159316
681.956	0.0159987
682.034	0.0159116
682.112	0.0159384
682.190	0.0160273
682.268	0.0159933
682.346	0.0160593
682.424	0.0158661
682.503	0.0160207
682.581	0.0161187
682.659	0.0160950
682.737	0.0160884
682.815	0.0158844
682.893	0.0160021
682.971	0.0159625
683.049	0.0159733
683.128	0.0158655
683.206	0.0160476
683.284	0.0159544
683.362	0.0158969
683.440	0.0159336
683.518	0.0159759
683.596	0.0160796
683.674	0.0160182
683.753	0.0160646
683.831	0.0160181
683.909	0.0159932
683.987	0.0160645
684.065	0.0159354
684.143	0.0161272
684.221	0.0160677
684.299	0.0160513
684.378	0.0159792
684.456	0.0160234
684.534	0.0160873
684.612	0.0160572
684.690	0.0161402
684.768	0.0160874
684.846	0.0160072
684.924	0.0160088
685.003	0.0161420
685.081	0.0159748
685.159	0.0160384
685.237	0.0160590
685.315	0.0159483
685.393	0.0161403
685.471	0.0160727
685.549	0.0159734
685.628	0.0160049
685.706	0.0160760
685.784	0.0159869
685.862	0.0160949
685.940	0.0160195
686.018	0.0160764
686.096	0.0160749
686.174	0.0159972
686.253	0.0161580
686.331	0.0160600
686.409	0.0160784
686.487	0.0158862
686.565	0.0161237
686.643	0.0160968
686.721	0.0161369
686.799	0.0160859
686.878	0.0159354
686.956	0.0159848
687.034	0.0161781
687.112	0.0162348
687.190	0.0161469
687.268	0.0161052
687.346	0.0161716
687.424	0.0160014
687.503	0.0161816
687.581	0.0160667
687.659	0.0159529
687.737	0.0159997
687.815	0.0161391
687.893	0.0160032
687.971	0.0160538
688.049	0.0160339
688.128	0.0160904
688.206	0.0161108
688.284	0.0160059
688.362	0.0160035
688.440	0.0161366
688.518	0.0161343
688.596	0.0158869
688.674	0.0160260
688.753	0.0160608
688.831	0.0160540
688.909	0.0160644
688.987	0.0161019
689.065	0.0160724
689.143	0.0161220
689.221	0.0159427
689.299	0.0160965
689.378	0.0161092
689.456	0.0160482
689.534	0.0162093
689.612	0.0161062
689.690	0.0160327
689.768	0.0161519
689.846	0.0161701
689.924	0.0161351
690.003	0.0160995
690.081	0.0162846
690.159	0.0162174
690.237	0.0160386
690.315	0.0159761
690.393	0.0161401
690.471	0.0160794
690.549	0.0161471
690.628	0.0162076
690.706	0.0160519
690.784	0.0161147
690.862	0.0161817
690.940	0.0159480
691.018	0.0160548
691.096	0.0161246
691.174	0.0159863
691.253	0.0159685
691.331	0.0160808
691.409	0.0162472
691.487	0.0160866
691.565	0.0160141
691.643	0.0160338
691.721	0.0161761
691.799	0.0161500
691.878	0.0160052
691.956	0.0160559
692.034	0.0161347
692.112	0.0163158
692.190	0.0161225
692.268	0.0160491
692.346	0.0161758
692.424	0.0161703
692.503	0.0161259
692.581	0.0162834
692.659	0.0162133
692.737	0.0162480
692.815	0.0161622
692.893	0.0159438
692.971	0.0160992
693.049	0.0161852
693.128	0.0161529
693.206	0.0160784
693.284	0.0162127
693.362	0.0159196
693.440	0.0161877
693.518	0.0162134
693.596	0.0162706
693.674	0.0160862
693.753	0.0161065
693.831	0.0161113
693.909	0.0160557
693.987	0.0160690
694.065	0.0161592
694.143	0.0161504
694.221	0.0161258
694.299	0.0160822
694.378	0.0160751
694.456	0.0161265
694.534	0.0160301
694.612	0.0160710
694.690	0.0161214
694.768	0.0161330
694.846	0.0162234
694.924	0.0161456
695.003	0.0161351
695.081	0.0161205
695.159	0.0160198
695.237	0.0162440
695.315	0.0161407
695.393	0.0162617
695.471	0.0161255
695.549	0.0161150
695.628	0.0161544
695.706	0.0162447
695.784	0.0160635
695.862	0.0160984
695.940	0.0161313
696.018	0.0162434
696.096	0.0160610
696.174	0.0162228
696.253	0.0160474
696.331	0.0161107
696.409	0.0158999
696.487	0.0160014
696.565	0.0160294
696.643	0.0159985
696.721	0.0160275
696.799	0.0159863
696.878	0.0161063
696.956	0.0159151
697.034	0.0160709
697.112	0.0160654
697.190	0.0160388
697.268	0.0159425
697.346	0.0161463
697.424	0.0162286
697.503	0.0160777
697.581	0.0161501
697.659	0.0161924
697.737	0.0160445
697.815	0.0161534
697.893	0.0161260
697.971	0.0161393
698.049	0.0160174
698.128	0.0161584
698.206	0.0161823
698.284	0.0160847
698.362	0.0162131
698.440	0.0161116
698.518	0.0161478
698.596	0.0160529
698.674	0.0160860
698.753	0.0160313
698.831	0.0159219
698.909	0.0160587
698.987	0.0158199
699.065	0.0159505
699.143	0.0157912
699.221	0.0159509
699.299	0.0158493
699.378	0.0158275
699.456	0.0160644
699.534	0.0160281
699.612	0.0160674
699.690	0.0159811
699.768	0.0160089
699.846	0.0160479
699.924	0.0161168
700.003	0.0160915
700.081	0.0159721
700.159	0.0160488
700.237	0.0161703
700.315	0.0160738
700.393	0.0160217
700.471	0.0162027
700.549	0.0161526
700.628	0.0160822
700.706	0.0161590
700.784	0.0160414
700.862	0.0161695
700.940	0.0161423
701.018	0.0160286
701.096	0.0159855
701.174	0.0158767
701.253	0.0159646
701.331	0.0160653
701.409	0.0159690
701.487	0.0160246
701.565	0.0160124
701.643	0.0159941
701.721	0.0159908
701.799	0.0160567
701.878	0.0159367
701.956	0.0160875
702.034	0.0159807
702.112	0.0159606
702.190	0.0160093
702.268	0.0161182
702.346	0.0160862
702.424	0.0160941
702.503	0.0161915
702.581	0.0160219
702.659	0.0162502
702.737	0.0162821
702.815	0.0161184
702.893	0.0162938
702.971	0.0161806
703.049	0.0161580
703.128	0.0162547
703.206	0.0161626
703.284	0.0161461
703.362	0.0161951
703.440	0.0161369
703.518	0.0161125
703.596	0.0161881
703.674	0.0161704
703.753	0.0161619
703.831	0.0160971
703.909	0.0160651
703.987	0.0160229
704.065	0.0159952
704.143	0.0160403
704.221	0.0160100
704.299	0.0160848
704.378	0.0159660
704.456	0.0159529
704.534	0.0161374
704.612	0.0160010
704.690	0.0159592
704.768	0.0160214
704.846	0.0159392
704.924	0.0159637
705.003	0.0160726
705.081	0.0160712
705.159	0.0160731
705.237	0.0162028
705.315	0.0160417
705.393	0.0160906
705.471	0.0161908
705.549	0.0161665
705.628	0.0161275
705.706	0.0161931
705.784	0.0162627
705.862	0.0162536
705.940	0.0161980
706.018	0.0161300
706.096	0.0163534
706.174	0.0161843
706.253	0.0162064
706.331	0.0162782
706.409	0.0161939
706.487	0.0163683
706.565	0.0160879
706.643	0.0160720
706.721	0.0161692
706.799	0.0160312
706.878	0.0160568
706.956	0.0161073
707.034	0.0159435
707.112	0.0160620
707.190	0.0160558
707.268	0.0160055
707.346	0.0160036
707.424	0.0160172
707.503	0.0159573
707.581	0.0160307
707.659	0.0160117
707.737	0.0159521
707.815	0.0161877
707.893	0.0159924
707.971	0.0160148
708.049	0.0160331
708.128	0.0160767
708.206	0.0161625
708.284	0.0161672
708.362	0.0162695
708.440	0.0160838
708.518	0.0161879
708.596	0.0162238
708.674	0.0161160
708.753	0.0162406
708.831	0.0161774
708.909	0.0160522
708.987	0.0160907
709.065	0.0161499
709.143	0.0161549
709.221	0.0160764
709.299	0.0158852
709.378	0.0159689
709.456	0.0160815
709.534	0.0159291
709.612	0.0159363
709.690	0.0159570
709.768	0.0159801
709.846	0.0159137
709.924	0.0160900
710.003	0.0160273
710.081	0.0160317
710.159	0.0161171
710.237	0.0161249
710.315	0.0162761
710.393	0.0161821
710.471	0.0160226
710.549	0.0161572
710.628	0.0161520
710.706	0.0160426
710.784	0.0161305
710.862	0.0161794
710.940	0.0162225
711.018	0.0160860
711.096	0.0162617
711.174	0.0161262
711.253	0.0160934
711.331	0.0160587
711.409	0.0160442
711.487	0.0161037
711.565	0.0161016
711.643	0.0161713
711.721	0.0159466
711.799	0.0159644
711.878	0.0160710
711.956	0.0159900
712.034	0.0159756
712.112	0.0160525
712.190	0.0162340
712.268	0.0160484
712.346	0.0160014
712.424	0.0159424
712.503	0.0161527
712.581	0.0161830
712.659	0.0162294
712.737	0.0161247
712.815	0.0161117
712.893	0.0160340
712.971	0.0161429
713.049	0.0159798
713.128	0.0160686
713.206	0.0160533
713.284	0.0161556
713.362	0.0161826
713.440	0.0162213
713.518	0.0162805
713.596	0.0162105
713.674	0.0163396
713.753	0.0162428
713.831	0.0163509
713.909	0.0163726
713.987	0.0164123
714.065	0.0164230
714.143	0.0163533
714.221	0.0162550
714.299	0.0162653
714.378	0.0161938
714.456	0.0162808
714.534	0.0163361
714.612	0.0162285
714.690	0.0163010
714.768	0.0161155
714.846	0.0161520
714.924	0.0161904
715.003	0.0160558
715.081	0.0159338
715.159	0.0159936
715.237	0.0160650
715.315	0.0159331
715.393	0.0159463
715.471	0.0160109
715.549	0.0159793
715.628	0.0159854
715.706	0.0160235
715.784	0.0159105
715.862	0.0159528
715.940	0.0159158
716.018	0.0160036
716.096	0.0160717
716.174	0.0160433
716.253	0.0160425
716.331	0.0160024
716.409	0.0161747
716.487	0.0160532
716.565	0.0161808
716.643	0.0161644
716.721	0.0162295
716.799	0.0162676
716.878	0.0162594
716.956	0.0162669
717.034	0.0162030
717.112	0.0161852
717.190	0.0162598
717.268	0.0162218
717.346	0.0161989
717.424	0.0161200
717.503	0.0159894
717.581	0.0160239
717.659	0.0159399
717.737	0.0159936
717.815	0.0159249
717.893	0.0157950
717.971	0.0158533
718.049	0.0158973
718.128	0.0158550
718.206	0.0159032
718.284	0.0159147
718.362	0.0159022
718.440	0.0160176
718.518	0.0159099
718.596	0.0160886
718.674	0.0161514
718.753	0.0161889
718.831	0.0162328
718.909	0.0163675
718.987	0.0162404
719.065	0.0163523
719.143	0.0164745
719.221	0.0163065
719.299	0.0165199
719.378	0.0165217
719.456	0.0163363
719.534	0.0164287
719.612	0.0164393
719.690	0.0165240
719.768	0.0164838
719.846	0.0163488
719.924	0.0162816
720.003	0.0163438
720.081	0.0162884
720.159	0.0161629
720.237	0.0161147
720.315	0.0159955
720.393	0.0160345
720.471	0.0158427
720.549	0.0157635
720.628	0.0157307
720.706	0.0157033
720.784	0.0156574
720.862	0.0155499
720.940	0.0155441
721.018	0.0153917
721.096	0.0153757
721.174	0.0153568
721.253	0.0151994
721.331	0.0152725
721.409	0.0154431
721.487	0.0154930
721.565	0.0155357
721.643	0.0153194
721.721	0.0155255
721.799	0.0156435
721.878	0.0156545
721.956	0.0159845
722.034	0.0159386
722.112	0.0160715
722.190	0.0160890
722.268	0.0161080
722.346	0.0163342
722.424	0.0163641
722.503	0.0166174
722.581	0.0166916
722.659	0.0166579
722.737	0.0165540
722.815	0.0167403
722.893	0.0168552
722.971	0.0168011
723.049	0.0165884
723.128	0.0165990
723.206	0.0167393
723.284	0.0164704
723.362	0.0164571
723.440	0.0164135
723.518	0.0163168
723.596	0.0161179
723.674	0.0162278
723.753	0.0160731
723.831	0.0161372
723.909	0.0159782
723.987	0.0158860
724.065	0.0157677
724.143	0.0157449
724.221	0.0156628
724.299	0.0156097
724.378	0.0155265
724.456	0.0155685
724.534	0.0156721
724.612	0.0156290
724.690	0.0156696
724.768	0.0155754
724.846	0.0155833
724.924	0.0155953
725.003	0.0156674
725.081	0.0156908
725.159	0.0156872
725.237	0.0157056
725.315	0.0158097
725.393	0.0157021
725.471	0.0157573
725.549	0.0158212
725.628	0.0158721
725.706	0.0158227
725.784	0.0157648
725.862	0.0158678
725.940	0.0159837
726.018	0.0158989
726.096	0.0160250
726.174	0.0159260
726.253	0.0160168
726.331	0.0160330
726.409	0.0158791
726.487	0.0160484
726.565	0.0161064
726.643	0.0160052
726.721	0.0160582
726.799	0.0159476
726.878	0.0161864
726.956	0.0162835
727.034	0.0161775
727.112	0.0161274
727.190	0.0161441
727.268	0.0161611
727.346	0.0163293
727.424	0.0162344
727.503	0.0161688
727.581	0.0163122
727.659	0.0163598
727.737	0.0163367
727.815	0.0162969
727.893	0.0162447
727.971	0.0163096
728.049	0.0163669
728.128	0.0163222
728.206	0.0162655
728.284	0.0162232
728.362	0.0162608
728.440	0.0162123
728.518	0.0160902
728.596	0.0162005
728.674	0.0160349
728.753	0.0159162
728.831	0.0159668
728.909	0.0157484
728.987	0.0156326
729.065	0.0157726
729.143	0.0156675
729.221	0.0153706
729.299	0.0154199
729.378	0.0152299
729.456	0.0151833
729.534	0.0153240
729.612	0.0151242
729.690	0.0151809
729.768	0.0151116
729.846	0.0151353
729.924	0.0151556
730.003	0.0151331
730.081	0.0151305
730.159	0.0153506
730.237	0.0156147
730.315	0.0155190
730.393	0.0156998
730.471	0.0159676
730.549	0.0160448
730.628	0.0162315
730.706	0.0164602
730.784	0.0165272
730.862	0.0166822
730.940	0.0166830
731.018	0.0170147
731.096	0.0170217
731.174	0.0169934
731.253	0.0171302
731.331	0.0171616
731.409	0.0170978
731.487	0.0170976
731.565	0.0171060
731.643	0.0169966
731.721	0.0168710
731.799	0.0169160
731.878	0.0166999
731.956	0.0164563
732.034	0.0163858
732.112	0.0161832
732.190	0.0162572
732.268	0.0159831
732.346	0.0158691
732.424	0.0157624
732.503	0.0156167
732.581	0.0155721
732.659	0.0153720
732.737	0.0153407
732.815	0.0153426
732.893	0.0153231
732.971	0.0152279
733.049	0.0150181
733.128	0.0149928
733.206	0.0152279
733.284	0.0150881
733.362	0.0150248
733.440	0.0151073
733.518	0.0151280
733.596	0.0150840
733.674	0.0151923
733.753	0.0152400
733.831	0.0150574
733.909	0.0152322
733.987	0.0152483
734.065	0.0152488
734.143	0.0155422
734.221	0.0155242
734.299	0.0156509
734.378	0.0156291
734.456	0.0158857
734.534	0.0159614
734.612	0.0161617
734.690	0.0162598
734.768	0.0163013
734.846	0.0165233
734.924	0.0165430
735.003	0.0166708
735.081	0.0167719
735.159	0.0168417
735.237	0.0170282
735.315	0.0171187
735.393	0.0170533
735.471	0.0172527
735.549	0.0172170
735.628	0.0171238
735.706	0.0170518
735.784	0.0171803
735.862	0.0171568
735.940	0.0169327
736.018	0.0168665
736.096	0.0167522
736.174	0.0167679
736.253	0.0165432
736.331	0.0165742
736.409	0.0162996
736.487	0.0163036
736.565	0.0162437
736.643	0.0161103
736.721	0.0161981
736.799	0.0159150
736.878	0.0159220
736.956	0.0158278
737.034	0.0156141
737.112	0.0154095
737.190	0.0154576
737.268	0.0153938
737.346	0.0153145
737.424	0.0153873
737.503	0.0151730
737.581	0.0152183
737.659	0.0151492
737.737	0.0151519
737.815	0.0151036
737.893	0.0150517
737.971	0.0150721
738.049	0.0151664
738.128	0.0152431
738.206	0.0152770
738.284	0.0152757
738.362	0.0152968
738.440	0.0152376
738.518	0.0154054
738.596	0.0155084
738.674	0.0156471
738.753	0.0156561
738.831	0.0158041
738.909	0.0159439
738.987	0.0158391
739.065	0.0157143
739.143	0.0158810
739.221	0.0159544
739.299	0.0163074
739.378	0.0162717
739.456	0.0161620
739.534	0.0163445
739.612	0.0164250
739.690	0.0165267
739.768	0.0165178
739.846	0.0167353
739.924	0.0168808
740.003	0.0167520
740.081	0.0169463
740.159	0.0171325
740.237	0.0171604
740.315	0.0170677
740.393	0.0171684
740.471	0.0172248
740.549	0.0170023
740.628	0.0170720
740.706	0.0169127
740.784	0.0170053
740.862	0.0168713
740.940	0.0167475
741.018	0.0165028
741.096	0.0164919
741.174	0.0163493
741.253	0.0161843
741.331	0.0162839
741.409	0.0159829
741.487	0.0157545
741.565	0.0156884
741.643	0.0156689
741.721	0.0155949
741.799	0.0154794
741.878	0.0153527
741.956	0.0153445
742.034	0.0153980
742.112	0.0153934
742.190	0.0153501
742.268	0.0154160
742.346	0.0155036
742.424	0.0154690
742.503	0.0155228
742.581	0.0154860
742.659	0.0157481
742.737	0.0156270
742.815	0.0157896
742.893	0.0157272
742.971	0.0156724
743.049	0.0158118
743.128	0.0158729
743.206	0.0158912
743.284	0.0158372
743.362	0.0159022
743.440	0.0158517
743.518	0.0157407
743.596	0.0156837
743.674	0.0156624
743.753	0.0157190
743.831	0.0157567
743.909	0.0157401
743.987	0.0156384
744.065	0.0155209
744.143	0.0156766
744.221	0.0157804
744.299	0.0156515
744.378	0.0155872
744.456	0.0157295
744.534	0.0157214
744.612	0.0158574
744.690	0.0158106
744.768	0.0160901
744.846	0.0159439
744.924	0.0162125
745.003	0.0161820
745.081	0.0163014
745.159	0.0164066
745.237	0.0165387
745.315	0.0165228
745.393	0.0165719
745.471	0.0166041
745.549	0.0166780
745.628	0.0167401
745.706	0.0166901
745.784	0.0167597
745.862	0.0168417
745.940	0.0165913
746.018	0.0166159
746.096	0.0165641
746.174	0.0164093
746.253	0.0163499
746.331	0.0161604
746.409	0.0162641
746.487	0.0160730
746.565	0.0160731
746.643	0.0159439
746.721	0.0158965
746.799	0.0157887
746.878	0.0156905
746.956	0.0156602
747.034	0.0157959
747.112	0.0157406
747.190	0.0157098
747.268	0.0156570
747.346	0.0156713
747.424	0.0156744
747.503	0.0156393
747.581	0.0155975
747.659	0.0156274
747.737	0.0157436
747.815	0.0157500
747.893	0.0156387
747.971	0.0156113
748.049	0.0156934
748.128	0.0157769
748.206	0.0157356
748.284	0.0157283
748.362	0.0157700
748.440	0.0156164
748.518	0.0157564
748.596	0.0155965
748.674	0.0156139
748.753	0.0155753
748.831	0.0154701
748.909	0.0155388
748.987	0.0154567
749.065	0.0154913
749.143	0.0156328
749.221	0.0157445
749.299	0.0157057
749.378	0.0157224
749.456	0.0156896
749.534	0.0159019
749.612	0.0158796
749.690	0.0158447
749.768	0.0160836
749.846	0.0161013
749.924	0.0161964
750.003	0.0161760
750.081	0.0161424
750.159	0.0161862
750.237	0.0163176
750.315	0.0163177
750.393	0.0162517
750.471	0.0163628
750.549	0.0163730
750.628	0.0163370
750.706	0.0161895
750.784	0.0164232
750.862	0.0162446
750.940	0.0162630
751.018	0.0163065
751.096	0.0161837
751.174	0.0162212
751.253	0.0161403
751.331	0.0161634
751.409	0.0160146
751.487	0.0160366
751.565	0.0158773
751.643	0.0160632
751.721	0.0160072
751.799	0.0156429
751.878	0.0156013
751.956	0.0157871
752.034	0.0156568
752.112	0.0157005
752.190	0.0156871
752.268	0.0158318
752.346	0.0157790
752.424	0.0158513
752.503	0.0157326
752.581	0.0158324
752.659	0.0159837
752.737	0.0159560
752.815	0.0157857
752.893	0.0161013
752.971	0.0160896
753.049	0.0159357
753.128	0.0160073
753.206	0.0160992
753.284	0.0162971
753.362	0.0162646
753.440	0.0160720
753.518	0.0162476
753.596	0.0161988
753.674	0.0162045
753.753	0.0162365
753.831	0.0161967
753.909	0.0159790
753.987	0.0159808
754.065	0.0160101
754.143	0.0159377
754.221	0.0158307
754.299	0.0159385
754.378	0.0158524
754.456	0.0158138
754.534	0.0157323
754.612	0.0156985
754.690	0.0156657
754.768	0.0156732
754.846	0.0157085
754.924	0.0157350
755.003	0.0155840
755.081	0.0155112
755.159	0.0156686
755.237	0.0157648
755.315	0.0156184
755.393	0.0154173
755.471	0.0155960
755.549	0.0154321
755.628	0.0154679
755.706	0.0156665
755.784	0.0155875
755.862	0.0155907
755.940	0.0155582
756.018	0.0156555
756.096	0.0157535
756.174	0.0158556
756.253	0.0158257
756.331	0.0158720
756.409	0.0161127
756.487	0.0160767
756.565	0.0161508
756.643	0.0162985
756.721	0.0164960
756.799	0.0165812
756.878	0.0165929
756.956	0.0166744
757.034	0.0166678
757.112	0.0165884
757.190	0.0165552
757.268	0.0165253
757.346	0.0164396
757.424	0.0164842
757.503	0.0163595
757.581	0.0162108
757.659	0.0161976
757.737	0.0161204
757.815	0.0159726
757.893	0.0159126
757.971	0.0157600
758.049	0.0158057
758.128	0.0157789
758.206	0.0156489
758.284	0.0158358
758.362	0.0155162
758.440	0.0154964
758.518	0.0154359
758.596	0.0154711
758.674	0.0156016
758.753	0.0155048
758.831	0.0155485
758.909	0.0155160
758.987	0.0154515
759.065	0.0156203
759.143	0.0155656
759.221	0.0155463
759.299	0.0156020
759.378	0.0156502
759.456	0.0157190
759.534	0.0158080
759.612	0.0159065
759.690	0.0159393
759.768	0.0157958
759.846	0.0158307
759.924	0.0159407
760.003	0.0159034
760.081	0.0159514
760.159	0.0159378
760.237	0.0158830
760.315	0.0159448
760.393	0.0161295
760.471	0.0160445
760.549	0.0161691
760.628	0.0160439
760.706	0.0160382
760.784	0.0161269
760.862	0.0162040
760.940	0.0162866
761.018	0.0162647
761.096	0.0162025
761.174	0.0163332
761.253	0.0164175
761.331	0.0164053
761.409	0.0161627
761.487	0.0162652
761.565	0.0162228
761.643	0.0160507
761.721	0.0159914
761.799	0.0159732
761.878	0.0159801
761.956	0.0158283
762.034	0.0159346
762.112	0.0158291
762.190	0.0158974
762.268	0.0158350
762.346	0.0160475
762.424	0.0160069
762.503	0.0161487
762.581	0.0161217
762.659	0.0161109
762.737	0.0163656
762.815	0.0162742
762.893	0.0162820
762.971	0.0163949
763.049	0.0164289
763.128	0.0164129
763.206	0.0163123
763.284	0.0164549
763.362	0.0163053
763.440	0.0162333
763.518	0.0161297
763.596	0.0160993
763.674	0.0162923
763.753	0.0162238
763.831	0.0160212
763.909	0.0159805
763.987	0.0158015
764.065	0.0158504
764.143	0.0159789
764.221	0.0157992
764.299	0.0157895
764.378	0.0159187
764.456	0.0157742
764.534	0.0158559
764.612	0.0158327
764.690	0.0158576
764.768	0.0158853
764.846	0.0159097
764.924	0.0157427
765.003	0.0159541
765.081	0.0159147
765.159	0.0159222
765.237	0.0160674
765.315	0.0157974
765.393	0.0157896
765.471	0.0159586
765.549	0.0158781
765.628	0.0160391
765.706	0.0160745
765.784	0.0161546
765.862	0.0160468
765.940	0.0159854
766.018	0.0160658
766.096	0.0162084
766.174	0.0162097
766.253	0.0161565
766.331	0.0161272
766.409	0.0161018
766.487	0.0161830
766.565	0.0160313
766.643	0.0160413
766.721	0.0162753
766.799	0.0161682
766.878	0.0161411
766.956	0.0160526
767.034	0.0160061
767.112	0.0159930
767.190	0.0158222
767.268	0.0158164
767.346	0.0156678
767.424	0.0157811
767.503	0.0158360
767.581	0.0157255
767.659	0.0157404
767.737	0.0156595
767.815	0.0156561
767.893	0.0158270
767.971	0.0159580
768.049	0.0160038
768.128	0.0160075
768.206	0.0163181
768.284	0.0164378
768.362	0.0165749
768.440	0.0166684
768.518	0.0166603
768.596	0.0166841
768.674	0.0166357
768.753	0.0167233
768.831	0.0166776
768.909	0.0166385
768.987	0.0166023
769.065	0.0165017
769.143	0.0164439
769.221	0.0162275
769.299	0.0160394
769.378	0.0161784
769.456	0.0158420
769.534	0.0158053
769.612	0.0157543
769.690	0.0157658
769.768	0.0154842
769.846	0.0154296
769.924	0.0154980
770.003	0.0153432
770.081	0.0153912
770.159	0.0152827
770.237	0.0153423
770.315	0.0153043
770.393	0.0154050
770.471	0.0155122
770.549	0.0155187
770.628	0.0154639
770.706	0.0155989
770.784	0.0158285
770.862	0.0158399
770.940	0.0158319
771.018	0.0158984
771.096	0.0158902
771.174	0.0161250
771.253	0.0160466
771.331	0.0162230
771.409	0.0163032
771.487	0.0163833
771.565	0.0164538
771.643	0.0164358
771.721	0.0163607
771.799	0.0165804
771.878	0.0165512
771.956	0.0164175
772.034	0.0165020
772.112	0.0164150
772.190	0.0163490
772.268	0.0164246
772.346	0.0163212
772.424	0.0162502
772.503	0.0160790
772.581	0.0162068
772.659	0.0160000
772.737	0.0158990
772.815	0.0160040
772.893	0.0159841
772.971	0.0160464
773.049	0.0159130
773.128	0.0160262
773.206	0.0157567
773.284	0.0159207
773.362	0.0157903
773.440	0.0159057
773.518	0.0161249
773.596	0.0158485
773.674	0.0157268
773.753	0.0159499
773.831	0.0160819
773.909	0.0160258
773.987	0.0160668
774.065	0.0161097
774.143	0.0162605
774.221	0.0161723
774.299	0.0162879
774.378	0.0164165
774.456	0.0164478
774.534	0.0165107
774.612	0.0165879
774.690	0.0163534
774.768	0.0164703
774.846	0.0164266
774.924	0.0163604
775.003	0.0163940
775.081	0.0163147
775.159	0.0162149
775.237	0.0162618
775.315	0.0160311
775.393	0.0160830
775.471	0.0159210
775.549	0.0158434
775.628	0.0157156
775.706	0.0156125
775.784	0.0155402
775.862	0.0155425
775.940	0.0155968
776.018	0.0155795
776.096	0.0155372
776.174	0.0156179
776.253	0.0155938
776.331	0.0158019
776.409	0.0157542
776.487	0.0158810
776.565	0.0160115
776.643	0.0160200
776.721	0.0159818
776.799	0.0160620
776.878	0.0160612
776.956	0.0160639
777.034	0.0162325
777.112	0.0162769
777.190	0.0163371
777.268	0.0161945
777.346	0.0162076
777.424	0.0165090
777.503	0.0163005
777.581	0.0162818
777.659	0.0163792
777.737	0.0163717
777.815	0.0164466
777.893	0.0161588
777.971	0.0162381
778.049	0.0161467
778.128	0.0162720
778.206	0.0161338
778.284	0.0160151
778.362	0.0160101
778.440	0.0158479
778.518	0.0158133
778.596	0.0158541
778.674	0.0158680
778.753	0.0157281
778.831	0.0157770
778.909	0.0158075
778.987	0.0156116
779.065	0.0155858
779.143	0.0156905
779.221	0.0158112
779.299	0.0157899
779.378	0.0157732
779.456	0.0157507
779.534	0.0158696
779.612	0.0159799
779.690	0.0158423
779.768	0.0161687
779.846	0.0161691
779.924	0.0160981
780.003	0.0162289
780.081	0.0162863
780.159	0.0162880
780.237	0.0162761
780.315	0.0163608
780.393	0.0164666
780.471	0.0163545
780.549	0.0164788
780.628	0.0165167
780.706	0.0165376
780.784	0.0164452
780.862	0.0163381
780.940	0.0162275
781.018	0.0162168
781.096	0.0162907
781.174	0.0162070
781.253	0.0162766
781.331	0.0161682
781.409	0.0159998
781.487	0.0160572
781.565	0.0160210
781.643	0.0158831
781.721	0.0157862
781.799	0.0158191
781.878	0.0157282
781.956	0.0157571
782.034	0.0156889
782.112	0.0156900
782.190	0.0157227
782.268	0.0158191
782.346	0.0157210
782.424	0.0156302
782.503	0.0156549
782.581	0.0157529
782.659	0.0156718
782.737	0.0157585
782.815	0.0156696
782.893	0.0158861
782.971	0.0158983
783.049	0.0159850
783.128	0.0159941
783.206	0.0159812
783.284	0.0161366
783.362	0.0161980
783.440	0.0161997
783.518	0.0163601
783.596	0.0163308
783.674	0.0162790
783.753	0.0164183
783.831	0.0164812
783.909	0.0162839
783.987	0.0163617
784.065	0.0164561
784.143	0.0162952
784.221	0.0163462
784.299	0.0161391
784.378	0.0163218
784.456	0.0161586
784.534	0.0161545
784.612	0.0162518
784.690	0.0161250
784.768	0.0161085
784.846	0.0159742
784.924	0.0159583
785.003	0.0160487
785.081	0.0160683
785.159	0.0158771
785.237	0.0158044
785.315	0.0158246
785.393	0.0158270
785.471	0.0158100
785.549	0.0159885
785.628	0.0157896
785.706	0.0158269
785.784	0.0159994
785.862	0.0160304
785.940	0.0158186
786.018	0.0159329
786.096	0.0159451
786.174	0.0159710
786.253	0.0160415
786.331	0.0162221
786.409	0.0163395
786.487	0.0161221
786.565	0.0161826
786.643	0.0160798
786.721	0.0163721
786.799	0.0162431
786.878	0.0163713
786.956	0.0161237
787.034	0.0163180
787.112	0.0162700
787.190	0.0164161
787.268	0.0161919
787.346	0.0161690
787.424	0.0161704
787.503	0.0161962
787.581	0.0162209
787.659	0.0160488
787.737	0.0157691
787.815	0.0158886
787.893	0.0157639
787.971	0.0156358
788.049	0.0157667
788.128	0.0157698
788.206	0.0157050
788.284	0.0156422
788.362	0.0156592
788.440	0.0155585
788.518	0.0156844
788.596	0.0157558
788.674	0.0158215
788.753	0.0158160
788.831	0.0157274
788.909	0.0158607
788.987	0.0159995
789.065	0.0160396
789.143	0.0159377
789.221	0.0160971
789.299	0.0159438
789.378	0.0160921
789.456	0.0161595
789.534	0.0161175
789.612	0.0159544
789.690	0.0159013
789.768	0.0159529
789.846	0.0162097
789.924	0.0159905
790.003	0.0160654
790.081	0.0160718
790.159	0.0160598
790.237	0.0160086
790.315	0.0159068
790.393	0.0159264
790.471	0.0159660
790.549	0.0159825
790.628	0.0158571
790.706	0.0157683
790.784	0.0159362
790.862	0.0159233
790.940	0.0157481
791.018	0.0158703
791.096	0.0158230
791.174	0.0157836
791.253	0.0157603
791.331	0.0158859
791.409	0.0158653
791.487	0.0158337
791.565	0.0158510
791.643	0.0159837
791.721	0.0157764
791.799	0.0158099
791.878	0.0160893
791.956	0.0161588
792.034	0.0160816
792.112	0.0161206
792.190	0.0160691
792.268	0.0161775
792.346	0.0163067
792.424	0.0162341
792.503	0.0163272
792.581	0.0162862
792.659	0.0162611
792.737	0.0162229
792.815	0.0163348
792.893	0.0162563
792.971	0.0161645
793.049	0.0162266
793.128	0.0162221
793.206	0.0161954
793.284	0.0162424
793.362	0.0161194
793.440	0.0161009
793.518	0.0160036
793.596	0.0160621
793.674	0.0159663
793.753	0.0158698
793.831	0.0158390
793.909	0.0157615
793.987	0.0156355
794.065	0.0157333
794.143	0.0157527
794.221	0.0158073
794.299	0.0158684
794.378	0.0156003
794.456	0.0156623
794.534	0.0157570
794.612	0.0157059
794.690	0.0158677
794.768	0.0158529
794.846	0.0156532
794.924	0.0158522
795.003	0.0159356
795.081	0.0160222
795.159	0.0157880
795.237	0.0159801
795.315	0.0160437
795.393	0.0161740
795.471	0.0159847
795.549	0.0161913
795.628	0.0161879
795.706	0.0162465
795.784	0.0164104
795.862	0.0161711
795.940	0.0161501
796.018	0.0161121
796.096	0.0162179
796.174	0.0163058
796.253	0.0162768
796.331	0.0162389
796.409	0.0162120
796.487	0.0161342
796.565	0.0162708
796.643	0.0162566
796.721	0.0161855
796.799	0.0163111
796.878	0.0162572
796.956	0.0160796
797.034	0.0161879
797.112	0.0161388
797.190	0.0162875
797.268	0.0161882
797.346	0.0161423
797.424	0.0161982
797.503	0.0161497
797.581	0.0161486
797.659	0.0160682
797.737	0.0159479
797.815	0.0160365
797.893	0.0160821
797.971	0.0160600
798.049	0.0160719
798.128	0.0162195
798.206	0.0160304
798.284	0.0161314
798.362	0.0160354
798.440	0.0161909
798.518	0.0161282
798.596	0.0161457
798.674	0.0162933
798.753	0.0161522
798.831	0.0161954
798.909	0.0162654
798.987	0.0163515
799.065	0.0162743
799.143	0.0162833
799.221	0.0161908
799.299	0.0163833
799.378	0.0162266
799.456	0.0164056
799.534	0.0161882
799.612	0.0162946
799.690	0.0162645
799.768	0.0162067
799.846	0.0163216
799.924	0.0161845
800.003	0.0163351
800.081	0.0163693
800.159	0.0160986
800.237	0.0160505
800.315	0.0159823
800.393	0.0161044
800.471	0.0160413
800.549	0.0160805
800.628	0.0159766
800.706	0.0160364
800.784	0.0159964
800.862	0.0161546
800.940	0.0160639
801.018	0.0160591
801.096	0.0159732
801.174	0.0160580
801.253	0.0161103
801.331	0.0160768
801.409	0.0160445
801.487	0.0160085
801.565	0.0161327
801.643	0.0161691
801.721	0.0160043
801.799	0.0160854
801.878	0.0159467
801.956	0.0161221
802.034	0.0162215
802.112	0.0161774
802.190	0.0161154
802.268	0.0163084
802.346	0.0161929
802.424	0.0161314
802.503	0.0162310
802.581	0.0162988
802.659	0.0162260
802.737	0.0162410
802.815	0.0162844
802.893	0.0162164
802.971	0.0163294
803.049	0.0162637
803.128	0.0161649
803.206	0.0161234
803.284	0.0161642
803.362	0.0161699
803.440	0.0161101
803.518	0.0162196
803.596	0.0162142
803.674	0.0160810
803.753	0.0160430
803.831	0.0162042
803.909	0.0160236
803.987	0.0160564
804.065	0.0162115
804.143	0.0160829
804.221	0.0160498
804.299	0.0162556
804.378	0.0160213
804.456	0.0160811
804.534	0.0161682
804.612	0.0160588
804.690	0.0160976
804.768	0.0160662
804.846	0.0162299
804.924	0.0161646
805.003	0.0161713
805.081	0.0160993
805.159	0.0159745
805.237	0.0161409
805.315	0.0160265
805.393	0.0161857
805.471	0.0160667
805.549	0.0160992
805.628	0.0160428
805.706	0.0160704
805.784	0.0160490
805.862	0.0161308
805.940	0.0160104
806.018	0.0160053
806.096	0.0158942
806.174	0.0158743
806.253	0.0160369
806.331	0.0159756
806.409	0.0160240
806.487	0.0158569
806.565	0.0158758
806.643	0.0159709
806.721	0.0159224
806.799	0.0159233
806.878	0.0158791
806.956	0.0159611
807.034	0.0158297
807.112	0.0158954
807.190	0.0158611
807.268	0.0158874
807.346	0.0159127
807.424	0.0161066
807.503	0.0160844
807.581	0.0159337
807.659	0.0160201
807.737	0.0160294
807.815	0.0159733
807.893	0.0160345
807.971	0.0159388
808.049	0.0160599
808.128	0.0160003
808.206	0.0159632
808.284	0.0160133
808.362	0.0160248
808.440	0.0160053
808.518	0.0160511
808.596	0.0161910
808.674	0.0160893
808.753	0.0160857
808.831	0.0159127
808.909	0.0160661
808.987	0.0160759
809.065	0.0158395
809.143	0.0159692
809.221	0.0159762
809.299	0.0160445
809.378	0.0160509
809.456	0.0159178
809.534	0.0159321
809.612	0.0160072
809.690	0.0158468
809.768	0.0160573
809.846	0.0160001
809.924	0.0159062
810.003	0.0159130
810.081	0.0158384
810.159	0.0159080
810.237	0.0159303
810.315	0.0158635
810.393	0.0159578
810.471	0.0158816
810.549	0.0160367
810.628	0.0158928
810.706	0.0160230
810.784	0.0160419
810.862	0.0158886
810.940	0.0159312
811.018	0.0160651
811.096	0.0160770
811.174	0.0159883
811.253	0.0158221
811.331	0.0158871
811.409	0.0159040
811.487	0.0157953
811.565	0.0159290
811.643	0.0159846
811.721	0.0158397
811.799	0.0158369
811.878	0.0159824
811.956	0.0158974
812.034	0.0158033
812.112	0.0157978
812.190	0.0160291
812.268	0.0158600
812.346	0.0159148
812.424	0.0159135
812.503	0.0157723
812.581	0.0158615
812.659	0.0158513
812.737	0.0157362
812.815	0.0159771
812.893	0.0160773
812.971	0.0157896
813.049	0.0159792
813.128	0.0158382
813.206	0.0160117
813.284	0.0159193
813.362	0.0161301
813.440	0.0160611
813.518	0.0159616
813.596	0.0159951
813.674	0.0158720
813.753	0.0159682
813.831	0.0159789
813.909	0.0158778
813.987	0.0158814
814.065	0.0159424
814.143	0.0160299
814.221	0.0159195
814.299	0.0160199
814.378	0.0159990
814.456	0.0158441
814.534	0.0159183
814.612	0.0159441
814.690	0.0159438
814.768	0.0159013
814.846	0.0159857
814.924	0.0159103
815.003	0.0160644
815.081	0.0159270
815.159	0.0159775
815.237	0.0159507
815.315	0.0158839
815.393	0.0161099
815.471	0.0161478
815.549	0.0160691
815.628	0.0161562
815.706	0.0160934
815.784	0.0160655
815.862	0.0161119
815.940	0.0160638
816.018	0.0161137
816.096	0.0161504
816.174	0.0161671
816.253	0.0160079
816.331	0.0160950
816.409	0.0161184
816.487	0.0160271
816.565	0.0160514
816.643	0.0161745
816.721	0.0160029
816.799	0.0160194
816.878	0.0161626
816.956	0.0159570
817.034	0.0160917
817.112	0.0159702
817.190	0.0161139
817.268	0.0160820
817.346	0.0160092
817.424	0.0158578
817.503	0.0159169
817.581	0.0160197
817.659	0.0159016
817.737	0.0158912
817.815	0.0160023
817.893	0.0160176
817.971	0.0159594
818.049	0.0160423
818.128	0.0159166
818.206	0.0159992
818.284	0.0160236
818.362	0.0159564
818.440	0.0160506
818.518	0.0160563
818.596	0.0161240
818.674	0.0162135
818.753	0.0161522
818.831	0.0161385
818.909	0.0162676
818.987	0.0161981
819.065	0.0161375
819.143	0.0162594
819.221	0.0161256
819.299	0.0162289
819.378	0.0163073
819.456	0.0162870
819.534	0.0162363
819.612	0.0162552
819.690	0.0162093
819.768	0.0162056
819.846	0.0161613
819.924	0.0161746
820.003	0.0161951
820.081	0.0161829
820.159	0.0159840
820.237	0.0160950
820.315	0.0160929
820.393	0.0160275
820.471	0.0159429
820.549	0.0160482
820.628	0.0160794
820.706	0.0159938
820.784	0.0158862
820.862	0.0159532
820.940	0.0159420
821.018	0.0160071
821.096	0.0159340
821.174	0.0159053
821.253	0.0159940
821.331	0.0159502
821.409	0.0157867
821.487	0.0158477
821.565	0.0158323
821.643	0.0158300
821.721	0.0159406
821.799	0.0159222
821.878	0.0158560
821.956	0.0158784
822.034	0.0159131
822.112	0.0160573
822.190	0.0160045
822.268	0.0160395
822.346	0.0161199
822.424	0.0160680
822.503	0.0159818
822.581	0.0159239
822.659	0.0159922
822.737	0.0160548
822.815	0.0159019
822.893	0.0159914
822.971	0.0161069
823.049	0.0158383
823.128	0.0159439
823.206	0.0160080
823.284	0.0160864
823.362	0.0161006
823.440	0.0161097
823.518	0.0160515
823.596	0.0160051
823.674	0.0160735
823.753	0.0159974
823.831	0.0161334
823.909	0.0160030
823.987	0.0161211
824.065	0.0161864
824.143	0.0161850
824.221	0.0162305
824.299	0.0162108
824.378	0.0161667
824.456	0.0161410
824.534	0.0161983
824.612	0.0161474
824.690	0.0160062
824.768	0.0162155
824.846	0.0161781
824.924	0.0160824
825.003	0.0161242
825.081	0.0161177
825.159	0.0161355
825.237	0.0160172
825.315	0.0159629
825.393	0.0159100
825.471	0.0160046
825.549	0.0160494
825.628	0.0160527
825.706	0.0159100
825.784	0.0158686
825.862	0.0159968
825.940	0.0159611
826.018	0.0159623
826.096	0.0158794
826.174	0.0158349
826.253	0.0159166
826.331	0.0160353
826.409	0.0160175
826.487	0.0160011
826.565	0.0158374
826.643	0.0161706
826.721	0.0159749
826.799	0.0159823
826.878	0.0160631
826.956	0.0159968
827.034	0.0160702
827.112	0.0160622
827.190	0.0161320
827.268	0.0160759
827.346	0.0160583
827.424	0.0161459
827.503	0.0160374
827.581	0.0161188
827.659	0.0163257
827.737	0.0160908
827.815	0.0162579
827.893	0.0162518
827.971	0.0161829
828.049	0.0162736
828.128	0.0161968
828.206	0.0162350
828.284	0.0162682
828.362	0.0163110
828.440	0.0162412
828.518	0.0162238
828.596	0.0161899
828.674	0.0161042
828.753	0.0161061
828.831	0.0160886
828.909	0.0159935
828.987	0.0161003
829.065	0.0161687
829.143	0.0159125
829.221	0.0158537
829.299	0.0158942
829.378	0.0158795
829.456	0.0157502
829.534	0.0157202
829.612	0.0158067
829.690	0.0157013
829.768	0.0157507
829.846	0.0157523
829.924	0.0157356
830.003	0.0157749
830.081	0.0157738
830.159	0.0155984
830.237	0.0157072
830.315	0.0158356
830.393	0.0157893
830.471	0.0157410
830.549	0.0157898
830.628	0.0157832
830.706	0.0160620
830.784	0.0159084
830.862	0.0159759
830.940	0.0160315
831.018	0.0159252
831.096	0.0158502
831.174	0.0159554
831.253	0.0159061
831.331	0.0159375
831.409	0.0161119
831.487	0.0160835
831.565	0.0161671
831.643	0.0161441
831.721	0.0160178
831.799	0.0160810
831.878	0.0163326
831.956	0.0162280
832.034	0.0160265
832.112	0.0162419
832.190	0.0162943
832.268	0.0161350
832.346	0.0162104
832.424	0.0162746
832.503	0.0161810
832.581	0.0162103
832.659	0.0160665
832.737	0.0159706
832.815	0.0159800
832.893	0.0160200
832.971	0.0160271
833.049	0.0160369
833.128	0.0159850
833.206	0.0158318
833.284	0.0159395
833.362	0.0158440
833.440	0.0157764
833.518	0.0158203
833.596	0.0158068
833.674	0.0157627
833.753	0.0158150
833.831	0.0157698
833.909	0.0157262
833.987	0.0157082
834.065	0.0157937
834.143	0.0158089
834.221	0.0157554
834.299	0.0157751
834.378	0.0157207
834.456	0.0158820
834.534	0.0158521
834.612	0.0157984
834.690	0.0158834
834.768	0.0158172
834.846	0.0158743
834.924	0.0158521
835.003	0.0159561
835.081	0.0159118
835.159	0.0160181
835.237	0.0159215
835.315	0.0158533
835.393	0.0158922
835.471	0.0159875
835.549	0.0161337
835.628	0.0160959
835.706	0.0159072
835.784	0.0160880
835.862	0.0161974
835.940	0.0161370
836.018	0.0160400
836.096	0.0160773
836.174	0.0161084
836.253	0.0161076
836.331	0.0161250
836.409	0.0162511
836.487	0.0162048
836.565	0.0161808
836.643	0.0161285
836.721	0.0160995
836.799	0.0161260
836.878	0.0162527
836.956	0.0161928
837.034	0.0160996
837.112	0.0162067
837.190	0.0160339
837.268	0.0161634
837.346	0.0159749
837.424	0.0159682
837.503	0.0161544
837.581	0.0161478
837.659	0.0161324
837.737	0.0159596
837.815	0.0160291
837.893	0.0161098
837.971	0.0160439
838.049	0.0159420
838.128	0.0160700
838.206	0.0160606
838.284	0.0159909
838.362	0.0159739
838.440	0.0160373
838.518	0.0159496
838.596	0.0158852
838.674	0.0159896
838.753	0.0158859
838.831	0.0159641
838.909	0.0158680
838.987	0.0158804
839.065	0.0159713
839.143	0.0161282
839.221	0.0159652
839.299	0.0159018
839.378	0.0159444
839.456	0.0158545
839.534	0.0159774
839.612	0.0158947
839.690	0.0159057
839.768	0.0160254
839.846	0.0159625
839.924	0.0159031
840.003	0.0160939
840.081	0.0159306
840.159	0.0159693
840.237	0.0160648
840.315	0.0159780
840.393	0.0160768
840.471	0.0160345
840.549	0.0160900
840.628	0.0161164
840.706	0.0160825
840.784	0.0159849
840.862	0.0160082
840.940	0.0160654
841.018	0.0162189
841.096	0.0160569
841.174	0.0160882
841.253	0.0161296
841.331	0.0161491
841.409	0.0162344
841.487	0.0160963
841.565	0.0160880
841.643	0.0161096
841.721	0.0161819
841.799	0.0162276
841.878	0.0164236
841.956	0.0161830
842.034	0.0161781
842.112	0.0160953
842.190	0.0162649
842.268	0.0162572
842.346	0.0162966
842.424	0.0162463
842.503	0.0162405
842.581	0.0163044
842.659	0.0160857
842.737	0.0162652
842.815	0.0160130
842.893	0.0160647
842.971	0.0160887
843.049	0.0161651
843.128	0.0162447
843.206	0.0161646
843.284	0.0161115
843.362	0.0161690
843.440	0.0160947
843.518	0.0159632
843.596	0.0160129
843.674	0.0158392
843.753	0.0158347
843.831	0.0160418
843.909	0.0159590
843.987	0.0159433
844.065	0.0159755
844.143	0.0160653
844.221	0.0159948
844.299	0.0158421
844.378	0.0158543
844.456	0.0159082
844.534	0.0158060
844.612	0.0159225
844.690	0.0158386
844.768	0.0159217
844.846	0.0158501
844.924	0.0160070
845.003	0.0158697
845.081	0.0157143
845.159	0.0159614
845.237	0.0160397
845.315	0.0159044
845.393	0.0159596
845.471	0.0158664
845.549	0.0158544
845.628	0.0160081
845.706	0.0159635
845.784	0.0159256
845.862	0.0159058
845.940	0.0159663
846.018	0.0160575
846.096	0.0160723
846.174	0.0161157
846.253	0.0161254
846.331	0.0160877
846.409	0.0160992
846.487	0.0163096
846.565	0.0160997
846.643	0.0159612
846.721	0.0162168
846.799	0.0161176
846.878	0.0161330
846.956	0.0161751
847.034	0.0161070
847.112	0.0161494
847.190	0.0160497
847.268	0.0159474
847.346	0.0161901
847.424	0.0161747
847.503	0.0160896
847.581	0.0161105
847.659	0.0161918
847.737	0.0160564
847.815	0.0161022
847.893	0.0161417
847.971	0.0160963
848.049	0.0159629
848.128	0.0160561
848.206	0.0161375
848.284	0.0160680
848.362	0.0160165
848.440	0.0159821
848.518	0.0160851
848.596	0.0160351
848.674	0.0159969
848.753	0.0161258
848.831	0.0161172
848.909	0.0160191
848.987	0.0160374
849.065	0.0160610
849.143	0.0159855
849.221	0.0160373
849.299	0.0159254
849.378	0.0159314
849.456	0.0160023
849.534	0.0160482
849.612	0.0160140
849.690	0.0159442
849.768	0.0158245
849.846	0.0159178
849.924	0.0159840
850.003	0.0159049
850.081	0.0159352
850.159	0.0160659
850.237	0.0161232
850.315	0.0160108
850.393	0.0159300
850.471	0.0159367
850.549	0.0159646
850.628	0.0158509
850.706	0.0158880
850.784	0.0159717
850.862	0.0160239
850.940	0.0160641
851.018	0.0159148
851.096	0.0157127
851.174	0.0158018
851.253	0.0159249
851.331	0.0159763
851.409	0.0158630
851.487	0.0157607
851.565	0.0158904
851.643	0.0158949
851.721	0.0157590
851.799	0.0159491
851.878	0.0160140
851.956	0.0160033
852.034	0.0159733
852.112	0.0160574
852.190	0.0159802
852.268	0.0159454
852.346	0.0161081
852.424	0.0161905
852.503	0.0159903
852.581	0.0160078
852.659	0.0161868
852.737	0.0159919
852.815	0.0160738
852.893	0.0161404
852.971	0.0161272
853.049	0.0160034
853.128	0.0161117
853.206	0.0159702
853.284	0.0160954
853.362	0.0161238
853.440	0.0160922
853.518	0.0161895
853.596	0.0160933
853.674	0.0160339
853.753	0.0160712
853.831	0.0159035
853.909	0.0159322
853.987	0.0160109
854.065	0.0159798
854.143	0.0160529
854.221	0.0159959
854.299	0.0159067
854.378	0.0159496
854.456	0.0159258
854.534	0.0158443
854.612	0.0158637
854.690	0.0158886
854.768	0.0159124
854.846	0.0158601
854.924	0.0158382
855.003	0.0159030
855.081	0.0159351
855.159	0.0158840
855.237	0.0157949
855.315	0.0156597
855.393	0.0158472
855.471	0.0157863
855.549	0.0158130
855.628	0.0158257
855.706	0.0158327
855.784	0.0156850
855.862	0.0158231
855.940	0.0159429
856.018	0.0158709
856.096	0.0159294
856.174	0.0159167
856.253	0.0159609
856.331	0.0159376
856.409	0.0159369
856.487	0.0159560
856.565	0.0159494
856.643	0.0159957
856.721	0.0159676
856.799	0.0160433
856.878	0.0159724
856.956	0.0159457
857.034	0.0160462
857.112	0.0159759
857.190	0.0160149
857.268	0.0159873
857.346	0.0160599
857.424	0.0159620
857.503	0.0160593
857.581	0.0159816
857.659	0.0159116
857.737	0.0161459
857.815	0.0161424
857.893	0.0160305
857.971	0.0160890
858.049	0.0160108
858.128	0.0161645
858.206	0.0160021
858.284	0.0160733
858.362	0.0161535
858.440	0.0161602
858.518	0.0161805
858.596	0.0164016
858.674	0.0161604
858.753	0.0162943
858.831	0.0162122
858.909	0.0162546
858.987	0.0162006
859.065	0.0161941
859.143	0.0162722
859.221	0.0161510
859.299	0.0162066
859.378	0.0163795
859.456	0.0162919
859.534	0.0162426
859.612	0.0162662
859.690	0.0161934
859.768	0.0162207
859.846	0.0161378
859.924	0.0161618
860.003	0.0158903
860.081	0.0162266
860.159	0.0160931
860.237	0.0160570
860.315	0.0160231
860.393	0.0160738
860.471	0.0161509
860.549	0.0160367
860.628	0.0159325
860.706	0.0159387
860.784	0.0159843
860.862	0.0160265
860.940	0.0160000
861.018	0.0160303
861.096	0.0160867
861.174	0.0158761
861.253	0.0160428
861.331	0.0160722
861.409	0.0159205
861.487	0.0160287
861.565	0.0159193
861.643	0.0159766
861.721	0.0160722
861.799	0.0160545
861.878	0.0160206
861.956	0.0159695
862.034	0.0160268
862.112	0.0160152
862.190	0.0160152
862.268	0.0159844
862.346	0.0160959
862.424	0.0160423
862.503	0.0160334
862.581	0.0160880
862.659	0.0160601
862.737	0.0160715
862.815	0.0161545
862.893	0.0160141
862.971	0.0160417
863.049	0.0161199
863.128	0.0161200
863.206	0.0160591
863.284	0.0161868
863.362	0.0160961
863.440	0.0161398
863.518	0.0160897
863.596	0.0161188
863.674	0.0161810
863.753	0.0162613
863.831	0.0161024
863.909	0.0161674
863.987	0.0160646
864.065	0.0159174
864.143	0.0160870
864.221	0.0161369
864.299	0.0161330
864.378	0.0161849
864.456	0.0162092
864.534	0.0160665
864.612	0.0161980
864.690	0.0160367
864.768	0.0160522
864.846	0.0160983
864.924	0.0159742
865.003	0.0159306
865.081	0.0160983
865.159	0.0160795
865.237	0.0160149
865.315	0.0160333
865.393	0.0160721
865.471	0.0160771
865.549	0.0162283
865.628	0.0160360
865.706	0.0160024
865.784	0.0160622
865.862	0.0159940
865.940	0.0159118
866.018	0.0160124
866.096	0.0159959
866.174	0.0159812
866.253	0.0158550
866.331	0.0159622
866.409	0.0158607
866.487	0.0160735
866.565	0.0160602
866.643	0.0158817
866.721	0.0159570
866.799	0.0159478
866.878	0.0158785
866.956	0.0159368
867.034	0.0159523
867.112	0.0160500
867.190	0.0159194
867.268	0.0160141
867.346	0.0160883
867.424	0.0157822
867.503	0.0159495
867.581	0.0161304
867.659	0.0159608
867.737	0.0158922
867.815	0.0160088
867.893	0.0160056
867.971	0.0160811
868.049	0.0161933
868.128	0.0161702
868.206	0.0161142
868.284	0.0161874
868.362	0.0160997
868.440	0.0161541
868.518	0.0162154
868.596	0.0162473
868.674	0.0161853
868.753	0.0161757
868.831	0.0161256
868.909	0.0162381
868.987	0.0161393
869.065	0.0161794
869.143	0.0161854
869.221	0.0158440
869.299	0.0160545
869.378	0.0160528
869.456	0.0160684
869.534	0.0160612
869.612	0.0160674
869.690	0.0160174
869.768	0.0158881
869.846	0.0159608
869.924	0.0162044
870.003	0.0161703
870.081	0.0159754
870.159	0.0160583
870.237	0.0159053
870.315	0.0159363
870.393	0.0160951
870.471	0.0160987
870.549	0.0160063
870.628	0.0159951
870.706	0.0161417
870.784	0.0159647
870.862	0.0159644
870.940	0.0161568
871.018	0.0158838
871.096	0.0159380
871.174	0.0159843
871.253	0.0162677
871.331	0.0160884
871.409	0.0158828
871.487	0.0159955
871.565	0.0159638
871.643	0.0160653
871.721	0.0160850
871.799	0.0159837
871.878	0.0159451
871.956	0.0159808
872.034	0.0160417
872.112	0.0161012
872.190	0.0160035
872.268	0.0160381
872.346	0.0160148
872.424	0.0161050
872.503	0.0160963
872.581	0.0161956
872.659	0.0161330
872.737	0.0160153
872.815	0.0160759
872.893	0.0160223
872.971	0.0159833
873.049	0.0160094
873.128	0.0160226
873.206	0.0161322
873.284	0.0161582
873.362	0.0161207
873.440	0.0161452
873.518	0.0160464
873.596	0.0161293
873.674	0.0161292
873.753	0.0160034
873.831	0.0160477
873.909	0.0161267
873.987	0.0161234
874.065	0.0161008
874.143	0.0160889
874.221	0.0160833
874.299	0.0161758
874.378	0.0160242
874.456	0.0161018
874.534	0.0160218
874.612	0.0160760
874.690	0.0161041
874.768	0.0161388
874.846	0.0160863
874.924	0.0160248
875.003	0.0160867
875.081	0.0160382
875.159	0.0161108
875.237	0.0161160
875.315	0.0160464
875.393	0.0160069
875.471	0.0159246
875.549	0.0159259
875.628	0.0160243
875.706	0.0159335
875.784	0.0159220
875.862	0.0160201
875.940	0.0159245
876.018	0.0158779
876.096	0.0159206
876.174	0.0158963
876.253	0.0160401
876.331	0.0159869
876.409	0.0158519
876.487	0.0159898
876.565	0.0159616
876.643	0.0159848
876.721	0.0158028
876.799	0.0159451
876.878	0.0160703
876.956	0.0159608
877.034	0.0160888
877.112	0.0160758
877.190	0.0160650
877.268	0.0161033
877.346	0.0161240
877.424	0.0159565
877.503	0.0161790
877.581	0.0160590
877.659	0.0160689
877.737	0.0160893
877.815	0.0161485
877.893	0.0160690
877.971	0.0162615
878.049	0.0161614
878.128	0.0159585
878.206	0.0160770
878.284	0.0160864
878.362	0.0160513
878.440	0.0160860
878.518	0.0160318
878.596	0.0161100
878.674	0.0161317
878.753	0.0159861
878.831	0.0159536
878.909	0.0161091
878.987	0.0160684
879.065	0.0160477
879.143	0.0161334
879.221	0.0160048
879.299	0.0159137
879.378	0.0159360
879.456	0.0160556
879.534	0.0159976
879.612	0.0160075
879.690	0.0160427
879.768	0.0160741
879.846	0.0160139
879.924	0.0160240
880.003	0.0161250
880.081	0.0159927
880.159	0.0160010
880.237	0.0160847
880.315	0.0159929
880.393	0.0161235
880.471	0.0161296
880.549	0.0159380
880.628	0.0160193
880.706	0.0160213
880.784	0.0160319
880.862	0.0160744
880.940	0.0160045
881.018	0.0160664
881.096	0.0160631
881.174	0.0160379
881.253	0.0161471
881.331	0.0160564
881.409	0.0159022
881.487	0.0160110
881.565	0.0160298
881.643	0.0160039
881.721	0.0160154
881.799	0.0159731
881.878	0.0160361
881.956	0.0160194
882.034	0.0159383
882.112	0.0160154
882.190	0.0160156
882.268	0.0159083
882.346	0.0160403
882.424	0.0159873
882.503	0.0158872
882.581	0.0161208
882.659	0.0161713
882.737	0.0160712
882.815	0.0160278
882.893	0.0159728
882.971	0.0160206
883.049	0.0161005
883.128	0.0160948
883.206	0.0159356
883.284	0.0161317
883.362	0.0161401
883.440	0.0161294
883.518	0.0161443
883.596	0.0161498
883.674	0.0161131
883.753	0.0161343
883.831	0.0162637
883.909	0.0161335
883.987	0.0162342
884.065	0.0161594
884.143	0.0161687
884.221	0.0161974
884.299	0.0161873
884.378	0.0160114
884.456	0.0160603
884.534	0.0160164
884.612	0.0159655
884.690	0.0159702
884.768	0.0160650
884.846	0.0160123
884.924	0.0159151
885.003	0.0158816
885.081	0.0159281
885.159	0.0160358
885.237	0.0159782
885.315	0.0158549
885.393	0.0159322
885.471	0.0158578
885.549	0.0160438
885.628	0.0159724
885.706	0.0159399
885.784	0.0158381
885.862	0.0159641
885.940	0.0159571
886.018	0.0158933
886.096	0.0158787
886.174	0.0159933
886.253	0.0159286
886.331	0.0159160
886.409	0.0160104
886.487	0.0159929
886.565	0.0161101
886.643	0.0159670
886.721	0.0159762
886.799	0.0159393
886.878	0.0161338
886.956	0.0159281
887.034	0.0158669
887.112	0.0160059
887.190	0.0159478
887.268	0.0159348
887.346	0.0158999
887.424	0.0159044
887.503	0.0158681
887.581	0.0157900
887.659	0.0159113
887.737	0.0158794
887.815	0.0158308
887.893	0.0159766
887.971	0.0159190
888.049	0.0158921
888.128	0.0158407
888.206	0.0159589
888.284	0.0159750
888.362	0.0160165
888.440	0.0160345
888.518	0.0158235
888.596	0.0158389
888.674	0.0159410
888.753	0.0160869
888.831	0.0158649
888.909	0.0160035
888.987	0.0160383
889.065	0.0159539
889.143	0.0159332
889.221	0.0161358
889.299	0.0159559
889.378	0.0161608
889.456	0.0159996
889.534	0.0160030
889.612	0.0159636
889.690	0.0160005
889.768	0.0160419
889.846	0.0159205
889.924	0.0160511
890.003	0.0159492
890.081	0.0161198
890.159	0.0160406
890.237	0.0159807
890.315	0.0159290
890.393	0.0158843
890.471	0.0158960
890.549	0.0160345
890.628	0.0160676
890.706	0.0159325
890.784	0.0159525
890.862	0.0158835
890.940	0.0159792
891.018	0.0159516
891.096	0.0159107
891.174	0.0159961
891.253	0.0159977
891.331	0.0159612
891.409	0.0158647
891.487	0.0160023
891.565	0.0159417
891.643	0.0159060
891.721	0.0159630
891.799	0.0160002
891.878	0.0160839
891.956	0.0160920
892.034	0.0160487
892.112	0.0161745
892.190	0.0160236
892.268	0.0161863
892.346	0.0161111
892.424	0.0161148
892.503	0.0162631
892.581	0.0160754
892.659	0.0160486
892.737	0.0161472
892.815	0.0162307
892.893	0.0161655
892.971	0.0162170
893.049	0.0162865
893.128	0.0160780
893.206	0.0162337
893.284	0.0161199
893.362	0.0161224
893.440	0.0160533
893.518	0.0162276
893.596	0.0161835
893.674	0.0161292
893.753	0.0160446
893.831	0.0160874
893.909	0.0162029
893.987	0.0160569
894.065	0.0160411
894.143	0.0161864
894.221	0.0160660
894.299	0.0159618
894.378	0.0160961
894.456	0.0160995
894.534	0.0160411
894.612	0.0160506
894.690	0.0159846
894.768	0.0160483
894.846	0.0161253
894.924	0.0160875
895.003	0.0160848
895.081	0.0160408
895.159	0.0158996
895.237	0.0159460
895.315	0.0162447
895.393	0.0161256
895.471	0.0160497
895.549	0.0160897
895.628	0.0160409
895.706	0.0159789
895.784	0.0161422
895.862	0.0161396
895.940	0.0160416
896.018	0.0159173
896.096	0.0160493
896.174	0.0161155
896.253	0.0160597
896.331	0.0160072
896.409	0.0159805
896.487	0.0160675
896.565	0.0161550
896.643	0.0159161
896.721	0.0160693
896.799	0.0161823
896.878	0.0160227
896.956	0.0161581
897.034	0.0160481
897.112	0.0160232
897.190	0.0160699
897.268	0.0160831
897.346	0.0161275
897.424	0.0161403
897.503	0.0160472
897.581	0.0161043
897.659	0.0160175
897.737	0.0160799
897.815	0.0159998
897.893	0.0160578
897.971	0.0160527
898.049	0.0160405
898.128	0.0160547
898.206	0.0160099
898.284	0.0160703
898.362	0.0160860
898.440	0.0160043
898.518	0.0161104
898.596	0.0161183
898.674	0.0160370
898.753	0.0160133
898.831	0.0160362
898.909	0.0160691
898.987	0.0160960
899.065	0.0160547
899.143	0.0160809
899.221	0.0160935
899.299	0.0160915
899.378	0.0160540
899.456	0.0160986
899.534	0.0160436
899.612	0.0160149
899.690	0.0160912
899.768	0.0160427
899.846	0.0159801
899.924	0.0159904
900.003	0.0160694
900.081	0.0160986
900.159	0.0160686
900.237	0.0159608
900.315	0.0161062
900.393	0.0161368
900.471	0.0159730
900.549	0.0160017
900.628	0.0160654
900.706	0.0160625
900.784	0.0159974
900.862	0.0160781
900.940	0.0160786
901.018	0.0161021
901.096	0.0160255
901.174	0.0160518
901.253	0.0160448
901.331	0.0161430
901.409	0.0160063
901.487	0.0160270
901.565	0.0160725
901.643	0.0160613
901.721	0.0159983
901.799	0.0161526
901.878	0.0161889
901.956	0.0159991
902.034	0.0160556
902.112	0.0160507
902.190	0.0160014
902.268	0.0160078
902.346	0.0159718
902.424	0.0160129
902.503	0.0160192
902.581	0.0159753
902.659	0.0159180
902.737	0.0160094
902.815	0.0160125
902.893	0.0160834
902.971	0.0160502
903.049	0.0159405
903.128	0.0159566
903.206	0.0160895
903.284	0.0160585
903.362	0.0159852
903.440	0.0159796
903.518	0.0160029
903.596	0.0159388
903.674	0.0159022
903.753	0.0159605
903.831	0.0160074
903.909	0.0159664
903.987	0.0159497
904.065	0.0160075
904.143	0.0159374
904.221	0.0159766
904.299	0.0159576
904.378	0.0158861
904.456	0.0159290
904.534	0.0159758
904.612	0.0159227
904.690	0.0160517
904.768	0.0159804
904.846	0.0159333
904.924	0.0159782
905.003	0.0159547
905.081	0.0158932
905.159	0.0159563
905.237	0.0157832
905.315	0.0157732
905.393	0.0159007
905.471	0.0160155
905.549	0.0159659
905.628	0.0159965
905.706	0.0158617
905.784	0.0158793
905.862	0.0160294
905.940	0.0159704
906.018	0.0159769
906.096	0.0159702
906.174	0.0161147
906.253	0.0161411
906.331	0.0159704
906.409	0.0158012
906.487	0.0159527
906.565	0.0160321
906.643	0.0160025
906.721	0.0159544
906.799	0.0160213
906.878	0.0160008
906.956	0.0159142
907.034	0.0159397
907.112	0.0160019
907.190	0.0159753
907.268	0.0160667
907.346	0.0159566
907.424	0.0159129
907.503	0.0158736
907.581	0.0160178
907.659	0.0158981
907.737	0.0158331
907.815	0.0159705
907.893	0.0159750
907.971	0.0159975
908.049	0.0159854
908.128	0.0160521
908.206	0.0159681
908.284	0.0159978
908.362	0.0159204
908.440	0.0159156
908.518	0.0159842
908.596	0.0158976
908.674	0.0158025
908.753	0.0158459
908.831	0.0160402
908.909	0.0159832
908.987	0.0159437
909.065	0.0157841
909.143	0.0158160
909.221	0.0158630
909.299	0.0159026
909.378	0.0159078
909.456	0.0158414
909.534	0.0159002
909.612	0.0159187
909.690	0.0159817
909.768	0.0157391
909.846	0.0158644
909.924	0.0159158
910.003	0.0159120
910.081	0.0159760
910.159	0.0160050
910.237	0.0160173
910.315	0.0159738
910.393	0.0160115
910.471	0.0159351
910.549	0.0159032
910.628	0.0159619
910.706	0.0159919
910.784	0.0158569
910.862	0.0160431
910.940	0.0160589
911.018	0.0160516
911.096	0.0158904
911.174	0.0158618
911.253	0.0159970
911.331	0.0158893
911.409	0.0159549
911.487	0.0159327
911.565	0.0158637
911.643	0.0159036
911.721	0.0158796
911.799	0.0158744
911.878	0.0158894
911.956	0.0157991
912.034	0.0158425
912.112	0.0158940
912.190	0.0159084
912.268	0.0158465
912.346	0.0159871
912.424	0.0158903
912.503	0.0158458
912.581	0.0158662
912.659	0.0158044
912.737	0.0159000
912.815	0.0158067
912.893	0.0159993
912.971	0.0159103
913.049	0.0158514
913.128	0.0159653
913.206	0.0159838
913.284	0.0159828
913.362	0.0161208
913.440	0.0160117
913.518	0.0159595
913.596	0.0160268
913.674	0.0160495
913.753	0.0161163
913.831	0.0160561
913.909	0.0160146
913.987	0.0160369
914.065	0.0161015
914.143	0.0160509
914.221	0.0160728
914.299	0.0159901
914.378	0.0160206
914.456	0.0158408
914.534	0.0159324
914.612	0.0159180
914.690	0.0158357
914.768	0.0158093
914.846	0.0159455
914.924	0.0159699
915.003	0.0159151
915.081	0.0159699
915.159	0.0159827
915.237	0.0156932
915.315	0.0158295
915.393	0.0160425
915.471	0.0159914
915.549	0.0158150
915.628	0.0159032
915.706	0.0159669
915.784	0.0159662
915.862	0.0158017
915.940	0.0159980
916.018	0.0159017
916.096	0.0160905
916.174	0.0160345
916.253	0.0160732
916.331	0.0159744
916.409	0.0160749
916.487	0.0160609
916.565	0.0161095
916.643	0.0160307
916.721	0.0161997
916.799	0.0161127
916.878	0.0159468
916.956	0.0160789
917.034	0.0162066
917.112	0.0160641
917.190	0.0158929
917.268	0.0159949
917.346	0.0160291
917.424	0.0161021
917.503	0.0160933
917.581	0.0160645
917.659	0.0158989
917.737	0.0160725
917.815	0.0161129
917.893	0.0160435
917.971	0.0161190
918.049	0.0160103
918.128	0.0160928
918.206	0.0160340
918.284	0.0161265
918.362	0.0162086
918.440	0.0161027
918.518	0.0160661
918.596	0.0161025
918.674	0.0159765
918.753	0.0160257
918.831	0.0159805
918.909	0.0161913
918.987	0.0162182
919.065	0.0160558
919.143	0.0160600
919.221	0.0159415
919.299	0.0159602
919.378	0.0160540
919.456	0.0159646
919.534	0.0159161
919.612	0.0160468
919.690	0.0161507
919.768	0.0159250
919.846	0.0159479
919.924	0.0160306
920.003	0.0159198
920.081	0.0159945
920.159	0.0159725
920.237	0.0159631
920.315	0.0160137
920.393	0.0160437
920.471	0.0159674
920.549	0.0159793
920.628	0.0160379
920.706	0.0160365
920.784	0.0159656
920.862	0.0161023
920.940	0.0160799
921.018	0.0160957
921.096	0.0160193
921.174	0.0159370
921.253	0.0160657
921.331	0.0160729
921.409	0.0160784
921.487	0.0159303
921.565	0.0160878
921.643	0.0163142
921.721	0.0160881
921.799	0.0160196
921.878	0.0162108
921.956	0.0160652
922.034	0.0161868
922.112	0.0159821
922.190	0.0160857
922.268	0.0161590
922.346	0.0159641
922.424	0.0160594
922.503	0.0161021
922.581	0.0162784
922.659	0.0162757
922.737	0.0160865
922.815	0.0160689
922.893	0.0161990
922.971	0.0160403
923.049	0.0160508
923.128	0.0160275
923.206	0.0161404
923.284	0.0160517
923.362	0.0158858
923.440	0.0159766
923.518	0.0159874
923.596	0.0160876
923.674	0.0158730
923.753	0.0158086
923.831	0.0157761
923.909	0.0158461
923.987	0.0159914
924.065	0.0158338
924.143	0.0158972
924.221	0.0158379
924.299	0.0158543
924.378	0.0158823
924.456	0.0158492
924.534	0.0160042
924.612	0.0160071
924.690	0.0159954
924.768	0.0158372
924.846	0.0159570
924.924	0.0159925
925.003	0.0159610
925.081	0.0159498
925.159	0.0159554
925.237	0.0158817
925.315	0.0160329
925.393	0.0160263
925.471	0.0160052
925.549	0.0159869
925.628	0.0158391
925.706	0.0160024
925.784	0.0160413
925.862	0.0159488
925.940	0.0157649
926.018	0.0159280
926.096	0.0160242
926.174	0.0160178
926.253	0.0158399
926.331	0.0159409
926.409	0.0159095
926.487	0.0160013
926.565	0.0159432
926.643	0.0160126
926.721	0.0159617
926.799	0.0158879
926.878	0.0160334
926.956	0.0159678
927.034	0.0159393
927.112	0.0160308
927.190	0.0158453
927.268	0.0159948
927.346	0.0159521
927.424	0.0159208
927.503	0.0159026
927.581	0.0159054
927.659	0.0158224
927.737	0.0158493
927.815	0.0159821
927.893	0.0157693
927.971	0.0158820
928.049	0.0159790
928.128	0.0159045
928.206	0.0159431
928.284	0.0159558
928.362	0.0158118
928.440	0.0159245
928.518	0.0159702
928.596	0.0159209
928.674	0.0158533
928.753	0.0158465
928.831	0.0159175
928.909	0.0160704
928.987	0.0159113
929.065	0.0158815
929.143	0.0158015
929.221	0.0158284
929.299	0.0158626
929.378	0.0159149
929.456	0.0159040
929.534	0.0159158
929.612	0.0158053
929.690	0.0158185
929.768	0.0159820
929.846	0.0158024
929.924	0.0157150
930.003	0.0158006
930.081	0.0159195
930.159	0.0156966
930.237	0.0158438
930.315	0.0158971
930.393	0.0157667
930.471	0.0158911
930.549	0.0156998
930.628	0.0158337
930.706	0.0158407
930.784	0.0160251
930.862	0.0158489
930.940	0.0158479
931.018	0.0159357
931.096	0.0158218
931.174	0.0158528
931.253	0.0158865
931.331	0.0158571
931.409	0.0158501
931.487	0.0158090
931.565	0.0158691
931.643	0.0159368
931.721	0.0158970
931.799	0.0159080
931.878	0.0159438
931.956	0.0159924
932.034	0.0157508
932.112	0.0158500
932.190	0.0160281
932.268	0.0159885
932.346	0.0159927
932.424	0.0159054
932.503	0.0158677
932.581	0.0159811
932.659	0.0158459
932.737	0.0159465
932.815	0.0158410
932.893	0.0158173
932.971	0.0157668
933.049	0.0158303
933.128	0.0157446
933.206	0.0157211
933.284	0.0159495
933.362	0.0160036
933.440	0.0158486
933.518	0.0157643
933.596	0.0159907
933.674	0.0160041
933.753	0.0159389
933.831	0.0158974
933.909	0.0160523
933.987	0.0160294
934.065	0.0160387
934.143	0.0161015
934.221	0.0160632
934.299	0.0159198
934.378	0.0159834
934.456	0.0160217
934.534	0.0160062
934.612	0.0160206
934.690	0.0159678
934.768	0.0159809
934.846	0.0159682
934.924	0.0160101
935.003	0.0160566
935.081	0.0160426
935.159	0.0161146
935.237	0.0159648
935.315	0.0160844
935.393	0.0160525
935.471	0.0158878
935.549	0.0161425
935.628	0.0160958
935.706	0.0160875
935.784	0.0159932
935.862	0.0159998
935.940	0.0160818
936.018	0.0159702
936.096	0.0160401
936.174	0.0159187
936.253	0.0160448
936.331	0.0161049
936.409	0.0159183
936.487	0.0159806
936.565	0.0158694
936.643	0.0160045
936.721	0.0159529
936.799	0.0160989
936.878	0.0161007
936.956	0.0159853
937.034	0.0160934
937.112	0.0160090
937.190	0.0159524
937.268	0.0160239
937.346	0.0160522
937.424	0.0160521
937.503	0.0160623
937.581	0.0159712
937.659	0.0159582
937.737	0.0158837
937.815	0.0158672
937.893	0.0159715
937.971	0.0160354
938.049	0.0159479
938.128	0.0159022
938.206	0.0160031
938.284	0.0161319
938.362	0.0160311
938.440	0.0160440
938.518	0.0160174
938.596	0.0160460
938.674	0.0159431
938.753	0.0161137
938.831	0.0157691
938.909	0.0160022
938.987	0.0160603
939.065	0.0160412
939.143	0.0159563
939.221	0.0159723
939.299	0.0159449
939.378	0.0160857
939.456	0.0161971
939.534	0.0161100
939.612	0.0160062
939.690	0.0159836
939.768	0.0161240
939.846	0.0162829
939.924	0.0162027
940.003	0.0162122
940.081	0.0161490
940.159	0.0160753
940.237	0.0160842
940.315	0.0162276
940.393	0.0161236
940.471	0.0161964
940.549	0.0161007
940.628	0.0161120
940.706	0.0161752
940.784	0.0160660
940.862	0.0160234
940.940	0.0161012
941.018	0.0161003
941.096	0.0160205
941.174	0.0163288
941.253	0.0161735
941.331	0.0161660
941.409	0.0161957
941.487	0.0164120
941.565	0.0162492
941.643	0.0161373
941.721	0.0161884
941.799	0.0162217
941.878	0.0161904
941.956	0.0163601
942.034	0.0162128
942.112	0.0162440
942.190	0.0161994
942.268	0.0161932
942.346	0.0162339
942.424	0.0160086
942.503	0.0161563
942.581	0.0162467
942.659	0.0161931
942.737	0.0160680
942.815	0.0161559
942.893	0.0163199
942.971	0.0162255
943.049	0.0162026
943.128	0.0162647
943.206	0.0162817
943.284	0.0161319
943.362	0.0162138
943.440	0.0160828
943.518	0.0161969
943.596	0.0162029
943.674	0.0162547
943.753	0.0161968
943.831	0.0162469
943.909	0.0162235
943.987	0.0161290
944.065	0.0163274
944.143	0.0161100
944.221	0.0161587
944.299	0.0162881
944.378	0.0161462
944.456	0.0160807
944.534	0.0160979
944.612	0.0161865
944.690	0.0160663
944.768	0.0162025
944.846	0.0162682
944.924	0.0162070
945.003	0.0161484
945.081	0.0161542
945.159	0.0161710
945.237	0.0161053
945.315	0.0159142
945.393	0.0160791
945.471	0.0161153
945.549	0.0161156
945.628	0.0160896
945.706	0.0159911
945.784	0.0160265
945.862	0.0159734
945.940	0.0159718
946.018	0.0160114
946.096	0.0159688
946.174	0.0159042
946.253	0.0158392
946.331	0.0158051
946.409	0.0159759
946.487	0.0159753
946.565	0.0160235
946.643	0.0159495
946.721	0.0159914
946.799	0.0161165
946.878	0.0159058
946.956	0.0158740
947.034	0.0160698
947.112	0.0159757
947.190	0.0159092
947.268	0.0160168
947.346	0.0161337
947.424	0.0160750
947.503	0.0159941
947.581	0.0159254
947.659	0.0159344
947.737	0.0160252
947.815	0.0160361
947.893	0.0160655
947.971	0.0160744
948.049	0.0160193
948.128	0.0161330
948.206	0.0160637
948.284	0.0161024
948.362	0.0160811
948.440	0.0161173
948.518	0.0161881
948.596	0.0161189
948.674	0.0159832
948.753	0.0160093
948.831	0.0161253
948.909	0.0159589
948.987	0.0160939
949.065	0.0160789
949.143	0.0161304
949.221	0.0160808
949.299	0.0160207
949.378	0.0161246
949.456	0.0159564
949.534	0.0158844
949.612	0.0161176
949.690	0.0160596
949.768	0.0160126
949.846	0.0157624
949.924	0.0158694
